##NAMES=Parahopeite
##RRUFFID=R050463
##IDEAL CHEMISTRY=Zn^2+^_3_(P^5+^O_4_)_2_&#183;4H_2_O
##LOCALITY=Broken Hill mine, Kabwe, Zambia
##OWNER=RRUFF
##SOURCE=University of Arizona Mineral Museum
##DESCRIPTION=Colorless elongated subparallel aggregate of crystals
##STATUS=The identification of this mineral has been confirmed by X-ray diffraction and chemical analysis
##URL=rruff.info/R050463
##MEASURED CHEMISTRY=Zn_3.00_(P_1.00_O_4_)_2_Â·4H_2_O
93.78320, 190.8605
94.26532, 187.9774
94.74744, 188.7534
95.22955, 192.7431
95.71167, 198.3859
96.19379, 202.3386
96.67590, 205.2024
97.15802, 206.3686
97.64014, 205.3729
98.12225, 202.7806
98.60437, 199.4667
99.08649, 195.6649
99.56860, 191.5065
100.0507, 186.9684
100.5328, 181.4139
101.0150, 176.5155
101.4971, 173.4869
101.9792, 172.2972
102.4613, 172.2620
102.9434, 173.3903
103.4255, 175.4309
103.9077, 178.6593
104.3898, 183.4338
104.8719, 188.6567
105.3540, 192.2530
105.8361, 194.3935
106.3182, 194.3069
106.8004, 191.2900
107.2825, 186.5388
107.7646, 181.1640
108.2467, 175.6768
108.7288, 170.1961
109.2109, 166.6189
109.6931, 165.5452
110.1752, 165.6652
110.6573, 166.8865
111.1394, 169.0701
111.6215, 172.0118
112.1036, 175.5092
112.5858, 179.6354
113.0679, 184.5389
113.5500, 190.3825
114.0321, 196.7638
114.5142, 204.0388
114.9964, 212.2529
115.4785, 219.7041
115.9606, 224.5368
116.4427, 226.9501
116.9248, 226.5488
117.4069, 222.7397
117.8891, 216.0600
118.3712, 207.2653
118.8533, 195.7589
119.3354, 183.2115
119.8175, 170.7198
120.2996, 158.3075
120.7818, 147.1472
121.2639, 138.0794
121.7460, 131.1275
122.2281, 125.5932
122.7102, 121.9734
123.1923, 119.4931
123.6745, 117.7287
124.1566, 116.6443
124.6387, 116.6966
125.1208, 118.8830
125.6029, 124.8144
126.0850, 129.4809
126.5672, 134.7898
127.0493, 137.8200
127.5314, 135.4941
128.0135, 126.6811
128.4956, 113.5099
128.9777, 101.7061
129.4599, 90.93435
129.9420, 82.27122
130.4241, 76.35634
130.9062, 72.50328
131.3883, 69.82838
131.8705, 67.92300
132.3526, 66.71129
132.8347, 65.72029
133.3168, 64.90403
133.7989, 64.28503
134.2810, 63.86341
134.7632, 63.64227
135.2453, 63.65143
135.7274, 64.01124
136.2095, 64.61789
136.6916, 65.06065
137.1737, 65.19902
137.6559, 65.23952
138.1380, 65.39355
138.6201, 65.67787
139.1022, 65.99898
139.5843, 66.26162
140.0664, 66.52575
140.5486, 66.88360
141.0307, 67.34319
141.5128, 67.92767
141.9949, 68.68714
142.4770, 69.58443
142.9591, 70.76413
143.4413, 72.34365
143.9234, 74.19479
144.4055, 76.10744
144.8876, 77.94893
145.3697, 79.71628
145.8518, 81.38268
146.3340, 82.84243
146.8161, 84.28219
147.2982, 85.69850
147.7803, 87.13121
148.2624, 88.65733
148.7445, 90.38091
149.2267, 92.35275
149.7088, 94.26501
150.1909, 96.05627
150.6730, 97.84867
151.1551, 99.58324
151.6372, 101.3140
152.1194, 103.2849
152.6015, 105.8339
153.0836, 109.1922
153.5657, 112.6085
154.0478, 116.1365
154.5299, 119.7011
155.0121, 123.0513
155.4942, 126.0779
155.9763, 129.3114
156.4584, 133.7276
156.9405, 139.3397
157.4227, 145.1295
157.9048, 150.7697
158.3869, 156.4008
158.8690, 162.2821
159.3511, 168.4622
159.8332, 175.0389
160.3154, 182.1055
160.7975, 189.6459
161.2796, 197.4599
161.7617, 205.4715
162.2438, 213.7175
162.7259, 222.0954
163.2081, 231.5804
163.6902, 240.3337
164.1723, 247.5603
164.6544, 253.2022
165.1365, 256.2365
165.6186, 255.6263
166.1008, 251.2451
166.5829, 243.6281
167.0650, 230.6895
167.5471, 216.0488
168.0292, 201.3664
168.5113, 187.1877
168.9935, 173.8721
169.4756, 162.0005
169.9577, 151.5568
170.4398, 142.8043
170.9219, 135.9616
171.4040, 130.3779
171.8862, 125.5255
172.3683, 121.2069
172.8504, 117.5864
173.3325, 115.0375
173.8146, 114.3942
174.2967, 114.0118
174.7789, 113.9138
175.2610, 114.0258
175.7431, 114.2677
176.2252, 114.6043
176.7073, 115.0535
177.1894, 115.6899
177.6716, 116.9273
178.1537, 117.8359
178.6358, 118.4275
179.1179, 118.5675
179.6000, 117.9594
180.0821, 116.3915
180.5643, 114.0363
181.0464, 111.4766
181.5285, 108.6059
182.0106, 105.6948
182.4927, 102.8087
182.9749, 99.96435
183.4570, 97.21941
183.9391, 94.53938
184.4212, 92.04923
184.9033, 89.94367
185.3854, 88.34509
185.8676, 86.93420
186.3497, 85.52386
186.8318, 84.11742
187.3139, 82.59473
187.7960, 80.85852
188.2781, 78.98177
188.7603, 77.02998
189.2424, 74.97781
189.7245, 72.92133
190.2066, 70.95647
190.6887, 69.05698
191.1708, 67.34335
191.6530, 65.76540
192.1351, 64.42086
192.6172, 63.47935
193.0993, 63.04319
193.5814, 62.88626
194.0635, 62.56176
194.5457, 61.97785
195.0278, 61.40305
195.5099, 60.88875
195.9920, 60.41455
196.4741, 59.95027
196.9562, 59.47995
197.4384, 59.03397
197.9205, 58.69583
198.4026, 58.48727
198.8847, 58.38124
199.3668, 58.42519
199.8489, 58.54306
200.3311, 58.63807
200.8132, 58.65904
201.2953, 58.64846
201.7774, 58.77412
202.2595, 59.45192
202.7416, 59.79820
203.2238, 59.51586
203.7059, 58.89299
204.1880, 58.32058
204.6701, 58.00719
205.1522, 57.90193
205.6344, 57.78548
206.1165, 57.57445
206.5986, 57.44495
207.0807, 57.41259
207.5628, 57.48890
208.0449, 57.72704
208.5271, 58.18615
209.0092, 58.78260
209.4913, 59.15857
209.9734, 59.14681
210.4555, 59.16565
210.9376, 59.42719
211.4198, 59.84462
211.9019, 60.17450
212.3840, 60.27671
212.8661, 60.21926
213.3482, 60.20018
213.8303, 60.18232
214.3125, 60.25148
214.7946, 60.45374
215.2767, 60.78478
215.7588, 61.23352
216.2409, 61.87620
216.7230, 62.57892
217.2052, 63.09831
217.6873, 63.35048
218.1694, 63.58630
218.6515, 63.97780
219.1336, 64.52422
219.6157, 65.17767
220.0979, 66.09249
220.5800, 66.99344
221.0621, 67.51939
221.5442, 67.54609
222.0263, 67.54870
222.5084, 68.05234
222.9906, 69.11122
223.4727, 70.10285
223.9548, 70.84668
224.4369, 71.42937
224.9190, 71.85762
225.4011, 72.12776
225.8833, 72.36845
226.3654, 72.80355
226.8475, 73.52469
227.3296, 73.98392
227.8117, 73.65820
228.2938, 73.29318
228.7760, 73.39961
229.2581, 74.07137
229.7402, 74.95859
230.2223, 75.59595
230.7044, 75.90029
231.1866, 76.22151
231.6687, 76.56088
232.1508, 76.94957
232.6329, 77.38238
233.1150, 77.87121
233.5971, 78.46559
234.0793, 79.28413
234.5614, 80.51445
235.0435, 81.49543
235.5256, 81.99387
236.0077, 82.43923
236.4898, 83.08701
236.9720, 83.98093
237.4541, 85.00821
237.9362, 86.00967
238.4183, 86.90714
238.9004, 87.97119
239.3825, 89.24059
239.8647, 90.60545
240.3468, 92.04639
240.8289, 93.53658
241.3110, 94.97639
241.7931, 96.26357
242.2752, 97.36166
242.7574, 98.35514
243.2395, 98.96287
243.7216, 99.68490
244.2037, 100.9035
244.6858, 102.6272
245.1679, 104.5474
245.6501, 106.3304
246.1322, 107.9344
246.6143, 109.5441
247.0964, 111.1210
247.5785, 112.7373
248.0606, 114.4767
248.5428, 116.3242
249.0249, 118.1871
249.5070, 119.9858
249.9891, 121.7281
250.4712, 123.3143
250.9533, 124.6549
251.4355, 125.9247
251.9176, 127.2625
252.3997, 128.6671
252.8818, 130.0583
253.3639, 131.4423
253.8460, 132.7806
254.3282, 133.5575
254.8103, 133.2232
255.2924, 132.7770
255.7745, 133.1150
256.2566, 134.1585
256.7387, 134.8719
257.2209, 134.3814
257.7030, 132.8618
258.1851, 131.8191
258.6672, 131.9031
259.1493, 131.9408
259.6314, 130.9706
260.1136, 129.0885
260.5957, 127.2306
261.0778, 125.9002
261.5599, 125.0340
262.0420, 124.2661
262.5241, 123.7958
263.0063, 123.1844
263.4884, 122.0066
263.9705, 120.3267
264.4526, 118.7262
264.9347, 117.5997
265.4168, 116.6350
265.8990, 115.2019
266.3811, 112.9983
266.8632, 110.9368
267.3453, 109.8887
267.8275, 109.7077
268.3096, 109.1940
268.7917, 107.7698
269.2738, 105.9275
269.7559, 104.3461
270.2380, 103.0564
270.7202, 101.9147
271.2023, 100.8239
271.6844, 99.79534
272.1665, 98.91582
272.6486, 98.35722
273.1307, 97.79355
273.6129, 96.72055
274.0950, 95.14262
274.5771, 93.95359
275.0592, 93.95937
275.5413, 94.95339
276.0234, 95.71641
276.5056, 95.93060
276.9877, 96.05749
277.4698, 96.54710
277.9519, 97.31222
278.4340, 97.91740
278.9161, 98.03543
279.3983, 97.75852
279.8804, 97.53438
280.3625, 97.54419
280.8446, 97.34021
281.3267, 96.56479
281.8088, 95.39998
282.2910, 94.26561
282.7731, 93.47308
283.2552, 92.88323
283.7373, 92.01134
284.2194, 90.72062
284.7015, 89.39461
285.1837, 88.21744
285.6658, 87.11665
286.1479, 85.97644
286.6300, 84.73972
287.1121, 83.44487
287.5942, 82.15965
288.0764, 80.83072
288.5585, 79.64584
289.0406, 78.76098
289.5227, 78.00692
290.0048, 77.21529
290.4869, 76.30972
290.9691, 75.37284
291.4512, 74.50451
291.9333, 73.65840
292.4154, 73.04255
292.8975, 72.97852
293.3796, 73.00626
293.8618, 72.67227
294.3439, 71.86307
294.8260, 71.07566
295.3081, 71.09270
295.7902, 72.15902
296.2723, 72.86304
296.7545, 72.50400
297.2366, 72.04480
297.7187, 72.05802
298.2008, 72.57712
298.6829, 73.21777
299.1650, 73.54042
299.6472, 73.49231
300.1293, 73.63102
300.6114, 74.17595
301.0935, 74.75220
301.5756, 75.07369
302.0577, 75.24653
302.5399, 75.65955
303.0220, 76.79802
303.5041, 78.60466
303.9862, 79.78331
304.4683, 79.75323
304.9504, 79.73279
305.4326, 80.13966
305.9147, 80.87613
306.3968, 81.74223
306.8789, 82.64790
307.3610, 83.57321
307.8431, 84.38919
308.3253, 84.91405
308.8074, 85.63062
309.2895, 86.76727
309.7716, 88.10969
310.2537, 89.37696
310.7358, 90.44154
311.2180, 91.42160
311.7001, 92.61138
312.1822, 94.22815
312.6643, 95.58169
313.1464, 96.17217
313.6285, 96.69716
314.1107, 97.80367
314.5928, 99.65163
315.0749, 101.7697
315.5570, 103.4663
316.0392, 104.6162
316.5213, 105.7923
317.0034, 106.9074
317.4855, 108.1819
317.9676, 109.9546
318.4497, 112.1330
318.9319, 114.1278
319.4140, 115.2194
319.8961, 115.2876
320.3782, 115.6275
320.8603, 116.1558
321.3424, 117.0859
321.8246, 118.8590
322.3067, 121.1326
322.7888, 123.1259
323.2709, 124.2227
323.7530, 124.5307
324.2351, 124.8091
324.7173, 125.1149
325.1994, 125.2989
325.6815, 125.1869
326.1636, 124.9732
326.6457, 124.9938
327.1278, 125.4823
327.6100, 126.1142
328.0921, 126.0770
328.5742, 125.1472
329.0563, 123.9902
329.5384, 122.6309
330.0205, 121.2150
330.5027, 119.9087
330.9848, 118.7522
331.4669, 117.5721
331.9490, 116.1676
332.4311, 114.5673
332.9132, 112.6156
333.3954, 109.8088
333.8775, 106.9822
334.3596, 104.6048
334.8417, 102.6969
335.3238, 101.0097
335.8059, 99.33867
336.2881, 97.67891
336.7702, 96.13683
337.2523, 94.74768
337.7344, 93.45386
338.2165, 92.27155
338.6986, 91.15792
339.1808, 89.99413
339.6629, 88.63248
340.1450, 87.18520
340.6271, 86.09203
341.1092, 85.51054
341.5913, 84.99435
342.0735, 84.35033
342.5556, 83.67088
343.0377, 83.07070
343.5198, 82.59984
344.0019, 82.20061
344.4840, 81.80277
344.9662, 81.41678
345.4483, 80.97522
345.9304, 80.36940
346.4125, 79.74951
346.8946, 79.21524
347.3767, 78.77934
347.8589, 78.42474
348.3410, 78.18226
348.8231, 78.04611
349.3052, 77.80700
349.7873, 77.28750
350.2694, 76.83141
350.7516, 76.71654
351.2337, 76.87836
351.7158, 77.03574
352.1979, 76.98169
352.6800, 76.79076
353.1621, 76.69675
353.6443, 76.69197
354.1264, 76.81512
354.6085, 77.20424
355.0906, 77.71059
355.5727, 78.07424
356.0548, 78.09310
356.5370, 78.07456
357.0191, 78.46056
357.5012, 79.27815
357.9833, 80.16817
358.4654, 80.94323
358.9475, 81.74892
359.4297, 82.83341
359.9118, 84.31491
360.3939, 85.62869
360.8760, 86.17754
361.3581, 86.12878
361.8402, 86.39046
362.3224, 87.31093
362.8045, 88.37436
363.2866, 89.16688
363.7687, 89.69270
364.2508, 89.77702
364.7329, 89.18057
365.2151, 88.15123
365.6972, 87.06558
366.1793, 85.93996
366.6614, 84.82768
367.1436, 83.87447
367.6257, 82.96495
368.1078, 81.74435
368.5899, 79.89149
369.0720, 77.93083
369.5541, 76.31019
370.0363, 74.98376
370.5184, 73.66415
371.0005, 72.20112
371.4826, 70.68112
371.9647, 69.28030
372.4468, 67.99189
372.9290, 66.82813
373.4111, 65.87406
373.8932, 65.03449
374.3753, 64.15757
374.8574, 63.20446
375.3395, 62.20024
375.8217, 61.11422
376.3038, 59.90294
376.7859, 59.04292
377.2680, 58.81365
377.7501, 58.79500
378.2322, 58.70243
378.7144, 58.49379
379.1965, 58.12638
379.6786, 57.52834
380.1607, 56.72916
380.6428, 56.06536
381.1249, 55.51797
381.6071, 55.10674
382.0892, 54.92943
382.5713, 54.88180
383.0534, 54.77590
383.5355, 54.53057
384.0176, 54.18312
384.4998, 53.80212
384.9819, 53.24194
385.4640, 52.90187
385.9461, 53.00538
386.4282, 53.20035
386.9103, 53.16187
387.3925, 52.28512
387.8746, 52.85454
388.3567, 53.11441
388.8388, 53.08135
389.3209, 51.87806
389.8030, 52.18588
390.2852, 51.88810
390.7673, 51.56550
391.2494, 52.08603
391.7315, 51.05293
392.2136, 51.56008
392.6957, 51.45239
393.1779, 51.62607
393.6600, 51.19044
394.1421, 50.94302
394.6242, 51.30513
395.1063, 51.32973
395.5884, 50.82396
396.0706, 51.01553
396.5527, 49.96115
397.0348, 50.00014
397.5169, 50.51085
397.9990, 50.03572
398.4811, 50.23845
398.9633, 49.90993
399.4454, 50.12677
399.9275, 50.30154
400.4096, 50.37954
400.8917, 50.31715
401.3738, 50.13113
401.8560, 49.84863
402.3381, 49.27482
402.8202, 48.99276
403.3023, 49.44230
403.7844, 50.10900
404.2665, 50.42861
404.7487, 50.21863
405.2308, 49.85392
405.7129, 49.80893
406.1950, 50.10329
406.6771, 50.34452
407.1592, 50.43003
407.6414, 50.47615
408.1235, 50.57396
408.6056, 50.71392
409.0877, 50.83385
409.5698, 50.88960
410.0519, 50.90078
410.5341, 50.88403
411.0162, 50.80608
411.4983, 50.83160
411.9804, 51.15413
412.4625, 51.62684
412.9446, 52.02171
413.4268, 52.34657
413.9089, 52.51226
414.3910, 52.31851
414.8731, 51.85656
415.3553, 51.57586
415.8374, 51.64608
416.3195, 51.91426
416.8016, 52.15120
417.2837, 52.34124
417.7658, 52.65352
418.2480, 53.30857
418.7301, 54.01623
419.2122, 54.36933
419.6943, 54.34359
420.1764, 54.35640
420.6585, 54.76833
421.1407, 55.53406
421.6228, 56.07680
422.1049, 56.46548
422.5870, 56.59188
423.0691, 56.19394
423.5512, 55.54050
424.0334, 55.12209
424.5155, 55.13994
424.9976, 55.42098
425.4797, 55.66869
425.9618, 56.03999
426.4439, 56.01357
426.9261, 55.21873
427.4082, 54.32823
427.8903, 53.91410
428.3724, 53.91394
428.8545, 53.78346
429.3366, 53.02071
429.8188, 51.67004
430.3009, 50.80463
430.7830, 50.95058
431.2651, 51.02552
431.7472, 50.80527
432.2293, 50.44496
432.7115, 50.15678
433.1936, 50.01741
433.6757, 49.91520
434.1578, 49.61361
434.6399, 48.97277
435.1220, 48.62949
435.6042, 49.11089
436.0863, 49.49400
436.5684, 49.18840
437.0505, 48.35682
437.5326, 47.62811
438.0147, 47.50511
438.4969, 47.79516
438.9790, 47.75645
439.4611, 47.17950
439.9432, 46.80592
440.4253, 47.12287
440.9074, 47.71941
441.3896, 48.19518
441.8717, 48.46447
442.3538, 48.63820
442.8359, 48.82113
443.3180, 48.99962
443.8001, 49.07380
444.2823, 49.00237
444.7644, 48.86369
445.2465, 48.64286
445.7286, 48.38201
446.2107, 48.33967
446.6928, 48.75042
447.1750, 49.30049
447.6571, 49.67260
448.1392, 49.87395
448.6213, 50.06488
449.1034, 50.34723
449.5855, 50.65647
450.0677, 50.79175
450.5498, 50.64098
451.0319, 50.58362
451.5140, 50.85222
451.9961, 51.20353
452.4782, 51.27773
452.9604, 51.02760
453.4425, 50.77778
453.9246, 50.88582
454.4067, 51.40531
454.8888, 51.71339
455.3709, 51.65117
455.8531, 51.58910
456.3352, 51.68064
456.8173, 51.85956
457.2994, 51.97087
457.7815, 51.94125
458.2636, 51.89918
458.7458, 52.16865
459.2279, 53.11443
459.7100, 53.59349
460.1921, 53.22061
460.6742, 52.73415
461.1563, 52.54162
461.6385, 52.64002
462.1206, 52.82090
462.6027, 52.92825
463.0848, 52.98368
463.5669, 53.09690
464.0491, 53.26222
464.5312, 53.49800
465.0133, 53.92952
465.4954, 54.36808
465.9775, 54.59047
466.4597, 54.53407
466.9418, 54.43339
467.4239, 54.59009
467.9060, 54.93713
468.3881, 54.99363
468.8702, 54.58995
469.3524, 54.08086
469.8345, 53.71277
470.3166, 53.47108
470.7987, 53.35212
471.2808, 53.41888
471.7629, 53.55868
472.2451, 53.66756
472.7272, 53.75845
473.2093, 53.91376
473.6914, 54.19626
474.1735, 54.51052
474.6556, 54.66958
475.1378, 54.66534
475.6199, 54.57084
476.1020, 54.30892
476.5841, 54.02053
477.0662, 53.73940
477.5483, 53.52135
478.0305, 53.58548
478.5126, 54.15254
478.9947, 55.13578
479.4768, 55.74933
479.9589, 55.78457
480.4410, 55.70040
480.9232, 55.33117
481.4053, 54.98516
481.8874, 55.00769
482.3695, 55.46465
482.8516, 56.12271
483.3337, 56.71450
483.8159, 57.23109
484.2980, 57.76356
484.7801, 58.45643
485.2622, 58.99036
485.7443, 59.07661
486.2264, 58.97649
486.7086, 59.11925
487.1907, 59.70974
487.6728, 60.51748
488.1549, 61.24314
488.6370, 61.88399
489.1191, 62.47018
489.6013, 62.94421
490.0834, 63.44286
490.5655, 64.09350
491.0476, 64.88058
491.5297, 65.68913
492.0118, 66.39902
492.4940, 67.14829
492.9761, 68.16431
493.4582, 69.43905
493.9403, 70.67981
494.4224, 71.74902
494.9045, 72.68002
495.3867, 73.52956
495.8688, 74.26392
496.3509, 75.02512
496.8330, 75.79219
497.3151, 76.63426
497.7972, 77.60124
498.2794, 78.70690
498.7615, 80.03156
499.2436, 81.73454
499.7257, 83.74909
500.2078, 84.95125
500.6899, 84.47579
501.1721, 84.23111
501.6542, 84.70216
502.1363, 85.46312
502.6184, 86.10068
503.1005, 86.48374
503.5826, 86.65085
504.0648, 86.63611
504.5469, 86.43480
505.0290, 86.10369
505.5111, 85.62060
505.9932, 85.02087
506.4753, 84.29346
506.9575, 83.47774
507.4396, 82.64928
507.9217, 81.85857
508.4038, 80.99111
508.8859, 79.98051
509.3680, 78.81220
509.8502, 77.21111
510.3323, 74.87945
510.8144, 72.47121
511.2965, 70.74167
511.7786, 69.56095
512.2607, 68.15738
512.7429, 65.84463
513.2250, 63.63025
513.7071, 62.57228
514.1892, 62.43079
514.6713, 62.09370
515.1534, 61.03933
515.6356, 59.60693
516.1177, 58.47025
516.5998, 57.80915
517.0819, 57.02382
517.5640, 55.83159
518.0461, 54.73003
518.5283, 54.13747
519.0104, 53.95916
519.4925, 53.81762
519.9746, 53.46301
520.4567, 52.95894
520.9388, 52.56142
521.4210, 52.44247
521.9031, 52.09855
522.3852, 51.28269
522.8673, 50.39272
523.3494, 49.65404
523.8315, 49.11002
524.3137, 48.76067
524.7958, 48.69516
525.2779, 48.81683
525.7600, 48.77958
526.2421, 48.54986
526.7242, 48.28588
527.2064, 48.01397
527.6885, 47.77009
528.1706, 47.63071
528.6527, 47.63615
529.1348, 47.55184
529.6169, 47.17719
530.0991, 46.66408
530.5812, 46.20697
531.0633, 45.83374
531.5454, 45.67048
532.0275, 45.85969
532.5096, 46.34011
532.9918, 46.67994
533.4739, 46.89354
533.9560, 46.97409
534.4381, 46.76869
534.9202, 46.50976
535.4023, 46.47082
535.8845, 46.68810
536.3666, 46.99096
536.8487, 47.22045
537.3308, 47.37713
537.8129, 47.44395
538.2951, 47.34148
538.7772, 47.24939
539.2593, 47.10111
539.7415, 47.03711
540.2236, 47.24572
540.7057, 47.76808
541.1878, 48.38609
541.6699, 48.88195
542.1520, 49.27494
542.6342, 49.70321
543.1163, 50.16788
543.5984, 50.68794
544.0805, 51.38536
544.5626, 52.12197
545.0447, 52.59534
545.5269, 52.57046
546.0090, 52.65009
546.4911, 53.34974
546.9732, 54.36401
547.4553, 55.01350
547.9374, 55.15478
548.4196, 55.33279
548.9017, 56.11906
549.3838, 57.53531
549.8659, 58.64573
550.3480, 59.09102
550.8301, 59.71977
551.3123, 60.91865
551.7944, 62.35859
552.2765, 63.58448
552.7586, 64.49467
553.2407, 65.40639
553.7228, 66.74480
554.2050, 68.54545
554.6871, 70.10146
555.1692, 71.18507
555.6513, 72.34333
556.1334, 73.73315
556.6155, 75.31009
557.0977, 77.00376
557.5798, 78.78255
558.0619, 80.77308
558.5440, 83.40541
559.0261, 86.38130
559.5082, 88.53490
559.9904, 89.57632
560.4725, 90.35659
560.9546, 91.59682
561.4367, 93.11649
561.9188, 94.07716
562.4009, 94.28767
562.8831, 94.16399
563.3652, 93.91503
563.8473, 93.40191
564.3294, 92.32591
564.8115, 90.66976
565.2936, 88.80959
565.7758, 87.05418
566.2579, 85.39585
566.7400, 84.36108
567.2221, 84.57970
567.7042, 84.69033
568.1863, 84.40962
568.6685, 83.94718
569.1506, 83.54530
569.6327, 83.24757
570.1148, 82.87985
570.5969, 82.29651
571.0790, 81.50256
571.5612, 80.49506
572.0433, 79.19341
572.5254, 77.91208
573.0075, 77.00072
573.4896, 76.12070
573.9717, 74.67868
574.4539, 72.45378
574.9360, 70.32734
575.4181, 68.77267
575.9002, 67.53848
576.3823, 66.38590
576.8644, 65.24586
577.3466, 63.85780
577.8287, 61.96645
578.3108, 59.72669
578.7929, 57.90356
579.2750, 56.72575
579.7571, 55.68225
580.2393, 54.78424
580.7214, 53.99245
581.2035, 53.34149
581.6856, 52.78460
582.1677, 52.15135
582.6498, 51.29607
583.1320, 50.29139
583.6141, 49.37347
584.0962, 48.50299
584.5783, 47.85124
585.0604, 47.70137
585.5425, 47.60225
586.0247, 47.09557
586.5068, 46.20951
586.9889, 45.46101
587.4710, 45.20974
587.9531, 45.12349
588.4352, 44.77148
588.9174, 44.20351
589.3995, 43.77326
