##NAMES=Parabutlerite
##RRUFFID=R110161
##IDEAL CHEMISTRY=Fe^3+^S^6+^O_4_(OH)&#183;2H_2_O
##LOCALITY=Saghand, near Yazd, Iran
##OWNER=RRUFF
##SOURCE=George Rossman, California Institute of Technology
##DESCRIPTION=Fragment of euhedral orange crystals
##STATUS=The identification of this mineral has been confirmed by single-crystal X-ray diffraction.
##URL=rruff.info/R110161
160.8812, 90.28387
161.3633, 94.81606
161.8455, 99.06413
162.3276, 102.7074
162.8097, 106.1469
163.2918, 109.7312
163.7739, 113.7157
164.2560, 117.5582
164.7382, 120.8837
165.2203, 123.8246
165.7024, 126.8870
166.1845, 130.2918
166.6666, 133.9509
167.1487, 137.7552
167.6309, 141.8750
168.1130, 145.9817
168.5951, 149.4838
169.0772, 152.5741
169.5593, 156.3433
170.0414, 161.9440
170.5236, 168.4665
171.0057, 174.7391
171.4878, 180.1604
171.9699, 185.4405
172.4520, 191.1219
172.9341, 197.2017
173.4163, 203.3485
173.8984, 209.1717
174.3805, 214.9703
174.8626, 221.0533
175.3447, 228.2383
175.8268, 235.5151
176.3090, 241.4772
176.7911, 246.0602
177.2732, 250.7323
177.7553, 256.2162
178.2374, 261.5717
178.7195, 265.8565
179.2017, 268.2280
179.6838, 269.5990
180.1659, 271.3076
180.6480, 273.4166
181.1301, 275.4688
181.6122, 276.9408
182.0944, 277.9971
182.5765, 279.1273
183.0586, 280.8193
183.5407, 282.6993
184.0228, 283.8529
184.5049, 284.1339
184.9871, 284.4154
185.4692, 285.9842
185.9513, 288.6033
186.4334, 290.9293
186.9155, 292.0126
187.3976, 292.2791
187.8798, 293.2722
188.3619, 295.1517
188.8440, 297.3016
189.3261, 298.7127
189.8082, 299.4607
190.2903, 300.4005
190.7725, 301.9423
191.2546, 304.0578
191.7367, 306.4924
192.2188, 309.2672
192.7009, 312.2789
193.1830, 315.4293
193.6652, 318.7094
194.1473, 321.7994
194.6294, 324.2538
195.1115, 326.1586
195.5936, 328.7224
196.0757, 332.1419
196.5579, 336.0128
197.0400, 339.5966
197.5221, 342.8775
198.0042, 346.0483
198.4863, 349.3020
198.9684, 352.6303
199.4506, 355.7026
199.9327, 358.4307
200.4148, 360.9400
200.8969, 363.3603
201.3790, 365.6514
201.8611, 368.2002
202.3433, 371.3804
202.8254, 375.2701
203.3075, 378.9385
203.7896, 382.3812
204.2717, 385.4746
204.7538, 387.6090
205.2360, 388.4657
205.7181, 389.5160
206.2002, 391.7597
206.6823, 395.3963
207.1644, 398.8808
207.6465, 402.1149
208.1287, 405.0924
208.6108, 407.9687
209.0929, 410.8702
209.5750, 413.3280
210.0571, 414.8796
210.5392, 415.2941
211.0214, 415.9277
211.5035, 416.8600
211.9856, 418.1026
212.4677, 419.9307
212.9498, 422.8191
213.4319, 425.2716
213.9140, 426.1216
214.3962, 424.6772
214.8783, 424.2194
215.3604, 425.3871
215.8425, 427.7007
216.3246, 429.1523
216.8067, 429.4828
217.2889, 429.4752
217.7710, 429.5189
218.2531, 429.4777
218.7352, 429.8546
219.2173, 430.6259
219.6994, 431.8460
220.1816, 433.7454
220.6637, 436.4882
221.1458, 439.6433
221.6279, 442.9907
222.1100, 446.7582
222.5921, 450.1299
223.0743, 452.8019
223.5564, 455.0172
224.0385, 458.1028
224.5206, 462.2560
225.0027, 466.8629
225.4848, 471.5313
225.9670, 476.0631
226.4491, 481.1224
226.9312, 487.1042
227.4133, 493.6913
227.8954, 499.5993
228.3775, 504.4081
228.8597, 508.9959
229.3418, 513.9285
229.8239, 519.7031
230.3060, 524.6752
230.7881, 528.8211
231.2702, 532.0727
231.7524, 533.9302
232.2345, 534.2106
232.7166, 533.3212
233.1987, 531.4852
233.6808, 528.7388
234.1629, 524.9674
234.6451, 520.1392
235.1272, 514.2576
235.6093, 507.3106
236.0914, 499.4790
236.5735, 490.3536
237.0556, 479.5556
237.5378, 466.2871
238.0199, 453.1313
238.5020, 440.4170
238.9841, 427.8807
239.4662, 414.8667
239.9483, 400.9148
240.4305, 387.1182
240.9126, 373.9081
241.3947, 361.3152
241.8768, 349.2553
242.3589, 337.7926
242.8410, 326.8981
243.3232, 316.1794
243.8053, 305.4354
244.2874, 295.2007
244.7695, 285.8550
245.2516, 277.4840
245.7337, 269.6661
246.2159, 262.5264
246.6980, 255.8740
247.1801, 249.2354
247.6622, 242.3982
248.1443, 235.7864
248.6264, 229.6499
249.1086, 223.9536
249.5907, 218.7331
250.0728, 214.0828
250.5549, 209.8841
251.0370, 205.8343
251.5191, 201.9471
252.0013, 198.1855
252.4834, 194.4531
252.9655, 190.6478
253.4476, 187.2561
253.9297, 184.3699
254.4118, 181.8651
254.8940, 179.4149
255.3761, 177.0450
255.8582, 174.6707
256.3403, 172.2269
256.8224, 169.6047
257.3046, 167.2951
257.7867, 165.3928
258.2688, 163.7574
258.7509, 162.1238
259.2330, 160.4505
259.7151, 158.8937
260.1973, 157.5504
260.6794, 156.5322
261.1615, 155.3297
261.6436, 153.9141
262.1257, 152.3566
262.6078, 150.7543
263.0900, 149.0761
263.5721, 147.4705
264.0542, 146.0249
264.5363, 144.7496
265.0184, 143.4745
265.5005, 142.1857
265.9827, 140.8947
266.4648, 139.5536
266.9469, 138.0941
267.4290, 136.8209
267.9111, 135.8986
268.3932, 135.3677
268.8754, 134.5294
269.3575, 133.2874
269.8396, 131.8824
270.3217, 130.6161
270.8038, 129.4982
271.2859, 128.4898
271.7681, 127.6368
272.2502, 126.9318
272.7323, 126.0537
273.2144, 124.9761
273.6965, 123.8067
274.1786, 122.6076
274.6608, 121.3197
275.1429, 120.2895
275.6250, 119.7189
276.1071, 119.5145
276.5892, 118.8488
277.0714, 117.5884
277.5535, 116.2789
278.0356, 115.5011
278.5177, 115.3160
278.9998, 115.0166
279.4819, 114.4271
279.9641, 113.6175
280.4462, 112.9106
280.9283, 112.3133
281.4104, 111.7784
281.8925, 111.3250
282.3746, 110.9576
282.8568, 110.3695
283.3389, 109.4071
283.8210, 108.2784
284.3031, 107.5889
284.7852, 107.3721
285.2673, 107.3162
285.7495, 107.2497
286.2316, 107.1706
286.7137, 107.0389
287.1958, 106.8687
287.6779, 106.6184
288.1600, 106.1343
288.6422, 105.4115
289.1243, 104.7262
289.6064, 104.2648
290.0885, 103.9961
290.5706, 103.8083
291.0527, 103.7047
291.5349, 103.6372
292.0170, 103.5601
292.4991, 103.4670
292.9812, 103.2944
293.4633, 102.7933
293.9454, 102.1654
294.4276, 102.1850
294.9097, 102.9988
295.3918, 103.9876
295.8739, 104.3609
296.3560, 104.2115
296.8381, 103.9922
297.3203, 103.9476
297.8024, 103.9762
298.2845, 103.8364
298.7666, 103.5088
299.2487, 103.1650
299.7308, 102.9773
300.2130, 102.9104
300.6951, 102.8669
301.1772, 102.8419
301.6593, 102.8008
302.1414, 102.6349
302.6235, 102.3500
303.1057, 102.1517
303.5878, 102.2766
304.0699, 102.6045
304.5520, 102.9201
305.0341, 103.2174
305.5162, 103.4132
305.9984, 103.3752
306.4805, 103.1294
306.9626, 102.8514
307.4447, 102.6572
307.9268, 102.5047
308.4089, 102.3248
308.8911, 102.0183
309.3732, 101.8063
309.8553, 101.9726
310.3374, 102.4102
310.8195, 102.7603
311.3016, 102.6919
311.7838, 102.5064
312.2659, 102.4657
312.7480, 102.6271
313.2301, 102.9220
313.7122, 103.5477
314.1943, 104.2829
314.6765, 104.6466
315.1586, 103.9357
315.6407, 103.1293
316.1228, 102.9013
316.6049, 103.4721
317.0870, 104.0501
317.5692, 104.2183
318.0513, 104.1945
318.5334, 104.2817
319.0155, 104.7820
319.4976, 105.2394
319.9797, 105.3985
320.4619, 105.2130
320.9440, 105.1071
321.4261, 105.2687
321.9082, 105.5406
322.3903, 105.7741
322.8724, 105.9399
323.3546, 106.0590
323.8367, 106.1677
324.3188, 106.2606
324.8009, 106.2101
325.2830, 105.6478
325.7651, 105.1516
326.2473, 105.0977
326.7294, 106.0967
327.2115, 106.8785
327.6936, 107.1952
328.1757, 107.1535
328.6578, 107.2980
329.1400, 107.8658
329.6221, 108.4328
330.1042, 108.8185
330.5863, 108.8712
331.0684, 108.9886
331.5505, 109.0793
332.0327, 109.2483
332.5148, 109.7538
332.9969, 110.8675
333.4790, 111.9484
333.9611, 112.7639
334.4432, 113.2096
334.9254, 113.7946
335.4075, 114.5419
335.8896, 115.3956
336.3717, 116.2851
336.8538, 117.2039
337.3359, 118.1537
337.8180, 119.1511
338.3001, 120.1901
338.7823, 121.1092
339.2644, 121.8201
339.7465, 122.5701
340.2286, 123.6588
340.7107, 125.1527
341.1928, 126.5391
341.6750, 127.6379
342.1571, 128.5704
342.6392, 129.7904
343.1213, 131.3647
343.6034, 132.9333
344.0855, 134.1369
344.5677, 134.9932
345.0498, 136.2362
345.5319, 138.0089
346.0140, 140.0994
346.4961, 142.1360
346.9782, 144.1127
347.4604, 146.1072
347.9425, 148.1531
348.4246, 150.2477
348.9067, 152.2868
349.3888, 154.2482
349.8709, 156.2408
350.3531, 158.3895
350.8352, 160.6795
351.3173, 163.0451
351.7994, 165.4322
352.2815, 167.9052
352.7636, 170.6714
353.2458, 173.7283
353.7279, 176.7439
354.2100, 179.2970
354.6921, 181.6348
355.1742, 184.2063
355.6563, 187.4726
356.1385, 190.7182
356.6206, 193.1208
357.1027, 194.8453
357.5848, 196.6498
358.0669, 199.1103
358.5490, 201.8268
359.0312, 204.4593
359.5133, 207.0665
359.9954, 209.3617
360.4775, 210.9697
360.9596, 212.1601
361.4417, 213.4756
361.9239, 215.5320
362.4060, 217.4904
362.8881, 218.8146
363.3702, 219.3349
363.8523, 219.8479
364.3344, 220.6488
364.8166, 221.5669
365.2987, 222.4138
365.7808, 223.0766
366.2629, 223.7112
366.7450, 224.4520
367.2271, 225.2951
367.7093, 225.7989
368.1914, 225.5109
368.6735, 225.1165
369.1556, 225.0631
369.6377, 225.8526
370.1198, 226.3658
370.6020, 226.3490
371.0841, 225.9924
371.5662, 226.0014
372.0483, 226.5885
372.5304, 227.2757
373.0125, 227.8470
373.4947, 228.1758
373.9768, 228.7626
374.4589, 229.7593
374.9410, 230.8990
375.4231, 231.6266
375.9052, 231.6215
376.3874, 232.1591
376.8695, 233.8714
377.3516, 236.7368
377.8337, 238.5713
378.3158, 239.1003
378.7979, 239.4485
379.2801, 240.7391
379.7622, 243.0213
380.2443, 245.4787
380.7264, 248.0402
381.2085, 250.6374
381.6906, 253.1021
382.1728, 255.4206
382.6549, 257.7092
383.1370, 259.8112
383.6191, 261.8893
384.1012, 264.6248
384.5833, 268.2450
385.0655, 272.0742
385.5476, 275.0256
386.0297, 277.3697
386.5118, 279.9402
386.9939, 283.4117
387.4760, 287.2711
387.9582, 290.7785
388.4403, 293.9474
388.9224, 297.0396
389.4045, 300.2993
389.8866, 303.5815
390.3687, 306.7039
390.8509, 309.5414
391.3330, 312.2293
391.8151, 314.8720
392.2972, 317.4618
392.7793, 320.0056
393.2614, 322.7477
393.7436, 325.2798
394.2257, 327.2783
394.7078, 328.3855
395.1899, 329.6513
395.6720, 331.6947
396.1541, 334.0840
396.6363, 336.1274
397.1184, 337.6821
397.6005, 338.8367
398.0826, 339.6659
398.5647, 340.2015
399.0468, 340.1544
399.5290, 338.9140
400.0111, 337.4041
400.4932, 336.3819
400.9753, 336.7108
401.4574, 336.3785
401.9395, 335.2228
402.4217, 333.2808
402.9038, 330.6851
403.3859, 327.1928
403.8680, 323.4061
404.3501, 319.5922
404.8322, 315.8301
405.3144, 311.8742
405.7965, 307.7423
406.2786, 303.4511
406.7607, 298.9960
407.2428, 294.3267
407.7249, 289.7663
408.2071, 285.6127
408.6892, 281.7150
409.1713, 277.1096
409.6534, 271.6794
410.1355, 266.0958
410.6176, 260.9205
411.0998, 256.0985
411.5819, 251.4616
412.0640, 246.9853
412.5461, 242.6521
413.0282, 238.4088
413.5103, 234.2439
413.9925, 230.0073
414.4746, 225.3918
414.9567, 220.6685
415.4388, 216.3257
415.9209, 212.3742
416.4030, 208.6957
416.8852, 205.1830
417.3673, 201.8356
417.8494, 198.6395
418.3315, 195.7668
418.8136, 192.8723
419.2957, 189.5170
419.7779, 185.8352
420.2600, 182.4886
420.7421, 180.1319
421.2242, 178.0322
421.7063, 175.6939
422.1884, 172.7471
422.6706, 170.0138
423.1527, 167.7261
423.6348, 165.7639
424.1169, 163.8882
424.5990, 162.0876
425.0811, 160.3174
425.5633, 158.5576
426.0454, 156.7984
426.5275, 155.0855
427.0096, 153.3446
427.4917, 151.6850
427.9738, 150.1756
428.4560, 148.7668
428.9381, 147.6298
429.4202, 146.8923
429.9023, 146.4295
430.3844, 145.7445
430.8665, 144.7483
431.3487, 143.7944
431.8308, 143.0970
432.3129, 142.6756
432.7950, 142.1376
433.2771, 141.4290
433.7592, 140.7490
434.2414, 140.2715
434.7235, 140.0084
435.2056, 140.1282
435.6877, 140.8634
436.1698, 141.8897
436.6519, 142.5275
437.1341, 142.7897
437.6162, 142.9219
438.0983, 142.8693
438.5804, 142.8675
439.0625, 143.3944
439.5446, 144.6390
440.0268, 146.0440
440.5089, 147.1204
440.9910, 147.9947
441.4731, 148.9088
441.9552, 149.7358
442.4373, 150.8313
442.9195, 152.5979
443.4016, 155.0206
443.8837, 157.3084
444.3658, 158.9684
444.8479, 160.4588
445.3300, 162.1132
445.8122, 163.9765
446.2943, 166.0511
446.7764, 168.3743
447.2585, 170.9171
447.7406, 173.6065
448.2227, 176.5487
448.7049, 179.5336
449.1870, 182.5933
449.6691, 185.7632
450.1512, 188.6042
450.6333, 190.7879
451.1154, 192.9668
451.5976, 195.7666
452.0797, 199.2658
452.5618, 203.1026
453.0439, 207.4707
453.5260, 211.9999
454.0081, 215.6055
454.4903, 218.1371
454.9724, 220.8199
455.4545, 224.5018
455.9366, 229.0105
456.4187, 233.4139
456.9008, 237.6549
457.3830, 241.7485
457.8651, 245.4824
458.3472, 248.9933
458.8293, 252.5551
459.3114, 256.3752
459.7935, 260.2049
460.2757, 263.8314
460.7578, 267.2439
461.2399, 270.4847
461.7220, 273.4864
462.2041, 276.3844
462.6862, 279.4165
463.1684, 282.7785
463.6505, 285.5185
464.1326, 287.0312
464.6147, 287.6430
465.0968, 287.7890
465.5789, 287.4788
466.0611, 286.8405
466.5432, 285.8730
467.0253, 284.5926
467.5074, 283.1086
467.9895, 281.8438
468.4716, 280.0428
468.9538, 277.3219
469.4359, 273.3784
469.9180, 269.2485
470.4001, 264.8659
470.8822, 260.2936
471.3643, 255.5777
471.8465, 250.6682
472.3286, 245.7530
472.8107, 240.8879
473.2928, 236.0975
473.7749, 231.0362
474.2570, 225.6554
474.7392, 220.3862
475.2213, 215.6872
475.7034, 211.4516
476.1855, 206.8660
476.6676, 201.7487
477.1497, 196.5910
477.6319, 192.0967
478.1140, 188.1531
478.5961, 184.4591
479.0782, 181.0122
479.5603, 177.6687
480.0424, 174.2115
480.5246, 170.6549
481.0067, 167.2440
481.4888, 164.3412
481.9709, 161.5336
482.4530, 158.3707
482.9352, 154.4567
483.4173, 150.9597
483.8994, 148.3427
484.3815, 146.4207
484.8636, 144.9386
485.3457, 144.8327
485.8279, 144.1419
486.3100, 142.0385
486.7921, 138.5032
487.2742, 135.5243
487.7563, 133.2645
488.2384, 131.3672
488.7206, 129.6797
489.2027, 128.2789
489.6848, 126.9044
490.1669, 125.5466
490.6490, 124.2233
491.1311, 122.9242
491.6133, 121.6542
492.0954, 120.4416
492.5775, 119.2283
493.0596, 118.0972
493.5417, 117.4850
494.0238, 117.4028
494.5060, 117.2106
494.9881, 116.1634
495.4702, 114.6571
495.9523, 113.7599
496.4344, 113.7295
496.9165, 113.7768
497.3987, 112.8919
497.8808, 111.5385
498.3629, 110.6093
498.8450, 110.9050
499.3271, 111.3808
499.8092, 111.3426
500.2914, 110.8710
500.7735, 110.4335
501.2556, 110.2168
501.7377, 110.0820
502.2198, 109.9537
502.7019, 109.8246
503.1841, 109.6983
503.6662, 109.5418
504.1483, 109.4044
504.6304, 109.3422
505.1125, 109.3539
505.5946, 109.4439
506.0768, 109.6211
506.5589, 109.8776
507.0410, 110.1751
507.5231, 110.5065
508.0052, 110.8941
508.4873, 111.4445
508.9695, 112.1536
509.4516, 112.4438
509.9337, 112.2233
510.4158, 111.9498
510.8979, 112.2155
511.3800, 112.9086
511.8622, 113.5035
512.3443, 113.7961
512.8264, 114.0235
513.3085, 114.4625
513.7906, 115.1031
514.2728, 115.9089
514.7549, 116.9733
515.2370, 118.1212
515.7191, 119.2051
516.2012, 120.2159
516.6833, 121.2189
517.1655, 122.2063
517.6476, 123.2322
518.1297, 124.3426
518.6118, 125.5537
519.0939, 126.8436
519.5760, 128.2011
520.0582, 129.6329
520.5403, 131.1881
521.0224, 132.8707
521.5045, 134.6430
521.9866, 136.4871
522.4688, 138.4107
522.9509, 140.4465
523.4330, 142.6079
523.9151, 144.8727
524.3972, 147.1565
524.8793, 149.4420
525.3615, 152.1896
525.8436, 155.5284
526.3257, 159.1449
526.8078, 162.5618
527.2899, 165.8211
527.7720, 169.0703
528.2542, 172.3408
528.7363, 175.6064
529.2184, 178.7778
529.7005, 181.8828
530.1826, 185.2322
530.6647, 188.9617
531.1469, 193.0392
531.6290, 197.6286
532.1111, 202.8718
532.5932, 207.9047
533.0753, 212.2935
533.5574, 216.3576
534.0396, 220.3545
534.5217, 224.0060
535.0038, 228.0269
535.4859, 232.7924
535.9680, 238.0364
536.4501, 242.9997
536.9323, 247.6491
537.4144, 252.0664
537.8965, 256.2414
538.3786, 260.1573
538.8607, 263.8373
539.3428, 267.1994
539.8250, 270.4767
540.3071, 274.0887
540.7892, 277.8840
541.2713, 280.8109
541.7534, 282.6080
542.2355, 283.6982
542.7177, 284.5497
543.1998, 285.1710
543.6819, 285.5641
544.1640, 286.2023
544.6461, 286.2855
545.1282, 284.8065
545.6104, 281.9527
546.0925, 278.8746
546.5746, 276.6414
547.0567, 274.0728
547.5388, 270.2464
548.0209, 264.7308
548.5031, 259.0124
548.9852, 253.2100
549.4673, 247.4026
549.9494, 241.6783
550.4315, 236.2900
550.9136, 230.5872
551.3958, 224.4084
551.8779, 217.8669
552.3600, 211.3854
552.8421, 204.8869
553.3242, 198.5916
553.8063, 192.5970
554.2885, 186.8901
554.7706, 181.4303
555.2527, 176.2406
555.7348, 171.0669
556.2169, 165.4215
556.6990, 159.6515
557.1812, 154.5559
557.6633, 150.3374
558.1454, 146.5261
558.6275, 142.8093
559.1096, 139.1769
559.5917, 135.5262
560.0739, 131.6443
560.5560, 127.9539
561.0381, 124.7413
561.5202, 121.9459
562.0023, 119.1653
562.4844, 116.0047
562.9666, 113.0793
563.4487, 110.7843
563.9308, 109.2941
564.4129, 107.5580
564.8950, 105.3913
565.3771, 103.1785
565.8593, 101.2139
566.3414, 99.52947
566.8235, 97.92855
567.3056, 96.36752
567.7877, 94.89011
568.2698, 93.58621
568.7520, 92.43974
569.2341, 91.36504
569.7162, 90.33741
570.1983, 89.34682
570.6804, 88.36827
571.1625, 87.40088
571.6447, 86.40454
572.1268, 85.34119
572.6089, 84.24272
573.0910, 83.08064
573.5731, 81.79802
574.0552, 80.80790
574.5374, 80.42929
575.0195, 80.35461
575.5016, 80.29324
575.9837, 80.06493
576.4658, 80.00729
576.9479, 80.52138
577.4301, 81.13786
577.9122, 80.85417
578.3943, 79.09892
578.8764, 77.56383
579.3585, 76.70691
579.8406, 76.46026
580.3228, 76.45783
580.8049, 76.75804
581.2870, 76.92418
581.7691, 76.43515
582.2512, 75.53185
582.7333, 75.30041
583.2155, 75.86413
583.6975, 76.49725
584.1796, 76.49672
584.6617, 76.11443
585.1439, 75.74899
585.6260, 75.44894
586.1081, 75.30332
586.5902, 75.41197
587.0723, 75.71015
587.5544, 76.06776
588.0366, 76.60023
588.5187, 77.03695
589.0008, 77.20095
589.4829, 77.11485
589.9650, 77.25163
590.4471, 77.73388
590.9293, 78.27860
591.4114, 78.76589
591.8935, 79.20149
592.3756, 79.52354
592.8577, 79.69111
593.3398, 79.85603
593.8220, 80.22485
594.3041, 80.76375
594.7862, 81.18153
595.2683, 81.38461
595.7504, 81.56425
596.2325, 82.04292
596.7147, 82.70890
597.1968, 83.26155
597.6789, 83.57742
598.1610, 83.73339
598.6431, 83.73838
599.1252, 83.61604
599.6074, 83.47308
600.0895, 83.40084
600.5716, 83.27119
601.0537, 83.01839
601.5358, 82.62435
602.0179, 82.16443
602.5001, 81.56773
602.9822, 80.97568
603.4643, 80.52692
603.9464, 80.30299
604.4285, 79.87210
604.9106, 79.16415
605.3928, 78.31677
605.8749, 77.49694
606.3570, 76.70318
606.8391, 75.95863
607.3212, 75.25465
607.8033, 74.62307
608.2855, 74.13313
608.7676, 73.76135
609.2497, 73.40410
609.7318, 72.98222
610.2139, 72.57164
610.6960, 72.26196
611.1782, 72.05148
611.6603, 71.79754
612.1424, 71.48533
612.6245, 71.08546
613.1066, 70.56297
613.5887, 69.81136
614.0709, 69.17255
614.5530, 68.67452
615.0351, 68.25969
615.5172, 67.84012
615.9993, 67.37473
616.4814, 67.09988
616.9636, 67.10455
617.4457, 67.23215
617.9278, 67.14980
618.4099, 66.88131
618.8920, 66.68271
619.3741, 66.75732
619.8563, 66.88859
620.3384, 66.73862
620.8205, 66.34608
621.3026, 65.90675
621.7847, 65.42463
622.2668, 65.01505
622.7490, 64.79956
623.2311, 64.80160
623.7132, 64.81641
624.1953, 64.84250
624.6774, 64.82844
625.1595, 64.73958
625.6417, 64.56949
626.1238, 64.32332
626.6059, 63.91460
627.0880, 63.52950
627.5701, 63.47338
628.0522, 63.79142
628.5344, 64.00364
629.0165, 63.99907
629.4986, 63.85079
629.9807, 63.64340
630.4628, 63.39662
630.9449, 63.22340
631.4271, 63.32442
631.9092, 63.43017
632.3913, 63.11866
632.8734, 62.47472
633.3555, 62.04850
633.8376, 62.31323
634.3198, 62.71857
634.8019, 62.94611
635.2840, 62.94216
635.7661, 62.87286
636.2482, 62.70615
636.7303, 62.52235
637.2125, 62.37097
637.6946, 62.24644
638.1767, 62.18328
638.6588, 62.21098
639.1409, 62.25304
639.6230, 62.16845
640.1052, 61.96989
640.5873, 61.85375
641.0694, 61.88285
641.5515, 61.99784
642.0336, 62.17214
642.5157, 62.36586
642.9979, 62.46424
643.4800, 62.37012
643.9621, 62.19196
644.4442, 61.97815
644.9263, 61.73730
645.4084, 61.51228
645.8906, 61.32788
646.3727, 61.15497
646.8548, 60.95152
647.3369, 60.69127
647.8190, 60.60632
648.3011, 60.77492
648.7833, 61.00299
649.2654, 61.12909
649.7475, 61.13945
650.2296, 61.29412
650.7117, 61.66457
651.1938, 61.96297
651.6760, 61.68668
652.1581, 61.02685
652.6402, 60.59507
653.1223, 60.60833
653.6044, 60.77394
654.0865, 60.88231
654.5687, 60.94521
655.0508, 60.98673
655.5329, 61.05748
656.0150, 61.06607
656.4971, 60.95386
656.9792, 60.74155
657.4614, 60.54122
657.9435, 60.38958
