##NAMES=Parakeldyshite
##RRUFFID=R120048
##IDEAL CHEMISTRY=Na_2_Zr^4+^Si_2_O_7_
##LOCALITY=Alluaiv Mt., Lovozero Massif, Kola Peninsula, Murmanskaja Oblast', Northern Region, Russia
##OWNER=RRUFF
##SOURCE=Donald Doell
##DESCRIPTION=White massive
##STATUS=The identification of this mineral has been confirmed only by single crystal X-ray diffraction.
##URL=rruff.info/R120048
9.112140e+001, 0.000000e+000
9.160352e+001, 6.286913e+002
9.208563e+001, 6.092663e+002
9.256775e+001, 6.068804e+002
9.304987e+001, 6.305944e+002
9.353198e+001, 6.595406e+002
9.401410e+001, 6.808271e+002
9.449622e+001, 6.936630e+002
9.497833e+001, 7.004421e+002
9.546045e+001, 7.035870e+002
9.594257e+001, 7.033333e+002
9.642468e+001, 6.985311e+002
9.690680e+001, 6.888750e+002
9.738892e+001, 6.771418e+002
9.787103e+001, 6.635484e+002
9.835315e+001, 6.478755e+002
9.883527e+001, 6.306624e+002
9.931738e+001, 6.141041e+002
9.979950e+001, 5.981082e+002
1.002816e+002, 5.838983e+002
1.007637e+002, 5.710529e+002
1.012458e+002, 5.596288e+002
1.017280e+002, 5.498212e+002
1.022101e+002, 5.415293e+002
1.026922e+002, 5.345900e+002
1.031743e+002, 5.290246e+002
1.036564e+002, 5.246564e+002
1.041385e+002, 5.207676e+002
1.046207e+002, 5.170187e+002
1.051028e+002, 5.134880e+002
1.055849e+002, 5.104755e+002
1.060670e+002, 5.081671e+002
1.065491e+002, 5.061730e+002
1.070313e+002, 5.040332e+002
1.075134e+002, 5.016738e+002
1.079955e+002, 4.993280e+002
1.084776e+002, 4.971339e+002
1.089597e+002, 4.949872e+002
1.094418e+002, 4.933778e+002
1.099240e+002, 4.925639e+002
1.104061e+002, 4.922172e+002
1.108882e+002, 4.922724e+002
1.113703e+002, 4.927368e+002
1.118524e+002, 4.933499e+002
1.123345e+002, 4.933681e+002
1.128167e+002, 4.919791e+002
1.132988e+002, 4.910688e+002
1.137809e+002, 4.909593e+002
1.142630e+002, 4.914432e+002
1.147451e+002, 4.923289e+002
1.152272e+002, 4.935323e+002
1.157094e+002, 4.950192e+002
1.161915e+002, 4.959419e+002
1.166736e+002, 4.958081e+002
1.171557e+002, 4.956898e+002
1.176378e+002, 4.959223e+002
1.181199e+002, 4.964826e+002
1.186021e+002, 4.971904e+002
1.190842e+002, 4.978983e+002
1.195663e+002, 4.986054e+002
1.200484e+002, 4.994030e+002
1.205305e+002, 5.004586e+002
1.210126e+002, 5.014980e+002
1.214948e+002, 5.023192e+002
1.219769e+002, 5.029025e+002
1.224590e+002, 5.032121e+002
1.229411e+002, 5.031125e+002
1.234232e+002, 5.026861e+002
1.239053e+002, 5.020777e+002
1.243875e+002, 5.013542e+002
1.248696e+002, 5.004834e+002
1.253517e+002, 4.992929e+002
1.258338e+002, 4.973693e+002
1.263159e+002, 4.957021e+002
1.267980e+002, 4.949985e+002
1.272802e+002, 4.951371e+002
1.277623e+002, 4.955412e+002
1.282444e+002, 4.958864e+002
1.287265e+002, 4.961995e+002
1.292086e+002, 4.961631e+002
1.296907e+002, 4.952964e+002
1.301729e+002, 4.943930e+002
1.306550e+002, 4.939036e+002
1.311371e+002, 4.938410e+002
1.316192e+002, 4.938300e+002
1.321013e+002, 4.933515e+002
1.325834e+002, 4.922104e+002
1.330656e+002, 4.909195e+002
1.335477e+002, 4.893189e+002
1.340298e+002, 4.877030e+002
1.345119e+002, 4.863290e+002
1.349940e+002, 4.852782e+002
1.354761e+002, 4.844010e+002
1.359583e+002, 4.833652e+002
1.364404e+002, 4.817111e+002
1.369225e+002, 4.804874e+002
1.374046e+002, 4.798310e+002
1.378867e+002, 4.796197e+002
1.383688e+002, 4.797936e+002
1.388510e+002, 4.804002e+002
1.393331e+002, 4.812104e+002
1.398152e+002, 4.814446e+002
1.402973e+002, 4.807478e+002
1.407794e+002, 4.801212e+002
1.412615e+002, 4.799726e+002
1.417437e+002, 4.802465e+002
1.422258e+002, 4.806785e+002
1.427079e+002, 4.810486e+002
1.431900e+002, 4.815727e+002
1.436721e+002, 4.826030e+002
1.441542e+002, 4.842885e+002
1.446364e+002, 4.863248e+002
1.451185e+002, 4.884923e+002
1.456006e+002, 4.908171e+002
1.460827e+002, 4.931071e+002
1.465648e+002, 4.955346e+002
1.470469e+002, 4.978023e+002
1.475291e+002, 4.995086e+002
1.480112e+002, 5.003822e+002
1.484933e+002, 5.007532e+002
1.489754e+002, 5.013267e+002
1.494575e+002, 5.020947e+002
1.499396e+002, 5.031363e+002
1.504218e+002, 5.044981e+002
1.509039e+002, 5.060900e+002
1.513860e+002, 5.077285e+002
1.518681e+002, 5.092337e+002
1.523502e+002, 5.107137e+002
1.528323e+002, 5.130085e+002
1.533145e+002, 5.171412e+002
1.537966e+002, 5.211687e+002
1.542787e+002, 5.250425e+002
1.547608e+002, 5.285310e+002
1.552429e+002, 5.312501e+002
1.557250e+002, 5.327965e+002
1.562072e+002, 5.330280e+002
1.566893e+002, 5.341575e+002
1.571714e+002, 5.366930e+002
1.576535e+002, 5.394573e+002
1.581356e+002, 5.417797e+002
1.586177e+002, 5.437844e+002
1.590999e+002, 5.462103e+002
1.595820e+002, 5.498080e+002
1.600641e+002, 5.548353e+002
1.605462e+002, 5.595668e+002
1.610283e+002, 5.637388e+002
1.615104e+002, 5.677881e+002
1.619926e+002, 5.723890e+002
1.624747e+002, 5.775958e+002
1.629568e+002, 5.822520e+002
1.634389e+002, 5.851097e+002
1.639210e+002, 5.862219e+002
1.644031e+002, 5.859451e+002
1.648853e+002, 5.842327e+002
1.653674e+002, 5.811775e+002
1.658495e+002, 5.766963e+002
1.663316e+002, 5.704368e+002
1.668137e+002, 5.636073e+002
1.672958e+002, 5.568989e+002
1.677780e+002, 5.503969e+002
1.682601e+002, 5.448148e+002
1.687422e+002, 5.407448e+002
1.692243e+002, 5.379365e+002
1.697064e+002, 5.353703e+002
1.701885e+002, 5.324270e+002
1.706707e+002, 5.305324e+002
1.711528e+002, 5.307263e+002
1.716349e+002, 5.327006e+002
1.721170e+002, 5.351404e+002
1.725991e+002, 5.370844e+002
1.730812e+002, 5.385085e+002
1.735634e+002, 5.399518e+002
1.740455e+002, 5.409305e+002
1.745276e+002, 5.423913e+002
1.750097e+002, 5.450186e+002
1.754918e+002, 5.486589e+002
1.759739e+002, 5.525051e+002
1.764561e+002, 5.555876e+002
1.769382e+002, 5.575847e+002
1.774203e+002, 5.599843e+002
1.779024e+002, 5.637579e+002
1.783845e+002, 5.671407e+002
1.788666e+002, 5.690032e+002
1.793488e+002, 5.692988e+002
1.798309e+002, 5.688795e+002
1.803130e+002, 5.689398e+002
1.807951e+002, 5.701290e+002
1.812772e+002, 5.702274e+002
1.817593e+002, 5.688677e+002
1.822415e+002, 5.668263e+002
1.827236e+002, 5.647892e+002
1.832057e+002, 5.628822e+002
1.836878e+002, 5.605680e+002
1.841699e+002, 5.569399e+002
1.846520e+002, 5.508387e+002
1.851342e+002, 5.457166e+002
1.856163e+002, 5.418447e+002
1.860984e+002, 5.389033e+002
1.865805e+002, 5.367957e+002
1.870626e+002, 5.355435e+002
1.875447e+002, 5.345580e+002
1.880269e+002, 5.326684e+002
1.885090e+002, 5.294847e+002
1.889911e+002, 5.270671e+002
1.894732e+002, 5.261808e+002
1.899553e+002, 5.263112e+002
1.904374e+002, 5.266351e+002
1.909196e+002, 5.269684e+002
1.914017e+002, 5.273159e+002
1.918838e+002, 5.275061e+002
1.923659e+002, 5.274328e+002
1.928480e+002, 5.279778e+002
1.933301e+002, 5.303619e+002
1.938123e+002, 5.338895e+002
1.942944e+002, 5.359301e+002
1.947765e+002, 5.353328e+002
1.952586e+002, 5.335030e+002
1.957407e+002, 5.321121e+002
1.962228e+002, 5.311741e+002
1.967050e+002, 5.300526e+002
1.971871e+002, 5.284328e+002
1.976692e+002, 5.263071e+002
1.981513e+002, 5.234238e+002
1.986334e+002, 5.190984e+002
1.991155e+002, 5.144960e+002
1.995977e+002, 5.101560e+002
2.000798e+002, 5.061660e+002
2.005619e+002, 5.028412e+002
2.010440e+002, 5.006656e+002
2.015261e+002, 4.998125e+002
2.020082e+002, 4.988950e+002
2.024904e+002, 4.975880e+002
2.029725e+002, 4.962877e+002
2.034546e+002, 4.950845e+002
2.039367e+002, 4.940352e+002
2.044188e+002, 4.932777e+002
2.049009e+002, 4.929940e+002
2.053831e+002, 4.932402e+002
2.058652e+002, 4.938225e+002
2.063473e+002, 4.953668e+002
2.068294e+002, 4.967451e+002
2.073115e+002, 4.971942e+002
2.077936e+002, 4.966465e+002
2.082758e+002, 4.956410e+002
2.087579e+002, 4.948816e+002
2.092400e+002, 4.943240e+002
2.097221e+002, 4.941729e+002
2.102042e+002, 4.946976e+002
2.106863e+002, 4.953625e+002
2.111685e+002, 4.958136e+002
2.116506e+002, 4.959789e+002
2.121327e+002, 4.960225e+002
2.126148e+002, 4.962138e+002
2.130969e+002, 4.968733e+002
2.135790e+002, 4.969249e+002
2.140612e+002, 4.956416e+002
2.145433e+002, 4.942425e+002
2.150254e+002, 4.937343e+002
2.155075e+002, 4.943394e+002
2.159896e+002, 4.955105e+002
2.164717e+002, 4.964902e+002
2.169539e+002, 4.971665e+002
2.174360e+002, 4.979149e+002
2.179181e+002, 4.985325e+002
2.184002e+002, 4.993283e+002
2.188823e+002, 5.007285e+002
2.193644e+002, 5.028370e+002
2.198466e+002, 5.051893e+002
2.203287e+002, 5.072096e+002
2.208108e+002, 5.089136e+002
2.212929e+002, 5.102679e+002
2.217750e+002, 5.113083e+002
2.222571e+002, 5.119805e+002
2.227393e+002, 5.120411e+002
2.232214e+002, 5.113517e+002
2.237035e+002, 5.105838e+002
2.241856e+002, 5.107525e+002
2.246677e+002, 5.117783e+002
2.251498e+002, 5.125431e+002
2.256320e+002, 5.123286e+002
2.261141e+002, 5.117827e+002
2.265962e+002, 5.121132e+002
2.270783e+002, 5.137469e+002
2.275604e+002, 5.155782e+002
2.280425e+002, 5.162872e+002
2.285247e+002, 5.161538e+002
2.290068e+002, 5.163669e+002
2.294889e+002, 5.174269e+002
2.299710e+002, 5.191414e+002
2.304531e+002, 5.211463e+002
2.309352e+002, 5.234816e+002
2.314174e+002, 5.259434e+002
2.318995e+002, 5.283314e+002
2.323816e+002, 5.306933e+002
2.328637e+002, 5.331751e+002
2.333458e+002, 5.359776e+002
2.338279e+002, 5.389675e+002
2.343101e+002, 5.417221e+002
2.347922e+002, 5.440305e+002
2.352743e+002, 5.464072e+002
2.357564e+002, 5.493453e+002
2.362385e+002, 5.525530e+002
2.367206e+002, 5.554641e+002
2.372028e+002, 5.577843e+002
2.376849e+002, 5.595394e+002
2.381670e+002, 5.609147e+002
2.386491e+002, 5.621002e+002
2.391312e+002, 5.625135e+002
2.396133e+002, 5.615273e+002
2.400955e+002, 5.597867e+002
2.405776e+002, 5.583078e+002
2.410597e+002, 5.575970e+002
2.415418e+002, 5.576508e+002
2.420239e+002, 5.585596e+002
2.425060e+002, 5.611888e+002
2.429882e+002, 5.635132e+002
2.434703e+002, 5.647692e+002
2.439524e+002, 5.654131e+002
2.444345e+002, 5.661132e+002
2.449166e+002, 5.672498e+002
2.453987e+002, 5.687390e+002
2.458809e+002, 5.702013e+002
2.463630e+002, 5.720076e+002
2.468451e+002, 5.732425e+002
2.473272e+002, 5.738451e+002
2.478093e+002, 5.737831e+002
2.482914e+002, 5.729816e+002
2.487736e+002, 5.713834e+002
2.492557e+002, 5.690826e+002
2.497378e+002, 5.664779e+002
2.502199e+002, 5.633631e+002
2.507020e+002, 5.601484e+002
2.511841e+002, 5.569608e+002
2.516663e+002, 5.537004e+002
2.521484e+002, 5.502089e+002
2.526305e+002, 5.463832e+002
2.531126e+002, 5.424116e+002
2.535947e+002, 5.387842e+002
2.540768e+002, 5.355258e+002
2.545590e+002, 5.327019e+002
2.550411e+002, 5.304750e+002
2.555232e+002, 5.286115e+002
2.560053e+002, 5.268237e+002
2.564874e+002, 5.249986e+002
2.569695e+002, 5.232469e+002
2.574517e+002, 5.218389e+002
2.579338e+002, 5.211241e+002
2.584159e+002, 5.203597e+002
2.588980e+002, 5.191833e+002
2.593801e+002, 5.181039e+002
2.598622e+002, 5.176903e+002
2.603444e+002, 5.181329e+002
2.608265e+002, 5.191356e+002
2.613086e+002, 5.201591e+002
2.617907e+002, 5.213498e+002
2.622728e+002, 5.223096e+002
2.627549e+002, 5.226899e+002
2.632371e+002, 5.230055e+002
2.637192e+002, 5.237708e+002
2.642013e+002, 5.251224e+002
2.646834e+002, 5.268280e+002
2.651655e+002, 5.285364e+002
2.656476e+002, 5.301047e+002
2.661298e+002, 5.320915e+002
2.666119e+002, 5.348884e+002
2.670940e+002, 5.379113e+002
2.675761e+002, 5.405606e+002
2.680582e+002, 5.427415e+002
2.685403e+002, 5.448418e+002
2.690225e+002, 5.474034e+002
2.695046e+002, 5.506446e+002
2.699867e+002, 5.532047e+002
2.704688e+002, 5.547763e+002
2.709509e+002, 5.558229e+002
2.714330e+002, 5.568887e+002
2.719152e+002, 5.580032e+002
2.723973e+002, 5.585297e+002
2.728794e+002, 5.578034e+002
2.733615e+002, 5.556737e+002
2.738436e+002, 5.532200e+002
2.743257e+002, 5.503056e+002
2.748079e+002, 5.471644e+002
2.752900e+002, 5.439318e+002
2.757721e+002, 5.406193e+002
2.762542e+002, 5.373644e+002
2.767363e+002, 5.342397e+002
2.772184e+002, 5.312744e+002
2.777006e+002, 5.283768e+002
2.781827e+002, 5.254926e+002
2.786648e+002, 5.227394e+002
2.791469e+002, 5.202016e+002
2.796290e+002, 5.178829e+002
2.801111e+002, 5.157518e+002
2.805933e+002, 5.137610e+002
2.810754e+002, 5.119916e+002
2.815575e+002, 5.105678e+002
2.820396e+002, 5.097499e+002
2.825217e+002, 5.089637e+002
2.830038e+002, 5.077234e+002
2.834860e+002, 5.061465e+002
2.839681e+002, 5.048446e+002
2.844502e+002, 5.041475e+002
2.849323e+002, 5.038711e+002
2.854144e+002, 5.035950e+002
2.858965e+002, 5.033661e+002
2.863787e+002, 5.030335e+002
2.868608e+002, 5.023749e+002
2.873429e+002, 5.015121e+002
2.878250e+002, 5.008672e+002
2.883071e+002, 5.005616e+002
2.887892e+002, 5.005750e+002
2.892714e+002, 5.008769e+002
2.897535e+002, 5.014781e+002
2.902356e+002, 5.021729e+002
2.907177e+002, 5.028743e+002
2.911998e+002, 5.035959e+002
2.916819e+002, 5.044316e+002
2.921641e+002, 5.054992e+002
2.926462e+002, 5.064872e+002
2.931283e+002, 5.069256e+002
2.936104e+002, 5.068886e+002
2.940925e+002, 5.070240e+002
2.945746e+002, 5.075588e+002
2.950568e+002, 5.084428e+002
2.955389e+002, 5.096863e+002
2.960210e+002, 5.114334e+002
2.965031e+002, 5.131105e+002
2.969852e+002, 5.139587e+002
2.974673e+002, 5.142962e+002
2.979495e+002, 5.150368e+002
2.984316e+002, 5.169476e+002
2.989137e+002, 5.192451e+002
2.993958e+002, 5.206555e+002
2.998779e+002, 5.209941e+002
3.003600e+002, 5.212141e+002
3.008422e+002, 5.220612e+002
3.013243e+002, 5.232000e+002
3.018064e+002, 5.240212e+002
3.022885e+002, 5.241720e+002
3.027706e+002, 5.241741e+002
3.032527e+002, 5.247516e+002
3.037349e+002, 5.259638e+002
3.042170e+002, 5.269093e+002
3.046991e+002, 5.267845e+002
3.051812e+002, 5.263337e+002
3.056633e+002, 5.265466e+002
3.061454e+002, 5.276132e+002
3.066276e+002, 5.291843e+002
3.071097e+002, 5.311975e+002
3.075918e+002, 5.336096e+002
3.080739e+002, 5.356995e+002
3.085560e+002, 5.370678e+002
3.090381e+002, 5.381133e+002
3.095203e+002, 5.391773e+002
3.100024e+002, 5.402372e+002
3.104845e+002, 5.416844e+002
3.109666e+002, 5.436452e+002
3.114487e+002, 5.461667e+002
3.119308e+002, 5.495898e+002
3.124130e+002, 5.543351e+002
3.128951e+002, 5.594871e+002
3.133772e+002, 5.641465e+002
3.138593e+002, 5.683907e+002
3.143414e+002, 5.725822e+002
3.148235e+002, 5.768690e+002
3.153057e+002, 5.812424e+002
3.157878e+002, 5.858221e+002
3.162699e+002, 5.907570e+002
3.167520e+002, 5.955080e+002
3.172341e+002, 5.993696e+002
3.177162e+002, 6.027236e+002
3.181984e+002, 6.064465e+002
3.186805e+002, 6.108568e+002
3.191626e+002, 6.158000e+002
3.196447e+002, 6.210865e+002
3.201268e+002, 6.267477e+002
3.206089e+002, 6.325928e+002
3.210911e+002, 6.385004e+002
3.215732e+002, 6.445827e+002
3.220553e+002, 6.509684e+002
3.225374e+002, 6.576497e+002
3.230195e+002, 6.647541e+002
3.235016e+002, 6.724474e+002
3.239838e+002, 6.807773e+002
3.244659e+002, 6.892742e+002
3.249480e+002, 6.975515e+002
3.254301e+002, 7.060762e+002
3.259122e+002, 7.153799e+002
3.263943e+002, 7.257031e+002
3.268765e+002, 7.361058e+002
3.273586e+002, 7.458354e+002
3.278407e+002, 7.550597e+002
3.283228e+002, 7.645763e+002
3.288049e+002, 7.749026e+002
3.292870e+002, 7.850743e+002
3.297692e+002, 7.945811e+002
3.302513e+002, 8.033709e+002
3.307334e+002, 8.103891e+002
3.312155e+002, 8.151458e+002
3.316976e+002, 8.177333e+002
3.321797e+002, 8.183372e+002
3.326619e+002, 8.169450e+002
3.331440e+002, 8.136282e+002
3.336261e+002, 8.080394e+002
3.341082e+002, 8.006072e+002
3.345903e+002, 7.917845e+002
3.350724e+002, 7.812760e+002
3.355546e+002, 7.697278e+002
3.360367e+002, 7.578936e+002
3.365188e+002, 7.458250e+002
3.370009e+002, 7.334396e+002
3.374830e+002, 7.202336e+002
3.379651e+002, 7.068212e+002
3.384473e+002, 6.944539e+002
3.389294e+002, 6.836055e+002
3.394115e+002, 6.732992e+002
3.398936e+002, 6.622930e+002
3.403757e+002, 6.508460e+002
3.408578e+002, 6.413651e+002
3.413400e+002, 6.351315e+002
3.418221e+002, 6.309600e+002
3.423042e+002, 6.267934e+002
3.427863e+002, 6.225121e+002
3.432684e+002, 6.187352e+002
3.437505e+002, 6.159888e+002
3.442327e+002, 6.139586e+002
3.447148e+002, 6.117840e+002
3.451969e+002, 6.091207e+002
3.456790e+002, 6.067206e+002
3.461611e+002, 6.058744e+002
3.466432e+002, 6.063098e+002
3.471254e+002, 6.062729e+002
3.476075e+002, 6.052777e+002
3.480896e+002, 6.035836e+002
3.485717e+002, 6.013760e+002
3.490538e+002, 5.986453e+002
3.495359e+002, 5.958453e+002
3.500181e+002, 5.934130e+002
3.505002e+002, 5.911755e+002
3.509823e+002, 5.884160e+002
3.514644e+002, 5.844659e+002
3.519465e+002, 5.805391e+002
3.524286e+002, 5.772357e+002
3.529108e+002, 5.745910e+002
3.533929e+002, 5.727805e+002
3.538750e+002, 5.720876e+002
3.543571e+002, 5.721223e+002
3.548392e+002, 5.718967e+002
3.553214e+002, 5.713303e+002
3.558035e+002, 5.707352e+002
3.562856e+002, 5.702221e+002
3.567677e+002, 5.697568e+002
3.572498e+002, 5.692319e+002
3.577319e+002, 5.685908e+002
3.582141e+002, 5.680290e+002
3.586962e+002, 5.678375e+002
3.591783e+002, 5.680591e+002
3.596604e+002, 5.683740e+002
3.601425e+002, 5.686478e+002
3.606246e+002, 5.690652e+002
3.611068e+002, 5.698078e+002
3.615889e+002, 5.708938e+002
3.620710e+002, 5.721979e+002
3.625531e+002, 5.736240e+002
3.630352e+002, 5.751900e+002
3.635173e+002, 5.769182e+002
3.639995e+002, 5.789340e+002
3.644816e+002, 5.809799e+002
3.649637e+002, 5.827631e+002
3.654458e+002, 5.844612e+002
3.659279e+002, 5.865113e+002
3.664100e+002, 5.891293e+002
3.668922e+002, 5.922666e+002
3.673743e+002, 5.957654e+002
3.678564e+002, 5.998622e+002
3.683385e+002, 6.039565e+002
3.688206e+002, 6.082440e+002
3.693027e+002, 6.123763e+002
3.697849e+002, 6.158875e+002
3.702670e+002, 6.186444e+002
3.707491e+002, 6.209246e+002
3.712312e+002, 6.230514e+002
3.717133e+002, 6.248459e+002
3.721954e+002, 6.270332e+002
3.726776e+002, 6.300036e+002
3.731597e+002, 6.329996e+002
3.736418e+002, 6.352650e+002
3.741239e+002, 6.370303e+002
3.746060e+002, 6.393092e+002
3.750881e+002, 6.429991e+002
3.755703e+002, 6.480448e+002
3.760524e+002, 6.528739e+002
3.765345e+002, 6.566741e+002
3.770166e+002, 6.612142e+002
3.774987e+002, 6.670151e+002
3.779808e+002, 6.737998e+002
3.784630e+002, 6.810786e+002
3.789451e+002, 6.886237e+002
3.794272e+002, 6.967233e+002
3.799093e+002, 7.061676e+002
3.803914e+002, 7.184855e+002
3.808735e+002, 7.296693e+002
3.813557e+002, 7.399566e+002
3.818378e+002, 7.489386e+002
3.823199e+002, 7.566023e+002
3.828020e+002, 7.628323e+002
3.832841e+002, 7.671776e+002
3.837662e+002, 7.692701e+002
3.842484e+002, 7.692267e+002
3.847305e+002, 7.660848e+002
3.852126e+002, 7.580518e+002
3.856947e+002, 7.484167e+002
3.861768e+002, 7.373658e+002
3.866589e+002, 7.254955e+002
3.871411e+002, 7.135944e+002
3.876232e+002, 7.020052e+002
3.881053e+002, 6.908242e+002
3.885874e+002, 6.804875e+002
3.890695e+002, 6.710389e+002
3.895516e+002, 6.624653e+002
3.900338e+002, 6.545276e+002
3.905159e+002, 6.473868e+002
3.909980e+002, 6.411740e+002
3.914801e+002, 6.359176e+002
3.919622e+002, 6.317541e+002
3.924443e+002, 6.290558e+002
3.929265e+002, 6.279694e+002
3.934086e+002, 6.269656e+002
3.938907e+002, 6.255656e+002
3.943728e+002, 6.245411e+002
3.948549e+002, 6.244065e+002
3.953370e+002, 6.250512e+002
3.958192e+002, 6.259857e+002
3.963013e+002, 6.267047e+002
3.967834e+002, 6.274834e+002
3.972655e+002, 6.292455e+002
3.977476e+002, 6.321139e+002
3.982297e+002, 6.356453e+002
3.987119e+002, 6.396301e+002
3.991940e+002, 6.441288e+002
3.996761e+002, 6.493110e+002
4.001582e+002, 6.552924e+002
4.006403e+002, 6.618016e+002
4.011224e+002, 6.688041e+002
4.016046e+002, 6.762991e+002
4.020867e+002, 6.832855e+002
4.025688e+002, 6.890511e+002
4.030509e+002, 6.946580e+002
4.035330e+002, 7.017526e+002
4.040151e+002, 7.103915e+002
4.044973e+002, 7.180753e+002
4.049794e+002, 7.241893e+002
4.054615e+002, 7.285079e+002
4.059436e+002, 7.307282e+002
4.064257e+002, 7.308461e+002
4.069078e+002, 7.285787e+002
4.073900e+002, 7.232189e+002
4.078721e+002, 7.150147e+002
4.083542e+002, 7.058043e+002
4.088363e+002, 6.951863e+002
4.093184e+002, 6.840875e+002
4.098005e+002, 6.730019e+002
4.102827e+002, 6.619518e+002
4.107648e+002, 6.511139e+002
4.112469e+002, 6.405312e+002
4.117290e+002, 6.302824e+002
4.122111e+002, 6.205624e+002
4.126932e+002, 6.110958e+002
4.131754e+002, 6.027015e+002
4.136575e+002, 5.954664e+002
4.141396e+002, 5.894084e+002
4.146217e+002, 5.847623e+002
4.151038e+002, 5.814935e+002
4.155859e+002, 5.789050e+002
4.160681e+002, 5.763982e+002
4.165502e+002, 5.740074e+002
