##NAMES=Paradamite
##RRUFFID=R050582
##IDEAL CHEMISTRY=Zn^2+^_2_As^5+^O_4_(OH)
##LOCALITY=Ojuela mine, Mapimi, Durango, Mexico
##OWNER=RRUFF
##SOURCE=University of Arizona Mineral Museum
##DESCRIPTION=Groups of tabular pale yellow crystals
##STATUS=The identification of this mineral has been confirmed by X-ray diffraction and chemical analysis
##URL=rruff.info/R050582
##MEASURED CHEMISTRY=Zn_2.00_(As_1.00_O_4_)(OH)
92.06543, 1656.964
92.54755, 1625.657
93.02966, 1626.021
93.51178, 1660.799
93.99390, 1694.977
94.47601, 1726.444
94.95813, 1757.096
95.44025, 1790.667
95.92236, 1830.760
96.40448, 1877.518
96.88660, 1917.833
97.36871, 1968.867
97.85082, 2005.448
98.33294, 2009.062
98.81506, 1976.997
99.29717, 1920.993
99.77929, 1854.198
100.2614, 1778.117
100.7435, 1711.501
101.2256, 1659.230
101.7078, 1618.643
102.1899, 1585.065
102.6720, 1557.086
103.1541, 1536.832
103.6362, 1524.972
104.1183, 1521.231
104.6005, 1520.936
105.0826, 1519.746
105.5647, 1516.939
106.0468, 1518.199
106.5289, 1525.899
107.0110, 1536.692
107.4931, 1547.948
107.9753, 1559.026
108.4574, 1572.681
108.9395, 1594.170
109.4216, 1623.738
109.9037, 1662.488
110.3858, 1705.039
110.8680, 1757.125
111.3501, 1820.519
111.8322, 1895.479
112.3143, 1985.975
112.7964, 2124.145
113.2785, 2305.864
113.7607, 2533.040
114.2428, 2868.346
114.7249, 3261.216
115.2070, 3598.591
115.6891, 3808.341
116.1712, 3871.413
116.6534, 3786.433
117.1355, 3425.498
117.6176, 3013.428
118.0997, 2713.993
118.5818, 2541.794
119.0639, 2438.133
119.5461, 2400.060
120.0282, 2400.445
120.5103, 2348.192
120.9924, 2187.856
121.4745, 1957.311
121.9566, 1737.664
122.4388, 1525.386
122.9209, 1345.958
123.4030, 1211.156
123.8851, 1116.581
124.3672, 1046.069
124.8493, 992.5538
125.3315, 956.6069
125.8136, 927.0116
126.2957, 907.9460
126.7778, 892.2819
127.2599, 877.7031
127.7420, 863.8574
128.2242, 851.1482
128.7063, 840.4102
129.1884, 832.6682
129.6705, 824.8575
130.1526, 815.6913
130.6347, 807.1121
131.1169, 800.2370
131.5990, 795.5123
132.0811, 793.1354
132.5632, 793.6302
133.0453, 799.1516
133.5274, 805.1630
134.0096, 811.5386
134.4917, 818.2767
134.9738, 826.4294
135.4559, 837.3326
135.9380, 848.2036
136.4201, 849.2181
136.9023, 837.8010
137.3844, 822.6719
137.8665, 805.6427
138.3486, 787.3069
138.8307, 770.2642
139.3128, 756.0751
139.7950, 744.5051
140.2771, 734.3359
140.7592, 725.1395
141.2413, 717.6473
141.7234, 712.9601
142.2055, 711.4482
142.6877, 710.9423
143.1698, 709.9284
143.6519, 709.2976
144.1340, 710.3109
144.6161, 713.7625
145.0982, 718.9926
145.5803, 724.2499
146.0625, 729.0588
146.5446, 734.7471
147.0267, 741.6993
147.5088, 749.6906
147.9909, 758.3889
148.4730, 767.5690
148.9552, 777.2655
149.4373, 787.7100
149.9194, 799.4071
150.4015, 811.5968
150.8836, 824.4023
151.3657, 837.5753
151.8479, 850.8812
152.3300, 864.0978
152.8121, 877.5404
153.2942, 889.4138
153.7763, 897.7903
154.2584, 906.6223
154.7406, 917.5745
155.2227, 930.8895
155.7048, 946.2704
156.1869, 963.3849
156.6690, 982.3663
157.1511, 1003.715
157.6333, 1027.584
158.1154, 1053.635
158.5975, 1081.282
159.0796, 1110.387
159.5617, 1141.592
160.0438, 1176.069
160.5260, 1213.594
161.0081, 1253.565
161.4902, 1294.172
161.9723, 1337.292
162.4544, 1386.545
162.9365, 1442.729
163.4187, 1505.069
163.9008, 1571.681
164.3829, 1641.944
164.8650, 1717.000
165.3471, 1800.791
165.8292, 1891.585
166.3113, 1977.470
166.7935, 2060.551
167.2756, 2132.173
167.7577, 2189.114
168.2398, 2231.118
168.7219, 2256.674
169.2040, 2265.244
169.6862, 2257.490
170.1683, 2228.028
170.6504, 2166.242
171.1325, 2088.235
171.6146, 1997.018
172.0967, 1894.605
172.5789, 1787.117
173.0610, 1681.413
173.5431, 1572.268
174.0252, 1478.399
174.5073, 1400.002
174.9894, 1333.716
175.4716, 1277.146
175.9537, 1229.734
176.4358, 1191.864
176.9179, 1164.699
177.4000, 1152.038
177.8821, 1146.938
178.3643, 1149.249
178.8464, 1158.430
179.3285, 1173.355
179.8106, 1193.584
180.2927, 1220.530
180.7748, 1258.391
181.2570, 1308.015
181.7391, 1367.390
182.2212, 1437.063
182.7033, 1516.325
183.1854, 1604.822
183.6675, 1703.352
184.1497, 1809.055
184.6318, 1914.473
185.1139, 2030.170
185.5960, 2131.060
186.0781, 2216.227
186.5602, 2280.957
187.0423, 2311.251
187.5245, 2298.981
188.0066, 2245.425
188.4887, 2163.180
188.9708, 2044.592
189.4529, 1913.892
189.9350, 1779.035
190.4172, 1641.762
190.8993, 1515.083
191.3814, 1405.999
191.8635, 1312.063
192.3456, 1226.932
192.8277, 1150.314
193.3099, 1082.874
193.7920, 1026.429
194.2741, 981.7550
194.7562, 941.6920
195.2383, 903.6666
195.7204, 869.0289
196.2026, 839.8134
196.6847, 816.7479
197.1668, 798.1904
197.6489, 782.0461
198.1310, 768.9027
198.6131, 756.6257
199.0953, 743.5729
199.5774, 731.4131
200.0595, 722.0770
200.5416, 716.3563
201.0237, 713.0470
201.5058, 709.4399
201.9880, 704.5015
202.4701, 701.2657
202.9522, 700.4656
203.4343, 701.2355
203.9164, 702.8085
204.3985, 704.8353
204.8807, 707.3611
205.3628, 710.4463
205.8449, 712.8866
206.3270, 717.7563
206.8091, 726.3757
207.2912, 737.0770
207.7733, 747.9606
208.2555, 758.0231
208.7376, 767.8262
209.2197, 779.4766
209.7018, 794.8331
210.1839, 810.0834
210.6660, 823.6410
211.1482, 837.0932
211.6303, 852.6055
212.1124, 871.3367
212.5945, 892.7961
213.0766, 915.7877
213.5587, 939.4324
214.0409, 965.3275
214.5230, 993.9590
215.0051, 1025.070
215.4872, 1058.348
215.9693, 1093.518
216.4514, 1130.956
216.9336, 1172.029
217.4157, 1215.797
217.8978, 1263.291
218.3799, 1316.240
218.8620, 1373.312
219.3441, 1431.786
219.8263, 1489.885
220.3084, 1548.825
220.7905, 1611.237
221.2726, 1676.302
221.7547, 1745.770
222.2368, 1820.401
222.7190, 1900.154
223.2011, 1984.873
223.6832, 2074.530
224.1653, 2169.801
224.6474, 2270.985
225.1295, 2380.168
225.6117, 2490.198
226.0938, 2599.368
226.5759, 2706.917
227.0580, 2804.188
227.5401, 2886.450
228.0222, 2956.515
228.5043, 3018.856
228.9865, 3071.642
229.4686, 3123.355
229.9507, 3176.702
230.4328, 3231.620
230.9149, 3298.555
231.3970, 3377.878
231.8792, 3474.195
232.3613, 3592.944
232.8434, 3735.321
233.3255, 3891.265
233.8076, 4057.274
234.2897, 4235.271
234.7719, 4401.291
235.2540, 4570.845
235.7361, 4710.313
236.2182, 4802.509
236.7003, 4844.046
237.1824, 4830.827
237.6646, 4754.804
238.1467, 4610.848
238.6288, 4428.386
239.1109, 4183.131
239.5930, 3917.681
240.0751, 3643.298
240.5573, 3364.927
241.0394, 3092.465
241.5215, 2836.203
242.0036, 2592.855
242.4857, 2376.023
242.9678, 2193.880
243.4500, 2032.022
243.9321, 1885.771
244.4142, 1754.324
244.8963, 1637.728
245.3784, 1537.394
245.8605, 1456.369
246.3427, 1381.760
246.8248, 1313.629
247.3069, 1251.422
247.7890, 1195.605
248.2711, 1145.770
248.7532, 1101.210
249.2354, 1060.986
249.7175, 1025.948
250.1996, 992.2878
250.6817, 958.0952
251.1638, 926.7913
251.6459, 900.1107
252.1281, 877.9505
252.6102, 859.5034
253.0923, 844.2621
253.5744, 833.0828
254.0565, 820.1722
254.5386, 803.9573
255.0208, 787.7653
255.5029, 772.2408
255.9850, 757.8815
256.4671, 745.5030
256.9492, 735.9188
257.4313, 729.4071
257.9135, 722.8204
258.3956, 715.6368
258.8777, 708.8885
259.3598, 702.7462
259.8419, 697.3609
260.3240, 693.0455
260.8062, 690.1514
261.2883, 688.6686
261.7704, 686.9076
262.2525, 683.5800
262.7346, 681.2912
263.2167, 681.5139
263.6989, 683.7013
264.1810, 686.2907
264.6631, 688.2817
265.1452, 689.8082
265.6273, 692.0802
266.1094, 695.3688
266.5916, 698.9242
267.0737, 702.1182
267.5558, 705.3351
268.0379, 709.5677
268.5200, 715.4551
269.0021, 722.6713
269.4843, 729.9261
269.9664, 736.7357
270.4485, 744.1203
270.9306, 752.7934
271.4127, 762.2471
271.8948, 771.1473
272.3770, 778.6229
272.8591, 785.7175
273.3412, 795.5843
273.8233, 808.7230
274.3054, 822.6513
274.7875, 836.1334
275.2697, 849.8964
275.7518, 865.2493
276.2339, 882.6530
276.7160, 901.8378
277.1981, 922.5254
277.6802, 944.6933
278.1623, 967.7292
278.6444, 991.8909
279.1266, 1016.845
279.6087, 1041.974
280.0908, 1067.180
280.5729, 1092.346
281.0550, 1118.254
281.5371, 1145.285
282.0193, 1169.030
282.5014, 1190.445
282.9835, 1207.263
283.4656, 1216.779
283.9477, 1218.795
284.4298, 1212.133
284.9120, 1193.016
285.3941, 1162.837
285.8762, 1128.766
286.3583, 1091.499
286.8404, 1051.408
287.3225, 1007.654
287.8047, 959.5976
288.2868, 912.3992
288.7689, 869.8586
289.2510, 831.6212
289.7331, 795.4737
290.2152, 760.7419
290.6974, 728.4506
291.1795, 700.1961
291.6616, 676.0572
292.1437, 654.2477
292.6258, 633.6008
293.1079, 614.5703
293.5901, 597.7792
294.0722, 583.6887
294.5543, 571.4293
295.0364, 560.3175
295.5185, 550.3286
296.0006, 541.9105
296.4828, 535.8756
296.9649, 531.2887
297.4470, 526.3914
297.9291, 521.1470
298.4112, 515.5516
298.8933, 508.9972
299.3755, 501.8155
299.8576, 495.9356
300.3397, 492.2728
300.8218, 490.0138
301.3039, 487.8787
301.7860, 485.8441
302.2682, 484.1180
302.7503, 483.0619
303.2324, 482.4461
303.7145, 481.3368
304.1966, 479.1952
304.6787, 477.0898
305.1609, 476.4056
305.6430, 476.9578
306.1251, 477.1582
306.6072, 476.2547
307.0893, 474.5265
307.5714, 472.6718
308.0536, 470.9445
308.5357, 468.5913
309.0178, 464.5164
309.4999, 459.2615
309.9820, 454.1781
310.4641, 449.5209
310.9463, 445.3680
311.4284, 442.1969
311.9105, 440.2668
312.3926, 437.9711
312.8747, 433.6720
313.3568, 428.4000
313.8390, 424.0353
314.3211, 421.3237
314.8032, 419.2461
315.2853, 416.7765
315.7674, 413.9121
316.2495, 410.9874
316.7317, 407.7253
317.2138, 404.7568
317.6959, 403.1938
318.1780, 403.6962
318.6601, 404.0842
319.1422, 402.3848
319.6243, 398.9125
320.1064, 395.9029
320.5886, 394.0775
321.0707, 392.9966
321.5528, 391.9711
322.0349, 390.9659
322.5170, 390.3306
322.9991, 390.4807
323.4813, 391.1562
323.9634, 391.6397
324.4455, 391.8158
324.9276, 391.7445
325.4097, 391.4072
325.8918, 390.8540
326.3740, 390.3042
326.8561, 389.7069
327.3382, 389.2038
327.8203, 389.0609
328.3024, 389.3453
328.7845, 389.7556
329.2667, 390.0586
329.7488, 390.3179
330.2309, 390.7026
330.7130, 391.3884
331.1951, 392.1080
331.6772, 392.5773
332.1594, 392.7986
332.6415, 392.9257
333.1236, 392.7206
333.6057, 392.6628
334.0878, 393.7070
334.5699, 396.4105
335.0521, 399.2318
335.5342, 401.0031
336.0163, 401.9904
336.4984, 403.4246
336.9805, 405.8220
337.4626, 408.7197
337.9448, 411.1346
338.4269, 412.8481
338.9090, 415.5415
339.3911, 420.8868
339.8732, 427.4976
340.3553, 432.4339
340.8375, 434.8154
341.3196, 436.6988
341.8017, 440.4582
342.2838, 445.9016
342.7659, 451.3922
343.2480, 457.1002
343.7302, 462.4427
344.2123, 466.3566
344.6944, 468.7803
345.1765, 471.4277
345.6586, 475.3436
346.1407, 480.6534
346.6229, 487.0203
347.1050, 495.1851
347.5871, 503.6895
348.0692, 511.5513
348.5513, 518.9308
349.0334, 526.6522
349.5156, 534.9603
349.9977, 543.9420
350.4798, 553.6608
350.9619, 563.5790
351.4440, 574.9641
351.9261, 588.8577
352.4083, 604.2433
352.8904, 619.4200
353.3725, 633.7648
353.8546, 648.2320
354.3367, 664.3918
354.8188, 682.5554
355.3010, 701.0347
355.7831, 720.2981
356.2652, 739.4025
356.7473, 758.6319
357.2294, 777.6418
357.7115, 793.9110
358.1937, 805.6250
358.6758, 812.4485
359.1579, 813.6848
359.6400, 808.8270
360.1221, 799.5776
360.6042, 785.5460
361.0863, 767.6740
361.5685, 748.1866
362.0506, 728.1751
362.5327, 707.5963
363.0148, 686.1818
363.4969, 662.3630
363.9790, 639.7842
364.4612, 618.2260
364.9433, 598.4050
365.4254, 581.6237
365.9075, 568.2554
366.3896, 557.5237
366.8717, 548.2838
367.3539, 541.0511
367.8360, 534.3961
368.3181, 527.4138
368.8002, 521.6579
369.2823, 518.7502
369.7644, 518.3923
370.2466, 518.5962
370.7287, 517.4769
371.2108, 514.8912
371.6929, 513.5234
372.1750, 513.3405
372.6571, 514.2958
373.1393, 516.8184
373.6214, 520.4171
374.1035, 524.3459
374.5856, 528.1829
375.0677, 532.0472
375.5498, 536.3090
376.0320, 540.4241
376.5141, 545.9159
376.9962, 553.2406
377.4783, 561.6650
377.9604, 570.4813
378.4425, 579.5653
378.9247, 589.2400
379.4068, 599.7766
379.8889, 610.8430
380.3710, 624.0018
380.8531, 640.2911
381.3352, 657.7621
381.8174, 675.4976
382.2995, 693.6900
382.7816, 713.2420
383.2637, 735.0458
383.7458, 758.7394
384.2279, 781.6114
384.7101, 803.8085
385.1922, 824.8333
385.6743, 847.3445
386.1564, 867.8121
386.6385, 882.4694
387.1206, 889.7462
387.6028, 890.4064
388.0849, 885.2401
388.5670, 873.8821
389.0491, 858.4384
389.5312, 837.1852
390.0133, 813.1436
390.4955, 786.9040
390.9776, 758.9134
391.4597, 732.1210
391.9418, 708.3403
392.4239, 687.5113
392.9060, 670.0168
393.3882, 656.4261
393.8703, 645.3995
394.3524, 635.7418
394.8345, 627.7315
395.3166, 622.2686
395.7987, 620.2385
396.2809, 620.5109
396.7630, 621.7922
397.2451, 624.1155
397.7272, 627.0817
398.2093, 630.3572
398.6914, 634.3894
399.1736, 639.6760
399.6557, 646.3642
400.1378, 654.0357
400.6199, 662.7778
401.1020, 672.3300
401.5841, 681.8800
402.0662, 691.0790
402.5483, 700.6932
403.0305, 711.7751
403.5126, 724.2241
403.9947, 736.8181
404.4768, 748.5641
404.9589, 760.8842
405.4410, 775.6145
405.9232, 792.5260
406.4053, 809.2076
406.8874, 823.8066
407.3695, 836.8939
407.8516, 852.0175
408.3337, 870.3292
408.8159, 888.9540
409.2980, 907.3298
409.7801, 925.4374
410.2622, 943.1568
410.7443, 960.5963
411.2264, 977.9630
411.7086, 995.8027
412.1907, 1014.840
412.6728, 1032.274
413.1549, 1049.058
413.6370, 1063.586
414.1191, 1074.690
414.6013, 1082.461
415.0834, 1087.954
415.5655, 1092.232
416.0476, 1095.092
416.5297, 1092.645
417.0118, 1082.168
417.4940, 1069.248
417.9761, 1055.041
418.4582, 1038.728
418.9403, 1019.067
419.4224, 995.5341
419.9045, 969.5602
420.3867, 943.3010
420.8688, 917.0308
421.3509, 890.0897
421.8330, 862.1522
422.3151, 833.9958
422.7972, 805.4009
423.2794, 776.9471
423.7615, 750.0341
424.2436, 725.9692
424.7257, 704.4675
425.2078, 683.2288
425.6899, 661.7696
426.1721, 641.5492
426.6542, 623.0270
427.1363, 605.7811
427.6184, 589.1359
428.1005, 572.7560
428.5826, 557.5395
429.0648, 545.3440
429.5469, 536.1490
430.0290, 525.9750
430.5111, 512.9730
430.9932, 499.9310
431.4753, 489.3336
431.9575, 480.9757
432.4396, 473.1407
432.9217, 464.7766
433.4038, 456.5448
433.8859, 449.7737
434.3680, 444.6918
434.8502, 439.7068
435.3323, 433.6243
435.8144, 426.9704
436.2965, 421.1899
436.7786, 416.6652
437.2607, 412.5117
437.7429, 408.1981
438.2250, 403.9236
438.7071, 400.1073
439.1892, 396.8635
439.6713, 394.1974
440.1534, 392.1371
440.6356, 390.6844
441.1177, 389.9933
441.5998, 391.0656
442.0819, 392.1264
442.5640, 391.4686
443.0461, 389.4642
443.5282, 387.9330
444.0103, 388.1237
444.4925, 389.7737
444.9746, 391.4316
445.4567, 393.3768
445.9388, 394.9727
446.4209, 395.5010
446.9030, 395.9736
447.3852, 397.5785
447.8673, 400.5398
448.3494, 403.9423
448.8315, 406.3465
449.3136, 407.0888
449.7957, 410.1816
450.2779, 417.9759
450.7600, 425.8766
451.2421, 432.3595
451.7242, 437.7978
452.2063, 443.0284
452.6884, 448.3595
453.1706, 454.0374
453.6527, 460.8546
454.1348, 469.4208
454.6169, 477.0993
455.0990, 481.7618
455.5811, 486.2841
456.0633, 492.5203
456.5454, 500.6693
457.0275, 510.0641
457.5096, 520.6111
457.9917, 532.0569
458.4738, 543.7739
458.9560, 555.9297
459.4381, 567.8298
459.9202, 578.1798
460.4023, 588.0646
460.8844, 599.7564
461.3665, 614.4448
461.8487, 629.8127
462.3308, 643.7775
462.8129, 656.9091
463.2950, 671.4016
463.7771, 688.3411
464.2592, 706.1104
464.7414, 722.7194
465.2235, 738.2254
465.7056, 752.5937
466.1877, 766.6771
466.6698, 779.1205
467.1519, 788.3545
467.6341, 794.7726
468.1162, 800.2478
468.5983, 806.0716
469.0804, 811.8010
469.5625, 815.1350
470.0446, 816.0863
470.5268, 814.5026
471.0089, 808.5073
471.4910, 801.0336
471.9731, 794.6384
472.4552, 789.8905
472.9373, 785.9476
473.4195, 781.5633
473.9016, 776.4646
474.3837, 774.6563
474.8658, 778.6252
475.3479, 783.3753
475.8300, 786.7959
476.3122, 790.3177
476.7943, 796.1133
477.2764, 805.1173
477.7585, 816.4072
478.2406, 828.5507
478.7227, 841.3531
479.2049, 856.3286
479.6870, 874.2412
480.1691, 894.1281
480.6512, 915.6123
481.1333, 938.3528
481.6154, 961.1113
482.0976, 983.4476
482.5797, 1005.390
483.0618, 1026.492
483.5439, 1046.697
484.0260, 1068.717
484.5081, 1095.855
484.9902, 1124.326
485.4724, 1146.327
485.9545, 1160.559
486.4366, 1172.794
486.9187, 1185.160
487.4008, 1196.662
487.8829, 1206.464
488.3651, 1214.331
488.8472, 1218.966
489.3293, 1218.867
489.8114, 1214.065
490.2935, 1208.981
490.7756, 1202.962
491.2578, 1197.478
491.7399, 1192.260
492.2220, 1188.091
492.7041, 1186.001
493.1862, 1186.338
493.6683, 1188.622
494.1505, 1192.161
494.6326, 1196.847
495.1147, 1203.183
495.5968, 1211.275
496.0789, 1220.957
496.5610, 1234.304
497.0432, 1248.940
497.5253, 1261.307
498.0074, 1270.096
498.4895, 1273.885
498.9716, 1269.981
499.4537, 1258.170
499.9359, 1239.784
500.4180, 1213.583
500.9001, 1181.460
501.3822, 1144.752
501.8643, 1103.630
502.3464, 1060.464
502.8286, 1013.474
503.3107, 966.0916
503.7928, 923.0168
504.2749, 884.4977
504.7570, 848.2582
505.2391, 813.0831
505.7213, 779.4630
506.2034, 749.2450
506.6855, 722.4505
507.1676, 698.3469
507.6497, 677.7786
508.1318, 659.2203
508.6140, 641.3297
509.0961, 623.8199
509.5782, 606.7448
510.0603, 590.3204
510.5424, 574.5002
511.0245, 558.2714
511.5067, 539.5783
511.9888, 523.0248
512.4709, 510.7081
512.9530, 500.1946
513.4351, 488.8805
513.9172, 476.0620
514.3994, 462.8201
514.8815, 450.2145
515.3636, 438.1535
515.8457, 427.4040
516.3278, 418.5757
516.8099, 410.2632
517.2921, 401.2963
517.7742, 392.6014
518.2563, 385.8479
518.7384, 381.9215
519.2205, 378.8155
519.7026, 374.3089
520.1848, 368.5776
520.6669, 362.9165
521.1490, 357.4415
521.6311, 352.4043
522.1132, 348.2704
522.5953, 344.8944
523.0775, 341.7326
523.5596, 338.4185
524.0417, 335.5512
524.5238, 334.4278
525.0059, 334.1690
525.4880, 331.8942
525.9702, 326.2313
526.4523, 319.4532
526.9344, 315.4711
527.4165, 315.7382
527.8986, 315.2169
528.3807, 313.3137
528.8629, 311.2430
529.3450, 309.4142
529.8271, 307.9804
530.3092, 307.3378
530.7913, 307.8275
531.2734, 308.5674
531.7556, 306.9546
532.2377, 301.4770
532.7198, 297.9586
533.2019, 299.4898
533.6840, 301.3656
534.1661, 300.6827
534.6483, 297.8514
535.1304, 295.3724
535.6125, 295.0090
536.0946, 295.6527
536.5767, 295.2733
537.0588, 293.8295
537.5410, 292.1941
538.0231, 290.6305
538.5052, 289.1271
538.9873, 287.5796
539.4694, 285.9021
539.9515, 284.7108
540.4337, 284.8783
540.9158, 285.1356
541.3979, 284.0106
541.8800, 281.6469
542.3621, 279.1886
542.8442, 277.2501
543.3264, 275.9160
543.8085, 275.5031
544.2906, 277.8060
544.7726, 278.4967
545.2548, 276.6070
545.7369, 273.8174
546.2190, 270.7632
546.7011, 267.9047
547.1832, 266.1135
547.6653, 266.2862
548.1475, 267.8535
548.6296, 268.4800
549.1117, 267.7540
549.5938, 267.1713
550.0759, 267.2718
550.5580, 267.6085
551.0402, 268.0889
551.5223, 268.6408
552.0044, 268.5970
552.4865, 266.7214
552.9686, 264.3090
553.4507, 264.1563
553.9329, 266.3869
554.4150, 267.8290
554.8971, 266.3676
555.3792, 263.3881
555.8613, 262.6115
556.3434, 264.9802
556.8256, 266.7192
557.3077, 267.0477
557.7898, 266.4893
558.2719, 264.9109
558.7540, 262.7339
559.2361, 261.5792
559.7183, 262.8042
560.2004, 265.4644
560.6825, 265.3434
561.1646, 259.4754
561.6467, 255.9302
562.1288, 256.5509
562.6110, 258.5907
563.0931, 260.7986
563.5752, 262.6933
564.0573, 263.5226
564.5394, 262.2296
565.0215, 259.7865
565.5037, 258.9102
565.9858, 259.8887
566.4679, 260.4630
566.9500, 259.2018
567.4321, 257.6552
567.9142, 258.2881
568.3964, 261.3354
568.8785, 263.1744
569.3606, 261.1820
569.8427, 258.3669
570.3248, 258.0499
570.8069, 259.9574
571.2891, 261.8748
571.7712, 262.6520
572.2533, 262.4981
572.7354, 261.8952
573.2175, 260.4442
573.6996, 259.2305
574.1818, 258.0751
574.6639, 257.2912
575.1460, 257.2863
575.6281, 257.8162
576.1102, 258.2298
576.5923, 258.1066
577.0745, 257.7755
577.5566, 258.1228
578.0387, 259.3863
578.5208, 260.0146
579.0029, 259.3937
579.4850, 258.3527
579.9672, 257.2498
580.4493, 256.2200
580.9314, 255.8102
581.4135, 256.9861
581.8956, 258.2308
582.3777, 257.6902
582.8599, 255.8708
583.3420, 254.7620
583.8241, 255.0993
584.3062, 256.1074
584.7883, 256.7774
585.2704, 257.0371
585.7526, 257.2916
586.2347, 257.7202
586.7168, 257.9566
587.1989, 257.8335
587.6810, 257.4171
588.1631, 256.7421
