##NAMES=Parabutlerite
##RRUFFID=R060754
##IDEAL CHEMISTRY=Fe^3+^S^6+^O_4_(OH)&#183;2H_2_O
##LOCALITY=Chuquicamata, Chile
##OWNER=RRUFF
##SOURCE=Michael Scott
##DESCRIPTION=Aggregate of pale orange grains
##STATUS=The identification of this mineral has been confirmed by X-ray diffraction.
##URL=rruff.info/R060754
90.190, 185.568
90.673, 200.340
91.155, 209.962
91.637, 211.135
92.119, 209.926
92.601, 208.775
93.083, 207.114
93.565, 202.142
94.047, 190.003
94.529, 166.634
95.012, 154.274
95.494, 159.124
95.976, 168.016
96.458, 172.875
96.940, 172.636
97.422, 171.820
97.904, 176.701
98.386, 192.124
98.869, 202.875
99.351, 208.662
99.833, 209.951
100.315, 205.121
100.797, 193.375
101.279, 180.009
101.761, 175.914
102.243, 185.735
102.726, 192.706
103.208, 192.300
103.690, 186.958
104.172, 180.655
104.654, 174.388
105.136, 168.822
105.618, 164.971
106.100, 161.148
106.582, 161.439
107.064, 172.102
107.547, 190.268
108.029, 202.355
108.511, 198.732
108.993, 186.714
109.475, 183.266
109.957, 195.083
110.439, 207.170
110.921, 204.142
111.404, 185.219
111.886, 169.375
112.368, 168.856
112.850, 177.391
113.332, 187.041
113.814, 198.828
114.296, 208.774
114.778, 209.002
115.260, 195.695
115.743, 184.682
116.225, 187.503
116.707, 197.158
117.189, 203.738
117.671, 199.686
118.153, 190.423
118.635, 191.758
119.117, 208.067
119.600, 228.550
120.082, 250.759
120.564, 272.789
121.046, 290.773
121.528, 299.690
122.010, 301.093
122.492, 309.771
122.974, 328.768
123.456, 352.679
123.939, 382.011
124.421, 414.618
124.903, 446.254
125.385, 473.186
125.867, 495.326
126.349, 515.086
126.831, 527.537
127.313, 541.801
127.796, 561.808
128.278, 587.104
128.760, 614.935
129.242, 643.960
129.724, 677.557
130.206, 699.408
130.688, 701.793
131.170, 700.125
131.652, 701.477
132.135, 707.034
132.617, 714.271
133.099, 720.095
133.581, 724.628
134.063, 727.197
134.545, 722.143
135.027, 719.120
135.509, 726.934
135.992, 746.681
136.474, 770.846
136.956, 786.997
137.438, 787.641
137.920, 791.844
138.402, 800.459
138.884, 811.855
139.366, 824.294
139.848, 837.204
140.331, 851.916
140.813, 870.935
141.295, 898.752
141.777, 925.471
142.259, 947.317
142.741, 969.159
143.223, 997.759
143.705, 1036.015
144.188, 1079.042
144.670, 1115.006
145.152, 1139.679
145.634, 1163.292
146.116, 1186.965
146.598, 1210.397
147.080, 1232.488
147.562, 1252.488
148.044, 1271.997
148.527, 1296.636
149.009, 1334.032
149.491, 1365.592
149.973, 1386.576
150.455, 1398.655
150.937, 1403.383
151.419, 1399.246
151.901, 1391.223
152.383, 1396.298
152.866, 1425.999
153.348, 1451.821
153.830, 1461.044
154.312, 1457.403
154.794, 1451.444
155.276, 1448.269
155.758, 1446.449
156.240, 1441.078
156.723, 1424.245
157.205, 1413.077
157.687, 1421.362
158.169, 1444.971
158.651, 1464.509
159.133, 1466.625
159.615, 1458.479
160.097, 1463.050
160.579, 1488.242
161.062, 1517.303
161.544, 1539.993
162.026, 1556.738
162.508, 1572.595
162.990, 1592.156
163.472, 1611.671
163.954, 1622.003
164.436, 1612.175
164.919, 1603.364
165.401, 1615.857
165.883, 1648.948
166.365, 1680.849
166.847, 1701.621
167.329, 1711.528
167.811, 1712.137
168.293, 1694.942
168.775, 1676.573
169.258, 1675.806
169.740, 1693.453
170.222, 1707.855
170.704, 1701.644
171.186, 1685.641
171.668, 1679.773
172.150, 1691.800
172.632, 1710.711
173.115, 1727.093
173.597, 1741.330
174.079, 1749.503
174.561, 1741.147
175.043, 1727.362
175.525, 1726.543
176.007, 1750.934
176.489, 1781.739
176.971, 1795.047
177.454, 1788.181
177.936, 1780.945
178.418, 1787.037
178.900, 1798.656
179.382, 1804.389
179.864, 1794.296
180.346, 1783.966
180.828, 1799.133
181.311, 1845.810
181.793, 1887.012
182.275, 1896.507
182.757, 1890.089
183.239, 1884.719
183.721, 1884.713
184.203, 1888.125
184.685, 1892.884
185.167, 1899.327
185.650, 1905.484
186.132, 1907.343
186.614, 1909.150
187.096, 1916.959
187.578, 1935.821
188.060, 1957.436
188.542, 1970.415
189.024, 1973.633
189.507, 1972.355
189.989, 1964.643
190.471, 1955.133
190.953, 1949.339
191.435, 1950.581
191.917, 1953.934
192.399, 1949.175
192.881, 1932.041
193.363, 1924.822
193.846, 1949.110
194.328, 1984.820
194.810, 2011.652
195.292, 2022.115
195.774, 2024.467
196.256, 2029.701
196.738, 2038.516
197.220, 2047.312
197.702, 2054.715
198.185, 2061.299
198.667, 2066.915
199.149, 2070.435
199.631, 2075.339
200.113, 2086.827
200.595, 2105.895
201.077, 2126.806
201.559, 2150.168
202.042, 2173.258
202.524, 2192.681
203.006, 2206.614
203.488, 2219.630
203.970, 2236.523
204.452, 2257.138
204.934, 2282.793
205.416, 2318.269
205.898, 2357.106
206.380, 2394.243
206.863, 2428.987
207.345, 2461.156
207.827, 2490.845
208.309, 2518.139
208.791, 2541.951
209.273, 2559.324
209.755, 2574.321
210.238, 2588.566
210.720, 2601.382
211.202, 2618.629
211.684, 2651.679
212.166, 2701.947
212.648, 2739.726
213.130, 2744.804
213.612, 2740.859
214.094, 2749.525
214.577, 2774.476
215.059, 2801.083
215.541, 2818.710
216.023, 2827.360
216.505, 2823.789
216.987, 2795.248
217.469, 2763.872
217.951, 2750.732
218.434, 2758.206
218.916, 2767.908
219.398, 2762.341
219.880, 2743.562
220.362, 2734.962
220.844, 2749.868
221.326, 2767.852
221.808, 2769.414
222.290, 2754.270
222.773, 2737.898
223.255, 2729.477
223.737, 2728.229
224.219, 2729.675
224.701, 2732.815
225.183, 2739.181
225.665, 2745.886
226.147, 2753.684
226.629, 2773.959
227.112, 2821.460
227.594, 2887.229
228.076, 2941.956
228.558, 2977.023
229.040, 3008.624
229.522, 3052.155
230.004, 3105.316
230.486, 3156.015
230.969, 3196.882
231.451, 3231.857
231.933, 3271.569
232.415, 3320.282
232.897, 3364.517
233.379, 3392.678
233.861, 3407.540
234.343, 3413.376
234.825, 3407.936
235.307, 3395.479
235.790, 3383.824
236.272, 3374.752
236.754, 3359.417
237.236, 3333.236
237.718, 3295.514
238.200, 3240.981
238.682, 3155.060
239.165, 3059.577
239.647, 2981.108
240.129, 2920.632
240.611, 2857.862
241.093, 2777.305
241.575, 2683.883
242.057, 2594.417
242.539, 2507.893
243.021, 2427.141
243.503, 2355.079
243.986, 2291.296
244.468, 2232.446
244.950, 2178.783
245.432, 2128.123
245.914, 2073.502
246.396, 2007.906
246.878, 1947.286
247.361, 1902.342
247.843, 1870.068
248.325, 1832.958
248.807, 1769.437
249.289, 1712.473
249.771, 1672.914
250.253, 1689.445
250.735, 1692.363
251.217, 1682.397
251.699, 1620.956
252.182, 1625.984
252.664, 1604.374
253.146, 1581.668
253.628, 1596.051
254.110, 1542.097
254.592, 1555.892
255.074, 1537.690
255.556, 1532.163
256.039, 1521.914
256.521, 1504.566
257.003, 1484.075
257.485, 1465.925
257.967, 1451.979
258.449, 1435.150
258.931, 1404.736
259.413, 1377.825
259.896, 1373.394
260.378, 1392.532
260.860, 1416.398
261.342, 1425.222
261.824, 1415.288
262.306, 1405.471
262.788, 1393.367
263.270, 1383.438
263.752, 1378.722
264.234, 1378.802
264.717, 1381.593
265.199, 1386.466
265.681, 1393.843
266.163, 1390.692
266.645, 1364.034
267.127, 1341.733
267.609, 1336.142
268.091, 1342.166
268.574, 1348.866
269.056, 1349.667
269.538, 1344.955
270.020, 1337.307
270.502, 1324.571
270.984, 1310.916
271.466, 1296.374
271.948, 1281.335
272.431, 1265.788
272.913, 1249.645
273.395, 1233.938
273.877, 1220.661
274.359, 1207.125
274.841, 1201.506
275.323, 1213.809
275.805, 1228.002
276.287, 1229.088
276.770, 1213.314
277.252, 1190.399
277.734, 1173.253
278.216, 1161.531
278.698, 1157.238
279.180, 1169.997
279.662, 1182.699
280.144, 1185.154
280.626, 1177.086
281.109, 1165.930
281.591, 1159.191
282.073, 1157.218
282.555, 1152.517
283.037, 1144.127
283.519, 1133.460
284.001, 1118.479
284.483, 1101.479
284.966, 1088.460
285.448, 1084.747
285.930, 1088.200
286.412, 1091.419
286.894, 1096.739
287.376, 1096.966
287.858, 1083.794
288.340, 1064.308
288.823, 1049.990
289.305, 1046.064
289.787, 1048.455
290.269, 1052.233
290.751, 1057.727
291.233, 1062.081
291.715, 1061.270
292.197, 1059.837
292.679, 1065.311
293.161, 1082.748
293.644, 1098.125
294.126, 1095.464
294.608, 1078.425
295.090, 1070.362
295.572, 1080.840
296.054, 1101.729
296.536, 1122.200
297.018, 1143.899
297.501, 1158.373
297.983, 1155.711
298.465, 1144.966
298.947, 1142.957
299.429, 1153.934
299.911, 1170.664
300.393, 1186.319
300.875, 1201.334
301.358, 1210.820
301.840, 1212.443
302.322, 1209.402
302.804, 1201.399
303.286, 1189.642
303.768, 1182.205
304.250, 1187.424
304.732, 1205.403
305.214, 1211.983
305.697, 1201.243
306.179, 1186.960
306.661, 1170.573
307.143, 1155.052
307.625, 1147.543
308.107, 1153.219
308.589, 1166.902
309.071, 1167.588
309.553, 1142.825
310.036, 1119.167
310.518, 1093.385
311.000, 1072.036
311.482, 1065.290
311.964, 1075.649
312.446, 1091.836
312.928, 1093.760
313.410, 1072.553
313.892, 1056.199
314.375, 1044.943
314.857, 1037.849
315.339, 1037.006
315.821, 1040.960
316.303, 1043.775
316.785, 1038.543
317.267, 1024.796
317.750, 1015.273
318.232, 1014.337
318.714, 1013.081
319.196, 1006.508
319.678, 997.205
320.160, 990.680
320.642, 991.036
321.124, 995.624
321.606, 997.448
322.089, 995.795
322.571, 993.252
323.053, 991.282
323.535, 988.792
324.017, 983.184
324.499, 971.737
324.981, 963.195
325.463, 969.468
325.945, 989.573
326.428, 1005.347
326.910, 1010.052
327.392, 1009.568
327.874, 1013.322
328.356, 1022.496
328.838, 1024.816
329.320, 1005.948
329.802, 978.688
330.284, 967.746
330.767, 978.493
331.249, 996.723
331.731, 1011.020
332.213, 1021.106
332.695, 1025.303
333.177, 1015.586
333.659, 1006.160
334.141, 1009.817
334.624, 1024.322
335.106, 1036.679
335.588, 1037.896
336.070, 1030.543
336.552, 1030.797
337.034, 1047.255
337.516, 1059.966
337.998, 1056.529
338.480, 1036.595
338.963, 1073.184
339.445, 1096.052
339.927, 1105.937
340.409, 1063.956
340.891, 1088.950
341.373, 1087.103
341.855, 1084.155
342.337, 1118.576
342.819, 1084.137
343.302, 1117.966
343.784, 1124.544
344.266, 1143.593
344.748, 1135.635
345.230, 1136.019
345.712, 1140.560
346.194, 1173.658
346.677, 1186.364
347.159, 1184.612
347.641, 1178.082
348.123, 1169.214
348.605, 1161.989
349.087, 1165.296
349.569, 1181.189
350.051, 1199.316
350.533, 1218.229
351.016, 1236.631
351.498, 1254.103
351.980, 1271.137
352.462, 1283.961
352.944, 1283.795
353.426, 1275.702
353.908, 1282.219
354.390, 1312.375
354.872, 1347.914
355.355, 1366.665
355.837, 1371.092
356.319, 1378.351
356.801, 1393.752
357.283, 1412.815
357.765, 1431.165
358.247, 1448.641
358.729, 1467.802
359.211, 1491.006
359.694, 1517.236
360.176, 1539.599
360.658, 1560.362
361.140, 1575.390
361.622, 1577.043
362.104, 1573.848
362.586, 1580.919
363.069, 1603.907
363.551, 1631.760
364.033, 1644.142
364.515, 1632.767
364.997, 1621.786
365.479, 1605.661
365.961, 1594.154
366.443, 1595.455
366.925, 1608.182
367.408, 1624.335
367.890, 1638.312
368.372, 1649.977
368.854, 1655.474
369.336, 1653.006
369.818, 1646.183
370.300, 1626.654
370.782, 1606.775
371.264, 1597.712
371.747, 1577.112
372.229, 1595.741
372.711, 1604.848
373.193, 1604.944
373.675, 1569.042
374.157, 1579.624
374.639, 1571.577
375.121, 1562.767
375.603, 1579.892
376.086, 1549.225
376.568, 1565.939
377.050, 1563.739
377.532, 1570.195
378.014, 1557.907
378.496, 1551.409
378.978, 1547.796
379.460, 1577.099
379.943, 1592.698
380.425, 1582.482
380.907, 1569.903
381.389, 1567.881
381.871, 1573.226
382.353, 1575.955
382.835, 1570.825
383.317, 1563.925
383.799, 1569.601
384.282, 1602.036
384.764, 1627.012
385.246, 1637.669
385.728, 1645.800
386.210, 1661.105
386.692, 1684.147
387.174, 1708.503
387.656, 1727.789
388.138, 1741.864
388.621, 1757.210
389.103, 1773.072
389.585, 1791.359
390.067, 1814.282
390.549, 1839.406
391.031, 1863.085
391.513, 1883.427
391.996, 1902.782
392.478, 1925.757
392.960, 1953.200
393.442, 1976.899
393.924, 1991.077
394.406, 2003.857
394.888, 2022.945
395.370, 2048.577
395.852, 2075.833
396.335, 2104.205
396.817, 2132.033
397.299, 2156.076
397.781, 2175.831
398.263, 2193.895
398.745, 2212.993
399.227, 2232.206
399.709, 2246.015
400.191, 2249.396
400.674, 2252.832
401.156, 2263.961
401.638, 2277.658
402.120, 2283.536
402.602, 2277.441
403.084, 2265.412
403.566, 2258.403
404.048, 2259.588
404.530, 2259.228
405.013, 2255.365
405.495, 2251.861
405.977, 2254.837
406.459, 2261.089
406.941, 2260.114
407.423, 2242.954
407.905, 2212.323
408.387, 2183.575
408.870, 2157.527
409.352, 2131.966
409.834, 2108.419
410.316, 2083.850
410.798, 2053.532
411.280, 2015.262
411.762, 1978.967
412.244, 1955.842
412.727, 1943.705
413.209, 1929.753
413.691, 1911.412
414.173, 1891.365
414.655, 1871.104
415.137, 1850.902
415.619, 1832.519
416.101, 1817.662
416.583, 1803.801
417.065, 1789.042
417.548, 1773.514
418.030, 1758.595
418.512, 1745.314
418.994, 1732.070
419.476, 1713.994
419.958, 1676.574
420.440, 1654.813
420.922, 1666.004
421.405, 1682.642
421.887, 1678.699
422.369, 1653.174
422.851, 1625.396
423.333, 1614.470
423.815, 1620.171
424.297, 1624.117
424.779, 1634.218
425.262, 1630.909
425.744, 1599.465
426.226, 1555.625
426.708, 1519.829
427.190, 1499.804
427.672, 1486.803
428.154, 1472.168
428.636, 1455.893
429.118, 1436.184
429.601, 1408.778
430.083, 1383.537
430.565, 1373.583
431.047, 1376.801
431.529, 1375.104
432.011, 1356.731
432.493, 1336.310
432.975, 1327.590
433.457, 1329.867
433.940, 1337.451
434.422, 1349.095
434.904, 1361.077
435.386, 1361.339
435.868, 1336.186
436.350, 1317.795
436.832, 1306.822
437.314, 1304.107
437.797, 1313.544
438.279, 1333.695
438.761, 1356.146
439.243, 1373.613
439.725, 1386.065
440.207, 1395.534
440.689, 1398.323
441.171, 1403.503
441.654, 1413.606
442.136, 1427.515
442.618, 1444.300
443.100, 1463.998
443.582, 1484.661
444.064, 1504.547
444.546, 1523.719
445.028, 1541.655
445.510, 1557.155
445.992, 1573.570
446.475, 1596.151
446.957, 1623.681
447.439, 1647.528
447.921, 1663.239
448.403, 1677.332
448.885, 1694.058
449.367, 1713.114
449.849, 1733.678
450.332, 1755.334
450.814, 1777.596
451.296, 1799.316
451.778, 1822.746
452.260, 1841.405
452.742, 1851.331
453.224, 1859.945
453.706, 1873.156
454.189, 1889.917
454.671, 1904.512
455.153, 1911.646
455.635, 1913.792
456.117, 1921.176
456.599, 1934.592
457.081, 1951.268
457.563, 1974.159
458.045, 1997.940
458.528, 2016.773
459.010, 2029.437
459.492, 2042.849
459.974, 2062.257
460.456, 2085.481
460.938, 2107.464
461.420, 2127.537
461.902, 2148.294
462.384, 2173.411
462.867, 2201.549
463.349, 2221.145
463.831, 2226.369
464.313, 2230.750
464.795, 2240.381
465.277, 2251.081
465.759, 2260.567
466.241, 2267.080
466.724, 2261.719
467.206, 2227.394
467.688, 2154.314
468.170, 2112.167
468.652, 2135.526
469.134, 2154.937
469.616, 2149.162
470.098, 2124.179
470.580, 2088.698
471.063, 2043.294
471.545, 1998.998
472.027, 1974.481
472.509, 1968.157
472.991, 1953.945
473.473, 1923.724
473.955, 1887.420
474.437, 1854.376
474.919, 1824.296
475.402, 1795.020
475.884, 1769.287
476.366, 1741.439
476.848, 1705.378
477.330, 1663.419
477.812, 1621.297
478.294, 1581.040
478.776, 1545.012
479.259, 1519.223
479.741, 1512.768
480.223, 1498.793
480.705, 1475.799
481.187, 1447.689
481.669, 1411.385
482.151, 1371.559
482.633, 1339.966
483.116, 1325.992
483.598, 1322.699
484.080, 1314.140
484.562, 1299.598
485.044, 1283.729
485.526, 1268.497
486.008, 1251.908
486.490, 1231.824
486.972, 1208.071
487.454, 1183.745
487.937, 1154.542
488.419, 1128.488
488.901, 1117.228
489.383, 1119.591
489.865, 1124.149
490.347, 1124.688
490.829, 1121.526
491.311, 1115.750
491.794, 1104.365
492.276, 1094.260
492.758, 1087.788
493.240, 1080.988
493.722, 1069.909
494.204, 1055.067
494.686, 1040.551
495.168, 1029.416
495.651, 1021.131
496.133, 1013.268
496.615, 1005.216
497.097, 999.450
497.579, 999.854
498.061, 1001.173
498.543, 995.988
499.025, 982.579
499.507, 973.618
499.990, 981.349
500.472, 993.960
500.954, 992.615
501.436, 977.177
501.918, 964.255
502.400, 965.814
502.882, 978.079
503.364, 983.792
503.846, 978.091
504.329, 971.850
504.811, 964.014
505.293, 957.003
505.775, 952.869
506.257, 951.684
506.739, 952.119
507.221, 953.335
507.703, 955.213
508.185, 956.207
508.668, 953.660
509.150, 959.429
509.632, 963.180
510.114, 965.020
510.596, 959.229
511.078, 963.292
511.560, 963.406
512.042, 963.358
512.525, 968.808
513.007, 964.127
513.489, 969.490
513.971, 970.844
514.453, 974.033
514.935, 973.247
515.417, 973.690
515.899, 974.744
516.381, 974.826
516.864, 981.698
517.346, 989.294
517.828, 992.403
518.310, 991.230
518.792, 989.896
519.274, 992.065
519.756, 996.127
520.239, 995.675
520.721, 988.834
521.203, 987.026
521.685, 997.390
522.167, 1012.772
522.649, 1023.736
523.131, 1030.159
523.613, 1033.140
524.095, 1026.640
524.578, 1021.241
525.060, 1030.648
525.542, 1052.283
526.024, 1071.615
526.506, 1080.357
526.988, 1081.347
527.470, 1082.251
527.952, 1080.464
528.434, 1083.696
528.917, 1093.052
529.399, 1106.141
529.881, 1124.411
530.363, 1145.562
530.845, 1163.028
531.327, 1171.354
531.809, 1176.006
532.291, 1186.602
532.773, 1203.078
533.256, 1219.277
533.738, 1233.562
534.220, 1246.478
534.702, 1258.235
535.184, 1268.732
535.666, 1280.177
536.148, 1286.423
536.630, 1299.684
537.112, 1333.696
537.595, 1379.544
538.077, 1417.615
538.559, 1439.484
539.041, 1454.626
539.523, 1479.841
540.005, 1517.846
540.487, 1553.066
540.969, 1586.746
541.452, 1614.990
541.934, 1632.007
542.416, 1643.139
542.898, 1659.108
543.380, 1684.677
543.862, 1712.602
544.344, 1738.086
544.826, 1761.037
545.308, 1783.184
545.791, 1805.498
546.273, 1818.614
546.755, 1811.089
547.237, 1783.019
547.719, 1766.518
548.201, 1778.084
548.683, 1779.688
549.166, 1754.593
549.648, 1720.038
550.130, 1695.273
550.612, 1683.618
551.094, 1673.553
551.576, 1652.304
552.058, 1622.549
552.540, 1601.797
553.022, 1593.754
553.505, 1580.405
553.987, 1551.285
554.469, 1513.037
554.951, 1477.101
555.433, 1443.432
555.915, 1412.800
556.397, 1386.449
556.879, 1362.709
557.362, 1340.808
557.844, 1320.155
558.326, 1299.167
558.808, 1276.610
559.290, 1253.686
559.772, 1233.245
560.254, 1215.518
560.736, 1199.720
561.218, 1193.426
561.701, 1182.162
562.183, 1150.119
562.665, 1105.905
563.147, 1076.772
563.629, 1081.031
564.111, 1095.588
564.593, 1096.971
565.075, 1087.576
565.557, 1073.017
566.040, 1052.783
566.522, 1033.071
567.004, 1042.059
567.486, 1044.079
567.968, 1039.508
568.450, 1008.601
568.932, 1011.699
569.414, 1001.170
569.896, 990.083
570.379, 997.970
570.861, 970.893
571.343, 978.479
571.825, 972.226
572.307, 962.768
572.789, 974.070
573.271, 969.913
573.753, 960.561
574.235, 948.134
574.718, 935.276
575.200, 927.236
575.682, 924.535
576.164, 924.436
576.646, 929.890
577.128, 934.972
577.610, 933.563
578.093, 927.234
578.575, 921.370
579.057, 918.822
579.539, 908.856
580.021, 921.052
580.503, 927.868
580.985, 929.594
581.467, 910.983
581.949, 918.632
582.432, 915.758
582.914, 912.452
583.396, 923.798
583.878, 908.145
584.360, 919.258
584.842, 919.687
585.324, 925.006
585.806, 919.736
586.289, 917.736
586.771, 926.329
587.253, 929.057
587.735, 922.567
588.217, 928.197
588.699, 912.174
589.181, 915.152
589.663, 926.327
590.145, 920.370
590.628, 916.639
591.110, 929.857
591.592, 942.397
592.074, 942.162
592.556, 936.758
593.038, 937.631
593.520, 944.023
594.002, 948.999
594.484, 948.649
594.967, 951.334
595.449, 954.274
595.931, 976.317
596.413, 993.724
596.895, 1006.743
597.377, 1008.594
597.859, 1009.532
598.341, 1021.752
598.823, 1037.396
599.306, 1053.823
599.788, 1066.401
600.270, 1071.187
600.752, 1068.364
601.234, 1055.231
601.716, 1029.761
602.198, 1010.923
602.680, 1012.146
603.162, 1024.307
603.645, 1024.701
604.127, 1008.587
604.609, 993.720
605.091, 983.302
605.573, 973.345
606.055, 958.672
606.537, 942.504
607.019, 934.134
607.502, 938.911
607.984, 946.334
608.466, 935.735
608.948, 907.537
609.430, 894.036
609.912, 903.418
610.394, 916.954
610.876, 920.301
611.359, 917.702
611.841, 924.225
612.323, 950.529
612.805, 969.377
613.287, 969.410
613.769, 960.593
614.251, 949.441
614.733, 938.649
615.216, 932.610
615.698, 935.007
616.180, 941.990
616.662, 941.222
617.144, 929.601
617.626, 929.889
618.108, 953.242
618.590, 980.043
619.072, 993.412
619.555, 996.602
620.037, 1000.849
620.519, 1015.270
621.001, 1022.759
621.483, 1009.086
621.965, 986.639
622.447, 972.451
622.929, 969.036
623.411, 968.329
623.894, 963.497
624.376, 955.651
624.858, 951.160
