##NAMES=Parapierrotite
##RRUFFID=R060397
##IDEAL CHEMISTRY=TlSb_5_S_8_
##LOCALITY=Lookout Pass Area, southeast Tooele County, Utah, USA
##OWNER=RRUFF
##SOURCE=Michael Scott
##DESCRIPTION=Black semimetallic fragment
##STATUS=The identification of this mineral has been confirmed by single-crystal X-ray diffraction.
##URL=rruff.info/R060397
128.6927, 10893.67
129.1748, 10721.84
129.6569, 10560.42
130.1390, 10415.39
130.6211, 10288.69
131.1032, 10167.40
131.5854, 10047.29
132.0675, 9928.327
132.5496, 9810.604
133.0317, 9692.964
133.5138, 9577.938
133.9959, 9470.542
134.4781, 9372.264
134.9602, 9279.600
135.4423, 9188.136
135.9244, 9101.059
136.4065, 9022.280
136.8886, 8953.229
137.3708, 8893.988
137.8529, 8851.731
138.3350, 8837.454
138.8171, 8830.165
139.2992, 8826.075
139.7813, 8825.188
140.2635, 8829.234
140.7456, 8840.012
141.2277, 8858.418
141.7098, 8876.870
142.1919, 8895.291
142.6740, 8913.777
143.1561, 8932.096
143.6383, 8950.329
144.1204, 8969.363
144.6025, 8990.693
145.0846, 9014.951
145.5667, 9036.031
146.0488, 9052.308
146.5310, 9065.913
147.0131, 9079.806
147.4952, 9095.013
147.9773, 9107.956
148.4594, 9114.841
148.9415, 9116.564
149.4237, 9112.439
149.9058, 9101.377
150.3879, 9084.174
150.8700, 9063.187
151.3521, 9038.364
151.8342, 9009.427
152.3164, 8977.095
152.7985, 8941.479
153.2806, 8902.188
153.7627, 8859.076
154.2448, 8812.033
154.7269, 8761.540
155.2091, 8705.642
155.6912, 8647.563
156.1733, 8589.970
156.6554, 8532.419
157.1375, 8471.963
157.6196, 8404.325
158.1018, 8327.219
158.5839, 8249.186
159.0660, 8171.301
159.5481, 8092.251
160.0302, 8009.783
160.5123, 7923.953
160.9945, 7838.478
161.4766, 7760.846
161.9587, 7696.244
162.4408, 7631.463
162.9229, 7565.830
163.4050, 7500.399
163.8871, 7436.141
164.3693, 7373.239
164.8514, 7312.400
165.3335, 7255.539
165.8156, 7206.937
166.2977, 7156.676
166.7798, 7102.063
167.2620, 7045.252
167.7441, 6989.956
168.2262, 6938.064
168.7083, 6888.042
169.1904, 6836.017
169.6725, 6781.050
170.1547, 6726.388
170.6368, 6673.200
171.1189, 6621.440
171.6010, 6570.545
172.0831, 6518.794
172.5652, 6469.570
173.0474, 6426.445
173.5295, 6388.720
174.0116, 6358.417
174.4937, 6336.834
174.9758, 6323.900
175.4579, 6320.128
175.9401, 6328.326
176.4222, 6345.600
176.9043, 6368.955
177.3864, 6398.123
177.8685, 6433.042
178.3506, 6473.437
178.8328, 6518.859
179.3149, 6572.261
179.7970, 6638.358
180.2791, 6710.874
180.7612, 6783.746
181.2433, 6854.619
181.7255, 6927.086
182.2076, 7009.218
182.6897, 7103.221
183.1718, 7204.110
183.6539, 7310.677
184.1360, 7422.077
184.6181, 7536.636
185.1003, 7653.561
185.5824, 7773.817
186.0645, 7899.534
186.5466, 8032.477
187.0287, 8170.461
187.5108, 8312.737
187.9930, 8458.900
188.4751, 8608.298
188.9572, 8759.754
189.4393, 8913.981
189.9214, 9073.804
190.4035, 9238.505
190.8857, 9409.143
191.3678, 9585.290
191.8499, 9766.906
192.3320, 9955.252
192.8141, 10151.60
193.2962, 10354.95
193.7784, 10560.84
194.2605, 10763.92
194.7426, 10973.97
195.2247, 11195.63
195.7068, 11427.54
196.1889, 11667.62
196.6711, 11916.06
197.1532, 12171.27
197.6353, 12423.97
198.1174, 12668.60
198.5995, 12916.88
199.0816, 13175.64
199.5638, 13445.11
200.0459, 13722.71
200.5280, 14009.64
201.0101, 14306.04
201.4922, 14602.32
201.9743, 14897.38
202.4565, 15194.90
202.9386, 15498.16
203.4207, 15807.85
203.9028, 16121.65
204.3849, 16437.22
204.8670, 16756.32
205.3492, 17079.34
205.8313, 17408.72
206.3134, 17739.13
206.7955, 18059.85
207.2776, 18368.25
207.7597, 18679.27
208.2419, 19006.91
208.7240, 19338.63
209.2061, 19659.15
209.6882, 19961.31
210.1703, 20255.20
210.6524, 20560.60
211.1346, 20882.68
211.6167, 21197.58
212.0988, 21495.13
212.5809, 21782.39
213.0630, 22067.82
213.5451, 22353.22
214.0273, 22637.58
214.5094, 22918.00
214.9915, 23197.16
215.4736, 23466.60
215.9557, 23727.90
216.4378, 23979.90
216.9200, 24222.88
217.4021, 24455.48
217.8842, 24680.20
218.3663, 24900.82
218.8484, 25117.72
219.3305, 25328.76
219.8127, 25540.18
220.2948, 25744.53
220.7769, 25934.46
221.2590, 26106.66
221.7411, 26263.23
222.2232, 26410.30
222.7054, 26547.76
223.1875, 26673.75
223.6696, 26793.67
224.1517, 26900.57
224.6338, 26986.23
225.1159, 27047.38
225.5980, 27085.65
226.0802, 27104.88
226.5623, 27105.27
227.0444, 27084.85
227.5265, 27040.57
228.0086, 26975.99
228.4907, 26896.23
228.9729, 26803.71
229.4550, 26696.38
229.9371, 26568.26
230.4192, 26412.17
230.9013, 26248.39
231.3834, 26079.66
231.8656, 25905.44
232.3477, 25723.17
232.8298, 25530.88
233.3119, 25334.42
233.7940, 25145.63
234.2761, 24967.50
234.7583, 24788.33
235.2404, 24602.11
235.7225, 24413.62
236.2046, 24229.12
236.6867, 24048.85
237.1688, 23875.20
237.6510, 23713.46
238.1331, 23567.15
238.6152, 23414.06
239.0973, 23242.42
239.5794, 23058.71
240.0615, 22878.21
240.5437, 22704.49
241.0258, 22533.97
241.5079, 22365.07
241.9900, 22198.44
242.4721, 22020.73
242.9542, 21823.91
243.4364, 21612.30
243.9185, 21396.21
244.4006, 21177.05
244.8827, 20955.27
245.3648, 20734.46
245.8469, 20514.19
246.3290, 20287.57
246.8112, 20050.72
247.2933, 19805.87
247.7754, 19552.93
248.2575, 19289.28
248.7396, 19022.72
249.2217, 18759.53
249.7039, 18498.97
250.1860, 18240.32
250.6681, 17982.05
251.1502, 17725.72
251.6323, 17473.17
252.1144, 17228.41
252.5966, 16983.26
253.0787, 16731.71
253.5608, 16476.76
254.0429, 16221.62
254.5250, 15968.89
255.0071, 15718.83
255.4893, 15469.43
255.9714, 15220.81
256.4535, 14974.44
256.9356, 14727.32
257.4177, 14483.20
257.8998, 14246.38
258.3820, 14020.30
258.8641, 13803.99
259.3462, 13593.33
259.8283, 13383.70
260.3104, 13189.33
260.7925, 13009.41
261.2747, 12844.27
261.7568, 12694.73
262.2389, 12560.17
262.7210, 12441.39
263.2031, 12339.18
263.6852, 12255.02
264.1674, 12187.49
264.6495, 12133.22
265.1316, 12093.35
265.6137, 12069.94
266.0958, 12063.97
266.5779, 12073.59
267.0601, 12094.41
267.5422, 12124.59
268.0243, 12171.64
268.5064, 12239.88
268.9885, 12320.37
269.4706, 12404.28
269.9528, 12488.63
270.4349, 12578.03
270.9170, 12681.97
271.3991, 12804.54
271.8812, 12933.75
272.3633, 13072.40
272.8455, 13213.49
273.3276, 13353.31
273.8097, 13490.46
274.2918, 13621.93
274.7739, 13743.08
275.2560, 13852.43
275.7382, 13953.36
276.2202, 14045.93
276.7024, 14132.24
277.1845, 14210.59
277.6666, 14282.75
278.1487, 14355.48
278.6308, 14437.44
279.1129, 14531.22
279.5951, 14624.93
280.0772, 14705.19
280.5593, 14796.54
281.0414, 14915.03
281.5235, 15058.61
282.0056, 15212.74
282.4878, 15362.23
282.9699, 15504.76
283.4520, 15667.58
283.9341, 15853.18
284.4162, 16053.80
284.8983, 16268.29
285.3805, 16495.64
285.8626, 16735.08
286.3447, 16987.21
286.8268, 17250.98
287.3089, 17518.33
287.7910, 17788.58
288.2732, 18062.15
288.7553, 18341.36
289.2374, 18622.88
289.7195, 18901.65
290.2016, 19176.64
290.6837, 19442.27
291.1659, 19672.47
291.6480, 19875.37
292.1301, 20031.97
292.6122, 20147.44
293.0943, 20212.01
293.5764, 20210.87
294.0586, 20136.76
294.5407, 19997.58
295.0228, 19813.72
295.5049, 19543.66
295.9870, 19276.66
296.4691, 18995.51
296.9513, 18727.72
297.4334, 18496.65
297.9155, 18311.71
298.3976, 18176.03
298.8797, 18095.76
299.3618, 18081.37
299.8440, 18117.50
300.3261, 18202.31
300.8082, 18336.60
301.2903, 18527.22
301.7724, 18772.91
302.2545, 19061.32
302.7367, 19381.79
303.2188, 19739.60
303.7009, 20113.39
304.1830, 20511.71
304.6651, 20918.69
305.1472, 21331.51
305.6294, 21746.24
306.1115, 22152.67
306.5936, 22541.80
307.0757, 22914.38
307.5578, 23271.89
308.0399, 23627.95
308.5221, 23959.64
309.0042, 24279.07
309.4863, 24568.48
309.9684, 24791.18
310.4505, 24931.00
310.9326, 24978.54
311.4148, 24849.50
311.8969, 24546.43
312.3790, 24097.21
312.8611, 23451.36
313.3432, 22673.62
313.8253, 21834.99
314.3075, 20963.35
314.7896, 20098.81
315.2717, 19340.91
315.7538, 18680.63
316.2359, 18140.61
316.7180, 17731.34
317.2001, 17440.00
317.6823, 17266.59
318.1644, 17208.29
318.6465, 17234.80
319.1286, 17305.89
319.6107, 17446.16
320.0928, 17574.86
320.5750, 17704.67
321.0571, 17815.13
321.5392, 17900.24
322.0213, 17954.48
322.5034, 17962.95
322.9855, 17912.17
323.4677, 17798.95
323.9498, 17617.51
324.4319, 17355.38
324.9140, 17048.33
325.3961, 16693.30
325.8782, 16305.36
326.3604, 15912.33
326.8425, 15530.15
327.3246, 15161.47
327.8067, 14829.35
328.2888, 14541.27
328.7709, 14275.09
329.2531, 14034.87
329.7352, 13812.39
330.2173, 13597.59
330.6994, 13386.26
331.1815, 13176.03
331.6636, 12958.46
332.1458, 12731.50
332.6279, 12499.33
333.1100, 12268.80
333.5921, 12031.16
334.0742, 11779.36
334.5563, 11512.34
335.0385, 11224.90
335.5206, 10913.70
336.0027, 10583.36
336.4848, 10205.77
336.9669, 9763.673
337.4490, 9290.381
337.9312, 8793.529
338.4133, 8280.133
338.8954, 7769.952
339.3775, 7278.005
339.8596, 6800.949
340.3417, 6373.328
340.8239, 5997.703
341.3060, 5661.381
341.7881, 5365.778
342.2702, 5105.500
342.7523, 4875.291
343.2344, 4673.422
343.7166, 4497.393
344.1987, 4337.332
344.6808, 4203.826
345.1629, 4075.598
345.6450, 3952.494
346.1271, 3834.049
346.6093, 3720.726
347.0914, 3613.274
347.5735, 3509.072
348.0556, 3405.397
348.5377, 3301.396
349.0198, 3198.789
349.5020, 3098.373
349.9841, 2998.520
350.4662, 2898.648
350.9483, 2799.094
351.4304, 2700.656
351.9125, 2604.599
352.3947, 2510.930
352.8768, 2420.722
353.3589, 2332.625
353.8410, 2249.449
354.3231, 2171.536
354.8052, 2099.551
355.2874, 2034.245
355.7695, 1976.656
356.2516, 1926.260
356.7337, 1878.728
357.2158, 1833.256
357.6979, 1792.355
358.1800, 1757.692
358.6621, 1726.870
359.1443, 1697.756
359.6264, 1669.360
360.1085, 1641.904
360.5906, 1615.273
361.0727, 1588.702
361.5548, 1565.111
362.0370, 1547.151
362.5191, 1530.309
363.0012, 1511.432
363.4833, 1490.374
363.9654, 1469.936
364.4475, 1453.263
364.9297, 1440.619
365.4118, 1427.243
365.8939, 1412.300
366.3760, 1397.511
366.8581, 1383.407
367.3402, 1370.013
367.8224, 1357.393
368.3045, 1345.975
368.7866, 1335.144
369.2687, 1322.936
369.7508, 1308.844
370.2329, 1294.513
370.7151, 1279.901
371.1972, 1265.608
371.6793, 1252.135
372.1614, 1239.785
372.6435, 1227.957
373.1256, 1215.818
373.6078, 1203.304
374.0899, 1191.809
374.5720, 1182.227
375.0541, 1173.280
375.5362, 1164.150
376.0183, 1154.760
376.5005, 1145.233
376.9826, 1135.114
377.4647, 1124.811
377.9468, 1116.192
378.4289, 1110.471
378.9110, 1103.945
379.3932, 1093.092
379.8753, 1079.764
380.3574, 1067.411
380.8395, 1057.398
381.3216, 1048.533
381.8037, 1039.434
382.2859, 1030.072
382.7680, 1021.055
383.2501, 1012.312
383.7322, 1004.400
384.2143, 998.2420
384.6964, 994.5374
385.1786, 990.3046
385.6607, 983.1822
386.1428, 974.2686
386.6249, 966.3185
387.1070, 959.9358
387.5891, 954.8464
388.0713, 951.6627
388.5534, 950.1720
389.0355, 946.9366
389.5176, 940.0519
389.9997, 931.8599
390.4818, 924.4088
390.9640, 917.8268
391.4461, 912.0308
391.9282, 907.1728
392.4103, 903.0463
392.8924, 898.4526
393.3745, 892.9681
393.8567, 887.5075
394.3388, 882.3584
394.8209, 877.4903
395.3030, 872.9818
395.7851, 868.8448
396.2672, 864.8722
396.7494, 860.6318
397.2315, 855.9720
397.7136, 851.4158
398.1957, 846.6298
398.6778, 842.1458
399.1599, 838.8105
399.6420, 836.4579
400.1241, 833.7082
400.6063, 829.2324
401.0884, 822.9416
401.5705, 817.4441
402.0526, 812.4085
402.5347, 808.3959
403.0168, 806.5205
403.4990, 805.5995
403.9811, 803.7242
404.4632, 799.9814
404.9453, 795.0768
405.4274, 790.6676
405.9095, 786.7361
406.3917, 783.4736
406.8738, 781.7094
407.3559, 779.9613
407.8380, 776.9371
408.3201, 772.6436
408.8022, 768.2109
409.2844, 764.8059
409.7665, 762.5342
410.2486, 759.7501
410.7307, 755.7615
411.2128, 751.9913
411.6949, 749.0536
412.1771, 746.5651
412.6592, 743.8021
413.1413, 740.3330
413.6234, 736.6502
414.1055, 733.9578
414.5876, 732.6849
415.0698, 731.0551
415.5519, 728.5006
416.0340, 725.5500
416.5161, 722.2503
416.9982, 718.6812
417.4803, 715.6354
417.9625, 714.3159
418.4446, 714.3524
418.9267, 712.8839
419.4088, 708.7447
419.8909, 704.8810
420.3730, 704.0056
420.8552, 704.7275
421.3373, 704.1466
421.8194, 700.5108
422.3015, 695.9700
422.7836, 693.2301
423.2657, 692.2728
423.7479, 691.1705
424.2300, 688.9494
424.7121, 686.3835
425.1942, 684.7615
425.6763, 684.2948
426.1584, 683.6787
426.6406, 682.2759
427.1227, 680.3842
427.6048, 678.3588
428.0869, 676.2099
428.5690, 674.4531
429.0511, 673.8422
429.5333, 674.3384
430.0154, 673.7280
430.4975, 670.6011
430.9796, 667.6844
431.4617, 666.8891
431.9438, 667.5533
432.4260, 667.8610
432.9081, 666.9384
433.3902, 665.2471
433.8723, 663.8711
434.3544, 663.0660
434.8365, 662.1589
435.3187, 661.1085
435.8008, 659.9559
436.2829, 658.5639
436.7650, 657.0250
437.2471, 655.8574
437.7292, 655.7107
438.2114, 656.6456
438.6935, 656.1238
439.1756, 652.0016
439.6577, 648.7985
440.1398, 648.2147
440.6219, 648.9537
441.1040, 649.3135
441.5862, 648.5775
442.0683, 647.1125
442.5504, 645.4589
443.0325, 643.3817
443.5146, 641.8436
443.9967, 641.1961
444.4789, 640.8951
444.9610, 640.8375
445.4431, 640.9219
445.9252, 640.9394
446.4073, 640.8190
446.8894, 640.5009
447.3716, 639.5646
447.8537, 637.5026
448.3358, 636.0909
448.8179, 637.3429
449.3000, 639.1145
449.7821, 638.8119
450.2643, 635.5601
450.7464, 631.8406
451.2285, 629.8450
451.7106, 629.2590
452.1927, 628.5389
452.6748, 627.2501
453.1570, 626.0390
453.6391, 625.8480
454.1212, 626.4207
454.6033, 626.5363
455.0854, 625.7557
455.5675, 624.5193
456.0497, 622.9256
456.5318, 621.1168
457.0139, 619.9149
457.4960, 619.9918
457.9781, 620.6359
458.4602, 619.7604
458.9424, 616.5349
459.4245, 613.8130
459.9066, 612.2081
460.3887, 611.2875
460.8708, 611.0848
461.3529, 611.3783
461.8351, 610.9249
462.3172, 608.3101
462.7993, 603.4293
463.2814, 600.1611
463.7635, 600.0308
464.2456, 599.6410
464.7278, 597.5959
465.2099, 594.9489
465.6920, 593.4716
466.1741, 593.7981
466.6562, 594.5886
467.1383, 593.2747
467.6205, 588.6212
468.1026, 585.6871
468.5847, 586.4614
469.0668, 587.3568
469.5489, 586.6463
470.0310, 584.6875
470.5132, 582.8418
470.9953, 582.1472
471.4774, 581.9307
471.9595, 580.1197
472.4416, 576.0419
472.9237, 572.9013
473.4059, 572.8651
473.8880, 573.6890
474.3701, 573.3777
474.8522, 571.6983
475.3343, 569.5964
475.8164, 567.4915
476.2986, 565.4412
476.7807, 563.5532
477.2628, 561.8436
477.7449, 560.3387
478.2270, 559.3375
478.7091, 558.5674
479.1913, 556.9575
479.6734, 553.0401
480.1555, 549.8441
480.6376, 549.7625
481.1197, 551.4473
481.6018, 551.9716
482.0839, 550.3469
482.5660, 547.7838
483.0482, 545.8789
483.5303, 544.7371
484.0124, 544.0627
484.4945, 544.3442
484.9766, 544.6049
485.4587, 544.3568
485.9409, 543.6550
486.4230, 542.7458
486.9051, 541.7643
487.3872, 540.6695
487.8693, 539.2847
488.3514, 537.0463
488.8336, 535.5951
489.3157, 535.7604
489.7978, 536.0665
490.2799, 535.4119
490.7620, 533.8707
491.2441, 532.3528
491.7263, 531.7487
492.2084, 531.7682
492.6905, 530.7926
493.1726, 528.1274
493.6547, 526.1552
494.1368, 527.0172
494.6190, 528.5147
495.1011, 528.1592
495.5832, 525.3087
496.0653, 522.3138
496.5474, 521.2977
497.0295, 521.5678
497.5117, 520.9113
497.9938, 518.8198
498.4759, 516.5483
498.9580, 514.9880
499.4401, 514.1097
499.9222, 513.6204
500.4044, 514.5259
500.8865, 514.7607
501.3686, 512.2510
501.8507, 508.4254
502.3328, 506.4454
502.8149, 507.4416
503.2971, 509.5880
503.7792, 510.3404
504.2613, 509.3417
504.7434, 508.1097
505.2255, 506.4987
505.7076, 504.8324
506.1898, 502.8919
506.6719, 501.0556
507.1540, 500.1928
507.6361, 500.8055
508.1182, 502.1360
508.6003, 502.3896
509.0825, 501.1757
509.5646, 499.9300
510.0467, 498.7985
510.5288, 497.6628
511.0109, 496.2852
511.4930, 494.8042
511.9752, 493.7282
512.4573, 493.6953
512.9394, 494.0744
513.4215, 493.2640
513.9036, 491.0620
514.3857, 488.8957
514.8679, 487.0675
515.3500, 485.7418
515.8321, 485.3082
516.3142, 485.9217
516.7963, 486.0574
517.2784, 484.3085
517.7606, 482.0440
518.2427, 481.5190
518.7248, 482.8286
519.2069, 483.9207
519.6890, 483.4424
520.1711, 481.6364
520.6533, 479.6944
521.1354, 476.6188
521.6175, 474.7195
522.0996, 475.3946
522.5817, 476.8414
523.0638, 477.2439
523.5460, 476.3351
524.0281, 474.9210
524.5102, 473.6647
524.9923, 472.5836
525.4744, 472.3299
525.9565, 474.2401
526.4387, 475.2072
526.9208, 473.9604
527.4029, 471.8520
527.8850, 470.1380
528.3671, 469.1710
528.8492, 468.8668
529.3314, 469.6069
529.8135, 471.1950
530.2956, 471.5118
530.7777, 469.8497
531.2598, 468.1422
531.7419, 468.0615
532.2241, 468.6345
532.7062, 468.1507
533.1883, 465.7549
533.6704, 463.3780
534.1525, 462.4511
534.6346, 462.5106
535.1168, 462.4674
535.5989, 462.0704
536.0810, 461.6196
536.5631, 461.4507
537.0452, 461.5795
537.5273, 461.4543
538.0095, 460.9363
538.4916, 460.3427
538.9737, 459.7074
539.4558, 459.0957
539.9379, 458.5790
540.4200, 458.1849
540.9022, 457.9175
541.3843, 457.8020
541.8664, 457.8670
542.3485, 457.9313
542.8306, 458.0356
543.3127, 458.0962
543.7948, 458.2666
544.2769, 458.3249
544.7590, 457.8798
545.2411, 456.7463
545.7233, 455.3804
546.2054, 454.2828
546.6875, 453.4469
547.1696, 452.8279
547.6517, 452.3544
548.1339, 452.2135
548.6160, 452.8870
549.0981, 454.0552
549.5802, 454.8018
550.0623, 454.5714
550.5444, 454.2790
551.0266, 454.7576
551.5087, 455.5984
551.9908, 455.7584
552.4729, 454.9020
552.9550, 453.7136
553.4371, 452.9803
553.9193, 452.6957
554.4014, 452.9846
554.8835, 454.9411
555.3656, 456.1875
555.8477, 455.0369
556.3298, 452.9056
556.8120, 452.1391
557.2941, 453.5379
557.7762, 455.5240
558.2583, 455.7484
558.7404, 453.9673
559.2225, 452.4261
559.7047, 450.9716
560.1868, 450.0891
560.6689, 450.4521
561.1510, 451.3551
561.6331, 451.5488
562.1152, 450.4922
562.5974, 449.1069
563.0795, 448.1356
563.5616, 447.5281
564.0437, 447.2837
564.5258, 447.5562
565.0079, 447.4167
565.4901, 445.6420
565.9722, 442.3877
566.4543, 440.6182
566.9364, 441.3122
567.4185, 442.3579
567.9006, 443.4330
568.3828, 444.1923
568.8649, 444.2162
569.3470, 443.3913
569.8291, 441.7525
570.3112, 439.1330
570.7933, 435.3961
571.2755, 433.0219
571.7576, 433.1666
572.2397, 433.2658
572.7218, 432.6629
573.2039, 431.7094
573.6860, 430.8188
574.1682, 430.0891
574.6503, 429.3395
575.1324, 428.3195
575.6145, 427.1158
576.0966, 426.1468
576.5787, 425.4858
577.0609, 424.8806
577.5430, 424.3248
578.0251, 423.6681
578.5072, 422.5924
578.9893, 420.9800
579.4714, 419.2005
579.9536, 417.1004
580.4357, 415.0662
580.9178, 413.5676
581.3999, 412.6528
581.8820, 412.1573
582.3641, 412.0616
582.8463, 412.1924
583.3284, 411.5066
583.8105, 409.0249
584.2926, 407.1394
584.7747, 406.7541
585.2568, 406.4493
585.7390, 404.8654
586.2211, 402.1828
586.7032, 399.7839
587.1853, 398.7288
587.6674, 398.6061
588.1495, 398.3333
588.6317, 397.8715
589.1138, 397.5420
589.5959, 397.7831
590.0780, 397.8628
590.5601, 396.2964
591.0422, 393.1198
591.5244, 391.9183
592.0065, 396.5501
592.4886, 401.4562
592.9707, 400.9464
593.4528, 396.1721
593.9349, 391.4829
594.4171, 388.7528
594.8992, 387.3809
595.3813, 386.3131
595.8634, 385.3877
596.3455, 385.2952
596.8276, 387.3574
597.3098, 388.7489
597.7919, 387.5670
598.2740, 385.0854
598.7561, 383.6676
599.2382, 384.3161
599.7203, 385.4969
600.2025, 384.8624
600.6846, 382.4839
601.1667, 381.2444
601.6488, 382.0181
602.1309, 382.7813
602.6130, 381.9200
603.0952, 380.0892
603.5773, 378.5698
604.0594, 377.5766
604.5415, 376.8071
605.0236, 376.3189
605.5057, 375.8696
605.9879, 374.9491
606.4700, 373.5358
606.9521, 372.2484
607.4342, 371.6187
607.9163, 371.5656
608.3984, 371.4877
608.8806, 371.7209
609.3627, 371.4281
609.8448, 369.8283
610.3269, 368.2202
610.8090, 367.9311
611.2911, 368.7469
611.7733, 369.1778
612.2554, 368.0054
612.7375, 365.9202
613.2196, 364.4831
613.7017, 363.7228
614.1838, 363.3214
614.6660, 363.5514
615.1481, 363.6569
615.6302, 362.6507
616.1123, 360.6144
616.5944, 358.4745
617.0765, 355.9999
617.5587, 353.8799
618.0408, 352.9140
618.5229, 352.6202
619.0050, 351.8368
619.4871, 350.1682
619.9692, 348.3382
620.4514, 347.4398
620.9335, 347.7209
621.4156, 346.9888
621.8977, 343.8571
622.3798, 341.3428
622.8619, 340.7086
623.3441, 340.8490
623.8262, 340.4678
624.3083, 339.2666
624.7904, 337.9429
625.2725, 337.1321
625.7546, 336.6523
626.2367, 336.0653
626.7188, 335.3629
