##NAMES=Parabutlerite
##RRUFFID=R070547
##IDEAL CHEMISTRY=Fe^3+^S^6+^O_4_(OH)&#183;2H_2_O
##LOCALITY=Chuquicamata mine, Calama, El Loa Province, Antofogasta, Chile
##OWNER=RRUFF
##SOURCE=James Shigley
##DESCRIPTION=Granular aggregate of orange microcrystals
##STATUS=The identification of this mineral has been confirmed by single-crystal X-ray diffraction.
##URL=rruff.info/R070547
151.2912, 4101.818
151.7733, 4190.578
152.2555, 4277.237
152.7376, 4356.388
153.2197, 4426.351
153.7018, 4486.214
154.1839, 4533.550
154.6660, 4563.351
155.1481, 4558.842
155.6303, 4570.762
156.1124, 4613.326
156.5945, 4662.292
157.0766, 4696.658
157.5587, 4711.872
158.0408, 4720.156
158.5230, 4739.908
159.0051, 4774.604
159.4872, 4817.677
159.9693, 4870.893
160.4514, 4909.390
160.9335, 4932.816
161.4157, 4952.756
161.8978, 4970.237
162.3799, 4987.156
162.8620, 5007.020
163.3441, 5019.799
163.8262, 5011.616
164.3084, 5003.175
164.7905, 5021.870
165.2726, 5075.844
165.7547, 5140.325
166.2368, 5172.518
166.7189, 5150.118
167.2011, 5148.412
167.6832, 5195.660
168.1653, 5258.705
168.6474, 5296.520
169.1295, 5296.534
169.6116, 5277.885
170.0938, 5271.941
170.5759, 5282.708
171.0580, 5294.073
171.5401, 5305.305
172.0222, 5315.312
172.5043, 5321.128
172.9865, 5321.108
173.4686, 5320.543
173.9507, 5329.346
174.4328, 5349.010
174.9149, 5369.952
175.3970, 5394.012
175.8792, 5417.056
176.3613, 5429.566
176.8434, 5426.448
177.3255, 5420.685
177.8076, 5437.607
178.2897, 5482.470
178.7719, 5521.847
179.2540, 5543.749
179.7361, 5555.787
180.2182, 5567.998
180.7003, 5581.649
181.1824, 5601.150
181.6646, 5639.270
182.1467, 5700.281
182.6288, 5751.088
183.1109, 5780.506
183.5930, 5794.369
184.0751, 5800.698
184.5573, 5799.902
185.0394, 5797.103
185.5215, 5800.448
186.0036, 5810.030
186.4857, 5820.231
186.9678, 5826.174
187.4500, 5832.125
187.9321, 5849.281
188.4142, 5884.454
188.8963, 5919.943
189.3784, 5925.661
189.8605, 5900.922
190.3427, 5881.958
190.8248, 5880.802
191.3069, 5892.507
191.7890, 5910.130
192.2711, 5933.917
192.7532, 5958.088
193.2354, 5972.233
193.7175, 5976.267
194.1996, 5987.457
194.6817, 6014.191
195.1638, 6051.041
195.6459, 6088.648
196.1281, 6124.948
196.6102, 6162.166
197.0923, 6205.475
197.5744, 6254.410
198.0565, 6298.960
198.5386, 6330.639
199.0208, 6357.707
199.5029, 6395.206
199.9850, 6448.102
200.4671, 6504.330
200.9492, 6548.604
201.4313, 6582.906
201.9135, 6623.023
202.3956, 6682.430
202.8777, 6747.494
203.3598, 6795.119
203.8419, 6819.005
204.3240, 6838.309
204.8061, 6868.079
205.2883, 6907.454
205.7704, 6960.154
206.2525, 7039.298
206.7346, 7127.495
207.2167, 7198.880
207.6988, 7248.302
208.1810, 7293.546
208.6631, 7351.571
209.1452, 7419.149
209.6273, 7481.554
210.1094, 7535.712
210.5915, 7583.032
211.0737, 7624.039
211.5558, 7658.151
212.0379, 7689.836
212.5200, 7723.650
213.0021, 7758.001
213.4842, 7786.676
213.9664, 7806.887
214.4485, 7822.047
214.9306, 7833.726
215.4127, 7841.768
215.8948, 7852.736
216.3769, 7875.386
216.8591, 7904.935
217.3412, 7924.341
217.8233, 7918.943
218.3054, 7911.840
218.7875, 7927.583
219.2696, 7965.571
219.7518, 7997.823
220.2339, 7997.862
220.7160, 7980.791
221.1981, 7995.752
221.6802, 8065.797
222.1623, 8149.172
222.6445, 8212.522
223.1266, 8259.599
223.6087, 8319.147
224.0908, 8413.751
224.5729, 8528.699
225.0550, 8618.059
225.5372, 8661.083
226.0193, 8706.271
226.5014, 8787.893
226.9835, 8897.711
227.4656, 9000.284
227.9477, 9074.732
228.4298, 9137.208
228.9120, 9226.840
229.3941, 9356.210
229.8762, 9486.389
230.3583, 9607.779
230.8404, 9717.439
231.3225, 9807.761
231.8047, 9875.653
232.2868, 9922.605
232.7689, 9950.226
233.2510, 9961.107
233.7331, 9953.586
234.2152, 9931.595
234.6974, 9890.040
235.1795, 9816.269
235.6616, 9703.151
236.1437, 9568.255
236.6258, 9446.795
237.1079, 9354.977
237.5901, 9214.853
238.0722, 8981.132
238.5543, 8701.768
239.0364, 8436.561
239.5185, 8198.272
240.0006, 7971.184
240.4828, 7733.115
240.9649, 7480.600
241.4470, 7236.659
241.9291, 7007.527
242.4112, 6784.975
242.8933, 6560.426
243.3755, 6331.869
243.8576, 6111.416
244.3397, 5908.891
244.8218, 5727.013
245.3039, 5557.899
245.7860, 5409.554
246.2682, 5266.181
246.7503, 5112.849
247.2324, 4951.619
247.7145, 4800.767
248.1966, 4677.238
248.6787, 4581.156
249.1609, 4483.438
249.6430, 4382.172
250.1251, 4280.888
250.6072, 4176.497
251.0893, 4072.647
251.5714, 3979.664
252.0535, 3905.809
252.5357, 3848.376
253.0178, 3786.787
253.4999, 3703.958
253.9820, 3636.399
254.4641, 3608.497
254.9462, 3600.119
255.4284, 3576.175
255.9105, 3518.283
256.3926, 3437.825
256.8747, 3371.611
257.3568, 3328.476
257.8390, 3290.402
258.3211, 3254.309
258.8032, 3223.332
259.2853, 3203.903
259.7674, 3197.906
260.2495, 3196.875
260.7317, 3184.103
261.2138, 3147.987
261.6959, 3118.057
262.1780, 3096.516
262.6601, 3079.260
263.1422, 3067.227
263.6244, 3058.755
264.1065, 3045.522
264.5886, 3013.803
265.0707, 2951.318
265.5528, 2908.264
266.0349, 2898.448
266.5170, 2893.472
266.9991, 2881.780
267.4813, 2861.556
267.9634, 2834.489
268.4455, 2800.190
268.9276, 2757.630
269.4097, 2723.310
269.8918, 2708.396
270.3740, 2691.368
270.8561, 2664.427
271.3382, 2630.327
271.8203, 2595.665
272.3024, 2564.123
272.7845, 2535.658
273.2667, 2510.620
273.7488, 2493.329
274.2309, 2473.120
274.7130, 2446.083
275.1951, 2415.148
275.6772, 2383.114
276.1594, 2350.514
276.6415, 2319.893
277.1236, 2298.020
277.6057, 2289.069
278.0878, 2277.208
278.5699, 2252.689
279.0521, 2226.548
279.5342, 2210.016
280.0163, 2206.562
280.4984, 2204.253
280.9805, 2185.277
281.4626, 2147.593
281.9448, 2121.939
282.4269, 2125.304
282.9090, 2134.495
283.3911, 2132.451
283.8732, 2118.290
284.3553, 2099.978
284.8375, 2079.411
285.3196, 2058.333
285.8017, 2046.006
286.2838, 2047.885
286.7659, 2051.582
287.2480, 2048.350
287.7302, 2038.896
288.2123, 2024.914
288.6944, 1999.315
289.1765, 1971.976
289.6586, 1963.301
290.1407, 1977.593
290.6229, 1991.070
291.1050, 1983.857
291.5871, 1962.640
292.0692, 1946.958
292.5513, 1940.818
293.0334, 1940.140
293.5156, 1943.910
293.9977, 1951.364
294.4798, 1957.102
294.9619, 1958.589
295.4440, 1956.086
295.9261, 1950.645
296.4083, 1939.231
296.8904, 1929.885
297.3725, 1927.384
297.8546, 1929.084
298.3367, 1930.512
298.8188, 1930.490
299.3010, 1927.895
299.7831, 1919.743
300.2652, 1901.971
300.7473, 1889.151
301.2294, 1887.131
301.7115, 1888.267
302.1937, 1883.103
302.6758, 1870.741
303.1579, 1860.894
303.6400, 1865.836
304.1221, 1890.960
304.6042, 1901.903
305.0864, 1887.473
305.5685, 1871.156
306.0506, 1865.037
306.5327, 1867.725
307.0148, 1872.553
307.4969, 1875.603
307.9791, 1876.323
308.4612, 1868.331
308.9433, 1838.649
309.4254, 1814.450
309.9075, 1800.833
310.3896, 1795.104
310.8718, 1793.782
311.3539, 1795.376
311.8360, 1799.492
312.3181, 1806.449
312.8002, 1822.189
313.2823, 1828.238
313.7644, 1814.228
314.2466, 1797.021
314.7287, 1789.923
315.2108, 1794.809
315.6929, 1802.712
316.1750, 1803.733
316.6571, 1797.241
317.1393, 1789.693
317.6214, 1778.148
318.1035, 1768.973
318.5856, 1765.198
319.0677, 1766.443
319.5498, 1771.039
320.0320, 1780.513
320.5141, 1792.366
320.9962, 1798.278
321.4783, 1796.789
321.9604, 1792.858
322.4425, 1785.044
322.9247, 1777.409
323.4068, 1776.650
323.8889, 1787.132
324.3710, 1801.391
324.8531, 1812.943
325.3352, 1821.740
325.8174, 1826.656
326.2995, 1826.529
326.7816, 1822.654
327.2637, 1816.885
327.7458, 1808.077
328.2279, 1801.613
328.7101, 1798.764
329.1922, 1800.076
329.6743, 1809.607
330.1564, 1829.944
330.6385, 1848.091
331.1206, 1845.490
331.6028, 1818.093
332.0849, 1803.891
332.5670, 1810.955
333.0491, 1827.885
333.5312, 1849.577
334.0133, 1874.073
334.4955, 1896.886
334.9776, 1914.573
335.4597, 1927.516
335.9418, 1941.005
336.4239, 1956.554
336.9060, 1970.948
337.3882, 1983.060
337.8703, 1993.533
338.3524, 2002.802
338.8345, 2011.021
339.3166, 2019.388
339.7987, 2029.455
340.2809, 2034.494
340.7630, 2054.491
341.2451, 2104.739
341.7272, 2157.143
342.2093, 2190.080
342.6914, 2202.668
343.1736, 2209.771
343.6557, 2225.334
344.1378, 2249.612
344.6199, 2277.689
345.1020, 2312.434
345.5841, 2348.050
346.0663, 2381.096
346.5484, 2413.505
347.0305, 2448.947
347.5126, 2489.394
347.9947, 2533.694
348.4768, 2579.471
348.9590, 2626.857
349.4411, 2676.059
349.9232, 2730.955
350.4053, 2786.073
350.8874, 2835.550
351.3695, 2878.039
351.8517, 2918.049
352.3338, 2956.586
352.8159, 2995.137
353.2980, 3041.343
353.7801, 3099.129
354.2622, 3159.600
354.7444, 3210.500
355.2265, 3252.969
355.7086, 3300.682
356.1907, 3366.474
356.6728, 3432.684
357.1549, 3477.825
357.6371, 3502.650
358.1192, 3526.160
358.6013, 3560.105
359.0834, 3603.893
359.5655, 3653.532
360.0476, 3716.837
360.5298, 3775.727
361.0119, 3825.140
361.4940, 3866.537
361.9761, 3902.462
362.4582, 3933.853
362.9403, 3959.449
363.4224, 3976.420
363.9045, 3977.789
364.3867, 3984.417
364.8688, 4004.819
365.3509, 4022.809
365.8330, 4028.606
366.3151, 4022.183
366.7972, 4008.604
367.2794, 3990.146
367.7615, 3967.608
368.2436, 3954.726
368.7257, 3961.528
369.2078, 3964.026
369.6899, 3949.882
370.1721, 3929.528
370.6542, 3919.397
371.1363, 3928.496
371.6184, 3938.172
372.1005, 3916.036
372.5826, 3858.609
373.0648, 3812.546
373.5469, 3790.545
374.0290, 3783.580
374.5111, 3785.480
374.9932, 3795.901
375.4753, 3804.027
375.9575, 3797.021
376.4396, 3786.103
376.9217, 3796.102
377.4038, 3831.515
377.8859, 3867.348
378.3680, 3882.207
378.8502, 3880.113
379.3323, 3890.577
379.8144, 3923.612
380.2965, 3959.734
380.7786, 3988.365
381.2607, 4012.540
381.7429, 4038.415
382.2250, 4068.148
382.7071, 4102.697
383.1892, 4144.209
383.6713, 4199.186
384.1534, 4250.230
384.6356, 4292.462
385.1177, 4334.196
385.5998, 4379.365
386.0819, 4429.518
386.5640, 4487.562
387.0461, 4558.545
387.5283, 4641.527
388.0104, 4708.131
388.4925, 4738.627
388.9746, 4776.738
389.4567, 4838.426
389.9388, 4911.650
390.4210, 4981.128
390.9031, 5041.495
391.3852, 5095.946
391.8673, 5149.213
392.3494, 5201.392
392.8315, 5250.942
393.3137, 5293.167
393.7958, 5337.000
394.2779, 5392.182
394.7600, 5457.425
395.2421, 5517.529
395.7242, 5559.604
396.2064, 5594.096
396.6885, 5641.629
397.1706, 5704.173
397.6527, 5761.034
398.1348, 5799.159
398.6169, 5820.656
399.0991, 5837.629
399.5812, 5851.310
400.0633, 5859.355
400.5454, 5861.516
401.0275, 5857.234
401.5096, 5844.513
401.9918, 5822.676
402.4739, 5795.604
402.9560, 5768.078
403.4381, 5740.436
403.9202, 5711.310
404.4023, 5691.627
404.8845, 5660.396
405.3666, 5600.628
405.8487, 5520.058
406.3308, 5439.212
406.8129, 5371.444
407.2950, 5311.771
407.7772, 5241.706
408.2593, 5156.975
408.7414, 5070.534
409.2235, 4988.119
409.7056, 4903.338
410.1877, 4810.151
410.6699, 4707.680
411.1520, 4600.546
411.6341, 4485.698
412.1162, 4367.115
412.5983, 4268.995
413.0804, 4201.208
413.5625, 4135.533
414.0446, 4047.657
414.5268, 3946.240
415.0089, 3852.434
415.4910, 3771.239
415.9731, 3696.731
416.4552, 3624.740
416.9373, 3555.457
417.4195, 3491.820
417.9016, 3436.114
418.3837, 3382.643
418.8658, 3321.439
419.3479, 3247.217
419.8300, 3178.317
420.3122, 3115.272
420.7943, 3057.766
421.2764, 3007.416
421.7585, 2963.075
422.2406, 2921.500
422.7227, 2880.759
423.2049, 2840.382
423.6870, 2796.703
424.1691, 2743.002
424.6512, 2696.219
425.1333, 2664.668
425.6154, 2637.325
426.0976, 2600.785
426.5797, 2552.620
427.0618, 2508.306
427.5439, 2487.234
428.0260, 2487.510
428.5081, 2483.380
428.9903, 2472.010
429.4724, 2457.471
429.9545, 2439.417
430.4366, 2420.247
430.9187, 2406.371
431.4008, 2404.159
431.8830, 2402.827
432.3651, 2391.016
432.8472, 2371.400
433.3293, 2355.126
433.8114, 2346.251
434.2935, 2342.172
434.7757, 2338.246
435.2578, 2332.207
435.7399, 2333.721
436.2220, 2349.854
436.7041, 2368.552
437.1862, 2380.684
437.6684, 2387.165
438.1505, 2394.567
438.6326, 2407.570
439.1147, 2424.723
439.5968, 2439.127
440.0789, 2445.332
440.5611, 2457.761
441.0432, 2479.067
441.5253, 2506.074
442.0074, 2536.764
442.4895, 2570.523
442.9716, 2606.968
443.4538, 2647.640
443.9359, 2691.321
444.4180, 2730.469
444.9001, 2763.075
445.3822, 2794.973
445.8643, 2828.756
446.3465, 2864.512
446.8286, 2902.880
447.3107, 2942.885
447.7928, 2986.758
448.2749, 3036.173
448.7570, 3090.463
449.2392, 3149.173
449.7213, 3213.395
450.2034, 3276.008
450.6855, 3328.378
451.1676, 3367.781
451.6497, 3408.587
452.1319, 3444.106
452.6140, 3487.713
453.0961, 3551.384
453.5782, 3627.176
454.0603, 3699.882
454.5424, 3761.859
455.0246, 3816.380
455.5067, 3867.945
455.9888, 3911.802
456.4709, 3966.599
456.9530, 4051.948
457.4352, 4134.790
457.9173, 4192.800
458.3994, 4229.896
458.8815, 4268.888
459.3636, 4322.310
459.8457, 4386.081
460.3279, 4457.984
460.8100, 4538.573
461.2921, 4610.168
461.7742, 4663.628
462.2563, 4703.604
462.7384, 4740.404
463.2205, 4774.768
463.7026, 4803.769
464.1848, 4826.405
464.6669, 4843.422
465.1490, 4860.557
465.6311, 4875.670
466.1132, 4873.299
466.5953, 4839.195
467.0775, 4777.319
467.5596, 4721.413
468.0417, 4683.114
468.5238, 4635.725
469.0059, 4576.155
469.4880, 4506.393
469.9702, 4424.632
470.4523, 4331.638
470.9344, 4238.193
471.4165, 4156.917
471.8986, 4086.356
472.3807, 4006.164
472.8629, 3912.320
473.3450, 3817.542
473.8271, 3731.360
474.3092, 3649.087
474.7913, 3563.005
475.2734, 3468.258
475.7556, 3376.101
476.2377, 3295.861
476.7198, 3223.361
477.2019, 3149.346
477.6840, 3071.597
478.1661, 2994.706
478.6483, 2922.702
479.1304, 2855.885
479.6125, 2793.401
480.0946, 2738.791
480.5767, 2684.280
481.0588, 2626.711
481.5410, 2568.162
482.0231, 2510.641
482.5052, 2454.928
482.9873, 2402.454
483.4694, 2356.255
483.9515, 2318.109
484.4337, 2273.671
484.9158, 2214.331
485.3979, 2158.664
485.8800, 2117.659
486.3621, 2086.605
486.8442, 2055.412
487.3264, 2019.373
487.8085, 1984.229
488.2906, 1957.213
488.7727, 1936.171
489.2548, 1910.603
489.7369, 1876.084
490.2191, 1841.938
490.7012, 1819.932
491.1833, 1812.624
491.6654, 1804.851
492.1475, 1801.236
492.6296, 1792.531
493.1118, 1769.600
493.5939, 1739.098
494.0760, 1713.931
494.5581, 1699.905
495.0402, 1691.364
495.5223, 1677.465
496.0045, 1655.648
496.4866, 1639.423
496.9687, 1636.495
497.4508, 1632.430
497.9329, 1617.213
498.4150, 1595.362
498.8972, 1578.560
499.3793, 1573.433
499.8614, 1572.910
500.3435, 1569.234
500.8256, 1562.921
501.3077, 1557.680
501.7899, 1555.411
502.2720, 1552.151
502.7541, 1541.226
503.2362, 1520.117
503.7183, 1507.414
504.2004, 1508.177
504.6826, 1512.925
505.1647, 1522.268
505.6468, 1530.906
506.1289, 1526.963
506.6110, 1505.130
507.0931, 1477.577
507.5753, 1467.385
508.0574, 1479.835
508.5395, 1488.752
509.0216, 1490.226
509.5037, 1490.732
509.9858, 1493.866
510.4680, 1498.450
510.9501, 1501.398
511.4322, 1500.858
511.9143, 1499.304
512.3964, 1499.654
512.8785, 1501.422
513.3607, 1502.075
513.8428, 1500.692
514.3249, 1498.823
514.8070, 1497.759
515.2891, 1497.334
515.7712, 1500.353
516.2534, 1509.881
516.7355, 1519.531
517.2176, 1526.102
517.6997, 1530.953
518.1818, 1536.370
518.6639, 1543.231
519.1461, 1551.332
519.6282, 1561.770
520.1103, 1575.654
520.5924, 1582.762
521.0745, 1574.704
521.5566, 1570.840
522.0388, 1581.183
522.5209, 1601.664
523.0030, 1625.362
523.4851, 1651.889
523.9672, 1677.936
524.4493, 1700.550
524.9315, 1720.850
525.4136, 1742.060
525.8957, 1764.981
526.3778, 1787.798
526.8599, 1809.045
527.3420, 1828.830
527.8242, 1846.792
528.3063, 1856.688
528.7884, 1872.624
529.2705, 1901.640
529.7526, 1936.886
530.2347, 1970.781
530.7169, 2001.495
531.1990, 2031.059
531.6811, 2061.170
532.1632, 2091.857
532.6453, 2123.348
533.1274, 2153.226
533.6096, 2189.708
534.0917, 2244.293
534.5738, 2304.738
535.0559, 2352.119
535.5380, 2380.535
536.0201, 2410.995
536.5022, 2454.546
536.9843, 2504.916
537.4664, 2558.054
537.9485, 2611.713
538.4307, 2653.078
538.9128, 2670.016
539.3949, 2670.987
539.8770, 2695.956
540.3591, 2771.075
540.8412, 2829.999
541.3234, 2861.875
541.8055, 2882.373
542.2876, 2898.003
542.7697, 2912.139
543.2518, 2931.727
543.7339, 2967.447
544.2161, 3006.855
544.6982, 3021.731
545.1803, 3011.712
545.6624, 3004.447
546.1445, 3012.168
546.6266, 3023.026
547.1088, 3021.130
547.5909, 3006.916
548.0730, 2981.312
548.5551, 2935.810
549.0372, 2886.923
549.5193, 2844.542
550.0015, 2806.341
550.4836, 2768.003
550.9657, 2727.399
551.4478, 2682.502
551.9299, 2628.501
552.4120, 2563.903
552.8942, 2499.600
553.3763, 2436.268
553.8584, 2372.601
554.3405, 2304.871
554.8226, 2237.159
555.3047, 2176.920
555.7869, 2128.169
556.2690, 2082.763
556.7511, 2035.416
557.2332, 1987.024
557.7153, 1938.462
558.1974, 1889.793
558.6796, 1844.937
559.1617, 1808.121
559.6438, 1778.357
560.1259, 1743.401
560.6080, 1696.150
561.0901, 1652.339
561.5723, 1612.263
562.0544, 1576.981
562.5365, 1546.914
563.0186, 1522.222
563.5007, 1503.412
563.9828, 1495.046
564.4650, 1491.014
564.9471, 1472.682
565.4292, 1438.590
565.9113, 1411.302
566.3934, 1402.391
566.8755, 1400.447
567.3577, 1386.440
567.8398, 1358.370
568.3219, 1338.314
568.8040, 1334.164
569.2861, 1334.256
569.7682, 1336.396
570.2504, 1336.332
570.7325, 1324.584
571.2146, 1297.262
571.6967, 1265.547
572.1788, 1246.515
572.6609, 1241.398
573.1431, 1239.856
573.6252, 1244.786
574.1073, 1248.681
574.5894, 1248.510
575.0715, 1244.736
575.5536, 1236.668
576.0358, 1221.167
576.5179, 1209.917
577.0000, 1212.647
577.4821, 1222.766
577.9642, 1231.482
578.4464, 1237.306
578.9285, 1239.827
579.4106, 1238.246
579.8927, 1233.719
580.3748, 1231.567
580.8569, 1234.497
581.3391, 1235.096
581.8212, 1227.961
582.3033, 1222.677
582.7854, 1227.401
583.2675, 1239.931
583.7496, 1251.193
584.2318, 1255.549
584.7139, 1257.270
585.1960, 1261.815
585.6781, 1268.774
586.1602, 1276.069
586.6423, 1283.109
587.1245, 1290.324
587.6066, 1298.360
588.0887, 1307.354
588.5708, 1315.106
589.0529, 1317.349
589.5350, 1323.572
590.0172, 1339.424
590.4993, 1359.020
590.9814, 1375.817
591.4635, 1388.557
591.9456, 1400.578
592.4277, 1415.849
592.9099, 1432.901
593.3920, 1444.630
593.8741, 1449.657
594.3562, 1458.816
594.8383, 1478.181
595.3204, 1502.210
595.8026, 1521.344
596.2847, 1534.840
596.7668, 1550.518
597.2489, 1573.604
597.7310, 1595.455
598.2131, 1614.171
598.6953, 1626.835
599.1774, 1626.443
599.6595, 1610.464
600.1416, 1588.655
600.6237, 1574.795
601.1058, 1569.231
601.5880, 1565.052
602.0701, 1565.505
602.5522, 1560.793
603.0343, 1543.112
603.5164, 1517.985
603.9985, 1492.450
604.4807, 1465.941
604.9628, 1443.456
605.4449, 1428.771
605.9270, 1417.882
606.4091, 1408.377
606.8912, 1398.893
607.3734, 1385.314
607.8555, 1364.899
608.3376, 1341.863
608.8197, 1326.099
609.3018, 1319.846
609.7839, 1312.636
610.2661, 1301.764
610.7482, 1292.344
611.2303, 1287.281
611.7124, 1285.400
612.1945, 1285.045
612.6766, 1288.479
613.1588, 1287.282
613.6409, 1272.115
614.1230, 1250.382
614.6051, 1233.923
615.0872, 1224.151
615.5693, 1216.503
616.0515, 1207.493
616.5336, 1198.264
617.0157, 1193.165
617.4978, 1193.570
617.9799, 1195.349
618.4620, 1204.163
618.9442, 1208.739
619.4263, 1200.077
619.9084, 1181.728
620.3905, 1164.459
620.8726, 1151.855
621.3547, 1142.628
621.8369, 1138.643
622.3190, 1136.824
622.8011, 1127.800
623.2832, 1110.036
623.7653, 1094.295
624.2474, 1090.199
624.7296, 1096.085
625.2117, 1099.255
625.6938, 1100.452
626.1759, 1097.513
626.6580, 1088.573
627.1401, 1077.216
627.6223, 1062.174
628.1044, 1046.326
628.5865, 1039.872
629.0686, 1055.425
629.5507, 1072.503
630.0328, 1062.709
630.5150, 1034.892
630.9971, 1019.875
631.4792, 1025.303
631.9613, 1034.631
632.4434, 1031.487
632.9255, 1016.946
633.4077, 1009.831
633.8898, 1021.067
634.3719, 1024.430
634.8539, 1010.168
635.3361, 992.1758
635.8182, 980.3857
636.3003, 975.4614
636.7824, 974.2278
637.2645, 976.7677
637.7466, 980.2691
638.2288, 980.9079
638.7109, 979.4150
639.1930, 979.3405
639.6751, 981.8379
640.1572, 982.6029
640.6393, 976.2773
641.1215, 963.2241
641.6036, 957.1289
642.0857, 964.0370
642.5678, 969.9960
643.0499, 974.6628
643.5320, 976.6750
644.0142, 974.2433
644.4963, 967.8638
644.9784, 960.3518
645.4605, 952.4716
645.9426, 945.0345
646.4247, 939.2498
646.9069, 934.8116
647.3890, 930.3287
647.8711, 925.3806
648.3532, 921.3187
