##NAMES=Parabutlerite
##RRUFFID=R060754
##IDEAL CHEMISTRY=Fe^3+^S^6+^O_4_(OH)&#183;2H_2_O
##LOCALITY=Chuquicamata, Chile
##OWNER=RRUFF
##SOURCE=Michael Scott
##DESCRIPTION=Aggregate of pale orange grains
##STATUS=The identification of this mineral has been confirmed by X-ray diffraction.
##URL=rruff.info/R060754
83.436, 27.940
83.918, 40.476
84.400, 52.483
84.882, 70.796
85.364, 82.568
85.846, 78.131
86.328, 58.577
86.810, 40.377
87.292, 32.254
87.775, 31.120
88.257, 32.625
88.739, 37.336
89.221, 42.617
89.703, 45.603
90.185, 45.679
90.667, 45.053
91.149, 45.375
91.632, 46.651
92.114, 48.873
92.596, 53.685
93.078, 59.504
93.560, 62.387
94.042, 60.468
94.524, 56.027
95.006, 52.949
95.488, 51.235
95.971, 50.841
96.453, 52.754
96.935, 56.778
97.417, 59.368
97.899, 58.523
98.381, 54.598
98.863, 51.403
99.345, 48.335
99.827, 47.054
100.310, 52.196
100.792, 66.019
101.274, 78.056
101.756, 80.821
102.238, 70.395
102.720, 67.306
103.202, 76.619
103.684, 94.971
104.166, 102.211
104.649, 91.071
105.131, 77.181
105.613, 73.387
106.095, 85.567
106.577, 98.818
107.059, 110.865
107.541, 121.195
108.023, 132.511
108.506, 146.368
108.988, 160.648
109.470, 172.507
109.952, 179.980
110.434, 186.667
110.916, 192.838
111.398, 193.657
111.880, 202.083
112.363, 223.614
112.845, 254.425
113.327, 282.760
113.809, 309.480
114.291, 331.722
114.773, 347.611
115.255, 349.167
115.737, 351.856
116.219, 360.001
116.702, 373.530
117.184, 389.528
117.666, 411.810
118.148, 434.791
118.630, 451.797
119.112, 454.552
119.594, 454.731
120.076, 459.349
120.559, 469.424
121.041, 481.875
121.523, 496.000
122.005, 511.268
122.487, 526.279
122.969, 543.591
123.451, 559.218
123.933, 567.433
124.415, 563.526
124.898, 557.720
125.380, 561.050
125.862, 572.689
126.344, 586.670
126.826, 601.630
127.308, 615.640
127.790, 623.624
128.272, 618.272
128.755, 608.251
129.237, 611.730
129.719, 629.746
130.201, 651.285
130.683, 663.803
131.165, 668.276
131.647, 672.865
132.129, 680.465
132.611, 690.967
133.094, 704.048
133.576, 720.086
134.058, 737.953
134.540, 757.393
135.022, 779.255
135.504, 796.027
135.986, 800.317
136.468, 791.287
136.951, 787.561
137.433, 792.768
137.915, 804.341
138.397, 813.127
138.879, 819.489
139.361, 822.279
139.843, 819.876
140.325, 810.813
140.807, 801.499
141.290, 792.320
141.772, 783.269
142.254, 778.278
142.736, 778.249
143.218, 781.460
143.700, 785.914
144.182, 791.838
144.664, 798.475
145.146, 805.162
145.629, 810.803
146.111, 819.962
146.593, 834.854
147.075, 852.956
147.557, 867.662
148.039, 877.714
148.521, 885.829
149.003, 893.197
149.486, 900.218
149.968, 905.875
150.450, 908.199
150.932, 908.185
151.414, 912.477
151.896, 924.536
152.378, 938.891
152.860, 952.247
153.342, 962.901
153.824, 974.454
154.307, 989.106
154.789, 1007.320
155.271, 1021.130
155.753, 1028.112
156.235, 1030.584
156.717, 1030.718
157.199, 1021.564
157.682, 1016.469
158.164, 1021.872
158.646, 1041.430
159.128, 1058.133
159.610, 1065.615
160.092, 1067.296
160.574, 1068.396
161.056, 1072.983
161.538, 1075.737
162.020, 1072.609
162.503, 1058.362
162.985, 1047.110
163.467, 1047.991
163.949, 1057.186
164.431, 1064.061
164.913, 1058.926
165.395, 1051.905
165.877, 1051.512
166.360, 1065.231
166.842, 1080.364
167.324, 1090.347
167.806, 1095.394
168.288, 1097.416
168.770, 1094.950
169.252, 1090.821
169.734, 1088.441
170.217, 1087.942
170.699, 1090.442
171.181, 1098.412
171.663, 1111.894
172.145, 1125.220
172.627, 1137.336
173.109, 1146.148
173.591, 1148.010
174.073, 1130.035
174.555, 1108.798
175.038, 1106.052
175.520, 1125.119
176.002, 1151.220
176.484, 1175.623
176.966, 1196.673
177.448, 1210.034
177.930, 1206.501
178.413, 1194.867
178.895, 1191.046
179.377, 1199.189
179.859, 1210.874
180.341, 1194.263
180.823, 1222.957
181.305, 1240.655
181.787, 1247.945
182.269, 1213.661
182.751, 1233.062
183.234, 1230.948
183.716, 1227.952
184.198, 1254.909
184.680, 1226.672
185.162, 1253.153
185.644, 1257.792
186.126, 1272.428
186.608, 1265.416
187.091, 1265.092
187.573, 1286.421
188.055, 1295.759
188.537, 1286.256
189.019, 1301.527
189.501, 1272.533
189.983, 1282.383
190.465, 1308.992
190.947, 1300.577
191.430, 1316.244
191.912, 1322.739
192.394, 1287.552
192.876, 1324.855
193.358, 1311.016
193.840, 1301.849
194.322, 1298.569
194.804, 1307.621
195.286, 1328.193
195.769, 1345.210
196.251, 1358.365
196.733, 1368.444
197.215, 1376.799
197.697, 1383.347
198.179, 1389.043
198.661, 1392.508
199.143, 1393.449
199.626, 1401.642
200.108, 1419.631
200.590, 1443.348
201.072, 1463.522
201.554, 1479.575
202.036, 1494.444
202.518, 1510.067
203.000, 1526.606
203.482, 1541.629
203.965, 1553.051
204.447, 1563.239
204.929, 1583.278
205.411, 1616.791
205.893, 1650.016
206.375, 1670.731
206.857, 1675.729
207.339, 1683.681
207.822, 1697.028
208.304, 1715.837
208.786, 1741.206
209.268, 1776.488
209.750, 1812.214
210.232, 1840.793
210.714, 1862.726
211.196, 1874.709
211.678, 1872.740
212.161, 1857.124
212.643, 1849.441
213.125, 1851.132
213.607, 1858.664
214.089, 1868.779
214.571, 1882.539
215.053, 1896.242
215.535, 1910.280
216.018, 1925.560
216.500, 1930.563
216.982, 1920.086
217.464, 1904.368
217.946, 1899.062
218.428, 1909.526
218.910, 1918.437
219.392, 1919.855
219.874, 1912.070
220.357, 1904.609
220.839, 1897.487
221.321, 1890.825
221.803, 1885.003
222.285, 1881.135
222.767, 1876.223
223.249, 1867.504
223.731, 1849.714
224.214, 1844.551
224.696, 1857.076
225.178, 1880.075
225.660, 1897.699
226.142, 1907.361
226.624, 1915.613
227.106, 1924.513
227.588, 1932.187
228.070, 1945.374
228.553, 1967.262
229.035, 1994.234
229.517, 2015.527
229.999, 2028.273
230.481, 2039.659
230.963, 2053.881
231.445, 2074.641
231.927, 2090.556
232.410, 2100.519
232.892, 2105.178
233.374, 2106.996
233.856, 2104.336
234.338, 2101.044
234.820, 2100.280
235.302, 2107.251
235.784, 2106.062
236.266, 2094.014
236.749, 2072.142
237.231, 2049.332
237.713, 2027.924
238.195, 2002.611
238.677, 1969.444
239.159, 1925.542
239.641, 1879.530
240.123, 1830.674
240.605, 1779.366
241.088, 1731.201
241.570, 1686.283
242.052, 1643.898
242.534, 1603.285
243.016, 1563.232
243.498, 1527.319
243.980, 1497.028
244.462, 1472.125
244.945, 1446.747
245.427, 1421.851
245.909, 1395.692
246.391, 1365.582
246.873, 1324.992
247.355, 1293.327
247.837, 1277.034
248.319, 1276.428
248.801, 1268.038
249.284, 1249.175
249.766, 1225.754
250.248, 1202.823
250.730, 1178.825
251.212, 1158.574
251.694, 1143.279
252.176, 1133.198
252.658, 1125.938
253.141, 1124.112
253.623, 1122.550
254.105, 1115.050
254.587, 1097.809
255.069, 1082.930
255.551, 1073.645
256.033, 1070.470
256.515, 1066.084
256.997, 1059.561
257.480, 1052.737
257.962, 1047.145
258.444, 1041.853
258.926, 1039.967
259.408, 1043.832
259.890, 1054.427
260.372, 1058.911
260.854, 1055.691
261.336, 1048.072
261.819, 1038.573
262.301, 1023.928
262.783, 1015.447
263.265, 1017.580
263.747, 1031.321
264.229, 1043.788
264.711, 1056.321
265.193, 1065.830
265.676, 1066.914
266.158, 1056.792
266.640, 1046.793
267.122, 1040.886
267.604, 1039.515
268.086, 1035.204
268.568, 1027.673
269.050, 1017.509
269.532, 1003.774
270.015, 983.416
270.497, 969.915
270.979, 970.793
271.461, 987.213
271.943, 991.320
272.425, 979.384
272.907, 961.123
273.389, 950.105
273.871, 947.192
274.354, 947.200
274.836, 950.106
275.318, 956.006
275.800, 955.882
276.282, 948.361
276.764, 937.464
277.246, 927.929
277.728, 919.885
278.211, 913.202
278.693, 907.895
279.175, 903.946
279.657, 901.690
280.139, 901.913
280.621, 901.875
281.103, 896.643
281.585, 885.813
282.068, 877.051
282.550, 874.078
283.032, 876.228
283.514, 877.025
283.996, 876.379
284.478, 874.690
284.960, 872.363
285.442, 869.379
285.924, 865.888
286.406, 861.046
286.889, 855.490
287.371, 852.690
287.853, 852.806
288.335, 854.985
288.817, 860.058
289.299, 867.589
289.781, 871.551
290.263, 867.405
290.746, 857.929
291.228, 852.367
291.710, 850.769
292.192, 852.676
292.674, 859.140
293.156, 869.349
293.638, 878.896
294.120, 886.399
294.603, 891.973
295.085, 895.365
295.567, 896.445
296.049, 897.286
296.531, 900.131
297.013, 904.548
297.495, 909.092
297.977, 914.286
298.459, 918.802
298.942, 917.430
299.424, 910.029
299.906, 906.548
300.388, 922.279
300.870, 949.444
301.352, 968.304
301.834, 966.043
302.316, 955.758
302.798, 955.522
303.281, 964.953
303.763, 974.079
304.245, 975.529
304.727, 970.998
305.209, 963.284
305.691, 951.797
306.173, 938.831
306.655, 924.243
307.138, 908.669
307.620, 898.005
308.102, 900.980
308.584, 909.869
309.066, 914.454
309.548, 908.520
310.030, 900.381
310.512, 896.821
310.994, 896.944
311.477, 895.367
311.959, 886.487
312.441, 875.425
312.923, 867.240
313.405, 862.787
313.887, 862.182
314.369, 870.654
314.851, 884.948
315.333, 890.779
315.816, 872.754
316.298, 848.789
316.780, 832.344
317.262, 831.472
317.744, 832.062
318.226, 828.901
318.708, 823.016
319.190, 817.763
319.672, 812.948
320.155, 809.966
320.637, 810.204
321.119, 818.722
321.601, 822.717
322.083, 815.919
322.565, 802.302
323.047, 791.889
323.530, 787.101
324.012, 785.493
324.494, 786.227
324.976, 790.192
325.458, 794.683
325.940, 792.893
326.422, 799.524
326.904, 804.111
327.386, 806.763
327.868, 801.688
328.351, 806.591
328.833, 807.496
329.315, 808.237
329.797, 814.545
330.279, 810.593
330.761, 816.813
331.243, 818.973
331.725, 822.991
332.208, 822.985
332.690, 824.222
333.172, 829.484
333.654, 832.517
334.136, 832.048
334.618, 836.184
335.100, 832.092
335.582, 835.220
336.065, 837.851
336.547, 850.572
337.029, 854.955
337.511, 846.023
337.993, 836.107
338.475, 840.144
338.957, 862.500
339.439, 879.693
339.921, 885.091
340.404, 880.300
340.886, 877.767
341.368, 878.084
341.850, 878.851
342.332, 876.169
342.814, 869.738
343.296, 870.294
343.778, 883.102
344.260, 902.343
344.743, 909.315
345.225, 903.001
345.707, 895.879
346.189, 899.970
346.671, 912.693
347.153, 918.203
347.635, 910.079
348.117, 899.419
348.599, 909.356
349.082, 937.954
349.564, 964.501
350.046, 973.489
350.528, 970.571
351.010, 967.280
351.492, 963.948
351.974, 963.890
352.457, 972.423
352.939, 987.896
353.421, 1004.812
353.903, 1021.448
354.385, 1037.324
354.867, 1051.919
355.349, 1065.221
355.831, 1077.213
356.313, 1086.384
356.796, 1094.422
357.278, 1104.237
357.760, 1120.492
358.242, 1136.581
358.724, 1146.486
359.206, 1149.595
359.688, 1153.877
360.170, 1166.890
360.652, 1182.222
361.135, 1192.639
361.617, 1194.121
362.099, 1191.560
362.581, 1181.626
363.063, 1165.471
363.545, 1160.915
364.027, 1185.691
364.509, 1217.228
364.991, 1238.966
365.474, 1238.662
365.956, 1238.343
366.438, 1246.488
366.920, 1259.804
367.402, 1260.480
367.884, 1229.184
368.366, 1198.046
368.848, 1182.793
369.331, 1198.230
369.813, 1208.579
370.295, 1211.116
370.777, 1208.947
371.259, 1210.364
371.741, 1221.310
372.223, 1227.736
372.705, 1222.083
373.188, 1196.982
373.670, 1185.526
374.152, 1193.360
374.634, 1209.814
375.116, 1217.573
375.598, 1213.359
376.080, 1210.573
376.562, 1215.257
377.044, 1227.309
377.526, 1229.475
378.009, 1218.741
378.491, 1206.184
378.973, 1205.477
379.455, 1217.129
379.937, 1226.585
380.419, 1228.926
380.901, 1227.081
381.384, 1231.128
381.866, 1241.402
382.348, 1253.179
382.830, 1262.561
383.312, 1270.203
383.794, 1278.162
384.276, 1286.467
384.758, 1295.804
385.240, 1306.873
385.723, 1319.671
386.205, 1334.294
386.687, 1351.852
387.169, 1370.942
387.651, 1389.760
388.133, 1408.502
388.615, 1424.849
389.097, 1432.181
389.579, 1435.278
390.062, 1444.537
390.544, 1472.838
391.026, 1503.860
391.508, 1524.643
391.990, 1533.739
392.472, 1541.301
392.954, 1548.449
393.436, 1558.311
393.918, 1574.295
394.401, 1607.179
394.883, 1637.158
395.365, 1654.772
395.847, 1660.848
396.329, 1668.964
396.811, 1689.070
397.293, 1708.091
397.775, 1717.366
398.258, 1697.210
398.740, 1689.513
399.222, 1707.110
399.704, 1740.965
400.186, 1760.700
400.668, 1753.577
401.150, 1745.876
401.632, 1748.913
402.114, 1769.274
402.597, 1782.239
403.079, 1784.900
403.561, 1782.257
404.043, 1782.369
404.525, 1786.034
405.007, 1790.648
405.489, 1797.442
405.971, 1806.055
406.453, 1804.643
406.936, 1791.930
407.418, 1772.638
407.900, 1748.721
408.382, 1720.284
408.864, 1697.364
409.346, 1682.963
409.828, 1675.202
410.310, 1672.021
410.793, 1673.425
411.275, 1669.709
411.757, 1648.994
412.239, 1617.416
412.721, 1590.597
413.203, 1570.007
413.685, 1557.129
414.167, 1558.659
414.650, 1570.154
415.132, 1577.124
415.614, 1568.129
416.096, 1552.670
416.578, 1540.581
417.060, 1532.871
417.542, 1525.362
418.024, 1510.985
418.506, 1496.191
418.988, 1489.250
419.471, 1504.676
419.953, 1518.369
420.435, 1516.686
420.917, 1501.016
421.399, 1487.820
421.881, 1483.193
422.363, 1482.321
422.845, 1482.186
423.328, 1489.818
423.810, 1488.814
424.292, 1473.533
424.774, 1447.903
425.256, 1423.676
425.738, 1398.725
426.220, 1377.702
426.702, 1363.485
427.185, 1359.453
427.667, 1349.777
428.149, 1332.719
428.631, 1311.620
429.113, 1289.255
429.595, 1263.913
430.077, 1243.922
430.559, 1233.041
431.041, 1229.794
431.524, 1222.090
432.006, 1208.554
432.488, 1196.120
432.970, 1193.115
433.452, 1198.539
433.934, 1198.167
434.416, 1188.601
434.898, 1174.234
435.380, 1159.192
435.863, 1144.488
436.345, 1137.959
436.827, 1150.301
437.309, 1172.304
437.791, 1187.485
438.273, 1193.985
438.755, 1198.966
439.237, 1211.642
439.720, 1226.832
440.202, 1235.488
440.684, 1223.657
441.166, 1211.999
441.648, 1214.828
442.130, 1231.305
442.612, 1252.701
443.094, 1283.529
443.576, 1312.703
444.059, 1331.501
444.541, 1328.358
445.023, 1329.294
445.505, 1343.617
445.987, 1366.308
446.469, 1384.749
446.951, 1394.013
447.433, 1402.353
447.915, 1412.009
448.398, 1422.972
448.880, 1435.499
449.362, 1449.075
449.844, 1464.656
450.326, 1483.616
450.808, 1507.988
451.290, 1530.909
451.772, 1551.658
452.254, 1569.813
452.737, 1581.652
453.219, 1585.820
453.701, 1588.589
454.183, 1593.569
454.665, 1600.725
455.147, 1610.841
455.629, 1624.522
456.112, 1639.606
456.594, 1652.805
457.076, 1664.439
457.558, 1675.207
458.040, 1683.989
458.522, 1692.860
459.004, 1706.659
459.486, 1725.344
459.968, 1743.139
460.451, 1752.516
460.933, 1759.000
461.415, 1770.452
461.897, 1796.010
462.379, 1818.187
462.861, 1823.096
463.343, 1815.611
463.825, 1810.644
464.307, 1813.978
464.790, 1821.367
465.272, 1832.860
465.754, 1853.375
466.236, 1862.552
466.718, 1848.934
467.200, 1825.402
467.682, 1808.196
468.164, 1804.574
468.647, 1798.244
469.129, 1785.982
469.611, 1768.278
470.093, 1749.810
470.575, 1728.960
471.057, 1710.073
471.539, 1698.176
472.021, 1695.853
472.503, 1685.141
472.986, 1663.369
473.468, 1635.006
473.950, 1605.477
474.432, 1574.805
474.914, 1548.623
475.396, 1534.343
475.878, 1526.028
476.360, 1503.775
476.842, 1467.074
477.325, 1428.861
477.807, 1397.504
478.289, 1372.790
478.771, 1354.984
479.253, 1346.922
479.735, 1341.272
480.217, 1334.309
480.699, 1324.974
481.181, 1310.454
481.664, 1281.712
482.146, 1252.671
482.628, 1233.246
483.110, 1225.785
483.592, 1219.026
484.074, 1212.455
484.556, 1203.636
485.039, 1190.280
485.521, 1164.980
486.003, 1143.097
486.485, 1126.492
486.967, 1114.842
487.449, 1106.965
487.931, 1105.700
488.413, 1104.195
488.895, 1098.931
489.378, 1088.914
489.860, 1079.348
490.342, 1069.759
490.824, 1061.649
491.306, 1058.942
491.788, 1062.042
492.270, 1061.597
492.752, 1054.385
493.234, 1041.794
493.717, 1025.101
494.199, 1004.482
494.681, 987.416
495.163, 982.528
495.645, 984.720
496.127, 984.713
496.609, 980.801
497.091, 975.310
497.573, 968.632
498.056, 961.933
498.538, 957.522
499.020, 957.963
499.502, 959.554
499.984, 960.333
500.466, 960.272
500.948, 960.632
501.430, 964.489
501.913, 967.148
502.395, 965.402
502.877, 952.194
503.359, 944.141
503.841, 945.254
504.323, 950.756
504.805, 950.743
505.287, 940.348
505.770, 933.749
506.252, 936.463
506.734, 948.265
507.216, 956.560
507.698, 961.163
508.180, 962.818
508.662, 959.313
509.144, 951.426
509.626, 952.779
510.108, 968.903
510.591, 987.666
511.073, 987.461
511.555, 971.879
512.037, 957.128
512.519, 950.895
513.001, 950.599
513.483, 955.790
513.966, 966.185
514.448, 973.572
514.930, 969.848
515.412, 961.810
515.894, 955.843
516.376, 951.823
516.858, 952.729
517.340, 963.598
517.822, 980.009
518.305, 991.962
518.787, 990.455
519.269, 991.532
519.751, 1001.651
520.233, 1022.638
520.715, 1036.820
521.197, 1040.701
521.679, 1042.470
522.161, 1049.998
522.644, 1066.360
523.126, 1074.254
523.608, 1068.998
524.090, 1057.996
524.572, 1057.426
525.054, 1067.205
525.536, 1078.777
526.018, 1089.281
526.500, 1098.480
526.983, 1104.958
527.465, 1108.741
527.947, 1112.326
528.429, 1115.887
528.911, 1121.101
529.393, 1130.005
529.875, 1142.279
530.357, 1160.112
530.839, 1193.712
531.322, 1233.368
531.804, 1259.065
532.286, 1246.747
532.768, 1234.992
533.250, 1240.110
533.732, 1264.061
534.214, 1287.786
534.696, 1311.551
535.179, 1333.078
535.661, 1350.011
536.143, 1357.531
536.625, 1371.195
537.107, 1392.889
537.589, 1420.108
538.071, 1450.068
538.553, 1484.414
539.036, 1512.719
539.518, 1528.309
540.000, 1535.509
540.482, 1551.204
540.964, 1575.373
541.446, 1601.927
541.928, 1627.063
542.410, 1650.653
542.892, 1672.162
543.375, 1691.476
543.857, 1709.708
544.339, 1729.107
544.821, 1748.058
545.303, 1764.120
545.785, 1775.187
546.267, 1783.960
546.749, 1795.011
547.231, 1806.850
547.714, 1807.012
548.196, 1780.189
548.678, 1751.094
549.160, 1733.053
549.642, 1733.854
550.124, 1725.917
550.606, 1704.779
551.088, 1678.849
551.570, 1659.912
552.053, 1651.527
552.535, 1635.152
553.017, 1603.725
553.499, 1563.744
553.981, 1536.721
554.463, 1522.820
554.945, 1507.579
555.427, 1478.920
555.909, 1443.116
556.392, 1413.580
556.874, 1391.316
557.356, 1370.604
557.838, 1345.492
558.320, 1319.282
558.802, 1296.713
559.284, 1282.441
559.766, 1267.844
560.249, 1246.096
560.731, 1220.751
561.213, 1200.425
561.695, 1189.333
562.177, 1181.985
562.659, 1179.707
563.141, 1183.971
563.623, 1175.700
564.106, 1144.147
564.588, 1112.663
565.070, 1099.454
565.552, 1108.707
566.034, 1117.918
566.516, 1126.960
566.998, 1133.011
567.480, 1129.308
567.963, 1116.479
568.445, 1103.917
568.927, 1095.435
569.409, 1089.327
569.891, 1083.814
570.373, 1078.509
570.855, 1070.800
571.337, 1055.763
571.819, 1039.215
572.302, 1026.264
572.784, 1017.566
573.266, 1013.364
573.748, 1019.714
574.230, 1028.300
574.712, 1029.896
575.194, 1014.981
575.676, 1001.898
576.158, 994.305
576.641, 990.575
577.123, 984.942
577.605, 973.260
578.087, 967.513
578.569, 974.816
579.051, 995.274
579.533, 1006.922
580.015, 1009.519
580.497, 1005.257
580.980, 990.185
581.462, 968.263
581.944, 961.127
582.426, 976.302
582.908, 994.011
583.390, 987.213
583.872, 965.127
584.354, 948.572
584.836, 950.518
585.319, 957.700
585.801, 962.977
586.283, 966.331
586.765, 968.426
587.247, 969.095
587.729, 968.850
588.211, 967.761
588.693, 965.360
589.176, 963.199
589.658, 957.669
590.140, 955.594
590.622, 966.266
591.104, 995.596
591.586, 1013.740
592.068, 1013.636
592.550, 1003.879
593.032, 1004.069
593.515, 1013.829
593.997, 1021.697
594.479, 1020.406
594.961, 1014.304
595.443, 1010.525
595.925, 1009.123
596.407, 1010.729
596.890, 1016.871
597.372, 1025.661
597.854, 1036.862
598.336, 1053.083
598.818, 1062.487
599.300, 1052.428
599.782, 1036.308
600.264, 1029.804
600.746, 1048.245
601.229, 1060.550
601.711, 1062.105
602.193, 1055.188
602.675, 1046.951
603.157, 1036.257
603.639, 1027.016
604.121, 1020.706
604.603, 1017.247
605.085, 1016.704
605.568, 1019.248
606.050, 1008.377
606.532, 1021.454
607.014, 1028.718
607.496, 1030.481
607.978, 1010.267
608.460, 1018.432
608.942, 1015.223
609.424, 1011.549
609.907, 1023.708
610.389, 1006.690
610.871, 1018.598
611.353, 1018.959
611.835, 1024.605
612.317, 1018.808
612.799, 1016.545
613.281, 1025.729
613.763, 1028.575
614.246, 1021.460
614.728, 1027.442
615.210, 1010.025
615.692, 1013.141
616.174, 1025.116
616.656, 1018.576
617.138, 1024.767
617.620, 1026.110
618.103, 1005.419
618.585, 1013.841
619.067, 1027.481
619.549, 1042.182
620.031, 1057.009
620.513, 1069.961
620.995, 1078.898
621.477, 1084.413
621.959, 1088.267
622.442, 1092.469
622.924, 1094.020
