##NAMES=Pararobertsite
##RRUFFID=R120119
##IDEAL CHEMISTRY=Ca_2_Mn^3+^_3_O_2_(PO_4_)_3_&#183;3H_2_O
##LOCALITY=Tip Top mine, Custer, South Dakota, USA
##OWNER=RRUFF
##SOURCE=Thomas A. Loomis. Anthony R. Kampf provided a few crystals (Kampf 2000).
##DESCRIPTION=Spherical aggregate of brown platy crystals on colorless bobdownsite
##STATUS=The identification of this mineral has been confirmed only by single crystal X-ray diffraction.
##URL=rruff.info/R120119
9.112140e+001, 0.000000e+000
9.160352e+001, 7.893157e+002
9.208563e+001, 7.729948e+002
9.256775e+001, 7.711998e+002
9.304987e+001, 7.921266e+002
9.353198e+001, 8.167003e+002
9.401410e+001, 8.291788e+002
9.449622e+001, 8.311365e+002
9.497833e+001, 8.283602e+002
9.546045e+001, 8.252932e+002
9.594257e+001, 8.218484e+002
9.642468e+001, 8.181194e+002
9.690680e+001, 8.153672e+002
9.738892e+001, 8.122636e+002
9.787103e+001, 8.083639e+002
9.835315e+001, 8.027977e+002
9.883527e+001, 7.955065e+002
9.931738e+001, 7.885929e+002
9.979950e+001, 7.821393e+002
1.002816e+002, 7.769287e+002
1.007637e+002, 7.724054e+002
1.012458e+002, 7.688994e+002
1.017280e+002, 7.671035e+002
1.022101e+002, 7.672426e+002
1.026922e+002, 7.680741e+002
1.031743e+002, 7.675079e+002
1.036564e+002, 7.655361e+002
1.041385e+002, 7.633421e+002
1.046207e+002, 7.610565e+002
1.051028e+002, 7.587610e+002
1.055849e+002, 7.568067e+002
1.060670e+002, 7.554112e+002
1.065491e+002, 7.539918e+002
1.070313e+002, 7.520115e+002
1.075134e+002, 7.493938e+002
1.079955e+002, 7.463405e+002
1.084776e+002, 7.430001e+002
1.089597e+002, 7.393084e+002
1.094418e+002, 7.354673e+002
1.099240e+002, 7.312672e+002
1.104061e+002, 7.270560e+002
1.108882e+002, 7.231524e+002
1.113703e+002, 7.196825e+002
1.118524e+002, 7.164999e+002
1.123345e+002, 7.131993e+002
1.128167e+002, 7.094160e+002
1.132988e+002, 7.060313e+002
1.137809e+002, 7.028690e+002
1.142630e+002, 7.002076e+002
1.147451e+002, 6.985391e+002
1.152272e+002, 6.982819e+002
1.157094e+002, 6.993023e+002
1.161915e+002, 6.990798e+002
1.166736e+002, 6.960049e+002
1.171557e+002, 6.934495e+002
1.176378e+002, 6.928974e+002
1.181199e+002, 6.939962e+002
1.186021e+002, 6.953224e+002
1.190842e+002, 6.957098e+002
1.195663e+002, 6.950402e+002
1.200484e+002, 6.944061e+002
1.205305e+002, 6.935671e+002
1.210126e+002, 6.928845e+002
1.214948e+002, 6.926691e+002
1.219769e+002, 6.929631e+002
1.224590e+002, 6.936395e+002
1.229411e+002, 6.949158e+002
1.234232e+002, 6.965872e+002
1.239053e+002, 6.978698e+002
1.243875e+002, 6.984310e+002
1.248696e+002, 6.983971e+002
1.253517e+002, 6.980723e+002
1.258338e+002, 6.973283e+002
1.263159e+002, 6.965056e+002
1.267980e+002, 6.959059e+002
1.272802e+002, 6.954786e+002
1.277623e+002, 6.949855e+002
1.282444e+002, 6.944700e+002
1.287265e+002, 6.940297e+002
1.292086e+002, 6.925668e+002
1.296907e+002, 6.886563e+002
1.301729e+002, 6.846298e+002
1.306550e+002, 6.813564e+002
1.311371e+002, 6.790309e+002
1.316192e+002, 6.775090e+002
1.321013e+002, 6.767217e+002
1.325834e+002, 6.772883e+002
1.330656e+002, 6.773645e+002
1.335477e+002, 6.760251e+002
1.340298e+002, 6.747826e+002
1.345119e+002, 6.749633e+002
1.349940e+002, 6.769686e+002
1.354761e+002, 6.800493e+002
1.359583e+002, 6.825004e+002
1.364404e+002, 6.839287e+002
1.369225e+002, 6.851560e+002
1.374046e+002, 6.862000e+002
1.378867e+002, 6.870757e+002
1.383688e+002, 6.878320e+002
1.388510e+002, 6.885286e+002
1.393331e+002, 6.890456e+002
1.398152e+002, 6.889579e+002
1.402973e+002, 6.879889e+002
1.407794e+002, 6.869675e+002
1.412615e+002, 6.861575e+002
1.417437e+002, 6.855574e+002
1.422258e+002, 6.851525e+002
1.427079e+002, 6.849625e+002
1.431900e+002, 6.849789e+002
1.436721e+002, 6.851111e+002
1.441542e+002, 6.853276e+002
1.446364e+002, 6.856921e+002
1.451185e+002, 6.863575e+002
1.456006e+002, 6.873895e+002
1.460827e+002, 6.883195e+002
1.465648e+002, 6.889709e+002
1.470469e+002, 6.893750e+002
1.475291e+002, 6.895306e+002
1.480112e+002, 6.894600e+002
1.484933e+002, 6.891213e+002
1.489754e+002, 6.884620e+002
1.494575e+002, 6.876418e+002
1.499396e+002, 6.861142e+002
1.504218e+002, 6.834745e+002
1.509039e+002, 6.802150e+002
1.513860e+002, 6.769837e+002
1.518681e+002, 6.741526e+002
1.523502e+002, 6.716617e+002
1.528323e+002, 6.691464e+002
1.533145e+002, 6.659932e+002
1.537966e+002, 6.634501e+002
1.542787e+002, 6.619405e+002
1.547608e+002, 6.612371e+002
1.552429e+002, 6.608782e+002
1.557250e+002, 6.605254e+002
1.562072e+002, 6.601799e+002
1.566893e+002, 6.597892e+002
1.571714e+002, 6.591993e+002
1.576535e+002, 6.587012e+002
1.581356e+002, 6.583389e+002
1.586177e+002, 6.581548e+002
1.590999e+002, 6.582552e+002
1.595820e+002, 6.587832e+002
1.600641e+002, 6.598329e+002
1.605462e+002, 6.607142e+002
1.610283e+002, 6.607546e+002
1.615104e+002, 6.610734e+002
1.619926e+002, 6.626312e+002
1.624747e+002, 6.655416e+002
1.629568e+002, 6.690898e+002
1.634389e+002, 6.727928e+002
1.639210e+002, 6.766302e+002
1.644031e+002, 6.797880e+002
1.648853e+002, 6.816838e+002
1.653674e+002, 6.829468e+002
1.658495e+002, 6.843688e+002
1.663316e+002, 6.860024e+002
1.668137e+002, 6.880108e+002
1.672958e+002, 6.907665e+002
1.677780e+002, 6.940883e+002
1.682601e+002, 6.973002e+002
1.687422e+002, 7.000798e+002
1.692243e+002, 7.024912e+002
1.697064e+002, 7.048533e+002
1.701885e+002, 7.078007e+002
1.706707e+002, 7.097960e+002
1.711528e+002, 7.095662e+002
1.716349e+002, 7.075112e+002
1.721170e+002, 7.053192e+002
1.725991e+002, 7.042028e+002
1.730812e+002, 7.041887e+002
1.735634e+002, 7.046769e+002
1.740455e+002, 7.057844e+002
1.745276e+002, 7.073535e+002
1.750097e+002, 7.096036e+002
1.754918e+002, 7.123854e+002
1.759739e+002, 7.151660e+002
1.764561e+002, 7.174124e+002
1.769382e+002, 7.191559e+002
1.774203e+002, 7.202388e+002
1.779024e+002, 7.203925e+002
1.783845e+002, 7.201773e+002
1.788666e+002, 7.195502e+002
1.793488e+002, 7.186810e+002
1.798309e+002, 7.181094e+002
1.803130e+002, 7.187051e+002
1.807951e+002, 7.215286e+002
1.812772e+002, 7.230674e+002
1.817593e+002, 7.220323e+002
1.822415e+002, 7.207111e+002
1.827236e+002, 7.211478e+002
1.832057e+002, 7.237059e+002
1.836878e+002, 7.268049e+002
1.841699e+002, 7.280340e+002
1.846520e+002, 7.263119e+002
1.851342e+002, 7.246080e+002
1.856163e+002, 7.234864e+002
1.860984e+002, 7.221918e+002
1.865805e+002, 7.198835e+002
1.870626e+002, 7.162992e+002
1.875447e+002, 7.118356e+002
1.880269e+002, 7.069240e+002
1.885090e+002, 7.013668e+002
1.889911e+002, 6.961848e+002
1.894732e+002, 6.916770e+002
1.899553e+002, 6.876830e+002
1.904374e+002, 6.839882e+002
1.909196e+002, 6.804964e+002
1.914017e+002, 6.772839e+002
1.918838e+002, 6.743886e+002
1.923659e+002, 6.717806e+002
1.928480e+002, 6.694845e+002
1.933301e+002, 6.677065e+002
1.938123e+002, 6.662961e+002
1.942944e+002, 6.648167e+002
1.947765e+002, 6.636144e+002
1.952586e+002, 6.616368e+002
1.957407e+002, 6.580239e+002
1.962228e+002, 6.527712e+002
1.967050e+002, 6.465897e+002
1.971871e+002, 6.393389e+002
1.976692e+002, 6.311156e+002
1.981513e+002, 6.241068e+002
1.986334e+002, 6.191523e+002
1.991155e+002, 6.153537e+002
1.995977e+002, 6.122479e+002
2.000798e+002, 6.097613e+002
2.005619e+002, 6.076594e+002
2.010440e+002, 6.056392e+002
2.015261e+002, 6.036190e+002
2.020082e+002, 6.021874e+002
2.024904e+002, 6.022786e+002
2.029725e+002, 6.023768e+002
2.034546e+002, 6.016914e+002
2.039367e+002, 6.001452e+002
2.044188e+002, 5.981953e+002
2.049009e+002, 5.963025e+002
2.053831e+002, 5.943334e+002
2.058652e+002, 5.928717e+002
2.063473e+002, 5.926481e+002
2.068294e+002, 5.923635e+002
2.073115e+002, 5.911309e+002
2.077936e+002, 5.888831e+002
2.082758e+002, 5.862786e+002
2.087579e+002, 5.842659e+002
2.092400e+002, 5.832018e+002
2.097221e+002, 5.819802e+002
2.102042e+002, 5.802878e+002
2.106863e+002, 5.786814e+002
2.111685e+002, 5.774984e+002
2.116506e+002, 5.768185e+002
2.121327e+002, 5.765438e+002
2.126148e+002, 5.765610e+002
2.130969e+002, 5.770967e+002
2.135790e+002, 5.774586e+002
2.140612e+002, 5.779506e+002
2.145433e+002, 5.781061e+002
2.150254e+002, 5.771121e+002
2.155075e+002, 5.749063e+002
2.159896e+002, 5.727568e+002
2.164717e+002, 5.725576e+002
2.169539e+002, 5.754387e+002
2.174360e+002, 5.777502e+002
2.179181e+002, 5.793187e+002
2.184002e+002, 5.803541e+002
2.188823e+002, 5.808395e+002
2.193644e+002, 5.807615e+002
2.198466e+002, 5.807274e+002
2.203287e+002, 5.816468e+002
2.208108e+002, 5.836942e+002
2.212929e+002, 5.857075e+002
2.217750e+002, 5.876786e+002
2.222571e+002, 5.894836e+002
2.227393e+002, 5.908075e+002
2.232214e+002, 5.914991e+002
2.237035e+002, 5.922177e+002
2.241856e+002, 5.941205e+002
2.246677e+002, 5.971111e+002
2.251498e+002, 5.994265e+002
2.256320e+002, 5.997957e+002
2.261141e+002, 5.994083e+002
2.265962e+002, 6.002794e+002
2.270783e+002, 6.029124e+002
2.275604e+002, 6.063079e+002
2.280425e+002, 6.097811e+002
2.285247e+002, 6.132629e+002
2.290068e+002, 6.164670e+002
2.294889e+002, 6.189335e+002
2.299710e+002, 6.210458e+002
2.304531e+002, 6.237892e+002
2.309352e+002, 6.275385e+002
2.314174e+002, 6.313043e+002
2.318995e+002, 6.339720e+002
2.323816e+002, 6.359747e+002
2.328637e+002, 6.385423e+002
2.333458e+002, 6.426064e+002
2.338279e+002, 6.477266e+002
2.343101e+002, 6.526165e+002
2.347922e+002, 6.573504e+002
2.352743e+002, 6.615478e+002
2.357564e+002, 6.646215e+002
2.362385e+002, 6.670704e+002
2.367206e+002, 6.699464e+002
2.372028e+002, 6.739633e+002
2.376849e+002, 6.788719e+002
2.381670e+002, 6.837075e+002
2.386491e+002, 6.885286e+002
2.391312e+002, 6.931596e+002
2.396133e+002, 6.977224e+002
2.400955e+002, 7.020793e+002
2.405776e+002, 7.059992e+002
2.410597e+002, 7.091348e+002
2.415418e+002, 7.117638e+002
2.420239e+002, 7.151602e+002
2.425060e+002, 7.196185e+002
2.429882e+002, 7.245670e+002
2.434703e+002, 7.302482e+002
2.439524e+002, 7.361845e+002
2.444345e+002, 7.417021e+002
2.449166e+002, 7.463646e+002
2.453987e+002, 7.503659e+002
2.458809e+002, 7.545381e+002
2.463630e+002, 7.591726e+002
2.468451e+002, 7.635889e+002
2.473272e+002, 7.674568e+002
2.478093e+002, 7.710934e+002
2.482914e+002, 7.749057e+002
2.487736e+002, 7.791332e+002
2.492557e+002, 7.836500e+002
2.497378e+002, 7.878781e+002
2.502199e+002, 7.912934e+002
2.507020e+002, 7.951047e+002
2.511841e+002, 7.994077e+002
2.516663e+002, 8.041789e+002
2.521484e+002, 8.095237e+002
2.526305e+002, 8.155414e+002
2.531126e+002, 8.218228e+002
2.535947e+002, 8.272054e+002
2.540768e+002, 8.305934e+002
2.545590e+002, 8.342784e+002
2.550411e+002, 8.386289e+002
2.555232e+002, 8.432642e+002
2.560053e+002, 8.481280e+002
2.564874e+002, 8.531651e+002
2.569695e+002, 8.577294e+002
2.574517e+002, 8.602507e+002
2.579338e+002, 8.587184e+002
2.584159e+002, 8.573414e+002
2.588980e+002, 8.569170e+002
2.593801e+002, 8.563271e+002
2.598622e+002, 8.544305e+002
2.603444e+002, 8.508281e+002
2.608265e+002, 8.458273e+002
2.613086e+002, 8.399595e+002
2.617907e+002, 8.321428e+002
2.622728e+002, 8.250768e+002
2.627549e+002, 8.192095e+002
2.632371e+002, 8.138694e+002
2.637192e+002, 8.082363e+002
2.642013e+002, 8.021017e+002
2.646834e+002, 7.962252e+002
2.651655e+002, 7.917328e+002
2.656476e+002, 7.890513e+002
2.661298e+002, 7.870767e+002
2.666119e+002, 7.862711e+002
2.670940e+002, 7.858943e+002
2.675761e+002, 7.850743e+002
2.680582e+002, 7.836738e+002
2.685403e+002, 7.825677e+002
2.690225e+002, 7.828654e+002
2.695046e+002, 7.849737e+002
2.699867e+002, 7.869045e+002
2.704688e+002, 7.883937e+002
2.709509e+002, 7.898299e+002
2.714330e+002, 7.914996e+002
2.719152e+002, 7.934427e+002
2.723973e+002, 7.956782e+002
2.728794e+002, 7.983920e+002
2.733615e+002, 8.016162e+002
2.738436e+002, 8.040285e+002
2.743257e+002, 8.051240e+002
2.748079e+002, 8.057507e+002
2.752900e+002, 8.067891e+002
2.757721e+002, 8.082107e+002
2.762542e+002, 8.089533e+002
2.767363e+002, 8.081636e+002
2.772184e+002, 8.058284e+002
2.777006e+002, 8.031622e+002
2.781827e+002, 8.000859e+002
2.786648e+002, 7.967547e+002
2.791469e+002, 7.934006e+002
2.796290e+002, 7.899808e+002
2.801111e+002, 7.859851e+002
2.805933e+002, 7.806769e+002
2.810754e+002, 7.747167e+002
2.815575e+002, 7.702320e+002
2.820396e+002, 7.681966e+002
2.825217e+002, 7.664482e+002
2.830038e+002, 7.634439e+002
2.834860e+002, 7.594625e+002
2.839681e+002, 7.559293e+002
2.844502e+002, 7.535060e+002
2.849323e+002, 7.519591e+002
2.854144e+002, 7.507415e+002
2.858965e+002, 7.501271e+002
2.863787e+002, 7.491873e+002
2.868608e+002, 7.470203e+002
2.873429e+002, 7.440176e+002
2.878250e+002, 7.416396e+002
2.883071e+002, 7.405804e+002
2.887892e+002, 7.400662e+002
2.892714e+002, 7.391072e+002
2.897535e+002, 7.377686e+002
2.902356e+002, 7.357754e+002
2.907177e+002, 7.323150e+002
2.911998e+002, 7.280733e+002
2.916819e+002, 7.249167e+002
2.921641e+002, 7.234775e+002
2.926462e+002, 7.227964e+002
2.931283e+002, 7.219228e+002
2.936104e+002, 7.208788e+002
2.940925e+002, 7.197383e+002
2.945746e+002, 7.185627e+002
2.950568e+002, 7.173085e+002
2.955389e+002, 7.157916e+002
2.960210e+002, 7.138553e+002
2.965031e+002, 7.120658e+002
2.969852e+002, 7.110107e+002
2.974673e+002, 7.104957e+002
2.979495e+002, 7.100681e+002
2.984316e+002, 7.096230e+002
2.989137e+002, 7.091690e+002
2.993958e+002, 7.085909e+002
2.998779e+002, 7.077808e+002
3.003600e+002, 7.073674e+002
3.008422e+002, 7.079045e+002
3.013243e+002, 7.091230e+002
3.018064e+002, 7.106930e+002
3.022885e+002, 7.130536e+002
3.027706e+002, 7.152626e+002
3.032527e+002, 7.161575e+002
3.037349e+002, 7.156769e+002
3.042170e+002, 7.147610e+002
3.046991e+002, 7.133499e+002
3.051812e+002, 7.120068e+002
3.056633e+002, 7.115396e+002
3.061454e+002, 7.122449e+002
3.066276e+002, 7.133580e+002
3.071097e+002, 7.142415e+002
3.075918e+002, 7.149131e+002
3.080739e+002, 7.158116e+002
3.085560e+002, 7.177781e+002
3.090381e+002, 7.193253e+002
3.095203e+002, 7.185637e+002
3.100024e+002, 7.152203e+002
3.104845e+002, 7.118741e+002
3.109666e+002, 7.106068e+002
3.114487e+002, 7.109529e+002
3.119308e+002, 7.105158e+002
3.124130e+002, 7.083384e+002
3.128951e+002, 7.059880e+002
3.133772e+002, 7.052835e+002
3.138593e+002, 7.059268e+002
3.143414e+002, 7.059371e+002
3.148235e+002, 7.042684e+002
3.153057e+002, 7.012425e+002
3.157878e+002, 6.973266e+002
3.162699e+002, 6.919581e+002
3.167520e+002, 6.871948e+002
3.172341e+002, 6.855029e+002
3.177162e+002, 6.855876e+002
3.181984e+002, 6.845732e+002
3.186805e+002, 6.805803e+002
3.191626e+002, 6.752987e+002
3.196447e+002, 6.714283e+002
3.201268e+002, 6.691861e+002
3.206089e+002, 6.672963e+002
3.210911e+002, 6.652281e+002
3.215732e+002, 6.630089e+002
3.220553e+002, 6.605949e+002
3.225374e+002, 6.577182e+002
3.230195e+002, 6.550515e+002
3.235016e+002, 6.535104e+002
3.239838e+002, 6.530961e+002
3.244659e+002, 6.525404e+002
3.249480e+002, 6.513463e+002
3.254301e+002, 6.497602e+002
3.259122e+002, 6.480287e+002
3.263943e+002, 6.460783e+002
3.268765e+002, 6.443577e+002
3.273586e+002, 6.433453e+002
3.278407e+002, 6.429036e+002
3.283228e+002, 6.422587e+002
3.288049e+002, 6.410862e+002
3.292870e+002, 6.398681e+002
3.297692e+002, 6.391029e+002
3.302513e+002, 6.387579e+002
3.307334e+002, 6.385235e+002
3.312155e+002, 6.385013e+002
3.316976e+002, 6.384628e+002
3.321797e+002, 6.377784e+002
3.326619e+002, 6.362082e+002
3.331440e+002, 6.344782e+002
3.336261e+002, 6.331793e+002
3.341082e+002, 6.321790e+002
3.345903e+002, 6.311829e+002
3.350724e+002, 6.300905e+002
3.355546e+002, 6.289709e+002
3.360367e+002, 6.280588e+002
3.365188e+002, 6.274153e+002
3.370009e+002, 6.263614e+002
3.374830e+002, 6.243307e+002
3.379651e+002, 6.216520e+002
3.384473e+002, 6.189969e+002
3.389294e+002, 6.165588e+002
3.394115e+002, 6.139665e+002
3.398936e+002, 6.106339e+002
3.403757e+002, 6.067094e+002
3.408578e+002, 6.035311e+002
3.413400e+002, 6.020428e+002
3.418221e+002, 6.010607e+002
3.423042e+002, 5.986394e+002
3.427863e+002, 5.945013e+002
3.432684e+002, 5.905152e+002
3.437505e+002, 5.877141e+002
3.442327e+002, 5.857332e+002
3.447148e+002, 5.836052e+002
3.451969e+002, 5.809818e+002
3.456790e+002, 5.785641e+002
3.461611e+002, 5.776714e+002
3.466432e+002, 5.780218e+002
3.471254e+002, 5.775245e+002
3.476075e+002, 5.748733e+002
3.480896e+002, 5.714540e+002
3.485717e+002, 5.689807e+002
3.490538e+002, 5.676031e+002
3.495359e+002, 5.666861e+002
3.500181e+002, 5.658715e+002
3.505002e+002, 5.651518e+002
3.509823e+002, 5.644627e+002
3.514644e+002, 5.635612e+002
3.519465e+002, 5.629000e+002
3.524286e+002, 5.629854e+002
3.529108e+002, 5.636588e+002
3.533929e+002, 5.641199e+002
3.538750e+002, 5.638795e+002
3.543571e+002, 5.632901e+002
3.548392e+002, 5.632525e+002
3.553214e+002, 5.639476e+002
3.558035e+002, 5.646842e+002
3.562856e+002, 5.653222e+002
3.567677e+002, 5.658161e+002
3.572498e+002, 5.659764e+002
3.577319e+002, 5.656896e+002
3.582141e+002, 5.653976e+002
3.586962e+002, 5.658206e+002
3.591783e+002, 5.671273e+002
3.596604e+002, 5.680765e+002
3.601425e+002, 5.681703e+002
3.606246e+002, 5.680729e+002
3.611068e+002, 5.684135e+002
3.615889e+002, 5.692469e+002
3.620710e+002, 5.702552e+002
3.625531e+002, 5.712462e+002
3.630352e+002, 5.722018e+002
3.635173e+002, 5.727843e+002
3.639995e+002, 5.730551e+002
3.644816e+002, 5.729417e+002
3.649637e+002, 5.721404e+002
3.654458e+002, 5.709066e+002
3.659279e+002, 5.698922e+002
3.664100e+002, 5.694630e+002
3.668922e+002, 5.694188e+002
3.673743e+002, 5.691246e+002
3.678564e+002, 5.688554e+002
3.683385e+002, 5.679730e+002
3.688206e+002, 5.658714e+002
3.693027e+002, 5.633294e+002
3.697849e+002, 5.613834e+002
3.702670e+002, 5.602991e+002
3.707491e+002, 5.593426e+002
3.712312e+002, 5.574551e+002
3.717133e+002, 5.542008e+002
3.721954e+002, 5.513300e+002
3.726776e+002, 5.491673e+002
3.731597e+002, 5.470977e+002
3.736418e+002, 5.446555e+002
3.741239e+002, 5.419102e+002
3.746060e+002, 5.392429e+002
3.750881e+002, 5.369023e+002
3.755703e+002, 5.349039e+002
3.760524e+002, 5.333673e+002
3.765345e+002, 5.327195e+002
3.770166e+002, 5.320292e+002
3.774987e+002, 5.310959e+002
3.779808e+002, 5.299866e+002
3.784630e+002, 5.286780e+002
3.789451e+002, 5.271545e+002
3.794272e+002, 5.257469e+002
3.799093e+002, 5.253214e+002
3.803914e+002, 5.269321e+002
3.808735e+002, 5.277653e+002
3.813557e+002, 5.271579e+002
3.818378e+002, 5.262175e+002
3.823199e+002, 5.255730e+002
3.828020e+002, 5.254109e+002
3.832841e+002, 5.258051e+002
3.837662e+002, 5.270444e+002
3.842484e+002, 5.294001e+002
3.847305e+002, 5.307081e+002
3.852126e+002, 5.297144e+002
3.856947e+002, 5.288369e+002
3.861768e+002, 5.286339e+002
3.866589e+002, 5.291451e+002
3.871411e+002, 5.304035e+002
3.876232e+002, 5.325839e+002
3.881053e+002, 5.352944e+002
3.885874e+002, 5.370153e+002
3.890695e+002, 5.370160e+002
3.895516e+002, 5.373932e+002
3.900338e+002, 5.388621e+002
3.905159e+002, 5.407473e+002
3.909980e+002, 5.423386e+002
3.914801e+002, 5.434520e+002
3.919622e+002, 5.446681e+002
3.924443e+002, 5.470311e+002
3.929265e+002, 5.507626e+002
3.934086e+002, 5.534684e+002
3.938907e+002, 5.541600e+002
3.943728e+002, 5.543439e+002
3.948549e+002, 5.545046e+002
3.953370e+002, 5.548331e+002
3.958192e+002, 5.558166e+002
3.963013e+002, 5.579566e+002
3.967834e+002, 5.609924e+002
3.972655e+002, 5.641285e+002
3.977476e+002, 5.674796e+002
3.982297e+002, 5.706141e+002
3.987119e+002, 5.733074e+002
3.991940e+002, 5.756530e+002
3.996761e+002, 5.777242e+002
4.001582e+002, 5.795604e+002
4.006403e+002, 5.810770e+002
4.011224e+002, 5.821366e+002
4.016046e+002, 5.827591e+002
4.020867e+002, 5.832102e+002
4.025688e+002, 5.837214e+002
4.030509e+002, 5.838821e+002
4.035330e+002, 5.830957e+002
4.040151e+002, 5.813428e+002
4.044973e+002, 5.797194e+002
4.049794e+002, 5.787902e+002
4.054615e+002, 5.782776e+002
4.059436e+002, 5.779659e+002
4.064257e+002, 5.779492e+002
4.069078e+002, 5.771786e+002
4.073900e+002, 5.743515e+002
4.078721e+002, 5.699014e+002
4.083542e+002, 5.662102e+002
4.088363e+002, 5.635809e+002
4.093184e+002, 5.616407e+002
4.098005e+002, 5.606071e+002
4.102827e+002, 5.601776e+002
4.107648e+002, 5.593377e+002
4.112469e+002, 5.576242e+002
4.117290e+002, 5.552853e+002
4.122111e+002, 5.527580e+002
4.126932e+002, 5.497385e+002
4.131754e+002, 5.472913e+002
4.136575e+002, 5.459203e+002
4.141396e+002, 5.450389e+002
4.146217e+002, 5.443074e+002
4.151038e+002, 5.435734e+002
