##NAMES=Parabutlerite
##RRUFFID=R110161
##IDEAL CHEMISTRY=Fe^3+^S^6+^O_4_(OH)&#183;2H_2_O
##LOCALITY=Saghand, near Yazd, Iran
##OWNER=RRUFF
##SOURCE=George Rossman, California Institute of Technology
##DESCRIPTION=Fragment of euhedral orange crystals
##STATUS=The identification of this mineral has been confirmed by single-crystal X-ray diffraction.
##URL=rruff.info/R110161
154.7608, 664.1756
155.2429, 666.8900
155.7250, 668.0177
156.2072, 667.4000
156.6893, 667.4661
157.1714, 668.6412
157.6535, 669.9504
158.1356, 671.1364
158.6177, 672.1186
159.0999, 672.7741
159.5820, 672.8618
160.0641, 672.2209
160.5462, 672.5441
161.0283, 674.0769
161.5104, 676.3329
161.9926, 679.2059
162.4747, 682.6553
162.9568, 686.1229
163.4389, 688.9734
163.9210, 691.2416
164.4031, 693.3176
164.8853, 694.9586
165.3674, 696.5341
165.8495, 698.7010
166.3316, 701.7901
166.8137, 704.8401
167.2958, 706.9222
167.7780, 708.2233
168.2601, 709.2350
168.7422, 709.7048
169.2243, 709.9479
169.7064, 711.3572
170.1885, 714.8977
170.6707, 718.6254
171.1528, 721.3261
171.6349, 723.1100
172.1170, 724.5540
172.5991, 726.0674
173.0812, 727.6583
173.5634, 729.1473
174.0455, 730.6617
174.5276, 731.9456
175.0097, 732.4654
175.4918, 732.4525
175.9739, 732.8382
176.4561, 734.9160
176.9382, 739.5729
177.4203, 742.9233
177.9024, 743.9866
178.3845, 744.6614
178.8666, 745.9074
179.3488, 747.8456
179.8309, 750.0321
180.3130, 751.8551
180.7951, 753.2048
181.2772, 754.3658
181.7593, 754.9230
182.2415, 755.5753
182.7236, 757.0323
183.2057, 759.3976
183.6878, 761.9717
184.1699, 763.6409
184.6520, 763.5358
185.1342, 764.2835
185.6163, 766.5230
186.0984, 769.3879
186.5805, 772.0131
187.0626, 774.1490
187.5447, 775.9724
188.0269, 777.7168
188.5090, 779.3562
188.9911, 781.0495
189.4732, 782.7231
189.9553, 784.4858
190.4374, 786.4686
190.9196, 788.6849
191.4017, 791.2422
191.8838, 794.3405
192.3659, 797.9342
192.8480, 801.8108
193.3301, 806.0657
193.8123, 810.5629
194.2944, 814.7880
194.7765, 818.3583
195.2586, 821.9140
195.7407, 826.1564
196.2228, 831.0850
196.7050, 836.1089
197.1871, 840.4123
197.6692, 844.0783
198.1513, 849.0486
198.6334, 856.8739
199.1155, 865.2014
199.5977, 872.3712
200.0798, 878.3299
200.5619, 884.0674
201.0440, 890.7267
201.5261, 898.5745
202.0082, 905.8451
202.4904, 911.4249
202.9725, 917.0480
203.4546, 923.7344
203.9367, 931.5457
204.4188, 939.7595
204.9009, 947.5281
205.3831, 954.8256
205.8652, 961.6787
206.3473, 968.5239
206.8294, 974.6606
207.3115, 979.5761
207.7936, 983.2115
208.2758, 985.9066
208.7579, 987.9909
209.2400, 988.9570
209.7221, 990.4196
210.2042, 993.4466
210.6863, 996.1498
211.1685, 997.3459
211.6506, 996.7681
212.1327, 994.8060
212.6148, 991.8640
213.0969, 986.9476
213.5790, 983.2587
214.0612, 981.9716
214.5433, 981.1015
215.0254, 978.9044
215.5075, 975.0350
215.9896, 970.5333
216.4717, 966.8701
216.9539, 964.3355
217.4360, 962.0834
217.9181, 960.0718
218.4002, 958.3443
218.8823, 956.6133
219.3644, 954.8073
219.8466, 953.8643
220.3287, 955.3884
220.8108, 959.8270
221.2929, 964.1487
221.7750, 967.1589
222.2571, 970.1520
222.7393, 974.6750
223.2214, 981.0433
223.7035, 988.9060
224.1856, 998.2790
224.6677, 1008.990
225.1498, 1020.041
225.6320, 1031.573
226.1141, 1043.196
226.5962, 1054.214
227.0783, 1064.435
227.5604, 1074.324
228.0425, 1084.569
228.5247, 1094.983
229.0068, 1104.980
229.4889, 1114.943
229.9710, 1124.197
230.4531, 1131.284
230.9352, 1135.897
231.4174, 1138.444
231.8995, 1139.736
232.3816, 1139.555
232.8637, 1136.852
233.3458, 1131.458
233.8279, 1123.198
234.3101, 1111.045
234.7922, 1093.859
235.2743, 1074.527
235.7564, 1054.842
236.2385, 1034.620
236.7206, 1013.276
237.2028, 990.6453
237.6849, 966.7558
238.1670, 941.0958
238.6491, 912.4280
239.1312, 883.7794
239.6133, 855.8361
240.0955, 828.7196
240.5776, 802.1859
241.0597, 776.1625
241.5418, 750.6851
242.0239, 726.5020
242.5060, 703.6175
242.9882, 682.1313
243.4703, 661.7761
243.9524, 642.6477
244.4345, 624.8910
244.9166, 608.6963
245.3987, 593.8138
245.8809, 579.4288
246.3630, 565.8008
246.8451, 552.4004
247.3272, 538.9104
247.8093, 525.6044
248.2914, 512.9019
248.7736, 501.0098
249.2557, 489.8736
249.7378, 479.3995
250.2199, 469.6483
250.7020, 460.5517
251.1841, 452.2970
251.6663, 444.6482
252.1484, 437.4932
252.6305, 430.7437
253.1126, 424.3012
253.5947, 417.6639
254.0768, 410.1175
254.5590, 403.3649
255.0411, 397.6455
255.5232, 392.6961
256.0053, 388.3398
256.4874, 384.5128
256.9695, 380.9327
257.4517, 376.9212
257.9338, 371.1702
258.4159, 366.5875
258.8980, 364.0065
259.3801, 362.2387
259.8622, 360.0270
260.3444, 356.9385
260.8265, 353.3801
261.3086, 350.1173
261.7907, 347.2856
262.2728, 344.5389
262.7549, 342.1396
263.2371, 339.6789
263.7192, 336.5499
264.2013, 332.6153
264.6834, 328.6323
265.1655, 325.8047
265.6476, 324.9391
266.1298, 323.3019
266.6119, 320.1790
267.0940, 316.6206
267.5761, 313.6907
268.0582, 311.5702
268.5403, 309.6177
269.0225, 307.0852
269.5046, 303.8273
269.9867, 300.5264
270.4688, 296.9457
270.9509, 293.4953
271.4330, 290.5578
271.9152, 288.1740
272.3973, 286.0870
272.8794, 284.1589
273.3615, 282.3924
273.8436, 280.3703
274.3257, 277.7939
274.8079, 275.1518
275.2900, 272.8195
275.7721, 270.8092
276.2542, 269.0340
276.7363, 267.4952
277.2184, 266.1637
277.7006, 264.6604
278.1827, 262.8429
278.6648, 260.9755
279.1469, 259.1415
279.6290, 257.3769
280.1111, 255.9275
280.5933, 255.0862
281.0754, 254.6411
281.5575, 253.8156
282.0396, 252.4142
282.5217, 250.8825
283.0038, 249.5192
283.4860, 248.2769
283.9681, 246.8240
284.4502, 244.7855
284.9323, 242.6583
285.4144, 241.4367
285.8965, 241.3703
286.3787, 241.5379
286.8608, 241.5148
287.3429, 241.3302
287.8250, 241.0955
288.3071, 240.8642
288.7892, 240.5658
289.2714, 240.0404
289.7535, 239.2420
290.2356, 238.5958
290.7177, 238.5166
291.1998, 238.7471
291.6819, 238.5586
292.1641, 237.6787
292.6462, 236.5577
293.1283, 235.6784
293.6104, 235.0130
294.0925, 234.3623
294.5746, 233.4322
295.0568, 232.5024
295.5389, 232.2626
296.0210, 232.9987
296.5031, 233.8087
296.9852, 233.8362
297.4673, 233.3093
297.9495, 232.7851
298.4316, 232.5058
298.9137, 232.3089
299.3958, 231.8379
299.8779, 230.9756
300.3600, 230.3869
300.8422, 230.9648
301.3243, 232.0596
301.8064, 232.5208
302.2885, 231.8514
302.7706, 230.6904
303.2527, 229.6755
303.7349, 228.8010
304.2170, 228.0942
304.6991, 227.5425
305.1812, 227.2002
305.6633, 227.1919
306.1454, 227.6636
306.6276, 228.1500
307.1097, 228.1940
307.5918, 227.8223
308.0739, 227.5095
308.5560, 227.5281
309.0381, 227.5591
309.5203, 227.1551
310.0024, 226.2473
310.4845, 225.4914
310.9666, 225.4902
311.4487, 226.0770
311.9308, 226.4236
312.4130, 226.3027
312.8951, 225.9854
313.3772, 225.5700
313.8593, 225.1069
314.3414, 225.0087
314.8235, 225.9610
315.3057, 227.4112
315.7878, 227.7414
316.2699, 226.3462
316.7520, 224.9705
317.2341, 225.0556
317.7162, 226.1216
318.1984, 227.2119
318.6805, 228.0184
319.1626, 228.6380
319.6447, 229.2450
320.1268, 229.8695
320.6089, 230.3317
321.0911, 230.3338
321.5732, 230.1644
322.0553, 230.2565
322.5374, 230.8403
323.0195, 231.4734
323.5016, 231.6927
323.9838, 231.4976
324.4659, 231.1497
324.9480, 230.5016
325.4301, 229.9387
325.9122, 229.9044
326.3943, 230.4593
326.8765, 231.3434
327.3586, 232.5436
327.8407, 233.9834
328.3228, 235.1896
328.8049, 235.9653
329.2870, 236.5902
329.7692, 237.3799
330.2513, 238.3135
330.7334, 239.1675
331.2155, 239.7561
331.6976, 240.1917
332.1797, 240.6562
332.6619, 241.0620
333.1440, 241.7995
333.6261, 243.3628
334.1082, 245.5071
334.5903, 247.7566
335.0724, 250.0316
335.5546, 252.2888
336.0367, 254.4068
336.5188, 256.3513
337.0009, 258.4489
337.4830, 261.1030
337.9651, 263.9682
338.4473, 266.3417
338.9294, 267.8634
339.4115, 269.3324
339.8936, 271.4908
340.3757, 274.2419
340.8578, 276.7527
341.3400, 278.5939
341.8221, 280.1870
342.3042, 282.2481
342.7863, 284.8893
343.2684, 287.3925
343.7505, 289.0453
344.2327, 290.3130
344.7148, 292.3046
345.1969, 295.2725
345.6790, 298.9509
346.1611, 303.3675
346.6432, 308.3940
347.1254, 313.2818
347.6075, 317.8323
348.0896, 322.1363
348.5717, 326.1004
349.0538, 329.7165
349.5359, 333.4590
350.0181, 337.6694
350.5002, 342.3445
350.9823, 347.2922
351.4644, 352.8093
351.9465, 358.3080
352.4286, 363.3180
352.9108, 367.9272
353.3929, 372.6718
353.8750, 377.8031
354.3571, 383.2061
354.8392, 388.6277
355.3214, 394.1672
355.8035, 399.5006
356.2856, 404.3006
356.7677, 408.8363
357.2498, 413.6175
357.7319, 418.8205
358.2141, 424.1635
358.6962, 429.4288
359.1783, 434.7032
359.6604, 439.3740
360.1425, 442.9247
360.6246, 446.1440
361.1068, 449.8536
361.5889, 454.1185
362.0710, 458.2445
362.5531, 461.7244
363.0352, 464.5231
363.5173, 466.6849
363.9995, 468.1812
364.4816, 469.1563
364.9637, 469.2765
365.4458, 468.8979
365.9279, 468.9217
366.4100, 469.8561
366.8922, 471.4094
367.3743, 472.6165
367.8564, 472.7946
368.3385, 473.6061
368.8206, 475.9530
369.3027, 478.7494
369.7849, 480.8151
370.2670, 481.8005
370.7491, 481.9497
371.2312, 481.4985
371.7133, 480.0776
372.1954, 479.2051
372.6776, 478.9545
373.1597, 479.1389
373.6418, 479.6592
374.1239, 480.5084
374.6060, 481.7498
375.0881, 483.4952
375.5703, 485.7205
376.0524, 487.7613
376.5345, 489.1482
377.0166, 490.9030
377.4987, 493.6031
377.9808, 496.7359
378.4630, 499.3476
378.9451, 500.9904
379.4272, 502.4351
379.9093, 505.6335
380.3914, 512.4301
380.8735, 517.9377
381.3557, 520.9514
381.8378, 523.4772
382.3199, 526.9086
382.8020, 531.4968
383.2841, 536.7181
383.7662, 541.9869
384.2484, 547.2875
384.7305, 552.8750
385.2126, 559.2745
385.6947, 565.4816
386.1768, 570.9265
386.6589, 575.9454
387.1411, 581.2940
387.6232, 587.5248
388.1053, 594.3117
388.5874, 600.4260
389.0695, 605.6257
389.5516, 610.5532
390.0338, 615.2060
390.5159, 619.8109
390.9980, 624.5403
391.4801, 629.4568
391.9622, 634.5187
392.4443, 639.7762
392.9265, 645.2574
393.4086, 650.6327
393.8907, 656.4132
394.3728, 661.4761
394.8549, 665.0165
395.3370, 667.2390
395.8192, 668.9728
396.3013, 670.9324
396.7834, 672.8068
397.2655, 673.3640
397.7476, 672.1089
398.2297, 670.8206
398.7119, 671.1131
399.1940, 671.7269
399.6761, 670.8944
400.1582, 667.8616
400.6403, 663.9620
401.1224, 660.7177
401.6046, 658.0175
402.0867, 654.4336
402.5688, 649.4491
403.0509, 643.4211
403.5330, 636.6989
404.0151, 629.2726
404.4973, 621.9037
404.9794, 615.2839
405.4615, 608.8370
405.9436, 601.4810
406.4257, 593.0830
406.9078, 584.2395
407.3900, 575.5128
407.8721, 566.8026
408.3542, 557.4980
408.8363, 546.9506
409.3184, 536.3776
409.8005, 526.7526
410.2827, 517.8416
410.7648, 508.8950
411.2469, 499.5036
411.7290, 490.0594
412.2111, 481.5888
412.6932, 474.4662
413.1754, 467.2312
413.6575, 459.5623
414.1396, 451.7130
414.6217, 443.7676
415.1038, 435.8061
415.5859, 428.1052
416.0681, 420.9195
416.5502, 414.2640
417.0323, 408.1533
417.5144, 403.2032
417.9965, 398.0685
418.4786, 391.7588
418.9608, 384.9233
419.4429, 378.8343
419.9250, 374.1743
420.4071, 370.4895
420.8892, 366.5443
421.3713, 362.4615
421.8535, 357.9050
422.3356, 351.9681
422.8177, 346.1891
423.2998, 341.8939
423.7819, 339.1476
424.2640, 337.0493
424.7462, 334.6969
425.2283, 332.0517
425.7104, 329.5934
426.1925, 327.6413
426.6746, 325.5286
427.1567, 322.7225
427.6389, 319.7075
428.1210, 317.2845
428.6031, 315.8730
429.0852, 315.0752
429.5673, 314.0907
430.0494, 312.8136
430.5316, 311.7285
431.0137, 310.9355
431.4958, 310.4044
431.9779, 310.2362
432.4600, 310.3994
432.9421, 310.5972
433.4243, 310.3675
433.9064, 309.9354
434.3885, 310.2869
434.8706, 311.5582
435.3527, 313.4155
435.8348, 316.1960
436.3170, 319.3314
436.7991, 321.8229
437.2812, 323.0839
437.7633, 324.0945
438.2454, 325.6727
438.7275, 327.7923
439.2097, 330.2874
439.6918, 333.2117
440.1739, 336.3064
440.6560, 338.9776
441.1381, 341.1096
441.6202, 344.0395
442.1024, 348.7460
442.5845, 354.1036
443.0666, 358.6693
443.5487, 362.3721
444.0308, 366.2387
444.5129, 371.0779
444.9951, 376.7782
445.4772, 382.4012
445.9593, 388.2284
446.4414, 393.6366
446.9235, 397.8139
447.4056, 401.6336
447.8878, 406.5213
448.3699, 412.9487
448.8520, 420.1147
449.3341, 426.8595
449.8162, 433.0187
450.2983, 439.1378
450.7805, 445.0538
451.2626, 451.0689
451.7447, 457.3496
452.2268, 463.8813
452.7089, 470.6930
453.1910, 477.8350
453.6732, 485.1247
454.1553, 491.6667
454.6374, 496.7855
455.1195, 502.3137
455.6016, 508.2468
456.0837, 514.8082
456.5659, 522.3661
457.0480, 530.9521
457.5301, 539.7415
458.0122, 547.9375
458.4943, 555.5783
458.9764, 563.0538
459.4586, 570.3541
459.9407, 577.4957
460.4228, 584.8571
460.9049, 592.0151
461.3870, 598.1091
461.8691, 602.4889
462.3513, 606.2604
462.8334, 611.1292
463.3155, 617.0054
463.7976, 621.5305
464.2797, 623.9573
464.7618, 624.6656
465.2440, 624.2706
465.7261, 622.8344
466.2082, 620.1258
466.6903, 615.6486
467.1724, 610.0776
467.6545, 604.3222
468.1367, 598.4371
468.6188, 591.6296
469.1009, 583.2617
469.5830, 573.6227
470.0651, 563.9541
470.5472, 554.4601
471.0294, 544.7697
471.5115, 534.7653
471.9936, 524.5402
472.4757, 514.1184
472.9578, 503.5435
473.4399, 492.8509
473.9221, 482.0313
474.4042, 470.9767
474.8863, 460.4651
475.3684, 451.0505
475.8505, 441.4349
476.3326, 430.9881
476.8148, 420.0675
477.2969, 409.1745
477.7790, 398.5980
478.2611, 388.5442
478.7432, 379.6385
479.2253, 372.1537
479.7075, 365.1634
480.1896, 359.2094
480.6717, 353.2302
481.1538, 346.5097
481.6359, 339.1824
482.1180, 331.9233
482.6002, 325.0573
483.0823, 318.6528
483.5644, 312.8826
484.0465, 307.9109
484.5286, 303.0706
485.0107, 297.8669
485.4929, 292.7689
485.9750, 288.3780
486.4571, 284.8896
486.9392, 281.5697
487.4213, 277.9014
487.9034, 274.0893
488.3856, 270.6248
488.8677, 267.5720
489.3498, 264.7754
489.8319, 262.1801
490.3140, 259.7617
490.7961, 257.2663
491.2783, 254.3434
491.7604, 251.6916
492.2425, 249.6830
492.7246, 248.1472
493.2067, 246.9013
493.6888, 245.8877
494.1710, 244.6985
494.6531, 242.6050
495.1352, 238.9431
495.6173, 236.5339
496.0994, 236.2602
496.5815, 236.1906
497.0637, 235.4412
497.5458, 234.1590
498.0279, 232.8292
498.5100, 231.7168
498.9921, 230.7574
499.4742, 229.7117
499.9564, 228.3707
500.4385, 227.4905
500.9206, 227.3260
501.4027, 227.5258
501.8848, 228.1430
502.3669, 229.0261
502.8491, 229.5975
503.3312, 229.2087
503.8133, 228.2804
504.2954, 228.0307
504.7775, 228.6059
505.2596, 229.1660
505.7418, 229.1846
506.2239, 229.0495
506.7060, 229.3040
507.1881, 230.0144
507.6702, 230.9521
508.1523, 232.3139
508.6345, 233.7292
509.1166, 234.3989
509.5987, 234.2052
510.0808, 234.0717
510.5629, 234.7651
511.0450, 236.2234
511.5272, 237.6494
512.0093, 239.1603
512.4914, 240.5127
512.9735, 241.2170
513.4556, 241.8954
513.9377, 243.3905
514.4199, 245.9054
514.9020, 249.0860
515.3841, 252.5925
515.8662, 256.5863
516.3483, 259.7605
516.8304, 261.2747
517.3126, 262.8311
517.7947, 264.5244
518.2768, 266.6654
518.7589, 269.8282
519.2410, 274.2852
519.7231, 279.1201
520.2053, 282.8226
520.6874, 285.2522
521.1695, 288.5426
521.6516, 293.3705
522.1337, 298.6330
522.6158, 303.7372
523.0980, 308.6539
523.5801, 313.2627
524.0622, 316.8744
524.5443, 320.7775
525.0264, 326.4637
525.5085, 333.7493
525.9907, 341.3154
526.4728, 348.8122
526.9549, 356.2684
527.4370, 363.7124
527.9191, 371.2103
528.4012, 378.7157
528.8834, 386.0929
529.3655, 393.5961
529.8476, 401.3539
530.3297, 409.4021
530.8118, 417.6630
531.2939, 426.0872
531.7761, 434.7929
532.2582, 444.1371
532.7403, 454.6845
533.2224, 464.8034
533.7045, 474.2762
534.1866, 483.4900
534.6688, 492.5966
535.1509, 501.6734
535.6330, 510.8384
536.1151, 520.2012
536.5972, 529.6653
537.0793, 539.2969
537.5615, 549.3193
538.0436, 558.3984
538.5257, 565.8566
539.0078, 572.2955
539.4899, 578.3499
539.9720, 584.0232
540.4542, 588.6931
540.9363, 591.8820
541.4184, 593.9632
541.9005, 595.4786
542.3826, 596.4380
542.8647, 596.6182
543.3469, 596.0002
543.8290, 594.4263
544.3111, 591.4202
544.7932, 587.2014
545.2753, 581.3972
545.7574, 573.4407
546.2396, 564.1906
546.7217, 554.2906
547.2038, 543.7966
547.6859, 532.6457
548.1680, 520.7220
548.6501, 508.1129
549.1323, 495.1687
549.6144, 481.8374
550.0965, 468.3326
550.5786, 454.2526
551.0607, 440.2975
551.5428, 427.1187
552.0250, 414.6694
552.5071, 402.3703
552.9892, 389.5382
553.4713, 376.5967
553.9534, 364.6733
554.4355, 353.9115
554.9177, 343.5156
555.3998, 333.2493
555.8819, 323.1117
556.3640, 312.8865
556.8461, 302.4811
557.3282, 292.7922
557.8104, 284.2152
558.2925, 276.4476
558.7746, 269.4057
559.2567, 262.9295
559.7388, 256.5027
560.2209, 249.7257
560.7031, 242.8160
561.1852, 236.4513
561.6673, 230.7041
562.1494, 225.3544
562.6315, 220.7272
563.1136, 216.2410
563.5958, 211.4043
564.0779, 206.2670
564.5600, 201.2532
565.0421, 196.5821
565.5242, 192.3606
566.0063, 189.0348
566.4885, 186.8935
566.9706, 184.8546
567.4527, 182.8689
567.9348, 180.7619
568.4169, 178.2952
568.8990, 175.5400
569.3812, 172.9094
569.8633, 170.5994
570.3454, 168.5774
570.8275, 166.9557
571.3096, 165.6958
571.7917, 164.1552
572.2739, 161.8902
572.7560, 159.4509
573.2381, 157.8882
573.7202, 157.4372
574.2023, 156.8406
574.6844, 155.8716
575.1666, 154.8147
575.6487, 153.7947
576.1308, 152.8513
576.6129, 152.0668
577.0950, 151.4891
577.5771, 150.9870
578.0593, 150.1911
578.5414, 148.7845
579.0235, 147.9518
579.5056, 148.4806
579.9877, 148.9146
580.4698, 148.3372
580.9520, 147.1634
581.4341, 146.4331
581.9162, 146.7172
582.3983, 147.4202
582.8804, 147.7996
583.3625, 147.8773
583.8447, 147.8809
584.3268, 147.8840
584.8089, 147.7741
585.2910, 147.2593
585.7731, 146.4192
586.2552, 146.1125
586.7374, 146.7386
587.2195, 147.5755
587.7016, 148.3024
588.1837, 148.9716
588.6658, 149.6703
589.1479, 150.4298
589.6301, 151.2687
590.1122, 152.1850
590.5943, 153.1475
591.0764, 154.5065
591.5585, 156.9024
592.0406, 158.9485
592.5228, 160.1783
593.0049, 160.9524
593.4870, 161.4753
593.9691, 161.8371
594.4512, 162.6861
594.9333, 165.0438
595.4155, 168.4888
595.8976, 171.1478
596.3797, 172.8442
596.8618, 174.0612
597.3439, 174.8758
597.8260, 175.4571
598.3082, 176.2915
598.7903, 177.6747
599.2724, 178.5679
599.7545, 178.4530
600.2366, 177.7997
600.7188, 177.0462
601.2009, 176.2502
601.6830, 175.3666
602.1651, 174.3809
602.6472, 173.2351
603.1293, 171.6947
603.6115, 169.5433
604.0936, 167.3797
604.5757, 165.2797
605.0578, 163.1591
605.5399, 160.7771
606.0220, 158.3147
606.5042, 156.3171
606.9863, 155.2885
607.4684, 154.6024
607.9505, 153.2136
608.4326, 151.1343
608.9147, 148.8943
609.3969, 146.4094
609.8790, 144.2170
610.3611, 143.1031
610.8432, 142.9635
611.3253, 142.6230
611.8074, 142.0413
612.2896, 141.1453
612.7717, 139.8062
613.2538, 138.1516
613.7359, 136.2196
614.2180, 134.0714
614.7001, 132.2171
615.1823, 131.3205
615.6644, 131.4385
616.1465, 131.3225
616.6286, 130.8194
617.1107, 130.2837
617.5928, 129.8930
618.0750, 129.4713
618.5571, 128.7642
619.0392, 127.7419
619.5213, 126.7785
620.0034, 126.1981
620.4855, 125.8694
620.9677, 125.5708
621.4498, 125.3019
621.9319, 124.7605
622.4140, 123.6632
622.8961, 122.3487
623.3782, 121.5542
623.8604, 121.3900
624.3425, 121.3179
624.8246, 121.6097
625.3067, 121.6848
625.7888, 120.9485
626.2709, 119.6808
626.7531, 118.6099
627.2352, 118.1027
627.7173, 117.8337
628.1994, 117.0516
628.6815, 115.4876
629.1636, 114.9548
629.6458, 116.4753
630.1279, 117.8465
630.6100, 117.7623
631.0921, 116.8539
631.5742, 116.2627
632.0563, 116.3795
632.5385, 116.5218
633.0206, 116.1174
633.5027, 115.4118
633.9848, 114.8553
634.4669, 114.5179
634.9490, 114.3762
635.4312, 114.4529
635.9133, 114.6848
636.3954, 114.7697
636.8775, 114.6799
637.3596, 114.4679
637.8417, 113.9347
638.3239, 113.4439
638.8060, 113.3314
639.2881, 113.5075
639.7702, 113.6153
640.2523, 113.4257
640.7344, 113.0892
641.2166, 112.9301
641.6987, 112.9611
642.1808, 112.8806
642.6629, 112.7196
643.1450, 112.2826
643.6271, 110.9750
644.1093, 109.1486
644.5914, 108.2111
645.0735, 109.2918
645.5556, 110.2289
646.0377, 109.6776
646.5198, 108.5077
647.0020, 107.9330
647.4841, 108.1873
647.9662, 108.9034
648.4483, 109.8678
648.9304, 110.9497
649.4125, 111.1627
649.8947, 109.8241
650.3768, 108.8981
650.8589, 109.0959
651.3410, 109.5049
651.8231, 109.4837
