##NAMES=Paravauxite
##RRUFFID=R040179
##IDEAL CHEMISTRY=Fe^2+^Al_2_(PO_4_)_2_(OH)_2_&#183;8H_2_O
##LOCALITY=Mina Siglo XX, Llallagua, Bolivia
##OWNER=RRUFF
##SOURCE=University of Arizona Mineral Museum
##DESCRIPTION=Colorless short prismatic crystals in subparallel groups
##STATUS=The identification of this mineral has been confirmed by X-ray diffraction and chemical analysis
##URL=rruff.info/R040179
##MEASURED CHEMISTRY=(Fe_0.93_Mg_0.03_Mn_0.02_)Al_1.94_(P_2.05_O_4_)_2_((OH)_0.99_F_0.01_)_2_Â·8H_2_O
148.6976, 5581.800
149.1797, 5632.865
149.6618, 5698.337
150.1439, 5764.702
150.6261, 5833.618
151.1082, 5901.174
151.5903, 5967.069
152.0724, 6035.044
152.5545, 6092.514
153.0366, 6131.427
153.5188, 6159.146
154.0009, 6190.017
154.4830, 6233.317
154.9651, 6275.108
155.4472, 6309.077
155.9293, 6326.906
156.4115, 6347.852
156.8936, 6379.600
157.3757, 6418.492
157.8578, 6452.322
158.3399, 6479.673
158.8221, 6499.566
159.3042, 6511.584
159.7863, 6503.500
160.2684, 6499.356
160.7505, 6511.434
161.2326, 6537.363
161.7148, 6557.999
162.1969, 6553.265
162.6790, 6544.013
163.1611, 6550.370
163.6432, 6594.658
164.1253, 6643.731
164.6075, 6679.140
165.0896, 6700.189
165.5717, 6721.203
166.0538, 6755.738
166.5359, 6794.298
167.0180, 6823.443
167.5002, 6820.510
167.9823, 6816.989
168.4644, 6840.196
168.9465, 6895.210
169.4286, 6955.503
169.9107, 7001.205
170.3929, 7037.657
170.8750, 7077.320
171.3571, 7132.333
171.8392, 7190.798
172.3213, 7238.414
172.8034, 7270.422
173.2856, 7299.759
173.7677, 7340.172
174.2498, 7388.645
174.7319, 7434.067
175.2140, 7470.986
175.6961, 7500.448
176.1783, 7522.052
176.6604, 7531.601
177.1425, 7540.244
177.6246, 7565.337
178.1067, 7604.119
178.5888, 7640.350
179.0710, 7660.724
179.5531, 7669.457
180.0352, 7674.601
180.5173, 7675.867
180.9994, 7676.650
181.4815, 7680.732
181.9637, 7688.246
182.4458, 7702.143
182.9279, 7726.443
183.4100, 7759.725
183.8921, 7797.571
184.3742, 7842.799
184.8564, 7890.080
185.3385, 7924.334
185.8206, 7945.176
186.3027, 7961.257
186.7848, 7977.366
187.2669, 7994.576
187.7491, 8021.646
188.2312, 8067.230
188.7133, 8125.092
189.1954, 8173.208
189.6775, 8210.554
190.1596, 8241.275
190.6418, 8263.880
191.1239, 8278.873
191.6060, 8308.581
192.0881, 8368.511
192.5702, 8454.853
193.0524, 8534.408
193.5345, 8606.153
194.0166, 8673.305
194.4987, 8740.545
194.9808, 8808.264
195.4629, 8870.390
195.9451, 8929.528
196.4272, 8986.018
196.9093, 9010.952
197.3914, 8999.419
197.8735, 8962.629
198.3556, 8920.193
198.8378, 8872.668
199.3199, 8817.246
199.8020, 8743.322
200.2841, 8648.325
200.7662, 8585.733
201.2483, 8566.546
201.7305, 8574.199
202.2126, 8566.997
202.6947, 8540.760
203.1768, 8515.275
203.6589, 8502.552
204.1410, 8503.938
204.6232, 8509.726
205.1053, 8520.275
205.5874, 8534.164
206.0695, 8547.287
206.5516, 8560.329
207.0337, 8570.812
207.5159, 8571.970
207.9980, 8557.285
208.4801, 8565.516
208.9622, 8607.924
209.4443, 8676.743
209.9264, 8734.574
210.4086, 8780.244
210.8907, 8817.408
211.3728, 8848.836
211.8549, 8875.915
212.3370, 8893.031
212.8191, 8897.634
213.3013, 8890.979
213.7834, 8882.386
214.2655, 8868.263
214.7476, 8857.983
215.2297, 8861.024
215.7118, 8882.310
216.1940, 8903.396
216.6761, 8920.727
217.1582, 8934.600
217.6403, 8950.938
218.1224, 8972.827
218.6045, 8992.819
219.0867, 9001.232
219.5688, 8989.014
220.0509, 8986.157
220.5330, 8996.826
221.0151, 9021.015
221.4972, 9067.006
221.9794, 9148.229
222.4615, 9236.680
222.9436, 9300.258
223.4257, 9321.154
223.9078, 9354.522
224.3899, 9412.750
224.8721, 9497.844
225.3542, 9592.774
225.8363, 9705.982
226.3184, 9821.800
226.8005, 9921.053
227.2827, 9988.913
227.7648, 10067.38
228.2469, 10168.27
228.7290, 10293.57
229.2111, 10423.13
229.6932, 10559.86
230.1754, 10696.96
230.6575, 10828.36
231.1396, 10956.36
231.6217, 11072.61
232.1038, 11171.38
232.5859, 11247.61
233.0681, 11336.96
233.5502, 11460.28
234.0323, 11581.47
234.5144, 11648.82
234.9965, 11648.68
235.4786, 11616.26
235.9608, 11560.00
236.4429, 11480.10
236.9250, 11378.71
237.4071, 11249.95
237.8892, 11103.95
238.3713, 10954.71
238.8535, 10795.23
239.3356, 10644.43
239.8177, 10511.47
240.2998, 10403.64
240.7819, 10283.04
241.2640, 10137.56
241.7462, 9984.423
242.2283, 9852.498
242.7104, 9748.275
243.1925, 9654.609
243.6746, 9565.919
244.1567, 9480.618
244.6389, 9404.688
245.1210, 9338.698
245.6031, 9281.815
246.0852, 9232.958
246.5673, 9191.194
247.0494, 9159.259
247.5316, 9141.669
248.0137, 9147.418
248.4958, 9135.948
248.9779, 9100.133
249.4600, 9051.121
249.9421, 9009.186
250.4243, 8972.288
250.9064, 8945.542
251.3885, 8931.849
251.8706, 8934.249
252.3527, 8941.226
252.8348, 8959.608
253.3170, 8978.382
253.7991, 8972.529
254.2812, 8925.110
254.7633, 8885.671
255.2454, 8874.879
255.7275, 8901.391
256.2097, 8925.540
256.6918, 8948.694
257.1739, 8968.291
257.6560, 8978.646
258.1381, 8975.549
258.6202, 8971.788
259.1024, 8969.698
259.5845, 8965.717
260.0666, 8980.194
260.5487, 9022.156
261.0308, 9075.706
261.5129, 9110.858
261.9951, 9117.705
262.4772, 9129.182
262.9593, 9160.438
263.4414, 9217.805
263.9235, 9265.646
264.4056, 9301.890
264.8878, 9331.064
265.3699, 9359.941
265.8520, 9385.873
266.3341, 9419.864
266.8162, 9469.710
267.2983, 9538.689
267.7805, 9597.955
268.2626, 9641.406
268.7447, 9681.421
269.2268, 9740.542
269.7089, 9822.699
270.1910, 9909.551
270.6732, 9995.392
271.1553, 10079.57
271.6374, 10163.54
272.1195, 10243.54
272.6016, 10329.08
273.0837, 10436.48
273.5659, 10570.86
274.0480, 10702.85
274.5301, 10817.55
275.0122, 10913.23
275.4943, 11032.62
275.9764, 11184.40
276.4586, 11343.54
276.9407, 11467.90
277.4228, 11551.29
277.9049, 11640.45
278.3870, 11758.18
278.8691, 11902.55
279.3513, 12031.28
279.8334, 12145.86
280.3155, 12240.94
280.7976, 12310.28
281.2798, 12353.31
281.7619, 12370.84
282.2440, 12361.50
282.7261, 12326.15
283.2082, 12268.99
283.6903, 12187.98
284.1725, 12092.59
284.6546, 11993.81
285.1367, 11892.27
285.6188, 11781.06
286.1009, 11648.34
286.5830, 11503.18
287.0652, 11389.71
287.5473, 11313.09
288.0294, 11243.59
288.5115, 11137.84
288.9936, 11002.22
289.4757, 10894.29
289.9579, 10845.65
290.4400, 10834.84
290.9221, 10801.18
291.4042, 10743.51
291.8863, 10677.47
292.3684, 10607.45
292.8506, 10538.96
293.3327, 10496.54
293.8148, 10505.79
294.2969, 10535.26
294.7790, 10518.20
295.2611, 10454.37
295.7433, 10382.25
296.2254, 10335.72
296.7075, 10306.71
297.1896, 10273.60
297.6717, 10223.82
298.1538, 10171.24
298.6360, 10141.32
299.1181, 10132.03
299.6002, 10122.66
300.0823, 10098.37
300.5644, 10062.44
301.0465, 10019.73
301.5287, 9966.142
302.0108, 9913.108
302.4929, 9876.702
302.9750, 9854.337
303.4571, 9833.258
303.9392, 9799.042
304.4214, 9762.426
304.9035, 9738.646
305.3856, 9738.188
305.8677, 9741.301
306.3498, 9730.871
306.8319, 9709.609
307.3141, 9686.738
307.7962, 9670.370
308.2783, 9654.076
308.7604, 9628.075
309.2425, 9582.081
309.7246, 9545.774
310.2068, 9547.448
310.6889, 9574.781
311.1710, 9595.706
311.6531, 9593.590
312.1352, 9579.875
312.6173, 9561.343
313.0995, 9537.196
313.5816, 9514.494
314.0637, 9489.433
314.5458, 9468.447
315.0279, 9463.304
315.5100, 9497.252
315.9922, 9534.111
316.4743, 9554.147
316.9564, 9552.253
317.4385, 9545.254
317.9206, 9527.401
318.4027, 9510.313
318.8849, 9510.227
319.3670, 9557.999
319.8491, 9600.203
320.3312, 9610.814
320.8133, 9580.584
321.2954, 9564.235
321.7776, 9588.839
322.2597, 9626.088
322.7418, 9645.815
323.2239, 9610.497
323.7060, 9590.396
324.1881, 9615.506
324.6703, 9692.786
325.1524, 9735.069
325.6345, 9692.794
326.1166, 9635.886
326.5987, 9620.571
327.0808, 9698.443
327.5630, 9757.372
328.0451, 9774.646
328.5272, 9752.920
329.0093, 9751.275
329.4914, 9790.641
329.9735, 9831.112
330.4557, 9845.081
330.9378, 9810.236
331.4199, 9787.897
331.9020, 9785.998
332.3841, 9800.710
332.8662, 9813.829
333.3484, 9825.395
333.8305, 9835.112
334.3126, 9842.814
334.7947, 9848.140
335.2768, 9852.261
335.7589, 9855.020
336.2411, 9856.715
336.7232, 9857.919
337.2053, 9858.242
337.6874, 9859.193
338.1695, 9860.793
338.6516, 9862.618
339.1338, 9870.088
339.6159, 9886.031
340.0980, 9903.188
340.5801, 9907.802
341.0622, 9898.715
341.5443, 9887.893
342.0265, 9877.280
342.5086, 9867.840
342.9907, 9869.695
343.4728, 9884.621
343.9549, 9903.834
344.4370, 9921.614
344.9192, 9936.724
345.4013, 9936.048
345.8834, 9901.775
346.3655, 9852.005
346.8476, 9840.297
347.3297, 9867.606
347.8119, 9904.565
348.2940, 9926.114
348.7761, 9935.471
349.2582, 9941.921
349.7403, 9948.613
350.2225, 9953.329
350.7046, 9948.344
351.1867, 9935.549
351.6688, 9929.935
352.1509, 9948.055
352.6331, 9978.748
353.1152, 10001.19
353.5973, 9997.797
354.0794, 9973.207
354.5615, 10021.78
355.0436, 10056.45
355.5258, 10077.97
356.0079, 10046.94
356.4900, 10083.77
356.9721, 10093.40
357.4542, 10101.92
357.9363, 10148.29
358.4185, 10124.91
358.9006, 10177.72
359.3827, 10194.14
359.8648, 10203.27
360.3469, 10211.41
360.8290, 10218.93
361.3112, 10224.33
361.7933, 10241.25
362.2754, 10281.88
362.7575, 10333.37
363.2396, 10382.01
363.7217, 10429.58
364.2039, 10468.44
364.6860, 10491.68
365.1681, 10499.21
365.6502, 10514.07
366.1323, 10533.69
366.6144, 10564.63
367.0966, 10611.90
367.5787, 10705.49
368.0608, 10778.00
368.5429, 10817.97
369.0250, 10831.35
369.5071, 10847.27
369.9893, 10864.32
370.4714, 10885.42
370.9535, 10912.27
371.4356, 10945.92
371.9177, 10982.91
372.3998, 11026.30
372.8820, 11071.56
373.3641, 11107.07
373.8462, 11129.20
374.3283, 11150.98
374.8104, 11179.98
375.2925, 11218.26
375.7747, 11239.26
376.2568, 11237.25
376.7389, 11229.71
377.2210, 11243.18
377.7031, 11279.45
378.1852, 11310.69
378.6674, 11326.86
379.1495, 11331.33
379.6316, 11340.63
380.1137, 11355.57
380.5958, 11367.38
381.0779, 11368.97
381.5601, 11360.57
382.0422, 11341.82
382.5243, 11306.67
383.0064, 11268.39
383.4885, 11254.91
383.9706, 11262.40
384.4528, 11263.51
384.9349, 11231.57
385.4170, 11183.06
385.8991, 11143.83
386.3812, 11117.37
386.8633, 11100.43
387.3455, 11090.04
387.8276, 11086.73
388.3097, 11091.67
388.7918, 11111.72
389.2739, 11136.29
389.7560, 11159.77
390.2382, 11182.45
390.7203, 11195.38
391.2024, 11169.43
391.6845, 11139.25
392.1666, 11144.63
392.6487, 11239.78
393.1309, 11334.81
393.6130, 11390.16
394.0951, 11408.87
394.5772, 11430.29
395.0593, 11459.43
395.5414, 11497.63
396.0236, 11545.50
396.5057, 11608.78
396.9878, 11675.34
397.4699, 11743.13
397.9520, 11813.12
398.4341, 11887.41
398.9163, 11965.18
399.3984, 12047.99
399.8805, 12135.85
400.3626, 12227.24
400.8447, 12330.31
401.3268, 12459.15
401.8090, 12589.12
402.2911, 12684.57
402.7732, 12731.63
403.2553, 12779.03
403.7374, 12846.81
404.2195, 12931.88
404.7017, 12974.14
405.1838, 12965.06
405.6659, 12936.04
406.1480, 12921.65
406.6301, 12922.59
407.1122, 12887.56
407.5944, 12793.14
408.0765, 12671.87
408.5586, 12607.40
409.0407, 12598.45
409.5228, 12597.84
410.0049, 12582.16
410.4871, 12551.10
410.9692, 12493.32
411.4513, 12398.26
411.9334, 12314.12
412.4155, 12312.80
412.8976, 12369.27
413.3798, 12411.07
413.8619, 12378.11
414.3440, 12330.01
414.8261, 12332.40
415.3082, 12386.72
415.7903, 12451.73
416.2725, 12506.78
416.7546, 12555.49
417.2367, 12602.46
417.7188, 12633.22
418.2009, 12678.82
418.6830, 12759.89
419.1652, 12869.42
419.6473, 12978.56
420.1294, 13070.16
420.6115, 13165.18
421.0937, 13277.62
421.5758, 13414.42
422.0579, 13552.98
422.5400, 13680.97
423.0221, 13811.08
423.5042, 13967.49
423.9864, 14178.74
424.4685, 14382.87
424.9506, 14562.05
425.4327, 14710.00
425.9148, 14887.05
426.3969, 15112.64
426.8791, 15345.07
427.3612, 15545.51
427.8433, 15705.98
428.3254, 15858.39
428.8075, 16007.94
429.2896, 16151.39
429.7718, 16278.24
430.2539, 16390.88
430.7360, 16476.88
431.2181, 16530.92
431.7002, 16552.50
432.1823, 16533.86
432.6645, 16473.91
433.1466, 16375.64
433.6287, 16237.25
434.1108, 16062.94
434.5929, 15870.88
435.0750, 15672.52
435.5572, 15460.96
436.0393, 15216.20
436.5214, 14939.67
437.0035, 14661.08
437.4856, 14396.10
437.9677, 14148.24
438.4499, 13925.59
438.9320, 13737.03
439.4141, 13562.52
439.8962, 13394.54
440.3783, 13230.95
440.8604, 13061.18
441.3426, 12854.22
441.8247, 12662.17
442.3068, 12522.20
442.7889, 12449.76
443.2710, 12374.15
443.7531, 12271.18
444.2353, 12157.77
444.7174, 12050.78
445.1995, 11944.79
445.6816, 11855.52
446.1637, 11786.84
446.6458, 11738.37
447.1280, 11702.99
447.6101, 11696.13
448.0922, 11685.24
448.5743, 11649.51
449.0564, 11571.91
449.5385, 11515.13
450.0207, 11487.41
450.5028, 11475.27
450.9849, 11450.64
451.4670, 11409.10
451.9491, 11379.20
452.4312, 11378.45
452.9134, 11401.50
453.3955, 11404.84
453.8776, 11386.77
454.3597, 11361.36
454.8418, 11337.11
455.3239, 11315.83
455.8061, 11307.09
456.2882, 11316.37
456.7703, 11333.71
457.2524, 11346.38
457.7345, 11355.07
458.2166, 11362.98
458.6988, 11370.74
459.1809, 11379.26
459.6630, 11391.00
460.1451, 11407.29
460.6272, 11419.40
461.1093, 11417.55
461.5915, 11409.59
462.0736, 11405.34
462.5557, 11410.43
463.0378, 11417.41
463.5199, 11421.53
464.0020, 11423.90
464.4842, 11433.46
464.9663, 11458.96
465.4484, 11486.97
465.9305, 11511.03
466.4126, 11534.04
466.8947, 11547.34
467.3769, 11540.62
467.8590, 11528.64
468.3411, 11538.26
468.8232, 11585.44
469.3053, 11622.24
469.7874, 11634.72
470.2696, 11624.06
470.7517, 11607.64
471.2338, 11580.18
471.7159, 11563.26
472.1980, 11584.75
472.6801, 11643.52
473.1623, 11685.06
473.6444, 11701.12
474.1265, 11698.56
474.6086, 11681.61
475.0907, 11652.96
475.5728, 11629.99
476.0550, 11624.60
476.5371, 11629.81
477.0192, 11635.11
477.5013, 11640.14
477.9834, 11645.84
478.4655, 11658.14
478.9477, 11669.94
479.4298, 11671.67
479.9119, 11656.43
480.3940, 11635.70
480.8761, 11614.57
481.3582, 11592.61
481.8404, 11568.79
482.3225, 11532.16
482.8046, 11502.38
483.2867, 11490.15
483.7688, 11501.97
484.2509, 11511.89
484.7331, 11520.27
485.2152, 11524.42
485.6973, 11521.73
486.1794, 11510.44
486.6615, 11494.54
487.1436, 11470.29
487.6258, 11441.55
488.1079, 11431.22
488.5900, 11449.53
489.0721, 11458.00
489.5542, 11422.87
490.0363, 11343.27
490.5185, 11310.27
491.0006, 11334.89
491.4827, 11378.00
491.9648, 11387.93
492.4470, 11370.33
492.9291, 11355.51
493.4112, 11354.40
493.8933, 11361.34
494.3754, 11370.74
494.8575, 11381.86
495.3397, 11389.44
495.8218, 11385.70
496.3039, 11378.82
496.7860, 11381.34
497.2681, 11400.61
497.7502, 11407.64
498.2324, 11364.87
498.7145, 11306.87
499.1966, 11279.88
499.6787, 11342.09
500.1608, 11392.79
500.6429, 11384.67
501.1251, 11323.06
501.6072, 11302.13
502.0893, 11371.16
502.5714, 11444.07
503.0535, 11479.07
503.5356, 11454.89
504.0178, 11443.69
504.4999, 11449.38
504.9820, 11464.67
505.4641, 11480.93
505.9462, 11499.83
506.4283, 11510.49
506.9105, 11507.11
507.3926, 11493.63
507.8747, 11484.08
508.3568, 11478.33
508.8389, 11478.65
509.3210, 11485.39
509.8032, 11499.46
510.2853, 11526.58
510.7674, 11570.62
511.2495, 11614.13
511.7316, 11639.15
512.2137, 11650.51
512.6959, 11657.73
513.1780, 11663.04
513.6601, 11667.19
514.1422, 11669.92
514.6243, 11671.58
515.1064, 11674.24
515.5886, 11667.42
516.0707, 11669.85
516.5528, 11696.11
517.0349, 11767.82
517.5170, 11822.32
517.9991, 11845.00
518.4813, 11850.32
518.9634, 11854.07
519.4455, 11846.48
519.9276, 11855.33
520.4097, 11895.10
520.8918, 11957.77
521.3740, 11991.90
521.8561, 11990.90
522.3382, 11983.15
522.8203, 11983.26
523.3024, 11991.42
523.7845, 12012.33
524.2667, 12047.91
524.7488, 12090.73
525.2309, 12141.88
525.7130, 12195.51
526.1951, 12229.39
526.6772, 12223.95
527.1594, 12206.96
527.6415, 12207.70
528.1236, 12224.50
528.6057, 12250.27
529.0878, 12288.38
529.5699, 12328.92
530.0521, 12362.81
530.5342, 12387.12
531.0163, 12414.38
531.4984, 12447.90
531.9805, 12487.00
532.4626, 12531.03
532.9448, 12601.51
533.4269, 12650.34
533.9090, 12660.98
534.3911, 12644.85
534.8732, 12646.66
535.3553, 12674.39
535.8375, 12705.37
536.3196, 12730.13
536.8017, 12748.82
537.2838, 12765.41
537.7659, 12780.13
538.2480, 12792.50
538.7302, 12801.46
539.2123, 12807.42
539.6944, 12811.17
540.1765, 12809.52
540.6586, 12811.89
541.1407, 12840.19
541.6229, 12886.23
542.1050, 12921.03
542.5871, 12925.17
543.0692, 12913.69
543.5513, 12892.59
544.0334, 12862.75
544.5156, 12846.53
544.9977, 12865.26
545.4798, 12895.71
545.9619, 12920.06
546.4440, 12939.43
546.9261, 12945.95
547.4083, 12919.40
547.8904, 12883.15
548.3725, 12882.07
548.8546, 12948.73
549.3367, 12995.45
549.8188, 12987.95
550.3010, 12934.36
550.7831, 12940.59
551.2652, 13025.47
551.7473, 13107.49
552.2294, 13117.17
552.7115, 13063.21
553.1937, 13030.33
553.6758, 13025.34
554.1579, 13041.08
554.6400, 13081.99
555.1221, 13137.98
555.6042, 13178.20
556.0864, 13173.73
556.5685, 13167.54
557.0506, 13207.19
557.5327, 13282.05
558.0148, 13352.17
558.4969, 13397.65
558.9791, 13432.89
559.4612, 13456.37
559.9433, 13457.79
560.4254, 13500.55
560.9075, 13644.84
561.3896, 13807.92
561.8718, 13918.21
562.3539, 13944.16
562.8360, 13970.35
563.3181, 14002.66
563.8002, 14038.70
564.2823, 14070.56
564.7645, 14094.19
565.2466, 14130.81
565.7287, 14191.32
566.2108, 14271.61
566.6929, 14352.83
567.1750, 14434.42
567.6572, 14514.68
568.1393, 14587.63
568.6214, 14657.69
569.1035, 14733.50
569.5856, 14819.88
570.0677, 14900.76
570.5499, 14956.67
571.0320, 15000.46
571.5141, 15052.90
571.9962, 15129.27
572.4783, 15208.04
572.9604, 15279.58
573.4426, 15345.07
573.9247, 15413.34
574.4068, 15493.12
574.8889, 15568.40
575.3710, 15630.18
575.8531, 15672.86
576.3353, 15729.19
576.8174, 15807.08
577.2995, 15886.06
577.7816, 15946.74
578.2637, 15987.40
578.7458, 16024.54
579.2280, 16060.67
579.7101, 16094.03
580.1922, 16118.08
580.6743, 16134.95
581.1564, 16156.65
581.6385, 16207.84
582.1207, 16256.85
582.6028, 16249.63
583.0849, 16193.42
583.5670, 16144.57
584.0491, 16142.43
584.5313, 16157.07
585.0134, 16170.12
585.4955, 16186.00
585.9776, 16176.38
586.4597, 16105.77
586.9418, 16017.62
587.4240, 15963.00
587.9061, 15974.40
588.3882, 15970.37
588.8703, 15940.88
589.3524, 15890.77
589.8345, 15828.81
590.3167, 15747.93
590.7988, 15682.64
591.2809, 15658.75
591.7630, 15664.85
592.2451, 15638.42
592.7272, 15578.23
593.2094, 15516.08
593.6915, 15479.13
594.1736, 15458.93
594.6557, 15441.48
595.1378, 15426.78
595.6199, 15406.50
596.1021, 15380.37
596.5842, 15343.20
597.0663, 15287.34
597.5485, 15166.05
598.0306, 15073.20
598.5127, 15061.66
598.9948, 15109.79
599.4769, 15122.29
599.9590, 15078.48
600.4412, 15016.77
600.9233, 14946.13
601.4054, 14865.32
601.8875, 14788.96
602.3696, 14715.97
602.8517, 14651.40
603.3339, 14601.70
603.8160, 14565.95
604.2981, 14542.68
604.7802, 14536.39
605.2623, 14526.78
605.7444, 14478.93
606.2266, 14405.93
606.7087, 14345.37
607.1908, 14316.87
607.6729, 14298.63
608.1550, 14278.89
608.6371, 14255.91
609.1193, 14223.47
609.6014, 14165.83
610.0835, 14109.61
610.5656, 14070.76
611.0477, 14053.16
611.5298, 14029.40
612.0120, 13997.17
612.4941, 13960.21
612.9762, 13919.43
613.4583, 13871.12
613.9404, 13833.08
614.4225, 13807.22
614.9047, 13790.10
615.3868, 13779.83
615.8689, 13775.51
616.3510, 13766.08
616.8331, 13747.13
617.3152, 13723.06
617.7974, 13701.93
618.2795, 13681.99
618.7616, 13655.40
619.2437, 13603.84
619.7258, 13554.58
620.2079, 13533.13
620.6901, 13540.54
621.1722, 13541.09
621.6543, 13518.75
622.1364, 13487.97
622.6185, 13457.06
623.1006, 13421.27
623.5828, 13396.76
624.0649, 13385.47
624.5470, 13383.67
625.0291, 13388.68
625.5112, 13402.21
625.9933, 13414.08
626.4755, 13423.80
626.9576, 13428.96
627.4397, 13419.94
627.9218, 13399.01
628.4039, 13383.44
628.8860, 13387.70
629.3682, 13399.08
629.8503, 13393.00
630.3324, 13373.54
630.8145, 13371.87
631.2966, 13430.62
631.7787, 13496.62
632.2609, 13530.98
632.7430, 13522.25
633.2251, 13507.39
633.7072, 13481.58
634.1893, 13459.87
634.6714, 13455.98
635.1536, 13481.62
635.6357, 13499.01
636.1178, 13503.46
636.5999, 13500.36
637.0820, 13495.45
637.5641, 13488.21
638.0463, 13495.42
638.5284, 13532.60
639.0105, 13578.82
639.4926, 13589.28
639.9747, 13568.81
640.4568, 13545.39
640.9390, 13531.13
641.4211, 13524.76
641.9032, 13526.08
642.3853, 13535.00
642.8674, 13547.59
