##NAMES=Paravauxite
##RRUFFID=R050314
##IDEAL CHEMISTRY=Fe^2+^Al_2_(PO_4_)_2_(OH)_2_&#183;8H_2_O
##LOCALITY=Siglo XX mine, Llallagua, Bolivia
##OWNER=RRUFF
##SOURCE=Eugene Schlepp
##DESCRIPTION=Pale green prismatic crystals
##STATUS=The identification of this mineral has been confirmed by X-ray diffraction and chemical analysis
##URL=rruff.info/R050314
##MEASURED CHEMISTRY=(Fe^2+^_0.93_Mg_0.07_)_Σ=1_Al_2.00_(P_1.00_O_4_)_2_(OH)_2_·8H_2_O
125.7895, 312.8278
126.2716, 316.9700
126.7537, 321.5275
127.2358, 325.7985
127.7179, 329.8043
128.2001, 333.4084
128.6822, 336.4326
129.1643, 338.6752
129.6464, 340.2132
130.1285, 341.9026
130.6106, 344.5470
131.0928, 346.5783
131.5749, 347.6159
132.0570, 347.7144
132.5391, 347.1073
133.0212, 346.0067
133.5033, 344.4273
133.9855, 341.9797
134.4676, 338.3797
134.9497, 334.3540
135.4318, 330.2631
135.9139, 326.1664
136.3960, 321.9186
136.8782, 317.3195
137.3603, 312.2548
137.8424, 307.4490
138.3245, 303.2192
138.8066, 299.1727
139.2887, 294.8221
139.7709, 290.0186
140.2530, 285.1541
140.7351, 280.6692
141.2172, 276.5379
141.6993, 272.6980
142.1814, 269.2827
142.6636, 266.2047
143.1457, 263.1040
143.6278, 259.8922
144.1099, 256.6852
144.5920, 253.5056
145.0741, 250.3721
145.5563, 247.3616
146.0384, 244.5091
146.5205, 241.8075
147.0026, 239.3744
147.4847, 237.4238
147.9668, 235.6318
148.4490, 233.8152
148.9311, 231.9478
149.4132, 230.1332
149.8953, 228.5485
150.3774, 227.2874
150.8595, 226.0672
151.3417, 224.8994
151.8238, 223.7384
152.3059, 222.4807
152.7880, 221.1079
153.2701, 219.7523
153.7522, 218.7735
154.2344, 218.6221
154.7165, 218.3776
155.1986, 217.9631
155.6807, 217.4492
156.1628, 216.9167
156.6449, 216.4041
157.1271, 215.9133
157.6092, 215.4581
158.0913, 214.7473
158.5734, 214.3677
159.0555, 214.7383
159.5376, 215.6106
160.0198, 216.2986
160.5019, 216.3339
160.9840, 215.9519
161.4661, 216.0364
161.9482, 216.8060
162.4303, 217.7812
162.9125, 218.6908
163.3946, 219.5360
163.8767, 220.3308
164.3588, 220.9323
164.8409, 221.5373
165.3230, 222.4926
165.8052, 223.9727
166.2873, 225.7181
166.7694, 227.3965
167.2515, 229.0122
167.7336, 230.5655
168.2157, 232.1293
168.6979, 233.6239
169.1800, 234.9311
169.6621, 235.9447
170.1442, 236.7802
170.6263, 237.7364
171.1084, 238.7053
171.5906, 240.0148
172.0727, 242.1332
172.5548, 244.5365
173.0369, 246.4798
173.5190, 247.4525
174.0011, 247.5755
174.4833, 247.8721
174.9654, 248.6883
175.4475, 249.3362
175.9296, 249.7537
176.4117, 249.8921
176.8938, 249.7383
177.3760, 249.3132
177.8581, 248.6290
178.3402, 247.1284
178.8223, 244.3065
179.3044, 241.2782
179.7865, 238.2160
180.2687, 235.2467
180.7508, 232.5812
181.2329, 230.4268
181.7150, 228.8259
182.1971, 227.3873
182.6792, 225.8803
183.1614, 224.6897
183.6435, 224.1479
184.1256, 224.2253
184.6077, 224.5125
185.0898, 224.6473
185.5719, 224.6233
186.0540, 224.7853
186.5362, 225.1115
187.0183, 225.6427
187.5004, 226.4128
187.9825, 227.4265
188.4646, 228.6678
188.9467, 230.2744
189.4289, 232.1455
189.9110, 233.9102
190.3931, 235.2010
190.8752, 236.4198
191.3573, 238.2784
191.8394, 240.9908
192.3216, 243.8946
192.8037, 246.3996
193.2858, 248.6761
193.7679, 251.1463
194.2500, 254.2655
194.7321, 257.7464
195.2143, 260.6440
195.6964, 262.5657
196.1785, 264.4556
196.6606, 266.9467
197.1427, 269.8160
197.6248, 272.5733
198.1070, 275.1393
198.5891, 277.4341
199.0712, 278.5510
199.5533, 277.0422
200.0354, 275.9135
200.5175, 276.4679
200.9997, 278.3022
201.4818, 280.4193
201.9639, 282.0390
202.4460, 283.1452
202.9281, 284.4176
203.4102, 286.1855
203.8924, 287.8162
204.3745, 289.0136
204.8566, 289.8944
205.3387, 290.7530
205.8208, 291.8537
206.3029, 293.2340
206.7851, 294.5630
207.2672, 296.0503
207.7493, 297.3098
208.2314, 298.1855
208.7135, 298.6806
209.1956, 298.8404
209.6778, 298.6577
210.1599, 298.0533
210.6420, 297.7437
211.1241, 298.1013
211.6062, 298.3711
212.0883, 298.1370
212.5705, 297.4171
213.0526, 296.5115
213.5347, 295.7075
214.0168, 295.0320
214.4989, 293.9280
214.9810, 292.2619
215.4632, 290.3147
215.9453, 288.2161
216.4274, 285.9864
216.9095, 283.6311
217.3916, 280.9800
217.8737, 278.0839
218.3559, 276.1088
218.8380, 275.9706
219.3201, 276.1685
219.8022, 275.2279
220.2843, 273.0414
220.7664, 270.8863
221.2486, 269.8291
221.7307, 269.6895
222.2128, 269.6737
222.6949, 269.6676
223.1770, 269.7390
223.6591, 269.8394
224.1413, 269.9044
224.6234, 270.4294
225.1055, 272.1121
225.5876, 274.4981
226.0697, 276.7995
226.5518, 278.4304
227.0340, 280.0522
227.5161, 282.7426
227.9982, 286.7296
228.4803, 291.0054
228.9624, 295.1320
229.4445, 299.1235
229.9267, 303.0087
230.4088, 306.6573
230.8909, 310.2777
231.3730, 314.4404
231.8551, 319.6561
232.3372, 324.0598
232.8194, 326.8130
233.3015, 328.4669
233.7836, 329.6154
234.2657, 330.5389
234.7478, 331.0421
235.2299, 330.6903
235.7121, 329.4287
236.1942, 327.3057
236.6763, 324.3705
237.1584, 320.7457
237.6405, 316.5001
238.1227, 311.6262
238.6048, 306.1984
239.0869, 300.3591
239.5690, 293.7113
240.0511, 287.3075
240.5332, 281.4398
241.0154, 275.8355
241.4975, 270.2422
241.9796, 264.5471
242.4617, 258.9246
242.9438, 253.9037
243.4259, 249.7728
243.9081, 245.8246
244.3902, 241.8421
244.8723, 238.0530
245.3544, 234.7052
245.8365, 231.8760
246.3186, 229.4483
246.8007, 227.1183
247.2829, 224.7954
247.7650, 222.7530
248.2471, 220.9724
248.7292, 219.4644
249.2113, 218.3477
249.6934, 217.6371
250.1756, 217.0765
250.6577, 216.1439
251.1398, 214.2329
251.6219, 212.8500
252.1040, 212.3456
252.5861, 212.1633
253.0683, 211.7354
253.5504, 210.9205
254.0325, 210.0997
254.5146, 209.9228
254.9967, 210.9300
255.4788, 211.6227
255.9610, 211.5828
256.4431, 211.4692
256.9252, 211.8570
257.4073, 212.8813
257.8894, 214.2964
258.3716, 215.7913
258.8537, 217.3833
259.3358, 219.0408
259.8179, 220.7927
260.3000, 222.5998
260.7821, 224.3966
261.2643, 226.1835
261.7464, 228.0739
262.2285, 230.2379
262.7106, 232.7787
263.1927, 235.1346
263.6748, 237.0008
264.1570, 238.8598
264.6391, 241.1467
265.1212, 243.8939
265.6033, 246.7862
266.0854, 249.5337
266.5675, 252.1175
267.0497, 254.6535
267.5318, 257.0370
268.0139, 259.4343
268.4960, 261.8830
268.9781, 264.4008
269.4602, 267.2385
269.9424, 270.7029
270.4245, 274.7084
270.9066, 278.4830
271.3887, 281.5633
271.8708, 284.7612
272.3529, 288.8413
272.8351, 293.7466
273.3172, 298.6202
273.7993, 303.0062
274.2814, 306.9542
274.7635, 310.7856
275.2456, 314.2887
275.7278, 317.8965
276.2099, 321.9140
276.6920, 326.3171
277.1741, 331.0030
277.6562, 336.3098
278.1383, 341.5556
278.6204, 345.4848
279.1025, 347.8508
279.5847, 349.5195
280.0668, 351.1594
280.5489, 352.6666
281.0310, 353.4636
281.5131, 353.6463
281.9952, 352.5637
282.4774, 349.6765
282.9595, 344.9172
283.4416, 338.9041
283.9237, 331.4966
284.4058, 323.0089
284.8879, 314.6838
285.3701, 306.9294
285.8522, 299.3256
286.3343, 291.2834
286.8164, 282.8349
287.2985, 274.6992
287.7806, 267.1260
288.2628, 260.1364
288.7449, 253.8830
289.2270, 248.4120
289.7091, 243.6516
290.1912, 239.5912
290.6733, 236.1227
291.1555, 232.8093
291.6376, 229.4472
292.1197, 226.1224
292.6018, 222.9539
293.0839, 219.9090
293.5660, 217.1743
294.0482, 215.0714
294.5303, 213.3398
295.0124, 211.4821
295.4945, 209.2572
295.9766, 206.8399
296.4587, 204.5701
296.9409, 202.5097
297.4230, 200.3786
297.9051, 197.8131
298.3872, 195.1376
298.8693, 192.7879
299.3514, 191.0323
299.8336, 189.3943
300.3157, 187.0577
300.7978, 183.8206
301.2799, 181.0340
301.7620, 179.7054
302.2441, 178.8144
302.7263, 177.3901
303.2084, 175.1769
303.6905, 172.9094
304.1726, 171.4721
304.6547, 170.9156
305.1368, 170.0109
305.6190, 167.9945
306.1011, 165.9032
306.5832, 164.6239
307.0653, 164.1925
307.5474, 163.8741
308.0295, 163.0452
308.5117, 161.7562
308.9938, 160.5916
309.4759, 159.7062
309.9580, 158.8718
310.4401, 157.9402
310.9222, 156.9288
311.4044, 155.9092
311.8865, 154.8392
312.3686, 153.7818
312.8507, 153.0422
313.3328, 152.8228
313.8149, 152.5807
314.2971, 151.9213
314.7792, 151.0413
315.2613, 150.3099
315.7434, 149.9671
316.2255, 149.8246
316.7076, 149.4611
317.1898, 148.7988
317.6719, 148.1177
318.1540, 147.6246
318.6361, 147.1470
319.1182, 146.4657
319.6003, 145.4692
320.0825, 144.3705
320.5646, 143.4233
321.0467, 142.6271
321.5288, 141.9928
322.0109, 141.7821
322.4930, 141.5771
322.9752, 141.0338
323.4573, 140.0973
323.9394, 138.9925
324.4215, 137.8201
324.9036, 136.5921
325.3857, 135.6067
325.8679, 134.8783
326.3500, 134.4936
326.8321, 134.5637
327.3142, 135.0368
327.7963, 135.6142
328.2784, 136.2863
328.7606, 136.9511
329.2427, 137.0547
329.7248, 136.2901
330.2069, 135.4314
330.6890, 134.9179
331.1711, 134.6638
331.6533, 134.4991
332.1354, 134.3620
332.6175, 134.2588
333.0996, 134.1876
333.5817, 134.1257
334.0638, 134.1694
334.5460, 134.5719
335.0281, 135.0369
335.5102, 135.1958
335.9923, 134.8908
336.4744, 134.4024
336.9565, 133.9797
337.4387, 133.6155
337.9208, 133.4781
338.4029, 133.8023
338.8850, 134.2594
339.3671, 134.5328
339.8492, 134.5923
340.3314, 134.5680
340.8135, 134.5344
341.2956, 134.4931
341.7777, 134.4507
342.2598, 134.3849
342.7419, 134.3548
343.2241, 134.4322
343.7062, 134.5957
344.1883, 134.7347
344.6704, 134.8086
345.1525, 134.8200
345.6346, 134.7522
346.1168, 134.5753
346.5989, 134.4140
347.0810, 134.3586
347.5631, 134.3818
348.0452, 134.4597
348.5273, 134.6830
349.0095, 134.8716
349.4916, 134.7251
349.9737, 134.2335
350.4558, 133.8993
350.9379, 133.9537
351.4200, 134.3276
351.9022, 134.8841
352.3843, 135.6617
352.8664, 136.4959
353.3485, 137.4290
353.8306, 138.3654
354.3127, 138.8549
354.7949, 138.6034
355.2770, 138.1456
355.7591, 138.1876
356.2412, 138.7107
356.7233, 139.2442
357.2054, 139.6229
357.6876, 139.9067
358.1697, 140.1346
358.6518, 140.2848
359.1339, 140.5785
359.6160, 141.3633
360.0981, 142.5116
360.5803, 143.2995
361.0624, 143.3327
361.5445, 143.2038
362.0266, 143.3388
362.5087, 143.7378
362.9908, 144.3376
363.4730, 145.1819
363.9551, 146.1587
364.4372, 146.9330
364.9193, 147.4050
365.4014, 147.8564
365.8835, 148.3547
366.3657, 148.9147
366.8478, 149.5588
367.3299, 150.2839
367.8120, 151.1327
368.2941, 152.2839
368.7762, 153.9087
369.2584, 155.0682
369.7405, 155.2564
370.2226, 155.1370
370.7047, 155.3199
371.1868, 155.8904
371.6689, 156.6597
372.1511, 157.5117
372.6332, 158.4509
373.1153, 159.1760
373.5974, 159.5945
374.0795, 159.9221
374.5616, 160.2097
375.0438, 160.4889
375.5259, 160.8133
376.0080, 161.2045
376.4901, 161.6734
376.9722, 162.2644
377.4543, 163.3923
377.9365, 164.1070
378.4186, 164.0045
378.9007, 163.5784
379.3828, 163.3886
379.8649, 163.5829
380.3470, 163.8901
380.8292, 163.9140
381.3113, 163.4810
381.7934, 163.2871
382.2755, 163.3963
382.7576, 163.6528
383.2397, 163.9454
383.7219, 164.2984
384.2040, 164.8493
384.6861, 165.7454
385.1682, 166.9482
385.6503, 167.7994
386.1324, 167.9953
386.6146, 168.1540
387.0967, 168.3384
387.5788, 168.5549
388.0609, 168.7511
388.5430, 168.9067
389.0251, 169.1565
389.5073, 169.7840
389.9894, 170.8970
390.4715, 172.1938
390.9536, 173.8938
391.4357, 175.5589
391.9178, 176.8064
392.4000, 177.6741
392.8821, 178.5883
393.3642, 179.9982
393.8463, 181.9237
394.3284, 183.7319
394.8105, 185.1796
395.2927, 186.8183
395.7748, 188.8647
396.2569, 191.2097
396.7390, 193.6731
397.2211, 196.1547
397.7032, 198.7280
398.1854, 201.5952
398.6675, 204.9136
399.1496, 208.0820
399.6317, 210.7409
400.1138, 213.3243
400.5959, 216.1681
401.0780, 219.3222
401.5602, 222.5721
402.0423, 225.8445
402.5244, 229.0971
403.0065, 231.8668
403.4886, 233.8072
403.9707, 235.6571
404.4529, 238.0098
404.9350, 240.6964
405.4171, 243.2707
405.8992, 245.6502
406.3813, 247.7383
406.8634, 249.2288
407.3456, 250.0374
407.8277, 251.0312
408.3098, 252.5614
408.7919, 254.6270
409.2740, 257.1768
409.7561, 260.3145
410.2383, 263.6771
410.7204, 266.9030
411.2025, 270.1892
411.6846, 274.1532
412.1667, 279.0095
412.6488, 284.4747
413.1310, 290.3432
413.6131, 296.6223
414.0952, 302.9873
414.5773, 309.2404
415.0594, 315.6596
415.5415, 322.3146
416.0237, 329.2697
416.5058, 336.9242
416.9879, 345.6718
417.4700, 355.2997
417.9521, 364.6481
418.4342, 373.1921
418.9164, 382.1182
419.3985, 391.5944
419.8806, 401.7114
420.3627, 412.7226
420.8448, 424.7292
421.3269, 437.1051
421.8091, 448.8707
422.2912, 459.4055
422.7733, 471.0583
423.2554, 484.3061
423.7375, 498.1074
424.2196, 511.6367
424.7018, 525.0370
425.1839, 539.0917
425.6660, 554.4928
426.1481, 570.8564
426.6302, 586.0422
427.1123, 599.4269
427.5945, 612.1205
428.0766, 624.7836
428.5587, 636.5377
429.0408, 646.7798
429.5229, 655.2439
430.0050, 661.8705
430.4872, 666.6630
430.9693, 669.7357
431.4514, 670.4459
431.9335, 669.3683
432.4156, 665.1183
432.8977, 656.7457
433.3799, 644.6253
433.8620, 629.4946
434.3441, 611.3459
434.8262, 590.9866
435.3083, 570.8610
435.7904, 551.3937
436.2726, 531.1538
436.7547, 508.3870
437.2368, 485.1337
437.7189, 463.2714
438.2010, 443.1696
438.6831, 423.9561
439.1653, 404.7132
439.6474, 385.6784
440.1295, 367.9239
440.6116, 351.7699
441.0937, 336.7486
441.5758, 322.4746
442.0580, 308.9946
442.5401, 296.7143
443.0222, 286.1668
443.5043, 276.6476
443.9864, 267.4214
444.4685, 258.5403
444.9507, 250.1900
445.4328, 242.4683
445.9149, 235.3387
446.3970, 228.7495
446.8791, 222.6765
447.3612, 217.0805
447.8434, 211.9994
448.3255, 207.3684
448.8076, 203.1126
449.2897, 199.1999
449.7718, 195.6686
450.2539, 192.6171
450.7361, 190.0672
451.2182, 187.3194
451.7003, 184.0573
452.1824, 180.9739
452.6645, 178.3843
453.1466, 176.1154
453.6288, 173.8447
454.1109, 171.4236
454.5930, 169.0608
455.0751, 167.1954
455.5572, 166.2742
456.0393, 164.9751
456.5215, 162.8785
457.0036, 160.8239
457.4857, 159.3546
457.9678, 158.4005
458.4499, 157.5113
458.9320, 156.3134
459.4142, 154.9032
459.8963, 153.8467
460.3784, 153.2783
460.8605, 152.8454
461.3426, 152.5807
461.8247, 152.3158
462.3069, 151.8617
462.7890, 151.1722
463.2711, 150.4087
463.7532, 149.6971
464.2353, 149.0392
464.7174, 148.5858
465.1996, 148.6207
465.6817, 148.4256
466.1638, 147.2266
466.6459, 145.4100
467.1280, 143.9574
467.6101, 143.4283
468.0923, 143.1926
468.5744, 142.5276
469.0565, 141.4792
469.5386, 140.6063
470.0207, 140.2289
470.5028, 140.0077
470.9850, 139.2617
471.4671, 137.8663
471.9492, 136.7327
472.4313, 136.3460
472.9134, 136.1804
473.3955, 135.6180
473.8777, 134.6377
474.3598, 133.6602
474.8419, 133.0025
475.3240, 132.6390
475.8061, 132.3307
476.2882, 132.2595
476.7704, 132.0149
477.2525, 131.4042
477.7346, 130.6248
478.2167, 129.8935
478.6988, 129.2733
479.1809, 128.7294
479.6631, 128.1978
480.1452, 127.6529
480.6273, 127.2710
481.1094, 127.4367
481.5915, 127.3691
482.0736, 126.6115
482.5558, 125.4767
483.0379, 124.5221
483.5200, 124.0225
484.0021, 123.7704
484.4842, 123.3808
484.9663, 122.8289
485.4485, 122.2383
485.9306, 121.4704
486.4127, 120.8166
486.8948, 120.5767
487.3769, 120.6760
487.8590, 120.6793
488.3412, 120.2290
488.8233, 119.5518
489.3054, 119.0891
489.7875, 118.8609
490.2696, 118.7270
490.7517, 118.7645
491.2339, 118.7625
491.7160, 118.2561
492.1981, 116.9766
492.6802, 115.9882
493.1623, 116.0739
493.6444, 116.6100
494.1266, 116.5834
494.6087, 115.8344
495.0908, 115.0222
495.5729, 114.7395
496.0550, 114.9819
496.5371, 115.0960
497.0193, 115.0023
497.5014, 114.8944
497.9835, 114.8404
498.4656, 114.8048
498.9477, 114.7235
499.4298, 114.5784
499.9120, 114.4238
500.3941, 114.3557
500.8762, 114.4293
501.3583, 114.3635
501.8404, 114.0558
502.3225, 113.7122
502.8047, 113.3291
503.2868, 112.9749
503.7689, 112.7785
504.2510, 112.8159
504.7331, 112.9764
505.2152, 113.0498
505.6974, 113.0149
506.1795, 113.0348
506.6616, 113.2601
507.1437, 113.4331
507.6258, 113.2915
508.1079, 112.8975
508.5901, 112.6050
509.0722, 112.6199
509.5543, 112.8186
510.0364, 113.0885
510.5185, 113.4242
511.0006, 113.6040
511.4828, 113.4532
511.9649, 113.1458
512.4470, 113.0665
512.9291, 113.2783
513.4112, 113.4540
513.8933, 113.4719
514.3754, 113.4357
514.8575, 113.4377
515.3397, 113.4921
515.8218, 113.5925
516.3039, 113.7374
516.7860, 113.9228
517.2681, 114.1178
517.7502, 114.4246
518.2324, 114.6084
518.7145, 114.4675
519.1966, 114.3032
519.6787, 114.4195
520.1608, 114.8518
520.6429, 115.4036
521.1251, 115.8967
521.6072, 116.3338
522.0893, 116.7226
522.5714, 117.0660
523.0535, 117.3535
523.5356, 117.6371
524.0178, 117.8473
524.4999, 117.8365
524.9820, 117.5412
525.4641, 117.3096
525.9462, 117.4686
526.4283, 117.9654
526.9105, 118.6688
527.3926, 119.7073
527.8747, 120.4915
528.3568, 120.2502
528.8389, 119.3504
529.3210, 119.0762
529.8032, 120.0948
530.2853, 121.1479
530.7674, 121.5227
531.2495, 121.4517
531.7316, 121.3465
532.2137, 121.3248
532.6959, 121.3923
533.1780, 121.5644
533.6601, 121.8598
534.1422, 122.1464
534.6243, 122.4749
535.1064, 122.7430
535.5886, 122.8149
536.0707, 122.8288
536.5528, 123.0777
537.0349, 123.6639
537.5170, 124.2459
537.9991, 124.1242
538.4813, 123.0406
538.9634, 122.6072
539.4455, 123.5068
539.9276, 124.4008
540.4097, 124.5585
540.8918, 124.2768
541.3740, 124.2044
541.8561, 124.6804
542.3382, 125.2803
542.8203, 125.3296
543.3024, 124.9217
543.7845, 125.0710
544.2667, 126.2921
544.7488, 127.6123
545.2309, 127.6442
545.7130, 126.5761
546.1951, 126.3009
546.6772, 127.9642
547.1594, 129.7009
547.6415, 130.2525
548.1236, 129.9052
548.6057, 129.3867
549.0878, 128.9752
549.5699, 128.7380
550.0521, 128.7973
550.5342, 129.2167
551.0163, 129.7575
551.4984, 130.5008
551.9805, 131.2590
552.4626, 131.8910
552.9448, 132.4920
553.4269, 133.3044
553.9090, 134.4622
554.3911, 135.6822
554.8732, 136.3684
555.3553, 136.3970
555.8375, 136.7603
556.3196, 137.6794
556.8017, 138.8707
557.2838, 140.1708
557.7659, 141.5768
558.2480, 143.0838
558.7302, 144.7768
559.2123, 146.4599
559.6944, 147.8255
560.1765, 148.9706
560.6586, 150.3434
561.1407, 152.1153
561.6229, 154.0534
562.1050, 155.9326
562.5871, 157.7587
563.0692, 159.3428
563.5513, 160.2612
564.0334, 161.3559
564.5156, 163.2593
564.9977, 165.5937
565.4798, 167.6040
565.9619, 168.9915
566.4440, 170.2002
566.9261, 171.9796
567.4083, 174.5253
567.8904, 176.8469
568.3725, 178.9906
568.8546, 180.8346
569.3367, 182.1356
569.8188, 183.1579
570.3010, 184.3080
570.7831, 185.7529
571.2652, 187.3346
571.7473, 188.8725
572.2294, 190.3784
572.7115, 192.0498
573.1937, 194.0129
573.6758, 195.8802
574.1579, 197.0779
574.6400, 197.8687
575.1221, 199.3055
575.6042, 202.1707
576.0864, 204.9232
576.5685, 206.4844
577.0506, 207.5070
577.5327, 209.1361
578.0148, 211.6382
578.4969, 214.4117
578.9791, 216.8370
579.4612, 218.9064
579.9433, 220.8305
580.4254, 222.5498
580.9075, 224.1876
581.3896, 225.7954
581.8718, 227.3331
582.3539, 228.7837
582.8360, 230.1365
583.3181, 231.3040
583.8002, 232.1775
584.2823, 232.7823
584.7645, 233.2254
585.2466, 233.3663
585.7287, 233.7641
586.2108, 234.9745
586.6929, 236.4787
587.1750, 237.4694
587.6572, 237.7689
588.1393, 238.0875
588.6214, 238.9098
589.1035, 239.8541
589.5856, 240.3771
590.0677, 240.4578
590.5499, 240.3931
591.0320, 240.3256
591.5141, 240.3319
591.9962, 240.7094
592.4783, 242.3160
592.9604, 243.0571
593.4426, 242.3026
593.9247, 241.1950
594.4068, 240.4443
594.8889, 240.0731
595.3710, 239.8095
595.8531, 239.5024
596.3353, 239.1512
596.8174, 238.7400
597.2995, 238.2636
597.7816, 237.7841
598.2637, 237.4284
598.7458, 236.9438
599.2280, 236.0723
599.7101, 234.8747
600.1922, 233.6738
600.6743, 232.4966
601.1564, 231.4196
601.6385, 230.6331
602.1207, 230.0027
602.6028, 229.0942
603.0849, 227.7547
603.5670, 226.2499
604.0491, 224.9637
604.5313, 224.0069
605.0134, 222.5548
605.4955, 220.1188
605.9776, 217.8125
606.4597, 216.0790
606.9418, 214.6341
607.4240, 213.1753
607.9061, 211.5981
608.3882, 209.8658
608.8703, 207.9154
609.3524, 205.7645
609.8345, 203.5664
610.3167, 201.2989
610.7988, 199.0577
611.2809, 196.8301
611.7630, 194.6927
612.2451, 192.8565
612.7272, 191.4922
613.2094, 189.7254
613.6915, 186.6899
614.1736, 183.2884
614.6557, 180.8775
615.1378, 179.3748
615.6199, 177.5161
616.1021, 174.4517
616.5842, 170.7471
617.0663, 168.0947
617.5484, 167.5578
618.0305, 166.2346
618.5126, 163.6066
618.9948, 160.7499
619.4769, 158.1096
619.9590, 155.7552
620.4411, 153.7663
620.9232, 152.2320
621.4053, 150.8344
