##NAMES=Pararealgar
##RRUFFID=R150123
##IDEAL CHEMISTRY=AsS
##LOCALITY=U.S. Borax mine, Kramer Borate deposit, Boron, California, USA
##OWNER=RRUFF
##SOURCE=Michael Scott S106210
##DESCRIPTION=Yellowish-orange granular, within a rind of realgar
##STATUS=The identification of this mineral has been confirmed by single-crystal X-ray diffraction.
##URL=rruff.info/R150123
105.8049, 6566.344
107.7334, 6722.987
109.6619, 6877.298
111.5903, 7046.292
113.5188, 7261.289
115.4473, 7518.602
117.3757, 7742.600
119.3042, 7956.142
121.2327, 8089.247
123.1611, 8083.066
125.0896, 8005.345
127.0181, 7924.272
128.9465, 7837.937
130.8750, 7784.970
132.8035, 7758.828
134.7319, 7777.380
136.6604, 7854.233
138.5889, 7972.905
140.5173, 8132.345
142.4458, 8329.209
144.3743, 8476.652
146.3027, 8529.950
148.2312, 8586.065
150.1597, 8660.587
152.0881, 8741.665
154.0166, 8841.386
155.9451, 8950.570
157.8735, 8979.459
159.8020, 8859.752
161.7305, 8753.529
163.6589, 8634.888
165.5874, 8569.366
167.5159, 8599.217
169.4443, 8710.725
171.3728, 8867.390
173.3013, 9136.680
175.2297, 9324.770
177.1582, 9410.084
179.0867, 9437.485
181.0151, 9384.314
182.9436, 9306.510
184.8721, 9300.867
186.8005, 9383.219
188.7290, 9494.326
190.6575, 9642.265
192.5859, 9803.590
194.5144, 9983.524
196.4429, 10162.65
198.3713, 10330.14
200.2998, 10485.69
202.2283, 10596.64
204.1567, 10683.69
206.0852, 10675.38
208.0137, 10485.18
209.9421, 10262.63
211.8706, 10063.56
213.7991, 9907.880
215.7275, 9876.561
217.6560, 9968.911
219.5845, 10152.83
221.5129, 10424.51
223.4414, 10795.04
225.3699, 11263.46
227.2983, 11821.27
229.2268, 12548.09
231.1553, 13433.80
233.0837, 14017.54
235.0122, 14310.65
236.9407, 14222.04
238.8691, 13572.65
240.7976, 12674.42
242.7261, 11592.05
244.6545, 10413.90
246.5830, 9407.729
248.5115, 8565.420
250.4399, 7874.727
252.3684, 7357.534
254.2969, 6965.693
256.2253, 6706.664
258.1538, 6539.857
260.0823, 6431.066
262.0107, 6377.159
263.9392, 6363.062
265.8677, 6390.232
267.7961, 6450.481
269.7246, 6553.502
271.6531, 6673.932
273.5815, 6837.735
275.5100, 6993.824
277.4385, 7055.297
279.3669, 7028.833
281.2954, 6958.664
283.2239, 6812.366
285.1523, 6695.173
287.0808, 6630.806
289.0093, 6598.087
290.9377, 6579.665
292.8662, 6584.641
294.7947, 6627.494
296.7231, 6708.984
298.6516, 6823.225
300.5801, 6971.102
302.5085, 7151.052
304.4370, 7374.198
306.3655, 7620.357
308.2939, 7872.829
310.2224, 8135.659
312.1509, 8422.729
314.0793, 8740.950
316.0078, 9055.928
317.9363, 9383.004
319.8647, 9682.129
321.7932, 9921.471
323.7217, 10146.12
325.6501, 10366.08
327.5786, 10602.62
329.5071, 10935.69
331.4355, 11420.87
333.3640, 11859.43
335.2925, 12285.61
337.2209, 12620.33
339.1494, 12823.09
341.0779, 12938.49
343.0063, 13020.31
344.9348, 13048.92
346.8633, 12962.62
348.7917, 12767.42
350.7202, 12407.44
352.6487, 11808.22
354.5771, 11194.31
356.5056, 10579.62
358.4341, 10034.21
360.3625, 9607.221
362.2910, 9276.397
364.2195, 8999.842
366.1479, 8789.471
368.0764, 8567.468
370.0049, 8332.311
371.9333, 8089.108
373.8618, 7831.681
375.7903, 7575.353
377.7188, 7318.843
379.6472, 7074.009
381.5757, 6859.776
383.5042, 6677.208
385.4326, 6519.755
387.3611, 6390.725
389.2896, 6268.673
391.2180, 6147.461
393.1465, 6036.581
395.0750, 5939.523
397.0034, 5854.201
398.9319, 5779.357
400.8604, 5714.761
402.7888, 5659.144
404.7173, 5611.785
406.6458, 5575.081
408.5742, 5552.479
410.5027, 5531.624
412.4312, 5506.781
414.3596, 5483.800
416.2881, 5466.048
418.2166, 5452.563
420.1450, 5443.578
422.0735, 5438.146
424.0020, 5428.618
425.9304, 5413.608
427.8589, 5401.581
429.7874, 5395.404
431.7158, 5391.351
433.6443, 5392.693
435.5728, 5391.511
437.5012, 5377.403
439.4297, 5356.719
441.3582, 5344.636
443.2866, 5340.275
445.2151, 5332.386
447.1436, 5317.148
449.0720, 5306.034
451.0005, 5305.419
452.9290, 5303.267
454.8574, 5291.513
456.7859, 5279.057
458.7144, 5276.213
460.6428, 5278.981
462.5713, 5281.184
464.4998, 5282.854
466.4282, 5274.590
468.3567, 5246.074
470.2852, 5226.066
472.2136, 5224.446
474.1421, 5222.583
476.0706, 5210.934
477.9990, 5197.101
479.9275, 5187.173
481.8560, 5180.331
483.7844, 5176.577
485.7129, 5176.326
487.6414, 5170.667
489.5698, 5153.748
491.4983, 5140.137
493.4268, 5135.361
495.3552, 5127.231
497.2837, 5106.450
499.2122, 5086.633
501.1406, 5081.179
503.0691, 5082.110
504.9976, 5074.409
506.9260, 5058.122
508.8545, 5045.843
510.7830, 5038.832
512.7114, 5031.991
514.6399, 5024.515
516.5684, 5017.997
518.4968, 5013.554
520.4253, 5009.151
522.3538, 5005.128
524.2822, 4999.596
526.2107, 4990.097
528.1392, 4977.502
530.0676, 4963.911
531.9961, 4948.948
533.9246, 4938.296
535.8530, 4933.013
537.7815, 4927.984
539.7100, 4921.655
541.6384, 4916.496
543.5669, 4916.727
545.4954, 4914.789
547.4238, 4902.263
549.3523, 4886.925
551.2808, 4881.744
553.2092, 4884.552
555.1377, 4882.908
557.0662, 4876.865
558.9946, 4872.039
560.9231, 4869.751
562.8516, 4864.463
564.7800, 4853.499
566.7085, 4841.505
568.6370, 4829.235
570.5654, 4817.539
572.4939, 4807.007
574.4224, 4797.265
576.3508, 4787.486
578.2793, 4778.056
580.2078, 4771.533
582.1362, 4767.496
584.0647, 4757.914
585.9932, 4740.118
587.9216, 4727.287
589.8501, 4727.218
591.7786, 4723.815
593.7070, 4708.703
595.6355, 4695.027
597.5640, 4692.986
599.4924, 4693.375
601.4209, 4685.089
603.3494, 4672.638
605.2778, 4664.646
607.2063, 4660.540
609.1348, 4658.700
611.0632, 4659.806
612.9917, 4654.442
614.9202, 4636.036
616.8486, 4621.993
618.7771, 4616.291
620.7056, 4612.337
622.6340, 4609.469
624.5625, 4606.071
626.4910, 4599.510
628.4194, 4593.141
630.3479, 4592.506
632.2764, 4593.932
634.2048, 4588.708
636.1333, 4577.563
638.0618, 4571.817
639.9902, 4575.145
641.9187, 4571.803
643.8472, 4555.920
645.7756, 4543.362
647.7041, 4537.339
649.6326, 4531.199
651.5610, 4523.274
653.4895, 4514.188
655.4180, 4504.968
657.3464, 4493.930
659.2749, 4476.074
661.2034, 4457.804
663.1318, 4453.099
665.0603, 4458.431
666.9888, 4452.843
668.9172, 4434.597
670.8457, 4423.623
672.7742, 4422.608
674.7026, 4416.519
676.6311, 4400.915
678.5596, 4390.332
680.4880, 4390.396
682.4165, 4391.067
684.3450, 4389.425
686.2734, 4385.509
688.2019, 4379.623
690.1304, 4371.751
692.0588, 4360.040
693.9873, 4347.495
695.9158, 4339.560
697.8442, 4335.110
699.7727, 4330.786
701.7012, 4326.322
703.6296, 4316.675
705.5581, 4301.319
707.4866, 4289.622
709.4150, 4282.765
711.3435, 4278.808
713.2720, 4279.773
715.2004, 4277.502
717.1289, 4266.827
719.0574, 4256.272
720.9858, 4248.682
722.9143, 4242.811
724.8428, 4240.201
726.7712, 4236.936
728.6997, 4227.515
730.6282, 4215.519
732.5566, 4207.708
734.4851, 4202.196
736.4136, 4192.581
738.3420, 4179.813
740.2705, 4169.300
742.1990, 4161.109
744.1274, 4157.300
746.0559, 4159.763
747.9844, 4156.677
749.9128, 4143.576
751.8413, 4131.402
753.7698, 4124.956
755.6982, 4115.575
757.6267, 4094.520
759.5552, 4079.960
761.4836, 4088.721
763.4121, 4096.687
765.3406, 4082.700
767.2690, 4063.741
769.1975, 4054.750
771.1260, 4052.918
773.0544, 4059.651
774.9829, 4067.701
776.9114, 4057.750
778.8398, 4033.908
780.7683, 4021.128
782.6968, 4020.214
784.6252, 4013.523
786.5537, 3997.668
788.4822, 3988.289
790.4106, 3992.261
792.3391, 3989.846
794.2676, 3977.217
796.1960, 3966.992
798.1245, 3962.943
800.0530, 3957.612
801.9814, 3948.461
803.9099, 3938.796
805.8384, 3929.107
807.7668, 3920.491
809.6953, 3913.281
811.6238, 3907.511
813.5522, 3904.542
815.4807, 3901.278
817.4092, 3893.846
819.3376, 3884.768
821.2661, 3877.033
823.1946, 3870.807
825.1230, 3868.361
827.0515, 3867.764
828.9800, 3859.748
830.9084, 3845.566
832.8369, 3837.189
834.7654, 3835.001
836.6938, 3831.427
838.6223, 3826.501
840.5508, 3819.827
842.4792, 3810.867
844.4077, 3804.829
846.3362, 3803.284
848.2646, 3797.490
850.1931, 3784.077
852.1216, 3772.163
854.0500, 3763.620
855.9785, 3758.285
857.9070, 3761.200
859.8354, 3758.899
861.7639, 3741.070
863.6924, 3726.084
865.6208, 3723.565
867.5493, 3723.123
869.4778, 3719.060
871.4063, 3714.262
873.3347, 3711.238
875.2632, 3707.854
877.1917, 3701.757
879.1201, 3694.541
881.0486, 3688.575
882.9771, 3682.523
884.9055, 3674.117
886.8340, 3664.415
888.7625, 3653.962
890.6909, 3644.278
892.6194, 3641.111
894.5479, 3640.852
896.4763, 3630.382
898.4048, 3613.135
900.3333, 3607.505
902.2617, 3612.057
904.1902, 3607.601
906.1187, 3593.615
908.0471, 3581.516
909.9756, 3571.436
911.9041, 3566.468
913.8325, 3568.712
915.7610, 3565.950
917.6895, 3554.353
919.6179, 3546.546
921.5464, 3545.881
923.4749, 3542.895
925.4033, 3536.853
927.3318, 3530.332
929.2603, 3522.307
931.1887, 3516.953
933.1172, 3517.581
935.0457, 3514.544
936.9741, 3503.556
938.9026, 3494.090
940.8311, 3489.538
942.7595, 3484.153
944.6880, 3475.311
946.6165, 3467.502
948.5449, 3462.850
950.4734, 3458.907
952.4019, 3455.572
954.3303, 3450.966
956.2588, 3443.995
958.1873, 3435.750
960.1157, 3423.989
962.0442, 3415.314
963.9727, 3417.077
965.9011, 3417.748
967.8296, 3407.821
969.7581, 3398.985
971.6865, 3402.505
973.6150, 3404.290
975.5435, 3393.049
977.4719, 3378.140
979.4004, 3363.048
981.3289, 3351.889
983.2573, 3350.580
985.1858, 3352.215
987.1143, 3351.587
989.0427, 3349.675
990.9712, 3349.118
992.8997, 3345.797
994.8281, 3331.887
996.7566, 3316.200
998.6851, 3307.418
1000.614, 3303.472
1002.542, 3306.068
1004.470, 3308.115
1006.399, 3299.510
1008.327, 3286.609
1010.256, 3275.329
1012.184, 3266.665
1014.113, 3263.832
1016.041, 3262.737
1017.970, 3258.534
1019.898, 3252.383
1021.827, 3243.383
1023.755, 3235.770
1025.684, 3238.539
1027.612, 3243.253
1029.541, 3237.696
1031.469, 3227.423
1033.397, 3219.260
1035.326, 3211.288
1037.254, 3198.424
1039.183, 3186.447
1041.111, 3185.636
1043.040, 3188.029
1044.968, 3182.938
1046.897, 3175.933
1048.825, 3176.081
1050.754, 3176.580
1052.682, 3165.991
1054.611, 3153.684
1056.539, 3152.667
1058.468, 3154.642
1060.396, 3149.979
1062.324, 3142.635
1064.253, 3136.460
1066.181, 3130.700
1068.110, 3123.703
1070.038, 3117.633
1071.967, 3115.232
1073.895, 3114.395
1075.824, 3115.567
1077.752, 3114.427
1079.681, 3105.299
1081.609, 3093.983
1083.538, 3082.805
1085.466, 3074.824
1087.395, 3074.923
1089.323, 3076.049
1091.251, 3072.940
1093.180, 3068.973
1095.108, 3066.499
1097.037, 3063.894
1098.965, 3061.049
1100.894, 3056.679
1102.822, 3047.168
1104.751, 3040.352
1106.679, 3043.659
1108.608, 3045.326
1110.536, 3039.362
1112.465, 3031.868
1114.393, 3023.679
1116.322, 3016.377
1118.250, 3008.646
1120.178, 3005.021
1122.107, 3012.650
1124.035, 3012.838
1125.964, 2995.449
1127.892, 2982.975
1129.821, 2983.255
1131.749, 2981.052
1133.678, 2971.785
1135.606, 2965.391
1137.535, 2964.364
1139.463, 2962.421
1141.392, 2958.656
1143.320, 2954.215
1145.249, 2948.958
1147.177, 2945.046
1149.105, 2943.075
1151.034, 2939.863
1152.962, 2935.165
1154.891, 2930.368
1156.819, 2925.477
1158.748, 2925.456
1160.676, 2929.764
1162.605, 2930.096
1164.533, 2926.442
1166.462, 2919.636
1168.390, 2910.700
1170.319, 2903.375
1172.247, 2897.859
1174.176, 2895.067
1176.104, 2893.876
1178.032, 2891.785
1179.961, 2889.518
1181.889, 2888.605
1183.818, 2887.784
1185.746, 2886.342
1187.675, 2883.217
1189.603, 2875.792
1191.532, 2868.452
1193.460, 2865.220
1195.389, 2861.850
1197.317, 2855.497
1199.246, 2848.373
1201.174, 2838.553
1203.103, 2835.264
1205.031, 2846.321
1206.959, 2853.115
1208.888, 2849.161
1210.816, 2843.194
1212.745, 2837.309
1214.673, 2829.387
1216.602, 2818.194
1218.530, 2811.910
1220.459, 2811.827
1222.387, 2811.549
1224.316, 2810.413
1226.244, 2806.840
1228.173, 2801.000
1230.101, 2795.907
1232.030, 2791.706
1233.958, 2790.508
1235.886, 2789.931
1237.815, 2780.581
1239.743, 2768.453
1241.672, 2765.543
1243.600, 2767.313
1245.529, 2770.356
1247.457, 2771.319
1249.386, 2765.511
1251.314, 2758.063
1253.243, 2752.334
1255.171, 2746.885
1257.100, 2738.814
1259.028, 2734.240
1260.957, 2738.709
1262.885, 2740.363
1264.813, 2733.962
1266.742, 2730.586
1268.670, 2733.335
1270.599, 2731.623
1272.527, 2723.887
1274.456, 2719.186
1276.384, 2717.969
1278.313, 2717.493
1280.241, 2717.393
1282.170, 2714.496
1284.098, 2710.419
1286.027, 2711.059
1287.955, 2713.314
1289.884, 2712.117
1291.812, 2708.728
1293.740, 2702.363
1295.669, 2697.569
1297.597, 2699.379
1299.526, 2701.063
1301.454, 2699.351
1303.383, 2695.923
1305.311, 2690.609
1307.240, 2685.670
1309.168, 2681.097
1311.097, 2679.716
1313.025, 2683.808
1314.954, 2679.471
1316.882, 2665.413
1318.811, 2660.232
1320.739, 2662.632
1322.667, 2662.167
1324.596, 2659.664
1326.524, 2656.345
1328.453, 2653.453
1330.381, 2652.822
1332.310, 2653.779
1334.238, 2657.873
1336.167, 2659.903
1338.095, 2655.268
1340.024, 2650.004
1341.952, 2645.609
1343.881, 2642.554
1345.809, 2641.865
1347.738, 2637.336
1349.666, 2627.994
1351.594, 2618.475
1353.523, 2609.899
1355.451, 2611.109
1357.380, 2618.101
1359.308, 2611.653
1361.237, 2600.237
1363.165, 2602.189
1365.094, 2606.672
1367.022, 2599.756
1368.951, 2591.267
1370.879, 2588.096
1372.808, 2585.683
1374.736, 2583.316
1376.665, 2578.744
1378.593, 2568.810
1380.521, 2565.951
1382.450, 2572.772
1384.378, 2573.369
1386.307, 2567.493
1388.235, 2555.687
1390.164, 2542.342
1392.092, 2542.399
1394.021, 2548.759
1395.949, 2554.584
1397.878, 2555.726
1399.806, 2543.002
1401.735, 2533.754
1403.663, 2540.826
1405.592, 2545.311
1407.520, 2542.372
1409.448, 2534.908
1411.377, 2520.505
1413.305, 2513.868
1415.234, 2514.834
1417.162, 2514.940
1419.091, 2514.706
1421.019, 2517.175
1422.948, 2519.513
1424.876, 2517.409
1426.805, 2513.173
1428.733, 2505.864
1430.662, 2503.219
1432.590, 2511.779
1434.519, 2513.327
1436.447, 2502.032
1438.375, 2493.462
1440.304, 2489.442
1442.232, 2484.936
1444.161, 2480.761
1446.089, 2484.394
1448.018, 2490.158
1449.946, 2484.851
1451.875, 2478.135
1453.803, 2481.600
1455.732, 2483.757
1457.660, 2477.210
1459.589, 2472.264
1461.517, 2471.499
1463.446, 2470.273
1465.374, 2467.931
1467.302, 2456.608
1469.231, 2440.447
1471.159, 2441.513
1473.088, 2448.803
1475.016, 2441.975
1476.945, 2432.856
1478.873, 2434.948
1480.802, 2433.940
1482.730, 2418.022
1484.659, 2408.899
1486.587, 2412.907
1488.516, 2409.036
1490.444, 2396.808
1492.373, 2392.796
1494.301, 2394.245
1496.229, 2392.061
1498.158, 2388.328
1500.086, 2385.455
1502.015, 2382.583
1503.943, 2379.632
1505.872, 2375.951
1507.800, 2371.544
1509.729, 2366.074
1511.657, 2359.209
1513.586, 2352.555
1515.514, 2347.167
1517.443, 2352.361
1519.371, 2360.434
1521.300, 2357.706
1523.228, 2353.315
1525.156, 2354.300
1527.085, 2352.449
1529.013, 2343.583
1530.942, 2337.692
1532.870, 2336.907
1534.799, 2333.534
1536.727, 2327.742
1538.656, 2319.075
1540.584, 2310.610
1542.513, 2307.397
1544.441, 2306.942
1546.370, 2308.616
1548.298, 2310.160
1550.227, 2311.574
1552.155, 2307.178
1554.083, 2296.254
1556.012, 2285.035
1557.940, 2276.255
1559.869, 2282.381
1561.797, 2291.579
1563.726, 2289.745
1565.654, 2282.260
1567.583, 2268.847
1569.511, 2257.686
1571.440, 2249.702
1573.368, 2250.416
1575.297, 2258.068
1577.225, 2256.033
1579.154, 2248.259
1581.082, 2241.703
1583.010, 2237.312
1584.939, 2237.049
1586.867, 2237.218
1588.796, 2237.844
1590.724, 2234.851
1592.653, 2227.810
1594.581, 2222.780
1596.510, 2219.361
1598.438, 2215.858
1600.367, 2212.378
1602.295, 2210.854
1604.224, 2206.387
1606.152, 2192.543
1608.081, 2184.190
1610.009, 2185.260
1611.938, 2183.843
1613.866, 2180.381
1615.794, 2179.477
1617.723, 2176.551
1619.651, 2161.834
1621.580, 2149.136
1623.508, 2145.950
1625.437, 2145.675
1627.365, 2147.855
1629.294, 2145.663
1631.222, 2139.851
1633.151, 2135.558
1635.079, 2132.598
1637.008, 2133.480
1638.936, 2130.555
1640.865, 2118.286
1642.793, 2108.241
1644.721, 2102.761
1646.650, 2105.368
1648.578, 2112.469
1650.507, 2103.933
1652.435, 2091.303
1654.364, 2091.473
1656.292, 2091.782
1658.221, 2086.604
1660.149, 2079.329
1662.078, 2070.447
1664.006, 2068.130
1665.935, 2069.763
1667.863, 2066.406
1669.792, 2060.328
1671.720, 2051.783
1673.648, 2045.909
1675.577, 2045.039
1677.505, 2046.157
1679.434, 2048.520
1681.362, 2046.143
1683.291, 2039.814
1685.219, 2028.299
1687.148, 2019.666
1689.076, 2024.413
1691.005, 2024.068
1692.933, 2012.315
1694.862, 2008.318
1696.790, 2010.109
1698.719, 2003.814
1700.647, 1993.401
1702.575, 1980.209
1704.504, 1971.864
1706.432, 1975.379
1708.361, 1976.559
1710.289, 1974.446
1712.218, 1969.539
1714.146, 1963.585
1716.075, 1960.560
1718.003, 1958.343
1719.932, 1955.948
1721.860, 1952.254
1723.789, 1946.274
1725.717, 1944.804
1727.646, 1945.402
1729.574, 1935.611
1731.502, 1923.411
1733.431, 1916.195
1735.359, 1910.451
1737.288, 1904.758
1739.216, 1904.532
1741.145, 1908.627
1743.073, 1904.396
1745.002, 1896.602
1746.930, 1892.460
1748.859, 1886.419
1750.787, 1875.330
1752.716, 1869.817
1754.644, 1870.428
1756.573, 1866.582
1758.501, 1861.080
1760.429, 1859.438
1762.358, 1857.436
1764.286, 1851.961
1766.215, 1848.421
1768.143, 1846.961
1770.072, 1840.738
1772.000, 1832.577
1773.929, 1827.024
1775.857, 1824.539
1777.786, 1830.217
1779.714, 1826.988
1781.643, 1813.450
1783.571, 1803.752
1785.500, 1798.180
1787.428, 1798.655
1789.356, 1797.361
1791.285, 1786.675
1793.213, 1778.956
1795.142, 1775.579
1797.070, 1770.489
1798.999, 1765.974
1800.927, 1768.878
1802.856, 1770.643
1804.784, 1765.473
1806.713, 1761.740
1808.641, 1760.682
1810.570, 1752.360
1812.498, 1741.282
1814.427, 1735.169
1816.355, 1730.727
1818.283, 1726.980
1820.212, 1723.009
1822.140, 1718.685
1824.069, 1713.228
1825.997, 1707.848
1827.926, 1705.186
1829.854, 1701.203
1831.783, 1694.356
1833.711, 1685.229
1835.640, 1675.589
1837.568, 1676.321
1839.497, 1678.981
1841.425, 1673.790
1843.354, 1668.582
1845.282, 1664.949
1847.210, 1666.857
1849.139, 1670.526
1851.067, 1664.986
1852.996, 1654.727
1854.924, 1639.654
1856.853, 1630.579
1858.781, 1628.272
1860.710, 1620.493
1862.638, 1611.392
1864.567, 1608.936
1866.495, 1607.986
1868.424, 1606.197
1870.352, 1606.010
1872.281, 1606.612
1874.209, 1602.002
1876.137, 1595.832
1878.066, 1591.920
1879.994, 1586.877
1881.923, 1579.676
1883.851, 1573.683
1885.780, 1567.758
1887.708, 1557.646
1889.637, 1549.167
1891.565, 1546.849
1893.494, 1544.097
1895.422, 1540.542
1897.351, 1538.342
1899.279, 1536.103
1901.208, 1532.518
1903.136, 1527.898
1905.064, 1521.975
1906.993, 1516.751
1908.921, 1511.848
1910.850, 1507.235
1912.778, 1500.449
1914.707, 1489.195
1916.635, 1482.724
1918.564, 1481.481
1920.492, 1481.593
1922.421, 1479.827
1924.349, 1470.779
1926.278, 1466.338
1928.206, 1468.756
1930.135, 1466.648
1932.063, 1460.595
1933.991, 1449.141
1935.920, 1441.448
1937.848, 1441.193
1939.777, 1437.983
1941.705, 1432.228
1943.634, 1428.421
1945.562, 1424.960
1947.491, 1420.840
1949.419, 1416.969
1951.348, 1412.919
1953.276, 1403.260
1955.205, 1393.882
1957.133, 1391.351
1959.062, 1391.082
1960.990, 1392.085
1962.918, 1384.449
1964.847, 1374.788
1966.775, 1375.605
1968.704, 1374.377
1970.632, 1366.157
1972.561, 1357.070
1974.489, 1348.856
1976.418, 1344.754
1978.346, 1343.990
1980.275, 1349.817
1982.203, 1344.218
1984.132, 1330.775
1986.060, 1330.693
1987.989, 1332.961
1989.917, 1332.293
1991.845, 1324.498
1993.774, 1311.330
1995.702, 1310.380
1997.631, 1309.666
1999.559, 1298.003
2001.488, 1293.202
2003.416, 1297.546
2005.345, 1288.075
2007.273, 1276.505
2009.202, 1275.755
2011.130, 1276.882
2013.059, 1277.722
2014.987, 1271.497
2016.916, 1263.800
2018.844, 1264.981
2020.772, 1260.524
2022.701, 1247.951
2024.629, 1240.462
2026.558, 1236.155
2028.486, 1232.888
2030.415, 1228.113
2032.343, 1221.260
2034.272, 1215.851
2036.200, 1212.264
2038.129, 1212.475
2040.057, 1210.844
2041.986, 1206.008
2043.914, 1198.219
2045.843, 1190.490
2047.771, 1189.300
2049.699, 1185.316
2051.628, 1175.121
2053.556, 1173.168
2055.485, 1174.204
2057.413, 1167.767
2059.342, 1164.735
2061.270, 1170.341
2063.199, 1162.436
2065.127, 1150.927
2067.056, 1152.080
2068.984, 1151.770
2070.913, 1145.795
2072.841, 1136.144
2074.770, 1127.115
2076.698, 1125.745
2078.626, 1122.118
2080.555, 1113.297
2082.483, 1109.659
2084.412, 1108.874
2086.340, 1109.197
2088.269, 1107.250
2090.197, 1102.401
2092.126, 1100.208
2094.054, 1096.733
2095.983, 1086.508
