##NAMES=Parahopeite
##RRUFFID=R050463
##IDEAL CHEMISTRY=Zn^2+^_3_(P^5+^O_4_)_2_&#183;4H_2_O
##LOCALITY=Broken Hill mine, Kabwe, Zambia
##OWNER=RRUFF
##SOURCE=University of Arizona Mineral Museum
##DESCRIPTION=Colorless elongated subparallel aggregate of crystals
##STATUS=The identification of this mineral has been confirmed by X-ray diffraction and chemical analysis
##URL=rruff.info/R050463
##MEASURED CHEMISTRY=Zn_3.00_(P_1.00_O_4_)_2_Â·4H_2_O
91.00781, 7.468767
91.48993, 6.782304
91.97205, 6.508045
92.45416, 6.859781
92.93628, 7.612566
93.41840, 8.249422
93.90051, 8.621997
94.38263, 8.959216
94.86475, 9.591167
95.34686, 10.51783
95.82898, 11.73897
96.31110, 13.30042
96.79321, 15.18786
97.27533, 17.19876
97.75745, 19.21584
98.23956, 21.30552
98.72168, 23.72477
99.20380, 26.49717
99.68591, 29.44832
100.1680, 32.31688
100.6501, 34.98475
101.1323, 38.03545
101.6144, 41.70552
102.0965, 46.05272
102.5786, 50.19425
103.0607, 53.79296
103.5428, 57.51138
104.0250, 62.62962
104.5071, 69.66467
104.9892, 77.16293
105.4713, 84.61498
105.9534, 92.19601
106.4355, 99.32189
106.9177, 106.0562
107.3998, 112.3391
107.8819, 118.2160
108.3640, 123.7442
108.8461, 128.7537
109.3282, 133.2224
109.8104, 136.0715
110.2925, 139.5129
110.7746, 143.4397
111.2567, 147.8974
111.7388, 153.4336
112.2209, 160.3224
112.7031, 168.1303
113.1852, 176.6447
113.6673, 185.9501
114.1494, 195.7715
114.6315, 206.7339
115.1136, 219.0169
115.5958, 229.7616
116.0779, 239.2204
116.5600, 246.3384
117.0421, 249.9208
117.5242, 248.4426
118.0063, 244.1839
118.4885, 237.7041
118.9706, 228.6448
119.4527, 219.6927
119.9348, 211.6121
120.4169, 204.7038
120.8990, 199.4105
121.3812, 195.4610
121.8633, 193.5344
122.3454, 194.2566
122.8275, 197.6914
123.3096, 203.8112
123.7917, 212.2475
124.2739, 223.2277
124.7560, 237.5856
125.2381, 260.0898
125.7202, 285.7862
126.2023, 307.3930
126.6844, 327.7044
127.1666, 337.9976
127.6487, 320.9121
128.1308, 277.6010
128.6129, 229.0466
129.0950, 187.9819
129.5771, 154.4830
130.0593, 129.0135
130.5414, 113.6611
131.0235, 105.8737
131.5056, 99.98044
131.9877, 95.76591
132.4698, 92.61608
132.9520, 90.71912
133.4341, 90.01048
133.9162, 89.55447
134.3983, 88.96902
134.8804, 88.32754
135.3625, 88.28020
135.8447, 88.91949
136.3268, 89.89307
136.8089, 90.70162
137.2910, 91.29660
137.7731, 92.03905
138.2552, 93.14632
138.7374, 94.67424
139.2195, 96.02422
139.7016, 97.14892
140.1837, 98.15977
140.6658, 99.24076
141.1479, 100.3606
141.6301, 101.6286
142.1122, 103.0129
142.5943, 104.2678
143.0764, 106.3254
143.5585, 109.3342
144.0406, 113.1337
144.5228, 117.3296
145.0049, 121.9494
145.4870, 126.8761
145.9691, 132.0176
146.4512, 137.7522
146.9333, 143.2074
147.4155, 148.4252
147.8976, 153.4262
148.3797, 157.8586
148.8618, 160.8481
149.3439, 163.9454
149.8260, 168.1358
150.3082, 174.8093
150.7903, 181.0672
151.2724, 186.4744
151.7545, 190.9723
152.2366, 196.0477
152.7188, 201.8568
153.2009, 208.2091
153.6830, 214.8886
154.1651, 222.0563
154.6472, 229.3902
155.1293, 236.4523
155.6115, 243.1122
156.0936, 250.7869
156.5757, 259.7372
157.0578, 269.8177
157.5399, 280.7563
158.0220, 292.3653
158.5042, 304.9836
158.9863, 318.5028
159.4684, 332.8121
159.9505, 348.6010
160.4326, 366.5467
160.9147, 385.9293
161.3969, 405.6765
161.8790, 425.8389
162.3611, 445.9854
162.8432, 466.8254
163.3253, 489.6888
163.8074, 508.7111
164.2896, 522.5565
164.7717, 530.6849
165.2538, 531.9852
165.7359, 524.6484
166.2180, 511.0807
166.7001, 492.2649
167.1823, 466.9131
167.6644, 440.1735
168.1465, 413.6560
168.6286, 388.0320
169.1107, 365.2109
169.5928, 346.2665
170.0750, 330.6834
170.5571, 317.7083
171.0392, 307.5802
171.5213, 299.6210
172.0034, 293.3053
172.4855, 288.6773
172.9677, 286.0647
173.4498, 286.2435
173.9319, 288.3723
174.4140, 291.3005
174.8961, 294.8976
175.3782, 298.9827
175.8604, 304.0443
176.3425, 309.9084
176.8246, 314.9113
177.3067, 318.0012
177.7888, 319.3880
178.2709, 319.5822
178.7531, 319.5523
179.2352, 317.7842
179.7173, 311.6609
180.1994, 301.2650
180.6815, 288.6667
181.1636, 274.5183
181.6458, 259.4282
182.1279, 245.6858
182.6100, 233.9650
183.0921, 223.9797
183.5742, 214.9185
184.0563, 206.9370
184.5385, 199.8145
185.0206, 193.9234
185.5027, 188.9728
185.9848, 183.8600
186.4669, 178.0337
186.9490, 171.7598
187.4312, 165.6144
187.9133, 159.7221
188.3954, 153.8480
188.8775, 147.5926
189.3596, 141.0739
189.8417, 135.1476
190.3239, 130.3190
190.8060, 126.4053
191.2881, 122.7200
191.7702, 119.2878
192.2523, 116.1371
192.7344, 113.2357
193.2166, 110.5982
193.6987, 108.3877
194.1808, 106.7151
194.6629, 105.5599
195.1450, 104.6185
195.6271, 103.9302
196.1093, 103.3547
196.5914, 102.7270
197.0735, 102.0516
197.5556, 101.2618
198.0377, 100.2054
198.5198, 98.86845
199.0020, 97.97847
199.4841, 97.64030
199.9662, 97.55905
200.4483, 97.15498
200.9304, 96.32798
201.4125, 95.78103
201.8947, 95.98143
202.3768, 97.01594
202.8589, 97.65405
203.3410, 97.78501
203.8231, 97.65804
204.3052, 97.77914
204.7874, 98.23662
205.2695, 98.57764
205.7516, 98.48505
206.2337, 97.83643
206.7158, 97.63255
207.1979, 98.01720
207.6801, 98.72049
208.1622, 99.09732
208.6443, 98.96410
209.1264, 99.07522
209.6085, 99.88137
210.0906, 101.5906
210.5728, 103.0745
211.0549, 104.3576
211.5370, 105.3694
212.0191, 105.7951
212.5012, 105.3495
212.9833, 105.0313
213.4655, 105.3499
213.9476, 106.4749
214.4297, 107.6039
214.9118, 108.6899
215.3939, 109.7873
215.8760, 111.0614
216.3581, 112.5103
216.8403, 114.1178
217.3224, 115.8937
217.8045, 117.9380
218.2866, 119.8474
218.7687, 121.4603
219.2508, 122.9826
219.7330, 124.9535
220.2151, 127.5195
220.6972, 130.2462
221.1793, 132.9000
221.6614, 135.4718
222.1435, 138.0524
222.6257, 140.6987
223.1078, 143.3422
223.5899, 145.8772
224.0720, 148.3481
224.5541, 150.6508
225.0362, 152.7478
225.5184, 154.4783
226.0005, 156.4013
226.4826, 158.7527
226.9647, 161.2533
227.4468, 163.1057
227.9289, 163.8241
228.4111, 164.6293
228.8932, 166.1477
229.3753, 168.8184
229.8574, 171.1339
230.3395, 172.8712
230.8216, 174.2691
231.3038, 176.0147
231.7859, 178.1735
232.2680, 180.5658
232.7501, 183.0877
233.2322, 185.6060
233.7143, 188.5583
234.1965, 192.1363
234.6786, 196.1272
235.1607, 199.9962
235.6428, 203.7532
236.1249, 207.3680
236.6070, 210.7841
237.0892, 213.7886
237.5713, 217.0527
238.0534, 220.5853
238.5355, 224.3714
239.0176, 228.3968
239.4997, 232.9158
239.9819, 237.3887
240.4640, 241.4588
240.9461, 244.6687
241.4282, 248.6491
241.9103, 253.7114
242.3924, 259.4457
242.8746, 264.8968
243.3567, 270.0477
243.8388, 274.9437
244.3209, 279.5280
244.8030, 283.4273
245.2851, 287.9185
245.7673, 293.2064
246.2494, 299.0069
246.7315, 304.7091
247.2136, 310.2380
247.6957, 315.7918
248.1778, 321.4478
248.6600, 327.1341
249.1421, 333.0688
249.6242, 339.5196
250.1063, 346.1163
250.5884, 352.1552
251.0705, 357.5826
251.5527, 362.5569
252.0348, 367.0558
252.5169, 371.0573
252.9990, 374.8079
253.4811, 378.4118
253.9632, 381.7333
254.4454, 384.5174
254.9275, 386.8532
255.4096, 388.5124
255.8917, 389.3137
256.3738, 389.0628
256.8560, 388.8617
257.3381, 388.9312
257.8202, 388.8672
258.3023, 387.9777
258.7844, 385.9595
259.2665, 383.7981
259.7487, 381.7303
260.2308, 379.7472
260.7129, 378.0141
261.1950, 376.5945
261.6771, 375.3587
262.1592, 374.0890
262.6414, 372.6503
263.1235, 371.5763
263.6056, 371.2764
264.0877, 371.8671
264.5698, 371.3173
265.0519, 369.2334
265.5341, 366.5580
266.0162, 364.4446
266.4983, 363.2104
266.9804, 361.5949
267.4625, 359.1611
267.9446, 355.9454
268.4268, 352.8623
268.9089, 349.9111
269.3910, 347.2000
269.8731, 344.7660
270.3552, 342.5565
270.8373, 340.9297
271.3195, 340.1086
271.8016, 340.0025
272.2837, 339.5638
272.7658, 338.6163
273.2479, 337.7164
273.7300, 337.2899
274.2122, 337.3175
274.6943, 337.9649
275.1764, 339.4107
275.6585, 341.5046
276.1406, 343.4471
276.6227, 345.1985
277.1049, 346.9414
277.5870, 349.0072
278.0691, 351.4843
278.5512, 353.2993
279.0333, 354.3044
279.5154, 354.5221
279.9976, 353.9844
280.4797, 352.6574
280.9618, 350.7269
281.4439, 348.3963
281.9260, 345.6752
282.4081, 341.9501
282.8903, 337.1010
283.3724, 331.2464
283.8545, 324.5462
284.3366, 316.9645
284.8187, 308.8787
285.3008, 300.1745
285.7830, 290.9152
286.2651, 282.9436
286.7472, 276.6657
287.2293, 271.1559
287.7114, 264.5488
288.1935, 256.8553
288.6757, 249.4609
289.1578, 243.1522
289.6399, 237.8100
290.1220, 233.2655
290.6041, 229.5891
291.0862, 226.3368
291.5684, 222.6211
292.0505, 218.5507
292.5326, 215.2932
293.0147, 213.8471
293.4968, 213.6535
293.9789, 212.8498
294.4611, 211.2849
294.9432, 209.7916
295.4253, 209.4943
295.9074, 210.1714
296.3895, 210.8601
296.8716, 210.9232
297.3538, 210.7830
297.8359, 211.3530
298.3180, 212.6572
298.8001, 214.2420
299.2822, 215.6544
299.7643, 217.0265
300.2465, 218.6872
300.7286, 220.8882
301.2107, 223.3433
301.6928, 225.6065
302.1749, 227.6864
302.6570, 230.0229
303.1392, 232.8441
303.6213, 236.1636
304.1034, 239.9736
304.5855, 244.5475
305.0676, 249.3374
305.5497, 253.8526
306.0319, 258.1348
306.5140, 262.6344
306.9961, 267.6861
307.4782, 273.0357
307.9603, 278.4388
308.4424, 283.7480
308.9246, 289.1805
309.4067, 295.0026
309.8888, 301.0741
310.3709, 307.1204
310.8530, 312.7293
311.3351, 318.3248
311.8173, 324.2425
312.2994, 330.6200
312.7815, 337.2764
313.2636, 344.0776
313.7457, 351.0233
314.2278, 358.1762
314.7100, 365.7552
315.1921, 373.3393
315.6742, 380.6469
316.1563, 387.5822
316.6384, 394.5636
317.1205, 401.5025
317.6027, 408.5512
318.0848, 415.8659
318.5669, 424.4731
319.0490, 432.4840
319.5311, 438.9982
320.0132, 443.9312
320.4954, 448.5349
320.9775, 453.0502
321.4596, 457.4007
321.9417, 461.4510
322.4238, 465.0673
322.9059, 468.4908
323.3881, 471.9812
323.8702, 475.4453
324.3523, 478.1569
324.8344, 479.7953
325.3165, 480.7936
325.7986, 481.4281
326.2808, 482.3374
326.7629, 482.1664
327.2450, 480.9933
327.7271, 478.7209
328.2092, 474.9571
328.6913, 468.4911
329.1735, 461.6097
329.6556, 455.2099
330.1377, 450.3488
330.6198, 443.9229
331.1019, 435.2329
331.5840, 425.2014
332.0662, 415.3858
332.5483, 405.9953
333.0304, 396.4243
333.5125, 386.6297
333.9946, 376.4438
334.4767, 366.3111
334.9589, 356.1780
335.4410, 346.2747
335.9231, 336.9217
336.4052, 328.2850
336.8873, 319.9836
337.3694, 312.0170
337.8516, 304.4123
338.3336, 296.9813
338.8158, 289.6313
339.2979, 282.6319
339.7800, 276.0489
340.2621, 269.9029
340.7442, 264.4278
341.2263, 259.8329
341.7085, 255.9385
342.1906, 252.4866
342.6727, 249.4996
343.1548, 246.6297
343.6369, 243.6523
344.1190, 240.5871
344.6012, 237.2533
345.0833, 233.4978
345.5654, 229.7648
346.0475, 226.8921
346.5296, 224.8532
347.0117, 223.0867
347.4939, 221.4417
347.9760, 219.8638
348.4581, 218.0016
348.9402, 215.7487
349.4223, 213.7558
349.9044, 213.0753
350.3866, 213.3198
350.8687, 213.1451
351.3508, 211.4277
351.8329, 209.2141
352.3150, 208.2018
352.7971, 208.3643
353.2793, 208.8541
353.7614, 209.0258
354.2435, 209.0787
354.7256, 209.3133
355.2077, 209.6958
355.6898, 210.4378
356.1720, 211.7841
356.6541, 213.6847
357.1362, 215.8918
357.6183, 218.6978
358.1004, 221.5352
358.5826, 223.7817
359.0647, 225.0125
359.5468, 226.4423
360.0289, 228.8479
360.5110, 231.9039
360.9931, 235.0037
361.4753, 238.5152
361.9574, 241.4915
362.4395, 243.3957
362.9216, 244.1006
363.4037, 244.2514
363.8858, 243.9851
364.3680, 243.2870
364.8501, 242.1368
365.3322, 240.8118
365.8143, 238.7693
366.2964, 235.7395
366.7785, 231.7251
367.2607, 227.4698
367.7428, 223.1628
368.2249, 218.5345
368.7070, 213.3898
369.1891, 207.2593
369.6712, 201.2892
370.1534, 195.2706
370.6355, 189.3963
371.1176, 184.3179
371.5997, 180.5085
372.0818, 176.8699
372.5639, 172.8523
373.0461, 168.0882
373.5282, 164.0996
374.0103, 161.0485
374.4924, 158.5333
374.9745, 156.0213
375.4566, 153.5020
375.9388, 150.9685
376.4209, 148.4506
376.9030, 145.9162
377.3851, 143.2865
377.8672, 140.4307
378.3493, 137.7953
378.8315, 135.9485
379.3136, 134.8912
379.7957, 133.8005
380.2778, 132.4628
380.7599, 131.0515
381.2420, 130.0763
381.7242, 129.5528
382.2063, 128.8485
382.6884, 127.3613
383.1705, 125.3288
383.6526, 123.5802
384.1347, 122.1782
384.6169, 121.1253
385.0990, 120.6557
385.5811, 120.6056
386.0632, 120.4714
386.5453, 120.0279
387.0274, 119.3583
387.5096, 118.5207
387.9917, 117.5238
388.4738, 116.5216
388.9559, 115.5774
389.4380, 114.7410
389.9201, 114.0879
390.4023, 113.8223
390.8844, 113.5513
391.3665, 112.9347
391.8486, 112.0675
392.3307, 111.3175
392.8128, 110.8565
393.2950, 110.5751
393.7771, 110.4362
394.2592, 110.5325
394.7413, 110.5012
395.2234, 110.0826
395.7055, 109.4901
396.1877, 109.0544
396.6698, 109.0293
397.1519, 108.9981
397.6340, 108.8099
398.1161, 108.4360
398.5982, 108.1272
399.0804, 107.9066
399.5625, 107.7562
400.0446, 107.6615
400.5267, 107.5656
401.0088, 107.6253
401.4909, 107.9793
401.9731, 108.5129
402.4552, 108.7166
402.9373, 108.3736
403.4194, 108.0558
403.9015, 108.0155
404.3836, 108.2653
404.8658, 108.8200
405.3479, 109.8812
405.8300, 110.9636
406.3121, 111.2046
406.7942, 110.4536
407.2763, 109.9126
407.7585, 110.0608
408.2406, 110.7490
408.7227, 111.1073
409.2048, 111.0989
409.6869, 111.0479
410.1690, 111.2472
410.6512, 111.6555
411.1333, 112.1032
411.6154, 112.5982
412.0975, 113.0474
412.5796, 113.2793
413.0617, 113.3283
413.5439, 113.3690
414.0260, 113.5114
414.5081, 113.7045
414.9902, 113.8072
415.4723, 113.7845
415.9544, 113.9540
416.4366, 114.7984
416.9187, 115.9535
417.4008, 116.8696
417.8829, 117.3238
418.3650, 117.5021
418.8471, 117.3022
419.3293, 116.8261
419.8114, 116.6639
420.2935, 117.4727
420.7756, 118.4260
421.2577, 118.9185
421.7398, 118.5640
422.2220, 118.3290
422.7041, 118.6129
423.1862, 119.1219
423.6683, 119.3279
424.1504, 119.0463
424.6325, 118.5746
425.1147, 117.9382
425.5968, 117.0989
426.0789, 116.3915
426.5610, 116.0129
427.0431, 115.5878
427.5252, 114.7816
428.0074, 113.3786
428.4895, 112.0950
428.9716, 111.0280
429.4537, 110.1394
429.9358, 109.3991
430.4179, 108.9078
430.9001, 108.2176
431.3822, 106.9079
431.8643, 104.9604
432.3464, 103.7487
432.8285, 103.4201
433.3106, 103.3587
433.7928, 102.7175
434.2749, 101.5783
434.7570, 100.6222
435.2391, 100.0280
435.7212, 99.76949
436.2033, 99.99388
436.6855, 100.6406
437.1676, 101.1131
437.6497, 100.7177
438.1318, 99.95414
438.6139, 99.64604
439.0960, 100.0279
439.5782, 100.4908
440.0603, 100.5269
440.5424, 100.2878
441.0245, 100.0575
441.5066, 99.97933
441.9887, 99.92580
442.4709, 99.80468
442.9530, 99.61735
443.4351, 99.47803
443.9172, 99.38251
444.3993, 99.37923
444.8814, 99.51061
445.3636, 99.95655
445.8457, 100.3023
446.3278, 100.5226
446.8099, 100.6020
447.2920, 100.4982
447.7741, 99.77979
448.2563, 99.36591
448.7384, 99.61765
449.2205, 100.6470
449.7026, 101.4457
450.1847, 101.8757
450.6668, 102.2399
451.1490, 102.8856
451.6311, 103.9766
452.1132, 104.6788
452.5953, 104.7215
453.0774, 104.4175
453.5595, 104.7211
454.0417, 105.7083
454.5238, 106.6016
455.0059, 106.9195
455.4880, 106.7607
455.9701, 106.6135
456.4522, 106.4775
456.9344, 106.4503
457.4165, 106.6411
457.8986, 107.0260
458.3807, 107.5418
458.8628, 108.2368
459.3449, 108.9810
459.8271, 109.7334
460.3092, 110.4459
460.7913, 110.9306
461.2734, 110.8216
461.7555, 110.5915
462.2376, 110.6752
462.7198, 111.1964
463.2019, 111.7245
463.6840, 112.0018
464.1661, 112.1887
464.6482, 112.4792
465.1303, 113.1445
465.6125, 113.6856
466.0946, 113.9128
466.5767, 113.8603
467.0588, 113.8456
467.5409, 113.8659
468.0230, 113.9530
468.5052, 114.1485
468.9873, 114.5814
469.4694, 114.7856
469.9515, 114.6305
470.4336, 114.3621
470.9157, 114.3321
471.3979, 114.5916
471.8800, 114.9261
472.3621, 115.3006
472.8442, 115.7055
473.3263, 116.1247
473.8084, 116.5652
474.2906, 116.9648
474.7727, 117.1729
475.2548, 117.2689
475.7369, 117.7191
476.2190, 118.6528
476.7011, 119.6150
477.1833, 119.8440
477.6654, 119.6404
478.1475, 119.8341
478.6296, 121.1407
479.1117, 122.7535
479.5938, 123.8522
480.0760, 124.4990
480.5581, 125.0764
481.0402, 125.6019
481.5223, 126.2791
482.0044, 127.3399
482.4865, 128.9940
482.9687, 130.5443
483.4508, 131.5954
483.9329, 132.4476
484.4150, 133.5131
484.8971, 134.9080
485.3792, 136.4884
485.8614, 138.2503
486.3435, 140.1879
486.8256, 142.2531
487.3077, 144.3481
487.7898, 146.6553
488.2719, 149.3933
488.7541, 152.8232
489.2362, 155.6055
489.7183, 157.4852
490.2004, 159.0473
490.6825, 161.2081
491.1646, 164.0218
491.6468, 166.9883
492.1289, 170.0404
492.6110, 173.1135
493.0931, 176.1301
493.5752, 179.1063
494.0573, 182.2483
494.5395, 185.9188
495.0216, 189.8450
495.5037, 193.5347
495.9858, 196.8286
496.4679, 200.0765
496.9500, 203.4372
497.4322, 206.9565
497.9143, 210.6506
498.3964, 215.1030
498.8785, 219.2256
499.3606, 222.1799
499.8427, 224.1980
500.3249, 226.1592
500.8070, 228.6628
501.2891, 230.9943
501.7712, 232.7422
502.2533, 233.7296
502.7354, 234.5165
503.2176, 235.3002
503.6997, 235.8123
504.1818, 235.7797
504.6639, 235.1699
505.1460, 234.0797
505.6281, 232.5893
506.1103, 230.6105
506.5924, 227.7951
507.0745, 224.0189
507.5566, 219.8365
508.0387, 215.4863
508.5208, 210.9680
509.0030, 206.1903
509.4851, 201.1006
509.9672, 196.0577
510.4493, 191.6149
510.9314, 187.5681
511.4135, 183.1568
511.8957, 178.0845
512.3778, 172.8583
512.8599, 167.9084
513.3420, 163.2834
513.8242, 159.1395
514.3063, 155.7722
514.7884, 152.7014
515.2705, 149.5278
515.7526, 146.2334
516.2347, 143.1990
516.7169, 140.7701
517.1990, 138.5485
517.6811, 136.2266
518.1632, 133.5267
518.6453, 131.0288
519.1274, 128.6878
519.6096, 126.5946
520.0917, 124.9925
520.5738, 124.2135
521.0559, 123.3829
521.5380, 122.2743
522.0201, 120.9032
522.5023, 119.5122
522.9844, 118.0608
523.4665, 116.6930
523.9486, 115.4309
524.4307, 114.2831
524.9128, 113.6447
525.3950, 113.6436
525.8771, 113.8315
526.3592, 113.6499
526.8413, 113.1603
527.3234, 112.5728
527.8055, 111.9086
528.2877, 111.2433
528.7698, 110.6427
529.2519, 110.1105
529.7340, 109.6392
530.2161, 109.2142
530.6982, 108.8584
531.1804, 108.5539
531.6625, 108.2827
532.1446, 108.2077
532.6267, 108.6171
533.1088, 109.1368
533.5909, 109.4158
534.0731, 109.1272
534.5552, 108.9495
535.0373, 108.9209
535.5194, 109.0359
536.0015, 109.3020
536.4836, 109.7962
536.9658, 110.2748
537.4479, 110.6084
537.9300, 110.8089
538.4121, 111.2441
538.8942, 111.9489
539.3763, 112.7278
539.8585, 113.3513
540.3406, 113.8776
540.8227, 114.6607
541.3048, 115.7789
541.7869, 117.0664
542.2690, 118.3461
542.7512, 119.6373
543.2333, 120.9863
543.7154, 122.2670
544.1975, 123.7348
544.6796, 125.5796
545.1617, 127.7969
545.6439, 130.2961
546.1260, 133.2630
546.6081, 136.3285
547.0902, 139.3310
547.5723, 142.2612
548.0544, 144.9572
548.5366, 147.0449
549.0187, 149.1153
549.5008, 151.6820
549.9829, 154.8528
550.4650, 158.3357
550.9471, 162.1824
551.4293, 166.2805
551.9114, 170.5089
552.3935, 174.9155
552.8756, 179.2053
553.3577, 183.0798
553.8398, 186.7480
554.3220, 191.2430
554.8041, 196.6025
555.2862, 202.2873
555.7683, 207.7041
556.2504, 213.2118
556.7325, 219.8556
557.2147, 227.9556
557.6968, 236.1585
558.1789, 243.2069
558.6610, 249.6841
559.1431, 256.3797
559.6252, 264.1758
560.1074, 271.6115
560.5895, 278.0542
561.0716, 283.6808
561.5537, 288.9570
562.0358, 295.5618
562.5179, 300.3456
563.0001, 302.1277
563.4822, 300.7865
563.9643, 297.8410
564.4464, 292.5151
564.9285, 286.6723
565.4106, 281.5065
565.8928, 276.9913
566.3749, 273.2891
566.8570, 270.4570
567.3391, 268.2586
567.8212, 266.5784
568.3033, 265.3053
568.7855, 263.7147
569.2676, 261.3833
569.7497, 258.7600
570.2318, 256.6961
570.7139, 255.0072
571.1960, 252.7134
571.6782, 249.0595
572.1603, 244.7084
572.6424, 240.2708
573.1245, 235.7822
573.6066, 230.8611
574.0887, 224.9938
574.5709, 218.8054
575.0530, 212.7332
575.5351, 206.9489
576.0172, 201.0133
576.4993, 194.8166
576.9814, 188.5020
577.4636, 182.3193
577.9457, 176.0691
578.4278, 170.5250
578.9099, 166.1035
579.3920, 162.5497
579.8741, 158.9352
580.3563, 155.2706
580.8384, 151.6063
581.3205, 147.8980
581.8026, 144.1870
582.2847, 140.7004
582.7668, 137.4239
583.2490, 134.5462
583.7311, 132.4992
584.2132, 130.8506
584.6953, 128.9612
585.1774, 126.4953
585.6595, 124.2585
586.1416, 122.7921
586.6237, 121.7962
