##NAMES=Paracoquimbite
##RRUFFID=R050351
##IDEAL CHEMISTRY=Fe^3+^_4_(S^6+^O_4_)_6_(H_2_O)_12_&#183;6H_2_O
##LOCALITY=Cyprus
##OWNER=RRUFF
##SOURCE=California Institute of Technology
##DESCRIPTION=Purple fragment
##STATUS=The identification of this mineral is confirmed by single-crystal X-ray diffraction and chemical analysis.
##URL=rruff.info/R050351
##MEASURED CHEMISTRY=(Fe^3+^_1.97_Al_0.03_)_Σ=2_(S_1.00_O_4_)_3_·9H_2_O
119.3521, 223.1577
119.8342, 229.2503
120.3163, 237.5435
120.7984, 246.0079
121.2805, 252.9745
121.7626, 259.3023
122.2448, 266.4598
122.7269, 275.7136
123.2090, 285.8501
123.6911, 295.5295
124.1732, 304.4124
124.6553, 313.6686
125.1375, 325.1534
125.6196, 338.1218
126.1017, 350.2164
126.5838, 359.4234
127.0659, 366.9173
127.5480, 375.2358
128.0302, 385.5014
128.5123, 395.2317
128.9944, 400.1950
129.4765, 400.8087
129.9586, 400.9716
130.4407, 402.2498
130.9229, 405.0635
131.4050, 411.5133
131.8871, 422.7866
132.3692, 437.0300
132.8513, 449.7418
133.3334, 460.0342
133.8156, 468.5352
134.2977, 476.6259
134.7798, 485.9380
135.2619, 498.4547
135.7440, 515.3671
136.2261, 535.5853
136.7083, 556.0128
137.1904, 577.0798
137.6725, 597.3705
138.1546, 614.5247
138.6367, 627.4381
139.1188, 643.8645
139.6010, 666.8748
140.0831, 696.3773
140.5652, 724.0597
141.0473, 749.5044
141.5294, 774.2130
142.0115, 799.4052
142.4937, 824.5794
142.9758, 851.9233
143.4579, 883.4366
143.9400, 920.7511
144.4221, 953.9857
144.9042, 985.3929
145.3864, 1011.683
145.8685, 1026.681
146.3506, 1029.909
146.8327, 1023.069
147.3148, 1006.148
147.7969, 976.8727
148.2791, 942.8348
148.7612, 899.2757
149.2433, 851.5794
149.7254, 811.4033
150.2075, 779.5577
150.6896, 754.6605
151.1718, 736.5504
151.6539, 727.2652
152.1360, 721.5242
152.6181, 720.7286
153.1002, 723.5950
153.5823, 726.3041
154.0645, 725.9650
154.5466, 727.3019
155.0287, 732.5516
155.5108, 746.5399
155.9929, 758.9813
156.4750, 766.8834
156.9572, 771.5143
157.4393, 777.8793
157.9214, 788.3240
158.4035, 800.1001
158.8856, 811.5176
159.3677, 821.5972
159.8499, 831.9423
160.3320, 843.4969
160.8141, 855.9251
161.2962, 867.2166
161.7783, 874.4624
162.2604, 881.2093
162.7426, 890.3820
163.2247, 907.8029
163.7068, 923.5060
164.1889, 932.1789
164.6710, 934.1373
165.1531, 935.3735
165.6353, 937.3971
166.1174, 940.6832
166.5995, 945.7440
167.0816, 955.2562
167.5637, 964.7373
168.0458, 970.8973
168.5280, 973.6444
169.0101, 976.1395
169.4922, 983.3223
169.9743, 990.9222
170.4564, 992.8991
170.9385, 983.3449
171.4207, 969.1981
171.9028, 956.7911
172.3849, 946.5518
172.8670, 934.8779
173.3491, 917.3812
173.8312, 896.4391
174.3134, 876.5160
174.7955, 858.7907
175.2776, 843.7191
175.7597, 831.9100
176.2418, 823.3216
176.7239, 818.0445
177.2061, 817.4354
177.6882, 820.2570
178.1703, 823.1359
178.6524, 824.3675
179.1345, 824.6543
179.6166, 825.2215
180.0988, 826.2207
180.5809, 827.0892
181.0630, 827.1128
181.5451, 826.4272
182.0272, 825.5779
182.5093, 825.0106
182.9915, 824.4692
183.4736, 823.3013
183.9557, 821.3848
184.4378, 819.0731
184.9199, 815.8400
185.4020, 812.0851
185.8842, 810.2867
186.3663, 811.1861
186.8484, 815.0485
187.3305, 823.2538
187.8126, 836.5250
188.2947, 852.7381
188.7769, 867.8922
189.2590, 882.1714
189.7411, 899.4279
190.2232, 923.2192
190.7053, 952.5739
191.1874, 981.4591
191.6696, 1009.186
192.1517, 1037.286
192.6338, 1069.046
193.1159, 1104.545
193.5980, 1141.529
194.0801, 1179.435
194.5623, 1217.958
195.0444, 1255.079
195.5265, 1290.071
196.0086, 1323.903
196.4907, 1359.324
196.9728, 1396.735
197.4550, 1432.331
197.9371, 1464.065
198.4192, 1491.936
198.9013, 1516.554
199.3834, 1538.084
199.8655, 1556.228
200.3477, 1568.725
200.8298, 1573.901
201.3119, 1580.962
201.7940, 1594.313
202.2761, 1613.732
202.7582, 1641.724
203.2404, 1678.443
203.7225, 1723.883
204.2046, 1777.904
204.6867, 1840.298
205.1688, 1912.262
205.6509, 1994.774
206.1331, 2089.135
206.6152, 2188.397
207.0973, 2293.305
207.5794, 2402.086
208.0615, 2510.519
208.5436, 2620.397
209.0258, 2725.706
209.5079, 2827.668
209.9900, 2932.926
210.4721, 3002.541
210.9542, 3031.714
211.4363, 3023.732
211.9185, 2987.327
212.4006, 2918.188
212.8827, 2829.122
213.3648, 2726.369
213.8469, 2603.791
214.3290, 2485.517
214.8112, 2371.156
215.2933, 2263.207
215.7754, 2166.602
216.2575, 2081.385
216.7396, 2007.099
217.2217, 1944.425
217.7038, 1894.552
218.1860, 1853.522
218.6681, 1823.799
219.1502, 1802.556
219.6323, 1779.238
220.1144, 1750.780
220.5965, 1725.870
221.0787, 1710.737
221.5608, 1709.831
222.0429, 1706.651
222.5250, 1699.605
223.0071, 1689.704
223.4892, 1681.349
223.9714, 1676.675
224.4535, 1670.133
224.9356, 1658.820
225.4177, 1642.750
225.8998, 1621.723
226.3819, 1594.257
226.8641, 1561.906
227.3462, 1531.007
227.8283, 1502.598
228.3104, 1474.089
228.7925, 1444.479
229.2746, 1412.836
229.7568, 1381.259
230.2389, 1349.710
230.7210, 1317.994
231.2031, 1286.335
231.6852, 1254.130
232.1673, 1222.917
232.6495, 1193.715
233.1316, 1166.933
233.6137, 1141.145
234.0958, 1115.867
234.5779, 1091.951
235.0600, 1072.557
235.5422, 1059.843
236.0243, 1048.221
236.5064, 1034.845
236.9885, 1017.291
237.4706, 1003.407
237.9527, 994.0223
238.4349, 988.2585
238.9170, 984.1198
239.3991, 981.6102
239.8812, 980.7219
240.3633, 981.8723
240.8454, 986.7596
241.3276, 989.2548
241.8097, 987.6478
242.2918, 984.2516
242.7739, 984.3162
243.2560, 989.6218
243.7381, 995.6288
244.2203, 1000.290
244.7024, 1002.034
245.1845, 1007.031
245.6666, 1016.607
246.1487, 1028.793
246.6308, 1040.046
247.1130, 1049.952
247.5951, 1059.619
248.0772, 1069.026
248.5593, 1077.593
249.0414, 1088.340
249.5235, 1102.405
250.0057, 1117.903
250.4878, 1131.382
250.9699, 1139.650
251.4520, 1151.728
251.9341, 1171.582
252.4162, 1201.717
252.8984, 1227.220
253.3805, 1245.102
253.8626, 1260.828
254.3447, 1282.466
254.8268, 1313.929
255.3089, 1343.914
255.7911, 1368.344
256.2732, 1386.483
256.7553, 1406.134
257.2374, 1426.759
257.7195, 1449.543
258.2017, 1476.343
258.6838, 1509.042
259.1659, 1541.912
259.6480, 1573.325
260.1301, 1602.828
260.6122, 1635.943
261.0944, 1674.033
261.5765, 1714.259
262.0586, 1753.262
262.5407, 1789.151
263.0228, 1828.820
263.5049, 1873.829
263.9871, 1924.399
264.4692, 1975.253
264.9513, 2025.683
265.4334, 2078.239
265.9155, 2137.325
266.3976, 2204.093
266.8798, 2269.628
267.3619, 2330.357
267.8440, 2387.930
268.3261, 2451.480
268.8082, 2521.757
269.2903, 2596.090
269.7725, 2671.895
270.2546, 2747.863
270.7367, 2827.185
271.2188, 2911.250
271.7009, 2997.967
272.1830, 3080.302
272.6652, 3156.758
273.1473, 3231.225
273.6294, 3306.149
274.1115, 3380.874
274.5936, 3460.596
275.0757, 3548.548
275.5579, 3640.645
276.0400, 3722.065
276.5221, 3791.195
277.0042, 3856.005
277.4863, 3921.001
277.9684, 3986.344
278.4506, 4050.366
278.9327, 4115.026
279.4148, 4175.714
279.8969, 4220.687
280.3790, 4248.278
280.8611, 4272.117
281.3433, 4298.059
281.8254, 4326.252
282.3075, 4358.154
282.7896, 4396.095
283.2717, 4433.242
283.7538, 4457.006
284.2360, 4466.954
284.7181, 4475.589
285.2002, 4493.207
285.6823, 4517.135
286.1644, 4522.114
286.6465, 4506.736
287.1287, 4477.438
287.6108, 4441.525
288.0929, 4398.907
288.5750, 4348.379
289.0571, 4290.542
289.5392, 4224.153
290.0214, 4144.132
290.5035, 4050.134
290.9856, 3948.801
291.4677, 3847.018
291.9498, 3743.859
292.4319, 3636.775
292.9141, 3521.830
293.3962, 3403.231
293.8783, 3291.019
294.3604, 3185.782
294.8425, 3082.392
295.3246, 2974.232
295.8068, 2862.864
296.2889, 2755.698
296.7710, 2653.460
297.2531, 2555.692
297.7352, 2464.060
298.2173, 2378.469
298.6995, 2294.293
299.1816, 2207.117
299.6637, 2119.481
300.1458, 2039.279
300.6279, 1968.162
301.1100, 1902.495
301.5922, 1838.144
302.0743, 1775.778
302.5564, 1718.402
303.0385, 1670.454
303.5206, 1627.386
304.0027, 1581.025
304.4849, 1529.873
304.9670, 1479.129
305.4491, 1434.646
305.9312, 1394.977
306.4133, 1356.637
306.8954, 1319.198
307.3776, 1281.505
307.8597, 1241.580
308.3418, 1198.475
308.8239, 1158.918
309.3060, 1130.938
309.7881, 1108.990
310.2703, 1085.223
310.7524, 1055.080
311.2345, 1022.632
311.7166, 989.4266
312.1987, 955.7004
312.6808, 925.7218
313.1630, 905.4391
313.6451, 888.5452
314.1272, 868.0369
314.6093, 837.0394
315.0914, 806.4893
315.5735, 782.6863
316.0557, 764.5884
316.5378, 746.6932
317.0199, 725.2519
317.5020, 704.0103
317.9841, 685.7088
318.4662, 674.3391
318.9484, 661.4943
319.4305, 642.6403
319.9126, 620.0587
320.3947, 599.7398
320.8768, 585.1848
321.3589, 571.9944
321.8411, 557.7228
322.3232, 541.1239
322.8053, 526.1283
323.2874, 514.8189
323.7695, 505.3315
324.2516, 494.7148
324.7338, 480.0720
325.2159, 466.4815
325.6980, 455.9472
326.1801, 449.3566
326.6622, 442.0541
327.1443, 432.6844
327.6265, 422.8552
328.1086, 414.1544
328.5907, 407.2778
329.0728, 400.8957
329.5549, 395.2408
330.0370, 390.3048
330.5192, 384.1820
331.0013, 375.2824
331.4834, 366.5001
331.9655, 359.8342
332.4476, 356.7303
332.9297, 353.2536
333.4119, 349.0575
333.8940, 344.2490
334.3761, 339.2994
334.8582, 334.1984
335.3403, 329.1377
335.8224, 324.1789
336.3046, 319.1699
336.7867, 314.7217
337.2688, 311.0192
337.7509, 307.7177
338.2330, 303.8572
338.7151, 299.0921
339.1973, 294.9654
339.6794, 292.4708
340.1615, 291.7737
340.6436, 289.2397
341.1257, 284.2155
341.6078, 278.8494
342.0899, 276.3822
342.5721, 277.1292
343.0542, 277.0689
343.5363, 274.7586
344.0184, 270.7453
344.5005, 267.2737
344.9826, 264.4096
345.4648, 261.8204
345.9469, 259.2991
346.4290, 256.8120
346.9111, 254.3624
347.3932, 251.8850
347.8753, 249.4900
348.3575, 247.4455
348.8396, 245.7439
349.3217, 244.2452
349.8038, 243.1209
350.2859, 242.1280
350.7680, 240.5256
351.2502, 238.0598
351.7323, 235.6166
352.2144, 234.7151
352.6965, 234.7748
353.1786, 234.0664
353.6607, 230.6208
354.1429, 226.4427
354.6250, 224.2518
355.1071, 224.2140
355.5892, 224.5155
356.0713, 223.9633
356.5534, 222.8102
357.0356, 221.4355
357.5177, 220.5401
357.9998, 218.9942
358.4819, 214.8958
358.9640, 208.8886
359.4461, 204.7008
359.9283, 206.3323
360.4104, 209.5204
360.8925, 210.6020
361.3746, 207.6902
361.8567, 204.4215
362.3388, 202.3129
362.8210, 200.9424
363.3031, 199.3036
363.7852, 195.9436
364.2673, 193.1574
364.7494, 192.3864
365.2315, 194.5600
365.7137, 195.8607
366.1958, 194.8954
366.6779, 192.8870
367.1600, 191.2640
367.6421, 190.4998
368.1242, 189.8099
368.6064, 189.2251
369.0885, 188.7677
369.5706, 187.6380
370.0527, 185.0216
370.5348, 182.3593
371.0169, 180.6053
371.4991, 180.5553
371.9812, 180.0621
372.4633, 178.6103
372.9454, 176.6273
373.4275, 175.7509
373.9096, 176.6449
374.3918, 177.4734
374.8739, 177.1957
375.3560, 175.3357
375.8381, 174.6753
376.3202, 175.7785
376.8023, 177.3564
377.2845, 177.0378
377.7666, 174.3047
378.2487, 172.6018
378.7308, 173.7126
379.2129, 177.0004
379.6950, 177.7028
380.1772, 175.4239
380.6593, 172.6263
381.1414, 171.5742
381.6235, 172.1258
382.1056, 172.9335
382.5877, 173.8280
383.0699, 174.6916
383.5520, 175.1192
384.0341, 175.1802
384.5162, 175.5343
384.9983, 177.1446
385.4804, 179.2838
385.9626, 180.2589
386.4447, 179.7668
386.9268, 178.8457
387.4089, 178.5846
387.8910, 178.7033
388.3731, 178.5779
388.8553, 177.4293
389.3374, 176.2210
389.8195, 176.1332
390.3016, 177.0981
390.7837, 177.8498
391.2658, 177.5596
391.7480, 176.6613
392.2301, 175.5361
392.7122, 173.6995
393.1943, 172.4706
393.6764, 172.6537
394.1585, 173.9751
394.6407, 175.6404
395.1228, 178.0974
395.6049, 180.2685
396.0870, 181.4886
396.5691, 181.2909
397.0512, 181.3981
397.5334, 182.4499
398.0155, 183.8860
398.4976, 184.9905
398.9797, 185.3064
399.4618, 185.7053
399.9439, 186.3768
400.4261, 187.3175
400.9082, 188.2092
401.3903, 188.8433
401.8724, 189.6212
402.3545, 190.8430
402.8366, 192.7735
403.3188, 194.5361
403.8009, 196.0463
404.2830, 197.3753
404.7651, 198.6909
405.2472, 199.9593
405.7293, 201.2798
406.2115, 202.7694
406.6936, 204.4296
407.1757, 205.6040
407.6578, 206.0334
408.1399, 206.6949
408.6220, 209.0781
409.1042, 213.1372
409.5863, 216.6947
410.0684, 218.9728
410.5505, 220.5391
411.0326, 223.1320
411.5147, 226.7146
411.9969, 229.8277
412.4790, 230.9016
412.9611, 230.7970
413.4432, 231.6343
413.9253, 233.8451
414.4074, 236.4710
414.8896, 238.1416
415.3717, 239.4113
415.8538, 241.5855
416.3359, 246.8322
416.8180, 252.2525
417.3001, 254.6434
417.7823, 254.0760
418.2644, 253.7054
418.7465, 256.1682
419.2286, 259.3520
419.7107, 261.1137
420.1928, 259.6465
420.6750, 258.3935
421.1571, 258.7687
421.6392, 260.3564
422.1213, 262.0777
422.6034, 264.7120
423.0855, 266.5049
423.5677, 266.4156
424.0498, 263.6128
424.5319, 261.6577
425.0140, 260.5272
425.4961, 260.5059
425.9782, 262.0031
426.4604, 267.2436
426.9425, 270.7050
427.4246, 270.9285
427.9067, 268.4823
428.3888, 267.2507
428.8709, 267.3034
429.3531, 268.4370
429.8352, 270.9983
430.3173, 275.5158
430.7994, 278.4816
431.2815, 279.5340
431.7636, 279.4349
432.2458, 279.1693
432.7279, 278.7075
433.2100, 278.5603
433.6921, 279.2339
434.1742, 280.3068
434.6563, 280.2204
435.1385, 278.9611
435.6206, 277.0117
436.1027, 274.1353
436.5848, 270.8712
437.0669, 268.9800
437.5490, 269.3365
438.0312, 269.7841
438.5133, 267.0054
438.9954, 262.1913
439.4775, 258.6451
439.9596, 259.5616
440.4417, 261.5609
440.9239, 261.0476
441.4060, 257.8151
441.8881, 255.5952
442.3702, 257.0411
442.8523, 260.3110
443.3344, 263.6691
443.8166, 267.0935
444.2987, 270.0190
444.7808, 272.3177
445.2629, 273.9879
445.7450, 275.0371
446.2271, 273.7608
446.7093, 273.3187
447.1914, 275.3452
447.6735, 281.1467
448.1556, 285.2145
448.6377, 286.3209
449.1198, 286.4819
449.6020, 287.9698
450.0841, 292.4045
450.5662, 294.5779
451.0483, 292.8238
451.5304, 288.2417
452.0125, 285.8029
452.4947, 285.8208
452.9768, 286.9496
453.4589, 288.7723
453.9410, 291.3292
454.4231, 293.0691
454.9052, 293.6478
455.3874, 294.4919
455.8695, 298.0715
456.3516, 303.9729
456.8337, 308.9691
457.3158, 311.5944
457.7979, 313.1286
458.2801, 315.3751
458.7622, 318.4082
459.2443, 322.9064
459.7264, 330.6552
460.2085, 339.6155
460.6906, 346.7608
461.1728, 351.2818
461.6549, 355.7395
462.1370, 362.0458
462.6191, 369.3663
463.1012, 376.3391
463.5833, 382.3876
464.0655, 388.0605
464.5476, 393.1960
465.0297, 397.9055
465.5118, 403.3062
465.9939, 410.6547
466.4760, 417.9587
466.9582, 423.9620
467.4403, 427.1283
467.9224, 431.7379
468.4045, 439.5608
468.8866, 448.1217
469.3687, 453.8480
469.8509, 455.0752
470.3330, 456.3055
470.8151, 458.5453
471.2972, 461.6966
471.7793, 464.4849
472.2614, 466.5216
472.7436, 469.3459
473.2257, 474.4479
473.7078, 481.8990
474.1899, 488.6317
474.6720, 494.3097
475.1541, 499.6247
475.6363, 504.7408
476.1184, 510.0038
476.6005, 517.7159
477.0826, 529.9503
477.5647, 544.4803
478.0468, 557.5092
478.5290, 569.2855
479.0111, 582.0732
479.4932, 599.2698
479.9753, 617.6008
480.4574, 632.3723
480.9395, 641.1742
481.4217, 651.7880
481.9038, 669.1823
482.3859, 691.1681
482.8680, 714.3771
483.3501, 739.1805
483.8322, 763.5702
484.3144, 786.0226
484.7965, 806.6132
485.2786, 829.5077
485.7607, 855.3000
486.2428, 883.2892
486.7249, 913.3204
487.2071, 945.9422
487.6892, 978.7002
488.1713, 1011.669
488.6534, 1044.683
489.1355, 1077.988
489.6176, 1111.778
490.0998, 1145.859
490.5819, 1180.433
491.0640, 1215.840
491.5461, 1252.613
492.0282, 1290.910
492.5103, 1330.966
492.9925, 1372.012
493.4746, 1414.920
493.9567, 1461.971
494.4388, 1514.889
494.9209, 1567.145
495.4030, 1611.112
495.8852, 1648.876
496.3673, 1687.055
496.8494, 1729.256
497.3315, 1771.242
497.8136, 1810.185
498.2957, 1845.966
498.7779, 1876.545
499.2600, 1902.965
499.7421, 1922.774
500.2242, 1934.287
500.7063, 1937.213
501.1884, 1932.876
501.6706, 1921.914
502.1527, 1903.900
502.6348, 1878.479
503.1169, 1841.596
503.5990, 1802.145
504.0811, 1763.456
504.5633, 1723.607
505.0454, 1672.998
505.5275, 1606.105
506.0096, 1539.409
506.4917, 1479.624
506.9738, 1426.623
507.4560, 1375.863
507.9381, 1327.376
508.4202, 1281.009
508.9023, 1236.831
509.3844, 1194.790
509.8665, 1153.882
510.3487, 1113.607
510.8308, 1074.963
511.3129, 1040.007
511.7950, 1008.332
512.2772, 978.0328
512.7593, 948.0690
513.2414, 919.0077
513.7235, 891.2216
514.2056, 864.6893
514.6877, 838.8431
515.1699, 813.8870
515.6520, 789.1454
516.1341, 763.9528
516.6162, 737.7758
517.0983, 711.7805
517.5804, 685.1246
518.0626, 658.9379
518.5447, 635.0762
519.0268, 615.8077
519.5089, 596.7302
519.9910, 577.0130
520.4731, 556.6440
520.9553, 536.2996
521.4374, 515.2360
521.9195, 495.6424
522.4016, 478.8802
522.8837, 465.4679
523.3658, 453.2015
523.8480, 442.4580
524.3301, 431.9843
524.8122, 419.6295
525.2943, 405.6419
525.7764, 393.2660
526.2585, 383.6704
526.7407, 375.8629
527.2228, 368.0538
527.7049, 360.2469
528.1870, 352.7094
528.6691, 345.4890
529.1512, 338.5775
529.6334, 331.8630
530.1155, 325.2648
530.5976, 319.2450
531.0797, 314.4068
531.5618, 310.0294
532.0439, 305.4283
532.5261, 299.7910
533.0082, 294.7541
533.4903, 291.2310
533.9724, 288.5023
534.4545, 284.9349
534.9366, 279.9509
535.4188, 274.6097
535.9009, 268.6365
536.3830, 262.0955
536.8651, 258.0977
537.3472, 257.8805
537.8293, 257.7914
538.3115, 255.1530
538.7936, 249.7464
539.2757, 245.0769
539.7578, 241.3147
540.2399, 238.3924
540.7220, 236.5967
541.2042, 235.7169
541.6863, 234.3703
542.1684, 231.8294
542.6505, 228.9460
543.1326, 227.0895
543.6147, 226.0029
544.0969, 224.6579
544.5790, 222.0342
545.0611, 219.2126
545.5432, 217.0680
546.0253, 215.6943
546.5074, 214.6778
546.9896, 214.2179
547.4717, 213.8474
547.9538, 213.1934
548.4359, 212.2389
548.9180, 210.9322
549.4001, 209.1790
549.8823, 207.1018
550.3644, 204.8466
550.8465, 202.0726
551.3286, 199.7164
551.8107, 197.9869
552.2928, 196.8632
552.7750, 196.4975
553.2571, 197.1398
553.7392, 197.3137
554.2213, 195.2730
554.7034, 191.6553
555.1855, 190.4953
555.6677, 192.2480
556.1498, 194.4719
556.6319, 194.2480
557.1140, 192.6105
557.5961, 191.7857
558.0782, 192.9635
558.5604, 194.2084
559.0425, 193.6061
559.5246, 191.8776
560.0067, 190.6281
560.4888, 190.6231
560.9709, 191.1547
561.4531, 192.3314
561.9352, 194.1324
562.4173, 194.8877
562.8994, 193.1938
563.3815, 191.3542
563.8636, 190.4717
564.3458, 190.7043
564.8279, 191.6480
565.3100, 193.8821
565.7921, 196.1134
566.2742, 196.1857
566.7563, 193.7480
567.2385, 192.6875
567.7206, 194.1084
568.2027, 197.0381
568.6848, 199.8745
569.1669, 202.5258
569.6490, 203.9812
570.1312, 202.2098
570.6133, 199.6171
571.0954, 200.1325
571.5775, 203.6579
572.0596, 207.2647
572.5417, 209.2587
573.0239, 210.4241
573.5060, 211.2395
573.9881, 211.4192
574.4702, 212.3155
574.9523, 214.6917
575.4344, 217.8942
575.9166, 221.0690
576.3987, 224.3498
576.8808, 227.3740
577.3629, 229.8461
577.8450, 232.0788
578.3271, 235.2685
578.8093, 239.7714
579.2914, 244.1125
579.7735, 247.3639
580.2556, 249.7503
580.7377, 253.5879
581.2198, 258.9570
581.7020, 264.7061
582.1841, 270.1528
582.6662, 275.2060
583.1483, 279.1888
583.6304, 281.5166
584.1125, 285.2005
584.5947, 294.6703
585.0768, 306.7344
585.5589, 316.6840
586.0410, 320.4970
586.5231, 324.6104
587.0052, 332.4640
587.4873, 342.7123
587.9694, 351.5821
588.4515, 357.4804
588.9337, 362.8781
589.4158, 367.8938
589.8979, 372.5139
590.3800, 379.7242
590.8621, 390.6888
591.3442, 402.2251
591.8264, 412.2896
592.3085, 420.8586
592.7906, 428.7257
593.2727, 435.6664
593.7548, 442.8609
594.2369, 452.8604
594.7191, 464.6447
595.2012, 473.8951
595.6833, 478.9138
596.1654, 482.4272
596.6475, 487.6510
597.1296, 493.6803
597.6118, 498.5419
598.0939, 499.7763
598.5760, 500.9971
599.0581, 505.0577
599.5402, 511.4636
600.0223, 515.9034
600.5045, 517.8739
600.9866, 517.2047
601.4687, 513.4086
601.9508, 505.5597
602.4329, 498.8871
602.9150, 494.3892
603.3972, 489.7411
603.8793, 482.2659
604.3614, 471.4705
604.8435, 463.1598
605.3256, 458.9123
605.8077, 455.3862
606.2899, 446.6830
606.7720, 433.7937
607.2541, 421.7723
607.7362, 412.8319
608.2183, 405.2855
608.7004, 397.8182
609.1826, 390.2526
609.6647, 382.2469
610.1468, 373.0333
610.6289, 363.6584
611.1110, 354.8165
611.5931, 346.4437
612.0753, 338.4265
612.5574, 330.7702
613.0395, 323.3561
613.5216, 316.1360
614.0037, 309.0814
614.4858, 301.9887
614.9680, 294.3830
615.4501, 287.3728
