##NAMES=Paralaurionite
##RRUFFID=R100178
##IDEAL CHEMISTRY=Pb^2+^Cl(OH)
##LOCALITY=Sierra Gorda, Antofagasta Province, Chile
##OWNER=RRUFF
##SOURCE=Bob Jenkins
##DESCRIPTION=Clear to pale violet melted looking blobs or elongated tabular crystals, associated with clear to white hexagonal prismatic penfieldite, blue tabular pseudoboleite, and colorless tabular gypsum.
##STATUS=The identification of this mineral has been confirmed by single-crystal X-ray diffraction.
##URL=rruff.info/R100178
158.5316, 1429.757
159.0137, 1442.180
159.4958, 1454.238
159.9779, 1467.431
160.4600, 1481.380
160.9422, 1494.835
161.4243, 1506.682
161.9064, 1518.297
162.3885, 1530.522
162.8706, 1543.565
163.3527, 1557.449
163.8349, 1572.015
164.3170, 1587.414
164.7991, 1604.379
165.2812, 1624.260
165.7633, 1645.428
166.2454, 1666.392
166.7276, 1685.927
167.2097, 1705.829
167.6918, 1727.516
168.1739, 1750.693
168.6560, 1774.519
169.1381, 1799.941
169.6203, 1824.630
170.1024, 1834.343
170.5845, 1833.807
171.0666, 1832.282
171.5487, 1832.298
172.0309, 1833.741
172.5130, 1834.764
172.9951, 1834.459
173.4772, 1832.889
173.9593, 1830.106
174.4414, 1826.077
174.9236, 1820.915
175.4057, 1814.209
175.8878, 1805.862
176.3699, 1797.933
176.8520, 1792.364
177.3341, 1788.372
177.8163, 1784.285
178.2984, 1779.781
178.7805, 1774.624
179.2626, 1768.131
179.7447, 1760.298
180.2268, 1752.235
180.7090, 1744.683
181.1911, 1737.785
181.6732, 1732.131
182.1553, 1729.412
182.6374, 1727.950
183.1195, 1723.911
183.6017, 1716.852
184.0838, 1709.035
184.5659, 1702.203
185.0480, 1696.490
185.5301, 1692.345
186.0123, 1691.305
186.4944, 1692.113
186.9765, 1690.624
187.4586, 1686.336
187.9407, 1680.974
188.4228, 1677.018
188.9050, 1674.322
189.3871, 1671.303
189.8692, 1666.706
190.3513, 1660.972
190.8334, 1656.328
191.3155, 1653.068
191.7977, 1650.510
192.2798, 1647.637
192.7619, 1644.463
193.2440, 1641.339
193.7261, 1638.398
194.2082, 1635.667
194.6904, 1633.236
195.1725, 1631.300
195.6546, 1629.350
196.1367, 1626.300
196.6188, 1622.049
197.1009, 1617.908
197.5831, 1614.509
198.0652, 1611.811
198.5473, 1609.630
199.0294, 1607.935
199.5115, 1606.730
199.9937, 1606.141
200.4758, 1606.221
200.9579, 1606.463
201.4400, 1606.561
201.9221, 1606.479
202.4042, 1606.666
202.8864, 1607.413
203.3685, 1608.150
203.8506, 1607.428
204.3327, 1605.033
204.8148, 1602.075
205.2969, 1598.720
205.7791, 1594.678
206.2612, 1592.440
206.7433, 1592.619
207.2254, 1594.310
207.7075, 1595.408
208.1896, 1596.035
208.6718, 1595.740
209.1539, 1593.986
209.6360, 1590.412
210.1181, 1587.096
210.6002, 1583.366
211.0823, 1580.404
211.5645, 1582.681
212.0466, 1593.016
212.5287, 1602.040
213.0108, 1603.863
213.4929, 1596.152
213.9750, 1590.609
214.4572, 1588.089
214.9393, 1588.053
215.4214, 1589.232
215.9035, 1592.498
216.3856, 1595.188
216.8678, 1595.540
217.3499, 1592.599
217.8320, 1590.233
218.3141, 1588.110
218.7962, 1586.762
219.2783, 1588.656
219.7605, 1596.085
220.2426, 1602.452
220.7247, 1603.539
221.2068, 1596.565
221.6889, 1592.433
222.1710, 1593.031
222.6532, 1596.449
223.1353, 1596.246
223.6174, 1590.008
224.0995, 1584.239
224.5816, 1582.636
225.0637, 1587.583
225.5459, 1590.573
226.0280, 1590.709
226.5101, 1588.889
226.9922, 1587.848
227.4743, 1588.033
227.9564, 1588.282
228.4386, 1587.984
228.9207, 1586.819
229.4028, 1585.808
229.8849, 1584.680
230.3670, 1583.754
230.8492, 1584.090
231.3313, 1586.600
231.8134, 1588.979
232.2955, 1590.022
232.7776, 1588.591
233.2597, 1588.521
233.7419, 1590.250
234.2240, 1593.282
234.7061, 1596.298
235.1882, 1599.342
235.6703, 1602.360
236.1524, 1605.480
236.6346, 1609.223
237.1167, 1611.769
237.5988, 1612.352
238.0809, 1612.026
238.5630, 1613.284
239.0451, 1616.537
239.5273, 1620.707
240.0094, 1625.313
240.4915, 1630.120
240.9736, 1636.004
241.4557, 1643.529
241.9378, 1651.861
242.4200, 1659.277
242.9021, 1665.611
243.3842, 1671.350
243.8663, 1676.527
244.3484, 1680.716
244.8306, 1685.520
245.3127, 1690.446
245.7948, 1696.195
246.2769, 1704.217
246.7590, 1715.355
247.2411, 1727.194
247.7233, 1738.937
248.2054, 1750.499
248.6875, 1762.267
249.1696, 1773.483
249.6517, 1785.312
250.1338, 1799.764
250.6160, 1818.036
251.0981, 1836.861
251.5802, 1854.861
252.0623, 1871.671
252.5444, 1890.064
253.0265, 1909.796
253.5087, 1931.205
253.9908, 1954.627
254.4729, 1981.321
254.9550, 2007.763
255.4371, 2032.594
255.9192, 2055.077
256.4014, 2080.136
256.8835, 2108.311
257.3656, 2138.538
257.8477, 2170.627
258.3298, 2205.511
258.8120, 2240.291
259.2941, 2274.109
259.7762, 2306.931
260.2583, 2341.759
260.7404, 2379.718
261.2225, 2418.623
261.7047, 2456.959
262.1868, 2494.129
262.6689, 2532.458
263.1510, 2573.116
263.6331, 2615.665
264.1152, 2658.075
264.5974, 2699.964
265.0795, 2741.885
265.5616, 2783.393
266.0437, 2825.488
266.5258, 2866.211
267.0079, 2905.769
267.4901, 2944.159
267.9722, 2977.815
268.4543, 3006.859
268.9364, 3031.815
269.4185, 3053.495
269.9006, 3072.366
270.3828, 3085.931
270.8649, 3093.130
271.3470, 3094.854
271.8291, 3096.200
272.3112, 3098.487
272.7933, 3096.721
273.2755, 3087.493
273.7576, 3070.629
274.2397, 3047.385
274.7218, 3017.351
275.2039, 2981.410
275.6860, 2942.249
276.1682, 2899.452
276.6503, 2853.631
277.1324, 2804.648
277.6145, 2752.897
278.0966, 2699.025
278.5787, 2642.536
279.0609, 2585.052
279.5430, 2528.351
280.0251, 2472.417
280.5072, 2419.536
280.9893, 2372.068
281.4715, 2330.385
281.9536, 2286.248
282.4357, 2238.069
282.9178, 2189.680
283.3999, 2147.727
283.8820, 2112.344
284.3642, 2079.993
284.8463, 2049.286
285.3284, 2020.061
285.8105, 1992.745
286.2926, 1967.302
286.7747, 1943.158
287.2569, 1919.057
287.7390, 1895.063
288.2211, 1873.403
288.7032, 1855.819
289.1853, 1841.462
289.6674, 1825.715
290.1496, 1808.135
290.6317, 1791.633
291.1138, 1780.471
291.5959, 1773.885
292.0780, 1766.743
292.5602, 1756.505
293.0423, 1744.851
293.5244, 1736.406
294.0065, 1731.336
294.4886, 1726.968
294.9707, 1720.260
295.4529, 1712.029
295.9350, 1705.368
296.4171, 1701.191
296.8992, 1698.817
297.3813, 1697.390
297.8634, 1696.872
298.3456, 1696.786
298.8277, 1697.253
299.3098, 1697.868
299.7919, 1697.367
300.2740, 1694.602
300.7561, 1692.228
301.2383, 1694.326
301.7204, 1700.190
302.2025, 1706.504
302.6846, 1710.939
303.1667, 1714.600
303.6488, 1719.132
304.1310, 1724.661
304.6131, 1731.337
305.0952, 1739.855
305.5773, 1749.672
306.0594, 1759.284
306.5415, 1767.226
307.0237, 1774.940
307.5058, 1783.645
307.9879, 1793.222
308.4700, 1805.100
308.9521, 1821.782
309.4343, 1841.416
309.9164, 1861.072
310.3985, 1879.155
310.8806, 1897.191
311.3627, 1915.777
311.8448, 1935.091
312.3270, 1956.536
312.8091, 1982.463
313.2912, 2010.557
313.7733, 2038.089
314.2554, 2062.812
314.7375, 2087.838
315.2197, 2114.938
315.7018, 2144.132
316.1839, 2173.431
316.6660, 2201.292
317.1481, 2229.392
317.6302, 2258.745
318.1124, 2289.748
318.5945, 2322.048
319.0766, 2355.743
319.5587, 2390.788
320.0408, 2427.488
320.5229, 2466.262
321.0051, 2506.479
321.4872, 2547.948
321.9693, 2590.130
322.4514, 2633.637
322.9335, 2679.130
323.4156, 2725.966
323.8978, 2772.910
324.3799, 2820.422
324.8620, 2867.431
325.3441, 2914.550
325.8262, 2963.072
326.3083, 3006.231
326.7905, 3045.539
327.2726, 3078.695
327.7547, 3102.407
328.2368, 3114.480
328.7189, 3119.596
329.2010, 3119.619
329.6832, 3115.176
330.1653, 3099.270
330.6474, 3070.730
331.1295, 3031.611
331.6116, 2982.599
332.0938, 2917.724
332.5759, 2852.138
333.0580, 2788.319
333.5401, 2725.394
334.0222, 2661.190
334.5043, 2593.332
334.9865, 2526.700
335.4686, 2463.378
335.9507, 2403.031
336.4328, 2346.550
336.9149, 2294.046
337.3970, 2244.591
337.8792, 2197.632
338.3613, 2152.477
338.8434, 2109.864
339.3255, 2069.301
339.8076, 2030.289
340.2898, 1996.843
340.7719, 1969.832
341.2540, 1946.439
341.7361, 1921.438
342.2182, 1894.851
342.7003, 1870.662
343.1825, 1851.365
343.6646, 1836.001
344.1467, 1818.856
344.6288, 1799.232
345.1109, 1780.561
345.5930, 1766.686
346.0752, 1757.319
346.5573, 1747.836
347.0394, 1736.936
347.5215, 1725.290
348.0036, 1713.754
348.4857, 1702.389
348.9679, 1691.955
349.4500, 1683.278
349.9321, 1675.897
350.4142, 1668.447
350.8963, 1660.534
351.3784, 1652.868
351.8606, 1646.830
352.3427, 1642.076
352.8248, 1637.185
353.3069, 1630.622
353.7890, 1623.811
354.2711, 1618.904
354.7533, 1616.275
355.2354, 1613.869
355.7175, 1610.386
356.1996, 1605.913
356.6817, 1600.596
357.1638, 1592.606
357.6460, 1585.168
358.1281, 1581.521
358.6102, 1581.367
359.0923, 1580.549
359.5744, 1576.092
360.0565, 1570.118
360.5387, 1564.654
361.0208, 1560.124
361.5029, 1556.363
361.9850, 1553.760
362.4671, 1551.977
362.9492, 1550.004
363.4314, 1546.883
363.9135, 1543.927
364.3956, 1541.993
364.8777, 1541.779
365.3598, 1541.201
365.8419, 1539.782
366.3241, 1537.759
366.8062, 1535.486
367.2883, 1532.215
367.7704, 1529.461
368.2526, 1527.978
368.7347, 1528.168
369.2168, 1527.253
369.6989, 1523.745
370.1810, 1520.001
370.6631, 1517.965
371.1453, 1518.896
371.6274, 1519.696
372.1095, 1520.280
372.5916, 1520.530
373.0737, 1519.525
373.5558, 1516.327
374.0380, 1513.243
374.5201, 1511.698
375.0022, 1512.398
375.4843, 1512.279
375.9664, 1510.991
376.4485, 1509.059
376.9307, 1507.490
377.4128, 1506.376
377.8949, 1505.273
378.3770, 1503.902
378.8591, 1502.300
379.3412, 1501.307
379.8234, 1501.058
380.3055, 1500.958
380.7876, 1500.567
381.2697, 1499.859
381.7518, 1498.324
382.2339, 1495.616
382.7161, 1492.194
383.1982, 1488.768
383.6803, 1485.393
384.1624, 1482.693
384.6445, 1480.940
385.1266, 1480.251
385.6088, 1481.356
386.0909, 1484.913
386.5730, 1488.546
387.0551, 1489.535
387.5372, 1488.321
388.0193, 1486.154
388.5015, 1482.807
388.9836, 1479.304
389.4657, 1476.781
389.9478, 1475.309
390.4299, 1474.256
390.9120, 1473.528
391.3942, 1472.853
391.8763, 1471.907
392.3584, 1470.178
392.8405, 1468.531
393.3226, 1467.609
393.8047, 1467.227
394.2869, 1466.535
394.7690, 1464.104
395.2511, 1462.012
395.7332, 1461.791
396.2154, 1465.035
396.6975, 1467.318
397.1796, 1466.884
397.6617, 1465.057
398.1438, 1464.112
398.6259, 1465.600
399.1081, 1466.763
399.5902, 1466.670
400.0723, 1465.076
400.5544, 1463.790
401.0365, 1462.659
401.5186, 1461.910
402.0008, 1461.832
402.4829, 1463.123
402.9650, 1463.665
403.4471, 1462.868
403.9292, 1461.133
404.4113, 1460.267
404.8935, 1460.612
405.3756, 1461.029
405.8577, 1460.853
406.3398, 1459.970
406.8219, 1459.588
407.3040, 1460.031
407.7862, 1460.426
408.2683, 1459.059
408.7504, 1455.869
409.2325, 1453.583
409.7146, 1453.597
410.1967, 1455.149
410.6789, 1455.540
411.1610, 1454.748
411.6431, 1453.844
412.1252, 1453.634
412.6073, 1454.046
413.0894, 1454.886
413.5716, 1456.114
414.0537, 1457.718
414.5358, 1460.148
415.0179, 1463.024
415.5000, 1465.206
415.9821, 1465.679
416.4643, 1465.285
416.9464, 1464.801
417.4285, 1464.260
417.9106, 1463.622
418.3927, 1462.854
418.8748, 1461.941
419.3570, 1460.885
419.8391, 1458.590
420.3212, 1457.193
420.8033, 1458.109
421.2854, 1460.891
421.7675, 1463.412
422.2497, 1465.398
422.7318, 1466.712
423.2139, 1467.197
423.6960, 1466.510
424.1781, 1465.787
424.6602, 1464.880
425.1424, 1464.111
425.6245, 1463.945
426.1066, 1464.498
426.5887, 1465.523
427.0709, 1467.175
427.5530, 1469.444
428.0351, 1471.152
428.5172, 1472.084
428.9993, 1472.743
429.4814, 1473.583
429.9636, 1474.827
430.4457, 1475.238
430.9278, 1474.381
431.4099, 1472.956
431.8920, 1472.462
432.3741, 1472.946
432.8563, 1473.961
433.3384, 1475.848
433.8205, 1478.293
434.3026, 1478.760
434.7847, 1477.041
435.2668, 1475.026
435.7490, 1474.662
436.2311, 1475.617
436.7132, 1476.734
437.1953, 1477.685
437.6774, 1478.695
438.1595, 1480.420
438.6417, 1482.611
439.1238, 1484.234
439.6059, 1484.115
440.0880, 1483.404
440.5701, 1483.548
441.0522, 1484.900
441.5344, 1485.764
442.0165, 1484.579
442.4986, 1482.462
442.9807, 1480.779
443.4628, 1479.792
443.9449, 1479.504
444.4271, 1480.377
444.9092, 1482.145
445.3913, 1483.361
445.8734, 1483.036
446.3555, 1482.514
446.8376, 1482.456
447.3198, 1483.116
447.8019, 1483.827
448.2840, 1484.748
448.7661, 1485.624
449.2482, 1486.120
449.7303, 1486.313
450.2125, 1485.982
450.6946, 1484.971
451.1767, 1483.327
451.6588, 1481.522
452.1409, 1479.071
452.6230, 1477.564
453.1052, 1478.956
453.5873, 1483.656
454.0694, 1485.608
454.5515, 1483.719
455.0337, 1480.205
455.5158, 1478.753
455.9979, 1479.231
456.4800, 1479.945
456.9621, 1480.000
457.4442, 1479.840
457.9264, 1480.756
458.4085, 1482.704
458.8906, 1484.547
459.3727, 1485.397
459.8548, 1485.525
460.3369, 1485.226
460.8191, 1484.306
461.3012, 1483.622
461.7833, 1484.004
462.2654, 1485.137
462.7475, 1486.352
463.2296, 1487.375
463.7118, 1488.401
464.1939, 1489.470
464.6760, 1490.584
465.1581, 1491.928
465.6402, 1494.403
466.1223, 1496.572
466.6045, 1497.378
467.0866, 1494.870
467.5687, 1493.178
468.0508, 1492.268
468.5329, 1492.314
469.0150, 1493.971
469.4972, 1499.244
469.9793, 1503.025
470.4614, 1503.205
470.9435, 1499.548
471.4256, 1497.155
471.9077, 1496.015
472.3899, 1496.208
472.8720, 1498.412
473.3541, 1502.943
473.8362, 1506.155
474.3183, 1507.527
474.8004, 1507.436
475.2826, 1505.849
475.7647, 1502.931
476.2468, 1501.046
476.7289, 1502.010
477.2110, 1504.730
477.6931, 1506.967
478.1753, 1508.701
478.6574, 1509.906
479.1395, 1510.747
479.6216, 1510.992
480.1037, 1510.109
480.5858, 1507.212
481.0680, 1504.575
481.5501, 1504.075
482.0322, 1504.980
482.5143, 1505.765
482.9964, 1505.369
483.4786, 1505.152
483.9607, 1506.010
484.4428, 1508.098
484.9249, 1509.706
485.4070, 1509.393
485.8892, 1509.184
486.3713, 1510.618
486.8534, 1516.699
487.3355, 1519.896
487.8176, 1518.465
488.2997, 1514.563
488.7819, 1512.793
489.2640, 1513.834
489.7461, 1515.493
490.2282, 1517.368
490.7103, 1519.389
491.1924, 1519.987
491.6746, 1518.824
492.1567, 1517.582
492.6388, 1517.842
493.1209, 1519.439
493.6030, 1520.954
494.0851, 1522.233
494.5673, 1523.289
495.0494, 1524.148
495.5315, 1524.802
496.0136, 1525.207
496.4957, 1524.917
496.9778, 1524.635
497.4600, 1525.506
497.9421, 1527.380
498.4242, 1528.733
498.9063, 1528.260
499.3884, 1527.114
499.8705, 1526.249
500.3527, 1525.868
500.8348, 1525.763
501.3169, 1526.498
501.7990, 1527.309
502.2811, 1527.120
502.7632, 1523.753
503.2454, 1521.525
503.7275, 1522.148
504.2096, 1525.259
504.6917, 1526.647
505.1738, 1524.777
505.6559, 1523.282
506.1381, 1524.491
506.6202, 1529.586
507.1023, 1532.424
507.5844, 1532.313
508.0665, 1531.229
508.5486, 1532.200
509.0308, 1535.301
509.5129, 1537.086
509.9950, 1536.075
510.4771, 1533.761
510.9592, 1533.283
511.4413, 1534.520
511.9235, 1536.466
512.4056, 1539.272
512.8877, 1542.053
513.3698, 1543.279
513.8519, 1542.735
514.3340, 1542.019
514.8162, 1541.771
515.2983, 1542.216
515.7804, 1543.724
516.2625, 1548.042
516.7446, 1551.396
517.2267, 1551.600
517.7089, 1549.723
518.1910, 1548.349
518.6731, 1548.225
519.1552, 1548.554
519.6373, 1549.272
520.1194, 1550.465
520.6016, 1551.084
521.0837, 1550.384
521.5658, 1549.904
522.0479, 1551.086
522.5300, 1554.814
523.0121, 1556.678
523.4943, 1555.762
523.9764, 1553.669
524.4585, 1553.278
524.9406, 1554.622
525.4227, 1556.284
525.9048, 1557.770
526.3870, 1559.224
526.8691, 1561.281
527.3513, 1563.889
527.8334, 1566.105
528.3155, 1567.384
528.7976, 1567.828
529.2797, 1567.391
529.7618, 1565.926
530.2440, 1564.482
530.7261, 1563.383
531.2082, 1562.869
531.6903, 1563.261
532.1724, 1564.997
532.6545, 1567.285
533.1367, 1570.286
533.6188, 1573.714
534.1009, 1576.685
534.5830, 1579.872
535.0651, 1581.740
535.5472, 1581.332
536.0294, 1578.152
536.5115, 1576.334
536.9936, 1576.304
537.4757, 1577.052
537.9578, 1577.863
538.4399, 1578.796
538.9221, 1579.384
539.4042, 1579.389
539.8863, 1579.371
540.3684, 1580.849
540.8505, 1583.619
541.3326, 1585.215
541.8148, 1583.638
542.2969, 1580.865
542.7790, 1580.641
543.2611, 1582.711
543.7432, 1584.969
544.2253, 1585.467
544.7075, 1585.713
545.1896, 1587.470
545.6717, 1591.245
546.1538, 1595.015
546.6359, 1598.688
547.1180, 1601.480
547.6002, 1602.504
548.0823, 1598.822
548.5644, 1596.500
549.0465, 1597.430
549.5286, 1600.530
550.0107, 1602.645
550.4929, 1603.128
550.9750, 1603.544
551.4571, 1604.168
551.9392, 1604.996
552.4213, 1607.347
552.9034, 1611.879
553.3856, 1615.899
553.8677, 1616.578
554.3498, 1614.266
554.8319, 1613.425
555.3140, 1614.736
555.7961, 1616.696
556.2783, 1616.919
556.7604, 1616.158
557.2425, 1616.624
557.7246, 1620.223
558.2067, 1624.295
558.6888, 1625.984
559.1710, 1625.901
559.6531, 1626.062
560.1352, 1627.508
560.6173, 1629.462
561.0994, 1631.786
561.5815, 1634.635
562.0637, 1636.405
562.5458, 1635.796
563.0279, 1634.620
563.5100, 1634.125
563.9921, 1633.797
564.4742, 1635.125
564.9564, 1638.642
565.4385, 1643.376
565.9206, 1647.877
566.4027, 1652.180
566.8848, 1655.675
567.3669, 1657.659
567.8491, 1658.942
568.3312, 1662.877
568.8133, 1669.305
569.2954, 1674.456
569.7775, 1674.831
570.2596, 1672.553
570.7418, 1671.246
571.2239, 1671.123
571.7060, 1671.855
572.1881, 1673.635
572.6702, 1675.937
573.1523, 1678.219
573.6345, 1680.333
574.1166, 1682.405
574.5987, 1684.628
575.0808, 1686.790
575.5629, 1688.576
576.0450, 1689.198
576.5272, 1690.220
577.0093, 1691.964
577.4914, 1694.351
577.9735, 1697.070
578.4556, 1700.533
578.9377, 1703.458
579.4199, 1705.087
579.9020, 1705.389
580.3841, 1705.782
580.8662, 1706.216
581.3483, 1707.101
581.8304, 1708.974
582.3126, 1711.660
582.7947, 1714.754
583.2768, 1718.511
583.7589, 1721.646
584.2410, 1721.229
584.7231, 1719.288
585.2053, 1719.848
585.6874, 1727.007
586.1696, 1734.836
586.6517, 1740.715
587.1338, 1744.661
587.6159, 1747.026
588.0980, 1746.518
588.5801, 1745.598
589.0623, 1745.292
589.5444, 1745.711
590.0265, 1745.956
590.5086, 1745.671
590.9907, 1745.696
591.4728, 1746.982
591.9550, 1749.896
592.4371, 1751.781
592.9192, 1752.297
593.4013, 1752.174
593.8834, 1752.615
594.3655, 1753.477
594.8477, 1753.659
595.3298, 1752.590
595.8119, 1750.992
596.2940, 1749.540
596.7761, 1748.325
597.2582, 1747.605
597.7404, 1747.651
598.2225, 1748.097
598.7046, 1748.893
599.1867, 1749.989
599.6688, 1750.591
600.1509, 1750.603
600.6331, 1749.895
601.1152, 1748.264
601.5973, 1745.146
602.0794, 1742.339
602.5615, 1739.509
603.0436, 1737.330
603.5258, 1737.066
604.0079, 1739.362
604.4900, 1740.097
604.9721, 1738.344
605.4542, 1735.167
605.9363, 1731.748
606.4185, 1728.385
606.9006, 1727.466
607.3827, 1733.194
607.8648, 1740.099
608.3469, 1738.537
608.8290, 1729.957
609.3112, 1722.571
609.7933, 1722.395
610.2754, 1724.402
610.7575, 1724.595
611.2396, 1722.188
611.7217, 1720.622
612.2039, 1722.497
612.6860, 1724.502
613.1681, 1723.991
613.6502, 1718.501
614.1323, 1714.718
614.6144, 1713.464
615.0966, 1713.278
615.5787, 1711.861
616.0608, 1708.939
616.5429, 1706.680
617.0250, 1705.853
617.5071, 1705.718
617.9893, 1704.638
618.4714, 1702.699
618.9535, 1700.531
619.4356, 1698.473
619.9177, 1696.357
620.3998, 1693.264
620.8820, 1689.477
621.3641, 1687.404
621.8462, 1690.135
622.3283, 1693.870
622.8104, 1695.868
623.2925, 1695.548
623.7747, 1694.443
624.2568, 1691.121
624.7389, 1688.169
625.2210, 1687.888
625.7031, 1692.332
626.1852, 1694.740
626.6674, 1694.048
627.1495, 1691.947
627.6316, 1691.216
628.1137, 1691.904
628.5958, 1692.804
629.0779, 1693.781
629.5601, 1694.553
630.0422, 1694.482
630.5243, 1693.684
631.0064, 1692.626
631.4885, 1691.323
631.9706, 1690.082
632.4528, 1688.814
632.9349, 1687.661
633.4170, 1687.812
633.8991, 1692.234
634.3812, 1696.292
634.8633, 1696.691
635.3455, 1691.202
635.8276, 1688.197
636.3097, 1688.865
636.7918, 1691.149
637.2739, 1693.470
637.7560, 1695.822
638.2382, 1698.170
638.7203, 1700.682
639.2024, 1702.731
639.6845, 1702.749
640.1666, 1701.058
640.6487, 1700.580
641.1309, 1702.752
641.6130, 1705.705
642.0951, 1706.656
642.5772, 1706.193
643.0594, 1705.970
643.5415, 1707.063
644.0236, 1708.403
644.5057, 1709.528
644.9879, 1710.412
645.4700, 1710.908
645.9521, 1710.993
646.4342, 1710.741
646.9163, 1710.276
647.3984, 1709.383
647.8806, 1708.532
648.3627, 1706.712
648.8448, 1704.694
649.3269, 1702.555
649.8090, 1700.327
650.2911, 1699.397
650.7733, 1699.976
651.2554, 1701.379
651.7375, 1703.083
652.2196, 1704.965
652.7017, 1706.754
