##NAMES=Parascholzite
##RRUFFID=R060806
##IDEAL CHEMISTRY=CaZn^2+^_2_(P^5+^O_4_)_2_&#183;2H_2_O
##LOCALITY=Tip Top mine, Fourmile, Custer District, Custer County, South Dakota, USA
##OWNER=RRUFF
##SOURCE=Michael Scott
##DESCRIPTION=Radial spray of colorless elongated flattened prismatic crystals
##STATUS=The identification of this mineral has been confirmed by single-crystal X-ray diffraction.
##URL=rruff.info/R060806
166.846, 12054.960
167.329, 12047.230
167.811, 12034.610
168.293, 12021.360
168.775, 12001.950
169.257, 11966.040
169.739, 11906.140
170.221, 11824.090
170.703, 11739.630
171.185, 11642.010
171.668, 11553.950
172.150, 11492.500
172.632, 11445.860
173.114, 11389.690
173.596, 11306.090
174.078, 11197.210
174.560, 11102.560
175.042, 11024.790
175.525, 10955.560
176.007, 10888.330
176.489, 10827.310
176.971, 10784.390
177.453, 10769.460
177.935, 10780.500
178.417, 10778.960
178.899, 10754.760
179.381, 10730.590
179.863, 10712.380
180.346, 10700.130
180.828, 10694.140
181.310, 10696.440
181.792, 10705.720
182.274, 10697.250
182.756, 10653.580
183.238, 10613.910
183.721, 10593.440
184.203, 10588.480
184.685, 10588.500
185.167, 10587.310
185.649, 10584.850
186.131, 10580.670
186.613, 10562.500
187.095, 10555.100
187.577, 10578.450
188.059, 10621.580
188.542, 10654.160
189.024, 10655.010
189.506, 10628.670
189.988, 10620.850
190.470, 10658.350
190.952, 10682.880
191.434, 10656.880
191.917, 10598.910
192.399, 10557.650
192.881, 10563.490
193.363, 10610.600
193.845, 10654.640
194.327, 10703.430
194.809, 10742.440
195.291, 10765.580
195.773, 10775.050
196.255, 10774.260
196.738, 10762.400
197.220, 10743.740
197.702, 10743.620
198.184, 10769.430
198.666, 10801.010
199.148, 10836.990
199.630, 10874.130
200.112, 10904.030
200.595, 10920.830
201.077, 10928.700
201.559, 10947.830
202.041, 10982.100
202.523, 11020.000
203.005, 11063.810
203.487, 11108.600
203.969, 11145.030
204.452, 11168.560
204.934, 11179.950
205.416, 11180.590
205.898, 11150.970
206.380, 11135.570
206.862, 11151.670
207.344, 11188.620
207.826, 11226.160
208.308, 11254.640
208.790, 11280.380
209.273, 11322.380
209.755, 11381.270
210.237, 11452.140
210.719, 11549.490
211.201, 11655.230
211.683, 11736.500
212.165, 11777.750
212.648, 11797.890
213.130, 11840.950
213.612, 11917.800
214.094, 11997.410
214.576, 12072.440
215.058, 12148.490
215.540, 12234.380
216.022, 12333.180
216.504, 12440.670
216.986, 12551.410
217.469, 12677.780
217.951, 12783.180
218.433, 12833.520
218.915, 12873.370
219.397, 12967.610
219.879, 13135.820
220.361, 13318.120
220.844, 13416.250
221.326, 13371.360
221.808, 13364.080
222.290, 13438.800
222.772, 13533.280
223.254, 13578.380
223.736, 13561.070
224.218, 13532.100
224.700, 13561.690
225.182, 13690.720
225.665, 13770.550
226.147, 13744.080
226.629, 13706.830
227.111, 13739.050
227.593, 13849.140
228.075, 13987.520
228.557, 14099.080
229.040, 14174.090
229.522, 14260.700
230.004, 14370.700
230.486, 14481.790
230.968, 14570.290
231.450, 14640.500
231.932, 14724.730
232.414, 14858.920
232.896, 15055.330
233.378, 15200.640
233.861, 15263.510
234.343, 15313.200
234.825, 15382.480
235.307, 15469.450
235.789, 15556.030
236.271, 15629.360
236.753, 15689.190
237.235, 15743.180
237.718, 15794.490
238.200, 15838.010
238.682, 15879.660
239.164, 15912.480
239.646, 15920.530
240.128, 15891.130
240.610, 15829.530
241.092, 15781.520
241.574, 15765.900
242.057, 15742.920
242.539, 15702.680
243.021, 15650.900
243.503, 15593.040
243.985, 15531.090
244.467, 15471.040
244.949, 15436.340
245.431, 15463.790
245.913, 15472.910
246.396, 15441.200
246.878, 15394.100
247.360, 15363.400
247.842, 15361.740
248.324, 15372.120
248.806, 15354.160
249.288, 15274.610
249.770, 15221.590
250.253, 15226.830
250.735, 15241.870
251.217, 15224.870
251.699, 15164.960
252.181, 15083.410
252.663, 15012.600
253.145, 14961.480
253.627, 14898.850
254.109, 14812.410
254.592, 14724.040
255.074, 14645.000
255.556, 14577.430
256.038, 14517.510
256.520, 14467.480
257.002, 14435.290
257.484, 14373.610
257.966, 14236.350
258.449, 14108.660
258.931, 14030.000
259.413, 13994.680
259.895, 13971.130
260.377, 13929.010
260.859, 13869.770
261.341, 13842.670
261.823, 13884.020
262.306, 13916.410
262.788, 13902.370
263.270, 13858.000
263.752, 13817.210
264.234, 13799.410
264.716, 13800.880
265.198, 13806.940
265.680, 13811.290
266.162, 13833.550
266.645, 13885.620
267.127, 13956.460
267.609, 14034.770
268.091, 14122.340
268.573, 14206.020
269.055, 14254.680
269.537, 14254.800
270.019, 14272.790
270.501, 14352.760
270.984, 14456.100
271.466, 14548.130
271.948, 14618.160
272.430, 14687.640
272.912, 14787.400
273.394, 14916.710
273.876, 15025.790
274.358, 15082.970
274.841, 15126.070
275.323, 15195.680
275.805, 15295.070
276.287, 15402.130
276.769, 15507.790
277.251, 15609.920
277.733, 15701.010
278.215, 15779.630
278.698, 15845.490
279.180, 15900.720
279.662, 15945.950
280.144, 15972.520
280.626, 15978.710
281.108, 15963.760
281.590, 15921.940
282.072, 15849.750
282.554, 15768.010
283.036, 15699.400
283.519, 15640.600
284.001, 15558.400
284.483, 15419.330
284.965, 15276.180
285.447, 15183.060
285.929, 15137.050
286.411, 15085.360
286.893, 14991.330
287.376, 14860.770
287.858, 14740.360
288.340, 14624.960
288.822, 14524.540
289.304, 14450.300
289.786, 14394.950
290.268, 14341.660
290.750, 14283.560
291.233, 14221.120
291.715, 14154.980
292.197, 14070.050
292.679, 14002.090
293.161, 13957.760
293.643, 13932.680
294.125, 13926.420
294.607, 13938.230
295.089, 13957.360
295.572, 13966.130
296.054, 13954.290
296.536, 13953.220
297.018, 13969.880
297.500, 13990.750
297.982, 14002.090
298.464, 14005.270
298.946, 14015.910
299.428, 14051.070
299.911, 14113.750
300.393, 14176.060
300.875, 14250.410
301.357, 14312.020
301.839, 14342.900
302.321, 14353.880
302.803, 14368.120
303.285, 14401.520
303.767, 14450.860
304.250, 14499.330
304.732, 14549.870
305.214, 14594.870
305.696, 14641.560
306.178, 14679.480
306.660, 14693.890
307.142, 14677.500
307.625, 14645.110
308.107, 14624.300
308.589, 14621.750
309.071, 14607.310
309.553, 14565.530
310.035, 14514.630
310.517, 14467.820
310.999, 14426.820
311.481, 14380.830
311.964, 14316.620
312.446, 14236.090
312.928, 14161.320
313.410, 14099.430
313.892, 14039.030
314.374, 13982.600
314.856, 13925.100
315.338, 13839.010
315.820, 13677.900
316.303, 13489.100
316.785, 13364.690
317.267, 13317.960
317.749, 13293.810
318.231, 13269.190
318.713, 13237.910
319.195, 13181.630
319.677, 13071.740
320.159, 12958.090
320.642, 12879.940
321.124, 12832.260
321.606, 12791.690
322.088, 12746.990
322.570, 12701.890
323.052, 12666.190
323.534, 12643.050
324.016, 12621.230
324.499, 12598.460
324.981, 12574.500
325.463, 12547.960
325.945, 12518.310
326.427, 12489.840
326.909, 12470.710
327.391, 12472.160
327.873, 12448.980
328.355, 12369.360
328.838, 12290.670
329.320, 12258.770
329.802, 12269.440
330.284, 12285.220
330.766, 12275.680
331.248, 12240.930
331.730, 12192.590
332.212, 12108.150
332.694, 12034.850
333.177, 11991.140
333.659, 11964.650
334.141, 11933.640
334.623, 11886.580
335.105, 11834.090
335.587, 11805.810
336.069, 11823.130
336.552, 11821.160
337.034, 11780.770
337.516, 11726.460
337.998, 11676.650
338.480, 11635.040
338.962, 11590.630
339.444, 11522.450
339.926, 11429.020
340.408, 11368.210
340.891, 11368.150
341.373, 11374.960
341.855, 11352.090
342.337, 11306.620
342.819, 11265.750
343.301, 11250.570
343.783, 11247.200
344.265, 11226.190
344.747, 11184.720
345.230, 11137.640
345.712, 11088.250
346.194, 11040.020
346.676, 11001.240
347.158, 10975.550
347.640, 10955.290
348.122, 10937.790
348.604, 10921.830
349.086, 10903.570
349.569, 10882.220
350.051, 10856.480
350.533, 10821.390
351.015, 10771.780
351.497, 10730.850
351.979, 10714.890
352.461, 10702.960
352.944, 10672.410
353.426, 10620.880
353.908, 10560.350
354.390, 10499.580
354.872, 10435.830
355.354, 10402.020
355.836, 10421.340
356.318, 10440.650
356.800, 10442.070
357.283, 10428.220
357.765, 10407.900
358.247, 10386.150
358.729, 10359.690
359.211, 10316.430
359.693, 10242.670
360.175, 10175.240
360.657, 10112.740
361.139, 10060.970
361.622, 10025.730
362.104, 10007.780
362.586, 10000.770
363.068, 10000.510
363.550, 10007.570
364.032, 10011.780
364.514, 10018.580
364.996, 10014.520
365.478, 9978.783
365.961, 9926.121
366.443, 9896.443
366.925, 9923.688
367.407, 9977.968
367.889, 10004.000
368.371, 9998.560
368.853, 9990.083
369.335, 9991.377
369.818, 9998.314
370.300, 10001.960
370.782, 9997.438
371.264, 9999.434
371.746, 10032.470
372.228, 10076.630
372.710, 10079.080
373.192, 10019.200
373.674, 9946.478
374.157, 9926.341
374.639, 9973.164
375.121, 10010.040
375.603, 10046.250
376.085, 10061.850
376.567, 10026.510
377.049, 9953.079
377.531, 9892.354
378.013, 9882.500
378.496, 9914.234
378.978, 9919.453
379.460, 9859.648
379.942, 9817.401
380.424, 9815.518
380.906, 9829.695
381.388, 9831.174
381.871, 9811.647
382.353, 9788.110
382.835, 9787.819
383.317, 9818.114
383.799, 9839.280
384.281, 9846.039
384.763, 9845.732
385.245, 9841.095
385.727, 9832.218
386.210, 9818.323
386.692, 9796.707
387.174, 9770.566
387.656, 9742.933
388.138, 9708.523
388.620, 9695.652
389.102, 9730.387
389.584, 9791.195
390.066, 9847.629
390.549, 9897.696
391.031, 9940.806
391.513, 9974.191
391.995, 10000.230
392.477, 10026.680
392.959, 10056.410
393.441, 10081.850
393.923, 10091.890
394.405, 10082.530
394.888, 10080.450
395.370, 10084.930
395.852, 10098.380
396.334, 10127.380
396.816, 10167.710
397.298, 10205.630
397.780, 10231.660
398.262, 10249.940
398.745, 10279.750
399.227, 10332.060
399.709, 10382.200
400.191, 10431.120
400.673, 10475.400
401.155, 10506.770
401.637, 10525.600
402.119, 10548.910
402.602, 10594.530
403.084, 10662.960
403.566, 10752.500
404.048, 10892.390
404.530, 11018.730
405.012, 11100.770
405.494, 11149.300
405.976, 11186.370
406.458, 11214.010
406.940, 11244.100
407.423, 11301.520
407.905, 11386.830
408.387, 11456.920
408.869, 11492.870
409.351, 11507.900
409.833, 11524.240
410.315, 11544.080
410.797, 11555.410
411.280, 11560.880
411.762, 11552.260
412.244, 11512.530
412.726, 11441.070
413.208, 11364.050
413.690, 11306.150
414.172, 11266.990
414.654, 11203.250
415.137, 11099.140
415.619, 10992.690
416.101, 10885.950
416.583, 10786.200
417.065, 10705.430
417.547, 10647.810
418.029, 10599.390
418.511, 10537.220
418.993, 10460.020
419.476, 10373.120
419.958, 10245.440
420.440, 10135.380
420.922, 10086.080
421.404, 10081.130
421.886, 10065.390
422.368, 9996.477
422.850, 9899.422
423.332, 9832.092
423.815, 9797.162
424.297, 9781.134
424.779, 9801.362
425.261, 9824.201
425.743, 9795.591
426.225, 9695.455
426.707, 9607.367
427.190, 9580.180
427.672, 9590.144
428.154, 9602.608
428.636, 9611.623
429.118, 9609.993
429.600, 9587.892
430.082, 9544.120
430.564, 9513.840
431.046, 9502.685
431.529, 9497.171
432.011, 9498.553
432.493, 9500.636
432.975, 9491.499
433.457, 9466.315
433.939, 9436.530
434.421, 9426.127
434.903, 9449.210
435.385, 9452.807
435.868, 9410.654
436.350, 9370.378
436.832, 9362.008
437.314, 9377.152
437.796, 9383.437
438.278, 9352.453
438.760, 9305.098
439.242, 9295.830
439.724, 9332.194
440.207, 9359.274
440.689, 9350.431
441.171, 9322.245
441.653, 9298.966
442.135, 9280.565
442.617, 9268.472
443.099, 9269.530
443.581, 9274.672
444.064, 9264.888
444.546, 9238.420
445.028, 9222.805
445.510, 9248.269
445.992, 9312.967
446.474, 9326.865
446.956, 9240.501
447.438, 9169.723
447.921, 9155.700
448.403, 9169.568
448.885, 9175.276
449.367, 9160.654
449.849, 9134.622
450.331, 9107.071
450.813, 9076.317
451.295, 9054.075
451.777, 9043.213
452.259, 9039.011
452.742, 9047.682
453.224, 9060.704
453.706, 9059.496
454.188, 9029.947
454.670, 8991.167
455.152, 8967.431
455.634, 8958.266
456.116, 8956.532
456.599, 8964.102
457.081, 8972.409
457.563, 8967.200
458.045, 8947.555
458.527, 8929.563
459.009, 8910.190
459.491, 8898.078
459.973, 8906.058
460.456, 8929.801
460.938, 8950.366
461.420, 8955.437
461.902, 8949.326
462.384, 8949.604
462.866, 8977.586
463.348, 8979.044
463.830, 8926.076
464.312, 8864.665
464.795, 8830.834
465.277, 8827.188
465.759, 8832.513
466.241, 8828.897
466.723, 8818.870
467.205, 8816.451
467.687, 8823.719
468.169, 8833.357
468.651, 8847.385
469.134, 8859.566
469.616, 8860.070
470.098, 8844.159
470.580, 8827.481
471.062, 8814.050
471.544, 8807.178
472.026, 8820.117
472.508, 8855.436
472.991, 8883.229
473.473, 8874.479
473.955, 8828.624
474.437, 8787.992
474.919, 8736.920
475.401, 8707.894
475.883, 8726.026
476.365, 8765.042
476.848, 8794.708
477.330, 8804.564
477.812, 8797.163
478.294, 8770.876
478.776, 8722.122
479.258, 8683.722
479.740, 8658.163
480.222, 8641.160
480.704, 8628.445
481.186, 8622.410
481.669, 8629.171
482.151, 8656.388
482.633, 8686.509
483.115, 8699.521
483.597, 8699.613
484.079, 8707.310
484.561, 8730.426
485.043, 8754.082
485.526, 8759.363
486.008, 8742.161
486.490, 8732.792
486.972, 8743.917
487.454, 8750.590
487.936, 8732.877
488.418, 8701.874
488.900, 8678.688
489.383, 8672.672
489.865, 8680.912
490.347, 8701.856
490.829, 8744.234
491.311, 8770.762
491.793, 8772.953
492.275, 8763.921
492.757, 8741.197
493.239, 8711.593
493.722, 8692.833
494.204, 8701.842
494.686, 8714.392
495.168, 8686.735
495.650, 8624.564
496.132, 8594.357
496.614, 8627.571
497.096, 8681.784
497.578, 8693.737
498.061, 8655.325
498.543, 8637.542
499.025, 8668.236
499.507, 8702.609
499.989, 8715.651
500.471, 8708.331
500.953, 8683.998
501.435, 8643.158
501.918, 8599.014
502.400, 8583.286
502.882, 8608.020
503.364, 8628.294
503.846, 8636.188
504.328, 8643.306
504.810, 8658.277
505.292, 8677.741
505.775, 8690.031
506.257, 8683.879
506.739, 8673.296
507.221, 8680.857
507.703, 8705.035
508.185, 8727.572
508.667, 8746.089
509.149, 8753.572
509.631, 8733.141
510.113, 8676.773
510.596, 8643.228
511.078, 8660.134
511.560, 8680.818
512.042, 8672.938
512.524, 8644.547
513.006, 8616.828
513.488, 8599.881
513.971, 8595.167
514.453, 8610.204
514.935, 8656.553
515.417, 8685.688
515.899, 8681.866
516.381, 8670.537
516.863, 8662.118
517.345, 8656.418
517.827, 8650.319
518.310, 8639.213
518.792, 8630.989
519.274, 8641.735
519.756, 8666.653
520.238, 8676.696
520.720, 8660.747
521.202, 8632.822
521.684, 8607.173
522.166, 8581.263
522.649, 8576.263
523.131, 8612.369
523.613, 8648.640
524.095, 8670.096
524.577, 8676.591
525.059, 8666.387
525.541, 8638.924
526.023, 8608.474
526.505, 8598.813
526.988, 8612.776
527.470, 8629.077
527.952, 8657.950
528.434, 8673.505
528.916, 8650.641
529.398, 8606.383
529.880, 8578.240
530.362, 8582.167
530.844, 8595.407
531.327, 8599.886
531.809, 8600.250
532.291, 8607.936
532.773, 8625.737
533.255, 8651.080
533.737, 8682.836
534.219, 8721.906
534.701, 8753.302
535.184, 8766.335
535.666, 8784.861
536.148, 8816.549
536.630, 8855.872
537.112, 8892.718
537.594, 8925.605
538.076, 8968.152
538.558, 9040.266
539.041, 9137.715
539.523, 9227.455
540.005, 9307.456
540.487, 9382.686
540.969, 9446.157
541.451, 9510.534
541.933, 9601.463
542.415, 9727.427
542.898, 9862.594
543.380, 9996.230
543.862, 10134.210
544.344, 10286.270
544.826, 10451.830
545.308, 10623.580
545.790, 10796.220
546.272, 10970.550
546.754, 11150.830
547.237, 11345.760
547.719, 11532.590
548.201, 11709.830
548.683, 11878.500
549.165, 12046.170
549.647, 12208.660
550.129, 12344.560
550.611, 12430.560
551.093, 12488.200
551.576, 12562.230
552.058, 12647.550
552.540, 12690.980
553.022, 12671.660
553.504, 12600.150
553.986, 12489.760
554.468, 12333.150
554.950, 12154.480
555.432, 11950.910
555.915, 11728.620
556.397, 11481.980
556.879, 11221.340
557.361, 10958.420
557.843, 10698.840
558.325, 10450.480
558.807, 10220.210
559.289, 10007.210
559.771, 9840.000
560.254, 9750.890
560.736, 9656.571
561.218, 9465.864
561.700, 9232.530
562.182, 9073.692
562.664, 9044.218
563.146, 9030.042
563.628, 8979.521
564.111, 8905.981
564.593, 8820.418
565.075, 8728.767
565.557, 8652.304
566.039, 8612.590
566.521, 8604.729
567.003, 8581.508
567.485, 8526.444
567.968, 8483.700
568.450, 8463.138
568.932, 8454.955
569.414, 8456.551
569.896, 8465.271
570.378, 8468.588
570.860, 8452.094
571.342, 8429.257
571.825, 8424.092
572.307, 8434.457
572.789, 8436.619
573.271, 8418.108
573.753, 8394.581
574.235, 8391.326
574.717, 8413.836
575.199, 8441.210
575.681, 8482.250
576.164, 8518.857
576.646, 8541.751
577.128, 8554.703
577.610, 8562.613
578.092, 8567.052
578.574, 8574.711
579.056, 8601.991
579.538, 8644.919
580.020, 8657.219
580.503, 8622.735
580.985, 8594.737
581.467, 8611.491
581.949, 8661.334
582.431, 8702.939
582.913, 8743.759
583.395, 8763.803
583.877, 8734.008
584.359, 8696.123
584.842, 8695.675
585.324, 8731.276
585.806, 8770.329
586.288, 8789.216
586.770, 8795.339
587.252, 8816.044
587.734, 8861.433
588.216, 8883.454
588.698, 8857.105
589.181, 8819.708
589.663, 8794.130
590.145, 8781.317
590.627, 8784.094
591.109, 8830.854
591.591, 8867.434
592.073, 8836.752
592.555, 8769.729
593.038, 8734.422
593.520, 8748.673
594.002, 8776.125
594.484, 8774.185
594.966, 8741.965
595.448, 8730.331
595.930, 8753.789
596.412, 8776.942
596.894, 8794.902
597.377, 8806.575
597.859, 8810.396
598.341, 8806.344
598.823, 8797.362
599.305, 8785.488
599.787, 8769.693
600.269, 8746.183
600.752, 8716.312
601.234, 8688.334
601.716, 8666.096
602.198, 8647.284
602.680, 8627.535
603.162, 8605.234
603.644, 8587.885
604.126, 8580.872
604.608, 8572.679
605.091, 8563.784
605.573, 8549.299
606.055, 8518.978
606.537, 8468.656
607.019, 8418.089
607.501, 8385.817
607.983, 8368.359
608.465, 8362.539
608.947, 8369.358
609.430, 8356.894
609.912, 8296.421
610.394, 8211.385
610.876, 8171.695
611.358, 8223.631
611.840, 8242.522
612.322, 8203.488
612.804, 8150.566
613.286, 8102.050
613.769, 8063.110
614.251, 8040.323
614.733, 8039.011
615.215, 8045.220
615.697, 8040.188
616.179, 8024.934
616.661, 8008.890
617.143, 7996.243
617.625, 7971.363
618.108, 7915.361
618.590, 7836.618
619.072, 7782.501
619.554, 7761.162
620.036, 7750.805
620.518, 7755.026
621.000, 7763.481
621.482, 7767.710
621.965, 7767.508
622.447, 7767.503
622.929, 7771.605
623.411, 7775.382
623.893, 7766.647
624.375, 7745.027
624.857, 7734.315
625.339, 7744.402
625.821, 7755.379
626.304, 7747.917
626.786, 7723.867
627.268, 7705.069
627.750, 7696.162
628.232, 7687.434
628.714, 7679.838
629.196, 7668.794
629.679, 7640.829
630.161, 7600.928
630.643, 7577.889
631.125, 7597.950
631.607, 7644.893
632.089, 7675.904
632.571, 7690.650
633.053, 7691.366
633.535, 7673.008
634.018, 7649.250
634.500, 7632.774
634.982, 7623.254
635.464, 7617.655
635.946, 7613.087
636.428, 7615.479
636.910, 7636.223
637.392, 7660.393
637.875, 7670.172
638.357, 7662.671
638.839, 7645.310
639.321, 7620.792
639.803, 7593.647
640.285, 7578.965
640.767, 7576.852
641.249, 7588.037
641.731, 7622.859
642.214, 7657.505
642.696, 7661.071
643.178, 7635.236
643.660, 7617.570
644.142, 7619.541
644.624, 7620.589
645.106, 7614.181
645.588, 7601.042
646.070, 7576.019
646.553, 7542.089
647.035, 7519.567
647.517, 7530.182
647.999, 7564.342
648.481, 7589.222
648.963, 7603.811
649.445, 7618.930
649.927, 7639.915
650.409, 7659.437
650.892, 7664.140
651.374, 7653.683
651.856, 7661.066
652.338, 7700.200
652.820, 7743.273
653.302, 7790.247
653.784, 7829.249
654.266, 7842.569
654.748, 7829.882
655.231, 7810.888
655.713, 7798.341
656.195, 7794.253
656.677, 7807.938
657.159, 7840.462
657.641, 7870.229
658.123, 7889.680
658.606, 7906.552
659.088, 7930.127
659.570, 7961.232
660.052, 7988.523
660.534, 8016.371
661.016, 8035.410
661.498, 8040.132
661.980, 8036.218
662.462, 8026.380
662.945, 8013.162
663.427, 8004.064
663.909, 8007.871
664.391, 8016.699
664.873, 8015.028
665.355, 8003.059
665.837, 7983.452
666.319, 7956.912
666.802, 7922.571
667.284, 7876.220
667.766, 7817.476
668.248, 7775.416
668.730, 7772.757
669.212, 7755.937
669.694, 7694.825
670.176, 7630.021
670.658, 7607.478
671.141, 7621.381
671.623, 7622.253
672.105, 7575.843
672.587, 7506.625
673.069, 7441.513
673.551, 7382.255
674.033, 7339.735
674.515, 7317.004
674.997, 7302.273
675.480, 7285.568
675.962, 7267.082
676.444, 7248.833
