##NAMES=Parascholzite
##RRUFFID=R060806
##IDEAL CHEMISTRY=CaZn^2+^_2_(P^5+^O_4_)_2_&#183;2H_2_O
##LOCALITY=Tip Top mine, Fourmile, Custer District, Custer County, South Dakota, USA
##OWNER=RRUFF
##SOURCE=Michael Scott
##DESCRIPTION=Radial spray of colorless elongated flattened prismatic crystals
##STATUS=The identification of this mineral has been confirmed by single-crystal X-ray diffraction.
##URL=rruff.info/R060806
116.220, 1197.558
116.702, 1259.623
117.184, 1319.635
117.666, 1377.993
118.148, 1435.069
118.630, 1494.222
119.112, 1567.083
119.595, 1638.559
120.077, 1693.556
120.559, 1714.928
121.041, 1726.286
121.523, 1745.780
122.005, 1773.899
122.487, 1795.298
122.969, 1793.924
123.451, 1777.819
123.934, 1762.009
124.416, 1752.736
124.898, 1748.075
125.380, 1745.591
125.862, 1744.955
126.344, 1747.017
126.826, 1753.881
127.308, 1764.803
127.790, 1776.523
128.273, 1785.341
128.755, 1793.250
129.237, 1805.523
129.719, 1824.345
130.201, 1846.542
130.683, 1864.900
131.165, 1879.326
131.648, 1896.331
132.130, 1924.797
132.612, 1963.101
133.094, 1996.205
133.576, 2017.607
134.058, 2030.378
134.540, 2049.426
135.022, 2076.067
135.504, 2104.897
135.986, 2126.913
136.469, 2140.747
136.951, 2159.457
137.433, 2193.675
137.915, 2245.451
138.397, 2276.535
138.879, 2282.490
139.361, 2272.230
139.843, 2261.747
140.326, 2248.772
140.808, 2241.327
141.290, 2244.985
141.772, 2264.369
142.254, 2280.539
142.736, 2293.148
143.218, 2301.854
143.700, 2302.667
144.182, 2286.414
144.665, 2273.630
145.147, 2279.559
145.629, 2317.461
146.111, 2351.820
146.593, 2378.427
147.075, 2397.262
147.557, 2412.125
148.039, 2420.734
148.521, 2426.552
149.004, 2432.902
149.486, 2438.481
149.968, 2445.853
150.450, 2455.122
150.932, 2465.524
151.414, 2480.527
151.896, 2505.454
152.378, 2533.965
152.861, 2557.131
153.343, 2568.124
153.825, 2579.690
154.307, 2596.760
154.789, 2625.135
155.271, 2649.273
155.753, 2667.431
156.235, 2679.950
156.717, 2688.028
157.200, 2683.760
157.682, 2680.570
158.164, 2685.620
158.646, 2705.302
159.128, 2727.134
159.610, 2752.096
160.092, 2778.176
160.574, 2795.331
161.057, 2792.408
161.539, 2782.454
162.021, 2775.791
162.503, 2777.240
162.985, 2780.791
163.467, 2784.224
163.949, 2787.442
164.431, 2790.834
164.913, 2800.366
165.396, 2808.649
165.878, 2806.870
166.360, 2780.818
166.842, 2751.274
167.324, 2733.981
167.806, 2731.666
168.288, 2727.153
168.770, 2704.700
169.253, 2672.655
169.735, 2646.113
170.217, 2642.462
170.699, 2642.964
171.181, 2627.048
171.663, 2586.633
172.145, 2547.690
172.627, 2531.920
173.109, 2535.133
173.592, 2544.481
174.074, 2562.333
174.556, 2579.203
175.038, 2580.155
175.520, 2557.129
176.002, 2526.584
176.484, 2505.618
176.966, 2493.369
177.449, 2484.725
177.931, 2471.008
178.413, 2458.689
178.895, 2462.612
179.377, 2499.262
179.859, 2542.911
180.341, 2550.886
180.823, 2524.150
181.305, 2490.020
181.788, 2467.776
182.270, 2456.457
182.752, 2452.488
183.234, 2456.492
183.716, 2466.583
184.198, 2479.425
184.680, 2495.164
185.162, 2511.819
185.645, 2530.432
186.127, 2549.554
186.609, 2561.998
187.091, 2560.808
187.573, 2549.752
188.055, 2543.409
188.537, 2542.393
189.019, 2543.532
189.501, 2540.702
189.984, 2534.327
190.466, 2532.983
190.948, 2546.252
191.430, 2571.032
191.912, 2582.471
192.394, 2576.940
192.876, 2563.313
193.358, 2555.802
193.840, 2554.544
194.323, 2556.774
194.805, 2563.177
195.287, 2573.468
195.769, 2578.968
196.251, 2578.061
196.733, 2573.106
197.215, 2568.514
197.697, 2563.777
198.180, 2562.625
198.662, 2569.481
199.144, 2585.029
199.626, 2597.162
200.108, 2603.174
200.590, 2605.265
201.072, 2610.981
201.554, 2620.792
202.036, 2632.480
202.519, 2647.165
203.001, 2666.592
203.483, 2674.465
203.965, 2663.587
204.447, 2637.996
204.929, 2623.767
205.411, 2621.905
205.893, 2628.351
206.376, 2641.852
206.858, 2664.882
207.340, 2683.302
207.822, 2693.162
208.304, 2694.877
208.786, 2696.814
209.268, 2698.670
209.750, 2701.406
210.232, 2706.471
210.714, 2714.639
211.197, 2722.632
211.679, 2728.377
212.161, 2731.500
212.643, 2743.003
213.125, 2767.232
213.607, 2794.487
214.089, 2811.635
214.572, 2815.201
215.054, 2817.612
215.536, 2822.776
216.018, 2831.374
216.500, 2836.780
216.982, 2834.794
217.464, 2833.015
217.946, 2844.899
218.428, 2875.642
218.911, 2908.326
219.393, 2938.080
219.875, 2965.331
220.357, 2986.661
220.839, 3001.894
221.321, 3011.250
221.803, 3014.455
222.285, 3007.035
222.767, 3001.846
223.250, 3005.477
223.732, 3023.714
224.214, 3034.923
224.696, 3037.732
225.178, 3034.217
225.660, 3028.144
226.142, 3015.065
226.624, 3006.725
227.107, 3010.948
227.589, 3039.580
228.071, 3052.127
228.553, 3040.393
229.035, 3012.917
229.517, 2997.373
229.999, 2995.459
230.481, 3002.428
230.963, 3017.486
231.445, 3048.136
231.928, 3070.370
232.410, 3078.684
232.892, 3077.617
233.374, 3086.810
233.856, 3115.097
234.338, 3141.791
234.820, 3153.875
235.303, 3140.324
235.785, 3135.298
236.267, 3145.964
236.749, 3168.240
237.231, 3177.930
237.713, 3167.277
238.195, 3153.752
238.677, 3148.735
239.159, 3158.185
239.641, 3163.701
240.124, 3159.840
240.606, 3149.063
241.088, 3151.877
241.570, 3177.364
242.052, 3205.589
242.534, 3222.927
243.016, 3226.088
243.498, 3224.487
243.981, 3217.403
244.463, 3205.428
244.945, 3194.530
245.427, 3179.333
245.909, 3171.138
246.391, 3180.456
246.873, 3220.349
247.355, 3251.478
247.837, 3268.519
248.320, 3271.808
248.802, 3266.320
249.284, 3245.161
249.766, 3223.359
250.248, 3213.802
250.730, 3223.968
251.212, 3231.310
251.694, 3233.999
252.176, 3231.980
252.659, 3219.949
253.141, 3188.499
253.623, 3158.491
254.105, 3149.463
254.587, 3173.493
255.069, 3191.941
255.551, 3198.019
256.033, 3192.121
256.516, 3182.321
256.998, 3162.328
257.480, 3146.121
257.962, 3149.309
258.444, 3184.656
258.926, 3207.871
259.408, 3206.419
259.890, 3181.251
260.372, 3170.791
260.855, 3180.454
261.337, 3197.224
261.819, 3208.304
262.301, 3209.723
262.783, 3216.612
263.265, 3235.020
263.747, 3263.827
264.229, 3281.187
264.711, 3283.384
265.194, 3279.453
265.676, 3275.130
266.158, 3266.239
266.640, 3271.739
267.122, 3301.338
267.604, 3352.923
268.086, 3385.725
268.569, 3394.346
269.051, 3394.519
269.533, 3401.025
270.015, 3415.179
270.497, 3430.513
270.979, 3444.703
271.461, 3458.568
271.943, 3480.969
272.425, 3515.716
272.908, 3550.646
273.390, 3571.863
273.872, 3576.300
274.354, 3583.120
274.836, 3596.851
275.318, 3616.567
275.800, 3637.166
276.282, 3660.349
276.764, 3679.511
277.247, 3684.566
277.729, 3672.466
278.211, 3670.869
278.693, 3691.508
279.175, 3727.465
279.657, 3738.763
280.139, 3720.213
280.621, 3696.300
281.103, 3691.423
281.586, 3706.449
282.068, 3717.282
282.550, 3717.417
283.032, 3709.758
283.514, 3706.250
283.996, 3707.670
284.478, 3709.108
284.960, 3710.229
285.443, 3710.606
285.925, 3694.319
286.407, 3650.251
286.889, 3591.885
287.371, 3560.527
287.853, 3557.773
288.335, 3564.224
288.817, 3565.354
289.299, 3561.688
289.782, 3557.635
290.264, 3555.336
290.746, 3552.173
291.228, 3539.759
291.710, 3517.962
292.192, 3497.704
292.674, 3490.222
293.156, 3492.413
293.638, 3491.790
294.121, 3485.199
294.603, 3475.398
295.085, 3466.896
295.567, 3459.668
296.049, 3452.515
296.531, 3439.934
297.013, 3426.596
297.496, 3426.957
297.978, 3448.796
298.460, 3477.622
298.942, 3492.091
299.424, 3494.032
299.906, 3494.049
300.388, 3500.339
300.870, 3509.542
301.352, 3514.275
301.835, 3510.898
302.317, 3507.249
302.799, 3515.344
303.281, 3531.863
303.763, 3544.172
304.245, 3536.342
304.727, 3521.859
305.209, 3521.823
305.691, 3545.187
306.174, 3568.305
306.656, 3566.472
307.138, 3546.742
307.620, 3529.470
308.102, 3528.662
308.584, 3534.321
309.066, 3537.693
309.548, 3538.668
310.030, 3533.948
310.513, 3512.556
310.995, 3483.798
311.477, 3467.037
311.959, 3491.100
312.441, 3517.986
312.923, 3513.689
313.405, 3466.706
313.887, 3426.793
314.370, 3426.619
314.852, 3449.034
315.334, 3466.584
315.816, 3469.328
316.298, 3463.844
316.780, 3450.715
317.262, 3428.472
317.744, 3410.057
318.226, 3405.261
318.709, 3405.899
319.191, 3402.185
319.673, 3377.389
320.155, 3360.294
320.637, 3367.485
321.119, 3402.334
321.601, 3427.548
322.083, 3431.814
322.565, 3423.001
323.048, 3408.306
323.530, 3373.014
324.012, 3347.956
324.494, 3345.891
324.976, 3367.576
325.458, 3380.275
325.940, 3371.000
326.422, 3356.691
326.905, 3349.797
327.387, 3355.979
327.869, 3363.977
328.351, 3375.435
328.833, 3389.458
329.315, 3396.478
329.797, 3389.808
330.279, 3381.577
330.762, 3378.914
331.244, 3386.235
331.726, 3392.643
332.208, 3400.194
332.690, 3406.898
333.172, 3401.858
333.654, 3372.868
334.136, 3348.649
334.618, 3347.185
335.100, 3384.082
335.583, 3402.609
336.065, 3395.052
336.547, 3370.527
337.029, 3351.188
337.511, 3336.913
337.993, 3327.897
338.475, 3326.470
338.957, 3335.038
339.440, 3334.895
339.922, 3321.928
340.404, 3305.200
340.886, 3303.088
341.368, 3318.683
341.850, 3330.147
342.332, 3325.478
342.814, 3305.736
343.297, 3293.471
343.779, 3290.283
344.261, 3289.681
344.743, 3282.578
345.225, 3269.319
345.707, 3256.860
346.189, 3246.343
346.671, 3238.702
347.153, 3237.455
347.635, 3243.048
348.118, 3250.601
348.600, 3254.947
349.082, 3256.969
349.564, 3260.877
350.046, 3270.951
350.528, 3281.127
351.010, 3278.624
351.492, 3264.389
351.975, 3250.777
352.457, 3252.532
352.939, 3260.926
353.421, 3258.613
353.903, 3234.228
354.385, 3208.639
354.867, 3209.083
355.349, 3229.084
355.832, 3242.572
356.314, 3225.423
356.796, 3197.837
357.278, 3181.546
357.760, 3183.622
358.242, 3189.709
358.724, 3193.691
359.206, 3194.892
359.688, 3191.829
360.171, 3173.320
360.653, 3157.753
361.135, 3159.018
361.617, 3182.778
362.099, 3205.235
362.581, 3219.210
363.063, 3226.168
363.545, 3228.101
364.027, 3212.287
364.510, 3203.578
364.992, 3215.471
365.474, 3251.167
365.956, 3278.703
366.438, 3290.458
366.920, 3292.458
367.402, 3290.045
367.884, 3274.792
368.366, 3264.969
368.849, 3267.757
369.331, 3282.087
369.813, 3286.167
370.295, 3269.363
370.777, 3251.699
371.259, 3245.369
371.741, 3256.696
372.224, 3268.212
372.706, 3279.951
373.188, 3291.067
373.670, 3297.898
374.152, 3297.734
374.634, 3298.084
375.116, 3302.813
375.598, 3312.972
376.080, 3323.133
376.562, 3333.763
377.045, 3343.599
377.527, 3349.928
378.009, 3352.459
378.491, 3353.564
378.973, 3353.235
379.455, 3351.830
379.937, 3353.979
380.419, 3360.368
380.902, 3368.170
381.384, 3375.137
381.866, 3381.163
382.348, 3384.588
382.830, 3383.542
383.312, 3380.327
383.794, 3378.688
384.276, 3378.666
384.759, 3383.902
385.241, 3402.694
385.723, 3429.009
386.205, 3447.244
386.687, 3450.693
387.169, 3449.935
387.651, 3459.125
388.133, 3475.188
388.615, 3486.701
389.098, 3480.363
389.580, 3468.526
390.062, 3463.207
390.544, 3465.139
391.026, 3476.918
391.508, 3510.640
391.990, 3554.275
392.472, 3587.119
392.954, 3591.169
393.437, 3589.347
393.919, 3593.422
394.401, 3604.673
394.883, 3618.433
395.365, 3634.120
395.847, 3651.202
396.329, 3669.137
396.811, 3678.335
397.293, 3698.245
397.776, 3738.595
398.258, 3797.726
398.740, 3850.959
399.222, 3894.729
399.704, 3933.309
400.186, 3968.732
400.668, 3998.943
401.151, 4029.185
401.633, 4062.012
402.115, 4094.563
402.597, 4116.974
403.079, 4115.862
403.561, 4127.889
404.043, 4173.103
404.525, 4261.265
405.007, 4332.624
405.490, 4384.265
405.972, 4423.384
406.454, 4460.314
406.936, 4495.744
407.418, 4524.560
407.900, 4539.246
408.382, 4545.266
408.864, 4579.893
409.346, 4647.804
409.828, 4712.760
410.311, 4743.381
410.793, 4741.671
411.275, 4713.334
411.757, 4647.246
412.239, 4572.244
412.721, 4545.785
413.203, 4559.525
413.685, 4558.657
414.168, 4489.533
414.650, 4389.039
415.132, 4316.628
415.614, 4284.702
416.096, 4257.262
416.578, 4199.509
417.060, 4124.163
417.542, 4056.643
418.025, 4011.031
418.507, 3974.976
418.989, 3940.532
419.471, 3907.562
419.953, 3878.783
420.435, 3860.336
420.917, 3844.641
421.399, 3825.103
421.881, 3796.997
422.364, 3768.413
422.846, 3737.336
423.328, 3705.780
423.810, 3685.081
424.292, 3687.124
424.774, 3691.767
425.256, 3689.761
425.738, 3675.979
426.220, 3665.237
426.703, 3659.146
427.185, 3655.276
427.667, 3650.110
428.149, 3645.459
428.631, 3635.533
429.113, 3615.293
429.595, 3584.050
430.077, 3566.097
430.560, 3563.635
431.042, 3568.927
431.524, 3577.502
432.006, 3590.046
432.488, 3593.661
432.970, 3581.734
433.452, 3563.095
433.934, 3563.223
434.417, 3582.199
434.899, 3599.474
435.381, 3601.092
435.863, 3590.540
436.345, 3575.759
436.827, 3556.149
437.309, 3538.583
437.791, 3530.652
438.273, 3530.901
438.755, 3535.933
439.238, 3551.723
439.720, 3566.793
440.202, 3568.460
440.684, 3556.889
441.166, 3543.984
441.648, 3533.627
442.130, 3526.965
442.612, 3525.476
443.095, 3534.871
443.577, 3542.756
444.059, 3542.728
444.541, 3537.498
445.023, 3535.234
445.505, 3540.700
445.987, 3547.314
446.469, 3552.259
446.952, 3554.772
447.434, 3557.454
447.916, 3561.895
448.398, 3565.902
448.880, 3566.472
449.362, 3560.469
449.844, 3556.396
450.326, 3556.265
450.808, 3559.718
451.290, 3563.819
451.773, 3570.407
452.255, 3573.330
452.737, 3564.835
453.219, 3543.232
453.701, 3530.723
454.183, 3530.020
454.665, 3538.619
455.147, 3557.850
455.630, 3586.721
456.112, 3606.494
456.594, 3599.046
457.076, 3576.119
457.558, 3571.410
458.040, 3586.232
458.522, 3602.171
459.004, 3602.082
459.487, 3591.533
459.969, 3579.807
460.451, 3563.665
460.933, 3554.899
461.415, 3573.155
461.897, 3609.776
462.379, 3635.141
462.861, 3626.169
463.343, 3606.025
463.826, 3588.234
464.308, 3572.442
464.790, 3566.899
465.272, 3581.292
465.754, 3605.270
466.236, 3625.444
466.718, 3644.543
467.200, 3654.824
467.682, 3648.393
468.165, 3626.229
468.647, 3618.821
469.129, 3635.327
469.611, 3656.728
470.093, 3671.738
470.575, 3678.249
471.057, 3684.543
471.539, 3692.083
472.022, 3698.448
472.504, 3697.167
472.986, 3686.732
473.468, 3678.235
473.950, 3677.433
474.432, 3682.729
474.914, 3686.761
475.396, 3689.952
475.878, 3688.488
476.361, 3674.759
476.843, 3653.091
477.325, 3635.845
477.807, 3624.271
478.289, 3620.986
478.771, 3636.814
479.253, 3665.398
479.735, 3685.682
480.217, 3676.911
480.700, 3660.569
481.182, 3655.731
481.664, 3665.354
482.146, 3675.345
482.628, 3678.067
483.110, 3677.892
483.592, 3679.353
484.074, 3685.681
484.556, 3691.134
485.039, 3692.218
485.521, 3690.135
486.003, 3692.989
486.485, 3708.104
486.967, 3721.055
487.449, 3724.727
487.931, 3714.213
488.414, 3710.503
488.896, 3718.018
489.378, 3728.010
489.860, 3727.011
490.342, 3712.217
490.824, 3701.844
491.306, 3702.637
491.788, 3710.903
492.270, 3711.529
492.753, 3704.129
493.235, 3695.729
493.717, 3689.865
494.199, 3687.062
494.681, 3691.161
495.163, 3704.389
495.645, 3716.779
496.127, 3710.614
496.609, 3694.830
497.092, 3690.236
497.574, 3717.443
498.056, 3750.350
498.538, 3768.603
499.020, 3773.474
499.502, 3777.048
499.984, 3785.960
500.466, 3795.231
500.948, 3800.546
501.431, 3796.413
501.913, 3797.472
502.395, 3811.050
502.877, 3830.622
503.359, 3844.666
503.841, 3854.559
504.323, 3856.526
504.805, 3845.891
505.288, 3822.930
505.770, 3808.952
506.252, 3803.323
506.734, 3807.456
507.216, 3827.818
507.698, 3867.443
508.180, 3889.521
508.662, 3886.563
509.145, 3872.849
509.627, 3873.720
510.109, 3887.800
510.591, 3900.373
511.073, 3902.697
511.555, 3900.059
512.037, 3902.184
512.519, 3909.032
513.001, 3918.164
513.484, 3932.085
513.966, 3945.645
514.448, 3952.095
514.930, 3947.974
515.412, 3940.822
515.894, 3932.626
516.376, 3924.350
516.858, 3917.913
517.341, 3911.181
517.823, 3908.738
518.305, 3914.587
518.787, 3929.498
519.269, 3939.372
519.751, 3939.826
520.233, 3938.225
520.715, 3938.678
521.197, 3940.476
521.680, 3946.631
522.162, 3959.947
522.644, 3975.448
523.126, 3980.940
523.608, 3973.911
524.090, 3974.415
524.572, 3996.258
525.054, 4030.425
525.536, 4038.594
526.019, 4020.095
526.501, 3998.826
526.983, 3994.186
527.465, 4001.210
527.947, 4011.178
528.429, 4024.354
528.911, 4033.653
529.393, 4027.246
529.875, 4012.814
530.358, 4004.425
530.840, 4009.828
531.322, 4021.381
531.804, 4036.417
532.286, 4054.800
532.768, 4073.840
533.250, 4093.584
533.732, 4113.626
534.214, 4134.234
534.697, 4157.201
535.179, 4176.946
535.661, 4189.254
536.143, 4200.986
536.625, 4221.726
537.107, 4254.526
537.589, 4289.058
538.071, 4323.630
538.554, 4358.178
539.036, 4385.761
539.518, 4403.811
540.000, 4436.379
540.482, 4510.824
540.964, 4613.686
541.446, 4696.744
541.928, 4754.124
542.411, 4802.088
542.893, 4848.222
543.375, 4898.103
543.857, 4962.687
544.339, 5057.122
544.821, 5154.085
545.303, 5227.653
545.785, 5286.553
546.268, 5363.343
546.750, 5488.382
547.232, 5620.320
547.714, 5740.353
548.196, 5844.700
548.678, 5939.573
549.160, 6026.990
549.642, 6103.593
550.124, 6164.702
550.606, 6200.020
551.089, 6244.460
551.571, 6313.551
552.053, 6387.478
552.535, 6411.375
553.017, 6381.703
553.499, 6327.700
553.981, 6258.816
554.463, 6175.912
554.945, 6084.638
555.428, 5984.865
555.910, 5869.504
556.392, 5719.710
556.874, 5552.596
557.356, 5400.126
557.838, 5270.501
558.320, 5152.077
558.802, 5034.936
559.284, 4923.201
559.767, 4821.612
560.249, 4735.358
560.731, 4657.977
561.213, 4584.208
561.695, 4515.294
562.177, 4462.782
562.659, 4445.146
563.141, 4430.102
563.624, 4401.265
564.106, 4348.875
564.588, 4311.917
565.070, 4296.710
565.552, 4289.532
566.034, 4271.223
566.516, 4239.932
566.998, 4215.423
567.481, 4203.832
567.963, 4200.315
568.445, 4193.288
568.927, 4183.386
569.409, 4176.113
569.891, 4181.521
570.373, 4188.967
570.855, 4175.477
571.338, 4139.316
571.820, 4115.314
572.302, 4142.671
572.784, 4185.934
573.266, 4208.566
573.748, 4188.998
574.230, 4167.813
574.712, 4152.433
575.194, 4144.061
575.677, 4145.412
576.159, 4170.869
576.641, 4188.771
577.123, 4189.394
577.605, 4174.386
578.087, 4169.007
578.569, 4177.558
579.051, 4185.899
579.533, 4182.306
580.016, 4166.905
580.498, 4161.550
580.980, 4167.707
581.462, 4181.553
581.944, 4207.039
582.426, 4237.717
582.908, 4249.747
583.390, 4222.392
583.872, 4192.639
584.355, 4203.970
584.837, 4244.069
585.319, 4278.810
585.801, 4281.361
586.283, 4281.912
586.765, 4303.125
587.247, 4348.380
587.729, 4377.072
588.211, 4364.631
588.694, 4344.845
589.176, 4339.913
589.658, 4362.370
590.140, 4374.670
590.622, 4371.898
591.104, 4363.230
591.586, 4363.167
592.068, 4372.628
592.551, 4384.542
593.033, 4400.751
593.515, 4415.444
593.997, 4405.772
594.479, 4374.455
594.961, 4352.594
595.443, 4368.439
595.925, 4401.185
596.407, 4424.189
596.890, 4435.643
597.372, 4437.783
597.854, 4425.500
598.336, 4408.028
598.818, 4393.992
599.300, 4384.769
599.782, 4380.355
600.265, 4383.391
600.747, 4390.744
601.229, 4396.449
601.711, 4399.780
602.193, 4402.344
602.675, 4403.858
603.157, 4404.741
603.639, 4408.266
604.121, 4415.208
604.604, 4421.287
605.086, 4423.708
605.568, 4422.882
606.050, 4422.867
606.532, 4424.328
607.014, 4421.021
607.496, 4397.512
607.978, 4366.803
608.460, 4354.681
608.943, 4376.694
609.425, 4399.447
609.907, 4398.147
610.389, 4382.463
610.871, 4370.444
611.353, 4377.246
611.835, 4378.757
612.317, 4361.537
612.799, 4328.013
613.282, 4310.285
613.764, 4318.824
614.246, 4329.240
614.728, 4329.618
615.210, 4318.437
615.692, 4311.814
616.174, 4310.617
616.656, 4311.227
617.138, 4310.764
617.621, 4309.099
618.103, 4303.575
618.585, 4290.771
619.067, 4281.960
619.549, 4296.233
620.031, 4324.531
620.513, 4347.160
620.995, 4354.228
621.477, 4353.527
621.960, 4345.156
622.442, 4331.247
622.924, 4322.658
623.406, 4326.857
623.888, 4332.795
624.370, 4335.791
624.852, 4335.277
625.334, 4334.839
625.817, 4335.792
626.299, 4334.951
626.781, 4326.738
627.263, 4309.603
627.745, 4305.496
628.227, 4319.438
628.709, 4339.851
629.191, 4349.685
629.674, 4351.106
630.156, 4352.730
630.638, 4358.028
631.120, 4364.640
631.602, 4372.498
632.084, 4380.128
632.566, 4382.577
633.048, 4373.360
633.531, 4361.840
634.013, 4352.479
634.495, 4345.453
634.977, 4341.184
635.459, 4339.532
635.941, 4340.739
636.423, 4345.914
636.905, 4358.363
637.387, 4363.296
637.870, 4356.759
638.352, 4349.504
638.834, 4359.089
639.316, 4383.837
639.798, 4399.664
