##NAMES=Paralaurionite
##RRUFFID=R050271
##IDEAL CHEMISTRY=Pb^2+^Cl(OH)
##LOCALITY=Tiger, Pinal County, Arizona, USA
##OWNER=RRUFF
##SOURCE=Marcus Origlieri
##DESCRIPTION=Greenish-yellow prismatic crystal
##STATUS=The identification of this mineral has been confirmed by X-ray diffraction and chemical analysis
##URL=rruff.info/R050271
##MEASURED CHEMISTRY=(Pb_0.96_[box]_0.04_)Cl(OH)
92.67285, 6175.483
93.15497, 6158.591
93.63708, 6183.583
94.11920, 6349.613
94.60132, 6536.203
95.08344, 6728.906
95.56555, 6833.130
96.04767, 6874.162
96.52979, 6906.591
97.01190, 6937.121
97.49402, 6983.445
97.97614, 7052.862
98.45825, 7134.038
98.94037, 7235.657
99.42249, 7338.023
99.90460, 7424.975
100.3867, 7525.965
100.8688, 7616.173
101.3510, 7653.306
101.8331, 7645.263
102.3152, 7579.417
102.7973, 7435.448
103.2794, 7211.202
103.7615, 6960.966
104.2437, 6677.999
104.7258, 6389.940
105.2079, 6118.641
105.6900, 5863.882
106.1721, 5634.394
106.6542, 5451.085
107.1364, 5310.831
107.6185, 5225.971
108.1006, 5188.072
108.5827, 5197.604
109.0648, 5258.354
109.5469, 5375.854
110.0291, 5548.794
110.5112, 5732.970
110.9933, 6007.665
111.4754, 6218.728
111.9575, 6330.143
112.4396, 6336.511
112.9218, 6239.337
113.4039, 6029.655
113.8860, 5676.619
114.3681, 5345.154
114.8502, 5016.656
115.3323, 4717.287
115.8144, 4469.464
116.2966, 4276.643
116.7787, 4126.804
117.2608, 4013.671
117.7429, 3935.797
118.2250, 3876.660
118.7071, 3835.643
119.1893, 3810.560
119.6714, 3796.572
120.1535, 3793.025
120.6356, 3801.378
121.1177, 3821.476
121.5998, 3853.104
122.0820, 3890.823
122.5641, 3931.100
123.0462, 3973.906
123.5283, 4019.358
124.0104, 4064.364
124.4925, 4114.380
124.9747, 4173.731
125.4568, 4243.350
125.9389, 4319.935
126.4210, 4398.334
126.9031, 4476.483
127.3852, 4560.370
127.8674, 4656.429
128.3495, 4754.767
128.8316, 4850.815
129.3137, 4941.979
129.7958, 5024.754
130.2780, 5084.585
130.7601, 5123.376
131.2422, 5134.237
131.7243, 5120.491
132.2064, 5077.651
132.6885, 4996.924
133.1707, 4871.900
133.6528, 4703.829
134.1349, 4516.035
134.6170, 4303.102
135.0991, 4080.882
135.5812, 3849.607
136.0633, 3612.572
136.5455, 3381.405
137.0276, 3164.401
137.5097, 2963.198
137.9918, 2775.875
138.4739, 2605.840
138.9560, 2448.474
139.4382, 2299.541
139.9203, 2158.680
140.4024, 2030.374
140.8845, 1921.381
141.3666, 1827.283
141.8487, 1741.021
142.3309, 1661.258
142.8130, 1587.963
143.2951, 1520.352
143.7772, 1458.950
144.2593, 1404.238
144.7414, 1356.189
145.2236, 1313.787
145.7057, 1274.131
146.1878, 1235.006
146.6699, 1196.366
147.1520, 1160.236
147.6341, 1126.299
148.1163, 1095.307
148.5984, 1068.590
149.0805, 1045.633
149.5626, 1024.285
150.0447, 1002.300
150.5268, 979.1151
151.0090, 956.6934
151.4911, 934.1755
151.9732, 912.9103
152.4553, 894.1305
152.9374, 877.9964
153.4195, 863.0890
153.9017, 847.4699
154.3838, 830.2231
154.8659, 814.3075
155.3480, 800.2728
155.8301, 787.2841
156.3122, 774.3177
156.7944, 761.0402
157.2765, 748.1321
157.7586, 737.1049
158.2407, 728.0782
158.7228, 719.5206
159.2049, 711.5188
159.6871, 703.7233
160.1692, 695.2512
160.6513, 685.5955
161.1334, 675.4406
161.6155, 665.6412
162.0976, 656.0319
162.5798, 647.3983
163.0619, 640.6211
163.5440, 635.5862
164.0261, 630.7216
164.5082, 625.2720
164.9903, 620.0610
165.4725, 616.1880
165.9546, 614.0153
166.4367, 611.6029
166.9188, 606.0665
167.4009, 596.1652
167.8830, 588.2110
168.3652, 585.1955
168.8473, 583.7343
169.3294, 581.6464
169.8115, 578.2303
170.2936, 573.9843
170.7757, 569.7640
171.2579, 565.3073
171.7400, 561.4340
172.2221, 558.9324
172.7042, 556.6390
173.1863, 553.3447
173.6684, 548.5148
174.1506, 542.6956
174.6327, 537.5587
175.1148, 533.0609
175.5969, 529.4188
176.0790, 527.4857
176.5611, 526.2106
177.0433, 524.1597
177.5254, 520.5373
178.0075, 515.7409
178.4896, 511.7092
178.9717, 508.5900
179.4538, 505.9594
179.9360, 504.2101
180.4181, 502.9092
180.9002, 501.1617
181.3823, 498.4234
181.8644, 494.8519
182.3465, 491.3729
182.8287, 488.0374
183.3108, 484.7388
183.7929, 481.4110
184.2750, 478.0728
184.7571, 474.7329
185.2392, 471.1747
185.7214, 467.7552
186.2035, 465.3124
186.6856, 464.7709
187.1677, 464.3341
187.6498, 462.2422
188.1319, 458.4145
188.6141, 454.7046
189.0962, 452.6317
189.5783, 451.1386
190.0604, 448.5930
190.5425, 443.8971
191.0246, 438.8409
191.5068, 436.1624
191.9889, 436.5899
192.4710, 436.9767
192.9531, 435.7702
193.4352, 433.8240
193.9173, 432.0138
194.3995, 430.7474
194.8816, 429.7153
195.3637, 428.1012
195.8458, 425.4221
196.3279, 423.0732
196.8100, 421.9009
197.2922, 421.0811
197.7743, 419.5233
198.2564, 416.5324
198.7385, 412.6736
199.2206, 410.1413
199.7027, 409.9643
200.1849, 409.9111
200.6670, 409.9026
201.1491, 409.6699
201.6312, 408.8530
202.1133, 407.2177
202.5954, 404.9036
203.0776, 402.7192
203.5597, 400.7688
204.0418, 398.8679
204.5239, 396.6940
205.0060, 394.5871
205.4881, 393.1832
205.9703, 392.9193
206.4524, 393.6331
206.9345, 393.9337
207.4166, 393.3458
207.8987, 392.9123
208.3808, 393.0212
208.8630, 393.4978
209.3451, 393.9976
209.8272, 394.3558
210.3093, 394.5256
210.7914, 394.1721
211.2735, 392.5384
211.7557, 391.2538
212.2378, 391.0869
212.7199, 391.8343
213.2020, 392.8249
213.6841, 393.7065
214.1662, 394.5105
214.6484, 395.3967
215.1305, 397.0317
215.6126, 398.1209
216.0947, 397.4241
216.5768, 395.2415
217.0589, 393.5235
217.5410, 393.4268
218.0232, 394.5877
218.5053, 395.7005
218.9874, 396.7077
219.4695, 397.7290
219.9516, 399.0164
220.4337, 400.5598
220.9159, 401.7103
221.3980, 401.7796
221.8801, 401.4403
222.3622, 401.6618
222.8443, 402.6905
223.3264, 404.0789
223.8086, 405.4921
224.2907, 406.9632
224.7728, 408.1390
225.2549, 408.2599
225.7370, 408.2967
226.2191, 409.1612
226.7013, 411.1116
227.1834, 413.7046
227.6655, 416.5377
228.1476, 419.7331
228.6297, 422.6335
229.1118, 424.6746
229.5940, 426.5213
230.0761, 428.6396
230.5582, 431.1395
231.0403, 433.9622
231.5224, 437.2269
232.0045, 441.4044
232.4867, 444.5641
232.9688, 444.7396
233.4509, 444.8444
233.9330, 447.1180
234.4151, 452.1640
234.8972, 458.7914
235.3794, 465.2484
235.8615, 471.7659
236.3436, 477.5858
236.8257, 481.4169
237.3078, 485.4206
237.7899, 491.4481
238.2721, 499.8867
238.7542, 509.3924
239.2363, 517.6185
239.7184, 523.3233
240.2005, 530.3039
240.6826, 538.8364
241.1648, 548.2796
241.6469, 557.9097
242.1290, 567.6334
242.6111, 578.1512
243.0932, 590.4797
243.5753, 605.4667
244.0575, 620.8546
244.5396, 635.9477
245.0217, 651.7763
245.5038, 669.3568
245.9859, 688.8141
246.4680, 708.9496
246.9502, 728.1604
247.4323, 745.0219
247.9144, 764.7551
248.3965, 788.2048
248.8786, 813.6162
249.3607, 839.7687
249.8429, 866.4575
250.3250, 894.2393
250.8071, 923.9762
251.2892, 956.2021
251.7713, 988.0498
252.2534, 1018.417
252.7356, 1048.908
253.2177, 1080.783
253.6998, 1114.016
254.1819, 1147.862
254.6640, 1181.472
255.1461, 1214.557
255.6283, 1249.177
256.1104, 1286.028
256.5925, 1323.671
257.0746, 1361.215
257.5567, 1398.669
258.0388, 1436.329
258.5210, 1474.266
259.0031, 1512.641
259.4852, 1552.689
259.9673, 1596.417
260.4494, 1640.500
260.9315, 1682.189
261.4137, 1721.621
261.8958, 1761.040
262.3779, 1802.245
262.8600, 1845.147
263.3421, 1887.471
263.8242, 1929.364
264.3064, 1970.384
264.7885, 2009.973
265.2706, 2048.138
265.7527, 2085.331
266.2348, 2122.086
266.7169, 2157.271
267.1991, 2189.100
267.6812, 2217.118
268.1633, 2242.043
268.6454, 2265.613
269.1275, 2287.345
269.6096, 2302.698
270.0918, 2308.223
270.5739, 2306.263
271.0560, 2303.603
271.5381, 2302.570
272.0202, 2295.699
272.5023, 2276.094
272.9845, 2244.886
273.4666, 2211.181
273.9487, 2179.225
274.4308, 2144.327
274.9129, 2101.679
275.3951, 2051.015
275.8772, 1994.932
276.3593, 1932.818
276.8414, 1865.720
277.3235, 1800.361
277.8056, 1739.518
278.2878, 1679.991
278.7699, 1618.351
279.2520, 1554.255
279.7341, 1492.083
280.2162, 1435.617
280.6983, 1383.548
281.1805, 1330.188
281.6626, 1272.763
282.1447, 1217.010
282.6268, 1167.281
283.1089, 1122.835
283.5910, 1080.681
284.0732, 1038.477
284.5553, 997.1673
285.0374, 960.1570
285.5195, 929.0331
286.0016, 900.2567
286.4837, 871.5032
286.9659, 843.1729
287.4480, 816.1241
287.9301, 790.4363
288.4122, 766.3688
288.8943, 744.8636
289.3764, 726.0118
289.8586, 709.5868
290.3407, 696.0738
290.8228, 684.3757
291.3049, 673.0050
291.7870, 661.5349
292.2691, 649.9838
292.7513, 638.0529
293.2334, 625.4647
293.7155, 613.4955
294.1976, 601.9886
294.6797, 591.5941
295.1618, 583.0948
295.6440, 576.9381
296.1261, 572.1221
296.6082, 567.2355
297.0903, 562.1435
297.5724, 557.5390
298.0545, 553.7004
298.5367, 550.3239
299.0188, 547.1729
299.5009, 544.2052
299.9830, 541.7174
300.4651, 540.0708
300.9472, 539.3175
301.4294, 538.9433
301.9115, 538.9249
302.3936, 539.2730
302.8757, 539.7390
303.3578, 540.4530
303.8399, 542.0707
304.3221, 545.4601
304.8042, 550.6456
305.2863, 555.7046
305.7684, 559.7348
306.2505, 564.6517
306.7326, 571.3869
307.2148, 579.6749
307.6969, 588.7731
308.1790, 598.4288
308.6611, 608.4946
309.1432, 618.0897
309.6253, 626.4562
310.1075, 635.4610
310.5896, 646.0314
311.0717, 657.4877
311.5538, 668.8381
312.0359, 679.4931
312.5180, 689.7543
313.0002, 700.7053
313.4823, 713.0323
313.9644, 724.5928
314.4465, 734.1618
314.9286, 743.1630
315.4107, 752.8104
315.8929, 763.5189
316.3750, 775.4458
316.8571, 789.5145
317.3392, 807.2061
317.8213, 822.4730
318.3034, 831.7284
318.7856, 839.8658
319.2677, 849.8427
319.7498, 862.2328
320.2319, 875.9288
320.7140, 889.7713
321.1961, 903.6885
321.6783, 918.3607
322.1604, 935.0566
322.6425, 951.4909
323.1246, 966.7283
323.6067, 980.6476
324.0888, 993.4828
324.5710, 1005.204
325.0531, 1015.805
325.5352, 1026.479
326.0173, 1039.250
326.4994, 1049.202
326.9815, 1055.017
327.4637, 1056.896
327.9458, 1055.176
328.4279, 1049.825
328.9100, 1041.158
329.3921, 1030.406
329.8742, 1018.753
330.3564, 1002.276
330.8385, 978.3164
331.3206, 950.1460
331.8027, 920.6614
332.2848, 890.7124
332.7669, 860.6664
333.2491, 831.1331
333.7312, 802.0378
334.2133, 773.2007
334.6954, 744.1884
335.1775, 715.7907
335.6596, 688.3151
336.1418, 661.7252
336.6239, 636.9493
337.1060, 615.2751
337.5881, 596.8907
338.0702, 578.0316
338.5523, 556.9475
339.0345, 536.7617
339.5165, 519.3622
339.9987, 504.4005
340.4808, 490.6317
340.9629, 477.2860
341.4450, 464.3647
341.9271, 452.5191
342.4092, 442.0944
342.8914, 432.2096
343.3735, 422.5052
343.8556, 412.9425
344.3377, 403.4166
344.8198, 393.5023
345.3019, 384.0639
345.7841, 377.0799
346.2662, 373.2756
346.7483, 369.0915
347.2304, 362.4379
347.7125, 355.0578
348.1946, 348.4166
348.6768, 342.8725
349.1589, 337.7110
349.6410, 332.0037
350.1231, 325.7846
350.6052, 320.4379
351.0873, 316.7939
351.5695, 313.6940
352.0516, 309.9459
352.5337, 305.6297
353.0158, 301.8344
353.4979, 299.8246
353.9800, 298.9586
354.4622, 296.9991
354.9443, 293.5295
355.4264, 289.3901
355.9085, 284.4992
356.3906, 279.3760
356.8727, 275.3011
357.3549, 273.2536
357.8370, 272.1907
358.3191, 270.7941
358.8012, 269.0796
359.2833, 266.8466
359.7654, 263.4409
360.2476, 259.6868
360.7297, 256.9680
361.2118, 255.7680
361.6939, 254.8973
362.1760, 253.5498
362.6581, 251.7751
363.1403, 249.7923
363.6224, 247.4728
364.1045, 245.2422
364.5866, 243.7885
365.0687, 243.1689
365.5508, 242.2575
366.0330, 240.1694
366.5151, 237.6035
366.9972, 235.9534
367.4793, 235.5846
367.9614, 235.2852
368.4435, 233.7302
368.9257, 231.1641
369.4078, 229.0752
369.8899, 227.8892
370.3720, 227.1032
370.8541, 226.4872
371.3362, 225.9785
371.8184, 225.1783
372.3005, 223.7458
372.7826, 221.9076
373.2647, 220.4611
373.7468, 219.6114
374.2289, 218.7717
374.7111, 217.7944
375.1932, 216.6540
375.6753, 215.1449
376.1574, 213.1252
376.6395, 211.1405
377.1216, 210.2350
377.6038, 210.8677
378.0859, 210.7815
378.5680, 209.0437
379.0501, 206.9303
379.5322, 205.7713
380.0143, 205.6270
380.4965, 205.4515
380.9786, 204.3119
381.4607, 202.1653
381.9428, 200.1278
382.4249, 198.0481
382.9070, 196.2097
383.3892, 194.7168
383.8713, 193.5570
384.3534, 192.8131
384.8355, 192.5745
385.3176, 192.5793
385.7997, 192.0493
386.2819, 189.8456
386.7640, 188.5528
387.2461, 189.1923
387.7282, 190.2663
388.2103, 190.2822
388.6924, 188.9525
389.1746, 187.1474
389.6567, 185.9713
390.1388, 185.7078
390.6209, 184.9167
391.1030, 182.9940
391.5851, 181.2087
392.0673, 180.0787
392.5494, 179.5551
393.0315, 179.4477
393.5136, 179.7019
393.9957, 180.1694
394.4778, 179.9384
394.9600, 178.0181
395.4421, 176.7314
395.9242, 177.0159
396.4063, 177.7806
396.8884, 177.8302
397.3705, 176.7973
397.8527, 175.3392
398.3348, 174.6158
398.8169, 175.0834
399.2990, 174.6496
399.7811, 171.5919
400.2632, 168.9442
400.7454, 168.5303
401.2275, 169.9883
401.7096, 171.6346
402.1917, 172.2044
402.6738, 171.8718
403.1559, 171.7075
403.6381, 171.9845
404.1202, 171.9318
404.6023, 170.9131
405.0844, 169.5607
405.5665, 168.6787
406.0486, 168.6012
406.5308, 168.8675
407.0129, 168.9072
407.4950, 168.7079
407.9771, 168.4546
408.4592, 168.2374
408.9413, 167.9267
409.4235, 167.1534
409.9056, 165.9773
410.3877, 165.4224
410.8698, 166.8263
411.3519, 169.2295
411.8340, 169.9328
412.3162, 168.2937
412.7983, 166.5334
413.2804, 166.6150
413.7625, 167.7452
414.2446, 168.1126
414.7267, 166.8528
415.2089, 165.3330
415.6910, 164.6521
416.1731, 164.7022
416.6552, 165.0133
417.1373, 165.6179
417.6194, 166.0796
418.1016, 165.2209
418.5837, 162.5320
419.0658, 161.0556
419.5479, 162.8895
420.0300, 165.7839
420.5121, 166.7088
420.9943, 165.2650
421.4764, 163.4856
421.9585, 163.2498
422.4406, 164.6039
422.9227, 165.4167
423.4048, 165.8658
423.8870, 165.6521
424.3691, 163.9727
424.8512, 161.5806
425.3333, 160.0246
425.8154, 160.0500
426.2975, 161.1134
426.7797, 162.0139
427.2618, 163.2273
427.7439, 163.4440
428.2260, 161.6279
428.7081, 159.5869
429.1902, 158.7828
429.6724, 159.2644
430.1545, 160.0238
430.6366, 160.0829
431.1187, 159.4188
431.6008, 159.1150
432.0829, 159.5284
432.5651, 159.9468
433.0472, 160.2243
433.5293, 160.4173
434.0114, 160.7107
434.4935, 161.1943
434.9756, 161.5481
435.4578, 161.0096
435.9399, 159.1322
436.4220, 157.8263
436.9041, 157.6079
437.3862, 157.8192
437.8683, 158.4751
438.3505, 159.3592
438.8326, 159.7497
439.3147, 158.7941
439.7968, 156.8758
440.2789, 155.6399
440.7610, 155.2234
441.2432, 155.1963
441.7253, 155.6169
442.2074, 156.1992
442.6895, 156.6392
443.1716, 156.9159
443.6537, 156.8907
444.1359, 156.4098
444.6180, 155.5018
445.1001, 154.2227
445.5822, 152.2867
446.0643, 150.4891
446.5464, 149.9056
447.0286, 150.3972
447.5107, 150.8947
447.9928, 151.2206
448.4749, 151.3446
448.9570, 151.1628
449.4391, 150.6975
449.9213, 150.2078
450.4034, 149.8495
450.8855, 149.5821
451.3676, 149.2379
451.8497, 148.5520
452.3318, 148.1982
452.8140, 148.6864
453.2961, 149.4615
453.7782, 149.7614
454.2603, 149.4175
454.7424, 148.8883
455.2245, 148.7420
455.7067, 149.1303
456.1888, 148.9803
456.6709, 147.5682
457.1530, 146.4592
457.6351, 146.5197
458.1172, 147.3162
458.5994, 148.0043
459.0815, 148.1472
459.5636, 147.9064
460.0457, 147.6418
460.5278, 147.1250
461.0099, 147.0763
461.4921, 148.3132
461.9742, 149.3719
462.4563, 148.9011
462.9384, 147.1362
463.4205, 145.6774
463.9026, 146.1721
464.3848, 148.2075
464.8669, 148.7961
465.3490, 146.9645
465.8311, 145.5425
466.3132, 146.0565
466.7953, 147.3844
467.2775, 148.2979
467.7596, 148.4707
468.2417, 148.2387
468.7238, 147.7442
469.2059, 147.0472
469.6880, 146.6548
470.1702, 146.7603
470.6523, 147.0106
471.1344, 147.1781
471.6165, 147.2425
472.0986, 147.0347
472.5807, 145.9208
473.0629, 144.9521
473.5450, 145.5079
474.0271, 147.2897
474.5092, 148.5179
474.9913, 148.2907
475.4734, 147.0900
475.9556, 145.9071
476.4377, 144.4411
476.9198, 143.6998
477.4019, 144.5484
477.8840, 145.7510
478.3661, 146.1150
478.8483, 145.5619
479.3304, 144.7185
479.8125, 144.0643
480.2946, 143.5991
480.7767, 143.2596
481.2589, 142.9548
481.7410, 142.8917
482.2231, 143.1585
482.7052, 143.6604
483.1873, 144.3790
483.6694, 145.2786
484.1516, 146.1457
484.6337, 146.7014
485.1158, 146.9183
485.5979, 146.9991
486.0800, 147.0276
486.5621, 146.8055
487.0443, 146.0516
487.5264, 145.0323
488.0085, 144.1903
488.4906, 143.6844
488.9727, 143.5516
489.4548, 144.0980
489.9370, 145.3995
490.4191, 146.1177
490.9012, 145.5991
491.3833, 144.6550
491.8654, 144.0316
492.3475, 143.7236
492.8297, 143.6167
493.3118, 143.8512
493.7939, 144.1673
494.2760, 144.1177
494.7581, 143.7107
495.2402, 143.5168
495.7224, 143.9282
496.2045, 144.7229
496.6866, 145.2359
497.1687, 145.4431
497.6508, 145.4831
498.1329, 145.3243
498.6151, 145.0486
499.0972, 144.7529
499.5793, 144.4470
500.0614, 144.0364
500.5435, 143.3855
501.0256, 142.4990
501.5078, 142.0977
501.9899, 142.2714
502.4720, 142.8302
502.9541, 144.2172
503.4362, 145.7599
503.9183, 146.5660
504.4004, 146.4212
504.8825, 146.0102
505.3647, 146.3320
505.8468, 147.5493
506.3289, 148.2345
506.8110, 148.0387
507.2931, 147.6914
507.7752, 147.5965
508.2574, 147.5589
508.7395, 147.1226
509.2216, 145.8959
509.7037, 144.7483
510.1858, 145.1648
510.6679, 147.0224
511.1501, 147.8745
511.6322, 146.5978
512.1143, 144.8936
512.5964, 144.7873
513.0786, 146.0381
513.5607, 146.9611
514.0428, 146.8228
514.5249, 146.4058
515.0070, 146.5126
515.4891, 147.0081
515.9713, 147.1229
516.4534, 146.4064
516.9355, 145.3423
517.4176, 145.0041
517.8997, 145.8137
518.3818, 146.5248
518.8640, 147.3445
519.3461, 147.8739
519.8282, 147.4773
520.3103, 146.4608
520.7924, 145.9138
521.2745, 146.6557
521.7567, 148.3015
522.2388, 149.1693
522.7209, 148.7325
523.2030, 148.4770
523.6851, 148.6914
524.1672, 149.0705
524.6494, 149.3714
525.1315, 149.5911
525.6136, 149.9194
526.0957, 150.6377
526.5778, 151.5803
527.0599, 152.1484
527.5421, 152.2969
528.0242, 152.2020
528.5063, 151.6458
528.9884, 151.0436
529.4705, 151.0409
529.9526, 151.8431
530.4348, 152.5072
530.9169, 152.2703
531.3990, 151.6634
531.8811, 151.5320
532.3632, 151.9911
532.8453, 152.9355
533.3275, 154.5039
533.8096, 156.5084
534.2917, 157.4062
534.7738, 156.1581
535.2559, 155.3129
535.7380, 155.8739
536.2202, 156.9022
536.7023, 157.3095
537.1844, 156.9095
537.6665, 156.2832
538.1486, 156.0260
538.6307, 156.1401
539.1129, 156.2970
539.5950, 156.2207
540.0771, 156.5782
540.5592, 158.0101
541.0413, 159.6958
541.5234, 160.6694
542.0056, 160.6870
542.4877, 160.3996
542.9698, 160.4116
543.4519, 160.6938
543.9340, 161.0057
544.4161, 161.2621
544.8983, 161.7128
545.3804, 162.7306
545.8625, 164.0270
546.3446, 165.0724
546.8267, 165.8101
547.3088, 166.2500
547.7910, 166.0329
548.2731, 165.5969
548.7552, 165.8993
549.2373, 167.1528
549.7194, 168.7093
550.2015, 170.0283
550.6837, 171.1124
551.1658, 171.6000
551.6479, 171.0511
552.1300, 170.5334
552.6121, 170.0845
553.0942, 169.9412
553.5764, 170.6125
554.0585, 172.1309
554.5406, 173.6243
555.0227, 173.7364
555.5048, 172.2761
555.9869, 172.6830
556.4691, 176.7803
556.9512, 180.2104
557.4333, 181.0285
557.9154, 180.5408
558.3975, 180.3762
558.8796, 180.9942
559.3618, 181.7998
559.8439, 182.0742
560.3260, 182.0620
560.8081, 182.7787
561.2902, 184.4933
561.7723, 186.3896
562.2545, 187.9859
562.7366, 189.2499
563.2187, 190.1931
563.7008, 190.3874
564.1829, 190.8063
564.6650, 191.9502
565.1472, 193.4812
565.6293, 195.0128
566.1114, 196.4354
566.5935, 197.7386
567.0756, 198.9334
567.5577, 200.0182
568.0399, 200.7509
568.5220, 200.4913
569.0041, 200.6551
569.4862, 201.5972
569.9683, 202.9936
570.4504, 204.5505
570.9326, 206.1997
571.4147, 207.9377
571.8968, 209.8635
572.3789, 211.9145
572.8610, 213.7975
573.3431, 215.6128
573.8253, 216.9301
574.3074, 217.1527
574.7895, 216.9068
575.2716, 217.0631
575.7537, 217.7246
576.2358, 218.6094
576.7180, 219.5779
577.2001, 220.6882
577.6822, 222.0747
578.1643, 223.7297
578.6464, 225.4317
579.1285, 227.0142
579.6107, 228.5374
580.0928, 230.2625
580.5749, 232.8611
581.0570, 234.7500
581.5391, 235.1793
582.0212, 235.4135
582.5034, 236.5224
582.9855, 238.4420
583.4676, 240.4317
583.9497, 242.0499
584.4318, 243.2405
584.9139, 243.5950
585.3961, 242.6643
585.8782, 242.4683
586.3602, 244.2512
586.8423, 246.3562
587.3245, 247.4119
587.8066, 247.4758
588.2887, 247.4990
588.7708, 248.1121
589.2529, 248.7528
589.7350, 248.5705
