##NAMES=Paravauxite
##RRUFFID=R050468
##IDEAL CHEMISTRY=Fe^2+^Al_2_(PO_4_)_2_(OH)_2_&#183;8H_2_O
##LOCALITY=Llallagua, Bustillos Province, Potosi, Bolivia
##OWNER=RRUFF
##SOURCE=University of Arizona Mineral Museum
##DESCRIPTION=Colorless aggregate of tabular crystals
##STATUS=The identification of this mineral has been confirmed by X-ray diffraction and chemical analysis
##URL=rruff.info/R050468
##MEASURED CHEMISTRY=(Fe^2+^_0.94_Mg_0.05_Mn_0.01_)_Σ=1_Al_2.00_(P_1.00_O_4_)_2_((OH)_0.86_F_0.14_)_Σ=2_·8H_2_O
93.78320, 44.39957
94.26532, 45.11001
94.74744, 45.27224
95.22955, 44.76812
95.71167, 44.00540
96.19379, 43.35615
96.67590, 42.90310
97.15802, 42.58078
97.64014, 42.46377
98.12225, 42.45140
98.60437, 42.38120
99.08649, 42.22204
99.56860, 41.97758
100.0507, 41.63300
100.5328, 41.08115
101.0150, 40.56664
101.4971, 40.28091
101.9792, 40.22645
102.4613, 40.25359
102.9434, 40.30199
103.4255, 40.40313
103.9077, 40.60637
104.3898, 40.94099
104.8719, 41.33938
105.3540, 41.68625
105.8361, 42.05351
106.3182, 42.21967
106.8004, 42.20070
107.2825, 41.97777
107.7646, 41.45040
108.2467, 40.50341
108.7288, 39.20357
109.2109, 38.51162
109.6931, 39.13827
110.1752, 39.64281
110.6573, 39.50581
111.1394, 38.88689
111.6215, 38.30067
112.1036, 38.21880
112.5858, 38.73713
113.0679, 39.05859
113.5500, 39.15906
114.0321, 39.10409
114.5142, 38.87740
114.9964, 38.47752
115.4785, 38.06297
115.9606, 37.84919
116.4427, 37.82306
116.9248, 37.75958
117.4069, 37.54804
117.8891, 37.26778
118.3712, 37.07549
118.8533, 36.99791
119.3354, 37.03485
119.8175, 37.20502
120.2996, 37.49611
120.7818, 37.77397
121.2639, 37.94754
121.7460, 38.01500
122.2281, 38.02518
122.7102, 37.88885
123.1923, 37.76022
123.6745, 37.72645
124.1566, 37.80094
124.6387, 37.93153
125.1208, 38.03931
125.6029, 38.08676
126.0850, 38.19541
126.5672, 38.50825
127.0493, 38.80523
127.5314, 38.87366
128.0135, 38.63426
128.4956, 38.20703
128.9777, 37.92394
129.4599, 37.90765
129.9420, 37.91726
130.4241, 37.97905
130.9062, 38.05037
131.3883, 38.07378
131.8705, 38.01823
132.3526, 37.88831
132.8347, 37.71065
133.3168, 37.43689
133.7989, 37.17477
134.2810, 37.00608
134.7632, 36.90660
135.2453, 36.73986
135.7274, 36.36253
136.2095, 35.85473
136.6916, 35.50618
137.1737, 35.45679
137.6559, 35.49535
138.1380, 35.40128
138.6201, 35.15329
139.1022, 34.87041
139.5843, 34.58546
140.0664, 34.31873
140.5486, 34.11708
141.0307, 34.04192
141.5128, 34.03904
141.9949, 33.94635
142.4770, 33.71990
142.9591, 33.45935
143.4413, 33.19240
143.9234, 32.92887
144.4055, 32.67943
144.8876, 32.44043
145.3697, 32.21154
145.8518, 32.07585
146.3340, 32.19908
146.8161, 32.27369
147.2982, 32.17529
147.7803, 31.93418
148.2624, 31.66471
148.7445, 31.48207
149.2267, 31.42077
149.7088, 31.30783
150.1909, 31.13697
150.6730, 30.93340
151.1551, 30.68492
151.6372, 30.40136
152.1194, 30.13474
152.6015, 29.94888
153.0836, 29.87888
153.5657, 29.81653
154.0478, 29.74452
154.5299, 29.68796
155.0121, 29.69530
155.4942, 29.78462
155.9763, 29.87519
156.4584, 29.81637
156.9405, 29.59554
157.4227, 29.40924
157.9048, 29.33797
158.3869, 29.33685
158.8690, 29.30243
159.3511, 29.18351
159.8332, 29.06366
160.3154, 29.05812
160.7975, 29.16971
161.2796, 29.27212
161.7617, 29.23268
162.2438, 29.07074
162.7259, 29.05220
163.2081, 29.39646
163.6902, 29.78152
164.1723, 29.96361
164.6544, 29.92112
165.1365, 29.78355
165.6186, 29.68555
166.1008, 29.64142
166.5829, 29.57432
167.0650, 29.40032
167.5471, 29.24559
168.0292, 29.20024
168.5113, 29.28458
168.9935, 29.44241
169.4756, 29.57713
169.9577, 29.64795
170.4398, 29.78003
170.9219, 30.10032
171.4040, 30.41314
171.8862, 30.52905
172.3683, 30.38321
172.8504, 30.08752
173.3325, 29.90634
173.8146, 29.96860
174.2967, 30.00485
174.7789, 29.97567
175.2610, 29.92702
175.7431, 29.92351
176.2252, 29.99694
176.7073, 30.11243
177.1894, 30.15168
177.6716, 29.99578
178.1537, 29.91626
178.6358, 30.03762
179.1179, 30.26794
179.6000, 30.41965
180.0821, 30.38133
180.5643, 30.22885
181.0464, 30.20301
181.5285, 30.37285
182.0106, 30.54334
182.4927, 30.62677
182.9749, 30.63377
183.4570, 30.60281
183.9391, 30.51520
184.4212, 30.42756
184.9033, 30.44959
185.3854, 30.63068
185.8676, 30.84269
186.3497, 30.97132
186.8318, 31.01362
187.3139, 31.07806
187.7960, 31.25250
188.2781, 31.45741
188.7603, 31.59508
189.2424, 31.62533
189.7245, 31.63330
190.2066, 31.73674
190.6887, 31.96130
191.1708, 32.19022
191.6530, 32.37148
192.1351, 32.54280
192.6172, 32.75029
193.0993, 33.01852
193.5814, 33.29298
194.0635, 33.44570
194.5457, 33.38669
195.0278, 33.38486
195.5099, 33.58887
195.9920, 33.82969
196.4741, 33.93252
196.9562, 33.81581
197.4384, 33.54890
197.9205, 33.33816
198.4026, 33.33049
198.8847, 33.16696
199.3668, 32.67361
199.8489, 32.05591
200.3311, 31.53333
200.8132, 31.21639
201.2953, 31.07513
201.7774, 30.99448
202.2595, 31.07100
202.7416, 31.10323
203.2238, 31.05298
203.7059, 30.95025
204.1880, 30.82303
204.6701, 30.68129
205.1522, 30.54553
205.6344, 30.51460
206.1165, 30.66927
206.5986, 30.82297
207.0807, 30.93176
207.5628, 31.01279
208.0449, 31.09336
208.5271, 31.18189
209.0092, 31.28877
209.4913, 31.45928
209.9734, 31.78415
210.4555, 32.05244
210.9376, 32.15086
211.4198, 32.12814
211.9019, 32.12139
212.3840, 32.20469
212.8661, 32.34353
213.3482, 32.43512
213.8303, 32.44629
214.3125, 32.46612
214.7946, 32.56667
215.2767, 32.73002
215.7588, 32.85484
216.2409, 32.88747
216.7230, 32.85752
217.2052, 32.82481
217.6873, 32.77498
218.1694, 32.75532
218.6515, 32.80882
219.1336, 32.93380
219.6157, 33.08104
220.0979, 33.24936
220.5800, 33.42178
221.0621, 33.58614
221.5442, 33.74550
222.0263, 33.87886
222.5084, 33.92607
222.9906, 33.87021
223.4727, 33.91850
223.9548, 34.26356
224.4369, 34.66345
224.9190, 34.91584
225.4011, 34.97832
225.8833, 35.01663
226.3654, 35.21967
226.8475, 35.60095
227.3296, 36.08082
227.8117, 36.83726
228.2938, 37.56283
228.7760, 38.01229
229.2581, 38.14791
229.7402, 38.18044
230.2223, 38.40991
230.7044, 38.92886
231.1866, 39.35064
231.6687, 39.58713
232.1508, 39.75600
232.6329, 39.93704
233.1150, 40.14136
233.5971, 40.31024
234.0793, 40.36280
234.5614, 40.28097
235.0435, 40.11580
235.5256, 39.82624
236.0077, 39.49994
236.4898, 39.21450
236.9720, 38.97218
237.4541, 38.69265
237.9362, 38.25831
238.4183, 37.60218
238.9004, 36.94994
239.3825, 36.22698
239.8647, 35.56351
240.3468, 35.08856
240.8289, 34.79477
241.3110, 34.54485
241.7931, 34.15683
242.2752, 33.55820
242.7574, 33.03281
243.2395, 32.58569
243.7216, 32.19566
244.2037, 31.86227
244.6858, 31.57987
245.1679, 31.32762
245.6501, 31.08815
246.1322, 30.87406
246.6143, 30.61230
247.0964, 30.22077
247.5785, 29.84683
248.0606, 29.62640
248.5428, 29.55208
249.0249, 29.46520
249.5070, 29.19102
249.9891, 28.68269
250.4712, 28.35726
250.9533, 28.29089
251.4355, 28.33370
251.9176, 28.43715
252.3997, 28.57867
252.8818, 28.67159
253.3639, 28.63262
253.8460, 28.45516
254.3282, 28.30343
254.8103, 28.14748
255.2924, 28.03902
255.7745, 28.04570
256.2566, 28.15651
256.7387, 28.25716
257.2209, 28.24599
257.7030, 28.15216
258.1851, 28.16385
258.6672, 28.33225
259.1493, 28.56380
259.6314, 28.83218
260.1136, 29.12742
260.5957, 29.36976
261.0778, 29.50730
261.5599, 29.55093
262.0420, 29.56793
262.5241, 29.51073
263.0063, 29.48347
263.4884, 29.55565
263.9705, 29.72315
264.4526, 29.96619
264.9347, 30.34816
265.4168, 30.74949
265.8990, 30.93923
266.3811, 30.82408
266.8632, 30.69846
267.3453, 30.78445
267.8275, 31.05909
268.3096, 31.35253
268.7917, 31.63853
269.2738, 31.88011
269.7559, 32.00475
270.2380, 31.97864
270.7202, 32.01512
271.2023, 32.32357
271.6844, 32.85770
272.1665, 33.29127
272.6486, 33.45289
273.1307, 33.58366
273.6129, 33.96947
274.0950, 34.60950
274.5771, 35.18417
275.0592, 35.37437
275.5413, 35.27263
276.0234, 35.44323
276.5056, 36.14757
276.9877, 36.91309
277.4698, 37.41742
277.9519, 37.67665
278.4340, 37.78010
278.9161, 37.67739
279.3983, 37.43535
279.8804, 37.36468
280.3625, 37.55243
280.8446, 37.81353
281.3267, 38.10489
281.8088, 38.37936
282.2910, 38.52431
282.7731, 38.47414
283.2552, 38.24712
283.7373, 37.88195
284.2194, 37.30677
284.7015, 36.72441
285.1837, 36.19830
285.6658, 35.72866
286.1479, 35.32649
286.6300, 35.02727
287.1121, 34.77145
287.5942, 34.40688
288.0764, 33.86541
288.5585, 33.37687
289.0406, 33.05817
289.5227, 32.81759
290.0048, 32.57230
290.4869, 32.29354
290.9691, 31.98688
291.4512, 31.61787
291.9333, 31.10827
292.4154, 30.79422
292.8975, 31.02255
293.3796, 31.32601
293.8618, 31.32246
294.3439, 30.91520
294.8260, 30.34992
295.3081, 29.91503
295.7902, 29.61532
296.2723, 29.42639
296.7545, 29.47926
297.2366, 29.55043
297.7187, 29.52057
298.2008, 29.37685
298.6829, 29.17201
299.1650, 28.94056
299.6472, 28.67396
300.1293, 28.45555
300.6114, 28.36620
301.0935, 28.25956
301.5756, 28.02267
302.0577, 27.69882
302.5399, 27.43829
303.0220, 27.41684
303.5041, 27.61658
303.9862, 27.61148
304.4683, 27.17068
304.9504, 26.78585
305.4326, 26.69285
305.9147, 26.77654
306.3968, 26.80659
306.8789, 26.61924
307.3610, 26.28548
307.8431, 26.12690
308.3253, 26.27926
308.8074, 26.39931
309.2895, 26.38672
309.7716, 26.29501
310.2537, 26.17933
310.7358, 26.05935
311.2180, 25.94733
311.7001, 25.88082
312.1822, 25.89917
312.6643, 25.87218
313.1464, 25.69305
313.6285, 25.51102
314.1107, 25.47235
314.5928, 25.61187
315.0749, 25.80239
315.5570, 25.85476
316.0392, 25.72793
316.5213, 25.61140
317.0034, 25.49676
317.4855, 25.41778
317.9676, 25.40625
318.4497, 25.45841
318.9319, 25.53662
319.4140, 25.63029
319.8961, 25.75212
320.3782, 25.76250
320.8603, 25.50995
321.3424, 25.28428
321.8246, 25.21094
322.3067, 25.25666
322.7888, 25.32239
323.2709, 25.33740
323.7530, 25.31025
324.2351, 25.30865
324.7173, 25.38309
325.1994, 25.40908
325.6815, 25.30295
326.1636, 25.14218
326.6457, 25.03394
327.1278, 25.03359
327.6100, 25.10848
328.0921, 25.18211
328.5742, 25.25056
329.0563, 25.32678
329.5384, 25.44552
330.0205, 25.55543
330.5027, 25.61393
330.9848, 25.60895
331.4669, 25.55226
331.9490, 25.43893
332.4311, 25.24207
332.9132, 25.10764
333.3954, 25.14551
333.8775, 25.18727
334.3596, 25.10686
334.8417, 24.91575
335.3238, 24.75617
335.8059, 24.82134
336.2881, 25.11728
336.7702, 25.21554
337.2523, 24.91983
337.7344, 24.62848
338.2165, 24.52366
338.6986, 24.56403
339.1808, 24.64080
339.6629, 24.70626
340.1450, 24.75260
340.6271, 24.74540
341.1092, 24.65883
341.5913, 24.56701
342.0735, 24.49992
342.5556, 24.44387
343.0377, 24.37869
343.5198, 24.29252
344.0019, 24.20751
344.4840, 24.16174
344.9662, 24.16122
345.4483, 24.17182
345.9304, 24.16884
346.4125, 24.18343
346.8946, 24.26246
347.3767, 24.41247
347.8589, 24.54094
348.3410, 24.53510
348.8231, 24.39926
349.3052, 24.31064
349.7873, 24.33539
350.2694, 24.36531
350.7516, 24.29956
351.2337, 24.16459
351.7158, 24.07641
352.1979, 24.12840
352.6800, 24.28211
353.1621, 24.40850
353.6443, 24.49187
354.1264, 24.57952
354.6085, 24.76165
355.0906, 24.95681
355.5727, 25.00758
356.0548, 24.76662
356.5370, 24.47486
357.0191, 24.52371
357.5012, 24.95435
357.9833, 25.25915
358.4654, 25.10106
358.9475, 24.78087
359.4297, 24.66613
359.9118, 24.81852
360.3939, 25.03034
360.8760, 25.15094
361.3581, 25.19851
361.8402, 25.27591
362.3224, 25.42988
362.8045, 25.58134
363.2866, 25.61984
363.7687, 25.55979
364.2508, 25.55233
364.7329, 25.71348
365.2151, 25.94724
365.6972, 26.07758
366.1793, 26.07438
366.6614, 26.06536
367.1436, 26.15540
367.6257, 26.31711
368.1078, 26.46485
368.5899, 26.61414
369.0720, 26.72492
369.5541, 26.71509
370.0363, 26.61073
370.5184, 26.59838
371.0005, 26.80418
371.4826, 27.12120
371.9647, 27.30900
372.4468, 27.34632
372.9290, 27.32886
373.4111, 27.19624
373.8932, 27.05073
374.3753, 27.13857
374.8574, 27.55471
375.3395, 28.01459
375.8217, 28.11635
376.3038, 27.80702
376.7859, 27.62005
377.2680, 27.70973
377.7501, 27.86984
378.2322, 27.94047
378.7144, 27.90933
379.1965, 27.80987
379.6786, 27.63808
380.1607, 27.41397
380.6428, 27.34327
381.1249, 27.58022
381.6071, 27.77725
382.0892, 27.78298
382.5713, 27.66596
383.0534, 27.56913
383.5355, 27.55699
384.0176, 27.56986
384.4998, 27.47147
384.9819, 27.08579
385.4640, 26.88288
385.9461, 27.06381
386.4282, 27.31345
386.9103, 27.33062
387.3925, 27.09065
387.8746, 26.80175
388.3567, 26.68856
388.8388, 26.77731
389.3209, 26.85735
389.8030, 26.90274
390.2852, 26.96756
390.7673, 27.08143
391.2494, 27.23006
391.7315, 27.38736
392.2136, 27.53946
392.6957, 27.68222
393.1779, 27.79750
393.6600, 27.88332
394.1421, 27.93970
394.6242, 27.92177
395.1063, 27.90224
395.5884, 27.94065
396.0706, 28.05381
396.5527, 28.22601
397.0348, 28.44295
397.5169, 28.70978
397.9990, 28.99589
398.4811, 29.37604
398.9633, 29.70389
399.4454, 29.88889
399.9275, 29.96914
400.4096, 30.04931
400.8917, 30.19922
401.3738, 30.40481
401.8560, 30.61323
402.3381, 30.85280
402.8202, 31.03776
403.3023, 31.12228
403.7844, 31.15736
404.2665, 31.19612
404.7487, 31.25529
405.2308, 31.30728
405.7129, 31.34441
406.1950, 31.37302
406.6771, 31.26522
407.1592, 30.85460
407.6414, 30.44966
408.1235, 30.31503
408.6056, 30.40606
409.0877, 30.45787
409.5698, 30.27118
410.0519, 29.94532
410.5341, 29.69320
411.0162, 29.50975
411.4983, 29.44383
411.9804, 29.61849
412.4625, 29.91185
412.9446, 30.12610
413.4268, 30.22875
413.9089, 30.24845
414.3910, 30.14427
414.8731, 29.95396
415.3553, 29.86831
415.8374, 29.96918
416.3195, 30.16555
416.8016, 30.30594
417.2837, 30.37616
417.7658, 30.55410
418.2480, 30.99596
418.7301, 31.51223
419.2122, 31.86771
419.6943, 32.04321
420.1764, 32.20058
420.6585, 32.46213
421.1407, 32.82211
421.6228, 33.17334
422.1049, 33.50851
422.5870, 33.84734
423.0691, 34.21399
423.5512, 34.58673
424.0334, 34.93021
424.5155, 35.22863
424.9976, 35.48782
425.4797, 35.70244
425.9618, 35.73951
426.4439, 36.02294
426.9261, 36.79058
427.4082, 37.61321
427.8903, 38.21993
428.3724, 38.58858
428.8545, 38.81066
429.3366, 38.95330
429.8188, 39.02024
430.3009, 39.07372
430.7830, 39.23396
431.2651, 39.23759
431.7472, 38.92051
432.2293, 38.46997
432.7115, 38.16404
433.1936, 38.09789
433.6757, 38.03236
434.1578, 37.53017
434.6399, 36.43985
435.1220, 35.45453
435.6042, 34.71639
436.0863, 34.02160
436.5684, 33.28965
437.0505, 32.51925
437.5326, 31.72606
438.0147, 30.88725
438.4969, 30.04734
438.9790, 29.37370
439.4611, 28.90398
439.9432, 28.50889
440.4253, 28.19874
440.9074, 27.90349
441.3896, 27.53240
441.8717, 27.04978
442.3538, 26.58271
442.8359, 26.27797
443.3180, 26.10248
443.8001, 25.86056
444.2823, 25.47458
444.7644, 25.08631
445.2465, 24.85282
445.7286, 24.74051
446.2107, 24.62295
446.6928, 24.45877
447.1750, 24.27804
447.6571, 24.11216
448.1392, 23.96055
448.6213, 23.80339
449.1034, 23.62241
449.5855, 23.43720
450.0677, 23.29636
450.5498, 23.16621
451.0319, 23.13428
451.5140, 23.34317
451.9961, 23.60797
452.4782, 23.68832
452.9604, 23.54449
453.4425, 23.30954
453.9246, 23.10481
454.4067, 22.92580
454.8888, 22.83656
455.3709, 22.84294
455.8531, 22.91439
456.3352, 23.14415
456.8173, 23.40982
457.2994, 23.47950
457.7815, 23.24358
458.2636, 22.87660
458.7458, 22.76346
459.2279, 23.08861
459.7100, 23.28400
460.1921, 23.22097
460.6742, 23.13580
461.1563, 23.17495
461.6385, 23.32540
462.1206, 23.48071
462.6027, 23.55480
463.0848, 23.56664
463.5669, 23.61972
464.0491, 23.73940
464.5312, 23.84756
465.0133, 23.96132
465.4954, 24.02932
465.9775, 23.96702
466.4597, 23.74498
466.9418, 23.52346
467.4239, 23.44074
467.9060, 23.48832
468.3881, 23.62981
468.8702, 23.92204
469.3524, 24.18707
469.8345, 24.22988
470.3166, 24.11970
470.7987, 24.04800
471.2808, 24.12810
471.7629, 24.21550
472.2451, 24.14894
472.7272, 23.96153
473.2093, 23.82444
473.6914, 23.81429
474.1735, 23.88239
474.6556, 23.94850
475.1378, 24.03034
475.6199, 24.05471
476.1020, 23.95229
476.5841, 23.82757
477.0662, 23.77483
477.5483, 23.79696
478.0305, 23.84150
478.5126, 23.87084
478.9947, 23.88613
479.4768, 23.89727
479.9589, 24.01890
480.4410, 23.99224
480.9232, 23.64317
481.4053, 23.20227
481.8874, 22.90694
482.3695, 22.81248
482.8516, 22.81721
483.3337, 22.81598
483.8159, 22.81571
484.2980, 22.74623
484.7801, 22.49761
485.2622, 22.30542
485.7443, 22.33328
486.2264, 22.45068
486.7086, 22.43590
487.1907, 22.17838
487.6728, 21.81969
488.1549, 21.54057
488.6370, 21.34161
489.1191, 21.22692
489.6013, 21.23004
490.0834, 21.28522
490.5655, 21.36286
491.0476, 21.45112
491.5297, 21.46522
492.0118, 21.29947
492.4940, 21.08159
492.9761, 20.99218
493.4582, 21.02769
493.9403, 21.04869
494.4224, 20.98080
494.9045, 20.85607
495.3867, 20.75502
495.8688, 20.67991
496.3509, 20.61551
496.8330, 20.57495
497.3151, 20.53363
497.7972, 20.44959
498.2794, 20.32681
498.7615, 20.22849
499.2436, 20.21818
499.7257, 20.28762
500.2078, 20.28460
500.6899, 20.07763
501.1721, 19.95760
501.6542, 20.05488
502.1363, 20.22074
502.6184, 20.29342
503.1005, 20.23163
503.5826, 20.10746
504.0648, 19.99437
504.5469, 19.88772
505.0290, 19.84051
505.5111, 19.87611
505.9932, 19.94695
506.4753, 20.08728
506.9575, 20.23443
507.4396, 20.28063
507.9217, 20.16984
508.4038, 20.00270
508.8859, 19.89486
509.3680, 19.84398
509.8502, 19.80573
510.3323, 19.75379
510.8144, 19.73893
511.2965, 19.83844
511.7786, 20.02968
512.2607, 20.19555
512.7429, 20.30668
513.2250, 20.38101
513.7071, 20.43051
514.1892, 20.45645
514.6713, 20.45677
515.1534, 20.42430
515.6356, 20.38435
516.1177, 20.38889
516.5998, 20.46579
517.0819, 20.52674
517.5640, 20.56836
518.0461, 20.59455
518.5283, 20.58493
519.0104, 20.55931
519.4925, 20.57407
519.9746, 20.66907
520.4567, 20.82446
520.9388, 20.97152
521.4210, 21.13383
521.9031, 21.23997
522.3852, 21.21898
522.8673, 21.19387
523.3494, 21.29554
523.8315, 21.50020
524.3137, 21.63190
524.7958, 21.47543
525.2779, 21.14922
525.7600, 21.11323
526.2421, 21.45578
526.7242, 21.75246
527.2064, 21.72468
527.6885, 21.59980
528.1706, 21.69338
528.6527, 22.07137
529.1348, 22.41750
529.6169, 22.54633
530.0991, 22.54924
530.5812, 22.56160
531.0633, 22.60099
531.5454, 22.67025
532.0275, 22.77899
532.5096, 22.91974
532.9918, 23.03739
533.4739, 23.19726
533.9560, 23.25598
534.4381, 23.05976
534.9202, 22.81388
535.4023, 22.76438
535.8845, 22.94188
536.3666, 23.18155
536.8487, 23.32288
537.3308, 23.36644
537.8129, 23.37771
538.2951, 23.37917
538.7772, 23.31218
539.2593, 23.06275
539.7415, 22.79390
540.2236, 22.69712
540.7057, 22.81850
541.1878, 23.00677
541.6699, 23.11777
542.1520, 23.16145
542.6342, 23.21410
543.1163, 23.29504
543.5984, 23.34904
544.0805, 23.29686
544.5626, 23.20135
545.0447, 23.19213
545.5269, 23.34834
546.0090, 23.47351
546.4911, 23.40236
546.9732, 23.23206
547.4553, 23.17556
547.9374, 23.27908
548.4196, 23.37399
548.9017, 23.27734
549.3838, 22.98176
549.8659, 22.84028
550.3480, 22.92212
550.8301, 23.04496
551.3123, 23.20701
551.7944, 23.36087
552.2765, 23.44993
552.7586, 23.46083
553.2407, 23.42383
553.7228, 23.35148
554.2050, 23.23548
554.6871, 23.24061
555.1692, 23.42396
555.6513, 23.65386
556.1334, 23.93802
556.6155, 24.21208
557.0977, 24.38913
557.5798, 24.44040
558.0619, 24.43717
558.5440, 24.39460
559.0261, 24.34436
559.5082, 24.42342
559.9904, 24.67183
560.4725, 24.94864
560.9546, 25.12481
561.4367, 25.23727
561.9188, 25.46923
562.4009, 25.96396
562.8831, 26.39880
563.3652, 26.64114
563.8473, 26.75888
564.3294, 26.81615
564.8115, 26.83863
565.2936, 26.87577
565.7758, 26.96482
566.2579, 27.10594
566.7400, 27.40171
567.2221, 28.15057
567.7042, 28.69127
568.1863, 28.78174
568.6685, 28.68472
569.1506, 28.62723
569.6327, 28.67319
570.1148, 28.81921
570.5969, 29.09127
571.0790, 29.47086
571.5612, 29.85432
572.0433, 30.26651
572.5254, 30.60400
573.0075, 30.71867
573.4896, 30.76727
573.9717, 31.02854
574.4539, 31.61731
574.9360, 32.07388
575.4181, 32.03352
575.9002, 31.79952
576.3823, 31.80895
576.8644, 32.09936
577.3466, 32.45378
577.8287, 32.73138
578.3108, 32.93739
578.7929, 33.09658
579.2750, 33.13851
579.7571, 33.22636
580.2393, 33.44915
580.7214, 33.66032
581.2035, 33.72537
581.6856, 33.65595
582.1677, 33.57579
582.6498, 33.59154
583.1320, 33.65241
583.6141, 33.56447
584.0962, 33.27557
584.5783, 33.01637
585.0604, 32.89201
585.5425, 32.78745
586.0247, 32.59397
586.5068, 32.31583
586.9889, 32.05444
587.4710, 31.89060
