##NAMES=Paravauxite
##RRUFFID=R050577
##IDEAL CHEMISTRY=Fe^2+^Al_2_(PO_4_)_2_(OH)_2_&#183;8H_2_O
##LOCALITY=Llallagua, Bolivia
##OWNER=RRUFF
##SOURCE=University of Arizona Mineral Museum
##DESCRIPTION=Colorless bladed crystal
##STATUS=The identification of this mineral has been confirmed by X-ray diffraction and chemical analysis
##URL=rruff.info/R050577
##MEASURED CHEMISTRY=(Fe^2+^_0.93_Mg_0.04_Mn_0.03_)Al_2_(PO_4_)_2_((OH)_0.93_F_0.07_)_2_Î‡8H_2_O
91.11523, 31.50517
91.59735, 31.57616
92.07947, 31.68294
92.56158, 31.74454
93.04370, 31.50095
93.52582, 30.58319
94.00793, 29.27568
94.49006, 28.18011
94.97218, 27.33895
95.45429, 26.76407
95.93641, 26.47216
96.41853, 26.46213
96.90064, 26.68922
97.38276, 27.30158
97.86488, 28.24043
98.34699, 28.82885
98.82911, 28.82648
99.31123, 28.46695
99.79334, 28.63422
100.2755, 29.48493
100.7576, 30.31414
101.2397, 30.27629
101.7218, 29.06331
102.2039, 28.50118
102.6861, 29.22015
103.1682, 31.20681
103.6503, 32.38739
104.1324, 32.48587
104.6145, 32.09630
105.0966, 31.87818
105.5788, 31.73056
106.0609, 31.95224
106.5430, 32.80656
107.0251, 34.73434
107.5072, 35.69143
107.9893, 34.75686
108.4715, 33.08399
108.9536, 32.73491
109.4357, 34.39108
109.9178, 36.76780
110.3999, 39.55024
110.8820, 43.06870
111.3642, 46.40829
111.8463, 49.18941
112.3284, 51.73618
112.8105, 54.95916
113.2926, 59.93624
113.7747, 65.01865
114.2569, 69.29171
114.7390, 70.77026
115.2211, 73.58500
115.7032, 78.66096
116.1853, 85.85432
116.6674, 94.39573
117.1496, 104.4942
117.6317, 115.7488
118.1138, 127.7247
118.5959, 140.1636
119.0780, 153.5165
119.5602, 168.0499
120.0423, 183.8621
120.5244, 200.3740
121.0065, 217.6865
121.4886, 235.4417
121.9707, 253.2433
122.4529, 271.1289
122.9350, 288.6776
123.4171, 305.3979
123.8992, 321.2375
124.3813, 336.6572
124.8634, 352.3303
125.3456, 367.8962
125.8277, 382.5974
126.3098, 394.7330
126.7919, 406.0298
127.2740, 418.7290
127.7561, 432.9252
128.2383, 448.8740
128.7204, 466.8545
129.2025, 486.8488
129.6846, 508.7629
130.1667, 533.2085
130.6488, 559.3865
131.1310, 586.5277
131.6131, 614.7919
132.0952, 643.4787
132.5773, 671.3981
133.0594, 698.6611
133.5415, 725.3638
134.0237, 752.5675
134.5058, 780.1923
134.9879, 805.0457
135.4700, 826.6177
135.9521, 845.2856
136.4343, 862.8495
136.9164, 879.4304
137.3985, 894.6086
137.8806, 908.3144
138.3627, 920.6857
138.8448, 931.1631
139.3270, 939.7845
139.8091, 946.5839
140.2912, 951.1839
140.7733, 952.7039
141.2554, 953.6521
141.7375, 956.7579
142.2197, 962.9499
142.7018, 968.8177
143.1839, 972.9542
143.6660, 975.0035
144.1481, 980.4700
144.6302, 990.2572
145.1124, 1002.674
145.5945, 1015.583
146.0766, 1029.699
146.5587, 1043.438
147.0408, 1056.292
147.5230, 1067.887
148.0051, 1076.207
148.4872, 1082.238
148.9693, 1087.781
149.4514, 1088.404
149.9335, 1088.518
150.4157, 1088.676
150.8978, 1089.301
151.3799, 1091.771
151.8620, 1091.987
152.3441, 1088.892
152.8262, 1083.765
153.3084, 1079.023
153.7905, 1075.848
154.2726, 1072.219
154.7547, 1067.262
155.2368, 1060.001
155.7189, 1053.078
156.2011, 1046.604
156.6832, 1040.587
157.1653, 1035.264
157.6474, 1030.578
158.1295, 1026.587
158.6116, 1023.328
159.0938, 1021.093
159.5759, 1019.122
160.0580, 1016.667
160.5401, 1014.148
161.0222, 1013.064
161.5044, 1014.618
161.9865, 1017.310
162.4686, 1020.127
162.9507, 1022.746
163.4328, 1025.519
163.9149, 1028.651
164.3971, 1032.114
164.8792, 1035.625
165.3613, 1039.557
165.8434, 1043.279
166.3255, 1046.227
166.8076, 1048.229
167.2898, 1049.403
167.7719, 1049.657
168.2540, 1049.059
168.7361, 1048.132
169.2182, 1046.563
169.7003, 1045.021
170.1825, 1044.304
170.6646, 1044.934
171.1467, 1046.326
171.6288, 1047.895
172.1109, 1049.637
172.5931, 1052.165
173.0752, 1056.356
173.5573, 1061.547
174.0394, 1066.700
174.5215, 1072.044
175.0036, 1076.768
175.4858, 1079.966
175.9679, 1081.659
176.4500, 1081.942
176.9321, 1079.987
177.4142, 1076.640
177.8963, 1073.868
178.3785, 1073.303
178.8606, 1073.541
179.3427, 1072.309
179.8248, 1069.488
180.3069, 1066.159
180.7890, 1062.835
181.2712, 1059.785
181.7533, 1057.935
182.2354, 1058.604
182.7175, 1060.667
183.1996, 1061.531
183.6818, 1060.955
184.1639, 1060.132
184.6460, 1060.540
185.1281, 1061.983
185.6102, 1063.490
186.0923, 1064.445
186.5745, 1065.077
187.0566, 1066.021
187.5387, 1067.299
188.0208, 1068.973
188.5029, 1070.828
188.9850, 1072.955
189.4672, 1076.397
189.9493, 1082.200
190.4314, 1089.939
190.9135, 1097.592
191.3956, 1104.910
191.8777, 1112.448
192.3599, 1121.347
192.8420, 1131.577
193.3241, 1142.534
193.8062, 1154.457
194.2883, 1167.248
194.7704, 1178.827
195.2526, 1189.279
195.7347, 1198.079
196.2168, 1204.547
196.6989, 1208.716
197.1810, 1209.931
197.6632, 1207.535
198.1453, 1201.502
198.6274, 1193.213
199.1095, 1182.036
199.5916, 1169.572
200.0737, 1159.119
200.5559, 1150.695
201.0380, 1143.816
201.5201, 1138.491
202.0022, 1134.767
202.4843, 1131.469
202.9664, 1128.371
203.4486, 1125.870
203.9307, 1125.072
204.4128, 1126.288
204.8949, 1128.023
205.3770, 1129.214
205.8591, 1129.584
206.3413, 1131.553
206.8234, 1135.723
207.3055, 1141.175
207.7876, 1145.432
208.2697, 1148.014
208.7519, 1150.671
209.2340, 1154.415
209.7161, 1159.444
210.1982, 1164.470
210.6803, 1169.420
211.1624, 1174.321
211.6446, 1179.431
212.1267, 1185.046
212.6088, 1190.087
213.0909, 1193.858
213.5730, 1195.977
214.0551, 1198.374
214.5373, 1201.118
215.0194, 1204.241
215.5015, 1207.830
215.9836, 1211.796
216.4657, 1216.489
216.9478, 1222.362
217.4300, 1229.940
217.9121, 1236.936
218.3942, 1242.806
218.8763, 1248.105
219.3584, 1254.430
219.8405, 1261.892
220.3227, 1270.026
220.8048, 1278.679
221.2869, 1288.180
221.7690, 1297.148
222.2511, 1304.427
222.7333, 1311.432
223.2154, 1322.356
223.6975, 1339.097
224.1796, 1356.797
224.6617, 1372.881
225.1438, 1385.815
225.6260, 1401.240
226.1081, 1419.777
226.5902, 1440.778
227.0723, 1461.597
227.5544, 1481.566
228.0365, 1502.852
228.5187, 1526.755
229.0008, 1554.553
229.4829, 1581.720
229.9650, 1608.289
230.4471, 1634.307
230.9292, 1660.455
231.4114, 1688.586
231.8935, 1714.432
232.3756, 1735.897
232.8577, 1752.943
233.3398, 1766.498
233.8220, 1776.966
234.3041, 1783.818
234.7862, 1785.715
235.2683, 1783.264
235.7504, 1775.036
236.2325, 1759.962
236.7147, 1736.946
237.1968, 1710.514
237.6789, 1679.801
238.1610, 1646.121
238.6431, 1612.208
239.1252, 1576.908
239.6074, 1542.645
240.0895, 1510.145
240.5716, 1479.872
241.0537, 1450.899
241.5358, 1422.953
242.0179, 1396.405
242.5001, 1372.052
242.9822, 1350.287
243.4643, 1329.975
243.9464, 1310.488
244.4285, 1291.081
244.9106, 1274.846
245.3928, 1262.916
245.8749, 1253.299
246.3570, 1242.307
246.8391, 1228.159
247.3212, 1215.671
247.8034, 1206.801
248.2855, 1202.585
248.7676, 1197.410
249.2497, 1190.166
249.7318, 1182.765
250.2139, 1178.554
250.6961, 1180.126
251.1782, 1180.157
251.6603, 1175.962
252.1424, 1166.491
252.6245, 1159.031
253.1066, 1153.850
253.5888, 1150.393
254.0709, 1147.983
254.5530, 1146.975
255.0351, 1146.277
255.5172, 1145.535
255.9993, 1144.668
256.4815, 1144.482
256.9636, 1144.946
257.4457, 1146.107
257.9278, 1147.991
258.4099, 1150.490
258.8921, 1154.078
259.3742, 1159.690
259.8563, 1167.356
260.3384, 1171.495
260.8205, 1170.091
261.3026, 1167.789
261.7848, 1169.426
262.2669, 1176.289
262.7490, 1183.534
263.2311, 1190.330
263.7132, 1196.705
264.1953, 1202.343
264.6775, 1206.568
265.1596, 1211.086
265.6417, 1217.455
266.1238, 1225.991
266.6059, 1235.239
267.0880, 1245.120
267.5702, 1255.563
268.0523, 1265.305
268.5344, 1274.172
269.0165, 1282.957
269.4986, 1291.929
269.9807, 1300.695
270.4629, 1311.982
270.9450, 1326.724
271.4271, 1344.155
271.9092, 1360.403
272.3913, 1374.835
272.8734, 1389.861
273.3556, 1407.584
273.8377, 1428.561
274.3198, 1447.893
274.8019, 1464.214
275.2840, 1479.463
275.7661, 1499.950
276.2483, 1526.749
276.7304, 1554.084
277.2125, 1577.795
277.6946, 1597.713
278.1768, 1618.525
278.6589, 1641.071
279.1410, 1663.925
279.6231, 1684.728
280.1052, 1703.900
280.5873, 1719.583
281.0695, 1731.361
281.5516, 1739.295
282.0337, 1741.289
282.5158, 1737.450
282.9979, 1727.340
283.4800, 1708.415
283.9622, 1680.302
284.4443, 1651.063
284.9264, 1624.057
285.4085, 1599.187
285.8906, 1572.869
286.3727, 1544.383
286.8549, 1516.968
287.3370, 1495.525
287.8191, 1479.806
288.3012, 1464.717
288.7833, 1448.317
289.2654, 1431.259
289.7476, 1415.335
290.2297, 1400.487
290.7118, 1387.321
291.1939, 1377.165
291.6760, 1369.675
292.1581, 1362.131
292.6403, 1353.558
293.1224, 1344.547
293.6045, 1336.386
294.0866, 1329.160
294.5687, 1321.867
295.0508, 1313.293
295.5330, 1303.850
296.0151, 1295.077
296.4972, 1287.056
296.9793, 1280.031
297.4614, 1275.358
297.9435, 1272.700
298.4257, 1269.638
298.9078, 1264.104
299.3899, 1256.912
299.8720, 1249.962
300.3541, 1243.579
300.8362, 1237.380
301.3184, 1230.225
301.8005, 1222.533
302.2826, 1216.335
302.7647, 1214.508
303.2469, 1214.351
303.7290, 1211.449
304.2111, 1204.746
304.6932, 1197.476
305.1753, 1193.090
305.6574, 1190.650
306.1396, 1188.120
306.6217, 1183.713
307.1038, 1179.056
307.5859, 1176.109
308.0680, 1175.111
308.5501, 1174.275
309.0323, 1171.777
309.5144, 1168.612
309.9965, 1166.374
310.4786, 1167.052
310.9607, 1167.929
311.4428, 1166.863
311.9250, 1163.875
312.4071, 1160.464
312.8892, 1156.789
313.3713, 1153.501
313.8534, 1151.274
314.3355, 1151.288
314.8177, 1151.579
315.2998, 1150.825
315.7819, 1149.319
316.2640, 1148.630
316.7461, 1150.651
317.2282, 1153.083
317.7104, 1154.042
318.1925, 1151.480
318.6746, 1149.812
319.1567, 1152.166
319.6388, 1156.745
320.1209, 1158.691
320.6031, 1153.051
321.0852, 1146.964
321.5673, 1144.193
322.0494, 1146.465
322.5315, 1149.188
323.0136, 1152.186
323.4958, 1154.944
323.9779, 1156.623
324.4600, 1155.349
324.9421, 1154.575
325.4242, 1155.761
325.9064, 1159.599
326.3885, 1162.652
326.8706, 1163.880
327.3527, 1164.518
327.8348, 1165.886
328.3170, 1168.889
328.7991, 1171.698
329.2812, 1173.893
329.7633, 1175.451
330.2454, 1177.296
330.7275, 1180.089
331.2097, 1182.568
331.6918, 1183.734
332.1739, 1182.279
332.6560, 1181.600
333.1381, 1182.312
333.6202, 1184.068
334.1024, 1185.269
334.5845, 1185.806
335.0666, 1185.911
335.5487, 1185.709
336.0308, 1185.260
336.5129, 1184.356
336.9951, 1182.889
337.4772, 1181.087
337.9593, 1179.300
338.4414, 1177.512
338.9235, 1175.900
339.4056, 1174.573
339.8878, 1173.585
340.3699, 1172.620
340.8520, 1171.695
341.3341, 1170.791
341.8162, 1169.612
342.2983, 1168.055
342.7805, 1167.389
343.2626, 1168.423
343.7447, 1170.677
344.2268, 1171.562
344.7089, 1170.930
345.1910, 1169.659
345.6732, 1168.171
346.1553, 1166.551
346.6374, 1165.850
347.1195, 1166.466
347.6016, 1167.874
348.0837, 1168.983
348.5659, 1169.841
349.0480, 1170.968
349.5301, 1172.756
350.0122, 1175.109
350.4944, 1178.234
350.9765, 1182.732
351.4586, 1186.112
351.9407, 1183.425
352.4228, 1176.548
352.9049, 1171.678
353.3871, 1173.532
353.8692, 1178.543
354.3513, 1182.322
354.8334, 1184.629
355.3155, 1186.056
355.7976, 1186.315
356.2798, 1186.116
356.7619, 1186.620
357.2440, 1188.395
357.7261, 1190.888
358.2082, 1193.756
358.6903, 1196.988
359.1725, 1200.595
359.6546, 1205.220
360.1367, 1209.896
360.6188, 1213.682
361.1009, 1215.871
361.5830, 1217.837
362.0652, 1219.992
362.5473, 1222.358
363.0294, 1224.977
363.5115, 1227.701
363.9936, 1230.844
364.4757, 1234.669
364.9579, 1239.536
365.4400, 1244.164
365.9221, 1248.038
366.4042, 1251.668
366.8863, 1255.699
367.3684, 1260.317
367.8506, 1265.275
368.3327, 1270.920
368.8148, 1277.369
369.2969, 1282.638
369.7790, 1285.488
370.2611, 1288.065
370.7433, 1291.901
371.2254, 1297.928
371.7075, 1303.699
372.1896, 1309.304
372.6717, 1314.544
373.1538, 1318.281
373.6360, 1319.291
374.1181, 1320.743
374.6002, 1324.334
375.0823, 1330.897
375.5645, 1336.753
376.0466, 1342.011
376.5287, 1346.364
377.0108, 1349.341
377.4929, 1350.929
377.9750, 1350.948
378.4572, 1348.738
378.9393, 1344.647
379.4214, 1341.930
379.9035, 1340.702
380.3856, 1340.506
380.8677, 1341.919
381.3499, 1344.662
381.8320, 1344.781
382.3141, 1340.586
382.7962, 1334.225
383.2783, 1329.836
383.7604, 1327.377
384.2426, 1325.968
384.7247, 1325.932
385.2068, 1326.411
385.6889, 1325.170
386.1710, 1321.682
386.6531, 1317.638
387.1353, 1314.253
387.6174, 1311.679
388.0995, 1310.254
388.5816, 1310.995
389.0637, 1312.469
389.5458, 1313.100
390.0280, 1312.902
390.5101, 1312.934
390.9922, 1312.960
391.4743, 1313.965
391.9564, 1317.234
392.4385, 1325.428
392.9207, 1333.164
393.4028, 1336.737
393.8849, 1337.417
394.3670, 1339.045
394.8491, 1342.551
395.3312, 1347.753
395.8134, 1354.804
396.2955, 1364.337
396.7776, 1373.973
397.2597, 1382.437
397.7418, 1390.830
398.2239, 1400.682
398.7061, 1412.577
399.1882, 1425.473
399.6703, 1439.730
400.1524, 1455.470
400.6346, 1469.955
401.1167, 1482.273
401.5988, 1493.980
402.0809, 1506.314
402.5630, 1521.180
403.0451, 1532.864
403.5273, 1540.101
404.0094, 1544.081
404.4915, 1548.306
404.9736, 1553.636
405.4557, 1557.077
405.9378, 1557.427
406.4200, 1554.624
406.9021, 1548.905
407.3842, 1539.633
407.8663, 1529.099
408.3484, 1519.826
408.8305, 1511.795
409.3127, 1505.403
409.7948, 1501.366
410.2769, 1498.736
410.7590, 1494.341
411.2411, 1488.173
411.7232, 1483.196
412.2054, 1481.837
412.6875, 1483.395
413.1696, 1486.078
413.6517, 1489.839
414.1338, 1494.041
414.6159, 1496.516
415.0981, 1498.578
415.5802, 1503.865
416.0623, 1517.472
416.5444, 1533.284
417.0265, 1543.889
417.5086, 1549.203
417.9908, 1555.504
418.4729, 1566.472
418.9550, 1580.573
419.4371, 1596.070
419.9192, 1613.663
420.4013, 1631.331
420.8835, 1647.174
421.3656, 1662.207
421.8477, 1679.828
422.3298, 1701.824
422.8119, 1725.790
423.2940, 1751.288
423.7762, 1778.846
424.2583, 1805.508
424.7404, 1829.677
425.2225, 1852.971
425.7047, 1877.928
426.1868, 1905.331
426.6689, 1933.077
427.1510, 1961.881
427.6331, 1991.329
428.1152, 2017.990
428.5974, 2042.158
429.0795, 2063.570
429.5616, 2082.888
430.0437, 2100.971
430.5258, 2113.265
431.0079, 2119.699
431.4901, 2119.894
431.9722, 2112.531
432.4543, 2097.352
432.9364, 2077.682
433.4185, 2055.059
433.9006, 2029.194
434.3828, 1998.634
434.8649, 1963.227
435.3470, 1925.102
435.8291, 1884.947
436.3112, 1843.347
436.7933, 1802.953
437.2755, 1764.176
437.7576, 1726.575
438.2397, 1689.910
438.7218, 1654.411
439.2039, 1620.810
439.6860, 1589.217
440.1682, 1559.641
440.6503, 1532.941
441.1324, 1508.891
441.6145, 1486.824
442.0966, 1466.736
442.5787, 1448.219
443.0609, 1430.832
443.5430, 1414.120
444.0251, 1398.795
444.5072, 1385.814
444.9893, 1374.588
445.4714, 1362.866
445.9536, 1348.331
446.4357, 1334.615
446.9178, 1323.474
447.3999, 1315.930
447.8820, 1308.528
448.3641, 1301.082
448.8463, 1293.819
449.3284, 1286.746
449.8105, 1279.261
450.2926, 1273.335
450.7747, 1269.824
451.2569, 1268.250
451.7390, 1265.703
452.2211, 1261.832
452.7032, 1257.744
453.1853, 1254.013
453.6674, 1250.590
454.1496, 1247.424
454.6317, 1244.479
455.1138, 1241.721
455.5959, 1238.962
456.0780, 1236.233
456.5602, 1234.317
457.0423, 1234.132
457.5244, 1234.539
458.0065, 1232.718
458.4886, 1228.922
458.9707, 1225.605
459.4529, 1225.559
459.9350, 1226.901
460.4171, 1226.622
460.8992, 1223.895
461.3813, 1220.898
461.8634, 1219.106
462.3456, 1218.212
462.8277, 1217.730
463.3098, 1217.173
463.7919, 1217.210
464.2740, 1218.712
464.7561, 1221.514
465.2383, 1223.383
465.7204, 1222.764
466.2025, 1221.568
466.6846, 1220.941
467.1667, 1221.023
467.6488, 1221.627
468.1310, 1223.612
468.6131, 1225.852
469.0952, 1226.494
469.5773, 1224.405
470.0594, 1222.517
470.5415, 1221.488
471.0237, 1221.313
471.5058, 1221.661
471.9879, 1222.829
472.4700, 1223.879
472.9521, 1224.009
473.4342, 1223.181
473.9164, 1222.518
474.3985, 1222.299
474.8806, 1221.921
475.3627, 1220.339
475.8448, 1217.613
476.3270, 1214.295
476.8091, 1209.503
477.2912, 1204.754
477.7733, 1204.083
478.2554, 1207.203
478.7375, 1209.777
479.2197, 1207.670
479.7018, 1203.295
480.1839, 1200.016
480.6660, 1198.779
481.1481, 1197.951
481.6302, 1196.802
482.1124, 1195.297
482.5945, 1193.383
483.0766, 1190.631
483.5587, 1187.826
484.0408, 1185.068
484.5229, 1182.410
485.0051, 1180.601
485.4872, 1181.347
485.9693, 1181.865
486.4514, 1180.416
486.9335, 1175.180
487.4156, 1171.124
487.8978, 1168.532
488.3799, 1166.993
488.8620, 1166.002
489.3441, 1166.174
489.8262, 1165.257
490.3083, 1161.990
490.7905, 1156.964
491.2726, 1154.967
491.7547, 1156.464
492.2368, 1158.646
492.7189, 1159.303
493.2010, 1158.699
493.6832, 1158.686
494.1653, 1159.549
494.6474, 1160.516
495.1295, 1160.526
495.6116, 1159.808
496.0938, 1159.085
496.5759, 1158.414
497.0580, 1158.039
497.5401, 1158.801
498.0222, 1160.355
498.5044, 1160.928
498.9865, 1157.801
499.4686, 1154.368
499.9507, 1153.614
500.4328, 1156.661
500.9149, 1159.710
501.3971, 1161.722
501.8792, 1162.990
502.3613, 1163.860
502.8434, 1164.224
503.3255, 1164.385
503.8076, 1163.996
504.2898, 1163.323
504.7719, 1163.744
505.2540, 1166.115
505.7361, 1168.284
506.2182, 1169.324
506.7003, 1169.068
507.1825, 1168.543
507.6646, 1167.536
508.1467, 1166.730
508.6288, 1166.726
509.1109, 1167.536
509.5930, 1169.611
510.0752, 1173.444
510.5573, 1178.031
511.0394, 1181.766
511.5215, 1184.647
512.0037, 1186.610
512.4858, 1186.826
512.9679, 1186.455
513.4500, 1187.240
513.9321, 1189.223
514.4142, 1191.400
514.8964, 1193.131
515.3785, 1194.647
515.8606, 1196.123
516.3427, 1197.352
516.8248, 1198.982
517.3069, 1201.434
517.7891, 1204.428
518.2712, 1207.464
518.7533, 1210.545
519.2354, 1213.509
519.7175, 1216.145
520.1996, 1218.475
520.6818, 1221.185
521.1639, 1224.254
521.6460, 1227.748
522.1281, 1231.847
522.6102, 1236.944
523.0923, 1241.117
523.5745, 1244.084
524.0566, 1246.539
524.5387, 1249.316
525.0208, 1252.420
525.5029, 1256.216
525.9850, 1261.258
526.4672, 1266.652
526.9493, 1270.423
527.4314, 1272.727
527.9135, 1274.714
528.3956, 1277.257
528.8777, 1279.917
529.3599, 1281.788
529.8420, 1282.732
530.3241, 1284.220
530.8062, 1287.837
531.2883, 1292.346
531.7704, 1296.278
532.2526, 1299.171
532.7347, 1301.648
533.2168, 1303.687
533.6989, 1305.471
534.1810, 1307.476
534.6631, 1309.900
535.1453, 1312.436
535.6274, 1315.130
536.1095, 1318.044
536.5916, 1320.143
537.0737, 1321.011
537.5558, 1321.740
538.0380, 1323.172
538.5201, 1325.485
539.0022, 1327.404
539.4843, 1328.929
539.9664, 1329.803
540.4485, 1328.995
540.9307, 1326.785
541.4128, 1325.624
541.8949, 1326.731
542.3770, 1328.908
542.8591, 1330.748
543.3412, 1332.085
543.8234, 1332.266
544.3055, 1329.240
544.7876, 1325.812
545.2697, 1325.069
545.7518, 1327.491
546.2339, 1329.909
546.7161, 1331.233
547.1982, 1331.617
547.6803, 1331.220
548.1624, 1329.424
548.6445, 1327.712
549.1266, 1326.530
549.6088, 1325.572
550.0909, 1324.166
550.5730, 1321.824
551.0551, 1319.902
551.5372, 1318.775
552.0193, 1318.417
552.5015, 1318.587
552.9836, 1319.388
553.4657, 1320.374
553.9478, 1320.988
554.4299, 1321.341
554.9120, 1322.825
555.3942, 1325.578
555.8763, 1328.905
556.3584, 1331.984
556.8405, 1334.984
557.3226, 1338.370
557.8047, 1342.330
558.2869, 1346.637
558.7690, 1350.370
559.2511, 1354.237
559.7332, 1360.017
560.2154, 1369.956
560.6975, 1380.795
561.1796, 1391.594
561.6617, 1402.312
562.1439, 1411.096
562.6260, 1415.489
563.1081, 1419.422
563.5902, 1425.405
564.0723, 1435.080
564.5544, 1443.326
565.0366, 1449.765
565.5187, 1455.230
566.0008, 1460.687
566.4829, 1466.174
566.9650, 1471.592
567.4471, 1476.790
567.9293, 1481.998
568.4114, 1487.176
568.8935, 1492.431
569.3756, 1499.319
569.8577, 1510.217
570.3398, 1522.812
570.8220, 1532.180
571.3041, 1538.485
571.7862, 1544.884
572.2683, 1553.985
572.7504, 1564.169
573.2325, 1574.036
573.7147, 1583.283
574.1968, 1592.111
574.6789, 1599.563
575.1610, 1606.972
575.6431, 1616.165
576.1252, 1630.111
576.6074, 1642.570
577.0895, 1652.666
577.5716, 1660.726
578.0537, 1667.897
578.5358, 1673.555
579.0179, 1679.846
579.5001, 1688.234
579.9822, 1698.504
580.4643, 1705.755
580.9464, 1709.691
581.4285, 1712.562
581.9106, 1716.836
582.3928, 1721.683
582.8749, 1723.958
583.3570, 1722.842
583.8391, 1721.180
584.3212, 1721.777
584.8033, 1723.747
585.2855, 1725.601
585.7676, 1727.322
586.2497, 1728.215
