##NAMES=Paravauxite
##RRUFFID=R050577
##IDEAL CHEMISTRY=Fe^2+^Al_2_(PO_4_)_2_(OH)_2_&#183;8H_2_O
##LOCALITY=Llallagua, Bolivia
##OWNER=RRUFF
##SOURCE=University of Arizona Mineral Museum
##DESCRIPTION=Colorless bladed crystal
##STATUS=The identification of this mineral has been confirmed by X-ray diffraction and chemical analysis
##URL=rruff.info/R050577
##MEASURED CHEMISTRY=(Fe^2+^_0.93_Mg_0.04_Mn_0.03_)Al_2_(PO_4_)_2_((OH)_0.93_F_0.07_)_2_Î‡8H_2_O
92.06543, 202.3864
92.54755, 203.4872
93.02966, 204.7301
93.51178, 203.1204
93.99390, 200.8456
94.47601, 198.9661
94.95813, 197.5186
95.44025, 196.0905
95.92236, 194.3959
96.40448, 192.3760
96.88660, 189.9826
97.36871, 186.5981
97.85082, 183.5089
98.33294, 181.8497
98.81506, 181.6459
99.29717, 181.3593
99.77929, 180.0981
100.2614, 178.0453
100.7435, 175.7414
101.2256, 172.7402
101.7078, 169.5316
102.1899, 167.3779
102.6720, 166.8124
103.1541, 166.9990
103.6362, 167.0641
104.1183, 167.0029
104.6005, 166.9387
105.0826, 166.9405
105.5647, 166.9911
106.0468, 167.1766
106.5289, 167.5320
107.0110, 167.9547
107.4931, 168.4667
107.9753, 169.0667
108.4574, 169.5981
108.9395, 169.6650
109.4216, 168.4527
109.9037, 168.0935
110.3858, 169.1856
110.8680, 170.9971
111.3501, 172.6978
111.8322, 173.8195
112.3143, 174.5469
112.7964, 176.1521
113.2785, 179.3823
113.7607, 182.6072
114.2428, 185.4379
114.7249, 187.9247
115.2070, 190.3420
115.6891, 192.9177
116.1712, 195.6194
116.6534, 197.8011
117.1355, 198.8910
117.6176, 199.8911
118.0997, 201.5207
118.5818, 203.8483
119.0639, 206.6402
119.5461, 209.7797
120.0282, 213.2247
120.5103, 216.9610
120.9924, 220.9141
121.4745, 225.1499
121.9566, 230.0045
122.4388, 236.0253
122.9209, 241.8223
123.4030, 246.5748
123.8851, 250.3882
124.3672, 253.6758
124.8493, 256.1457
125.3315, 257.6342
125.8136, 260.7541
126.2957, 267.5604
126.7778, 274.7031
127.2599, 281.2491
127.7420, 286.8714
128.2242, 291.5113
128.7063, 294.7662
129.1884, 295.2582
129.6705, 297.2827
130.1526, 302.7750
130.6347, 308.4237
131.1169, 311.5304
131.5990, 311.2606
132.0811, 308.9457
132.5632, 307.4909
133.0453, 307.5432
133.5274, 307.7282
134.0096, 308.5507
134.4917, 309.3644
134.9738, 309.1826
135.4559, 307.4835
135.9380, 304.6290
136.4201, 301.8343
136.9023, 298.7209
137.3844, 296.1066
137.8665, 294.9310
138.3486, 294.8161
138.8307, 293.9382
139.3128, 290.8760
139.7950, 286.5021
140.2771, 282.9844
140.7592, 280.5795
141.2413, 278.9015
141.7234, 277.7886
142.2055, 277.3896
142.6877, 276.8031
143.1698, 275.8349
143.6519, 274.3302
144.1340, 271.8781
144.6161, 267.9339
145.0982, 263.1553
145.5803, 259.2704
146.0625, 256.6998
146.5446, 254.4452
147.0267, 252.1981
147.5088, 249.9565
147.9909, 247.7622
148.4730, 245.7298
148.9552, 243.8161
149.4373, 241.2650
149.9194, 237.4885
150.4015, 233.5201
150.8836, 229.3347
151.3657, 225.1379
151.8479, 221.2332
152.3300, 217.9400
152.8121, 215.3073
153.2942, 212.8728
153.7763, 210.4136
154.2584, 208.2652
154.7406, 206.9805
155.2227, 206.3955
155.7048, 205.4939
156.1869, 202.9953
156.6690, 198.1167
157.1511, 194.6089
157.6333, 193.3353
158.1154, 192.9088
158.5975, 192.2306
159.0796, 191.0734
159.5617, 189.5878
160.0438, 187.6828
160.5260, 185.2549
161.0081, 183.7006
161.4902, 183.8027
161.9723, 184.9295
162.4544, 185.9543
162.9365, 186.6001
163.4187, 187.1309
163.9008, 187.8052
164.3829, 188.6094
164.8650, 189.5596
165.3471, 190.6393
165.8292, 191.8593
166.3113, 193.2715
166.7935, 194.8464
167.2756, 196.7043
167.7577, 199.2353
168.2398, 202.4003
168.7219, 205.1646
169.2040, 206.3056
169.6862, 205.5581
170.1683, 204.9824
170.6504, 204.4549
171.1325, 204.5052
171.6146, 205.4601
172.0967, 207.3870
172.5789, 210.1550
173.0610, 213.8733
173.5431, 219.6040
174.0252, 223.7632
174.5073, 226.0122
174.9894, 227.0405
175.4716, 227.0755
175.9537, 226.2650
176.4358, 224.9960
176.9179, 224.1006
177.4000, 224.6940
177.8821, 224.0313
178.3643, 221.1499
178.8464, 217.4375
179.3285, 214.3692
179.8106, 212.5404
180.2927, 211.3998
180.7748, 209.4501
181.2570, 205.4471
181.7391, 202.1783
182.2212, 200.1574
182.7033, 199.0191
183.1854, 198.2538
183.6675, 197.6337
184.1497, 197.2253
184.6318, 197.3166
185.1139, 198.2330
185.5960, 199.0235
186.0781, 198.8904
186.5602, 198.2876
187.0423, 198.5683
187.5245, 200.5132
188.0066, 203.6649
188.4887, 206.7706
188.9708, 209.8281
189.4529, 212.8020
189.9350, 215.1848
190.4172, 217.1116
190.8993, 220.2184
191.3814, 225.7044
191.8635, 232.6555
192.3456, 239.7842
192.8277, 247.1079
193.3099, 254.2593
193.7920, 261.0202
194.2741, 267.4427
194.7562, 273.1670
195.2383, 278.3700
195.7204, 282.5974
196.2026, 285.3514
196.6847, 286.5446
197.1668, 286.1440
197.6489, 283.8495
198.1310, 279.1187
198.6131, 273.9827
199.0953, 268.6188
199.5774, 263.3255
200.0595, 258.3541
200.5416, 253.7503
201.0237, 249.6436
201.5058, 246.4641
201.9880, 244.8885
202.4701, 243.0350
202.9522, 239.8102
203.4343, 236.4963
203.9164, 234.4075
204.3985, 234.1453
204.8807, 235.3009
205.3628, 236.7196
205.8449, 239.0020
206.3270, 240.7189
206.8091, 241.7032
207.2912, 242.0738
207.7733, 241.8085
208.2555, 240.8737
208.7376, 239.5620
209.2197, 238.9675
209.7018, 239.4629
210.1839, 240.3235
210.6660, 242.0334
211.1482, 243.9527
211.6303, 245.1716
212.1124, 245.1965
212.5945, 244.2988
213.0766, 243.5549
213.5587, 243.0086
214.0409, 242.5465
214.5230, 242.3912
215.0051, 242.2854
215.4872, 241.7587
215.9693, 240.5525
216.4514, 238.7905
216.9336, 236.9051
217.4157, 234.3066
217.8978, 232.3234
218.3799, 231.8286
218.8620, 232.3206
219.3441, 232.4494
219.8263, 231.4007
220.3084, 229.7784
220.7905, 229.2186
221.2726, 230.0769
221.7547, 231.2068
222.2368, 231.8324
222.7190, 232.1816
223.2011, 233.2041
223.6832, 235.3953
224.1653, 238.4946
224.6474, 241.8796
225.1295, 245.7236
225.6117, 249.4434
226.0938, 252.2730
226.5759, 254.3871
227.0580, 257.2350
227.5401, 261.4712
228.0222, 266.7152
228.5043, 272.3820
228.9865, 278.4171
229.4686, 284.8700
229.9507, 292.1357
230.4328, 300.1886
230.9149, 307.3700
231.3970, 312.8955
231.8792, 317.4033
232.3613, 321.5804
232.8434, 325.5155
233.3255, 328.6918
233.8076, 330.4391
234.2897, 330.6642
234.7719, 330.6013
235.2540, 332.0650
235.7361, 332.1349
236.2182, 328.4269
236.7003, 320.6835
237.1824, 311.3345
237.6646, 302.7382
238.1467, 294.9153
238.6288, 287.4590
239.1109, 280.8248
239.5930, 274.1505
240.0751, 266.8997
240.5573, 259.0327
241.0394, 250.9017
241.5215, 242.6017
242.0036, 233.6141
242.4857, 226.4992
242.9678, 223.0898
243.4500, 220.2165
243.9321, 216.2393
244.4142, 211.0827
244.8963, 205.7835
245.3784, 201.5781
245.8605, 198.8166
246.3427, 195.9115
246.8248, 192.5726
247.3069, 189.3500
247.7890, 186.5502
248.2711, 184.1572
248.7532, 181.9375
249.2354, 179.5368
249.7175, 176.7230
250.1996, 174.8170
250.6817, 174.8233
251.1638, 174.7411
251.6459, 173.3378
252.1281, 170.8227
252.6102, 168.3858
253.0923, 167.1986
253.5744, 167.4725
254.0565, 167.7652
254.5386, 168.0938
255.0208, 168.4199
255.5029, 168.6038
255.9850, 168.7364
256.4671, 169.1343
256.9492, 170.1506
257.4313, 171.8944
257.9135, 172.9019
258.3956, 172.6278
258.8777, 172.3210
259.3598, 172.2731
259.8419, 172.6112
260.3240, 173.5087
260.8062, 175.1100
261.2883, 177.4207
261.7704, 180.1882
262.2525, 183.9024
262.7346, 187.5002
263.2167, 190.4593
263.6989, 192.9397
264.1810, 195.3836
264.6631, 198.0923
265.1452, 201.0230
265.6273, 203.8017
266.1094, 205.9229
266.5916, 208.4407
267.0737, 211.7388
267.5558, 215.7083
268.0379, 220.1917
268.5200, 225.2251
269.0021, 230.5835
269.4843, 235.3500
269.9664, 239.1414
270.4485, 242.9439
270.9306, 246.7696
271.4127, 250.8169
271.8948, 255.4382
272.3770, 260.7303
272.8591, 266.7937
273.3412, 274.3633
273.8233, 284.4159
274.3054, 293.6077
274.7875, 299.8841
275.2697, 304.6888
275.7518, 310.8128
276.2339, 319.3729
276.7160, 329.2691
277.1981, 338.7302
277.6802, 348.1499
278.1623, 356.1942
278.6444, 361.3907
279.1266, 365.2414
279.6087, 370.8264
280.0908, 379.4517
280.5729, 387.9977
281.0550, 392.1183
281.5371, 392.2069
282.0193, 389.7223
282.5014, 384.2375
282.9835, 376.6534
283.4656, 368.1846
283.9477, 359.0418
284.4298, 349.0088
284.9120, 337.2925
285.3941, 324.1629
285.8762, 312.0953
286.3583, 301.5088
286.8404, 292.2880
287.3225, 284.7416
287.8047, 279.0497
288.2868, 273.4535
288.7689, 265.9102
289.2510, 257.2143
289.7331, 250.0749
290.2152, 246.0805
290.6974, 243.1922
291.1795, 239.3724
291.6616, 234.5585
292.1437, 229.6920
292.6258, 225.2092
293.1079, 221.0980
293.5901, 217.2162
294.0722, 213.3278
294.5543, 209.9177
295.0364, 207.7928
295.5185, 206.8545
296.0006, 205.4363
296.4828, 202.5203
296.9649, 198.7698
297.4470, 195.4207
297.9291, 192.5690
298.4112, 189.9775
298.8933, 187.5014
299.3755, 185.1543
299.8576, 183.0063
300.3397, 181.2670
300.8218, 179.5318
301.3039, 177.1354
301.7860, 173.9584
302.2682, 171.0595
302.7503, 169.2588
303.2324, 168.2411
303.7145, 166.8645
304.1966, 164.7955
304.6787, 162.4347
305.1609, 160.0870
305.6430, 157.7564
306.1251, 155.6900
306.6072, 153.9608
307.0893, 152.5733
307.5714, 151.7036
308.0536, 151.6189
308.5357, 151.3603
309.0178, 149.8293
309.4999, 147.4409
309.9820, 145.2564
310.4641, 143.3784
310.9463, 141.9988
311.4284, 141.7762
311.9105, 142.9975
312.3926, 143.8412
312.8747, 142.7072
313.3568, 140.4404
313.8390, 138.4689
314.3211, 136.8839
314.8032, 135.8812
315.2853, 136.0886
315.7674, 137.5396
316.2495, 138.3416
316.7317, 137.2955
317.2138, 135.2327
317.6959, 133.4558
318.1780, 132.0866
318.6601, 130.9178
319.1422, 129.7209
319.6243, 128.5420
320.1064, 127.7732
320.5886, 127.6872
321.0707, 127.9121
321.5528, 127.9234
322.0349, 127.6966
322.5170, 127.5883
322.9991, 128.0606
323.4813, 128.8125
323.9634, 128.8952
324.4455, 127.9245
324.9276, 126.7182
325.4097, 126.2136
325.8918, 126.2555
326.3740, 126.0701
326.8561, 124.8323
327.3382, 123.3854
327.8203, 123.3314
328.3024, 125.0539
328.7845, 126.7877
329.2667, 126.9013
329.7488, 126.0039
330.2309, 125.6033
330.7130, 126.5356
331.1951, 127.6845
331.6772, 127.7749
332.1594, 126.8254
332.6415, 126.0423
333.1236, 126.1471
333.6057, 126.8046
334.0878, 127.2248
334.5699, 127.2735
335.0521, 127.2839
335.5342, 127.5106
336.0163, 127.8929
336.4984, 128.1671
336.9805, 128.2124
337.4626, 128.1473
337.9448, 128.1869
338.4269, 128.3661
338.9090, 128.4232
339.3911, 128.0280
339.8732, 127.4803
340.3553, 127.4868
340.8375, 128.3146
341.3196, 129.1785
341.8017, 129.1450
342.2838, 128.2999
342.7659, 127.3066
343.2480, 125.8953
343.7302, 124.6157
344.2123, 124.3154
344.6944, 125.0379
345.1765, 125.5785
345.6586, 124.8455
346.1407, 123.1148
346.6229, 122.2578
347.1050, 123.0161
347.5871, 124.0036
348.0692, 124.4055
348.5513, 124.3276
349.0334, 124.1392
349.5156, 123.9009
349.9977, 123.8077
350.4798, 124.4640
350.9619, 126.2689
351.4440, 127.8693
351.9261, 128.7940
352.4083, 129.2393
352.8904, 129.5735
353.3725, 129.9252
353.8546, 130.0316
354.3367, 129.3590
354.8188, 127.5975
355.3010, 126.4106
355.7831, 126.1039
356.2652, 126.3350
356.7473, 126.9089
357.2294, 127.7679
357.7115, 128.7677
358.1937, 129.8721
358.6758, 131.0819
359.1579, 131.7036
359.6400, 131.3439
360.1221, 130.8450
360.6042, 130.5738
361.0863, 130.4954
361.5685, 130.3993
362.0506, 130.1198
362.5327, 129.8157
363.0148, 130.1729
363.4969, 131.8660
363.9790, 133.3272
364.4612, 134.1441
364.9433, 134.6885
365.4254, 135.3677
365.9075, 136.3205
366.3896, 137.4903
366.8717, 138.8201
367.3539, 140.5377
367.8360, 141.8612
368.3181, 142.4570
368.8002, 142.9411
369.2823, 143.8568
369.7644, 145.1395
370.2466, 146.2016
370.7287, 146.4071
371.2108, 145.6557
371.6929, 145.8461
372.1750, 147.8772
372.6571, 149.8171
373.1393, 151.4614
373.6214, 152.5708
374.1035, 152.6871
374.5856, 151.4896
375.0677, 149.5157
375.5498, 148.5402
376.0320, 149.4512
376.5141, 150.0911
376.9962, 150.0956
377.4783, 149.8750
377.9604, 149.6675
378.4425, 149.5805
378.9247, 149.7711
379.4068, 150.7029
379.8889, 152.9641
380.3710, 153.8788
380.8531, 152.0244
381.3352, 150.0990
381.8174, 149.3179
382.2995, 149.5130
382.7816, 149.8310
383.2637, 149.5554
383.7458, 148.8462
384.2279, 148.9412
384.7101, 150.9245
385.1922, 152.0133
385.6743, 150.6573
386.1564, 148.3360
386.6385, 146.8225
387.1206, 146.8471
387.6028, 147.7550
388.0849, 148.5675
388.5670, 149.2437
389.0491, 150.0133
389.5312, 151.2019
390.0133, 152.3043
390.4955, 152.6223
390.9776, 152.2303
391.4597, 152.4585
391.9418, 154.8487
392.4239, 158.9638
392.9060, 162.1313
393.3882, 163.8895
393.8703, 165.1524
394.3524, 166.2672
394.8345, 167.3684
395.3166, 168.7635
395.7987, 170.4769
396.2809, 172.6062
396.7630, 175.3224
397.2451, 178.6673
397.7272, 182.3194
398.2093, 186.4123
398.6914, 190.5954
399.1736, 194.1308
399.6557, 196.6346
400.1378, 199.7850
400.6199, 205.6795
401.1020, 213.0183
401.5841, 217.8980
402.0662, 218.8773
402.5483, 218.8800
403.0305, 221.7710
403.5126, 227.3325
403.9947, 231.5220
404.4768, 232.9414
404.9589, 233.1387
405.4410, 233.4551
405.9232, 233.9483
406.4053, 234.1807
406.8874, 233.8480
407.3695, 233.0161
407.8516, 232.0592
408.3337, 231.0994
408.8159, 229.9023
409.2980, 227.7449
409.7801, 225.4517
410.2622, 224.4456
410.7443, 225.2243
411.2264, 227.0348
411.7086, 228.6825
412.1907, 229.9502
412.6728, 231.6286
413.1549, 233.7900
413.6370, 236.2876
414.1191, 238.6438
414.6013, 241.1249
415.0834, 244.8294
415.5655, 250.7960
416.0476, 258.8675
416.5297, 265.9050
417.0118, 270.0526
417.4940, 275.2461
417.9761, 283.1078
418.4582, 292.0450
418.9403, 299.6255
419.4224, 305.0211
419.9045, 309.9331
420.3867, 317.5287
420.8688, 328.7307
421.3509, 340.1027
421.8330, 351.1787
422.3151, 362.5919
422.7972, 374.4012
423.2794, 386.7518
423.7615, 400.0544
424.2436, 414.7280
424.7257, 430.6333
425.2078, 447.1541
425.6899, 464.9844
426.1721, 482.1490
426.6542, 497.6852
427.1363, 512.4296
427.6184, 527.5782
428.1005, 543.6542
428.5826, 559.4690
429.0648, 574.0360
429.5469, 587.4672
430.0290, 598.0317
430.5111, 605.4962
430.9932, 609.3969
431.4753, 609.9238
431.9575, 607.1379
432.4396, 601.5016
432.9217, 593.1698
433.4038, 582.1856
433.8859, 568.0228
434.3680, 550.4987
434.8502, 531.9610
435.3323, 514.1004
435.8144, 496.1420
436.2965, 476.0179
436.7786, 452.1663
437.2607, 428.4226
437.7429, 406.6502
438.2250, 386.5996
438.7071, 367.8082
439.1892, 350.2245
439.6713, 333.5132
440.1534, 317.2939
440.6356, 301.4270
441.1177, 286.8531
441.5998, 274.1436
442.0819, 262.3987
442.5640, 251.0899
443.0461, 240.2485
443.5282, 229.9915
444.0103, 220.4231
444.4925, 211.5858
444.9746, 203.8550
445.4567, 198.4666
445.9388, 192.6957
446.4209, 185.1081
446.9030, 177.6429
447.3852, 172.7185
447.8673, 170.7500
448.3494, 169.4268
448.8315, 165.5943
449.3136, 158.4790
449.7957, 152.7546
450.2779, 149.3830
450.7600, 146.4573
451.2421, 143.4888
451.7242, 140.4786
452.2063, 137.4896
452.6884, 134.5234
453.1706, 131.7390
453.6527, 129.6341
454.1348, 128.4303
454.6169, 127.2346
455.0990, 126.1217
455.5811, 124.7345
456.0633, 122.4539
456.5454, 119.3369
457.0275, 116.6995
457.5096, 116.0621
457.9917, 116.7384
458.4738, 116.0499
458.9560, 113.3556
459.4381, 110.6512
459.9202, 109.2588
460.4023, 108.7995
460.8844, 108.6881
461.3665, 109.0248
461.8487, 109.4061
462.3308, 109.6732
462.8129, 109.7599
463.2950, 109.2732
463.7771, 107.8773
464.2592, 106.4358
464.7414, 106.5349
465.2235, 108.5839
465.7056, 109.1883
466.1877, 106.6797
466.6698, 103.5682
467.1519, 101.5900
467.6341, 100.8420
468.1162, 101.1253
468.5983, 102.5051
469.0804, 104.5373
469.5625, 105.1125
470.0446, 102.5728
470.5268, 100.6580
471.0089, 99.93804
471.4910, 99.79652
471.9731, 99.76877
472.4552, 99.70790
472.9373, 99.59317
473.4195, 99.44328
473.9016, 99.28632
474.3837, 98.72304
474.8658, 97.62846
475.3479, 96.21988
475.8300, 94.08907
476.3122, 91.83100
476.7943, 90.27814
477.2764, 89.81326
477.7585, 89.95803
478.2406, 90.08894
478.7227, 90.23051
479.2049, 90.13486
479.6870, 89.76424
480.1691, 89.10871
480.6512, 88.06103
481.1333, 86.70957
481.6154, 85.44234
482.0976, 84.38033
482.5797, 83.54228
483.0618, 83.01656
483.5439, 82.81097
484.0260, 82.68249
484.5081, 82.69256
484.9902, 82.56597
485.4724, 81.58305
485.9545, 79.18760
486.4366, 77.59972
486.9187, 78.55947
487.4008, 80.32703
487.8829, 80.25695
488.3651, 78.04214
488.8472, 75.74894
489.3293, 75.26210
489.8114, 76.56113
490.2935, 77.31931
490.7756, 77.53666
491.2578, 77.32452
491.7399, 76.74366
492.2220, 75.74087
492.7041, 73.90550
493.1862, 71.19736
493.6683, 68.62236
494.1505, 67.75053
494.6326, 69.04070
495.1147, 70.21964
495.5968, 71.30571
496.0789, 72.24886
496.5610, 73.26682
497.0432, 74.09303
497.5253, 74.09167
498.0074, 72.73503
498.4895, 70.97083
498.9716, 70.78032
499.4537, 72.48035
499.9359, 73.75597
500.4180, 74.04778
500.9001, 73.71336
501.3822, 72.86568
501.8643, 71.58517
502.3464, 70.51843
502.8286, 69.86215
503.3107, 69.64329
503.7928, 70.15681
504.2749, 71.40480
504.7570, 72.27788
505.2391, 72.08340
505.7213, 71.19073
506.2034, 70.52225
506.6855, 69.88531
507.1676, 69.85020
507.6497, 71.05636
508.1318, 72.68092
508.6140, 73.85831
509.0961, 74.45007
509.5782, 74.66368
510.0603, 74.63042
510.5424, 74.36844
511.0245, 74.25560
511.5067, 74.76659
511.9888, 74.84888
512.4709, 73.76814
512.9530, 72.45054
513.4351, 71.95279
513.9172, 72.52081
514.3994, 73.54111
514.8815, 74.35278
515.3636, 74.95802
515.8457, 75.34767
516.3278, 75.30801
516.8099, 75.33968
517.2921, 75.61777
517.7742, 76.09711
518.2563, 76.81962
518.7384, 77.95584
519.2205, 78.81750
519.7026, 78.25303
520.1848, 76.51479
520.6669, 75.59452
521.1490, 75.99348
521.6311, 77.13198
522.1132, 78.86973
522.5953, 81.02558
523.0775, 82.40984
523.5596, 82.04382
524.0417, 81.53183
524.5238, 82.18631
525.0059, 83.62588
525.4880, 84.66173
525.9702, 84.77059
526.4523, 84.51711
526.9344, 84.94143
527.4165, 86.67165
527.8986, 87.36985
528.3807, 85.93232
528.8629, 84.57764
529.3450, 84.49867
529.8271, 85.50188
530.3092, 87.05142
530.7913, 88.92390
531.2734, 90.70991
531.7556, 91.20284
532.2377, 89.67090
532.7198, 88.92074
533.2019, 90.25434
533.6840, 91.73980
534.1661, 92.36419
534.6483, 92.16946
535.1304, 91.68067
535.6125, 90.91802
536.0946, 90.21986
536.5767, 90.27882
537.0588, 91.12428
537.5410, 92.13494
538.0231, 93.20432
538.5052, 94.17653
538.9873, 94.81863
539.4694, 95.13500
539.9515, 95.22578
540.4337, 95.28533
540.9158, 95.02229
541.3979, 93.84306
541.8800, 91.94082
542.3621, 90.33088
542.8442, 89.64336
543.3264, 89.70157
543.8085, 89.90466
544.2906, 90.11484
544.7726, 90.69214
545.2548, 92.00078
545.7369, 93.39481
546.2190, 94.39344
546.7011, 95.00338
547.1832, 95.53718
547.6653, 96.28859
548.1475, 96.24507
548.6296, 97.11388
549.1117, 96.00602
549.5938, 95.11382
550.0759, 94.67532
550.5580, 94.71459
551.0402, 95.52348
551.5223, 97.05392
552.0044, 98.38672
552.4865, 98.82198
552.9686, 98.77902
553.4507, 99.00891
553.9329, 99.54380
554.4150, 99.99201
554.8971, 99.88712
555.3792, 99.77147
555.8613, 101.3032
556.3434, 105.5331
556.8256, 108.4708
557.3077, 108.5396
557.7898, 107.5714
558.2719, 107.0054
558.7540, 107.0128
559.2361, 107.2380
559.7183, 107.3865
560.2004, 107.6487
560.6825, 108.9465
561.1646, 112.3547
561.6467, 114.9361
562.1288, 115.7820
562.6110, 116.3126
563.0931, 117.5769
563.5752, 119.5524
564.0573, 121.5229
564.5394, 122.9246
565.0215, 124.0025
565.5037, 125.4748
565.9858, 127.4505
566.4679, 129.1411
566.9500, 130.1794
567.4321, 130.8395
567.9142, 131.4017
568.3964, 131.8333
568.8785, 132.6060
569.3606, 134.4057
569.8427, 136.2613
570.3248, 136.9123
570.8069, 136.5727
571.2891, 136.5716
571.7712, 137.6395
572.2533, 139.4583
572.7354, 141.2462
573.2175, 143.1387
573.6996, 144.7485
574.1818, 145.9678
574.6639, 147.0250
575.1460, 147.7888
575.6281, 148.5118
576.1102, 149.8240
576.5923, 152.1965
577.0745, 155.0321
577.5566, 156.7608
578.0387, 156.9914
578.5208, 158.3056
579.0029, 162.1336
579.4850, 166.2027
579.9672, 168.7933
580.4493, 170.1309
580.9314, 171.2432
581.4135, 172.0087
581.8956, 173.1194
582.3777, 175.7358
582.8599, 179.3791
583.3420, 182.0415
583.8241, 182.8701
584.3062, 183.3376
584.7883, 185.6055
585.2704, 190.3300
585.7526, 193.5853
586.2347, 194.6053
586.7168, 195.1017
587.1989, 195.7570
