##NAMES=Paralaurionite
##RRUFFID=R050271
##IDEAL CHEMISTRY=Pb^2+^Cl(OH)
##LOCALITY=Tiger, Pinal County, Arizona, USA
##OWNER=RRUFF
##SOURCE=Marcus Origlieri
##DESCRIPTION=Greenish-yellow prismatic crystal
##STATUS=The identification of this mineral has been confirmed by X-ray diffraction and chemical analysis
##URL=rruff.info/R050271
##MEASURED CHEMISTRY=(Pb_0.96_[box]_0.04_)Cl(OH)
92.54132, 0.0000000E+00
93.02344, 198.0152
93.50555, 176.9684
93.98767, 169.2999
94.46979, 179.1767
94.95190, 202.1920
95.43402, 229.3336
95.91614, 260.7213
96.39825, 294.4302
96.88037, 326.4386
97.36249, 357.1056
97.84460, 390.8735
98.32672, 430.3402
98.80884, 475.0102
99.29095, 522.8074
99.77307, 572.3107
100.2552, 625.0033
100.7373, 682.6870
101.2194, 744.1382
101.7015, 813.1125
102.1837, 892.5079
102.6658, 982.3838
103.1479, 1079.706
103.6300, 1185.146
104.1121, 1297.562
104.5942, 1410.973
105.0763, 1530.004
105.5585, 1645.204
106.0406, 1750.989
106.5227, 1844.627
107.0048, 1931.703
107.4869, 2009.371
107.9690, 2076.348
108.4512, 2150.242
108.9333, 2226.922
109.4154, 2313.304
109.8975, 2416.248
110.3796, 2534.072
110.8617, 2671.593
111.3439, 2835.636
111.8260, 3036.750
112.3081, 3227.529
112.7902, 3421.083
113.2723, 3599.955
113.7544, 3736.422
114.2366, 3803.262
114.7187, 3845.366
115.2008, 3875.839
115.6829, 3889.071
116.1650, 3907.494
116.6471, 3932.220
117.1293, 3966.281
117.6114, 4016.630
118.0935, 4092.872
118.5756, 4181.660
119.0577, 4275.572
119.5398, 4373.226
120.0220, 4474.373
120.5041, 4579.604
120.9862, 4688.946
121.4683, 4802.515
121.9504, 4918.663
122.4325, 5039.124
122.9147, 5167.445
123.3968, 5305.105
123.8789, 5449.987
124.3610, 5594.556
124.8431, 5740.487
125.3252, 5900.309
125.8074, 6079.379
126.2895, 6279.254
126.7716, 6502.874
127.2537, 6748.806
127.7358, 7021.248
128.2179, 7326.629
128.7001, 7664.199
129.1822, 8024.407
129.6643, 8410.474
130.1464, 8814.924
130.6285, 9206.721
131.1106, 9597.095
131.5928, 9967.002
132.0749, 10261.51
132.5570, 10476.96
133.0391, 10605.64
133.5212, 10630.17
134.0033, 10534.65
134.4855, 10304.11
134.9676, 9949.661
135.4497, 9513.167
135.9318, 9046.377
136.4139, 8540.023
136.8960, 8021.564
137.3782, 7517.871
137.8603, 7026.183
138.3424, 6557.661
138.8245, 6121.601
139.3066, 5714.456
139.7887, 5338.937
140.2709, 4997.081
140.7530, 4686.884
141.2351, 4404.831
141.7172, 4148.741
142.1993, 3917.402
142.6814, 3714.053
143.1636, 3541.020
143.6457, 3382.295
144.1278, 3235.229
144.6099, 3099.957
145.0920, 2973.602
145.5741, 2855.244
146.0563, 2746.156
146.5384, 2649.249
147.0205, 2566.522
147.5026, 2490.821
147.9847, 2421.136
148.4668, 2357.867
148.9490, 2297.721
149.4311, 2242.120
149.9132, 2188.631
150.3953, 2135.670
150.8774, 2081.323
151.3595, 2029.572
151.8417, 1981.634
152.3238, 1937.772
152.8059, 1895.787
153.2880, 1856.029
153.7701, 1818.100
154.2522, 1781.061
154.7344, 1742.819
155.2165, 1707.590
155.6986, 1677.453
156.1807, 1653.699
156.6628, 1628.868
157.1449, 1599.669
157.6271, 1569.441
158.1092, 1542.474
158.5913, 1522.688
159.0734, 1504.124
159.5555, 1483.579
160.0376, 1458.618
160.5198, 1437.747
161.0019, 1427.265
161.4840, 1422.244
161.9661, 1414.440
162.4482, 1398.468
162.9303, 1380.721
163.4125, 1364.448
163.8946, 1349.744
164.3767, 1337.539
164.8588, 1330.229
165.3409, 1325.944
165.8230, 1320.042
166.3052, 1309.501
166.7873, 1297.062
167.2694, 1284.535
167.7515, 1271.494
168.2336, 1259.829
168.7157, 1251.379
169.1978, 1245.477
169.6800, 1239.719
170.1621, 1233.123
170.6442, 1225.884
171.1263, 1217.992
171.6084, 1208.846
172.0905, 1199.902
172.5727, 1192.808
173.0548, 1187.211
173.5369, 1181.264
174.0190, 1173.616
174.5011, 1164.899
174.9832, 1155.958
175.4654, 1146.893
175.9475, 1137.845
176.4296, 1128.490
176.9117, 1118.907
177.3938, 1110.114
177.8759, 1103.624
178.3581, 1098.388
178.8402, 1092.370
179.3223, 1084.387
179.8044, 1075.860
180.2865, 1069.203
180.7686, 1064.372
181.2508, 1059.430
181.7329, 1052.793
182.2150, 1044.754
182.6971, 1036.055
183.1792, 1026.427
183.6613, 1016.574
184.1435, 1008.506
184.6256, 1002.208
185.1077, 995.9252
185.5898, 986.9697
186.0719, 976.2549
186.5540, 967.0575
187.0362, 961.1750
187.5183, 957.4707
188.0004, 953.1022
188.4825, 947.9719
188.9646, 942.7212
189.4467, 938.3368
189.9289, 934.6499
190.4110, 930.2240
190.8931, 924.2033
191.3752, 917.0248
191.8573, 910.2949
192.3394, 903.9608
192.8216, 898.0355
193.3037, 892.4738
193.7858, 887.2789
194.2679, 882.5707
194.7500, 878.5781
195.2321, 875.1834
195.7143, 871.4582
196.1964, 867.3361
196.6785, 863.1364
197.1606, 859.0789
197.6427, 855.0692
198.1248, 851.8265
198.6070, 849.6957
199.0891, 848.6190
199.5712, 847.8992
200.0533, 847.7000
200.5354, 847.4606
201.0175, 846.3270
201.4997, 844.1823
201.9818, 841.9191
202.4639, 839.8129
202.9460, 837.8670
203.4281, 835.7830
203.9102, 833.2567
204.3924, 831.1600
204.8745, 831.3553
205.3566, 834.5835
205.8387, 836.6315
206.3208, 835.4017
206.8029, 830.6483
207.2851, 827.5142
207.7672, 826.2826
208.2493, 826.2599
208.7314, 826.4463
209.2135, 826.8078
209.6956, 827.5123
210.1778, 828.8636
210.6599, 831.0536
211.1420, 832.0190
211.6241, 831.2053
212.1062, 829.7991
212.5883, 829.5980
213.0705, 830.7251
213.5526, 832.7391
214.0347, 835.7736
214.5168, 840.1546
214.9989, 843.3892
215.4810, 845.2034
215.9632, 846.1299
216.4453, 846.9893
216.9274, 847.8424
217.4095, 848.4877
217.8916, 848.8759
218.3737, 849.0267
218.8559, 848.8265
219.3380, 848.3666
219.8201, 847.4837
220.3022, 845.7037
220.7843, 842.3438
221.2664, 839.6156
221.7486, 838.5179
222.2307, 839.5677
222.7128, 839.5549
223.1949, 838.1276
223.6770, 835.9398
224.1591, 833.9069
224.6413, 831.7216
225.1234, 830.2899
225.6055, 830.0920
226.0876, 831.4980
226.5697, 832.2750
227.0518, 832.0623
227.5340, 831.4985
228.0161, 831.6183
228.4982, 832.9396
228.9803, 833.9497
229.4624, 833.7129
229.9445, 831.4547
230.4267, 832.1323
230.9088, 837.0892
231.3909, 843.9601
231.8730, 849.4286
232.3551, 852.9866
232.8372, 856.1075
233.3194, 859.0988
233.8015, 861.9484
234.2836, 864.8544
234.7657, 867.3104
235.2478, 870.2230
235.7299, 875.0480
236.2121, 883.1305
236.6942, 890.6937
237.1763, 896.1427
237.6584, 898.6929
238.1405, 904.7889
238.6226, 916.4191
239.1048, 929.8611
239.5869, 940.3143
240.0690, 945.2751
240.5511, 951.6718
241.0332, 961.4069
241.5153, 974.7770
241.9975, 988.5609
242.4796, 1002.334
242.9617, 1016.727
243.4438, 1032.608
243.9259, 1051.294
244.4080, 1068.950
244.8902, 1083.621
245.3723, 1094.800
245.8544, 1111.185
246.3365, 1134.711
246.8186, 1161.599
247.3007, 1188.375
247.7829, 1214.128
248.2650, 1241.498
248.7471, 1270.928
249.2292, 1302.561
249.7113, 1335.737
250.1934, 1370.066
250.6756, 1406.641
251.1577, 1447.431
251.6398, 1495.161
252.1219, 1541.245
252.6040, 1582.745
253.0861, 1619.767
253.5683, 1663.493
254.0504, 1716.084
254.5325, 1773.019
255.0146, 1831.104
255.4967, 1891.898
255.9788, 1950.760
256.4609, 2005.557
256.9431, 2056.913
257.4252, 2114.683
257.9073, 2181.229
258.3894, 2251.243
258.8715, 2320.438
259.3536, 2387.451
259.8358, 2458.908
260.3179, 2536.989
260.8000, 2620.930
261.2821, 2703.790
261.7642, 2785.218
262.2463, 2867.740
262.7285, 2953.177
263.2106, 3041.508
263.6927, 3131.963
264.1748, 3226.109
264.6569, 3321.712
265.1390, 3415.032
265.6212, 3507.019
266.1033, 3593.220
266.5854, 3672.182
267.0675, 3741.893
267.5496, 3807.294
268.0317, 3869.652
268.5139, 3926.860
268.9960, 3971.450
269.4781, 4001.959
269.9602, 4023.643
270.4423, 4040.237
270.9244, 4053.824
271.4066, 4050.827
271.8887, 4028.891
272.3708, 3992.363
272.8529, 3950.233
273.3350, 3903.009
273.8171, 3848.560
274.2993, 3785.448
274.7814, 3714.578
275.2635, 3633.664
275.7456, 3542.071
276.2277, 3441.657
276.7098, 3336.016
277.1920, 3224.585
277.6741, 3110.903
278.1562, 2996.354
278.6383, 2879.477
279.1204, 2761.979
279.6025, 2642.065
280.0847, 2524.156
280.5668, 2414.676
281.0489, 2314.179
281.5310, 2216.055
282.0131, 2116.802
282.4952, 2017.191
282.9774, 1927.214
283.4595, 1846.986
283.9416, 1773.828
284.4237, 1705.581
284.9058, 1642.240
285.3879, 1582.470
285.8701, 1525.678
286.3522, 1472.248
286.8343, 1423.992
287.3164, 1381.594
287.7985, 1342.226
288.2806, 1303.339
288.7628, 1265.145
289.2449, 1229.823
289.7270, 1197.614
290.2091, 1168.727
290.6912, 1144.006
291.1733, 1123.887
291.6555, 1106.165
292.1376, 1089.627
292.6197, 1074.299
293.1018, 1060.119
293.5839, 1047.000
294.0660, 1035.453
294.5482, 1026.860
295.0303, 1021.113
295.5124, 1016.487
295.9945, 1011.837
296.4766, 1007.429
296.9587, 1003.935
297.4409, 1001.287
297.9230, 999.9500
298.4051, 1000.915
298.8872, 1003.878
299.3693, 1007.583
299.8514, 1009.944
300.3336, 1012.854
300.8157, 1020.404
301.2978, 1033.184
301.7799, 1047.848
302.2620, 1059.966
302.7441, 1070.949
303.2263, 1084.435
303.7084, 1102.710
304.1905, 1124.131
304.6726, 1147.306
305.1547, 1172.002
305.6368, 1197.875
306.1190, 1222.796
306.6011, 1248.858
307.0832, 1278.844
307.5653, 1315.384
308.0474, 1355.452
308.5295, 1395.051
309.0117, 1434.908
309.4938, 1478.239
309.9759, 1527.532
310.4580, 1581.846
310.9401, 1638.743
311.4222, 1698.147
311.9044, 1759.909
312.3865, 1823.254
312.8686, 1888.042
313.3507, 1955.300
313.8328, 2025.318
314.3149, 2097.775
314.7971, 2171.145
315.2792, 2245.897
315.7613, 2322.787
316.2434, 2400.681
316.7255, 2481.030
317.2076, 2567.019
317.6898, 2665.449
318.1719, 2765.922
318.6540, 2860.061
319.1361, 2942.537
319.6182, 3031.967
320.1003, 3137.020
320.5825, 3252.108
321.0646, 3369.550
321.5467, 3484.579
322.0288, 3604.034
322.5109, 3731.600
322.9930, 3866.912
323.4752, 4004.930
323.9573, 4148.728
324.4394, 4292.796
324.9215, 4432.175
325.4036, 4570.397
325.8857, 4699.358
326.3679, 4819.878
326.8500, 4931.979
327.3321, 5026.662
327.8142, 5110.865
328.2963, 5173.472
328.7784, 5207.858
329.2606, 5217.767
329.7427, 5194.725
330.2248, 5133.586
330.7069, 5037.948
331.1890, 4923.963
331.6711, 4787.794
332.1533, 4636.465
332.6354, 4470.579
333.1175, 4284.182
333.5996, 4095.979
334.0817, 3903.023
334.5638, 3709.149
335.0460, 3519.997
335.5281, 3330.900
336.0102, 3152.009
336.4923, 2985.105
336.9744, 2829.726
337.4565, 2686.028
337.9387, 2554.719
338.4208, 2432.120
338.9029, 2314.732
339.3850, 2201.723
339.8671, 2097.742
340.3492, 2004.170
340.8313, 1919.935
341.3134, 1840.076
341.7956, 1763.916
342.2777, 1692.218
342.7598, 1624.235
343.2419, 1561.110
343.7240, 1501.954
344.2061, 1447.437
344.6883, 1396.732
345.1704, 1349.500
345.6525, 1305.356
346.1346, 1264.173
346.6167, 1225.845
347.0988, 1189.941
347.5810, 1157.789
348.0631, 1129.488
348.5452, 1103.136
349.0273, 1075.972
349.5094, 1047.959
349.9915, 1020.529
350.4737, 993.8286
350.9558, 968.0130
351.4379, 944.8916
351.9200, 924.4697
352.4021, 905.0762
352.8842, 884.7587
353.3664, 864.1315
353.8485, 844.3688
354.3306, 825.6483
354.8127, 808.1224
355.2948, 793.0485
355.7769, 780.0880
356.2591, 767.3325
356.7412, 752.6042
357.2233, 737.7803
357.7054, 725.0413
358.1875, 715.8011
358.6696, 707.2382
359.1518, 697.5544
359.6339, 687.0697
360.1160, 676.6625
360.5981, 666.8236
361.0802, 657.1413
361.5623, 647.1534
362.0445, 636.5743
362.5266, 626.6852
363.0087, 618.7123
363.4908, 611.6111
363.9729, 604.1023
364.4550, 594.2827
364.9372, 585.4301
365.4193, 579.4663
365.9014, 576.4965
366.3835, 572.1546
366.8656, 564.0812
367.3477, 555.1896
367.8299, 547.4406
368.3120, 541.9142
368.7941, 536.5347
369.2762, 530.7356
369.7583, 524.8195
370.2404, 520.1307
370.7226, 518.5411
371.2047, 516.4280
371.6868, 512.1342
372.1689, 504.1542
372.6510, 497.4960
373.1331, 492.8926
373.6153, 489.1626
374.0974, 484.1348
374.5795, 476.7240
375.0616, 470.3548
375.5437, 466.4878
376.0258, 465.2087
376.5080, 462.5442
376.9901, 458.1331
377.4722, 452.9898
377.9543, 447.7626
378.4364, 442.3643
378.9185, 437.8470
379.4007, 434.7872
379.8828, 432.5793
380.3649, 429.5619
380.8470, 425.7493
381.3291, 421.2092
381.8112, 415.5432
382.2934, 408.9561
382.7755, 403.4335
383.2576, 399.2864
383.7397, 395.7965
384.2218, 392.4017
384.7039, 388.9311
385.1861, 384.6339
385.6682, 377.9466
386.1503, 370.4958
386.6324, 365.7194
387.1145, 363.7453
387.5966, 361.9185
388.0788, 357.7999
388.5609, 352.2746
389.0430, 346.8397
389.5251, 341.4787
390.0072, 336.8501
390.4893, 334.2458
390.9715, 333.1133
391.4536, 331.2440
391.9357, 326.5095
392.4178, 321.0658
392.8999, 316.8082
393.3820, 314.3303
393.8642, 311.9544
394.3463, 308.8096
394.8284, 305.2468
395.3105, 301.8539
395.7926, 298.7811
396.2747, 295.9101
396.7569, 293.1967
397.2390, 290.6353
397.7211, 288.3626
398.2032, 286.4231
398.6853, 284.7641
399.1674, 283.3665
399.6496, 283.2914
400.1317, 282.1753
400.6138, 279.2051
401.0959, 274.9763
401.5780, 271.5225
402.0602, 268.7771
402.5423, 266.8854
403.0244, 266.1953
403.5065, 267.4158
403.9886, 267.2211
404.4707, 264.9183
404.9529, 261.8683
405.4350, 259.9348
405.9171, 259.3638
406.3992, 259.1727
406.8813, 259.4160
407.3634, 259.8916
407.8456, 258.8701
408.3277, 255.9853
408.8098, 253.1229
409.2919, 252.1715
409.7740, 252.9814
410.2561, 253.0525
410.7383, 251.9241
411.2204, 250.1755
411.7025, 248.6664
412.1846, 247.3766
412.6667, 246.1337
413.1488, 244.5792
413.6310, 243.0688
414.1131, 242.6357
414.5952, 243.3836
415.0773, 244.0186
415.5594, 243.1858
416.0415, 241.4585
416.5237, 239.8053
417.0058, 238.2853
417.4879, 237.2651
417.9700, 237.6237
418.4521, 238.9463
418.9342, 239.5618
419.4164, 238.0037
419.8985, 235.7504
420.3806, 233.8278
420.8627, 232.2872
421.3448, 231.3760
421.8269, 231.5767
422.3091, 232.3524
422.7912, 232.9504
423.2733, 233.0484
423.7554, 233.0789
424.2375, 233.4348
424.7196, 234.1342
425.2018, 233.8617
425.6839, 231.1141
426.1660, 228.3516
426.6481, 227.0637
427.1302, 229.0843
427.6123, 229.5929
428.0945, 227.5313
428.5766, 224.1841
429.0587, 222.6610
429.5408, 223.8698
430.0229, 224.9674
430.5050, 224.7583
430.9872, 223.1708
431.4693, 222.5022
431.9514, 223.0558
432.4335, 223.7709
432.9156, 223.3221
433.3977, 221.6698
433.8799, 220.6322
434.3620, 220.7848
434.8441, 221.5201
435.3262, 221.3540
435.8083, 220.3319
436.2904, 219.3756
436.7726, 219.3095
437.2547, 219.7065
437.7368, 219.4634
438.2189, 218.4314
438.7010, 217.3056
439.1831, 216.9377
439.6652, 216.9443
440.1473, 216.5730
440.6295, 215.1169
441.1116, 213.5356
441.5937, 212.8288
442.0758, 212.7894
442.5579, 212.3830
443.0400, 210.5928
443.5222, 208.5355
444.0043, 207.0678
444.4864, 206.5703
444.9685, 206.0921
445.4506, 205.5367
445.9327, 204.7704
446.4149, 203.5960
446.8970, 201.0525
447.3791, 199.0475
447.8612, 198.1900
448.3433, 198.5117
448.8254, 198.8672
449.3076, 199.5747
449.7897, 200.0127
450.2718, 199.7533
450.7539, 198.3808
451.2360, 197.2370
451.7181, 196.3293
452.2003, 195.6877
452.6824, 195.4945
453.1645, 195.9187
453.6466, 196.1048
454.1287, 195.5896
454.6108, 194.4934
455.0930, 194.1461
455.5751, 194.6810
456.0572, 195.0825
456.5393, 194.1169
457.0214, 192.0753
457.5035, 190.5842
457.9857, 190.0273
458.4678, 189.8884
458.9499, 189.4797
459.4320, 188.8590
459.9141, 188.2235
460.3962, 187.7551
460.8784, 187.2973
461.3605, 186.6339
461.8426, 185.7501
462.3247, 184.9090
462.8068, 184.2398
463.2889, 183.7097
463.7711, 183.2897
464.2532, 182.9285
464.7353, 182.7339
465.2174, 182.7043
465.6995, 182.8712
466.1816, 183.3171
466.6638, 184.7332
467.1459, 185.8132
467.6280, 186.0051
468.1101, 185.0944
468.5922, 184.1431
469.0743, 183.1269
469.5565, 182.1165
470.0386, 181.1751
470.5207, 180.3154
471.0028, 179.4923
471.4849, 178.5622
471.9670, 177.7238
472.4492, 177.6688
472.9313, 178.6478
473.4134, 179.5561
473.8955, 179.8373
474.3776, 179.5273
474.8597, 179.4087
475.3419, 179.5048
475.8240, 179.6602
476.3061, 179.8264
476.7882, 179.9461
477.2703, 179.7079
477.7524, 178.9041
478.2346, 177.9415
478.7167, 177.3757
479.1988, 177.1326
479.6809, 176.9366
480.1630, 176.5905
480.6451, 176.2399
481.1273, 176.0131
481.6094, 175.9187
482.0915, 175.9653
482.5736, 176.2837
483.0557, 176.6853
483.5378, 176.9826
484.0200, 176.8850
484.5021, 176.9708
484.9842, 177.9453
485.4663, 179.2618
485.9484, 179.4427
486.4305, 177.0790
486.9127, 174.6981
487.3948, 173.0473
487.8769, 172.2142
488.3590, 171.5968
488.8411, 171.1924
489.3232, 171.0089
489.8054, 171.0350
490.2875, 171.2289
490.7696, 171.8784
491.2517, 173.2717
491.7338, 174.8878
492.2159, 175.4356
492.6981, 174.8669
493.1802, 174.0110
493.6623, 172.9215
494.1444, 171.8299
494.6265, 171.9507
495.1086, 173.3103
495.5908, 174.7248
496.0729, 175.0401
496.5550, 174.6896
497.0371, 174.6055
497.5192, 175.1217
498.0013, 175.5885
498.4835, 175.2853
498.9656, 174.5063
499.4477, 173.8701
499.9298, 173.5799
500.4119, 173.5594
500.8940, 173.9633
501.3762, 174.7632
501.8583, 175.1912
502.3404, 174.7202
502.8225, 174.0271
503.3046, 173.5052
503.7867, 172.9215
504.2689, 172.9892
504.7510, 174.4005
505.2331, 176.1733
505.7152, 176.7306
506.1973, 175.1993
506.6794, 174.2064
507.1616, 174.4237
507.6437, 175.7114
508.1258, 177.2795
508.6079, 179.3486
509.0900, 180.8304
509.5721, 180.6117
510.0543, 178.8984
510.5364, 177.7807
511.0185, 177.3405
511.5006, 177.7110
511.9827, 180.0180
512.4648, 183.4144
512.9470, 185.1170
513.4291, 183.1066
513.9112, 180.2048
514.3933, 179.6010
514.8754, 180.8012
515.3575, 181.9962
515.8397, 182.0732
516.3218, 181.8656
516.8039, 181.8799
517.2860, 182.1440
517.7681, 182.8466
518.2502, 184.7585
518.7324, 186.7766
519.2145, 187.9141
519.6966, 187.4003
520.1787, 186.7397
520.6608, 185.5642
521.1429, 184.3831
521.6251, 184.5186
522.1072, 186.5869
522.5893, 188.8754
523.0714, 191.1132
523.5535, 193.2905
524.0356, 193.8412
524.5178, 192.3812
524.9999, 190.6369
525.4820, 189.7710
525.9641, 189.8225
526.4462, 191.4026
526.9283, 195.0238
527.4105, 198.8482
527.8926, 200.1095
528.3747, 199.4634
528.8568, 199.0620
529.3389, 200.2562
529.8210, 201.8119
530.3032, 202.2538
530.7853, 201.8143
531.2674, 201.6458
531.7495, 202.1858
532.2316, 203.3602
532.7137, 205.3700
533.1959, 208.6506
533.6780, 211.1604
534.1601, 211.9316
534.6422, 211.9123
535.1243, 212.0899
535.6064, 212.6271
536.0886, 213.2337
536.5707, 213.6361
537.0528, 214.1257
537.5349, 215.7589
538.0170, 219.2133
538.4991, 222.1130
538.9813, 223.2122
539.4634, 222.6568
539.9455, 223.1265
540.4276, 224.7212
540.9097, 226.7677
541.3918, 228.9540
541.8740, 231.1144
542.3561, 232.5027
542.8382, 232.8798
543.3203, 232.8387
543.8024, 232.7864
544.2845, 232.8434
544.7667, 233.2886
545.2488, 234.5146
545.7309, 235.9355
546.2130, 237.0638
546.6951, 238.0022
547.1772, 239.1910
547.6594, 240.5399
548.1415, 242.3991
548.6236, 245.2502
549.1057, 249.6764
549.5878, 252.9811
550.0699, 254.0499
550.5521, 254.5492
551.0342, 255.9210
551.5163, 258.7362
551.9984, 261.1592
552.4805, 262.8551
552.9626, 264.1903
553.4448, 266.1335
553.9269, 268.8386
554.4090, 271.0106
554.8911, 271.6259
555.3732, 271.4077
555.8553, 273.3543
556.3375, 277.4138
556.8196, 281.5066
557.3017, 283.6516
557.7838, 284.8413
558.2659, 286.5775
558.7480, 289.0253
559.2302, 292.1934
559.7123, 297.0783
560.1944, 302.3753
560.6765, 306.4038
561.1586, 307.3771
561.6407, 308.4028
562.1229, 310.4016
562.6050, 313.1941
563.0871, 316.3029
563.5692, 319.5391
564.0513, 323.2421
564.5334, 327.7768
565.0156, 333.1627
565.4977, 337.8813
565.9798, 341.8341
566.4619, 345.2236
566.9440, 347.8976
567.4261, 349.7279
567.9083, 352.5749
568.3904, 356.7485
568.8725, 361.3317
569.3546, 365.1800
569.8367, 368.3865
570.3188, 371.4639
570.8010, 374.1976
571.2831, 377.3202
571.7652, 382.2049
572.2473, 388.3802
572.7294, 393.9623
573.2115, 397.1561
573.6937, 400.1693
574.1758, 404.7696
574.6579, 411.0810
575.1400, 417.1173
575.6221, 422.6999
576.1042, 427.5815
576.5864, 431.5106
577.0685, 433.4536
577.5506, 436.3393
578.0327, 440.5209
578.5148, 445.4225
578.9969, 450.3900
579.4791, 455.5993
579.9612, 460.3272
580.4433, 464.1030
580.9254, 467.5062
581.4075, 472.4262
581.8896, 478.8182
582.3718, 484.8404
582.8539, 489.2000
583.3360, 492.5925
583.8181, 496.3755
584.3002, 500.5147
584.7823, 504.6994
585.2645, 508.9110
585.7466, 512.9254
586.2286, 516.5836
586.7108, 519.8632
587.1929, 522.7065
587.6750, 524.8439
588.1571, 526.6412
588.6392, 528.5498
589.1213, 530.5792
589.6035, 532.8260
