##NAMES=Paravinogradovite
##RRUFFID=R060834
##IDEAL CHEMISTRY=(Na,[box])_2_(Ti^4+^,Fe^3+^)_4_(Si_2_O_6_)_2_(Si_3_AlO_10_)(OH)_4_&#183;H_2_O
##LOCALITY=Kukisvumchorr Mountain, Khibiny Massif, Kola Peninsula, Russia
##OWNER=RRUFF
##SOURCE=Michael Scott
##DESCRIPTION=Aggregates of parallel tan colored acicular crystals associated with zircon
##STATUS=The identification of this mineral is confirmed by single-crystal X-ray diffraction and chemical analysis.
##URL=rruff.info/R060834
##MEASURED CHEMISTRY=(Na_2.13_K_0.14_)_2.27_(Ti^4+^_3.47_Fe^2+^_0.46_Nb^5+^_0.04_Mg_0.03_)_Σ=4_(Si_2.00_O_6_)_2_((Si_2.67_Al_1.17_B_0.16_)_Σ=4_O_10_)(OH)_4_·H_2_O; B and OH by difference and charge balance; Fe^2+^ by charge balance;
154.3069, 11464.15
154.7890, 11534.12
155.2712, 11606.85
155.7533, 11679.88
156.2354, 11752.90
156.7175, 11826.80
157.1996, 11891.98
157.6817, 11963.68
158.1639, 12053.42
158.6460, 12197.19
159.1281, 12327.60
159.6102, 12410.21
160.0923, 12441.93
160.5744, 12492.33
161.0566, 12596.89
161.5387, 12727.78
162.0208, 12854.13
162.5029, 12969.61
162.9850, 13073.72
163.4671, 13160.92
163.9493, 13226.15
164.4314, 13297.61
164.9135, 13398.93
165.3956, 13514.19
165.8777, 13617.78
166.3598, 13676.48
166.8420, 13733.46
167.3241, 13824.29
167.8062, 13963.27
168.2883, 14107.86
168.7704, 14239.74
169.2525, 14358.59
169.7346, 14463.38
170.2168, 14546.04
170.6989, 14617.16
171.1810, 14686.47
171.6631, 14755.67
172.1452, 14824.58
172.6273, 14897.26
173.1095, 14971.12
173.5916, 15038.47
174.0737, 15099.18
174.5558, 15149.15
175.0379, 15181.64
175.5201, 15194.76
176.0022, 15190.19
176.4843, 15164.46
176.9664, 15119.20
177.4485, 15068.56
177.9306, 15024.63
178.4128, 14983.54
178.8949, 14935.89
179.3770, 14876.42
179.8591, 14809.93
180.3412, 14744.87
180.8233, 14680.72
181.3055, 14612.90
181.7876, 14529.87
182.2697, 14437.65
182.7518, 14353.81
183.2339, 14298.70
183.7160, 14254.77
184.1982, 14172.98
184.6803, 14048.05
185.1624, 13922.98
185.6445, 13852.46
186.1266, 13829.17
186.6087, 13803.87
187.0908, 13749.11
187.5730, 13673.43
188.0551, 13613.20
188.5372, 13570.08
189.0193, 13536.08
189.5014, 13504.10
189.9835, 13473.41
190.4657, 13434.08
190.9478, 13372.30
191.4299, 13292.77
191.9120, 13234.59
192.3941, 13202.53
192.8762, 13186.42
193.3584, 13175.45
193.8405, 13170.62
194.3226, 13153.82
194.8047, 13101.71
195.2868, 13016.91
195.7689, 12967.77
196.2511, 12968.19
196.7332, 12996.58
197.2153, 13002.58
197.6974, 12983.98
198.1795, 12959.92
198.6616, 12938.73
199.1438, 12919.78
199.6259, 12915.73
200.1080, 12931.75
200.5901, 12961.66
201.0722, 12984.98
201.5543, 13000.31
202.0364, 13014.48
202.5186, 13036.32
203.0007, 13068.47
203.4828, 13081.78
203.9649, 13061.26
204.4470, 13018.90
204.9291, 13018.40
205.4113, 13070.59
205.8934, 13133.68
206.3755, 13171.47
206.8576, 13177.50
207.3397, 13188.35
207.8218, 13211.61
208.3040, 13245.81
208.7861, 13278.62
209.2682, 13311.17
209.7503, 13340.48
210.2324, 13360.33
210.7145, 13364.80
211.1967, 13384.12
211.6788, 13433.46
212.1609, 13511.35
212.6430, 13553.00
213.1251, 13540.20
213.6072, 13518.63
214.0894, 13537.65
214.5715, 13609.73
215.0536, 13688.65
215.5357, 13765.69
216.0178, 13841.30
216.4999, 13904.43
216.9820, 13947.29
217.4642, 13984.63
217.9463, 14036.29
218.4284, 14109.21
218.9105, 14177.09
219.3926, 14232.80
219.8747, 14274.87
220.3569, 14311.01
220.8390, 14336.29
221.3211, 14360.40
221.8032, 14400.27
222.2853, 14469.08
222.7674, 14526.86
223.2496, 14560.62
223.7317, 14567.16
224.2138, 14569.56
224.6959, 14562.02
225.1780, 14555.55
225.6601, 14568.69
226.1423, 14614.46
226.6244, 14655.60
227.1065, 14677.45
227.5886, 14672.54
228.0707, 14679.62
228.5528, 14703.59
229.0350, 14736.23
229.5171, 14764.93
229.9992, 14795.29
230.4813, 14812.09
230.9634, 14805.67
231.4455, 14762.74
231.9276, 14741.40
232.4098, 14753.84
232.8919, 14781.87
233.3740, 14788.81
233.8561, 14759.12
234.3382, 14733.98
234.8203, 14730.33
235.3025, 14760.06
235.7846, 14776.72
236.2667, 14770.32
236.7488, 14755.26
237.2309, 14763.85
237.7130, 14813.82
238.1952, 14860.21
238.6773, 14883.04
239.1594, 14866.75
239.6415, 14869.12
240.1236, 14893.76
240.6057, 14936.17
241.0879, 14988.75
241.5700, 15062.48
242.0521, 15128.99
242.5342, 15170.99
243.0163, 15160.32
243.4984, 15196.66
243.9806, 15305.09
244.4627, 15452.23
244.9448, 15555.57
245.4269, 15583.86
245.9090, 15613.44
246.3911, 15677.75
246.8732, 15795.33
247.3554, 15900.43
247.8375, 15986.64
248.3196, 16061.51
248.8017, 16148.09
249.2838, 16264.99
249.7659, 16363.30
250.2481, 16414.87
250.7302, 16379.87
251.2123, 16400.40
251.6944, 16504.34
252.1765, 16655.27
252.6586, 16762.76
253.1408, 16802.25
253.6229, 16840.62
254.1050, 16912.55
254.5871, 17043.08
255.0692, 17138.26
255.5513, 17176.48
256.0334, 17187.87
256.5156, 17250.44
256.9977, 17388.08
257.4798, 17536.11
257.9619, 17668.19
258.4440, 17786.12
258.9261, 17881.84
259.4083, 17943.64
259.8904, 17988.60
260.3725, 18057.52
260.8546, 18157.12
261.3367, 18267.76
261.8188, 18381.48
262.3010, 18499.98
262.7831, 18618.97
263.2652, 18744.17
263.7473, 18866.53
264.2294, 18964.28
264.7115, 19022.70
265.1937, 19087.39
265.6758, 19184.37
266.1579, 19325.74
266.6400, 19439.87
267.1221, 19508.69
267.6042, 19563.58
268.0864, 19681.59
268.5685, 19897.83
269.0506, 20086.29
269.5327, 20175.25
270.0148, 20136.45
270.4969, 20153.51
270.9791, 20245.89
271.4612, 20375.18
271.9433, 20458.79
272.4254, 20482.33
272.9075, 20512.48
273.3896, 20577.51
273.8718, 20678.92
274.3539, 20802.71
274.8360, 20960.49
275.3181, 21127.14
275.8002, 21255.56
276.2823, 21339.00
276.7645, 21415.97
277.2466, 21501.53
277.7287, 21595.74
278.2108, 21694.52
278.6929, 21798.62
279.1750, 21906.09
279.6572, 22015.14
280.1393, 22125.98
280.6214, 22234.00
281.1035, 22337.45
281.5856, 22436.13
282.0677, 22528.25
282.5499, 22611.63
283.0320, 22693.33
283.5141, 22784.23
283.9962, 22884.73
284.4783, 22986.94
284.9604, 23095.92
285.4425, 23208.59
285.9247, 23287.74
286.4068, 23328.20
286.8889, 23355.34
287.3710, 23400.53
287.8531, 23463.07
288.3352, 23526.79
288.8174, 23589.51
289.2995, 23649.09
289.7816, 23695.54
290.2637, 23727.26
290.7458, 23749.91
291.2279, 23775.96
291.7101, 23801.60
292.1922, 23801.40
292.6743, 23753.31
293.1564, 23675.92
293.6385, 23622.58
294.1206, 23595.69
294.6028, 23567.01
295.0849, 23510.38
295.5670, 23429.43
296.0491, 23335.78
296.5312, 23231.22
297.0133, 23119.61
297.4955, 23007.43
297.9776, 22897.08
298.4597, 22785.39
298.9418, 22675.71
299.4239, 22564.42
299.9060, 22442.20
300.3882, 22301.75
300.8703, 22153.06
301.3524, 22008.94
301.8345, 21869.06
302.3166, 21736.85
302.7987, 21625.26
303.2809, 21519.69
303.7630, 21390.71
304.2451, 21217.64
304.7272, 21034.03
305.2093, 20881.32
305.6914, 20752.34
306.1736, 20622.79
306.6557, 20471.14
307.1378, 20308.80
307.6199, 20150.24
308.1020, 19998.90
308.5841, 19849.91
309.0663, 19689.09
309.5484, 19523.41
310.0305, 19383.95
310.5126, 19324.27
310.9947, 19278.51
311.4768, 19182.57
311.9590, 19006.92
312.4411, 18821.64
312.9232, 18663.21
313.4053, 18527.52
313.8874, 18407.95
314.3695, 18300.33
314.8517, 18205.61
315.3337, 18131.18
315.8159, 18090.72
316.2980, 18030.57
316.7801, 17899.93
317.2622, 17736.77
317.7443, 17605.78
318.2264, 17556.71
318.7086, 17525.75
319.1907, 17485.99
319.6728, 17434.72
320.1549, 17375.57
320.6370, 17289.75
321.1191, 17202.23
321.6013, 17144.36
322.0834, 17146.66
322.5655, 17158.33
323.0476, 17160.04
323.5297, 17147.22
324.0118, 17151.28
324.4940, 17187.38
324.9761, 17237.54
325.4582, 17284.68
325.9403, 17324.71
326.4224, 17363.58
326.9045, 17401.12
327.3867, 17437.00
327.8688, 17476.75
328.3509, 17511.84
328.8330, 17555.96
329.3151, 17620.01
329.7972, 17732.05
330.2794, 17827.11
330.7615, 17892.69
331.2436, 17933.38
331.7257, 17986.26
332.2078, 18071.36
332.6899, 18148.11
333.1721, 18186.61
333.6542, 18146.06
334.1363, 18154.06
334.6184, 18240.80
335.1005, 18377.80
335.5826, 18472.58
336.0648, 18513.40
336.5469, 18534.12
337.0290, 18547.07
337.5111, 18545.70
337.9932, 18563.64
338.4753, 18611.27
338.9575, 18668.53
339.4396, 18693.48
339.9217, 18678.99
340.4038, 18658.44
340.8859, 18650.29
341.3680, 18655.94
341.8502, 18634.74
342.3323, 18581.23
342.8144, 18515.06
343.2965, 18466.08
343.7786, 18434.79
344.2607, 18402.38
344.7429, 18361.43
345.2250, 18314.12
345.7071, 18268.40
346.1892, 18224.01
346.6713, 18182.21
347.1534, 18137.96
347.6355, 18094.07
348.1176, 18066.24
348.5998, 18064.28
349.0819, 18076.95
349.5640, 18084.51
350.0461, 18086.35
350.5282, 18079.37
351.0103, 18055.64
351.4925, 18021.02
351.9746, 17986.16
352.4567, 17947.22
352.9388, 17918.38
353.4209, 17926.27
353.9030, 17963.47
354.3852, 17996.03
354.8673, 17990.93
355.3494, 17974.38
355.8315, 17979.49
356.3136, 18017.12
356.7957, 18063.85
357.2779, 18102.36
357.7600, 18136.93
358.2421, 18175.86
358.7242, 18226.79
359.2063, 18281.67
359.6884, 18328.08
360.1706, 18359.15
360.6527, 18415.20
361.1348, 18537.26
361.6169, 18690.32
362.0990, 18825.62
362.5811, 18926.68
363.0633, 19008.79
363.5454, 19062.32
364.0275, 19085.41
364.5096, 19141.98
364.9917, 19280.16
365.4738, 19441.92
365.9560, 19580.51
366.4381, 19702.15
366.9202, 19783.61
367.4023, 19802.74
367.8844, 19767.78
368.3665, 19751.74
368.8487, 19767.91
369.3308, 19797.13
369.8129, 19832.07
370.2950, 19907.36
370.7771, 19934.35
371.2592, 19889.02
371.7414, 19797.51
372.2235, 19729.25
372.7056, 19703.04
373.1877, 19670.70
373.6698, 19612.17
374.1519, 19522.10
374.6341, 19428.92
375.1162, 19340.85
375.5983, 19241.08
376.0804, 19098.28
376.5625, 18902.63
377.0446, 18705.75
377.5267, 18523.68
378.0089, 18354.89
378.4910, 18204.40
378.9731, 18080.08
379.4552, 17949.27
379.9373, 17772.79
380.4194, 17551.12
380.9016, 17341.88
381.3837, 17159.50
381.8658, 16995.45
382.3479, 16820.60
382.8300, 16636.24
383.3121, 16466.62
383.7943, 16332.11
384.2764, 16228.54
384.7585, 16146.65
385.2406, 16092.43
385.7227, 16042.01
386.2048, 15964.20
386.6870, 15864.45
387.1691, 15761.55
387.6512, 15651.62
388.1333, 15551.37
388.6154, 15481.07
389.0975, 15444.06
389.5797, 15426.37
390.0618, 15432.65
390.5439, 15448.75
391.0260, 15452.90
391.5081, 15430.84
391.9902, 15399.41
392.4724, 15361.58
392.9545, 15319.27
393.4366, 15291.84
393.9187, 15310.29
394.4008, 15336.09
394.8829, 15338.44
395.3651, 15286.91
395.8472, 15237.25
396.3293, 15203.51
396.8114, 15182.53
397.2935, 15162.74
397.7756, 15145.10
398.2578, 15125.36
398.7399, 15100.21
399.2220, 15061.09
399.7041, 15032.25
400.1862, 15029.08
400.6683, 15031.03
401.1505, 15004.25
401.6326, 14926.69
402.1147, 14852.54
402.5968, 14798.57
403.0789, 14767.62
403.5610, 14720.62
404.0432, 14649.24
404.5253, 14573.75
405.0074, 14518.41
405.4895, 14492.45
405.9716, 14444.01
406.4537, 14349.49
406.9359, 14230.88
407.4180, 14183.18
407.9001, 14217.82
408.3822, 14257.02
408.8643, 14240.40
409.3464, 14174.61
409.8285, 14128.41
410.3106, 14113.13
410.7928, 14108.37
411.2749, 14079.09
411.7570, 14029.72
412.2391, 13989.09
412.7212, 13977.04
413.2033, 13981.48
413.6855, 13978.52
414.1676, 13967.09
414.6497, 13958.77
415.1318, 13963.92
415.6139, 13978.95
416.0960, 13998.17
416.5782, 14027.44
417.0603, 14052.50
417.5424, 14056.16
418.0245, 14042.74
418.5066, 14034.48
418.9887, 14044.61
419.4709, 14063.10
419.9530, 14082.25
420.4351, 14098.46
420.9172, 14119.79
421.3993, 14165.82
421.8814, 14217.38
422.3636, 14238.86
422.8457, 14183.64
423.3278, 14133.47
423.8099, 14122.27
424.2920, 14162.45
424.7741, 14184.28
425.2563, 14162.05
425.7384, 14133.89
426.2205, 14133.31
426.7026, 14175.03
427.1847, 14220.74
427.6668, 14271.34
428.1490, 14322.98
428.6311, 14352.07
429.1132, 14351.49
429.5953, 14341.79
430.0774, 14326.44
430.5595, 14298.51
431.0417, 14315.40
431.5238, 14393.83
432.0059, 14495.42
432.4880, 14551.98
432.9701, 14562.15
433.4522, 14568.66
433.9344, 14593.73
434.4165, 14629.22
434.8986, 14641.81
435.3807, 14630.50
435.8628, 14614.15
436.3449, 14608.61
436.8271, 14611.92
437.3092, 14619.21
437.7913, 14630.66
438.2734, 14643.40
438.7555, 14653.46
439.2376, 14661.66
439.7197, 14671.30
440.2018, 14683.56
440.6840, 14698.29
441.1661, 14718.09
441.6482, 14745.84
442.1303, 14764.81
442.6124, 14760.42
443.0945, 14743.26
443.5767, 14728.05
444.0588, 14720.13
444.5409, 14713.95
445.0230, 14711.44
445.5051, 14712.24
445.9872, 14702.37
446.4694, 14662.52
446.9515, 14623.55
447.4336, 14604.54
447.9157, 14631.44
448.3978, 14641.86
448.8799, 14630.29
449.3621, 14602.87
449.8442, 14573.80
450.3263, 14544.04
450.8084, 14510.71
451.2905, 14469.58
451.7726, 14419.50
452.2548, 14383.59
452.7369, 14364.62
453.2190, 14353.07
453.7011, 14342.73
454.1832, 14333.82
454.6653, 14309.36
455.1475, 14257.70
455.6296, 14195.68
456.1117, 14166.33
456.5938, 14168.20
457.0759, 14169.18
457.5580, 14147.19
458.0402, 14109.41
458.5223, 14067.12
459.0044, 14018.85
459.4865, 13978.95
459.9686, 13970.00
460.4507, 13978.30
460.9329, 13977.16
461.4150, 13949.47
461.8971, 13912.98
462.3792, 13871.15
462.8613, 13826.82
463.3434, 13799.93
463.8256, 13823.45
464.3077, 13853.51
464.7898, 13857.12
465.2719, 13805.29
465.7540, 13763.38
466.2361, 13747.45
466.7183, 13749.11
467.2004, 13751.86
467.6825, 13749.83
468.1646, 13753.43
468.6467, 13763.70
469.1288, 13779.88
469.6110, 13810.74
470.0930, 13862.71
470.5752, 13920.72
471.0573, 13974.43
471.5394, 14025.03
472.0215, 14061.67
472.5036, 14075.02
472.9857, 14079.55
473.4679, 14113.98
473.9500, 14179.17
474.4321, 14258.97
474.9142, 14352.34
475.3963, 14454.83
475.8784, 14543.02
476.3606, 14614.55
476.8427, 14689.95
477.3248, 14792.14
477.8069, 14914.65
478.2890, 15040.54
478.7711, 15159.71
479.2533, 15286.25
479.7354, 15435.39
480.2175, 15604.59
480.6996, 15783.66
481.1817, 15954.27
481.6638, 16138.44
482.1460, 16357.63
482.6281, 16621.44
483.1102, 16884.53
483.5923, 17122.23
484.0744, 17352.27
484.5565, 17597.29
485.0387, 17864.99
485.5208, 18139.36
486.0029, 18424.97
486.4850, 18719.31
486.9671, 18998.46
487.4492, 19256.33
487.9314, 19502.42
488.4135, 19742.04
488.8956, 19974.93
489.3777, 20200.97
489.8598, 20427.33
490.3419, 20642.05
490.8241, 20831.92
491.3062, 20998.35
491.7883, 21138.36
492.2704, 21256.90
492.7525, 21348.27
493.2346, 21395.68
493.7168, 21398.32
494.1989, 21362.79
494.6810, 21287.27
495.1631, 21177.39
495.6452, 21043.86
496.1273, 20889.95
496.6095, 20708.78
497.0916, 20485.87
497.5737, 20235.19
498.0558, 19982.00
498.5379, 19761.80
499.0201, 19525.77
499.5022, 19229.70
499.9843, 18875.90
500.4664, 18548.66
500.9485, 18300.76
501.4306, 18078.51
501.9127, 17849.93
502.3948, 17600.28
502.8770, 17360.86
503.3591, 17135.59
503.8412, 16923.36
504.3233, 16718.74
504.8054, 16516.88
505.2875, 16331.42
505.7697, 16165.64
506.2518, 16017.75
506.7339, 15880.90
507.2160, 15754.47
507.6981, 15640.13
508.1802, 15545.24
508.6624, 15469.38
509.1445, 15380.84
509.6266, 15272.32
510.1087, 15159.83
510.5908, 15070.75
511.0729, 15001.29
511.5551, 14931.93
512.0372, 14847.96
512.5193, 14761.59
513.0014, 14685.23
513.4835, 14619.65
513.9656, 14576.61
514.4478, 14586.74
514.9299, 14611.65
515.4120, 14612.13
515.8941, 14569.56
516.3762, 14524.05
516.8583, 14488.81
517.3405, 14461.45
517.8226, 14438.54
518.3047, 14402.73
518.7868, 14387.80
519.2689, 14415.38
519.7510, 14484.81
520.2332, 14529.38
520.7153, 14538.56
521.1974, 14534.56
521.6795, 14527.20
522.1616, 14511.46
522.6437, 14511.77
523.1259, 14531.77
523.6080, 14564.54
524.0901, 14598.75
524.5722, 14634.63
525.0543, 14676.83
525.5364, 14728.18
526.0186, 14786.93
526.5007, 14849.27
526.9828, 14914.61
527.4649, 14983.51
527.9470, 15067.57
528.4291, 15150.98
528.9113, 15206.57
529.3934, 15221.93
529.8755, 15244.15
530.3576, 15310.77
530.8397, 15403.94
531.3218, 15498.98
531.8040, 15591.46
532.2861, 15679.62
532.7682, 15764.00
533.2503, 15844.46
533.7324, 15911.29
534.2145, 15945.94
534.6967, 15982.74
535.1788, 16038.40
535.6609, 16121.59
536.1430, 16197.36
536.6251, 16263.87
537.1072, 16323.81
537.5894, 16375.24
538.0715, 16413.95
538.5536, 16467.96
539.0357, 16548.71
539.5178, 16642.87
539.9999, 16710.27
540.4821, 16750.45
540.9642, 16798.26
541.4463, 16893.20
541.9284, 17006.75
542.4105, 17073.93
542.8926, 17090.09
543.3748, 17089.79
543.8569, 17093.41
544.3390, 17100.39
544.8211, 17108.81
545.3032, 17108.17
545.7853, 17123.70
546.2675, 17189.00
546.7495, 17279.82
547.2316, 17340.52
547.7137, 17329.88
548.1959, 17312.04
548.6780, 17317.54
549.1601, 17353.38
549.6422, 17346.57
550.1243, 17269.50
550.6064, 17179.70
551.0886, 17116.28
551.5707, 17085.90
552.0528, 17058.73
552.5349, 17033.50
553.0170, 17010.57
553.4991, 16995.06
553.9813, 16986.88
554.4634, 16965.66
554.9455, 16912.61
555.4276, 16847.81
555.9097, 16831.59
556.3918, 16857.46
556.8740, 16863.81
557.3561, 16789.61
557.8382, 16680.21
558.3203, 16589.73
558.8024, 16527.74
559.2845, 16472.50
559.7667, 16409.04
560.2488, 16345.77
560.7309, 16291.77
561.2130, 16260.82
561.6951, 16226.67
562.1772, 16175.26
562.6594, 16113.61
563.1415, 16071.43
563.6236, 16067.08
564.1057, 16058.27
564.5878, 16027.86
565.0699, 15973.80
565.5521, 15926.22
566.0342, 15887.83
566.5163, 15848.85
566.9984, 15793.96
567.4805, 15724.83
567.9626, 15674.13
568.4448, 15649.78
568.9269, 15636.62
569.4090, 15611.74
569.8911, 15578.78
570.3732, 15549.17
570.8553, 15533.48
571.3375, 15520.41
571.8196, 15502.90
572.3017, 15479.83
572.7838, 15445.55
573.2659, 15378.15
573.7480, 15311.50
574.2302, 15269.74
574.7123, 15266.19
575.1944, 15260.10
575.6765, 15241.01
576.1586, 15218.41
576.6407, 15203.47
577.1229, 15208.46
577.6050, 15197.10
578.0871, 15155.13
578.5692, 15097.98
579.0513, 15075.81
579.5334, 15093.95
580.0156, 15118.94
580.4977, 15138.22
580.9798, 15152.04
581.4619, 15164.00
581.9440, 15174.32
582.4261, 15172.93
582.9083, 15134.83
583.3904, 15082.79
583.8725, 15058.23
584.3546, 15075.06
584.8367, 15098.62
585.3188, 15099.68
585.8010, 15092.57
586.2831, 15099.59
586.7652, 15138.47
587.2473, 15181.75
587.7294, 15232.27
588.2115, 15284.67
588.6937, 15304.08
589.1758, 15246.15
589.6579, 15206.99
590.1400, 15230.85
590.6221, 15329.90
591.1042, 15399.17
591.5864, 15432.42
592.0685, 15449.10
592.5506, 15460.70
593.0327, 15468.25
593.5148, 15491.35
593.9969, 15534.01
594.4791, 15591.57
594.9612, 15667.22
595.4433, 15753.80
595.9254, 15828.86
596.4075, 15869.34
596.8896, 15903.91
597.3718, 15965.10
597.8539, 16046.05
598.3360, 16109.36
598.8181, 16112.33
599.3002, 16112.96
599.7823, 16148.06
600.2645, 16232.91
600.7466, 16308.32
601.2287, 16363.36
601.7108, 16411.35
602.1929, 16461.13
602.6750, 16507.26
603.1572, 16571.49
603.6393, 16665.05
604.1214, 16767.91
604.6035, 16835.35
605.0856, 16866.49
605.5677, 16911.44
606.0499, 17005.81
606.5320, 17117.66
607.0141, 17164.21
607.4962, 17154.58
607.9783, 17159.22
608.4604, 17242.63
608.9425, 17354.41
609.4246, 17445.51
609.9067, 17510.90
610.3889, 17556.55
610.8710, 17568.76
611.3531, 17571.12
611.8352, 17584.85
612.3173, 17635.38
612.7994, 17669.36
613.2816, 17679.90
613.7637, 17674.66
614.2458, 17665.43
614.7279, 17646.51
615.2100, 17640.94
615.6921, 17659.16
616.1743, 17695.19
616.6564, 17722.57
617.1385, 17741.32
617.6206, 17753.86
618.1027, 17761.59
618.5848, 17764.23
619.0670, 17758.64
619.5491, 17744.14
620.0312, 17732.15
620.5133, 17741.32
620.9954, 17753.17
621.4775, 17742.86
621.9597, 17681.74
622.4418, 17639.47
622.9239, 17661.45
623.4060, 17711.36
623.8881, 17731.08
624.3702, 17687.80
624.8524, 17647.95
625.3345, 17625.07
625.8166, 17614.24
626.2987, 17591.77
626.7808, 17555.54
627.2629, 17515.23
627.7451, 17473.46
628.2272, 17431.18
628.7093, 17397.29
629.1914, 17372.54
629.6735, 17344.96
630.1556, 17297.97
630.6378, 17243.57
631.1199, 17202.59
631.6020, 17179.99
632.0841, 17165.96
632.5662, 17161.41
633.0483, 17159.20
633.5305, 17149.89
634.0126, 17129.22
634.4947, 17103.38
634.9768, 17060.75
635.4589, 17013.29
635.9410, 16999.87
636.4232, 17050.26
636.9053, 17081.10
637.3874, 17057.39
637.8695, 16986.25
638.3516, 16945.51
638.8337, 16937.09
639.3159, 16942.35
639.7980, 16955.86
640.2801, 16972.68
640.7622, 16973.89
641.2443, 16957.01
641.7264, 16939.88
642.2086, 16936.69
642.6907, 16943.79
643.1728, 16957.89
