##NAMES=Parabutlerite
##RRUFFID=R070547
##IDEAL CHEMISTRY=Fe^3+^S^6+^O_4_(OH)&#183;2H_2_O
##LOCALITY=Chuquicamata mine, Calama, El Loa Province, Antofogasta, Chile
##OWNER=RRUFF
##SOURCE=James Shigley
##DESCRIPTION=Granular aggregate of orange microcrystals
##STATUS=The identification of this mineral has been confirmed by single-crystal X-ray diffraction.
##URL=rruff.info/R070547
150.1554, 2634.500
150.6375, 2701.852
151.1196, 2763.981
151.6017, 2812.802
152.0838, 2866.257
152.5659, 2929.719
153.0481, 3005.015
153.5302, 3071.595
154.0123, 3123.540
154.4944, 3168.293
154.9765, 3212.884
155.4586, 3254.378
155.9408, 3299.187
156.4229, 3351.147
156.9050, 3400.176
157.3871, 3426.316
157.8692, 3428.519
158.3513, 3424.569
158.8335, 3436.394
159.3156, 3496.005
159.7977, 3551.017
160.2798, 3575.238
160.7619, 3550.413
161.2440, 3533.681
161.7262, 3550.195
162.2083, 3587.363
162.6904, 3618.398
163.1725, 3627.435
163.6546, 3630.874
164.1367, 3639.062
164.6189, 3656.788
165.1010, 3675.445
165.5831, 3691.885
166.0652, 3706.063
166.5473, 3718.092
167.0294, 3722.363
167.5116, 3726.518
167.9937, 3737.919
168.4758, 3770.141
168.9579, 3799.154
169.4400, 3807.644
169.9221, 3797.176
170.4043, 3781.847
170.8864, 3758.908
171.3685, 3739.048
171.8506, 3736.273
172.3327, 3771.716
172.8148, 3816.697
173.2970, 3844.890
173.7791, 3855.816
174.2612, 3863.657
174.7433, 3878.394
175.2254, 3898.162
175.7076, 3919.531
176.1897, 3940.226
176.6718, 3962.008
177.1539, 3989.256
177.6360, 4023.410
178.1181, 4055.984
178.6003, 4078.792
179.0824, 4093.636
179.5645, 4105.403
180.0466, 4113.382
180.5287, 4120.930
181.0108, 4134.306
181.4930, 4154.660
181.9751, 4179.248
182.4572, 4207.591
182.9393, 4238.659
183.4214, 4264.885
183.9035, 4280.252
184.3857, 4287.082
184.8678, 4290.970
185.3499, 4291.296
185.8320, 4291.113
186.3141, 4295.861
186.7962, 4305.351
187.2784, 4316.065
187.7605, 4328.057
188.2426, 4339.896
188.7247, 4345.139
189.2068, 4341.375
189.6889, 4331.305
190.1711, 4317.693
190.6532, 4300.130
191.1353, 4287.270
191.6174, 4286.348
192.0995, 4296.922
192.5816, 4317.110
193.0638, 4352.163
193.5459, 4394.703
194.0280, 4416.625
194.5101, 4415.434
194.9922, 4409.555
195.4743, 4415.859
195.9565, 4434.153
196.4386, 4460.780
196.9207, 4499.501
197.4028, 4546.925
197.8849, 4579.758
198.3671, 4596.093
198.8492, 4605.220
199.3313, 4615.677
199.8134, 4626.943
200.2955, 4645.411
200.7776, 4673.708
201.2598, 4711.585
201.7419, 4755.069
202.2240, 4805.644
202.7061, 4859.557
203.1882, 4912.032
203.6703, 4963.083
204.1525, 5012.927
204.6346, 5061.785
205.1167, 5109.527
205.5988, 5157.659
206.0809, 5207.553
206.5630, 5255.890
207.0452, 5293.699
207.5273, 5316.068
208.0094, 5345.552
208.4915, 5396.328
208.9736, 5473.459
209.4557, 5539.318
209.9379, 5593.487
210.4200, 5636.679
210.9021, 5669.790
211.3842, 5692.074
211.8663, 5706.763
212.3484, 5713.489
212.8306, 5709.714
213.3127, 5710.441
213.7948, 5720.212
214.2769, 5732.877
214.7590, 5729.896
215.2411, 5705.953
215.7233, 5677.832
216.2054, 5653.527
216.6875, 5632.123
217.1696, 5617.922
217.6517, 5612.866
218.1338, 5614.741
218.6160, 5615.526
219.0981, 5613.775
219.5802, 5613.294
220.0623, 5614.322
220.5444, 5611.621
221.0265, 5625.785
221.5087, 5664.245
221.9908, 5721.579
222.4729, 5765.746
222.9550, 5780.722
223.4371, 5807.287
223.9192, 5880.147
224.4014, 6025.913
224.8835, 6147.911
225.3656, 6227.464
225.8477, 6271.757
226.3298, 6327.719
226.8119, 6398.617
227.2941, 6477.250
227.7762, 6560.040
228.2583, 6645.139
228.7404, 6734.304
229.2225, 6826.422
229.7046, 6921.186
230.1868, 7025.383
230.6689, 7152.206
231.1510, 7270.958
231.6331, 7357.524
232.1152, 7400.051
232.5974, 7433.561
233.0795, 7467.286
233.5616, 7500.322
234.0437, 7507.157
234.5258, 7482.445
235.0079, 7438.347
235.4901, 7388.920
235.9722, 7354.055
236.4543, 7274.634
236.9364, 7126.443
237.4185, 6909.338
237.9006, 6723.733
238.3828, 6591.076
238.8649, 6467.984
239.3470, 6310.122
239.8291, 6093.643
240.3112, 5887.105
240.7933, 5708.666
241.2755, 5558.469
241.7576, 5396.000
242.2397, 5214.962
242.7218, 5027.509
243.2039, 4844.503
243.6860, 4663.359
244.1682, 4490.475
244.6503, 4326.674
245.1324, 4170.759
245.6145, 4035.114
246.0966, 3925.624
246.5787, 3830.779
247.0609, 3738.541
247.5430, 3646.074
248.0251, 3562.034
248.5072, 3490.376
248.9893, 3432.631
249.4714, 3369.811
249.9536, 3297.375
250.4357, 3224.240
250.9178, 3161.358
251.3999, 3117.598
251.8820, 3067.015
252.3641, 2998.315
252.8463, 2909.657
253.3284, 2844.329
253.8105, 2811.286
254.2926, 2793.003
254.7747, 2771.224
255.2568, 2745.737
255.7390, 2716.995
256.2211, 2683.697
256.7032, 2645.727
257.1853, 2609.727
257.6674, 2574.131
258.1495, 2542.705
258.6317, 2521.434
259.1138, 2516.323
259.5959, 2507.549
260.0780, 2489.107
260.5601, 2460.143
261.0422, 2435.730
261.5244, 2416.789
262.0065, 2401.196
262.4886, 2386.458
262.9707, 2371.037
263.4528, 2360.452
263.9349, 2357.793
264.4171, 2363.467
264.8992, 2364.209
265.3813, 2360.979
265.8634, 2351.493
266.3455, 2331.610
266.8276, 2297.364
267.3098, 2264.743
267.7919, 2238.214
268.2740, 2217.897
268.7561, 2192.423
269.2382, 2159.018
269.7203, 2126.024
270.2025, 2104.227
270.6846, 2097.707
271.1667, 2086.540
271.6488, 2063.331
272.1309, 2029.187
272.6130, 2004.279
273.0952, 1990.393
273.5773, 1981.948
274.0594, 1976.474
274.5415, 1976.523
275.0236, 1964.483
275.5057, 1930.856
275.9879, 1879.428
276.4700, 1844.718
276.9521, 1829.793
277.4342, 1823.223
277.9163, 1814.671
278.3984, 1804.043
278.8806, 1792.557
279.3627, 1781.049
279.8448, 1769.037
280.3269, 1751.658
280.8090, 1727.052
281.2911, 1703.689
281.7733, 1689.921
282.2554, 1685.953
282.7375, 1684.140
283.2196, 1683.374
283.7017, 1683.258
284.1838, 1683.484
284.6660, 1684.695
285.1481, 1682.406
285.6302, 1669.108
286.1123, 1645.632
286.5944, 1628.927
287.0765, 1624.099
287.5587, 1627.761
288.0408, 1632.589
288.5229, 1639.171
289.0050, 1640.761
289.4871, 1627.179
289.9692, 1601.316
290.4514, 1583.191
290.9335, 1579.676
291.4156, 1583.624
291.8977, 1576.820
292.3798, 1559.332
292.8619, 1544.908
293.3441, 1546.592
293.8262, 1560.938
294.3083, 1575.572
294.7904, 1590.086
295.2726, 1601.322
295.7547, 1600.720
296.2368, 1589.336
296.7189, 1579.091
297.2010, 1581.668
297.6831, 1591.852
298.1653, 1596.833
298.6474, 1593.874
299.1295, 1586.103
299.6116, 1574.494
300.0937, 1560.378
300.5758, 1550.285
301.0580, 1552.949
301.5401, 1561.641
302.0222, 1564.582
302.5043, 1559.178
302.9864, 1549.877
303.4685, 1538.416
303.9507, 1526.255
304.4328, 1518.726
304.9149, 1521.299
305.3970, 1529.277
305.8791, 1538.885
306.3612, 1551.445
306.8434, 1558.432
307.3255, 1544.252
307.8076, 1518.113
308.2897, 1500.995
308.7718, 1519.163
309.2539, 1543.125
309.7361, 1541.179
310.2182, 1505.894
310.7003, 1470.849
311.1824, 1460.187
311.6645, 1465.663
312.1466, 1473.092
312.6288, 1480.080
313.1109, 1484.250
313.5930, 1483.297
314.0751, 1476.724
314.5572, 1469.104
315.0393, 1460.074
315.5215, 1452.164
316.0036, 1448.600
316.4857, 1456.225
316.9678, 1463.693
317.4499, 1465.008
317.9320, 1459.766
318.4142, 1453.957
318.8963, 1451.069
319.3784, 1448.186
319.8605, 1442.446
320.3426, 1424.251
320.8247, 1411.546
321.3069, 1413.501
321.7890, 1429.227
322.2711, 1441.861
322.7532, 1446.776
323.2353, 1447.397
323.7174, 1446.191
324.1996, 1441.544
324.6817, 1437.229
325.1638, 1435.100
325.6459, 1434.518
326.1280, 1430.970
326.6101, 1419.589
327.0923, 1408.139
327.5744, 1400.933
328.0565, 1396.901
328.5386, 1398.639
329.0207, 1413.343
329.5028, 1435.252
329.9850, 1443.532
330.4671, 1423.524
330.9492, 1404.180
331.4313, 1398.018
331.9134, 1413.888
332.3955, 1426.701
332.8777, 1436.649
333.3598, 1443.432
333.8419, 1445.996
334.3240, 1439.838
334.8061, 1436.453
335.2882, 1440.927
335.7704, 1456.189
336.2525, 1468.254
336.7346, 1476.760
337.2167, 1482.448
337.6988, 1485.901
338.1809, 1485.915
338.6631, 1487.036
339.1452, 1489.133
339.6273, 1491.966
340.1094, 1505.908
340.5915, 1534.323
341.0736, 1567.361
341.5558, 1592.964
342.0379, 1611.129
342.5200, 1625.072
343.0021, 1633.929
343.4842, 1639.266
343.9663, 1649.647
344.4485, 1665.208
344.9306, 1684.814
345.4127, 1706.626
345.8948, 1730.827
346.3769, 1760.415
346.8590, 1798.048
347.3412, 1839.509
347.8233, 1874.925
348.3054, 1904.230
348.7875, 1929.078
349.2696, 1946.459
349.7517, 1959.534
350.2339, 1978.747
350.7160, 2006.386
351.1981, 2039.230
351.6802, 2073.467
352.1623, 2109.257
352.6444, 2148.423
353.1266, 2195.573
353.6087, 2245.391
354.0908, 2287.850
354.5729, 2320.322
355.0550, 2351.117
355.5371, 2387.073
356.0193, 2427.247
356.5014, 2468.884
356.9835, 2512.197
357.4656, 2555.108
357.9477, 2595.797
358.4298, 2634.176
358.9120, 2670.909
359.3941, 2704.691
359.8762, 2737.517
360.3583, 2772.368
360.8404, 2813.891
361.3225, 2854.356
361.8047, 2892.326
362.2868, 2927.445
362.7689, 2954.422
363.2510, 2964.560
363.7331, 2969.063
364.2152, 2976.982
364.6974, 3001.067
365.1795, 3017.142
365.6616, 3013.890
366.1437, 2995.882
366.6258, 2985.491
367.1079, 2992.865
367.5901, 3004.037
368.0722, 3012.340
368.5543, 3018.138
369.0364, 3019.974
369.5185, 3018.915
370.0006, 3014.010
370.4828, 3002.390
370.9649, 2973.557
371.4470, 2950.092
371.9291, 2941.409
372.4112, 2954.866
372.8933, 2956.741
373.3755, 2938.914
373.8576, 2915.682
374.3397, 2907.459
374.8218, 2920.189
375.3039, 2933.573
375.7861, 2941.707
376.2682, 2944.645
376.7503, 2951.184
377.2324, 2960.723
377.7145, 2974.942
378.1967, 2998.874
378.6788, 3034.093
379.1609, 3060.382
379.6430, 3069.316
380.1251, 3069.218
380.6072, 3089.394
381.0894, 3131.578
381.5715, 3177.209
382.0536, 3212.143
382.5357, 3238.717
383.0178, 3267.716
383.4999, 3300.483
383.9821, 3337.082
384.4642, 3378.728
384.9463, 3425.353
385.4284, 3472.648
385.9105, 3520.707
386.3926, 3568.017
386.8748, 3609.802
387.3569, 3644.928
387.8390, 3683.621
388.3211, 3741.195
388.8032, 3809.662
389.2853, 3870.918
389.7675, 3902.718
390.2496, 3934.938
390.7317, 4000.382
391.2138, 4097.000
391.6959, 4185.190
392.1780, 4237.803
392.6602, 4273.273
393.1423, 4309.742
393.6244, 4349.334
394.1065, 4394.798
394.5886, 4453.000
395.0707, 4519.614
395.5529, 4579.875
396.0350, 4617.723
396.5171, 4656.163
396.9992, 4710.035
397.4813, 4795.470
397.9634, 4865.553
398.4456, 4905.882
398.9277, 4928.359
399.4098, 4954.192
399.8919, 4996.842
400.3740, 5030.920
400.8561, 5050.152
401.3383, 5053.351
401.8204, 5048.326
402.3025, 5033.056
402.7846, 5011.413
403.2667, 4988.059
403.7488, 4968.424
404.2310, 4934.852
404.7131, 4878.926
405.1952, 4806.283
405.6773, 4747.244
406.1594, 4705.208
406.6415, 4667.838
407.1237, 4631.894
407.6058, 4599.292
408.0879, 4543.780
408.5700, 4458.316
409.0521, 4355.889
409.5342, 4259.104
410.0164, 4168.286
410.4985, 4085.692
410.9806, 4019.750
411.4627, 3963.767
411.9448, 3891.501
412.4269, 3800.331
412.9091, 3706.298
413.3912, 3630.759
413.8733, 3567.761
414.3554, 3502.961
414.8375, 3430.096
415.3196, 3354.594
415.8018, 3282.739
416.2839, 3214.860
416.7660, 3147.839
417.2481, 3074.690
417.7302, 3005.015
418.2123, 2951.413
418.6945, 2924.860
419.1766, 2899.861
419.6587, 2864.247
420.1408, 2819.573
420.6229, 2770.050
421.1050, 2707.756
421.5872, 2648.909
422.0693, 2601.340
422.5514, 2567.561
423.0335, 2538.636
423.5156, 2516.646
423.9977, 2496.730
424.4799, 2473.208
424.9620, 2441.523
425.4441, 2411.016
425.9262, 2382.461
426.4083, 2355.962
426.8904, 2331.640
427.3726, 2310.653
427.8547, 2290.244
428.3368, 2268.279
428.8189, 2241.729
429.3010, 2220.269
429.7831, 2203.660
430.2653, 2192.692
430.7474, 2190.775
431.2295, 2200.644
431.7116, 2209.602
432.1937, 2212.515
432.6758, 2209.591
433.1580, 2202.939
433.6401, 2190.806
434.1222, 2181.728
434.6043, 2185.900
435.0864, 2202.325
435.5685, 2224.535
436.0507, 2253.976
436.5328, 2285.164
437.0149, 2305.305
437.4970, 2315.658
437.9791, 2326.720
438.4612, 2347.675
438.9434, 2373.403
439.4255, 2395.650
439.9076, 2412.121
440.3897, 2428.388
440.8718, 2445.419
441.3539, 2465.607
441.8361, 2493.301
442.3182, 2533.514
442.8003, 2579.481
443.2824, 2630.156
443.7645, 2685.640
444.2466, 2736.027
444.7288, 2769.698
445.2109, 2800.574
445.6930, 2839.626
446.1751, 2899.853
446.6572, 2956.182
447.1393, 2998.800
447.6215, 3032.894
448.1036, 3079.605
448.5857, 3151.813
449.0678, 3223.981
449.5499, 3286.860
450.0320, 3336.713
450.5142, 3386.737
450.9963, 3433.056
451.4784, 3483.504
451.9605, 3550.405
452.4426, 3640.330
452.9247, 3726.259
453.4069, 3801.658
453.8890, 3868.858
454.3711, 3939.152
454.8532, 4013.553
455.3353, 4086.864
455.8174, 4150.023
456.2996, 4206.180
456.7817, 4274.139
457.2638, 4359.085
457.7459, 4448.814
458.2281, 4530.185
458.7102, 4602.623
459.1923, 4667.498
459.6744, 4717.397
460.1565, 4763.571
460.6386, 4822.544
461.1208, 4895.702
461.6029, 4962.850
462.0850, 5007.468
462.5671, 5039.908
463.0492, 5071.554
463.5313, 5113.463
464.0135, 5147.231
464.4956, 5164.176
464.9777, 5166.600
465.4598, 5160.134
465.9419, 5147.488
466.4240, 5125.449
466.9062, 5091.350
467.3883, 5041.493
467.8704, 4989.545
468.3525, 4944.070
468.8346, 4892.235
469.3167, 4818.338
469.7989, 4709.195
470.2810, 4599.619
470.7631, 4490.427
471.2452, 4383.936
471.7273, 4298.011
472.2094, 4242.755
472.6916, 4183.364
473.1737, 4091.971
473.6558, 3966.704
474.1379, 3856.338
474.6200, 3764.500
475.1021, 3684.115
475.5843, 3608.935
476.0664, 3537.700
476.5485, 3456.801
477.0306, 3351.062
477.5127, 3236.944
477.9948, 3149.107
478.4770, 3086.504
478.9591, 3031.989
479.4412, 2978.355
479.9233, 2922.414
480.4054, 2858.439
480.8875, 2780.019
481.3697, 2705.342
481.8518, 2648.347
482.3339, 2603.744
482.8160, 2560.855
483.2981, 2513.219
483.7802, 2467.964
484.2624, 2431.154
484.7445, 2403.471
485.2266, 2372.956
485.7087, 2331.533
486.1908, 2289.862
486.6729, 2256.804
487.1551, 2244.542
487.6372, 2222.951
488.1193, 2184.632
488.6014, 2137.260
489.0835, 2100.458
489.5656, 2078.868
490.0478, 2057.585
490.5299, 2028.458
491.0120, 1990.753
491.4941, 1967.067
491.9762, 1961.017
492.4583, 1956.982
492.9405, 1934.845
493.4226, 1896.726
493.9047, 1866.352
494.3868, 1850.229
494.8689, 1842.251
495.3510, 1832.551
495.8332, 1821.543
496.3153, 1811.461
496.7974, 1806.365
497.2795, 1801.594
497.7616, 1789.748
498.2437, 1769.386
498.7259, 1751.200
499.2080, 1744.135
499.6901, 1742.349
500.1722, 1738.862
500.6543, 1729.304
501.1364, 1720.030
501.6186, 1709.554
502.1007, 1700.139
502.5828, 1700.461
503.0649, 1734.441
503.5470, 1759.014
504.0291, 1752.150
504.5113, 1698.574
504.9934, 1665.348
505.4755, 1660.445
505.9576, 1668.752
506.4397, 1674.658
506.9218, 1677.105
507.4040, 1680.510
507.8861, 1686.316
508.3682, 1693.292
508.8503, 1697.020
509.3324, 1697.214
509.8145, 1696.550
510.2967, 1695.577
510.7788, 1694.853
511.2609, 1696.362
511.7430, 1700.030
512.2252, 1707.024
512.7073, 1722.448
513.1894, 1741.913
513.6715, 1755.856
514.1536, 1758.859
514.6357, 1757.596
515.1179, 1755.160
515.6000, 1752.584
516.0821, 1753.581
516.5642, 1762.003
517.0463, 1772.939
517.5284, 1783.288
518.0106, 1792.161
518.4927, 1802.935
518.9748, 1818.684
519.4569, 1835.561
519.9390, 1849.226
520.4211, 1853.427
520.9033, 1863.418
521.3854, 1882.660
521.8675, 1908.924
522.3496, 1933.901
522.8317, 1959.061
523.3138, 1979.804
523.7960, 1989.638
524.2781, 1988.158
524.7602, 2004.145
525.2423, 2039.899
525.7244, 2083.970
526.2065, 2126.788
526.6887, 2167.602
527.1708, 2204.051
527.6529, 2233.685
528.1350, 2261.040
528.6171, 2288.267
529.0992, 2317.713
529.5814, 2357.127
530.0635, 2417.921
530.5456, 2486.162
531.0277, 2553.630
531.5098, 2619.570
531.9919, 2676.570
532.4741, 2711.255
532.9562, 2740.981
533.4383, 2781.341
533.9204, 2838.843
534.4025, 2902.759
534.8846, 2975.994
535.3668, 3054.933
535.8489, 3126.711
536.3310, 3184.771
536.8131, 3247.448
537.2952, 3323.918
537.7773, 3414.341
538.2595, 3492.768
538.7416, 3557.781
539.2237, 3617.114
539.7058, 3676.172
540.1879, 3735.661
540.6700, 3793.710
541.1522, 3850.611
541.6343, 3904.422
542.1164, 3951.568
542.5985, 3992.235
543.0806, 4027.310
543.5627, 4051.718
544.0449, 4073.864
544.5270, 4109.063
545.0091, 4154.560
545.4912, 4186.604
545.9733, 4186.461
546.4554, 4170.220
546.9376, 4151.035
547.4197, 4134.354
547.9018, 4107.287
548.3839, 4065.516
548.8660, 4012.009
549.3481, 3950.580
549.8303, 3878.341
550.3124, 3802.421
550.7945, 3722.361
551.2766, 3639.610
551.7587, 3557.865
552.2408, 3477.092
552.7230, 3397.484
553.2051, 3321.952
553.6872, 3250.917
554.1693, 3165.479
554.6514, 3062.938
555.1335, 2956.509
555.6157, 2861.172
556.0978, 2775.222
556.5799, 2694.215
557.0620, 2617.853
557.5441, 2544.472
558.0262, 2470.860
558.5084, 2398.413
558.9905, 2330.700
559.4726, 2269.266
559.9547, 2212.707
560.4368, 2161.379
560.9189, 2115.810
561.4011, 2069.639
561.8832, 2015.594
562.3653, 1963.571
562.8474, 1920.267
563.3295, 1896.129
563.8116, 1868.630
564.2938, 1834.110
564.7759, 1798.049
565.2580, 1770.038
565.7401, 1754.080
566.2222, 1734.660
566.7043, 1704.247
567.1865, 1667.118
567.6686, 1647.509
568.1507, 1646.852
568.6328, 1645.917
569.1149, 1626.737
569.5970, 1596.502
570.0792, 1579.687
570.5613, 1579.580
571.0434, 1581.680
571.5255, 1571.517
572.0076, 1554.645
572.4897, 1539.805
572.9719, 1531.937
573.4540, 1524.473
573.9361, 1512.368
574.4182, 1497.822
574.9003, 1486.762
575.3824, 1483.959
575.8646, 1482.028
576.3467, 1478.065
576.8288, 1471.689
577.3109, 1466.246
577.7930, 1459.475
578.2751, 1456.337
578.7573, 1462.259
579.2394, 1480.944
579.7215, 1491.277
580.2036, 1490.599
580.6857, 1484.014
581.1678, 1477.553
581.6500, 1471.548
582.1321, 1470.073
582.6142, 1475.426
583.0963, 1485.453
583.5784, 1499.574
584.0605, 1516.351
584.5427, 1528.730
585.0248, 1525.515
585.5069, 1519.892
585.9890, 1525.636
586.4711, 1545.505
586.9532, 1563.499
587.4354, 1568.263
587.9175, 1570.795
588.3996, 1580.565
588.8817, 1606.562
589.3638, 1630.299
589.8459, 1651.930
590.3281, 1670.432
590.8102, 1683.263
591.2923, 1686.310
591.7744, 1693.609
592.2565, 1709.843
592.7386, 1733.694
593.2208, 1759.116
593.7029, 1786.498
594.1850, 1811.399
594.6671, 1828.885
595.1492, 1841.336
595.6313, 1855.976
596.1135, 1874.010
596.5956, 1889.603
597.0777, 1895.510
597.5598, 1896.429
598.0419, 1899.347
598.5240, 1909.096
599.0062, 1917.633
599.4883, 1925.285
599.9704, 1929.041
600.4525, 1922.008
600.9346, 1889.879
601.4167, 1859.907
601.8989, 1840.630
602.3810, 1832.070
602.8631, 1821.554
603.3452, 1809.592
603.8273, 1794.606
604.3094, 1773.916
604.7916, 1746.624
605.2737, 1724.062
605.7558, 1706.702
606.2379, 1692.886
606.7200, 1681.652
607.2021, 1672.122
607.6843, 1660.873
608.1664, 1645.731
608.6485, 1630.548
609.1306, 1619.022
609.6127, 1610.730
610.0948, 1603.934
610.5770, 1599.076
611.0591, 1594.555
611.5412, 1589.700
612.0233, 1584.495
612.5054, 1578.894
612.9875, 1577.031
613.4697, 1571.188
613.9518, 1555.267
614.4339, 1520.582
614.9160, 1504.863
615.3981, 1516.730
615.8802, 1535.648
616.3624, 1537.225
616.8445, 1520.331
617.3266, 1504.397
617.8087, 1492.742
618.2908, 1484.089
618.7729, 1476.571
619.2551, 1470.185
619.7372, 1464.953
620.2193, 1461.852
620.7014, 1459.202
621.1835, 1455.349
621.6656, 1450.378
622.1478, 1444.778
622.6299, 1438.949
623.1120, 1432.473
623.5941, 1425.308
624.0762, 1417.754
624.5583, 1408.394
625.0405, 1393.331
625.5226, 1379.184
626.0047, 1372.198
626.4868, 1376.688
626.9689, 1375.839
627.4510, 1366.911
627.9332, 1353.386
628.4153, 1340.065
628.8974, 1326.952
629.3795, 1319.281
629.8616, 1322.052
630.3438, 1328.715
630.8259, 1326.343
631.3080, 1316.386
631.7901, 1306.742
632.2722, 1304.544
632.7543, 1303.268
633.2365, 1296.335
633.7186, 1282.841
634.2007, 1270.918
634.6828, 1264.912
635.1649, 1260.676
635.6470, 1255.171
636.1292, 1246.496
636.6113, 1239.203
637.0934, 1232.343
637.5755, 1227.742
638.0576, 1229.018
638.5397, 1237.735
639.0219, 1243.995
639.5040, 1245.362
639.9861, 1243.445
640.4682, 1240.520
640.9503, 1236.957
641.4324, 1235.820
641.9146, 1245.304
642.3967, 1254.433
642.8788, 1244.452
643.3609, 1217.479
643.8430, 1196.436
644.3251, 1200.396
644.8073, 1210.855
645.2894, 1214.580
645.7715, 1207.419
646.2536, 1202.138
646.7357, 1205.000
647.2178, 1207.445
