##NAMES=Pargasite
##RRUFFID=R060072
##IDEAL CHEMISTRY=NaCa_2_(Mg_4_Al)(Si_6_Al_2_)O_22_(OH)_2_
##LOCALITY=Pein Pyit, Mogok, Burma
##OWNER=RRUFF
##SOURCE=Marcus Origlieri
##DESCRIPTION=Pale green prismatic crystal embedded in calcite
##STATUS=The identification of this mineral has been confirmed by X-ray diffraction and chemical analysis
##URL=rruff.info/R060072
##MEASURED CHEMISTRY=(Na_0.81_K_0.19_)_Σ=1_(Ca_1.90_Na_0.10_)_Σ=2_(Mg_3.46_Al_0.45_Fe^2+^_0.05_Ti_0.04_)_Σ=4_Al_1.00_(Si_5.57_Al_2.43_)_Σ=8_O_22_(OH)_2_
89.78156, 0.0000000E+00
90.26367, 152.0399
90.74579, 152.0546
91.22791, 152.0500
91.71002, 152.0302
92.19214, 152.0308
92.67426, 152.1936
93.15638, 152.4150
93.63850, 152.4007
94.12061, 151.8249
94.60273, 151.0079
95.08485, 150.7778
95.56696, 151.1961
96.04908, 151.7977
96.53120, 152.0557
97.01331, 151.9784
97.49543, 151.8136
97.97755, 151.7298
98.45966, 151.7085
98.94178, 151.2750
99.42390, 150.2236
99.90602, 149.0552
100.3881, 148.8372
100.8703, 149.8194
101.3524, 150.8697
101.8345, 151.4087
102.3166, 151.3235
102.7987, 151.1756
103.2808, 150.9529
103.7630, 150.6945
104.2451, 150.5727
104.7272, 150.5739
105.2093, 150.7282
105.6914, 151.0633
106.1735, 151.6183
106.6557, 152.2978
107.1378, 153.2571
107.6199, 154.5292
108.1020, 155.1752
108.5841, 154.4397
109.0662, 153.4786
109.5484, 153.3190
110.0305, 154.9398
110.5126, 156.3873
110.9947, 157.0503
111.4768, 156.5428
111.9590, 157.0496
112.4411, 159.5496
112.9232, 162.9925
113.4053, 165.9527
113.8874, 167.1334
114.3695, 168.6620
114.8517, 171.4590
115.3338, 176.1144
115.8159, 180.7908
116.2980, 184.6630
116.7801, 188.2053
117.2622, 192.4096
117.7444, 197.9480
118.2265, 204.1306
118.7086, 210.4169
119.1907, 216.3837
119.6728, 223.0250
120.1549, 231.0580
120.6371, 240.3050
121.1192, 250.0869
121.6013, 260.0796
122.0834, 270.2869
122.5655, 280.6939
123.0476, 291.6254
123.5298, 302.4664
124.0119, 312.8173
124.4940, 322.6632
124.9761, 331.8361
125.4582, 340.0660
125.9404, 347.4682
126.4225, 354.1910
126.9046, 360.6230
127.3867, 366.3098
127.8688, 370.0628
128.3509, 371.7143
128.8331, 373.0655
129.3152, 375.7413
129.7973, 379.7201
130.2794, 384.7877
130.7615, 391.1659
131.2436, 398.6037
131.7258, 406.1074
132.2079, 413.5591
132.6900, 421.3143
133.1721, 430.1362
133.6542, 440.0002
134.1364, 449.9516
134.6185, 459.4584
135.1006, 468.5898
135.5827, 478.1071
136.0648, 488.3252
136.5469, 498.7654
137.0291, 508.3013
137.5112, 516.7938
137.9933, 524.6978
138.4754, 532.5506
138.9575, 540.4556
139.4396, 547.1188
139.9218, 551.8742
140.4039, 555.2582
140.8860, 559.9705
141.3681, 566.5850
141.8502, 573.4589
142.3323, 578.9890
142.8145, 582.5045
143.2966, 586.5840
143.7787, 591.5267
144.2608, 597.3746
144.7429, 603.8995
145.2250, 611.0861
145.7072, 619.0475
146.1893, 627.9731
146.6714, 638.3124
147.1535, 648.9091
147.6356, 659.2891
148.1178, 669.1933
148.5999, 680.3793
149.0820, 693.6230
149.5641, 707.7865
150.0462, 721.4076
150.5283, 733.9532
151.0105, 746.3155
151.4926, 751.7501
151.9747, 755.8222
152.4568, 760.4314
152.9389, 766.5989
153.4210, 773.0729
153.9032, 778.1876
154.3853, 780.5461
154.8674, 782.5737
155.3495, 784.9045
155.8316, 787.3879
156.3137, 790.6617
156.7959, 795.5690
157.2780, 801.2606
157.7601, 806.1198
158.2422, 808.6512
158.7243, 811.1516
159.2065, 814.7596
159.6886, 819.9427
160.1707, 825.6501
160.6528, 831.8168
161.1349, 838.2906
161.6170, 844.6827
162.0992, 849.8574
162.5813, 855.4842
163.0634, 862.7312
163.5455, 872.7023
164.0276, 883.1400
164.5097, 893.1898
164.9919, 902.9139
165.4740, 912.5434
165.9561, 923.5772
166.4382, 933.9460
166.9203, 941.9393
167.4024, 947.0442
167.8846, 949.7275
168.3667, 950.4672
168.8488, 949.2108
169.3309, 945.4702
169.8130, 938.6746
170.2952, 929.2854
170.7773, 917.9199
171.2594, 902.1719
171.7415, 886.4066
172.2236, 874.3691
172.7057, 865.8744
173.1879, 858.5048
173.6700, 850.1268
174.1521, 841.6797
174.6342, 834.7216
175.1163, 830.2667
175.5984, 827.2754
176.0806, 824.6989
176.5627, 822.5150
177.0448, 820.7556
177.5269, 819.6722
178.0090, 819.0594
178.4911, 818.3983
178.9733, 817.3129
179.4554, 816.1099
179.9375, 815.2177
180.4196, 814.6495
180.9017, 814.4293
181.3838, 814.7966
181.8660, 815.6072
182.3481, 816.3416
182.8302, 816.4830
183.3123, 816.4199
183.7944, 817.1492
184.2766, 818.8112
184.7587, 820.7487
185.2408, 822.5852
185.7229, 824.1972
186.2050, 824.8767
186.6871, 823.6733
187.1693, 821.1331
187.6514, 819.4785
188.1335, 818.9536
188.6156, 818.6750
189.0977, 817.2256
189.5798, 814.6554
190.0620, 812.0314
190.5441, 810.0751
191.0262, 808.6034
191.5083, 806.4719
191.9904, 803.5224
192.4725, 800.0168
192.9547, 796.2245
193.4368, 792.1003
193.9189, 788.1456
194.4010, 784.1993
194.8831, 780.3622
195.3652, 778.5471
195.8474, 779.4548
196.3295, 781.5221
196.8116, 781.4226
197.2937, 778.9431
197.7758, 776.3698
198.2579, 774.8862
198.7401, 774.4931
199.2222, 774.9737
199.7043, 776.4877
200.1864, 778.6352
200.6685, 780.4601
201.1507, 781.8278
201.6328, 783.4225
202.1149, 785.7186
202.5970, 788.7745
203.0791, 791.8546
203.5612, 794.7762
204.0434, 797.7444
204.5255, 801.4158
205.0076, 805.9953
205.4897, 810.5914
205.9718, 814.4111
206.4539, 817.1608
206.9361, 820.9821
207.4182, 826.2880
207.9003, 832.6807
208.3824, 839.0695
208.8645, 845.4409
209.3466, 851.9066
209.8288, 858.6393
210.3109, 865.7167
210.7930, 872.6857
211.2751, 879.3632
211.7572, 885.9192
212.2393, 893.3573
212.7215, 901.9093
213.2036, 910.6494
213.6857, 918.8770
214.1678, 926.3278
214.6499, 934.3132
215.1320, 943.3676
215.6142, 953.0775
216.0963, 961.3353
216.5784, 967.5548
217.0605, 973.3711
217.5426, 979.7938
218.0247, 986.8659
218.5069, 994.2585
218.9890, 1002.161
219.4711, 1010.373
219.9532, 1018.060
220.4353, 1025.208
220.9175, 1031.987
221.3996, 1038.627
221.8817, 1045.179
222.3638, 1051.342
222.8459, 1057.065
223.3280, 1062.401
223.8102, 1067.280
224.2923, 1072.152
224.7744, 1076.009
225.2565, 1078.180
225.7386, 1078.473
226.2207, 1077.499
226.7029, 1075.151
227.1850, 1071.531
227.6671, 1067.393
228.1492, 1063.127
228.6313, 1057.792
229.1134, 1050.653
229.5956, 1040.642
230.0777, 1031.129
230.5598, 1022.556
231.0419, 1014.683
231.5240, 1006.024
232.0062, 995.9819
232.4883, 985.9897
232.9704, 976.8460
233.4525, 968.5605
233.9346, 961.1957
234.4167, 955.1026
234.8989, 950.0114
235.3810, 944.5530
235.8631, 937.8043
236.3452, 931.7958
236.8273, 927.7695
237.3094, 926.7922
237.7916, 925.4289
238.2737, 923.2123
238.7558, 920.4293
239.2379, 918.3094
239.7200, 917.2059
240.2021, 916.2672
240.6843, 915.0618
241.1664, 913.6243
241.6485, 911.8260
242.1306, 909.5153
242.6127, 906.8454
243.0948, 904.5007
243.5770, 902.7809
244.0591, 901.0021
244.5412, 898.7872
245.0233, 895.7672
245.5054, 893.1541
245.9876, 891.0291
246.4697, 889.3550
246.9518, 887.9067
247.4339, 886.5182
247.9160, 885.6003
248.3981, 885.5751
248.8803, 887.4205
249.3624, 887.6549
249.8445, 885.2109
250.3266, 881.3584
250.8087, 879.7434
251.2908, 881.5248
251.7730, 883.6584
252.2551, 884.7411
252.7372, 884.3112
253.2193, 884.0406
253.7014, 884.1653
254.1835, 884.3420
254.6657, 883.7606
255.1478, 882.2073
255.6299, 880.2679
256.1120, 877.9914
256.5941, 874.9930
257.0763, 873.0673
257.5584, 872.7360
258.0405, 873.1425
258.5226, 872.6736
259.0047, 871.3914
259.4868, 869.1028
259.9690, 865.3889
260.4511, 859.6521
260.9332, 855.3803
261.4153, 853.1669
261.8974, 851.8459
262.3795, 849.4695
262.8617, 845.7005
263.3438, 841.6221
263.8259, 837.4318
264.3080, 833.0707
264.7901, 829.2009
265.2722, 826.0285
265.7544, 823.0947
266.2365, 819.7972
266.7186, 816.0787
267.2007, 812.1872
267.6828, 808.1488
268.1649, 803.8853
268.6471, 800.0110
269.1292, 796.4672
269.6113, 793.2975
270.0934, 790.5629
270.5755, 788.2716
271.0576, 786.3234
271.5398, 784.8882
272.0219, 783.9222
272.5040, 782.1171
272.9861, 779.1838
273.4682, 776.0891
273.9503, 773.8463
274.4325, 772.5762
274.9146, 771.5720
275.3967, 770.7974
275.8788, 770.1747
276.3610, 769.0097
276.8431, 767.1116
277.3252, 765.2857
277.8073, 764.4150
278.2894, 764.5978
278.7715, 764.6415
279.2537, 764.2330
279.7358, 763.5339
280.2179, 763.3009
280.7000, 763.6574
281.1821, 763.9537
281.6642, 763.5258
282.1464, 762.3702
282.6285, 761.4606
283.1106, 760.9022
283.5927, 760.7260
284.0748, 761.1282
284.5569, 762.1535
285.0391, 763.3079
285.5212, 764.3712
286.0033, 765.3129
286.4854, 765.7932
286.9675, 765.6029
287.4496, 765.1619
287.9318, 765.3925
288.4139, 766.3049
288.8960, 767.2547
289.3781, 768.0703
289.8602, 768.6756
290.3423, 768.4996
290.8245, 767.2814
291.3066, 765.8420
291.7887, 765.6872
292.2708, 766.6840
292.7529, 767.5515
293.2350, 767.6414
293.7172, 767.0671
294.1993, 766.0071
294.6814, 764.3649
295.1635, 762.7269
295.6456, 761.6497
296.1277, 761.1483
296.6099, 761.3470
297.0920, 763.0673
297.5741, 765.3586
298.0562, 766.1630
298.5383, 765.3663
299.0204, 764.0955
299.5026, 763.1321
299.9847, 762.5446
300.4668, 762.5015
300.9489, 763.5259
301.4311, 764.9113
301.9132, 765.7117
302.3953, 765.9467
302.8774, 765.4459
303.3595, 766.7429
303.8416, 767.5007
304.3238, 767.7483
304.8059, 765.9575
305.2880, 766.7988
305.7701, 766.5853
306.2522, 766.3286
306.7343, 767.5404
307.2165, 766.0461
307.6986, 767.2346
308.1807, 767.3522
308.6628, 767.9600
309.1449, 767.5063
309.6270, 767.3805
310.1092, 765.4393
310.5913, 764.7123
311.0734, 766.2499
311.5555, 768.3196
312.0376, 769.2673
312.5197, 768.3885
313.0019, 767.4727
313.4840, 767.4139
313.9661, 768.0414
314.4482, 769.0008
314.9303, 770.6396
315.4124, 772.2172
315.8946, 773.1848
316.3767, 773.3657
316.8588, 773.5705
317.3409, 773.9952
317.8230, 774.6885
318.3051, 775.7069
318.7873, 777.3962
319.2694, 779.1476
319.7515, 780.6557
320.2336, 781.8766
320.7157, 783.2759
321.1978, 784.8895
321.6800, 786.7646
322.1621, 788.9390
322.6442, 791.8680
323.1263, 794.6241
323.6084, 796.7754
324.0905, 798.3823
324.5727, 800.4467
325.0548, 803.7381
325.5369, 807.1143
326.0190, 809.8800
326.5012, 811.4467
326.9833, 813.0510
327.4654, 814.5662
327.9475, 816.1321
328.4296, 818.2781
328.9117, 821.5287
329.3939, 824.8945
329.8760, 828.0096
330.3581, 830.8259
330.8402, 833.4495
331.3223, 835.7446
331.8044, 837.8750
332.2866, 840.2255
332.7687, 843.0775
333.2508, 845.6503
333.7329, 847.5795
334.2150, 848.6241
334.6971, 850.2327
335.1793, 852.7899
335.6614, 855.5612
336.1435, 857.5056
336.6256, 858.3345
337.1077, 859.2079
337.5898, 860.4890
338.0720, 862.1711
338.5541, 863.4190
339.0362, 864.1442
339.5183, 864.7263
340.0004, 865.5619
340.4825, 866.7426
340.9647, 867.6400
341.4468, 868.0167
341.9289, 868.1105
342.4110, 868.7839
342.8931, 870.1005
343.3752, 871.4769
343.8574, 872.5521
344.3395, 873.3215
344.8216, 873.6816
345.3037, 873.4474
345.7858, 873.0986
346.2679, 873.5228
346.7501, 874.6794
347.2322, 875.9985
347.7143, 877.2036
348.1964, 878.3349
348.6785, 879.6454
349.1607, 881.2210
349.6428, 882.6054
350.1249, 883.1369
350.6070, 883.0456
351.0891, 883.0567
351.5713, 883.6162
352.0534, 884.3874
352.5355, 884.8405
353.0176, 884.9874
353.4997, 885.1364
353.9818, 885.2286
354.4640, 885.5480
354.9461, 886.6071
355.4282, 888.9945
355.9103, 891.6015
356.3924, 893.1564
356.8745, 893.9987
357.3567, 895.4175
357.8388, 898.6470
358.3209, 902.4959
358.8030, 905.9210
359.2851, 908.5206
359.7672, 911.2149
360.2494, 914.6649
360.7315, 918.5554
361.2136, 922.2478
361.6957, 924.3698
362.1778, 927.1871
362.6599, 932.4508
363.1421, 940.7319
363.6242, 947.8411
364.1063, 951.7235
364.5884, 954.1471
365.0705, 956.8870
365.5526, 959.9613
366.0348, 963.7113
366.5169, 968.4311
366.9990, 974.0598
367.4811, 979.6547
367.9632, 985.5361
368.4453, 991.0912
368.9275, 995.9252
369.4096, 999.4444
369.8917, 1003.031
370.3738, 1006.663
370.8559, 1010.394
371.3380, 1014.347
371.8202, 1018.990
372.3023, 1023.280
372.7844, 1026.777
373.2665, 1029.352
373.7487, 1031.593
374.2308, 1033.367
374.7129, 1034.951
375.1950, 1036.826
375.6771, 1039.210
376.1592, 1041.250
376.6414, 1042.837
377.1235, 1043.940
377.6056, 1044.151
378.0877, 1043.306
378.5698, 1042.144
379.0519, 1041.390
379.5341, 1041.060
380.0162, 1040.375
380.4983, 1039.328
380.9804, 1037.713
381.4625, 1034.967
381.9446, 1031.074
382.4268, 1026.841
382.9089, 1022.572
383.3910, 1018.328
383.8731, 1014.253
384.3552, 1010.445
384.8373, 1006.474
385.3195, 1001.293
385.8016, 995.4603
386.2837, 990.5323
386.7658, 988.3826
387.2479, 987.0020
387.7300, 984.0027
388.2122, 979.3940
388.6943, 973.4700
389.1764, 965.6094
389.6585, 956.8745
390.1406, 948.7335
390.6227, 941.6024
391.1049, 935.1540
391.5870, 929.5748
392.0691, 924.6292
392.5512, 919.6097
393.0333, 913.7708
393.5154, 908.0477
393.9976, 903.1302
394.4797, 899.3444
394.9618, 895.5555
395.4439, 890.7547
395.9260, 885.9252
396.4081, 882.3899
396.8903, 882.0316
397.3724, 881.3670
397.8545, 878.9434
398.3366, 874.6273
398.8188, 871.6054
399.3009, 871.0566
399.7830, 871.2323
400.2651, 871.0190
400.7472, 869.7430
401.2293, 869.1006
401.7115, 869.4305
402.1936, 870.4150
402.6757, 871.0574
403.1578, 871.0499
403.6399, 871.2254
404.1220, 872.0039
404.6042, 873.5321
405.0863, 874.8353
405.5684, 875.9391
406.0505, 876.7498
406.5326, 876.8996
407.0147, 876.2263
407.4969, 876.1940
407.9790, 877.3711
408.4611, 879.4579
408.9432, 881.3174
409.4253, 882.9446
409.9074, 884.3463
410.3896, 885.3463
410.8717, 886.0847
411.3538, 887.2289
411.8359, 888.9460
412.3180, 890.8943
412.8001, 892.8920
413.2823, 894.7719
413.7644, 896.0167
414.2465, 895.6494
414.7286, 894.7794
415.2107, 895.0060
415.6928, 896.4219
416.1750, 897.9928
416.6571, 899.1056
417.1392, 899.8337
417.6213, 900.3170
418.1034, 900.6332
418.5855, 900.6708
419.0677, 900.0524
419.5498, 899.0099
420.0319, 898.4303
420.5140, 899.7120
420.9961, 900.8275
421.4782, 900.3264
421.9604, 897.1992
422.4425, 894.6661
422.9246, 894.4324
423.4067, 894.9265
423.8889, 893.9826
424.3710, 889.7728
424.8531, 885.7369
425.3352, 882.4783
425.8173, 879.9857
426.2994, 878.4163
426.7816, 878.5595
427.2637, 878.8400
427.7458, 878.2209
428.2279, 876.3596
428.7100, 874.4047
429.1921, 872.5008
429.6743, 870.5134
430.1564, 868.1857
430.6385, 865.4914
431.1206, 862.5496
431.6027, 859.1899
432.0848, 855.4362
432.5670, 852.6656
433.0491, 851.0342
433.5312, 849.7246
434.0133, 848.0175
434.4954, 845.9037
434.9775, 843.2093
435.4597, 839.6174
435.9418, 835.7857
436.4239, 832.9779
436.9060, 831.1111
437.3881, 829.4789
437.8702, 827.9333
438.3524, 826.2399
438.8345, 823.8992
439.3166, 820.7454
439.7987, 817.6776
440.2808, 815.5446
440.7629, 813.9227
441.2451, 812.1776
441.7272, 809.9330
442.2093, 807.6092
442.6914, 805.4779
443.1735, 803.4986
443.6556, 801.3832
444.1378, 798.6111
444.6199, 795.9542
445.1020, 793.9764
445.5841, 793.2216
446.0662, 792.2819
446.5483, 790.7789
447.0305, 789.0379
447.5126, 787.6012
447.9947, 787.1121
448.4768, 786.1717
448.9590, 784.1895
449.4411, 781.1319
449.9232, 778.9732
450.4053, 777.9309
450.8874, 777.4192
451.3695, 777.0870
451.8517, 776.9856
452.3338, 776.8057
452.8159, 776.5701
453.2980, 776.1680
453.7801, 775.2092
454.2622, 773.6462
454.7444, 772.2987
455.2265, 771.5842
455.7086, 771.4008
456.1907, 771.5554
456.6728, 772.1063
457.1549, 772.2997
457.6371, 771.0275
458.1192, 768.8783
458.6013, 767.2396
459.0834, 766.5119
459.5655, 766.3284
460.0476, 766.6132
460.5298, 767.1821
461.0119, 767.4803
461.4940, 767.1650
461.9761, 766.5103
462.4582, 765.6102
462.9403, 764.4377
463.4225, 763.4718
463.9046, 763.1606
464.3867, 763.0520
464.8688, 762.7272
465.3509, 761.5616
465.8330, 760.7664
466.3152, 760.5805
466.7973, 760.9612
467.2794, 761.7518
467.7615, 764.0994
468.2436, 765.7169
468.7257, 765.5126
469.2079, 762.8007
469.6900, 761.4980
470.1721, 762.1775
470.6542, 763.6467
471.1363, 764.8395
471.6184, 765.9093
472.1006, 765.9776
472.5827, 764.5298
473.0648, 762.2034
473.5469, 761.0025
474.0291, 761.0006
474.5112, 761.2819
474.9933, 761.3256
475.4754, 761.2165
475.9575, 761.2822
476.4396, 761.5294
476.9218, 762.0073
477.4039, 763.1054
477.8860, 764.4675
478.3681, 765.2112
478.8502, 764.7424
479.3323, 763.9191
479.8145, 763.4312
480.2966, 763.2595
480.7787, 763.3582
481.2608, 763.8649
481.7429, 764.5005
482.2250, 765.1172
482.7072, 765.7217
483.1893, 766.1434
483.6714, 766.2297
484.1535, 766.1494
484.6356, 766.0764
485.1177, 766.0258
485.5999, 766.0184
486.0820, 765.8688
486.5641, 765.7402
487.0462, 766.3293
487.5283, 768.6127
488.0104, 770.3364
488.4926, 770.6443
488.9747, 769.4333
489.4568, 767.2726
489.9389, 763.6495
490.4210, 760.0334
490.9031, 758.2259
491.3853, 758.3037
491.8674, 758.6451
492.3495, 758.9689
492.8316, 759.3058
493.3137, 759.7332
493.7958, 760.2418
494.2780, 760.7696
494.7601, 761.3654
495.2422, 761.9241
495.7243, 762.1201
496.2064, 761.9200
496.6885, 761.8591
497.1707, 762.5474
497.6528, 763.5838
498.1349, 764.3869
498.6170, 764.4913
499.0992, 764.7755
499.5813, 766.0101
500.0634, 767.8035
500.5455, 769.2074
501.0276, 769.2714
501.5097, 769.4542
501.9919, 770.4988
502.4740, 772.6196
502.9561, 774.3748
503.4382, 775.2863
503.9203, 776.0846
504.4024, 777.2965
504.8846, 779.1953
505.3667, 780.9063
505.8488, 782.2736
506.3309, 783.4860
506.8130, 785.0436
507.2951, 787.0886
507.7773, 788.8001
508.2594, 789.4927
508.7415, 789.5280
509.2236, 791.3942
509.7057, 795.2408
510.1878, 799.0339
510.6700, 800.7845
511.1521, 801.1433
511.6342, 802.0937
512.1163, 804.0064
512.5984, 806.2958
513.0806, 808.8364
513.5627, 811.2737
514.0448, 812.8663
514.5269, 812.4506
515.0090, 811.7625
515.4911, 812.1219
515.9733, 813.3562
516.4554, 814.2389
516.9375, 814.1016
517.4196, 813.6041
517.9017, 813.0830
518.3839, 812.4738
518.8660, 812.0857
519.3481, 812.5684
519.8302, 812.9973
520.3123, 812.3701
520.7944, 810.3396
521.2766, 807.8582
521.7587, 804.8083
522.2408, 801.4719
522.7229, 798.8939
523.2050, 797.2482
523.6871, 795.7721
524.1693, 793.9658
524.6514, 791.9245
525.1335, 790.4763
525.6156, 789.6776
526.0977, 789.1049
526.5798, 788.4875
527.0620, 787.7453
527.5441, 786.5643
528.0262, 784.6302
528.5083, 782.7125
528.9904, 781.5717
529.4725, 781.0926
529.9547, 780.0355
530.4368, 781.3203
530.9189, 782.0659
531.4010, 782.3013
531.8831, 780.4983
532.3652, 781.3275
532.8474, 781.1018
533.3295, 780.8328
533.8116, 782.0325
534.2937, 780.5259
534.7758, 781.7023
535.2579, 781.8077
535.7401, 782.4033
536.2222, 781.9374
536.7043, 781.7994
537.1864, 782.7231
537.6685, 783.0590
538.1506, 782.4709
538.6328, 783.0977
539.1149, 781.5540
539.5970, 781.9149
540.0791, 783.0975
540.5612, 782.5628
541.0433, 783.2089
541.5255, 783.4053
542.0076, 781.5581
542.4897, 783.2650
542.9718, 783.6417
543.4539, 784.3331
543.9360, 784.5143
544.4182, 782.6571
544.9003, 783.4321
545.3824, 783.1522
545.8645, 782.8290
546.3466, 783.9744
546.8287, 782.4137
547.3109, 783.5358
547.7930, 783.5870
548.2751, 784.1284
548.7572, 783.6083
549.2393, 783.4161
549.7214, 784.2856
550.2036, 784.5672
550.6857, 783.9249
551.1678, 784.4974
551.6499, 786.1266
552.1320, 786.2341
552.6141, 784.7228
553.0963, 783.6395
553.5784, 783.6826
554.0605, 784.2773
554.5426, 783.7137
555.0247, 782.0644
555.5068, 780.6043
555.9890, 780.4709
556.4711, 780.9182
556.9532, 780.4969
557.4353, 779.1509
557.9174, 777.8206
558.3995, 777.2332
558.8817, 777.0320
559.3638, 776.8884
559.8459, 776.9134
560.3281, 776.5925
560.8102, 775.5901
561.2923, 774.1440
561.7744, 772.6308
562.2565, 770.7477
562.7386, 769.2225
563.2208, 768.1080
563.7029, 765.7154
564.1850, 766.4797
564.6671, 766.7049
565.1492, 766.4199
565.6313, 764.0965
566.1135, 764.4051
566.5956, 763.6591
567.0777, 762.8697
567.5598, 763.5489
568.0419, 761.5220
568.5240, 762.1779
569.0062, 761.7628
569.4883, 761.8380
569.9704, 760.8517
570.4525, 760.1933
570.9346, 760.1740
571.4167, 759.7195
571.8989, 759.5331
572.3810, 759.5391
572.8631, 759.6851
573.3452, 759.9752
573.8273, 760.4411
574.3094, 761.4836
574.7916, 762.4023
575.2737, 762.7894
575.7558, 762.4490
576.2379, 762.0775
576.7200, 761.7715
577.2021, 761.3779
577.6843, 760.6680
578.1664, 759.3668
578.6485, 758.6140
579.1306, 758.6844
579.6127, 759.1618
580.0948, 759.1404
580.5770, 758.6163
581.0591, 758.2883
581.5412, 758.6866
582.0233, 759.3206
582.5054, 758.8381
582.9875, 757.4090
583.4697, 756.2797
