##NAMES=Pargasite
##RRUFFID=R050321
##IDEAL CHEMISTRY=NaCa_2_(Mg_4_Al)(Si_6_Al_2_)O_22_(OH)_2_
##LOCALITY=Soper River, near Kimmirut, Baffin Island, Nunavut, Canada
##OWNER=RRUFF
##SOURCE=Frank Hawthorne
##DESCRIPTION=Greenish brown transparent fragment
##STATUS=The identification of this mineral has been confirmed by X-ray diffraction and chemical analysis
##URL=rruff.info/R050321
##MEASURED CHEMISTRY=(Na_0.77_K_0.23_)(Ca_1.90_Na_0.10_)_&#931;=2_Mg_4.00_(Al_0.58_Fe^3+^_0.07_Ti_0.05_Mg_0.30_)(Si_6.24_Al_1.76_)_&#931;=8_O_22_((OH)_0.69_F_0.31_)_2_
128.6822, 1126.548
129.1643, 1125.062
129.6464, 1123.592
130.1285, 1122.669
130.6106, 1123.125
131.0928, 1123.376
131.5749, 1122.990
132.0570, 1122.088
132.5391, 1121.036
133.0212, 1120.189
133.5033, 1119.646
133.9855, 1118.576
134.4676, 1116.292
134.9497, 1114.151
135.4318, 1112.987
135.9139, 1112.848
136.3960, 1113.159
136.8782, 1113.353
137.3603, 1113.428
137.8424, 1113.298
138.3245, 1112.839
138.8066, 1112.215
139.2887, 1111.602
139.7709, 1111.035
140.2530, 1110.495
140.7351, 1110.100
141.2172, 1109.847
141.6993, 1109.218
142.1814, 1107.515
142.6636, 1105.139
143.1457, 1103.594
143.6278, 1103.449
144.1099, 1104.049
144.5920, 1104.784
145.0741, 1105.641
145.5563, 1106.657
146.0384, 1108.214
146.5205, 1110.506
147.0026, 1111.677
147.4847, 1110.346
147.9668, 1108.447
148.4490, 1106.836
148.9311, 1105.738
149.4132, 1105.042
149.8953, 1104.650
150.3774, 1104.825
150.8595, 1104.750
151.3417, 1104.056
151.8238, 1103.292
152.3059, 1102.997
152.7880, 1103.351
153.2701, 1104.012
153.7522, 1104.110
154.2344, 1102.894
154.7165, 1101.909
155.1986, 1101.038
155.6807, 1100.463
156.1628, 1100.522
156.6449, 1101.434
157.1271, 1102.926
157.6092, 1103.872
158.0913, 1104.440
158.5734, 1104.446
159.0555, 1103.686
159.5376, 1102.300
160.0198, 1100.427
160.5019, 1097.668
160.9840, 1094.839
161.4661, 1094.504
161.9482, 1098.588
162.4303, 1103.027
162.9125, 1105.159
163.3946, 1105.052
163.8767, 1104.150
164.3588, 1102.911
164.8409, 1101.491
165.3230, 1100.111
165.8052, 1098.644
166.2873, 1097.388
166.7694, 1096.707
167.2515, 1096.576
167.7336, 1097.133
168.2157, 1099.417
168.6979, 1102.139
169.1800, 1103.721
169.6621, 1103.307
170.1442, 1101.461
170.6263, 1099.589
171.1084, 1097.015
171.5906, 1095.644
172.0727, 1096.693
172.5548, 1099.000
173.0369, 1100.972
173.5190, 1101.633
174.0011, 1101.113
174.4833, 1100.506
174.9654, 1099.459
175.4475, 1098.680
175.9296, 1098.354
176.4117, 1098.408
176.8938, 1098.734
177.3760, 1099.307
177.8581, 1100.148
178.3402, 1100.474
178.8223, 1099.792
179.3044, 1099.146
179.7865, 1098.948
180.2687, 1099.125
180.7508, 1099.359
181.2329, 1099.369
181.7150, 1099.126
182.1971, 1099.081
182.6792, 1099.440
183.1614, 1099.802
183.6435, 1099.992
184.1256, 1099.982
184.6077, 1099.753
185.0898, 1099.231
185.5719, 1098.387
186.0540, 1097.646
186.5362, 1096.599
187.0183, 1095.889
187.5004, 1096.644
187.9825, 1099.091
188.4646, 1101.046
188.9467, 1099.718
189.4289, 1095.952
189.9110, 1093.157
190.3931, 1092.625
190.8752, 1093.352
191.3573, 1093.859
191.8394, 1094.049
192.3216, 1094.006
192.8037, 1093.635
193.2858, 1093.082
193.7679, 1092.697
194.2500, 1093.151
194.7321, 1093.954
195.2143, 1093.244
195.6964, 1089.661
196.1785, 1086.677
196.6606, 1086.638
197.1427, 1088.545
197.6248, 1090.231
198.1070, 1090.283
198.5891, 1088.831
199.0712, 1087.090
199.5533, 1084.011
200.0354, 1081.876
200.5175, 1082.090
200.9997, 1083.934
201.4818, 1085.793
201.9639, 1086.322
202.4460, 1085.479
202.9281, 1085.070
203.4102, 1085.486
203.8924, 1086.019
204.3745, 1086.436
204.8566, 1086.794
205.3387, 1087.315
205.8208, 1088.266
206.3029, 1089.769
206.7851, 1090.599
207.2672, 1090.486
207.7493, 1090.054
208.2314, 1089.304
208.7135, 1088.393
209.1956, 1087.616
209.6778, 1087.202
210.1599, 1087.127
210.6420, 1087.752
211.1241, 1090.178
211.6062, 1092.205
212.0883, 1092.130
212.5705, 1090.278
213.0526, 1088.651
213.5347, 1089.146
214.0168, 1092.096
214.4989, 1094.223
214.9810, 1095.585
215.4632, 1096.180
215.9453, 1095.494
216.4274, 1093.672
216.9095, 1092.170
217.3916, 1092.444
217.8737, 1094.541
218.3559, 1095.789
218.8380, 1095.588
219.3201, 1094.905
219.8022, 1094.599
220.2843, 1094.738
220.7664, 1094.795
221.2486, 1094.060
221.7307, 1092.841
222.2128, 1092.464
222.6949, 1093.589
223.1770, 1095.400
223.6591, 1097.061
224.1413, 1098.546
224.6234, 1099.882
225.1055, 1101.114
225.5876, 1102.189
226.0697, 1102.972
226.5518, 1103.463
227.0340, 1103.611
227.5161, 1103.142
227.9982, 1101.788
228.4803, 1100.736
228.9624, 1100.916
229.4445, 1101.756
229.9267, 1102.617
230.4088, 1103.440
230.8909, 1104.012
231.3730, 1103.751
231.8551, 1102.227
232.3372, 1100.970
232.8194, 1100.877
233.3015, 1101.302
233.7836, 1101.478
234.2657, 1101.021
234.7478, 1100.254
235.2299, 1099.939
235.7121, 1100.336
236.1942, 1100.682
236.6763, 1100.478
237.1584, 1100.218
237.6405, 1100.505
238.1227, 1101.660
238.6048, 1103.287
239.0869, 1104.411
239.5690, 1105.028
240.0511, 1105.064
240.5332, 1104.081
241.0154, 1102.802
241.4975, 1102.045
241.9796, 1102.169
242.4617, 1102.718
242.9438, 1102.492
243.4259, 1100.642
243.9081, 1099.350
244.3902, 1099.408
244.8723, 1099.814
245.3544, 1099.460
245.8365, 1097.936
246.3186, 1095.908
246.8007, 1094.926
247.2829, 1096.055
247.7650, 1096.742
248.2471, 1096.847
248.7292, 1096.506
249.2113, 1095.572
249.6934, 1094.058
250.1756, 1092.543
250.6577, 1092.225
251.1398, 1094.911
251.6219, 1096.139
252.1040, 1094.883
252.5861, 1092.777
253.0683, 1091.033
253.5504, 1090.066
254.0325, 1089.892
254.5146, 1090.664
254.9967, 1093.761
255.4788, 1095.115
255.9610, 1093.979
256.4431, 1091.579
256.9252, 1088.440
257.4073, 1084.814
257.8894, 1081.696
258.3716, 1080.582
258.8537, 1082.781
259.3358, 1083.591
259.8179, 1081.474
260.3000, 1078.895
260.7821, 1078.333
261.2643, 1080.131
261.7464, 1082.290
262.2285, 1082.559
262.7106, 1080.389
263.1927, 1078.678
263.6748, 1077.425
264.1570, 1076.667
264.6391, 1076.759
265.1212, 1077.661
265.6033, 1078.380
266.0854, 1077.770
266.5675, 1075.770
267.0497, 1074.794
267.5318, 1076.112
268.0139, 1077.625
268.4960, 1077.356
268.9781, 1075.286
269.4602, 1073.283
269.9424, 1072.867
270.4245, 1073.843
270.9066, 1074.282
271.3887, 1073.324
271.8708, 1072.447
272.3529, 1073.360
272.8351, 1075.866
273.3172, 1077.417
273.7993, 1076.101
274.2814, 1072.672
274.7635, 1069.955
275.2456, 1067.894
275.7278, 1066.693
276.2099, 1066.864
276.6920, 1068.257
277.1741, 1069.661
277.6562, 1070.568
278.1383, 1071.074
278.6204, 1071.409
279.1025, 1071.401
279.5847, 1071.598
280.0668, 1072.621
280.5489, 1074.295
281.0310, 1075.583
281.5131, 1076.217
281.9952, 1076.122
282.4774, 1075.043
282.9595, 1072.701
283.4416, 1070.974
283.9237, 1071.545
284.4058, 1073.831
284.8879, 1075.389
285.3701, 1075.536
285.8522, 1074.848
286.3343, 1073.541
286.8164, 1071.666
287.2985, 1070.747
287.7806, 1072.581
288.2628, 1076.139
288.7449, 1077.910
289.2270, 1076.873
289.7091, 1074.933
290.1912, 1073.367
290.6733, 1072.182
291.1555, 1071.463
291.6376, 1071.532
292.1197, 1072.073
292.6018, 1072.272
293.0839, 1071.904
293.5660, 1071.650
294.0482, 1072.059
294.5303, 1072.880
295.0124, 1073.716
295.4945, 1074.655
295.9766, 1075.386
296.4587, 1075.181
296.9409, 1073.756
297.4230, 1072.371
297.9051, 1071.899
298.3872, 1071.773
298.8693, 1071.323
299.3514, 1070.290
299.8336, 1068.982
300.3157, 1067.627
300.7978, 1066.117
301.2799, 1065.181
301.7620, 1065.556
302.2441, 1066.417
302.7263, 1067.097
303.2084, 1067.476
303.6905, 1067.679
304.1726, 1067.900
304.6547, 1068.151
305.1368, 1068.016
305.6190, 1066.930
306.1011, 1065.794
306.5832, 1065.333
307.0653, 1065.584
307.5474, 1066.043
308.0295, 1066.193
308.5117, 1066.096
308.9938, 1066.635
309.4759, 1068.863
309.9580, 1070.581
310.4401, 1070.072
310.9222, 1067.776
311.4044, 1065.415
311.8865, 1064.029
312.3686, 1063.466
312.8507, 1062.934
313.3328, 1061.992
313.8149, 1061.894
314.2971, 1063.897
314.7792, 1067.049
315.2613, 1069.626
315.7434, 1070.795
316.2255, 1070.944
316.7076, 1070.931
317.1898, 1070.853
317.6719, 1070.304
318.1540, 1068.344
318.6361, 1066.114
319.1182, 1064.879
319.6003, 1065.063
320.0825, 1066.190
320.5646, 1068.074
321.0467, 1071.017
321.5288, 1072.770
322.0109, 1071.160
322.4930, 1068.942
322.9752, 1068.544
323.4573, 1070.382
323.9394, 1072.316
324.4215, 1072.092
324.9036, 1069.765
325.3857, 1067.911
325.8679, 1066.981
326.3500, 1066.714
326.8321, 1067.066
327.3142, 1067.940
327.7963, 1068.825
328.2784, 1069.578
328.7606, 1070.115
329.2427, 1069.919
329.7248, 1068.495
330.2069, 1067.143
330.6890, 1066.592
331.1711, 1066.674
331.6533, 1067.078
332.1354, 1067.775
332.6175, 1068.651
333.0996, 1069.693
333.5817, 1071.222
334.0638, 1071.871
334.5460, 1069.913
335.0281, 1067.040
335.5102, 1065.176
335.9923, 1064.983
336.4744, 1065.503
336.9565, 1065.700
337.4387, 1065.560
337.9208, 1065.305
338.4029, 1064.667
338.8850, 1064.217
339.3671, 1064.665
339.8492, 1066.136
340.3314, 1067.574
340.8135, 1068.291
341.2956, 1068.325
341.7777, 1067.761
342.2598, 1066.145
342.7419, 1064.614
343.2241, 1064.130
343.7062, 1064.557
344.1883, 1065.317
344.6704, 1066.690
345.1525, 1068.115
345.6346, 1068.138
346.1168, 1066.288
346.5989, 1064.323
347.0810, 1063.637
347.5631, 1063.709
348.0452, 1063.681
348.5273, 1063.104
349.0095, 1062.542
349.4916, 1062.899
349.9737, 1064.208
350.4558, 1064.972
350.9379, 1064.063
351.4200, 1062.442
351.9022, 1061.714
352.3843, 1062.184
352.8664, 1062.902
353.3485, 1063.252
353.8306, 1063.327
354.3127, 1063.577
354.7949, 1064.323
355.2770, 1064.940
355.7591, 1064.184
356.2412, 1062.052
356.7233, 1061.026
357.2054, 1063.209
357.6876, 1066.662
358.1697, 1068.057
358.6518, 1066.756
359.1339, 1064.947
359.6160, 1064.596
360.0981, 1065.416
360.5803, 1065.844
361.0624, 1065.314
361.5445, 1064.614
362.0266, 1064.184
362.5087, 1064.077
362.9908, 1064.697
363.4730, 1066.618
363.9551, 1069.215
364.4372, 1070.588
364.9193, 1070.159
365.4014, 1069.587
365.8835, 1069.669
366.3657, 1070.073
366.8478, 1070.160
367.3299, 1069.724
367.8120, 1068.848
368.2941, 1067.328
368.7762, 1064.638
369.2584, 1063.588
369.7405, 1065.951
370.2226, 1069.323
370.7047, 1071.598
371.1868, 1072.462
371.6689, 1072.209
372.1511, 1070.834
372.6332, 1068.277
373.1153, 1066.884
373.5974, 1067.314
374.0795, 1068.125
374.5616, 1068.707
375.0438, 1069.114
375.5259, 1069.580
376.0080, 1070.226
376.4901, 1071.027
376.9722, 1071.896
377.4543, 1073.641
377.9365, 1074.413
378.4186, 1073.157
378.9007, 1071.218
379.3828, 1070.107
379.8649, 1070.225
380.3470, 1070.907
380.8292, 1071.222
381.3113, 1070.965
381.7934, 1070.942
382.2755, 1070.911
382.7576, 1071.285
383.2397, 1072.856
383.7219, 1075.174
384.2040, 1076.696
384.6861, 1076.004
385.1682, 1073.341
385.6503, 1072.572
386.1324, 1076.173
386.6146, 1079.008
387.0967, 1080.116
387.5788, 1079.982
388.0609, 1078.997
388.5430, 1077.344
389.0251, 1075.633
389.5073, 1075.226
389.9894, 1077.073
390.4715, 1078.227
390.9536, 1078.069
391.4357, 1077.617
391.9178, 1077.456
392.4000, 1077.661
392.8821, 1077.998
393.3642, 1078.221
393.8463, 1078.318
394.3284, 1078.636
394.8105, 1079.290
395.2927, 1080.051
395.7748, 1081.111
396.2569, 1082.170
396.7390, 1082.750
397.2211, 1082.580
397.7032, 1081.865
398.1854, 1080.851
398.6675, 1079.139
399.1496, 1078.359
399.6317, 1080.198
400.1138, 1082.399
400.5959, 1083.152
401.0780, 1082.165
401.5602, 1080.686
402.0423, 1079.440
402.5244, 1078.505
403.0065, 1078.972
403.4886, 1082.017
403.9707, 1084.948
404.4529, 1085.844
404.9350, 1085.158
405.4171, 1084.096
405.8992, 1082.774
406.3813, 1081.573
406.8634, 1081.188
407.3456, 1081.693
407.8277, 1082.353
408.3098, 1082.959
408.7919, 1083.428
409.2740, 1083.570
409.7561, 1083.177
410.2383, 1082.982
410.7204, 1083.693
411.2025, 1084.976
411.6846, 1085.781
412.1667, 1085.733
412.6488, 1085.490
413.1310, 1086.060
413.6131, 1087.430
414.0952, 1088.146
414.5773, 1087.182
415.0594, 1085.982
415.5415, 1086.111
416.0237, 1087.490
416.5058, 1088.685
416.9879, 1088.662
417.4700, 1087.707
417.9521, 1087.413
418.4342, 1088.554
418.9164, 1089.306
419.3985, 1088.559
419.8806, 1087.299
420.3627, 1087.136
420.8448, 1088.573
421.3269, 1090.621
421.8091, 1091.827
422.2912, 1091.873
422.7733, 1091.867
423.2554, 1091.883
423.7375, 1091.785
424.2196, 1091.352
424.7018, 1090.709
425.1839, 1090.310
425.6660, 1090.565
426.1481, 1091.272
426.6302, 1091.010
427.1123, 1088.396
427.5945, 1086.498
428.0766, 1086.111
428.5587, 1086.394
429.0408, 1086.366
429.5229, 1085.776
430.0050, 1085.298
430.4872, 1086.298
430.9693, 1089.602
431.4514, 1090.933
431.9335, 1087.919
432.4156, 1084.873
432.8977, 1083.521
433.3799, 1083.553
433.8620, 1083.835
434.3441, 1083.662
434.8262, 1083.261
435.3083, 1083.328
435.7904, 1084.023
436.2726, 1084.745
436.7547, 1085.712
437.2368, 1086.374
437.7189, 1085.948
438.2010, 1084.209
438.6831, 1082.519
439.1653, 1082.426
439.6474, 1083.535
440.1295, 1083.470
440.6116, 1081.203
441.0937, 1079.006
441.5758, 1079.309
442.0580, 1081.346
442.5401, 1082.836
443.0222, 1082.847
443.5043, 1082.234
443.9864, 1081.915
444.4685, 1081.825
444.9507, 1081.217
445.4328, 1079.388
445.9149, 1077.192
446.3970, 1076.768
446.8791, 1078.761
447.3612, 1080.317
447.8434, 1080.379
448.3255, 1079.716
448.8076, 1079.110
449.2897, 1078.734
449.7718, 1078.783
450.2539, 1079.654
450.7361, 1081.443
451.2182, 1081.663
451.7003, 1079.177
452.1824, 1076.632
452.6645, 1074.683
453.1466, 1073.382
453.6288, 1072.812
454.1109, 1073.008
454.5930, 1073.707
455.0751, 1074.438
455.5572, 1075.455
456.0393, 1075.958
456.5215, 1075.276
457.0036, 1074.724
457.4857, 1075.421
457.9678, 1077.039
458.4499, 1078.268
458.9320, 1077.974
459.4142, 1076.490
459.8963, 1075.838
460.3784, 1076.545
460.8605, 1077.161
461.3426, 1077.551
461.8247, 1077.554
462.3069, 1076.739
462.7890, 1075.005
463.2711, 1073.437
463.7532, 1073.567
464.2353, 1075.221
464.7174, 1075.732
465.1996, 1074.107
465.6817, 1072.414
466.1638, 1072.375
466.6459, 1073.411
467.1280, 1074.082
467.6101, 1073.786
468.0923, 1073.030
468.5744, 1072.096
469.0565, 1071.041
469.5386, 1070.714
470.0207, 1071.822
470.5028, 1073.341
470.9850, 1073.181
471.4671, 1070.951
471.9492, 1069.537
472.4313, 1070.708
472.9134, 1072.442
473.3955, 1072.453
473.8777, 1070.630
474.3598, 1068.252
474.8419, 1066.087
475.3240, 1064.240
475.8061, 1063.780
476.2882, 1066.088
476.7704, 1067.906
477.2525, 1068.241
477.7346, 1067.896
478.2167, 1068.057
478.6988, 1068.958
479.1809, 1069.535
479.6631, 1068.171
480.1452, 1064.204
480.6273, 1061.741
481.1094, 1062.132
481.5915, 1062.661
482.0736, 1062.472
482.5558, 1061.807
483.0379, 1061.059
483.5200, 1060.340
484.0021, 1060.023
484.4842, 1061.105
484.9663, 1064.043
485.4485, 1066.278
485.9306, 1067.013
486.4127, 1067.118
486.8948, 1067.111
487.3769, 1067.000
487.8590, 1066.635
488.3412, 1065.866
488.8233, 1064.813
489.3054, 1063.605
489.7875, 1062.219
490.2696, 1061.043
490.7517, 1060.323
491.2339, 1059.940
491.7160, 1059.586
492.1981, 1059.234
492.6802, 1058.993
493.1623, 1058.771
493.6444, 1058.739
494.1266, 1059.483
494.6087, 1061.063
495.0908, 1062.117
495.5729, 1061.237
496.0550, 1058.455
496.5371, 1056.765
497.0193, 1056.557
497.5014, 1056.805
497.9835, 1057.779
498.4656, 1058.816
498.9477, 1059.028
499.4298, 1058.128
499.9120, 1056.428
500.3941, 1054.192
500.8762, 1050.916
501.3583, 1049.053
501.8404, 1049.645
502.3225, 1050.595
502.8047, 1051.261
503.2868, 1051.739
503.7689, 1052.399
504.2510, 1053.505
504.7331, 1054.554
505.2152, 1054.484
505.6974, 1053.092
506.1795, 1051.792
506.6616, 1050.272
507.1437, 1049.569
507.6258, 1051.236
508.1079, 1054.708
508.5901, 1056.885
509.0722, 1055.358
509.5543, 1052.127
510.0364, 1049.759
510.5185, 1048.286
511.0006, 1048.068
511.4828, 1049.765
511.9649, 1052.397
512.4470, 1053.884
512.9291, 1054.068
513.4112, 1053.932
513.8933, 1053.595
514.3754, 1053.128
514.8575, 1052.628
515.3397, 1052.089
515.8218, 1051.368
516.3039, 1050.281
516.7860, 1048.950
517.2681, 1048.283
517.7502, 1049.319
518.2324, 1049.719
518.7145, 1048.760
519.1966, 1047.379
519.6787, 1046.387
520.1608, 1045.955
520.6429, 1045.879
521.1251, 1046.107
521.6072, 1046.612
522.0893, 1046.282
522.5714, 1044.146
523.0535, 1042.744
523.5356, 1043.473
524.0178, 1045.063
524.4999, 1046.083
524.9820, 1046.155
525.4641, 1045.824
525.9462, 1045.531
526.4283, 1045.254
526.9105, 1044.792
527.3926, 1043.993
527.8747, 1043.439
528.3568, 1044.252
528.8389, 1045.733
529.3210, 1045.405
529.8032, 1040.750
530.2853, 1036.834
530.7674, 1037.447
531.2495, 1040.584
531.7316, 1042.187
532.2137, 1041.062
532.6959, 1039.001
533.1780, 1038.214
533.6601, 1038.956
534.1422, 1039.373
534.6243, 1039.675
535.1064, 1039.482
535.5886, 1038.244
536.0707, 1036.537
536.5528, 1035.214
537.0349, 1034.620
537.5170, 1034.459
537.9991, 1034.212
538.4813, 1033.747
538.9634, 1033.906
539.4455, 1035.364
539.9276, 1036.764
540.4097, 1037.518
540.8918, 1037.760
541.3740, 1037.786
541.8561, 1037.710
542.3382, 1037.480
542.8203, 1036.930
543.3024, 1036.106
543.7845, 1035.473
544.2667, 1035.177
544.7488, 1035.034
545.2309, 1034.997
545.7130, 1035.026
546.1951, 1034.584
546.6772, 1032.778
547.1594, 1031.230
547.6415, 1031.244
548.1236, 1032.355
548.6057, 1033.461
549.0878, 1034.139
549.5699, 1034.338
550.0521, 1033.909
550.5342, 1032.547
551.0163, 1031.504
551.4984, 1031.106
551.9805, 1030.654
552.4626, 1029.249
552.9448, 1027.664
553.4269, 1027.650
553.9090, 1030.158
554.3911, 1033.339
554.8732, 1033.645
555.3553, 1030.539
555.8375, 1028.170
556.3196, 1026.870
556.8017, 1026.711
557.2838, 1028.630
557.7659, 1031.665
558.2480, 1033.002
558.7302, 1030.402
559.2123, 1027.171
559.6944, 1027.101
560.1765, 1029.479
560.6586, 1031.060
561.1407, 1030.776
561.6229, 1029.679
562.1050, 1029.049
562.5871, 1029.001
563.0692, 1028.628
563.5513, 1027.456
564.0334, 1026.428
564.5156, 1026.253
564.9977, 1026.517
565.4798, 1026.294
565.9619, 1025.232
566.4440, 1024.100
566.9261, 1024.365
567.4083, 1026.757
567.8904, 1027.559
568.3725, 1024.720
568.8546, 1022.363
569.3367, 1022.286
569.8188, 1023.528
570.3010, 1024.504
570.7831, 1024.660
571.2652, 1024.278
571.7473, 1023.561
572.2294, 1022.552
572.7115, 1021.526
573.1937, 1020.439
573.6758, 1019.584
574.1579, 1019.378
574.6400, 1019.645
575.1221, 1019.673
575.6042, 1019.101
576.0864, 1018.614
576.5685, 1018.636
577.0506, 1018.947
577.5327, 1019.276
578.0148, 1019.534
578.4969, 1019.522
578.9791, 1018.935
579.4612, 1017.731
579.9433, 1017.124
580.4254, 1017.864
580.9075, 1018.336
581.3896, 1018.166
581.8718, 1017.621
582.3539, 1017.024
582.8360, 1016.437
583.3181, 1015.664
583.8002, 1014.055
584.2823, 1011.886
584.7645, 1011.407
585.2466, 1013.135
585.7287, 1015.106
586.2108, 1016.783
586.6929, 1017.914
587.1750, 1017.881
587.6572, 1016.279
588.1393, 1015.087
588.6214, 1015.514
589.1035, 1016.702
589.5856, 1017.775
590.0677, 1018.558
590.5499, 1018.633
591.0320, 1017.640
591.5141, 1015.879
591.9962, 1014.484
592.4783, 1013.970
592.9604, 1013.120
593.4426, 1011.347
593.9247, 1009.719
594.4068, 1009.055
594.8889, 1009.243
595.3710, 1009.745
595.8531, 1010.368
596.3353, 1010.775
596.8174, 1009.908
597.2995, 1007.471
597.7816, 1005.468
598.2637, 1004.067
598.7458, 1003.599
599.2280, 1004.854
599.7101, 1007.415
600.1922, 1009.021
600.6743, 1008.272
601.1564, 1006.877
601.6385, 1006.431
602.1207, 1006.520
602.6028, 1005.593
603.0849, 1003.040
603.5670, 1000.483
604.0491, 1000.166
604.5313, 1002.589
605.0134, 1004.109
605.4955, 1004.049
605.9776, 1003.991
606.4597, 1004.862
606.9418, 1005.842
607.4240, 1005.641
607.9061, 1003.974
608.3882, 1002.012
608.8703, 1001.106
609.3524, 1001.182
609.8345, 1001.194
610.3167, 1001.117
610.7988, 1001.041
611.2809, 1001.222
611.7630, 1001.338
612.2451, 1000.714
612.7272, 998.9841
613.2094, 998.0045
613.6915, 999.7387
614.1736, 1002.065
614.6557, 1001.741
615.1378, 998.9755
615.6199, 996.9930
616.1021, 997.9103
616.5842, 1000.511
617.0663, 1001.288
617.5484, 998.5475
618.0305, 996.8124
618.5126, 996.5721
618.9948, 996.7727
619.4769, 996.6857
619.9590, 996.5592
620.4411, 997.2654
620.9232, 999.4509
621.4053, 1001.854
