##NAMES=Pargasite
##RRUFFID=R060632
##IDEAL CHEMISTRY=NaCa_2_(Mg_4_Al)(Si_6_Al_2_)O_22_(OH)_2_
##LOCALITY=unknown
##OWNER=RRUFF
##SOURCE=Gemological Institute of America
##DESCRIPTION=Black cleavage fragment
##STATUS=The identification of this mineral is confirmed by single-crystal X-ray diffraction and chemical analysis.
##URL=rruff.info/R060632
##MEASURED CHEMISTRY=(Na_0.61_K_0.34_[box]_0.05_)(Ca_1.82_Na_0.18_)_&#931;=2_(Mg_3.12_Fe^2+^_0.88_)_&#931;=4_(Al_0.78_Ti_0.22_)(Si_6.00_Al_2.00_)_&#931;=8_O_22_((OH)_0.84_F_0.16_)_2_
106.576, 1059.907
107.058, 1114.327
107.540, 1172.554
108.022, 1226.766
108.505, 1271.865
108.987, 1282.768
109.469, 1330.694
109.951, 1431.380
110.433, 1569.492
110.915, 1708.695
111.397, 1847.196
111.879, 1984.660
112.362, 2123.500
112.844, 2275.615
113.326, 2415.262
113.808, 2524.115
114.290, 2609.673
114.772, 2719.169
115.254, 2868.631
115.736, 3045.485
116.218, 3239.390
116.701, 3454.909
117.183, 3680.921
117.665, 3912.969
118.147, 4149.724
118.629, 4396.137
119.111, 4670.813
119.593, 4953.750
120.075, 5210.729
120.558, 5432.354
121.040, 5621.963
121.522, 5783.513
122.004, 5919.474
122.486, 6020.137
122.968, 6078.289
123.450, 6095.063
123.932, 6073.989
124.414, 6007.476
124.897, 5906.763
125.379, 5783.098
125.861, 5627.887
126.343, 5468.104
126.825, 5335.633
127.307, 5229.522
127.789, 5138.342
128.271, 5053.525
128.753, 4976.902
129.236, 4914.516
129.718, 4866.228
130.200, 4834.075
130.682, 4824.640
131.164, 4838.887
131.646, 4869.016
132.128, 4907.833
132.610, 4955.025
133.093, 5011.215
133.575, 5075.654
134.057, 5148.225
134.539, 5233.786
135.021, 5332.672
135.503, 5444.107
135.985, 5564.647
136.467, 5694.957
136.949, 5836.880
137.432, 5990.552
137.914, 6156.446
138.396, 6337.320
138.878, 6534.073
139.360, 6743.990
139.842, 6960.258
140.324, 7187.744
140.806, 7407.998
141.288, 7602.004
141.771, 7755.765
142.253, 7937.580
142.735, 8189.275
143.217, 8500.179
143.699, 8664.267
144.181, 8640.059
144.663, 8514.401
145.145, 8359.830
145.628, 8166.537
146.110, 7961.148
146.592, 7743.833
147.074, 7506.110
147.556, 7294.114
148.038, 7113.024
148.520, 6952.941
149.002, 6802.245
149.484, 6648.978
149.967, 6513.819
150.449, 6403.285
150.931, 6323.304
151.413, 6253.731
151.895, 6186.437
152.377, 6129.618
152.859, 6102.077
153.342, 6116.550
153.824, 6150.971
154.306, 6197.575
154.788, 6256.300
155.270, 6326.848
155.752, 6401.486
156.234, 6486.505
156.716, 6604.762
157.198, 6763.079
157.680, 6953.935
158.163, 7171.570
158.645, 7423.720
159.127, 7694.069
159.609, 7975.588
160.091, 8269.594
160.573, 8589.703
161.055, 8952.920
161.538, 9336.243
162.020, 9714.385
162.502, 10130.550
162.984, 10496.340
163.466, 10783.060
163.948, 10989.160
164.430, 11097.980
164.912, 11094.270
165.394, 10988.980
165.876, 10795.400
166.359, 10444.970
166.841, 10058.480
167.323, 9716.013
167.805, 9429.802
168.287, 9152.550
168.769, 8841.999
169.251, 8522.701
169.733, 8236.632
170.216, 8022.504
170.698, 7842.624
171.180, 7657.135
171.662, 7450.354
172.144, 7267.426
172.626, 7156.108
173.108, 7100.870
173.590, 7051.374
174.072, 6975.522
174.555, 6889.220
175.037, 6809.021
175.519, 6731.052
176.001, 6672.359
176.483, 6663.013
176.965, 6696.107
177.447, 6733.714
177.929, 6744.387
178.412, 6741.167
178.894, 6748.213
179.376, 6770.677
179.858, 6807.093
180.340, 6862.018
180.822, 6934.424
181.304, 7005.683
181.786, 7059.392
182.268, 7099.383
182.751, 7135.454
183.233, 7164.912
183.715, 7194.675
184.197, 7242.133
184.679, 7308.825
185.161, 7376.692
185.643, 7435.032
186.125, 7481.176
186.607, 7507.100
187.090, 7504.995
187.572, 7479.916
188.054, 7443.656
188.536, 7394.580
189.018, 7343.510
189.500, 7308.365
189.982, 7287.943
190.464, 7261.834
190.947, 7223.041
191.429, 7171.543
191.911, 7106.803
192.393, 7026.296
192.875, 6940.083
193.357, 6856.232
193.839, 6775.548
194.321, 6711.449
194.803, 6680.740
195.286, 6680.972
195.768, 6660.847
196.250, 6614.417
196.732, 6553.053
197.214, 6492.483
197.696, 6431.273
198.178, 6383.116
198.661, 6359.683
199.143, 6361.687
199.625, 6361.101
200.107, 6353.908
200.589, 6344.585
201.071, 6345.242
201.553, 6357.297
202.035, 6373.624
202.517, 6389.107
202.999, 6403.021
203.482, 6422.041
203.964, 6446.945
204.446, 6477.189
204.928, 6511.612
205.410, 6550.578
205.892, 6592.036
206.374, 6628.449
206.857, 6654.031
207.339, 6707.892
207.821, 6805.216
208.303, 6936.238
208.785, 7042.234
209.267, 7115.728
209.749, 7180.505
210.231, 7252.728
210.713, 7330.103
211.195, 7426.403
211.678, 7547.154
212.160, 7691.640
212.642, 7839.557
213.124, 7991.069
213.606, 8148.888
214.088, 8312.723
214.570, 8482.647
215.052, 8663.094
215.535, 8854.661
216.017, 9058.325
216.499, 9280.076
216.981, 9522.714
217.463, 9781.376
217.945, 10052.490
218.427, 10328.490
218.909, 10621.830
219.391, 10931.430
219.874, 11258.200
220.356, 11604.960
220.838, 11972.900
221.320, 12355.970
221.802, 12742.120
222.284, 13129.940
222.766, 13522.750
223.248, 13923.560
223.731, 14341.900
224.213, 14725.560
224.695, 15075.480
225.177, 15393.920
225.659, 15694.920
226.141, 15996.380
226.623, 16243.350
227.105, 16417.340
227.587, 16511.631
228.070, 16569.779
228.552, 16605.320
229.034, 16594.189
229.516, 16495.910
229.998, 16291.630
230.480, 16031.790
230.962, 15729.220
231.444, 15383.150
231.926, 14998.560
232.409, 14561.820
232.891, 14098.700
233.373, 13645.630
233.855, 13205.070
234.337, 12774.580
234.819, 12345.110
235.301, 11894.830
235.783, 11507.730
236.266, 11207.430
236.748, 10958.860
237.230, 10697.130
237.712, 10411.650
238.194, 10123.720
238.676, 9840.006
239.158, 9550.737
239.640, 9291.564
240.122, 9074.011
240.605, 8881.690
241.087, 8678.033
241.569, 8437.200
242.051, 8220.233
242.533, 8055.553
243.015, 7960.046
243.497, 7868.941
243.980, 7783.104
244.462, 7701.168
244.944, 7619.851
245.426, 7537.183
245.908, 7457.596
246.390, 7383.821
246.872, 7322.137
247.354, 7250.334
247.836, 7162.748
248.318, 7067.269
248.801, 6983.335
249.283, 6913.076
249.765, 6850.813
250.247, 6795.770
250.729, 6754.376
251.211, 6704.717
251.693, 6643.571
252.176, 6576.206
252.658, 6517.007
253.140, 6473.164
253.622, 6426.152
254.104, 6356.346
254.586, 6281.536
255.068, 6251.771
255.550, 6211.083
256.032, 6160.042
256.514, 6067.655
256.997, 6028.658
257.479, 5968.256
257.961, 5906.984
258.443, 5863.723
258.925, 5764.441
259.407, 5723.959
259.889, 5718.190
260.371, 5686.150
260.854, 5611.488
261.336, 5542.115
261.818, 5500.829
262.300, 5496.878
262.782, 5491.614
263.264, 5485.238
263.746, 5476.731
264.228, 5462.934
264.711, 5440.728
265.193, 5420.011
265.675, 5407.511
266.157, 5408.293
266.639, 5394.605
267.121, 5357.567
267.603, 5313.033
268.085, 5298.874
268.567, 5326.591
269.050, 5352.734
269.532, 5354.745
270.014, 5327.258
270.496, 5305.850
270.978, 5292.489
271.460, 5284.499
271.942, 5275.724
272.424, 5264.690
272.906, 5258.708
273.389, 5254.290
273.871, 5240.430
274.353, 5257.948
274.835, 5267.850
275.317, 5270.544
275.799, 5244.443
276.281, 5255.525
276.763, 5251.706
277.246, 5247.275
277.728, 5263.590
278.210, 5241.677
278.692, 5257.663
279.174, 5255.750
279.656, 5279.205
280.138, 5298.880
280.620, 5323.935
281.103, 5347.681
281.585, 5370.191
282.067, 5387.770
282.549, 5411.717
283.031, 5433.113
283.513, 5455.776
283.995, 5476.594
284.477, 5509.966
284.959, 5563.020
285.441, 5631.276
285.924, 5671.050
286.406, 5677.828
286.888, 5671.268
287.370, 5670.995
287.852, 5677.535
288.334, 5701.807
288.816, 5764.579
289.298, 5851.894
289.781, 5899.582
290.263, 5902.868
290.745, 5892.123
291.227, 5902.716
291.709, 5931.960
292.191, 5961.459
292.673, 5986.511
293.155, 6006.545
293.638, 6017.345
294.120, 6017.881
294.602, 6018.550
295.084, 6026.031
295.566, 6021.476
296.048, 6056.069
296.530, 6081.161
297.012, 6097.259
297.494, 6077.430
297.977, 6103.996
298.459, 6111.968
298.941, 6119.177
299.423, 6152.271
299.905, 6137.667
300.387, 6170.350
300.869, 6184.159
301.351, 6193.592
301.833, 6197.144
302.316, 6201.726
302.798, 6205.240
303.280, 6210.187
303.762, 6221.886
304.244, 6247.622
304.726, 6274.450
305.208, 6283.184
305.690, 6276.814
306.173, 6276.193
306.655, 6305.162
307.137, 6345.291
307.619, 6371.326
308.101, 6366.372
308.583, 6359.663
309.065, 6377.651
309.547, 6415.406
310.030, 6452.151
310.512, 6477.025
310.994, 6494.952
311.476, 6509.083
311.958, 6514.474
312.440, 6526.548
312.922, 6560.808
313.404, 6610.088
313.886, 6654.338
314.369, 6680.588
314.851, 6700.804
315.333, 6722.817
315.815, 6748.841
316.297, 6775.190
316.779, 6801.277
317.261, 6826.489
317.743, 6850.010
318.225, 6859.092
318.708, 6875.698
319.190, 6916.962
319.672, 6998.091
320.154, 7062.432
320.636, 7078.383
321.118, 7071.201
321.600, 7079.104
322.082, 7130.462
322.565, 7181.285
323.047, 7216.345
323.529, 7233.595
324.011, 7239.847
324.493, 7224.653
324.975, 7202.665
325.457, 7190.560
325.939, 7204.353
326.422, 7213.732
326.904, 7209.035
327.386, 7186.888
327.868, 7172.838
328.350, 7181.214
328.832, 7189.745
329.314, 7179.065
329.796, 7130.082
330.278, 7086.187
330.760, 7053.913
331.243, 7033.158
331.725, 7016.523
332.207, 7011.096
332.689, 7002.916
333.171, 6981.916
333.653, 6944.121
334.135, 6900.389
334.617, 6846.170
335.100, 6786.076
335.582, 6750.679
336.064, 6755.516
336.546, 6757.031
337.028, 6722.863
337.510, 6638.407
337.992, 6578.184
338.474, 6555.055
338.957, 6554.222
339.439, 6534.946
339.921, 6492.597
340.403, 6449.629
340.885, 6419.014
341.367, 6401.162
341.849, 6383.329
342.331, 6367.248
342.813, 6346.814
343.296, 6307.500
343.778, 6248.884
344.260, 6192.486
344.742, 6148.230
345.224, 6115.018
345.706, 6090.621
346.188, 6077.123
346.670, 6063.754
347.152, 6054.376
347.635, 6044.028
348.117, 6032.765
348.599, 6017.839
349.081, 6007.640
349.563, 5995.547
350.045, 5983.377
350.527, 5972.802
351.009, 5968.987
351.491, 5969.398
351.974, 5968.783
352.456, 5967.198
352.938, 5961.735
353.420, 5961.279
353.902, 5958.816
354.384, 5956.271
354.866, 5956.520
355.349, 5951.621
355.831, 5951.552
356.313, 5952.498
356.795, 5950.868
357.277, 5947.429
357.759, 5944.114
358.241, 5946.323
358.723, 5963.894
359.205, 5983.994
359.688, 5995.919
360.170, 5995.255
360.652, 5995.107
361.134, 5998.795
361.616, 6007.283
362.098, 6022.219
362.580, 6050.917
363.062, 6080.382
363.544, 6103.674
364.027, 6118.483
364.509, 6137.132
364.991, 6167.810
365.473, 6201.732
365.955, 6229.165
366.437, 6246.188
366.919, 6259.478
367.401, 6268.332
367.884, 6272.675
368.366, 6280.928
368.848, 6301.059
369.330, 6320.371
369.812, 6330.331
370.294, 6318.612
370.776, 6315.361
371.258, 6322.503
371.741, 6339.749
372.223, 6367.891
372.705, 6418.733
373.187, 6464.016
373.669, 6487.037
374.151, 6476.808
374.633, 6476.971
375.115, 6494.777
375.597, 6518.536
376.079, 6520.514
376.562, 6493.494
377.044, 6470.499
377.526, 6468.122
378.008, 6486.939
378.490, 6500.292
378.972, 6509.037
379.454, 6510.612
379.936, 6502.477
380.419, 6508.833
380.901, 6511.672
381.383, 6511.182
381.865, 6497.395
382.347, 6500.779
382.829, 6497.281
383.311, 6493.501
383.793, 6499.301
384.276, 6487.448
384.758, 6492.157
385.240, 6476.358
385.722, 6444.042
386.204, 6412.839
386.686, 6383.602
387.168, 6361.539
387.650, 6356.597
388.132, 6357.463
388.615, 6349.424
389.097, 6329.178
389.579, 6302.175
390.061, 6267.724
390.543, 6229.575
391.025, 6195.427
391.507, 6173.819
391.989, 6153.756
392.471, 6128.590
392.954, 6097.532
393.436, 6063.974
393.918, 6034.397
394.400, 6001.438
394.882, 5957.156
395.364, 5877.564
395.846, 5809.772
396.328, 5771.938
396.810, 5762.046
397.293, 5748.544
397.775, 5721.731
398.257, 5692.893
398.739, 5668.314
399.221, 5652.489
399.703, 5635.875
400.185, 5616.238
400.668, 5595.702
401.150, 5581.083
401.632, 5583.074
402.114, 5576.420
402.596, 5548.200
403.078, 5488.525
403.560, 5446.339
404.042, 5423.781
404.524, 5416.019
405.007, 5419.881
405.489, 5440.102
405.971, 5453.686
406.453, 5455.531
406.935, 5445.523
407.417, 5417.416
407.899, 5366.556
408.381, 5320.024
408.863, 5309.479
409.346, 5331.183
409.828, 5338.054
410.310, 5315.448
410.792, 5283.076
411.274, 5282.473
411.756, 5310.338
412.238, 5338.247
412.720, 5344.066
413.203, 5338.451
413.685, 5345.030
414.167, 5368.817
414.649, 5390.332
415.131, 5386.370
415.613, 5366.202
416.095, 5349.114
416.577, 5343.559
417.060, 5344.276
417.542, 5346.647
418.024, 5350.629
418.506, 5359.572
418.988, 5387.145
419.470, 5414.737
419.952, 5424.426
420.434, 5396.059
420.916, 5368.063
421.398, 5349.975
421.881, 5341.489
422.363, 5340.769
422.845, 5361.728
423.327, 5379.158
423.809, 5381.699
424.291, 5373.214
424.773, 5368.486
425.255, 5362.844
425.738, 5356.340
426.220, 5346.389
426.702, 5340.890
427.184, 5333.606
427.666, 5327.206
428.148, 5317.000
428.630, 5313.212
429.112, 5321.417
429.595, 5326.362
430.077, 5311.342
430.559, 5270.404
431.041, 5243.598
431.523, 5239.827
432.005, 5248.936
432.487, 5245.257
432.969, 5228.198
433.451, 5206.881
433.934, 5186.171
434.416, 5165.526
434.898, 5142.894
435.380, 5118.493
435.862, 5090.697
436.344, 5060.524
436.826, 5025.969
437.308, 4980.334
437.790, 4910.031
438.273, 4834.320
438.755, 4776.839
439.237, 4736.389
439.719, 4706.083
440.201, 4689.558
440.683, 4677.137
441.165, 4657.902
441.647, 4625.437
442.129, 4593.232
442.612, 4567.918
443.094, 4548.185
443.576, 4531.045
444.058, 4532.800
444.540, 4522.149
445.022, 4476.089
445.504, 4381.587
445.987, 4314.168
446.469, 4305.157
446.951, 4317.325
447.433, 4315.946
447.915, 4292.733
448.397, 4266.492
448.879, 4234.799
449.361, 4200.348
449.843, 4181.324
450.326, 4186.459
450.808, 4192.122
451.290, 4183.272
451.772, 4154.409
452.254, 4140.564
452.736, 4147.945
453.218, 4161.544
453.700, 4155.474
454.182, 4128.804
454.665, 4102.990
455.147, 4086.555
455.629, 4076.885
456.111, 4068.558
456.593, 4061.836
457.075, 4049.952
457.557, 4020.964
458.039, 3982.431
458.522, 3953.649
459.004, 3938.752
459.486, 3933.216
459.968, 3937.416
460.450, 3947.796
460.932, 3954.469
461.414, 3946.270
461.896, 3936.569
462.379, 3939.370
462.861, 3957.467
463.343, 3967.228
463.825, 3949.097
464.307, 3921.480
464.789, 3902.815
465.271, 3912.201
465.753, 3914.739
466.235, 3895.755
466.717, 3860.688
467.200, 3837.791
467.682, 3842.078
468.164, 3846.579
468.646, 3839.918
469.128, 3815.909
469.610, 3796.259
470.092, 3776.837
470.574, 3765.340
471.057, 3752.979
471.539, 3751.396
472.021, 3747.197
472.503, 3740.522
472.985, 3723.957
473.467, 3720.161
473.949, 3711.249
474.431, 3702.127
474.914, 3697.313
475.396, 3692.583
475.878, 3690.831
476.360, 3697.716
476.842, 3706.693
477.324, 3711.566
477.806, 3712.051
478.288, 3707.052
478.770, 3689.942
479.253, 3671.010
479.735, 3658.943
480.217, 3654.114
480.699, 3658.381
481.181, 3681.240
481.663, 3709.564
482.145, 3731.527
482.627, 3743.035
483.109, 3749.250
483.592, 3751.130
484.074, 3748.651
484.556, 3741.941
485.038, 3716.054
485.520, 3699.580
486.002, 3705.322
486.484, 3713.083
486.966, 3727.356
487.448, 3740.048
487.931, 3751.247
488.413, 3756.467
488.895, 3769.404
489.377, 3779.249
489.859, 3788.966
490.341, 3802.989
490.823, 3809.081
491.306, 3823.036
491.788, 3833.851
492.270, 3846.104
492.752, 3855.244
493.234, 3865.345
493.716, 3878.562
494.198, 3890.053
494.680, 3897.253
495.162, 3909.569
495.645, 3934.885
496.127, 3978.845
496.609, 4025.826
497.091, 4060.637
497.573, 4085.177
498.055, 4106.865
498.537, 4126.967
499.019, 4147.414
499.501, 4170.832
499.984, 4198.260
500.466, 4222.983
500.948, 4234.338
501.430, 4245.302
501.912, 4269.242
502.394, 4336.956
502.876, 4384.286
503.358, 4385.863
503.841, 4356.341
504.323, 4359.849
504.805, 4415.286
505.287, 4477.402
505.769, 4529.611
506.251, 4572.188
506.733, 4596.280
507.215, 4594.549
507.698, 4588.699
508.180, 4606.710
508.662, 4648.744
509.144, 4694.418
509.626, 4742.818
510.108, 4788.150
510.590, 4813.478
511.072, 4820.530
511.554, 4822.616
512.036, 4821.986
512.519, 4824.040
513.001, 4839.968
513.483, 4872.593
513.965, 4904.271
514.447, 4927.075
514.929, 4939.913
515.411, 4941.346
515.893, 4912.847
516.375, 4890.837
516.858, 4894.667
517.340, 4918.023
517.822, 4935.964
518.304, 4942.855
518.786, 4943.494
519.268, 4938.257
519.750, 4924.639
520.232, 4915.338
520.715, 4915.281
521.197, 4915.193
521.679, 4902.702
522.161, 4869.996
522.643, 4851.279
523.125, 4855.086
523.607, 4874.260
524.089, 4887.069
524.571, 4889.141
525.054, 4897.923
525.536, 4905.078
526.018, 4910.689
526.500, 4910.145
526.982, 4917.550
527.464, 4921.769
527.946, 4925.859
528.429, 4932.630
528.911, 4942.500
529.393, 4942.783
529.875, 4947.318
530.357, 4956.084
530.839, 4963.824
531.321, 4970.592
531.803, 4973.476
532.286, 4981.376
532.768, 4987.265
533.250, 4993.072
533.732, 5001.676
534.214, 5005.126
534.696, 5013.686
535.178, 5020.207
535.660, 5027.660
536.142, 5033.092
536.625, 5039.148
537.107, 5047.228
537.589, 5054.186
538.071, 5058.359
538.553, 5060.684
539.035, 5066.851
539.517, 5072.085
539.999, 5076.438
540.481, 5077.265
540.964, 5082.645
541.446, 5086.199
541.928, 5089.679
542.410, 5095.699
542.892, 5097.039
543.374, 5103.018
543.856, 5106.807
544.338, 5099.587
544.820, 5096.364
545.303, 5092.170
545.785, 5087.058
546.267, 5078.278
546.749, 5074.234
547.231, 5068.293
547.713, 5062.273
548.195, 5058.897
548.677, 5050.650
549.159, 5047.232
549.642, 5041.885
550.124, 5037.422
550.606, 5030.654
551.088, 5021.433
551.570, 5003.081
552.052, 4987.996
552.534, 4972.112
553.016, 4955.484
553.499, 4935.860
553.981, 4920.103
554.463, 4902.796
554.945, 4885.427
555.427, 4869.358
555.909, 4855.072
556.391, 4843.595
556.873, 4833.268
557.356, 4821.527
557.838, 4810.421
558.320, 4803.778
558.802, 4787.931
559.284, 4779.205
559.766, 4768.749
560.248, 4753.079
560.730, 4735.601
561.213, 4724.284
561.695, 4711.477
562.177, 4697.250
562.659, 4677.365
563.141, 4664.787
563.623, 4649.282
564.105, 4633.652
564.587, 4622.104
565.069, 4603.042
565.552, 4591.428
566.034, 4576.841
566.516, 4563.616
566.998, 4547.439
567.480, 4532.101
567.962, 4516.313
568.444, 4506.436
568.926, 4495.125
569.408, 4482.455
569.891, 4464.357
570.373, 4453.269
570.855, 4439.372
571.337, 4425.360
571.819, 4415.257
572.301, 4397.952
572.783, 4387.782
573.265, 4374.768
573.747, 4363.056
574.230, 4348.520
574.712, 4334.858
575.194, 4324.020
575.676, 4308.471
576.158, 4287.245
576.640, 4278.666
577.122, 4249.904
577.604, 4221.295
578.086, 4199.951
578.569, 4185.246
579.051, 4163.196
579.533, 4131.575
580.015, 4101.707
580.497, 4084.305
580.979, 4077.213
581.461, 4065.541
581.943, 4046.900
582.426, 4028.721
582.908, 4023.338
583.390, 4024.510
583.872, 4018.337
584.354, 4000.856
584.836, 3973.140
585.318, 3924.803
585.800, 3865.111
586.282, 3821.931
586.765, 3818.237
587.247, 3823.486
587.729, 3825.102
588.211, 3821.937
588.693, 3816.414
589.175, 3811.486
589.657, 3801.804
590.140, 3781.208
590.622, 3741.394
591.104, 3717.905
591.586, 3717.701
592.068, 3727.419
592.550, 3724.425
593.032, 3708.845
593.514, 3693.128
593.996, 3679.145
594.479, 3669.242
594.961, 3670.007
595.443, 3680.125
595.925, 3691.516
596.407, 3699.874
596.889, 3706.368
597.371, 3713.752
597.853, 3722.761
598.335, 3725.274
598.818, 3705.687
599.300, 3684.447
599.782, 3678.893
600.264, 3716.121
600.746, 3736.868
601.228, 3721.408
601.710, 3693.528
602.192, 3697.819
602.674, 3750.953
603.157, 3796.396
603.639, 3818.847
604.121, 3822.052
604.603, 3816.608
605.085, 3800.698
605.567, 3799.634
606.049, 3842.027
606.531, 3911.136
607.013, 3961.879
607.496, 3992.021
607.978, 4009.079
608.460, 4005.122
608.942, 3997.347
609.424, 4010.078
609.906, 4063.235
610.388, 4112.144
610.870, 4124.283
611.353, 4121.146
611.835, 4139.857
612.317, 4223.390
612.799, 4288.482
613.281, 4310.056
613.763, 4295.622
614.245, 4298.252
614.727, 4320.024
615.209, 4354.285
615.692, 4403.785
616.174, 4467.452
616.656, 4514.148
617.138, 4542.344
617.620, 4561.515
618.102, 4567.660
618.584, 4572.320
619.067, 4611.438
619.549, 4703.292
620.031, 4798.127
620.513, 4847.748
620.995, 4870.587
621.477, 4897.449
621.959, 4934.374
622.441, 4983.149
622.923, 5048.497
623.406, 5127.477
623.888, 5207.280
624.370, 5291.757
624.852, 5370.887
625.334, 5437.894
625.816, 5490.810
