##NAMES=Parisite-(Ce)
##RRUFFID=R050308
##IDEAL CHEMISTRY=CaCe_2_(CO_3_)_3_F_2_
##LOCALITY=Muzo, Bogota, Colombia
##OWNER=RRUFF
##SOURCE=Eugene Schlepp
##DESCRIPTION=Green hexagonal prism
##STATUS=The identification of this mineral has been confirmed by X-ray diffraction and chemical analysis
##URL=rruff.info/R050308
##MEASURED CHEMISTRY=Ca_1.00_(Ce_1.03_La_0.49_Nd_0.42_Y_0.06_)_Σ=2_(CO_3_)_3_F_2.00_ ; = lighter phase. Ca_1.00_(Ce_0.96_La_0.51_Nd_0.48_Y_0.05_)_Σ=2_(CO_3_)_3_(F_1.82_(OH)_0.18_)_Σ=2_ = darker phase
140.0195, 4193.516
140.5016, 4168.233
140.9837, 4155.092
141.4658, 4159.716
141.9480, 4167.434
142.4301, 4168.617
142.9122, 4161.954
143.3943, 4150.792
143.8764, 4129.350
144.3585, 4098.414
144.8407, 4090.784
145.3228, 4118.404
145.8049, 4160.368
146.2870, 4196.800
146.7691, 4216.551
147.2512, 4244.647
147.7334, 4284.280
148.2155, 4335.534
148.6976, 4399.997
149.1797, 4481.837
149.6618, 4575.973
150.1439, 4674.782
150.6261, 4780.661
151.1082, 4887.928
151.5903, 4993.748
152.0724, 5094.695
152.5545, 5201.209
153.0366, 5319.592
153.5188, 5443.340
154.0009, 5559.167
154.4830, 5674.635
154.9651, 5775.964
155.4472, 5857.715
155.9293, 5911.566
156.4115, 5956.786
156.8936, 5993.275
157.3757, 6023.200
157.8578, 6054.658
158.3399, 6095.252
158.8221, 6135.025
159.3042, 6167.869
159.7863, 6185.852
160.2684, 6202.985
160.7505, 6219.672
161.2326, 6237.259
161.7148, 6265.127
162.1969, 6311.910
162.6790, 6369.322
163.1611, 6428.701
163.6432, 6498.047
164.1253, 6560.620
164.6075, 6609.383
165.0896, 6644.150
165.5717, 6663.579
166.0538, 6667.154
166.5359, 6654.738
167.0180, 6626.474
167.5002, 6593.195
167.9823, 6537.344
168.4644, 6441.038
168.9465, 6299.780
169.4286, 6140.241
169.9107, 5973.608
170.3929, 5803.389
170.8750, 5632.538
171.3571, 5460.152
171.8392, 5290.992
172.3213, 5131.943
172.8034, 4987.607
173.2856, 4846.489
173.7677, 4697.237
174.2498, 4541.701
174.7319, 4389.047
175.2140, 4246.157
175.6961, 4109.121
176.1783, 3970.000
176.6604, 3823.117
177.1425, 3684.344
177.6246, 3575.694
178.1067, 3495.663
178.5888, 3427.272
179.0710, 3362.717
179.5531, 3301.927
180.0352, 3245.724
180.5173, 3194.359
180.9994, 3148.242
181.4815, 3108.855
181.9637, 3075.871
182.4458, 3049.928
182.9279, 3035.063
183.4100, 3028.477
183.8921, 3019.001
184.3742, 3000.738
184.8564, 2978.699
185.3385, 2964.976
185.8206, 2959.708
186.3027, 2959.641
186.7848, 2962.552
187.2669, 2968.230
187.7491, 2975.177
188.2312, 2983.893
188.7133, 2993.483
189.1954, 2999.275
189.6775, 3000.084
190.1596, 3002.288
190.6418, 3017.345
191.1239, 3044.755
191.6060, 3066.971
192.0881, 3072.843
192.5702, 3064.898
193.0524, 3064.833
193.5345, 3072.706
194.0166, 3088.197
194.4987, 3115.503
194.9808, 3155.850
195.4629, 3189.618
195.9451, 3204.320
196.4272, 3200.574
196.9093, 3201.284
197.3914, 3209.867
197.8735, 3218.667
198.3556, 3210.523
198.8378, 3182.889
199.3199, 3154.815
199.8020, 3137.708
200.2841, 3132.607
200.7662, 3124.698
201.2483, 3111.826
201.7305, 3096.890
202.2126, 3086.961
202.6947, 3082.518
203.1768, 3081.298
203.6589, 3082.354
204.1410, 3085.856
204.6232, 3090.335
205.1053, 3095.596
205.5874, 3101.782
206.0695, 3110.806
206.5516, 3125.092
207.0337, 3135.855
207.5159, 3133.469
207.9980, 3112.774
208.4801, 3105.212
208.9622, 3120.983
209.4443, 3152.703
209.9264, 3161.671
210.4086, 3139.771
210.8907, 3111.329
211.3728, 3096.069
211.8549, 3098.384
212.3370, 3097.850
212.8191, 3088.566
213.3013, 3072.816
213.7834, 3070.518
214.2655, 3086.451
214.7476, 3108.233
215.2297, 3125.248
215.7118, 3136.276
216.1940, 3145.884
216.6761, 3152.315
217.1582, 3156.190
217.6403, 3172.534
218.1224, 3205.726
218.6045, 3245.246
219.0867, 3280.445
219.5688, 3307.124
220.0509, 3339.229
220.5330, 3381.469
221.0151, 3434.782
221.4972, 3478.147
221.9794, 3505.571
222.4615, 3530.152
222.9436, 3566.180
223.4257, 3616.352
223.9078, 3673.068
224.3899, 3732.637
224.8721, 3795.079
225.3542, 3871.623
225.8363, 3970.974
226.3184, 4076.782
226.8005, 4169.915
227.2827, 4239.850
227.7648, 4315.738
228.2469, 4402.599
228.7290, 4498.918
229.2111, 4615.569
229.6932, 4757.963
230.1754, 4914.873
230.6575, 5075.198
231.1396, 5242.050
231.6217, 5404.479
232.1038, 5554.933
232.5859, 5686.766
233.0681, 5843.667
233.5502, 6035.110
234.0323, 6243.977
234.5144, 6447.526
234.9965, 6635.736
235.4786, 6833.428
235.9608, 7051.049
236.4429, 7290.532
236.9250, 7527.979
237.4071, 7761.822
237.8892, 7992.946
238.3713, 8221.950
238.8535, 8445.081
239.3356, 8672.414
239.8177, 8907.846
240.2998, 9154.585
240.7819, 9398.637
241.2640, 9640.575
241.7462, 9883.396
242.2283, 10135.41
242.7104, 10404.96
243.1925, 10669.98
243.6746, 10922.87
244.1567, 11161.95
244.6389, 11397.98
245.1210, 11630.42
245.6031, 11859.56
246.0852, 12083.47
246.5673, 12298.85
247.0494, 12514.92
247.5316, 12740.39
248.0137, 12989.56
248.4958, 13199.50
248.9779, 13360.04
249.4600, 13485.87
249.9421, 13598.78
250.4243, 13695.49
250.9064, 13786.70
251.3885, 13879.33
251.8706, 13982.13
252.3527, 14055.67
252.8348, 14087.60
253.3170, 14097.92
253.7991, 14127.26
254.2812, 14191.37
254.7633, 14243.69
255.2454, 14263.97
255.7275, 14242.25
256.2097, 14223.87
256.6918, 14206.92
257.1739, 14194.79
257.6560, 14193.73
258.1381, 14204.72
258.6202, 14224.96
259.1024, 14256.55
259.5845, 14304.33
260.0666, 14340.33
260.5487, 14356.32
261.0308, 14366.75
261.5129, 14398.40
261.9951, 14452.64
262.4772, 14524.64
262.9593, 14622.34
263.4414, 14762.07
263.9235, 14849.97
264.4056, 14872.13
264.8878, 14856.19
265.3699, 14854.85
265.8520, 14879.99
266.3341, 14885.62
266.8162, 14849.30
267.2983, 14764.46
267.7805, 14683.68
268.2626, 14613.76
268.7447, 14540.96
269.2268, 14442.64
269.7089, 14317.83
270.1910, 14171.52
270.6732, 13999.44
271.1553, 13799.54
271.6374, 13599.78
272.1195, 13398.96
272.6016, 13199.58
273.0837, 13017.83
273.5659, 12858.77
274.0480, 12687.71
274.5301, 12488.39
275.0122, 12260.96
275.4943, 12023.82
275.9764, 11777.46
276.4586, 11520.50
276.9407, 11251.68
277.4228, 10975.43
277.9049, 10679.08
278.3870, 10348.64
278.8691, 9986.787
279.3513, 9655.395
279.8334, 9356.305
280.3155, 9082.958
280.7976, 8831.241
281.2798, 8604.093
281.7619, 8380.512
282.2440, 8152.182
282.7261, 7920.464
283.2082, 7693.492
283.6903, 7469.600
284.1725, 7256.586
284.6546, 7063.550
285.1367, 6891.868
285.6188, 6734.178
286.1009, 6586.425
286.5830, 6450.632
287.0652, 6337.668
287.5473, 6250.166
288.0294, 6175.857
288.5115, 6099.785
288.9936, 6023.408
289.4757, 5961.916
289.9579, 5925.627
290.4400, 5906.196
290.9221, 5874.486
291.4042, 5828.705
291.8863, 5793.037
292.3684, 5797.126
292.8506, 5834.172
293.3327, 5874.827
293.8148, 5912.734
294.2969, 5947.149
294.7790, 5974.982
295.2611, 5996.338
295.7433, 6019.330
296.2254, 6055.804
296.7075, 6100.567
297.1896, 6137.622
297.6717, 6161.653
298.1538, 6177.248
298.6360, 6196.741
299.1181, 6218.589
299.6002, 6222.553
300.0823, 6181.499
300.5644, 6112.859
301.0465, 6050.709
301.5287, 6012.085
302.0108, 5973.424
302.4929, 5906.946
302.9750, 5815.377
303.4571, 5718.180
303.9392, 5624.108
304.4214, 5532.995
304.9035, 5442.335
305.3856, 5353.083
305.8677, 5265.013
306.3498, 5176.042
306.8319, 5088.675
307.3141, 5009.869
307.7962, 4955.044
308.2783, 4906.714
308.7604, 4844.667
309.2425, 4758.928
309.7246, 4674.915
310.2068, 4606.795
310.6889, 4552.629
311.1710, 4506.435
311.6531, 4473.029
312.1352, 4441.710
312.6173, 4404.117
313.0995, 4357.081
313.5816, 4310.400
314.0637, 4264.690
314.5458, 4222.555
315.0279, 4188.448
315.5100, 4166.083
315.9922, 4150.685
316.4743, 4141.187
316.9564, 4139.083
317.4385, 4136.123
317.9206, 4127.088
318.4027, 4116.131
318.8849, 4109.060
319.3670, 4104.062
319.8491, 4106.173
320.3312, 4121.857
320.8133, 4155.644
321.2954, 4177.964
321.7776, 4171.215
322.2597, 4154.932
322.7418, 4149.936
323.2239, 4174.249
323.7060, 4195.110
324.1881, 4203.731
324.6703, 4198.867
325.1524, 4194.268
325.6345, 4189.079
326.1166, 4185.498
326.5987, 4185.217
327.0808, 4186.696
327.5630, 4193.380
328.0451, 4209.244
328.5272, 4233.545
329.0093, 4250.184
329.4914, 4256.904
329.9735, 4257.703
330.4557, 4254.228
330.9378, 4240.343
331.4199, 4233.213
331.9020, 4237.287
332.3841, 4249.629
332.8662, 4255.389
333.3484, 4250.649
333.8305, 4245.181
334.3126, 4243.520
334.7947, 4244.772
335.2768, 4253.508
335.7589, 4273.625
336.2411, 4299.308
336.7232, 4313.881
337.2053, 4311.523
337.6874, 4314.798
338.1695, 4334.702
338.6516, 4372.124
339.1338, 4418.864
339.6159, 4477.942
340.0980, 4540.690
340.5801, 4586.591
341.0622, 4613.340
341.5443, 4650.106
342.0265, 4711.377
342.5086, 4794.730
342.9907, 4884.052
343.4728, 4979.024
343.9549, 5078.292
344.4370, 5178.677
344.9192, 5279.944
345.4013, 5385.283
345.8834, 5492.818
346.3655, 5604.683
346.8476, 5726.362
347.3297, 5857.825
347.8119, 5986.128
348.2940, 6103.039
348.7761, 6206.827
349.2582, 6288.637
349.7403, 6339.697
350.2225, 6376.453
350.7046, 6426.367
351.1867, 6487.075
351.6688, 6536.829
352.1509, 6558.429
352.6331, 6559.636
353.1152, 6553.150
353.5973, 6545.557
354.0794, 6523.812
354.5615, 6474.785
355.0436, 6401.704
355.5258, 6314.395
356.0079, 6205.371
356.4900, 6091.621
356.9721, 5990.843
357.4542, 5911.463
357.9363, 5825.698
358.4185, 5717.992
358.9006, 5593.358
359.3827, 5460.473
359.8648, 5314.187
360.3469, 5167.280
360.8290, 5026.791
361.3112, 4893.508
361.7933, 4761.630
362.2754, 4619.685
362.7575, 4480.653
363.2396, 4358.138
363.7217, 4276.244
364.2039, 4191.816
364.6860, 4088.878
365.1681, 3966.498
365.6502, 3857.137
366.1323, 3771.819
366.6144, 3695.332
367.0966, 3616.865
367.5787, 3522.058
368.0608, 3443.669
368.5429, 3391.928
369.0250, 3360.641
369.5071, 3318.795
369.9893, 3256.574
370.4714, 3195.436
370.9535, 3145.058
371.4356, 3106.251
371.9177, 3077.939
372.3998, 3062.666
372.8820, 3056.562
373.3641, 3052.125
373.8462, 3050.615
374.3283, 3047.521
374.8104, 3040.516
375.2925, 3029.088
375.7747, 3018.301
376.2568, 3006.898
376.7389, 2998.427
377.2210, 2998.879
377.7031, 3008.784
378.1852, 3019.676
378.6674, 3027.178
379.1495, 3033.675
379.6316, 3050.139
380.1137, 3076.790
380.5958, 3110.179
381.0779, 3149.670
381.5601, 3194.247
382.0422, 3235.876
382.5243, 3273.499
383.0064, 3307.646
383.4885, 3337.481
383.9706, 3363.945
384.4528, 3391.888
384.9349, 3423.060
385.4170, 3458.502
385.8991, 3502.111
386.3812, 3557.152
386.8633, 3612.999
387.3455, 3657.002
387.8276, 3694.019
388.3097, 3735.984
388.7918, 3802.010
389.2739, 3866.511
389.7560, 3905.343
390.2382, 3914.700
390.7203, 3922.155
391.2024, 3945.893
391.6845, 3974.713
392.1666, 3995.989
392.6487, 3997.209
393.1309, 3997.723
393.6130, 4010.607
394.0951, 4033.793
394.5772, 4041.815
395.0593, 4018.793
395.5414, 3984.534
396.0236, 3951.585
396.5057, 3925.496
396.9878, 3896.088
397.4699, 3865.559
397.9520, 3831.531
398.4341, 3787.052
398.9163, 3727.921
399.3984, 3662.639
399.8805, 3592.408
400.3626, 3512.314
400.8447, 3442.199
401.3268, 3385.033
401.8090, 3335.740
402.2911, 3288.922
402.7732, 3251.638
403.2553, 3198.606
403.7374, 3115.899
404.2195, 3006.261
404.7017, 2920.571
405.1838, 2861.821
405.6659, 2818.405
406.1480, 2786.043
406.6301, 2764.972
407.1122, 2729.728
407.5944, 2671.350
408.0765, 2600.487
408.5586, 2541.945
409.0407, 2495.346
409.5228, 2456.162
410.0049, 2425.729
410.4871, 2400.893
410.9692, 2372.125
411.4513, 2337.945
411.9334, 2301.545
412.4155, 2264.477
412.8976, 2227.205
413.3798, 2192.500
413.8619, 2162.035
414.3440, 2133.814
414.8261, 2103.557
415.3082, 2071.151
415.7903, 2044.485
416.2725, 2038.026
416.7546, 2036.431
417.2367, 2021.732
417.7188, 1975.169
418.2009, 1929.232
418.6830, 1899.390
419.1652, 1882.620
419.6473, 1869.019
420.1294, 1857.641
420.6115, 1846.622
421.0937, 1834.841
421.5758, 1822.492
422.0579, 1809.143
422.5400, 1791.914
423.0221, 1774.204
423.5042, 1761.283
423.9864, 1756.697
424.4685, 1753.293
424.9506, 1750.823
425.4327, 1749.823
425.9148, 1742.952
426.3969, 1728.147
426.8791, 1709.844
427.3612, 1691.001
427.8433, 1669.881
428.3254, 1654.210
428.8075, 1646.822
429.2896, 1645.019
429.7718, 1640.263
430.2539, 1632.535
430.7360, 1622.088
431.2181, 1607.547
431.7002, 1589.381
432.1823, 1574.484
432.6645, 1563.389
433.1466, 1554.886
433.6287, 1548.039
434.1108, 1542.651
434.5929, 1537.756
435.0750, 1533.568
435.5572, 1529.415
436.0393, 1524.348
436.5214, 1518.350
437.0035, 1511.054
437.4856, 1500.828
437.9677, 1489.588
438.4499, 1480.170
438.9320, 1473.966
439.4141, 1468.602
439.8962, 1462.112
440.3783, 1455.149
440.8604, 1449.209
441.3426, 1444.748
441.8247, 1441.736
442.3068, 1441.483
442.7889, 1445.605
443.2710, 1445.281
443.7531, 1432.206
444.2353, 1415.818
444.7174, 1406.326
445.1995, 1416.830
445.6816, 1421.670
446.1637, 1411.779
446.6458, 1389.378
447.1280, 1378.163
447.6101, 1387.262
448.0922, 1397.488
448.5743, 1397.850
449.0564, 1384.010
449.5385, 1371.168
450.0207, 1357.987
450.5028, 1347.563
450.9849, 1348.747
451.4670, 1364.825
451.9491, 1375.523
452.4312, 1369.443
452.9134, 1349.769
453.3955, 1343.436
453.8776, 1352.124
454.3597, 1362.226
454.8418, 1359.171
455.3239, 1345.760
455.8061, 1333.142
456.2882, 1322.293
456.7703, 1315.552
457.2524, 1320.329
457.7345, 1333.509
458.2166, 1342.440
458.6988, 1334.679
459.1809, 1321.114
459.6630, 1313.574
460.1451, 1313.676
460.6272, 1316.243
461.1093, 1321.305
461.5915, 1325.906
462.0736, 1326.235
462.5557, 1315.614
463.0378, 1305.833
463.5199, 1302.409
464.0020, 1304.465
464.4842, 1304.862
464.9663, 1298.085
465.4484, 1292.282
465.9305, 1292.390
466.4126, 1307.165
466.8947, 1312.400
467.3769, 1301.364
467.8590, 1283.751
468.3411, 1276.337
468.8232, 1286.586
469.3053, 1291.924
469.7874, 1283.948
470.2696, 1263.783
470.7517, 1252.969
471.2338, 1253.264
471.7159, 1257.520
472.1980, 1260.597
472.6801, 1262.491
473.1623, 1262.604
473.6444, 1260.416
474.1265, 1257.290
474.6086, 1254.956
475.0907, 1253.528
475.5728, 1253.735
476.0550, 1259.688
476.5371, 1266.230
477.0192, 1262.617
477.5013, 1248.343
477.9834, 1235.390
478.4655, 1234.131
478.9477, 1239.399
479.4298, 1244.711
479.9119, 1250.842
480.3940, 1253.223
480.8761, 1246.789
481.3582, 1234.341
481.8404, 1223.994
482.3225, 1216.378
482.8046, 1213.136
483.2867, 1216.504
483.7688, 1229.894
484.2509, 1238.650
484.7331, 1237.154
485.2152, 1232.715
485.6973, 1232.566
486.1794, 1242.556
486.6615, 1246.641
487.1436, 1241.046
487.6258, 1227.786
488.1079, 1214.793
488.5900, 1199.744
489.0721, 1191.706
489.5542, 1200.817
490.0363, 1227.377
490.5185, 1237.693
491.0006, 1228.050
491.4827, 1211.401
491.9648, 1203.980
492.4470, 1204.421
492.9291, 1205.708
493.4112, 1206.553
493.8933, 1205.999
494.3754, 1200.578
494.8575, 1191.285
495.3397, 1184.690
495.8218, 1188.958
496.3039, 1196.256
496.7860, 1196.296
497.2681, 1184.638
497.7502, 1177.339
498.2324, 1188.726
498.7145, 1207.942
499.1966, 1220.446
499.6787, 1219.034
500.1608, 1213.074
500.6429, 1201.930
501.1251, 1186.437
501.6072, 1178.114
502.0893, 1186.034
502.5714, 1193.838
503.0535, 1193.275
503.5356, 1178.832
504.0178, 1169.140
504.4999, 1164.735
504.9820, 1164.722
505.4641, 1169.136
505.9462, 1179.407
506.4283, 1186.305
506.9105, 1185.516
507.3926, 1179.663
507.8747, 1180.727
508.3568, 1189.178
508.8389, 1195.865
509.3210, 1192.833
509.8032, 1182.845
510.2853, 1172.394
510.7674, 1161.396
511.2495, 1153.804
511.7316, 1156.107
512.2137, 1164.710
512.6959, 1172.235
513.1780, 1175.805
513.6601, 1177.166
514.1422, 1176.755
514.6243, 1174.818
515.1064, 1172.900
515.5886, 1170.804
516.0707, 1169.468
516.5528, 1169.740
517.0349, 1173.250
517.5170, 1175.171
517.9991, 1172.744
518.4813, 1169.370
518.9634, 1169.983
519.4455, 1180.455
519.9276, 1184.373
520.4097, 1175.001
520.8918, 1155.569
521.3740, 1147.551
521.8561, 1153.675
522.3382, 1162.172
522.8203, 1165.136
523.3024, 1162.952
523.7845, 1163.319
524.2667, 1167.370
524.7488, 1171.244
525.2309, 1169.745
525.7130, 1164.019
526.1951, 1157.913
526.6772, 1151.014
527.1594, 1145.987
527.6415, 1147.753
528.1236, 1154.832
528.6057, 1160.774
529.0878, 1161.327
529.5699, 1159.657
530.0521, 1157.739
530.5342, 1155.553
531.0163, 1154.332
531.4984, 1154.986
531.9805, 1156.568
532.4626, 1158.072
532.9448, 1158.529
533.4269, 1159.969
533.9090, 1163.679
534.3911, 1168.652
534.8732, 1170.646
535.3553, 1168.323
535.8375, 1165.560
536.3196, 1164.321
536.8017, 1164.735
537.2838, 1162.782
537.7659, 1157.425
538.2480, 1153.069
538.7302, 1156.125
539.2123, 1165.330
539.6944, 1171.290
540.1765, 1170.648
540.6586, 1168.320
541.1407, 1172.594
541.6229, 1181.506
542.1050, 1188.054
542.5871, 1185.255
543.0692, 1180.526
543.5513, 1182.175
544.0334, 1190.524
544.5156, 1195.285
544.9977, 1185.994
545.4798, 1174.377
545.9619, 1170.089
546.4440, 1182.299
546.9261, 1190.929
547.4083, 1189.785
547.8904, 1184.054
548.3725, 1183.258
548.8546, 1190.834
549.3367, 1197.670
549.8188, 1201.323
550.3010, 1202.099
550.7831, 1204.025
551.2652, 1207.862
551.7473, 1210.305
552.2294, 1206.115
552.7115, 1196.634
553.1937, 1197.429
553.6758, 1211.558
554.1579, 1228.376
554.6400, 1234.823
555.1221, 1233.279
555.6042, 1230.287
556.0864, 1225.991
556.5685, 1223.466
557.0506, 1226.790
557.5327, 1234.724
558.0148, 1242.643
558.4969, 1249.011
558.9791, 1254.152
559.4612, 1257.983
559.9433, 1260.244
560.4254, 1262.486
560.9075, 1265.098
561.3896, 1267.738
561.8718, 1270.003
562.3539, 1270.215
562.8360, 1273.265
563.3181, 1281.633
563.8002, 1292.010
564.2823, 1295.730
564.7645, 1291.286
565.2466, 1286.593
565.7287, 1282.882
566.2108, 1281.331
566.6929, 1290.174
567.1750, 1309.754
567.6572, 1330.367
568.1393, 1343.886
568.6214, 1352.331
569.1035, 1359.144
569.5856, 1364.925
570.0677, 1369.181
570.5499, 1369.501
571.0320, 1368.498
571.5141, 1370.301
571.9962, 1376.495
572.4783, 1385.696
572.9604, 1399.715
573.4426, 1417.081
573.9247, 1430.765
574.4068, 1437.927
574.8889, 1442.496
575.3710, 1444.604
575.8531, 1442.513
576.3353, 1447.209
576.8174, 1460.702
577.2995, 1477.937
577.7816, 1495.435
578.2637, 1513.449
578.7458, 1527.210
579.2280, 1534.392
579.7101, 1540.030
580.1922, 1554.598
580.6743, 1576.504
581.1564, 1596.760
581.6385, 1607.070
582.1207, 1615.618
582.6028, 1635.270
583.0849, 1664.359
583.5670, 1691.146
584.0491, 1711.053
584.5313, 1724.333
585.0134, 1729.005
585.4955, 1720.317
585.9776, 1717.738
586.4597, 1730.661
586.9418, 1750.424
587.4240, 1767.078
587.9061, 1777.859
588.3882, 1789.375
588.8703, 1802.166
589.3524, 1816.186
589.8345, 1832.753
590.3167, 1853.974
590.7988, 1869.511
591.2809, 1872.045
591.7630, 1864.683
592.2451, 1863.606
592.7272, 1869.017
593.2094, 1875.751
593.6915, 1879.754
594.1736, 1881.975
594.6557, 1883.854
595.1378, 1885.220
595.6199, 1887.831
596.1021, 1895.728
596.5842, 1904.976
597.0663, 1909.983
597.5485, 1902.225
598.0306, 1896.897
598.5127, 1901.827
598.9948, 1914.007
599.4769, 1920.200
599.9590, 1915.929
600.4412, 1910.140
600.9233, 1905.037
601.4054, 1900.461
601.8875, 1899.395
602.3696, 1903.405
602.8517, 1907.096
603.3339, 1904.243
603.8160, 1895.588
604.2981, 1892.616
604.7802, 1898.244
605.2623, 1904.035
605.7444, 1900.059
606.2266, 1887.476
606.7087, 1869.488
607.1908, 1842.219
607.6729, 1814.971
608.1550, 1795.778
608.6371, 1782.772
609.1193, 1769.222
609.6014, 1751.784
610.0835, 1733.833
610.5656, 1718.588
611.0477, 1707.322
611.5298, 1689.390
612.0120, 1658.348
612.4941, 1626.891
612.9762, 1605.178
613.4583, 1598.444
613.9404, 1581.236
614.4225, 1548.550
614.9047, 1512.379
615.3868, 1490.388
615.8689, 1481.489
616.3510, 1473.977
616.8331, 1465.165
617.3152, 1455.042
617.7974, 1444.139
618.2795, 1432.057
618.7616, 1416.765
619.2437, 1391.399
619.7258, 1366.770
620.2079, 1351.893
620.6901, 1347.246
621.1722, 1343.066
621.6543, 1332.036
622.1364, 1323.110
622.6185, 1324.188
623.1006, 1348.808
623.5828, 1352.861
624.0649, 1324.349
624.5470, 1286.276
625.0291, 1266.847
625.5112, 1269.346
625.9933, 1273.581
626.4755, 1277.326
626.9576, 1278.944
627.4397, 1274.713
627.9218, 1264.951
628.4039, 1252.105
628.8860, 1233.406
629.3682, 1214.343
629.8503, 1202.515
630.3324, 1197.469
630.8145, 1196.074
631.2966, 1199.114
631.7787, 1203.357
632.2609, 1207.057
632.7430, 1210.591
633.2251, 1211.143
633.7072, 1203.901
