##NAMES=Parsonsite
##RRUFFID=R060154
##IDEAL CHEMISTRY=Pb^2+^_2_(U^6+^O_2_)(PO_4_)_2_&#183;0-2H_2_O
##LOCALITY=Faye, near Grury, France
##OWNER=RRUFF
##SOURCE=Marcus Origlieri
##DESCRIPTION=Yellow acicular crystals in radial aggregates
##STATUS=The identification of this mineral has been confirmed by X-ray diffraction and chemical analysis
##URL=rruff.info/R060154
##MEASURED CHEMISTRY=Pb_2.18_(UO_2_)_1.09_(PO_4_)_1.82_Â·1.99H_2_O
92.02539, 577.9871
92.50751, 584.9236
92.98962, 592.3909
93.47174, 592.1094
93.95386, 588.6229
94.43597, 581.3649
94.91809, 570.4865
95.40021, 557.4443
95.88232, 544.8176
96.36444, 533.1104
96.84656, 521.1767
97.32867, 508.4137
97.81078, 495.5908
98.29290, 483.9026
98.77502, 473.9779
99.25713, 465.1162
99.73925, 457.2679
100.2214, 450.1261
100.7035, 444.0186
101.1856, 439.3041
101.6677, 435.8161
102.1498, 432.9444
102.6320, 429.9654
103.1141, 426.6203
103.5962, 423.7700
104.0783, 421.8399
104.5604, 420.1610
105.0425, 417.9908
105.5247, 415.0555
106.0068, 411.6579
106.4889, 408.2559
106.9710, 404.9025
107.4531, 401.2529
107.9352, 396.7047
108.4173, 391.4985
108.8995, 386.9836
109.3816, 383.8012
109.8637, 381.4574
110.3458, 379.3578
110.8279, 377.4092
111.3100, 375.7745
111.7922, 374.7649
112.2743, 374.6183
112.7564, 374.3388
113.2385, 373.5594
113.7206, 372.5673
114.2027, 371.5323
114.6849, 370.5039
115.1670, 369.5688
115.6491, 369.0554
116.1312, 369.1409
116.6133, 369.5073
117.0954, 370.3434
117.5776, 371.3834
118.0597, 372.2517
118.5418, 372.6817
119.0239, 372.6654
119.5060, 372.6126
119.9881, 372.3578
120.4703, 372.2159
120.9524, 372.2831
121.4345, 372.5710
121.9166, 373.0932
122.3987, 373.9271
122.8808, 375.1378
123.3630, 376.0460
123.8451, 376.4973
124.3272, 376.7244
124.8093, 376.8872
125.2914, 376.9888
125.7735, 377.1546
126.2557, 377.5904
126.7378, 378.2384
127.2199, 378.8896
127.7020, 379.4141
128.1841, 379.8715
128.6662, 380.5080
129.1483, 381.6887
129.6305, 382.6207
130.1126, 382.6910
130.5947, 381.9546
131.0768, 380.9602
131.5589, 380.1699
132.0410, 379.6221
132.5232, 378.9741
133.0053, 377.8200
133.4874, 376.8015
133.9695, 376.3354
134.4516, 376.4760
134.9337, 376.9026
135.4159, 377.0830
135.8980, 376.6394
136.3801, 376.7020
136.8622, 377.7789
137.3443, 379.0605
137.8264, 379.8183
138.3086, 379.7830
138.7907, 379.2569
139.2728, 379.0705
139.7549, 379.2121
140.2370, 379.7394
140.7191, 381.2270
141.2013, 383.0189
141.6834, 384.0323
142.1655, 383.5891
142.6476, 382.1180
143.1297, 381.5447
143.6118, 382.1292
144.0939, 383.1066
144.5761, 384.3684
145.0582, 385.8454
145.5403, 387.2315
146.0224, 388.3589
146.5045, 389.2333
146.9866, 389.9790
147.4688, 390.5171
147.9509, 390.9929
148.4330, 391.5415
148.9151, 392.1718
149.3972, 392.8211
149.8793, 393.4886
150.3615, 394.1486
150.8436, 394.7894
151.3257, 395.5228
151.8078, 396.1740
152.2899, 396.2881
152.7720, 395.6019
153.2542, 394.8032
153.7363, 394.2339
154.2184, 393.7529
154.7005, 393.1269
155.1826, 392.1747
155.6647, 390.9356
156.1469, 389.8456
156.6290, 389.2296
157.1111, 388.4443
157.5932, 387.0630
158.0753, 385.3543
158.5574, 383.9056
159.0396, 383.2531
159.5217, 383.5076
160.0038, 383.5547
160.4859, 383.3401
160.9680, 383.0029
161.4501, 382.4618
161.9323, 381.7994
162.4144, 381.2656
162.8965, 381.1283
163.3786, 381.4883
163.8607, 381.9016
164.3428, 382.4172
164.8250, 382.9476
165.3071, 383.3868
165.7892, 383.7289
166.2713, 384.1218
166.7534, 384.8205
167.2355, 385.9051
167.7177, 386.6602
168.1998, 386.8629
168.6819, 386.7505
169.1640, 386.6079
169.6461, 386.4891
170.1282, 386.3568
170.6104, 386.0301
171.0925, 385.5311
171.5746, 385.3770
172.0567, 386.0449
172.5388, 387.2448
173.0209, 388.1136
173.5031, 388.3929
173.9852, 388.4224
174.4673, 388.4367
174.9494, 388.4518
175.4315, 388.6431
175.9136, 389.1680
176.3958, 390.0189
176.8779, 390.9655
177.3600, 392.1664
177.8421, 393.2930
178.3242, 394.0130
178.8063, 394.3757
179.2885, 394.8305
179.7706, 395.9742
180.2527, 398.0539
180.7348, 399.7495
181.2169, 400.5686
181.6990, 401.2918
182.1812, 402.2952
182.6633, 403.6514
183.1454, 405.2080
183.6275, 406.8213
184.1096, 408.7492
184.5917, 410.1329
185.0738, 410.6980
185.5560, 411.0134
186.0381, 411.4839
186.5202, 412.2067
187.0023, 412.9794
187.4844, 413.4319
187.9665, 413.0568
188.4487, 413.1959
188.9308, 414.4742
189.4129, 415.9356
189.8950, 416.5565
190.3771, 416.0082
190.8592, 414.9463
191.3414, 414.6620
191.8235, 415.6481
192.3056, 416.4839
192.7877, 416.8447
193.2698, 417.0216
193.7519, 417.4725
194.2341, 418.4076
194.7162, 419.4984
195.1983, 420.0225
195.6804, 419.9129
196.1625, 419.7155
196.6446, 419.3945
197.1268, 419.1013
197.6089, 419.2362
198.0910, 420.0602
198.5731, 421.1781
199.0552, 421.9936
199.5373, 422.5187
200.0195, 422.8262
200.5016, 422.7888
200.9837, 422.5010
201.4658, 422.4944
201.9479, 423.1916
202.4300, 423.9609
202.9122, 423.9740
203.3943, 423.1288
203.8764, 422.3986
204.3585, 422.9532
204.8406, 424.7816
205.3227, 425.6324
205.8048, 424.4590
206.2870, 422.4045
206.7691, 420.0239
207.2512, 417.4064
207.7333, 414.9912
208.2154, 413.3428
208.6975, 412.5890
209.1797, 411.8458
209.6618, 411.0577
210.1439, 410.1738
210.6260, 409.0955
211.1081, 407.8279
211.5902, 406.5488
212.0724, 405.5233
212.5545, 404.8887
213.0366, 404.1040
213.5187, 402.8479
214.0008, 401.6422
214.4829, 400.8994
214.9651, 400.6596
215.4472, 400.5501
215.9293, 400.0226
216.4114, 398.8827
216.8935, 397.6893
217.3756, 396.3895
217.8578, 395.0875
218.3399, 393.7805
218.8220, 392.5028
219.3041, 391.3701
219.7862, 390.6075
220.2683, 390.6288
220.7505, 390.2022
221.2326, 388.5987
221.7147, 387.0420
222.1968, 386.6729
222.6789, 387.6899
223.1610, 389.2267
223.6432, 390.0279
224.1253, 389.8361
224.6074, 389.2551
225.0895, 387.9533
225.5716, 386.4505
226.0537, 385.2374
226.5358, 384.4219
227.0180, 383.7583
227.5001, 382.9136
227.9822, 381.8456
228.4643, 380.7065
228.9464, 379.4037
229.4285, 378.0804
229.9107, 376.8713
230.3928, 375.8041
230.8749, 374.9205
231.3570, 374.4101
231.8391, 374.3443
232.3212, 373.9149
232.8034, 372.6863
233.2855, 371.1486
233.7676, 369.8806
234.2497, 368.9825
234.7318, 368.3739
235.2139, 368.0187
235.6961, 367.8903
236.1782, 367.9550
236.6603, 368.3190
237.1424, 368.8380
237.6245, 369.3318
238.1066, 369.8103
238.5888, 370.1570
239.0709, 370.1489
239.5530, 369.8913
240.0351, 369.7101
240.5172, 369.6414
240.9993, 369.7321
241.4815, 370.1253
241.9636, 370.9292
242.4457, 371.7767
242.9278, 372.2909
243.4099, 372.6394
243.8920, 373.1937
244.3742, 374.3359
244.8563, 375.7533
245.3384, 376.7248
245.8205, 377.1674
246.3026, 377.3250
246.7847, 377.2535
247.2668, 377.0299
247.7490, 376.7334
248.2311, 376.2241
248.7132, 375.7524
249.1953, 376.1021
249.6774, 377.8972
250.1595, 379.2246
250.6417, 379.0187
251.1238, 378.0089
251.6059, 377.1140
252.0880, 376.7966
252.5701, 376.7881
253.0522, 376.3719
253.5344, 375.2980
254.0165, 374.3060
254.4986, 373.6423
254.9807, 373.1578
255.4628, 372.7029
255.9449, 372.2222
256.4271, 371.7154
256.9092, 371.1869
257.3913, 370.6862
257.8734, 370.0617
258.3555, 369.1582
258.8376, 368.2030
259.3198, 367.4601
259.8019, 367.0391
260.2840, 366.7159
260.7661, 365.9522
261.2482, 364.2653
261.7303, 363.0779
262.2125, 362.7758
262.6946, 362.8060
263.1767, 362.7732
263.6588, 362.5359
264.1409, 362.1140
264.6230, 361.4782
265.1052, 360.2745
265.5873, 359.5778
266.0694, 359.7987
266.5515, 360.2135
267.0336, 360.2764
267.5157, 359.8742
267.9979, 359.2877
268.4800, 358.9420
268.9621, 359.0050
269.4442, 358.9538
269.9263, 358.6732
270.4084, 358.3888
270.8906, 358.3141
271.3727, 358.4414
271.8548, 358.5380
272.3369, 358.2895
272.8190, 357.5162
273.3011, 357.0151
273.7833, 356.9886
274.2654, 357.0136
274.7475, 356.6823
275.2296, 356.0938
275.7117, 355.1708
276.1938, 355.7461
276.6760, 355.9659
277.1581, 355.8494
277.6402, 354.3894
278.1223, 354.6643
278.6044, 354.2439
279.0865, 353.7950
279.5686, 354.3141
280.0508, 353.0495
280.5329, 353.5533
281.0150, 353.3511
281.4971, 352.1814
281.9792, 351.2906
282.4613, 350.7188
282.9435, 350.3961
283.4256, 350.2012
283.9077, 350.1017
284.3898, 350.0344
284.8719, 349.4241
285.3540, 347.7024
285.8362, 346.1585
286.3183, 345.0871
286.8004, 344.4293
287.2825, 344.0986
287.7646, 344.0762
288.2467, 344.2752
288.7289, 344.3934
289.2110, 344.4781
289.6931, 344.4373
290.1752, 344.1350
290.6573, 343.7313
291.1394, 343.4964
291.6216, 343.5465
292.1037, 343.6920
292.5858, 343.5109
293.0679, 342.7055
293.5500, 342.1572
294.0321, 342.0091
294.5143, 342.1370
294.9964, 342.4812
295.4785, 343.0245
295.9606, 343.5878
296.4427, 343.9080
296.9248, 343.8835
297.4070, 343.9039
297.8891, 343.7026
298.3712, 343.7172
298.8533, 344.4913
299.3354, 346.0565
299.8175, 347.8012
300.2997, 349.1224
300.7818, 349.9389
301.2639, 350.7091
301.7460, 351.4315
302.2281, 352.1029
302.7102, 352.6215
303.1924, 353.0336
303.6745, 353.6679
304.1566, 354.8996
304.6387, 356.6525
305.1208, 357.6867
305.6029, 357.1983
306.0851, 356.8420
306.5672, 357.5680
307.0493, 359.1480
307.5314, 360.7802
308.0135, 362.0097
308.4956, 362.9485
308.9778, 364.0717
309.4599, 365.3793
309.9420, 366.8267
310.4241, 368.4308
310.9062, 370.1612
311.3883, 371.9947
311.8705, 373.9526
312.3526, 375.8915
312.8347, 377.4278
313.3168, 378.4474
313.7989, 379.4339
314.2810, 380.3517
314.7632, 381.3324
315.2453, 382.5746
315.7274, 384.1337
316.2095, 385.8954
316.6916, 387.7433
317.1737, 389.7112
317.6559, 391.6434
318.1380, 393.5972
318.6201, 395.4698
319.1022, 397.0889
319.5843, 398.4582
320.0664, 399.8345
320.5485, 401.4418
321.0306, 403.3007
321.5128, 405.3289
321.9949, 407.9818
322.4770, 410.4289
322.9591, 411.8154
323.4412, 412.3685
323.9233, 413.3382
324.4055, 415.6874
324.8876, 419.1505
325.3697, 421.6552
325.8518, 422.6616
326.3339, 423.4719
326.8160, 424.5550
327.2982, 425.8024
327.7803, 426.9585
328.2624, 427.8926
328.7445, 428.6998
329.2266, 429.6517
329.7087, 430.8889
330.1909, 432.0005
330.6730, 432.8664
331.1551, 433.5775
331.6372, 434.2231
332.1193, 434.8279
332.6014, 435.4433
333.0836, 436.1864
333.5657, 437.2065
334.0478, 437.8520
334.5299, 437.8985
335.0120, 437.6928
335.4941, 437.4045
335.9763, 437.0992
336.4584, 436.9773
336.9405, 437.3137
337.4226, 438.1786
337.9047, 438.4149
338.3868, 437.7604
338.8690, 436.8089
339.3511, 435.7693
339.8332, 434.6777
340.3153, 433.5702
340.7974, 432.4702
341.2795, 431.3738
341.7617, 430.2661
342.2438, 429.1590
342.7259, 428.0345
343.2080, 426.9827
343.6901, 425.8889
344.1722, 424.6089
344.6544, 423.0917
345.1365, 421.3282
345.6186, 419.2913
346.1007, 416.6184
346.5828, 414.2225
347.0649, 412.3230
347.5471, 410.5951
348.0292, 408.7173
348.5113, 406.6574
348.9934, 404.6270
349.4755, 402.9197
349.9576, 401.6195
350.4398, 400.2840
350.9219, 398.8687
351.4040, 397.4607
351.8861, 396.2137
352.3682, 395.0441
352.8503, 393.6534
353.3325, 391.7700
353.8146, 389.4542
354.2967, 387.6386
354.7788, 386.9384
355.2609, 386.0344
355.7430, 384.4478
356.2252, 382.5449
356.7073, 380.9293
357.1894, 379.8979
357.6715, 379.1053
358.1536, 377.6126
358.6357, 374.3804
359.1179, 372.0620
359.5999, 371.2135
360.0821, 370.9423
360.5642, 370.6978
361.0463, 370.2895
361.5284, 369.6337
362.0105, 368.5424
362.4926, 366.7876
362.9748, 365.4975
363.4569, 365.1913
363.9390, 364.8391
364.4211, 363.9466
364.9032, 362.6124
365.3853, 361.2343
365.8675, 360.1198
366.3496, 359.2290
366.8317, 358.1529
367.3138, 356.3626
367.7959, 355.0906
368.2780, 354.8925
368.7602, 355.2345
369.2423, 355.5045
369.7244, 355.4432
370.2065, 355.1218
370.6886, 354.6783
371.1707, 354.1365
371.6529, 353.3959
372.1350, 351.9620
372.6171, 350.6757
373.0992, 350.2366
373.5813, 350.6702
374.0634, 351.2748
374.5456, 351.4015
375.0277, 351.0433
375.5098, 350.3483
375.9919, 348.8263
376.4740, 347.5215
376.9561, 346.9765
377.4383, 347.0052
377.9204, 347.1833
378.4025, 347.3634
378.8846, 347.4724
379.3667, 347.2548
379.8488, 346.5644
380.3310, 345.9258
380.8131, 345.5667
381.2952, 345.3577
381.7773, 345.1464
382.2594, 344.8638
382.7415, 344.7148
383.2237, 345.0197
383.7058, 345.7752
384.1879, 346.3965
384.6700, 346.6555
385.1521, 346.8225
385.6342, 347.2184
386.1164, 347.8156
386.5985, 348.2437
387.0806, 348.0454
387.5627, 347.5517
388.0448, 347.6921
388.5269, 348.7543
389.0091, 349.7248
389.4912, 349.5934
389.9733, 348.8118
390.4554, 348.3636
390.9375, 348.5625
391.4196, 349.0602
391.9018, 349.7042
392.3839, 350.4550
392.8660, 350.9220
393.3481, 350.9233
393.8302, 350.5356
394.3123, 349.8183
394.7945, 348.5081
395.2766, 347.7093
395.7587, 348.2087
396.2408, 349.4138
396.7229, 350.3885
397.2050, 350.9460
397.6872, 351.1366
398.1693, 350.8809
398.6514, 350.1196
399.1335, 349.7668
399.6156, 350.1098
400.0977, 350.6689
400.5798, 351.2022
401.0620, 351.6658
401.5441, 351.9947
402.0262, 352.1454
402.5083, 352.1318
402.9904, 352.0117
403.4725, 351.9635
403.9547, 351.6111
404.4368, 350.7056
404.9189, 349.5235
405.4010, 348.3986
405.8831, 347.4409
406.3652, 346.5677
406.8474, 345.6651
407.3295, 344.7421
407.8116, 343.7735
408.2937, 342.7574
408.7758, 341.7091
409.2579, 340.6088
409.7401, 339.4770
410.2222, 338.3255
410.7043, 337.1122
411.1864, 335.8996
411.6685, 335.1952
412.1506, 335.5145
412.6328, 335.7393
413.1149, 335.5794
413.5970, 335.3003
414.0791, 335.2866
414.5612, 335.6520
415.0433, 336.0328
415.5255, 335.7361
416.0076, 334.4029
416.4897, 333.6357
416.9718, 334.0198
417.4539, 334.5841
417.9360, 334.9474
418.4182, 335.0977
418.9003, 335.1517
419.3824, 335.1602
419.8645, 335.1437
420.3466, 335.1490
420.8287, 335.0194
421.3109, 335.2514
421.7930, 336.4962
422.2751, 337.9945
422.7572, 338.8288
423.2393, 338.6723
423.7214, 338.1806
424.2036, 337.9493
424.6857, 337.9799
425.1678, 338.3571
425.6499, 339.4634
426.1320, 340.4565
426.6141, 340.3734
427.0963, 339.3677
427.5784, 338.6412
428.0605, 339.0927
428.5426, 339.9713
429.0247, 339.8770
429.5068, 338.6589
429.9890, 337.8734
430.4711, 338.7915
430.9532, 340.8343
431.4353, 342.0089
431.9174, 341.8955
432.3995, 341.5293
432.8817, 341.3207
433.3638, 341.2403
433.8459, 341.2493
434.3280, 341.3456
434.8101, 341.4585
435.2922, 341.4919
435.7744, 341.4284
436.2565, 341.3275
436.7386, 341.2287
437.2207, 341.0589
437.7028, 340.8296
438.1849, 340.4969
438.6671, 339.9223
439.1492, 339.0029
439.6313, 337.7759
440.1134, 336.4777
440.5955, 334.8033
441.0776, 333.4391
441.5598, 332.6963
442.0418, 332.1870
442.5240, 331.5097
443.0061, 330.5712
443.4882, 329.5743
443.9703, 328.8371
444.4524, 328.4959
444.9345, 327.7707
445.4167, 326.0895
445.8988, 324.5905
446.3809, 323.8896
446.8630, 323.6598
447.3451, 323.2060
447.8272, 322.1056
448.3094, 320.6251
448.7915, 319.3808
449.2736, 318.3169
449.7557, 317.6518
450.2378, 317.8692
450.7199, 318.2138
451.2021, 318.1446
451.6842, 317.6057
452.1663, 316.9096
452.6484, 316.3407
453.1305, 315.8306
453.6126, 314.9882
454.0948, 313.5581
454.5769, 312.3669
455.0590, 311.6988
455.5411, 312.2807
456.0232, 312.5073
456.5053, 312.3976
456.9875, 310.9442
457.4696, 311.2259
457.9517, 310.8122
458.4338, 310.3701
458.9159, 310.8959
459.3980, 309.6380
459.8802, 310.1484
460.3623, 309.9530
460.8444, 310.0807
461.3265, 309.5088
461.8086, 309.1529
462.2907, 309.4969
462.7729, 309.4533
463.2550, 308.8008
463.7371, 308.9490
464.2192, 307.6667
464.7013, 306.5059
465.1834, 303.8640
465.6656, 301.6649
466.1477, 300.2918
466.6298, 299.3921
467.1119, 298.6468
467.5940, 297.9508
468.0761, 297.3108
468.5583, 296.7785
469.0404, 296.4232
469.5225, 295.6940
470.0046, 294.1806
470.4867, 292.7127
470.9688, 291.4912
471.4510, 290.4967
471.9331, 289.6723
472.4152, 288.9888
472.8973, 288.4645
473.3794, 288.2368
473.8615, 288.4609
474.3437, 288.3162
474.8258, 287.4254
475.3079, 286.2837
475.7900, 285.0663
476.2721, 283.8407
476.7542, 282.7799
477.2364, 282.0059
477.7185, 281.4762
478.2006, 281.1995
478.6827, 281.2614
479.1648, 281.0396
479.6469, 279.8357
480.1291, 278.3295
480.6112, 277.8795
481.0933, 279.0697
481.5754, 279.8407
482.0575, 278.8327
482.5396, 276.7715
483.0217, 274.8693
483.5038, 273.3501
483.9860, 272.2886
484.4681, 271.8820
484.9502, 272.1617
485.4323, 272.0199
485.9144, 271.0403
486.3965, 270.1075
486.8787, 269.6003
487.3608, 269.3983
487.8429, 269.3164
488.3250, 269.2781
488.8071, 269.1735
489.2892, 268.7907
489.7714, 267.9641
490.2535, 267.2522
490.7356, 266.6257
491.2177, 266.1202
491.6998, 265.8673
492.1819, 265.7539
492.6641, 265.5066
493.1462, 264.9255
493.6283, 264.1578
494.1104, 263.6470
494.5925, 263.4804
495.0746, 263.3378
495.5568, 263.2510
496.0389, 263.0890
496.5210, 262.6851
497.0031, 262.0573
497.4852, 261.4846
497.9673, 261.3145
498.4495, 261.3412
498.9316, 260.9040
499.4137, 259.8623
499.8958, 258.9178
500.3779, 258.5719
500.8600, 258.5563
501.3422, 258.2957
501.8243, 257.6498
502.3064, 257.0001
502.7885, 256.5412
503.2706, 256.2029
503.7527, 255.8326
504.2349, 255.3977
504.7170, 255.0317
505.1991, 254.9229
505.6812, 255.0958
506.1633, 254.8871
506.6454, 253.8499
507.1276, 252.9718
507.6097, 252.6731
508.0918, 252.7511
508.5739, 252.9511
509.0560, 253.1649
509.5381, 253.2775
510.0203, 253.0742
510.5024, 252.4323
510.9845, 251.8961
511.4666, 251.5997
511.9487, 251.2776
512.4308, 250.8213
512.9130, 250.2608
513.3951, 249.6397
513.8772, 248.9460
514.3593, 248.3019
514.8414, 247.9398
515.3235, 247.8801
515.8057, 247.9550
516.2878, 248.3251
516.7699, 248.6133
517.2520, 248.4588
517.7341, 247.9128
518.2162, 247.3648
518.6984, 246.9246
519.1805, 246.5983
519.6626, 246.4653
520.1447, 246.5040
520.6268, 246.4115
521.1089, 245.9661
521.5911, 245.3941
522.0732, 245.2766
522.5553, 245.7939
523.0374, 246.1473
523.5195, 246.1142
524.0016, 245.9271
524.4838, 245.8352
524.9659, 245.8121
525.4480, 245.5850
525.9301, 244.9164
526.4122, 243.9421
526.8943, 243.3637
527.3765, 243.6475
527.8586, 243.6720
528.3407, 243.0406
528.8228, 242.3353
529.3049, 242.1068
529.7870, 242.3588
530.2692, 242.6213
530.7513, 242.4543
531.2334, 241.9395
531.7155, 241.5520
532.1976, 241.3049
532.6797, 241.1598
533.1619, 241.0468
533.6440, 241.0586
534.1261, 241.4290
534.6082, 242.2680
535.0903, 242.8495
535.5724, 242.4699
536.0546, 241.5444
536.5367, 240.9961
537.0188, 240.9606
537.5009, 240.9562
537.9830, 240.5866
538.4651, 239.9505
538.9473, 239.6110
539.4294, 239.7404
539.9115, 239.9157
540.3936, 240.2687
540.8757, 240.4858
541.3578, 240.0332
541.8400, 238.8810
542.3221, 237.6210
542.8042, 236.8415
543.2863, 236.5462
543.7684, 236.5159
544.2505, 237.2348
544.7326, 237.6325
545.2147, 237.3573
545.6968, 236.7383
546.1790, 236.0818
546.6611, 235.4827
547.1432, 234.9737
547.6253, 234.5715
548.1074, 234.2823
548.5895, 234.2270
549.0717, 234.5183
549.5538, 234.8109
550.0359, 235.0310
550.5180, 235.0843
551.0001, 234.7104
551.4822, 233.6144
551.9644, 232.7096
552.4465, 232.7755
552.9286, 233.3969
553.4107, 233.6477
553.8928, 233.3390
554.3749, 233.0874
554.8571, 233.5538
555.3392, 234.6998
555.8213, 235.0819
556.3034, 234.0547
556.7855, 233.1697
557.2676, 232.9534
557.7498, 233.0307
558.2319, 232.9425
558.7140, 232.5864
559.1961, 232.1868
559.6782, 232.0102
560.1603, 232.0620
560.6425, 231.9643
561.1246, 231.6584
561.6067, 231.2820
562.0888, 230.7973
562.5709, 230.3142
563.0530, 229.9426
563.5352, 229.7095
564.0173, 229.6052
564.4994, 229.7341
564.9815, 229.9907
565.4636, 229.9811
565.9457, 229.6187
566.4279, 229.2606
566.9100, 229.2111
567.3921, 229.3403
567.8742, 229.1794
568.3563, 228.4852
568.8384, 227.9079
569.3206, 227.6273
569.8027, 227.6036
570.2848, 227.9785
570.7669, 228.6690
571.2490, 229.1000
571.7311, 228.7167
572.2133, 227.6106
572.6954, 226.8054
573.1775, 226.4152
573.6596, 226.1902
574.1417, 226.0957
574.6238, 226.1441
575.1060, 226.3639
575.5881, 226.7488
576.0702, 227.2522
576.5523, 228.0034
577.0344, 228.8301
577.5165, 229.0263
577.9987, 228.4806
578.4808, 227.7736
578.9629, 226.9018
579.4450, 226.1812
579.9271, 226.1078
580.4092, 226.7893
580.8914, 227.4001
581.3735, 227.8171
581.8556, 227.8887
582.3377, 227.1571
582.8198, 225.7937
583.3019, 224.8092
583.7841, 224.8393
584.2662, 225.5045
584.7483, 225.7452
585.2304, 225.0039
585.7125, 224.7617
586.1946, 225.6685
586.6768, 226.4679
587.1589, 226.1776
587.6410, 225.1057
