##NAMES=Pascoite
##RRUFFID=R060574
##IDEAL CHEMISTRY=Ca_3_V^5+^_10_O_28_&#183;17H_2_O
##LOCALITY=Arrowhead Claim, Slick Rock, San Miguel County, Colorado, USA
##OWNER=RRUFF
##SOURCE=Michael Scott
##DESCRIPTION=Orange vitreous crust
##STATUS=The identification of this mineral has been confirmed by single-crystal X-ray diffraction.
##URL=rruff.info/R060574
125.385, 8999.024
125.867, 9942.859
126.349, 10879.480
126.831, 11798.190
127.313, 12709.780
127.796, 13639.660
128.278, 14577.820
128.760, 15543.800
129.242, 16578.990
129.724, 17718.789
130.206, 18843.689
130.688, 19955.289
131.170, 21020.150
131.652, 21984.100
132.135, 22788.660
132.617, 23479.480
133.099, 24203.199
133.581, 24921.850
134.063, 25750.600
134.545, 26704.051
135.027, 27782.131
135.509, 28980.881
135.992, 30283.199
136.474, 31704.211
136.956, 33306.539
137.438, 35148.039
137.920, 37148.289
138.402, 39270.289
138.884, 41524.059
139.366, 43895.480
139.848, 46427.039
140.331, 49117.949
140.813, 51724.020
141.295, 54353.711
141.777, 56777.488
142.259, 58921.891
142.741, 60772.219
143.223, 62325.090
143.705, 63584.078
144.188, 64541.699
144.670, 65193.840
145.152, 65481.648
145.634, 65533.770
146.116, 65343.961
146.598, 64945.020
147.080, 64413.910
147.562, 63815.949
148.044, 63127.590
148.527, 62461.852
149.009, 61799.090
149.491, 61170.031
149.973, 60559.551
150.455, 59986.012
150.937, 59498.430
151.419, 59161.211
151.901, 58999.750
152.383, 58945.371
152.866, 59031.891
153.348, 59180.480
153.830, 59341.059
154.312, 59505.012
154.794, 59697.328
155.276, 59958.211
155.758, 60346.109
156.240, 60674.762
156.723, 61012.980
157.205, 61257.102
157.687, 61346.109
158.169, 61260.852
158.651, 60991.750
159.133, 60526.629
159.615, 59840.391
160.097, 58940.238
160.579, 57807.828
161.062, 56474.102
161.544, 54951.461
162.026, 53242.770
162.508, 51399.559
162.990, 49512.391
163.472, 47512.770
163.954, 45562.328
164.436, 43652.641
164.919, 41796.301
165.401, 39982.738
165.883, 38221.328
166.365, 36520.039
166.847, 34928.711
167.329, 33464.949
167.811, 32078.910
168.293, 30759.820
168.775, 29513.230
169.258, 28356.980
169.740, 27297.410
170.222, 26315.150
170.704, 25379.369
171.186, 24471.250
171.668, 23650.029
172.150, 22965.420
172.632, 22363.689
173.115, 21774.180
173.597, 21171.490
174.079, 20583.730
174.561, 20059.801
175.043, 19601.551
175.525, 19191.740
176.007, 18836.369
176.489, 18526.859
176.971, 18253.381
177.454, 18013.340
177.936, 17805.301
178.418, 17632.090
178.900, 17498.311
179.382, 17372.971
179.864, 17232.881
180.346, 17098.240
180.828, 17003.420
181.311, 16960.689
181.793, 16955.400
182.275, 16970.680
182.757, 17009.740
183.239, 17047.631
183.721, 17062.779
184.203, 17074.080
184.685, 17120.881
185.167, 17220.990
185.650, 17343.061
186.132, 17427.461
186.614, 17465.891
187.096, 17519.461
187.578, 17619.760
188.060, 17745.471
188.542, 17861.240
189.024, 17960.500
189.507, 18038.520
189.989, 18084.711
190.471, 18100.840
190.953, 18099.051
191.435, 18088.039
191.917, 18060.980
192.399, 18002.820
192.881, 17906.391
193.363, 17786.080
193.846, 17663.270
194.328, 17543.221
194.810, 17397.561
195.292, 17194.381
195.774, 16963.580
196.256, 16764.471
196.738, 16617.500
197.220, 16485.109
197.702, 16311.410
198.185, 16096.580
198.667, 15884.090
199.149, 15679.880
199.631, 15487.820
200.113, 15317.420
200.595, 15174.700
201.077, 15043.510
201.559, 14903.850
202.042, 14754.360
202.524, 14612.430
203.006, 14478.890
203.488, 14356.520
203.970, 14254.980
204.452, 14179.530
204.934, 14111.270
205.416, 14021.710
205.898, 13911.660
206.381, 13821.230
206.863, 13772.640
207.345, 13745.240
207.827, 13706.420
208.309, 13647.800
208.791, 13594.100
209.273, 13578.400
209.755, 13597.280
210.238, 13611.930
210.720, 13613.990
211.202, 13607.680
211.684, 13591.140
212.166, 13561.540
212.648, 13543.840
213.130, 13564.210
213.612, 13620.450
214.094, 13693.610
214.577, 13796.550
215.059, 13907.140
215.541, 13994.920
216.023, 14055.970
216.505, 14120.550
216.987, 14220.170
217.469, 14350.870
217.951, 14469.920
218.434, 14547.750
218.916, 14628.150
219.398, 14753.580
219.880, 14926.230
220.362, 15117.560
220.844, 15305.650
221.326, 15494.800
221.808, 15711.260
222.290, 15971.870
222.773, 16246.920
223.255, 16505.330
223.737, 16749.189
224.219, 17022.539
224.701, 17355.301
225.183, 17747.080
225.665, 18164.820
226.147, 18524.400
226.630, 18980.689
227.112, 19652.070
227.594, 20514.891
228.076, 21471.230
228.558, 22514.869
229.040, 23594.240
229.522, 24482.359
230.004, 25055.400
230.486, 25583.189
230.969, 26123.170
231.451, 26701.430
231.933, 27402.789
232.415, 28278.510
232.897, 29295.830
233.379, 30344.350
233.861, 31426.680
234.343, 32529.490
234.826, 33689.762
235.308, 34859.070
235.790, 35933.730
236.272, 36858.711
236.754, 37679.570
237.236, 38506.262
237.718, 39412.121
238.200, 40208.621
238.682, 40878.699
239.165, 41414.570
239.647, 41808.160
240.129, 42055.898
240.611, 42166.590
241.093, 42155.090
241.575, 42046.230
242.057, 41757.270
242.539, 41193.699
243.021, 40487.238
243.504, 39767.840
243.986, 39069.410
244.468, 38356.449
244.950, 37576.629
245.432, 36678.051
245.914, 35823.980
246.396, 35043.359
246.878, 34284.488
247.361, 33500.852
247.843, 32693.570
248.325, 31888.520
248.807, 31124.570
249.289, 30404.260
249.771, 29710.150
250.253, 29049.520
250.735, 28401.859
251.217, 27751.980
251.700, 27102.670
252.182, 26464.609
252.664, 25840.039
253.146, 25228.260
253.628, 24671.211
254.110, 24228.619
254.592, 23774.539
255.074, 23240.420
255.557, 22656.971
256.039, 22095.400
256.521, 21599.650
257.003, 21169.160
257.485, 20785.811
257.967, 20363.410
258.449, 20089.180
258.931, 19962.549
259.413, 19844.311
259.896, 19739.170
260.378, 19647.127
260.860, 19568.205
261.342, 19502.393
261.824, 19449.686
262.306, 19410.086
262.788, 19383.594
263.270, 19370.207
263.753, 19369.930
264.235, 19382.760
264.717, 19408.699
265.199, 19447.742
265.681, 19499.895
266.163, 19565.164
266.645, 19643.535
267.127, 19735.006
267.609, 19839.590
268.091, 19952.301
268.574, 20065.500
269.056, 20229.859
269.538, 20445.150
270.020, 20717.910
270.502, 21079.631
270.984, 21481.430
271.466, 21899.551
271.948, 22336.750
272.431, 22807.539
272.913, 23331.580
273.395, 23909.240
273.877, 24485.270
274.359, 25046.000
274.841, 25626.141
275.323, 26246.631
275.805, 26898.551
276.288, 27551.830
276.770, 28198.250
277.252, 28832.609
277.734, 29439.010
278.216, 30020.051
278.698, 30559.990
279.180, 31067.199
279.662, 31527.131
280.144, 31912.670
280.627, 32210.920
281.109, 32431.180
281.591, 32592.359
282.073, 32697.090
282.555, 32709.580
283.037, 32578.340
283.519, 32352.359
284.001, 32109.270
284.483, 31864.990
284.966, 31585.471
285.448, 31230.551
285.930, 30810.369
286.412, 30384.500
286.894, 29981.000
287.376, 29573.270
287.858, 29121.090
288.340, 28616.010
288.823, 28108.490
289.305, 27615.529
289.787, 27132.980
290.269, 26649.189
290.751, 26161.131
291.233, 25677.100
291.715, 25203.561
292.197, 24735.330
292.680, 24318.869
293.162, 23982.119
293.644, 23686.289
294.126, 23406.119
294.608, 23136.170
295.090, 22867.490
295.572, 22586.270
296.054, 22293.279
296.536, 22045.000
297.018, 21863.080
297.501, 21702.471
297.983, 21543.689
298.465, 21387.580
298.947, 21243.869
299.429, 21118.250
299.911, 21008.211
300.393, 20901.811
300.875, 20818.230
301.358, 20714.971
301.840, 20545.170
302.322, 20363.580
302.804, 20258.980
303.286, 20266.330
303.768, 20314.439
304.250, 20252.029
304.732, 20006.779
305.215, 19763.850
305.697, 19504.551
306.179, 19266.381
306.661, 19088.561
307.143, 18971.180
307.625, 18869.311
308.107, 18726.930
308.589, 18533.660
309.071, 18356.471
309.554, 18203.631
310.036, 18060.230
310.518, 17925.070
311.000, 17795.391
311.482, 17667.520
311.964, 17539.199
312.446, 17409.859
312.928, 17280.391
313.410, 17140.891
313.893, 17019.529
314.375, 16936.381
314.857, 16872.461
315.339, 16801.061
315.821, 16707.539
316.303, 16610.801
316.785, 16541.150
317.267, 16501.789
317.750, 16468.260
318.232, 16433.520
318.714, 16400.600
319.196, 16372.600
319.678, 16350.300
320.160, 16330.620
320.642, 16312.910
321.124, 16296.350
321.607, 16274.560
322.089, 16240.270
322.571, 16211.380
323.053, 16218.230
323.535, 16258.230
324.017, 16281.380
324.499, 16253.860
324.981, 16210.760
325.463, 16195.220
325.945, 16211.500
326.428, 16238.340
326.910, 16252.090
327.392, 16257.560
327.874, 16313.450
328.356, 16454.529
328.838, 16610.330
329.320, 16790.660
329.802, 16960.551
330.285, 17038.150
330.767, 16983.029
331.249, 16805.420
331.731, 16538.869
332.213, 16020.320
332.695, 15618.080
333.177, 15424.260
333.659, 15330.070
334.142, 15237.550
334.624, 15116.650
335.106, 14981.100
335.588, 14851.940
336.070, 14736.790
336.552, 14605.980
337.034, 14439.880
337.516, 14277.380
337.999, 14142.040
338.481, 14029.230
338.963, 13917.970
339.445, 13793.590
339.927, 13656.610
340.409, 13508.810
340.891, 13324.220
341.373, 13168.260
341.855, 13076.820
342.337, 13016.200
342.820, 12931.030
343.302, 12787.520
343.784, 12649.220
344.266, 12537.068
344.748, 12489.683
345.230, 12426.580
345.712, 12348.595
346.194, 12211.162
346.677, 12149.450
347.159, 12029.690
347.641, 11951.980
348.123, 11893.800
348.605, 11845.680
349.087, 11776.960
349.569, 11676.490
350.051, 11572.920
350.534, 11493.190
351.016, 11434.170
351.498, 11382.150
351.980, 11347.960
352.462, 11310.200
352.944, 11238.640
353.426, 11139.860
353.908, 11060.630
354.390, 11035.120
354.873, 11047.710
355.355, 11023.440
355.837, 10934.130
356.319, 10850.500
356.801, 10794.200
357.283, 10750.700
357.765, 10696.780
358.247, 10625.270
358.729, 10554.980
359.212, 10517.570
359.694, 10536.820
360.176, 10529.590
360.658, 10481.120
361.140, 10423.230
361.622, 10367.600
362.104, 10318.280
362.586, 10279.050
363.069, 10253.760
363.551, 10241.370
364.033, 10230.790
364.515, 10223.890
364.997, 10216.210
365.479, 10202.790
365.961, 10189.370
366.443, 10184.400
366.926, 10192.210
367.408, 10203.060
367.890, 10200.690
368.372, 10183.170
368.854, 10173.800
369.336, 10183.560
369.818, 10198.320
370.300, 10204.520
370.782, 10202.120
371.264, 10201.800
371.747, 10212.870
372.229, 10228.950
372.711, 10233.350
373.193, 10221.880
373.675, 10218.310
374.157, 10247.770
374.639, 10303.150
375.121, 10339.190
375.604, 10333.740
376.086, 10328.090
376.568, 10350.870
377.050, 10391.780
377.532, 10423.830
378.014, 10434.850
378.496, 10432.520
378.978, 10433.290
379.461, 10438.980
379.943, 10445.170
380.425, 10446.120
380.907, 10451.400
381.389, 10466.750
381.871, 10493.930
382.353, 10533.360
382.835, 10584.360
383.317, 10646.830
383.800, 10731.500
384.282, 10730.475
384.764, 10828.508
385.246, 10902.498
385.728, 10953.730
386.210, 10947.070
386.692, 10972.880
387.174, 11034.590
387.656, 11095.460
388.139, 11153.790
388.621, 11221.810
389.103, 11315.720
389.585, 11410.350
390.067, 11477.780
390.549, 11518.280
391.031, 11570.350
391.513, 11665.510
391.996, 11786.640
392.478, 11890.380
392.960, 11967.400
393.442, 12059.180
393.924, 12209.280
394.406, 12402.060
394.888, 12559.990
395.370, 12648.160
395.853, 12730.570
396.335, 12835.670
396.817, 12960.730
397.299, 13102.970
397.781, 13263.380
398.263, 13426.900
398.745, 13565.000
399.227, 13659.840
399.709, 13762.170
400.191, 13878.700
400.674, 13996.180
401.156, 14104.620
401.638, 14204.830
402.120, 14305.460
402.602, 14418.580
403.084, 14539.430
403.566, 14623.740
404.048, 14653.520
404.531, 14669.740
405.013, 14682.890
405.495, 14689.490
405.977, 14683.490
406.459, 14662.490
406.941, 14636.880
407.423, 14623.430
407.905, 14621.690
408.388, 14601.680
408.870, 14551.150
409.352, 14491.180
409.834, 14430.450
410.316, 14372.160
410.798, 14338.510
411.280, 14352.310
411.762, 14385.070
412.244, 14403.730
412.727, 14408.970
413.209, 14417.040
413.691, 14432.460
414.173, 14459.760
414.655, 14517.060
415.137, 14607.000
415.619, 14714.990
416.101, 14808.100
416.583, 14932.350
417.066, 15077.590
417.548, 15296.216
418.030, 15497.024
418.512, 15681.019
418.994, 15797.620
419.476, 16001.190
419.958, 16169.914
420.440, 16337.196
420.922, 16553.008
421.405, 16679.441
421.887, 16889.730
422.369, 17004.211
422.851, 17182.350
423.333, 17338.850
423.815, 17472.779
424.297, 17598.340
424.780, 17734.400
425.262, 17846.949
425.744, 17910.779
426.226, 17927.340
426.708, 17913.090
427.190, 17871.430
427.672, 17805.859
428.154, 17723.711
428.636, 17625.680
429.118, 17502.449
429.601, 17359.350
430.083, 17181.830
430.565, 16915.650
431.047, 16377.550
431.529, 16012.960
432.011, 15696.208
432.493, 15452.175
432.975, 15190.416
433.458, 14912.007
433.940, 14566.880
434.422, 14307.910
434.904, 14014.424
435.386, 13738.030
435.868, 13273.600
436.350, 12902.710
436.832, 12627.770
437.315, 12419.110
437.797, 12236.140
438.279, 12059.300
438.761, 11900.800
439.243, 11789.460
439.725, 11731.900
440.207, 11662.040
440.689, 11549.040
441.171, 11438.260
441.654, 11374.920
442.136, 11353.750
442.618, 11320.610
443.100, 11232.850
443.582, 11130.880
444.064, 11070.150
444.546, 11050.310
445.028, 11037.960
445.510, 11016.360
445.993, 10987.580
446.475, 10958.900
446.957, 10933.430
447.439, 10902.570
447.921, 10851.730
448.403, 10802.530
448.885, 10784.010
449.367, 10795.970
449.849, 10806.630
450.332, 10781.810
450.814, 10721.730
451.296, 10685.560
451.778, 10685.590
452.260, 10696.340
452.742, 10724.220
453.224, 10753.790
453.707, 10763.730
454.189, 10746.260
454.671, 10722.950
455.153, 10717.540
455.635, 10729.070
456.117, 10734.700
456.599, 10700.460
457.081, 10713.777
457.563, 10748.457
458.046, 10777.952
458.528, 10802.540
459.010, 10807.531
459.492, 10837.830
459.974, 10857.983
460.456, 10877.721
460.938, 10911.582
461.420, 10919.419
461.902, 10953.061
462.385, 10976.398
462.867, 10997.350
463.349, 11004.890
463.831, 11016.490
464.313, 11028.030
464.795, 11030.680
465.277, 11030.960
465.759, 11048.930
466.241, 11102.420
466.724, 11172.690
467.206, 11200.270
467.688, 11169.040
468.170, 11145.700
468.652, 11152.960
469.134, 11171.320
469.616, 11190.000
470.098, 11207.660
470.581, 11217.240
471.063, 11209.250
471.545, 11192.750
472.027, 11185.580
472.509, 11188.630
472.991, 11184.710
473.473, 11160.690
473.955, 11122.710
474.438, 11095.060
474.920, 11056.710
475.402, 11032.149
475.884, 11031.566
476.366, 11025.166
476.848, 11013.257
477.330, 10979.343
477.812, 10973.844
478.294, 10956.957
478.777, 10939.601
479.259, 10938.102
479.741, 10907.387
480.223, 10905.637
480.705, 10892.325
481.187, 10884.304
481.669, 10864.821
482.151, 10848.580
482.634, 10860.520
483.116, 10850.820
483.598, 10825.340
484.080, 10808.420
484.562, 10807.260
485.044, 10796.350
485.526, 10745.490
486.008, 10664.920
486.490, 10618.810
486.973, 10644.510
487.455, 10664.290
487.937, 10635.710
488.419, 10585.630
488.901, 10555.100
489.383, 10555.080
489.865, 10568.540
490.347, 10575.990
490.829, 10577.360
491.312, 10572.630
491.794, 10566.910
492.276, 10548.300
492.758, 10499.300
493.240, 10439.980
493.722, 10399.680
494.204, 10390.770
494.686, 10393.390
495.168, 10388.390
495.651, 10375.740
496.133, 10351.790
496.615, 10308.460
497.097, 10271.130
497.579, 10269.170
498.061, 10295.800
498.543, 10309.470
499.026, 10305.040
499.508, 10288.150
499.990, 10245.920
500.472, 10196.560
500.954, 10176.160
501.436, 10196.180
501.918, 10235.250
502.400, 10264.690
502.882, 10283.870
503.365, 10296.350
503.847, 10295.470
504.329, 10294.700
504.811, 10303.010
505.293, 10313.030
505.775, 10309.970
506.257, 10285.460
506.739, 10259.820
507.221, 10260.580
507.704, 10285.300
508.186, 10309.210
508.668, 10327.130
509.150, 10345.630
509.632, 10373.650
510.114, 10409.190
510.596, 10437.000
511.078, 10454.940
511.560, 10465.630
512.043, 10462.610
512.525, 10455.030
513.007, 10457.860
513.489, 10476.110
513.971, 10507.300
514.453, 10551.330
514.935, 10613.710
515.417, 10658.020
515.899, 10683.260
516.382, 10689.500
516.864, 10656.750
517.346, 10611.050
517.828, 10593.060
518.310, 10619.190
518.792, 10661.990
519.274, 10693.230
519.756, 10716.060
520.239, 10747.660
520.721, 10793.730
521.203, 10837.460
521.685, 10862.870
522.167, 10871.030
522.649, 10884.950
523.131, 10913.860
523.613, 10937.850
524.096, 10942.850
524.578, 10941.230
525.060, 10952.110
525.542, 10979.250
526.024, 11008.440
526.506, 11022.000
526.988, 11019.220
527.470, 11026.920
527.953, 11061.440
528.435, 11081.710
528.917, 11059.870
529.399, 11024.040
529.881, 11008.350
530.363, 11021.410
530.845, 11045.360
531.327, 11076.260
531.809, 11106.890
532.292, 11115.050
532.774, 11097.530
533.256, 11088.480
533.738, 11117.190
534.220, 11174.620
534.702, 11205.500
535.184, 11175.100
535.666, 11166.360
536.148, 11211.060
536.631, 11268.040
537.113, 11301.570
537.595, 11307.820
538.077, 11302.130
538.559, 11295.540
539.041, 11287.960
539.523, 11279.250
540.005, 11269.010
540.487, 11258.840
540.970, 11250.970
541.452, 11242.080
541.934, 11228.210
542.416, 11209.040
542.898, 11188.750
543.380, 11176.030
543.862, 11158.110
544.344, 11117.280
544.826, 11057.680
545.309, 11000.660
545.791, 10957.980
546.273, 10920.790
546.755, 10866.550
547.237, 10779.160
547.719, 10707.910
548.201, 10659.030
548.683, 10618.800
549.166, 10588.570
549.648, 10560.710
550.130, 10520.620
550.612, 10461.170
551.094, 10385.950
551.576, 10285.190
552.058, 10165.340
552.540, 10081.770
553.023, 10053.650
553.505, 10048.230
553.987, 10041.200
554.469, 10031.820
554.951, 9992.977
555.433, 9907.487
555.915, 9811.839
556.397, 9703.205
556.880, 9600.539
557.362, 9537.183
557.844, 9518.509
558.326, 9506.720
558.808, 9452.709
559.290, 9357.881
559.772, 9296.384
560.254, 9286.320
560.736, 9274.083
561.219, 9236.126
561.701, 9182.739
562.183, 9121.118
562.665, 9048.254
563.147, 8985.983
563.629, 8952.811
564.111, 8931.624
564.593, 8899.071
565.075, 8854.949
565.558, 8814.122
566.040, 8787.158
566.522, 8767.558
567.004, 8733.220
567.486, 8662.347
567.968, 8617.291
568.450, 8624.448
568.932, 8633.784
569.414, 8619.257
569.897, 8581.926
570.379, 8530.233
570.861, 8457.941
571.343, 8390.004
571.825, 8367.459
572.307, 8383.896
572.789, 8396.247
573.271, 8395.606
573.753, 8381.138
574.236, 8346.648
574.718, 8290.380
575.200, 8253.414
575.682, 8250.260
576.164, 8248.536
576.646, 8239.583
577.128, 8225.232
577.610, 8206.379
578.093, 8184.182
578.575, 8163.701
579.057, 8150.079
579.539, 8142.744
580.021, 8139.248
580.503, 8142.463
580.985, 8138.688
581.467, 8113.683
581.950, 8083.315
582.432, 8075.030
582.914, 8094.583
583.396, 8107.718
583.878, 8096.927
584.360, 8081.831
584.842, 8078.355
585.324, 8085.775
585.807, 8101.860
586.289, 8126.634
586.771, 8146.172
587.253, 8125.226
587.735, 8046.859
588.217, 7999.119
588.699, 8009.198
589.181, 8024.131
589.664, 8018.424
590.146, 7997.829
590.628, 7972.752
591.110, 7940.969
591.592, 7916.164
592.074, 7911.469
592.556, 7919.305
593.038, 7925.873
593.520, 7929.110
594.003, 7934.656
594.485, 7947.783
594.967, 7966.529
595.449, 7978.904
595.931, 7982.764
596.413, 7983.242
596.895, 7984.930
597.377, 7980.477
597.859, 7959.715
598.342, 7926.603
598.824, 7898.214
599.306, 7880.292
599.788, 7874.670
600.270, 7890.341
600.752, 7922.567
601.234, 7947.147
601.716, 7957.005
602.198, 7958.634
602.681, 7959.653
603.163, 7960.834
603.645, 7952.564
604.127, 7922.776
604.609, 7899.281
605.091, 7888.781
605.573, 7888.229
606.055, 7898.004
606.537, 7916.208
607.020, 7931.032
607.502, 7924.927
607.984, 7909.075
608.466, 7920.761
608.948, 7961.581
609.430, 7984.554
609.912, 7963.188
610.394, 7925.825
610.877, 7919.486
611.359, 7955.545
611.841, 7980.290
612.323, 7985.153
612.805, 7986.104
613.287, 7993.180
613.769, 8000.995
614.251, 7995.415
614.734, 7972.420
615.216, 7954.058
615.698, 7975.945
616.180, 8029.600
616.662, 8051.955
617.144, 8032.754
617.626, 8018.342
618.108, 8038.252
618.591, 8075.421
619.073, 8089.934
619.555, 8071.612
620.037, 8063.117
620.519, 8079.837
621.001, 8101.083
621.483, 8110.632
621.965, 8112.618
622.447, 8120.944
622.930, 8142.532
623.412, 8166.383
623.894, 8170.470
624.376, 8155.079
624.858, 8161.313
625.340, 8203.154
625.822, 8239.810
626.304, 8237.324
626.786, 8212.868
