##NAMES=Paulingite-K
##RRUFFID=R070604
##IDEAL CHEMISTRY=(K,Ca,Na,Ba,[box])_10_(Si,Al)_42_O_84_&#183;34H_2_O
##LOCALITY=Squaw Creek, Riggins, Idaho County, Idaho, USA
##OWNER=RRUFF
##SOURCE=James Shigley
##DESCRIPTION=Vitreous colorless to pale-yellow cubes and dodecahedra
##STATUS=The identification of this mineral has been confirmed only by single crystal X-ray diffraction.
##URL=rruff.info/R070604
84.36755, 370.3036
84.84966, 346.4196
85.33178, 308.6040
85.81390, 281.0925
86.29601, 289.7462
86.77813, 315.2657
87.26025, 332.5535
87.74236, 324.1456
88.22448, 306.7057
88.70660, 299.3709
89.18871, 303.8810
89.67083, 308.2462
90.15295, 293.5704
90.63506, 266.4252
91.11718, 249.9861
91.59930, 266.8485
92.08141, 304.6543
92.56352, 330.7390
93.04564, 338.7722
93.52776, 336.6749
94.00987, 339.2899
94.49199, 346.9174
94.97411, 353.7227
95.45622, 353.9669
95.93834, 347.8625
96.42046, 341.9197
96.90257, 335.9077
97.38469, 330.7411
97.86681, 336.4325
98.34892, 356.9130
98.83104, 380.5791
99.31316, 390.2335
99.79527, 382.6896
100.2774, 372.5449
100.7595, 364.8620
101.2416, 359.9121
101.7237, 356.0187
102.2059, 352.1563
102.6880, 349.5464
103.1701, 351.1880
103.6522, 353.9872
104.1343, 364.7391
104.6164, 387.7002
105.0985, 431.3393
105.5807, 475.4011
106.0628, 521.1791
106.5449, 569.4034
107.0270, 606.2294
107.5091, 615.7675
107.9912, 621.1193
108.4734, 642.0865
108.9555, 689.8583
109.4376, 743.3103
109.9197, 798.5674
110.4018, 856.5693
110.8839, 914.5756
111.3661, 962.0115
111.8482, 1010.094
112.3303, 1076.332
112.8124, 1171.160
113.2945, 1280.304
113.7766, 1399.207
114.2588, 1534.188
114.7409, 1667.641
115.2230, 1780.659
115.7051, 1881.450
116.1872, 2004.739
116.6693, 2180.872
117.1515, 2379.871
117.6336, 2573.875
118.1157, 2737.475
118.5978, 2904.806
119.0799, 3098.526
119.5620, 3317.582
120.0442, 3549.413
120.5263, 3794.352
121.0084, 4047.144
121.4905, 4300.096
121.9726, 4557.856
122.4547, 4810.642
122.9369, 5046.863
123.4190, 5261.500
123.9011, 5464.419
124.3832, 5652.289
124.8653, 5831.877
125.3474, 6028.261
125.8296, 6269.484
126.3117, 6541.022
126.7938, 6809.277
127.2759, 7067.232
127.7580, 7320.196
128.2401, 7582.066
128.7223, 7854.479
129.2044, 8108.722
129.6865, 8304.291
130.1686, 8449.341
130.6507, 8596.952
131.1328, 8770.112
131.6150, 8961.848
132.0971, 9125.961
132.5792, 9261.756
133.0613, 9379.294
133.5434, 9492.580
134.0255, 9601.296
134.5076, 9698.714
134.9898, 9780.686
135.4719, 9846.826
135.9540, 9901.741
136.4361, 9936.863
136.9182, 9968.341
137.4003, 10039.79
137.8825, 10166.34
138.3646, 10294.93
138.8467, 10393.03
139.3288, 10449.38
139.8109, 10513.77
140.2930, 10598.54
140.7752, 10697.88
141.2573, 10763.02
141.7394, 10763.67
142.2215, 10765.05
142.7036, 10828.46
143.1857, 11004.68
143.6679, 11149.25
144.1500, 11161.69
144.6321, 11080.57
145.1142, 11021.28
145.5963, 11003.90
146.0784, 10998.01
146.5606, 10963.74
147.0427, 10863.21
147.5248, 10776.78
148.0069, 10730.33
148.4890, 10757.34
148.9711, 10754.78
149.4533, 10701.11
149.9354, 10619.68
150.4175, 10560.75
150.8996, 10546.00
151.3817, 10537.97
151.8638, 10522.27
152.3460, 10505.99
152.8281, 10472.89
153.3102, 10412.27
153.7923, 10329.75
154.2744, 10254.02
154.7565, 10185.69
155.2386, 10128.05
155.7208, 10082.48
156.2029, 10063.55
156.6850, 10043.09
157.1671, 10006.06
157.6492, 9951.836
158.1313, 9915.203
158.6135, 9921.108
159.0956, 9944.458
159.5777, 9958.026
160.0598, 9936.073
160.5419, 9915.586
161.0240, 9920.337
161.5062, 9959.153
161.9883, 9984.992
162.4704, 9970.486
162.9525, 9929.212
163.4346, 9884.721
163.9167, 9831.485
164.3989, 9787.793
164.8810, 9772.085
165.3631, 9800.095
165.8452, 9826.531
166.3273, 9821.485
166.8094, 9791.577
167.2916, 9757.367
167.7737, 9714.233
168.2558, 9678.459
168.7379, 9671.021
169.2200, 9718.687
169.7021, 9769.731
170.1843, 9779.851
170.6664, 9752.395
171.1485, 9712.181
171.6306, 9664.254
172.1127, 9616.279
172.5948, 9581.258
173.0770, 9569.806
173.5591, 9569.694
174.0412, 9571.021
174.5233, 9573.843
175.0054, 9570.092
175.4875, 9538.702
175.9697, 9493.049
176.4518, 9468.071
176.9339, 9501.319
177.4160, 9559.361
177.8981, 9583.462
178.3802, 9568.336
178.8624, 9537.289
179.3445, 9510.086
179.8266, 9487.273
180.3087, 9471.933
180.7908, 9466.572
181.2729, 9469.862
181.7551, 9480.860
182.2372, 9503.016
182.7193, 9524.698
183.2014, 9527.336
183.6835, 9511.755
184.1656, 9488.178
184.6478, 9457.904
185.1299, 9423.580
185.6120, 9396.464
186.0941, 9378.274
186.5762, 9368.216
187.0583, 9370.392
187.5405, 9385.658
188.0226, 9394.553
188.5047, 9375.541
188.9868, 9331.598
189.4689, 9290.116
189.9510, 9253.763
190.4332, 9225.562
190.9153, 9220.246
191.3974, 9241.450
191.8795, 9267.412
192.3616, 9275.605
192.8437, 9266.030
193.3259, 9251.596
193.8080, 9232.373
194.2901, 9210.271
194.7722, 9202.753
195.2543, 9214.516
195.7364, 9228.427
196.2186, 9218.344
196.7007, 9181.616
197.1828, 9146.097
197.6649, 9121.873
198.1470, 9109.006
198.6291, 9102.459
199.1112, 9102.813
199.5934, 9108.509
200.0755, 9118.147
200.5576, 9132.704
201.0397, 9146.544
201.5218, 9161.035
202.0039, 9178.496
202.4861, 9172.284
202.9682, 9131.863
203.4503, 9074.890
203.9324, 9047.872
204.4145, 9058.504
204.8966, 9075.038
205.3788, 9079.996
205.8609, 9072.182
206.3430, 9057.648
206.8251, 9033.315
207.3072, 9003.416
207.7893, 8984.680
208.2715, 8979.099
208.7536, 8980.742
209.2357, 8988.932
209.7178, 9008.704
210.1999, 9015.426
210.6820, 8999.748
211.1642, 8966.538
211.6463, 8952.152
212.1284, 8962.283
212.6105, 8982.058
213.0926, 8999.457
213.5747, 9015.167
214.0569, 9027.165
214.5390, 9036.174
215.0211, 9042.022
215.5032, 9036.150
215.9853, 9008.363
216.4674, 8981.040
216.9496, 8981.622
217.4317, 9026.052
217.9138, 9061.961
218.3959, 9074.893
218.8780, 9062.193
219.3601, 9053.346
219.8423, 9045.843
220.3244, 9044.489
220.8065, 9060.071
221.2886, 9109.599
221.7707, 9141.829
222.2528, 9135.030
222.7349, 9075.954
223.2171, 9042.306
223.6992, 9043.861
224.1813, 9064.286
224.6634, 9074.920
225.1455, 9067.898
225.6276, 9064.700
226.1098, 9076.164
226.5919, 9112.666
227.0740, 9130.183
227.5561, 9118.169
228.0382, 9091.196
228.5203, 9082.004
229.0025, 9095.877
229.4846, 9119.373
229.9667, 9149.432
230.4488, 9197.543
230.9309, 9225.229
231.4130, 9226.137
231.8952, 9207.390
232.3773, 9189.824
232.8594, 9169.085
233.3415, 9155.059
233.8236, 9154.028
234.3057, 9173.992
234.7879, 9189.630
235.2700, 9200.332
235.7521, 9206.060
236.2342, 9206.774
236.7163, 9202.069
237.1984, 9192.996
237.6806, 9177.871
238.1627, 9146.466
238.6448, 9131.686
239.1269, 9143.031
239.6090, 9175.552
240.0911, 9196.023
240.5733, 9197.268
241.0554, 9195.096
241.5375, 9199.288
242.0196, 9207.983
242.5017, 9228.079
242.9838, 9270.699
243.4660, 9331.380
243.9481, 9355.220
244.4302, 9321.631
244.9123, 9274.724
245.3944, 9250.205
245.8765, 9262.979
246.3586, 9267.755
246.8408, 9250.434
247.3229, 9212.978
247.8050, 9207.913
248.2871, 9254.904
248.7692, 9312.334
249.2513, 9341.327
249.7335, 9324.253
250.2156, 9314.890
250.6977, 9326.259
251.1798, 9358.677
251.6619, 9377.521
252.1440, 9375.897
252.6262, 9368.124
253.1083, 9369.286
253.5904, 9386.058
254.0725, 9397.757
254.5546, 9399.741
255.0367, 9391.737
255.5189, 9380.184
256.0010, 9360.690
256.4831, 9342.493
256.9652, 9338.185
257.4473, 9356.214
257.9294, 9367.972
258.4116, 9362.777
258.8937, 9338.751
259.3758, 9329.992
259.8579, 9343.562
260.3400, 9363.981
260.8221, 9369.257
261.3043, 9348.567
261.7864, 9341.541
262.2685, 9366.979
262.7506, 9429.620
263.2327, 9459.659
263.7148, 9446.194
264.1970, 9414.445
264.6791, 9396.753
265.1612, 9396.092
265.6433, 9401.610
266.1254, 9411.683
266.6075, 9426.646
267.0897, 9439.745
267.5718, 9451.753
268.0539, 9460.565
268.5360, 9459.113
269.0181, 9441.423
269.5002, 9435.176
269.9824, 9456.105
270.4645, 9506.429
270.9466, 9536.233
271.4287, 9541.159
271.9108, 9532.343
272.3929, 9524.066
272.8751, 9515.359
273.3572, 9511.612
273.8393, 9518.712
274.3214, 9537.462
274.8035, 9540.202
275.2856, 9521.445
275.7678, 9497.384
276.2499, 9496.173
276.7320, 9521.608
277.2141, 9543.935
277.6962, 9552.552
278.1783, 9547.539
278.6604, 9530.339
279.1425, 9496.437
279.6247, 9460.613
280.1068, 9444.436
280.5889, 9448.510
281.0710, 9463.373
281.5531, 9494.820
282.0352, 9540.088
282.5174, 9557.021
282.9995, 9540.907
283.4816, 9509.217
283.9637, 9482.967
284.4458, 9462.159
284.9279, 9448.389
285.4101, 9444.030
285.8922, 9448.033
286.3743, 9454.905
286.8564, 9465.456
287.3385, 9475.795
287.8206, 9480.921
288.3028, 9480.977
288.7849, 9477.168
289.2670, 9461.938
289.7491, 9441.772
290.2312, 9445.715
290.7133, 9478.380
291.1955, 9518.382
291.6776, 9541.422
292.1597, 9548.789
292.6418, 9548.250
293.1239, 9532.776
293.6060, 9512.444
294.0882, 9520.147
294.5703, 9561.794
295.0524, 9603.678
295.5345, 9605.357
296.0166, 9574.114
296.4987, 9535.583
296.9809, 9487.862
297.4630, 9444.297
297.9451, 9438.283
298.4272, 9475.417
298.9093, 9514.659
299.3914, 9499.335
299.8736, 9451.098
300.3557, 9427.124
300.8378, 9487.629
301.3199, 9572.814
301.8020, 9597.937
302.2841, 9554.767
302.7663, 9502.091
303.2484, 9484.002
303.7305, 9493.030
304.2126, 9514.910
304.6947, 9567.650
305.1768, 9616.449
305.6590, 9617.676
306.1411, 9566.763
306.6232, 9516.036
307.1053, 9500.506
307.5874, 9509.487
308.0695, 9526.871
308.5517, 9562.352
309.0338, 9592.391
309.5159, 9591.693
309.9980, 9558.215
310.4801, 9532.724
310.9622, 9546.074
311.4444, 9579.091
311.9265, 9607.712
312.4086, 9625.097
312.8907, 9634.311
313.3728, 9630.779
313.8549, 9614.222
314.3371, 9607.737
314.8192, 9638.534
315.3013, 9677.896
315.7834, 9696.430
316.2655, 9656.817
316.7477, 9620.900
317.2298, 9618.212
317.7119, 9648.929
318.1940, 9669.919
318.6761, 9657.274
319.1582, 9634.796
319.6404, 9622.287
320.1225, 9636.793
320.6046, 9648.617
321.0867, 9645.076
321.5688, 9627.393
322.0509, 9623.884
322.5330, 9653.681
323.0151, 9690.904
323.4973, 9717.554
323.9794, 9725.603
324.4615, 9730.011
324.9436, 9729.568
325.4257, 9724.868
325.9078, 9725.401
326.3900, 9739.181
326.8721, 9752.436
327.3542, 9757.546
327.8363, 9755.287
328.3184, 9742.972
328.8005, 9710.213
329.2827, 9663.659
329.7648, 9642.040
330.2469, 9662.221
330.7290, 9689.260
331.2111, 9703.296
331.6932, 9699.193
332.1754, 9692.657
332.6575, 9677.357
333.1396, 9661.137
333.6217, 9675.361
334.1038, 9739.480
334.5859, 9799.517
335.0681, 9823.200
335.5502, 9799.337
336.0323, 9782.092
336.5144, 9773.900
336.9965, 9773.316
337.4786, 9779.188
337.9608, 9794.022
338.4429, 9805.115
338.9250, 9799.310
339.4071, 9774.322
339.8892, 9778.444
340.3713, 9826.091
340.8535, 9882.299
341.3356, 9871.286
341.8177, 9788.283
342.2998, 9716.979
342.7819, 9706.127
343.2640, 9746.993
343.7462, 9779.651
344.2283, 9803.599
344.7104, 9818.421
345.1925, 9818.723
345.6746, 9806.739
346.1567, 9798.533
346.6389, 9805.585
347.1210, 9821.405
347.6031, 9827.611
348.0852, 9823.007
348.5673, 9818.624
349.0494, 9830.588
349.5316, 9852.447
350.0137, 9866.876
350.4958, 9859.232
350.9779, 9843.174
351.4600, 9834.755
351.9421, 9833.917
352.4243, 9840.987
352.9064, 9864.240
353.3885, 9894.094
353.8706, 9915.503
354.3527, 9917.556
354.8348, 9913.665
355.3170, 9914.725
355.7991, 9919.949
356.2812, 9922.405
356.7633, 9915.484
357.2454, 9904.955
357.7275, 9896.336
358.2097, 9889.504
358.6918, 9886.869
359.1739, 9892.408
359.6560, 9904.121
360.1381, 9913.511
360.6202, 9915.307
361.1024, 9915.077
361.5845, 9916.167
362.0666, 9917.729
362.5487, 9922.921
363.0308, 9938.989
363.5129, 9960.039
363.9951, 9969.522
364.4772, 9945.771
364.9593, 9924.889
365.4414, 9922.643
365.9235, 9950.365
366.4056, 9977.814
366.8878, 10015.13
367.3699, 10049.38
367.8520, 10056.34
368.3341, 10002.98
368.8162, 9960.506
369.2983, 9954.431
369.7804, 9998.588
370.2625, 10023.38
370.7447, 10013.18
371.2268, 9995.218
371.7089, 10010.23
372.1910, 10080.83
372.6731, 10132.57
373.1552, 10140.51
373.6374, 10104.17
374.1195, 10074.71
374.6016, 10050.94
375.0837, 10035.79
375.5658, 10033.60
376.0479, 10045.44
376.5301, 10061.69
377.0122, 10082.11
377.4943, 10104.99
377.9764, 10122.63
378.4585, 10134.73
378.9406, 10144.04
379.4228, 10151.80
379.9049, 10158.27
380.3870, 10167.19
380.8691, 10182.90
381.3512, 10196.29
381.8333, 10185.63
382.3155, 10153.45
382.7976, 10123.55
383.2797, 10108.02
383.7618, 10107.38
384.2439, 10127.99
384.7260, 10177.93
385.2082, 10228.39
385.6903, 10247.53
386.1724, 10241.81
386.6545, 10229.22
387.1366, 10207.73
387.6187, 10190.28
388.1009, 10193.21
388.5830, 10221.25
389.0651, 10248.57
389.5472, 10248.10
390.0293, 10238.38
390.5114, 10247.13
390.9936, 10322.71
391.4757, 10387.84
391.9578, 10388.09
392.4399, 10318.13
392.9220, 10275.67
393.4041, 10322.44
393.8863, 10396.88
394.3684, 10443.33
394.8505, 10415.31
395.3326, 10394.99
395.8147, 10400.61
396.2968, 10430.73
396.7790, 10463.84
397.2611, 10517.33
397.7432, 10559.56
398.2253, 10571.91
398.7074, 10514.37
399.1895, 10487.82
399.6717, 10508.72
400.1538, 10561.20
400.6359, 10596.65
401.1180, 10607.31
401.6001, 10613.82
402.0822, 10624.64
402.5644, 10640.37
403.0465, 10659.37
403.5286, 10682.35
404.0107, 10708.15
404.4928, 10736.04
404.9749, 10767.18
405.4571, 10794.46
405.9392, 10810.00
406.4213, 10816.88
406.9034, 10847.21
407.3855, 10904.52
407.8676, 10967.03
408.3498, 11010.43
408.8319, 11036.86
409.3140, 11056.60
409.7961, 11064.52
410.2782, 11073.05
410.7603, 11115.84
411.2425, 11190.25
411.7246, 11254.44
412.2067, 11265.25
412.6888, 11247.05
413.1709, 11240.77
413.6530, 11256.26
414.1351, 11285.13
414.6172, 11329.02
415.0994, 11381.82
415.5815, 11427.24
416.0636, 11453.96
416.5457, 11471.76
417.0278, 11486.94
417.5099, 11498.69
417.9921, 11513.82
418.4742, 11533.84
418.9563, 11559.32
419.4384, 11591.11
419.9205, 11651.58
420.4026, 11697.96
420.8848, 11706.13
421.3669, 11668.57
421.8490, 11648.81
422.3311, 11668.06
422.8132, 11700.74
423.2953, 11725.73
423.7775, 11753.50
424.2596, 11758.90
424.7417, 11729.39
425.2238, 11671.32
425.7059, 11627.60
426.1880, 11596.80
426.6702, 11583.17
427.1523, 11599.07
427.6344, 11663.07
428.1165, 11679.52
428.5986, 11629.48
429.0807, 11543.59
429.5629, 11481.46
430.0450, 11444.63
430.5271, 11423.54
431.0092, 11418.13
431.4913, 11426.57
431.9734, 11437.89
432.4556, 11453.77
432.9377, 11464.63
433.4198, 11456.45
433.9019, 11432.60
434.3840, 11406.96
434.8661, 11382.70
435.3483, 11360.92
435.8304, 11340.38
436.3125, 11321.81
436.7946, 11314.24
437.2767, 11336.94
437.7589, 11370.29
438.2410, 11386.75
438.7231, 11365.97
439.2052, 11348.49
439.6873, 11371.34
440.1694, 11419.34
440.6516, 11450.92
441.1337, 11429.27
441.6158, 11400.16
442.0979, 11386.35
442.5800, 11389.51
443.0621, 11412.67
443.5443, 11478.49
444.0264, 11558.74
444.5085, 11614.88
444.9906, 11637.22
445.4727, 11641.49
445.9548, 11620.90
446.4370, 11573.71
446.9191, 11552.06
447.4012, 11559.86
447.8833, 11588.73
448.3654, 11637.18
448.8475, 11719.27
449.3297, 11779.77
449.8118, 11803.94
450.2939, 11806.26
450.7760, 11829.35
451.2581, 11874.41
451.7402, 11932.91
452.2224, 12014.59
452.7045, 12114.78
453.1866, 12161.80
453.6687, 12141.33
454.1508, 12105.26
454.6329, 12128.30
455.1151, 12199.25
455.5972, 12264.56
456.0793, 12292.60
456.5614, 12306.38
457.0435, 12345.63
457.5256, 12408.83
458.0077, 12471.85
458.4898, 12508.21
458.9720, 12535.28
459.4541, 12575.90
459.9362, 12647.14
460.4183, 12717.24
460.9004, 12760.53
461.3825, 12786.53
461.8647, 12823.27
462.3468, 12895.60
462.8289, 12970.02
463.3110, 13030.09
463.7931, 13069.49
464.2752, 13106.36
464.7574, 13140.62
465.2395, 13174.96
465.7216, 13213.20
466.2037, 13257.93
466.6858, 13302.76
467.1679, 13344.65
467.6501, 13383.83
468.1322, 13436.44
468.6143, 13509.90
469.0964, 13584.39
469.5785, 13649.63
470.0606, 13707.57
470.5428, 13742.30
471.0249, 13747.41
471.5070, 13734.91
471.9891, 13724.55
472.4712, 13715.97
472.9533, 13724.16
473.4355, 13761.53
473.9176, 13822.27
474.3997, 13891.55
474.8818, 13969.82
475.3639, 14044.34
475.8460, 14101.83
476.3282, 14145.90
476.8103, 14184.19
477.2924, 14218.79
477.7745, 14249.45
478.2566, 14273.21
478.7387, 14291.58
479.2209, 14311.71
479.7030, 14329.62
480.1851, 14355.53
480.6672, 14399.74
481.1493, 14475.37
481.6314, 14544.99
482.1136, 14595.13
482.5957, 14632.74
483.0778, 14670.32
483.5599, 14697.53
484.0420, 14737.46
484.5241, 14803.02
485.0063, 14897.91
485.4884, 14970.02
485.9705, 15009.24
486.4526, 15036.38
486.9347, 15069.55
487.4168, 15112.52
487.8990, 15147.71
488.3811, 15170.09
488.8632, 15185.06
489.3453, 15214.06
489.8274, 15261.20
490.3095, 15286.77
490.7917, 15253.36
491.2738, 15176.09
491.7559, 15128.40
492.2380, 15116.16
492.7201, 15112.49
493.2022, 15090.30
493.6844, 15053.73
494.1665, 15013.13
494.6486, 14976.27
495.1307, 14933.90
495.6128, 14876.81
496.0949, 14805.99
496.5771, 14729.70
497.0592, 14648.86
497.5413, 14565.15
498.0234, 14480.08
498.5055, 14389.70
498.9876, 14303.87
499.4698, 14235.72
499.9519, 14170.96
500.4340, 14086.09
500.9161, 13956.50
501.3982, 13827.21
501.8803, 13707.80
502.3624, 13599.92
502.8445, 13493.08
503.3267, 13387.21
503.8088, 13283.44
504.2909, 13183.75
504.7730, 13088.62
505.2551, 12991.54
505.7372, 12890.21
506.2194, 12788.59
506.7015, 12693.10
507.1836, 12604.27
507.6657, 12517.78
508.1478, 12421.92
508.6299, 12327.29
509.1121, 12275.32
509.5942, 12269.40
510.0763, 12266.86
510.5584, 12230.43
511.0405, 12169.53
511.5226, 12098.82
512.0048, 12007.34
512.4869, 11926.74
512.9690, 11887.04
513.4511, 11878.82
513.9332, 11871.08
514.4153, 11857.88
514.8975, 11835.96
515.3796, 11799.70
515.8617, 11740.56
516.3438, 11694.30
516.8259, 11678.93
517.3080, 11673.96
517.7902, 11655.03
518.2723, 11602.08
518.7544, 11566.56
519.2365, 11563.06
519.7186, 11584.92
520.2007, 11588.02
520.6829, 11563.54
521.1650, 11542.07
521.6471, 11552.44
522.1292, 11595.24
522.6113, 11590.92
523.0934, 11523.73
523.5756, 11446.21
524.0577, 11444.64
524.5398, 11502.13
525.0219, 11535.81
525.5040, 11489.87
525.9861, 11419.48
526.4683, 11404.96
526.9504, 11439.69
527.4325, 11471.96
527.9146, 11456.92
528.3967, 11430.21
528.8788, 11428.16
529.3610, 11470.67
529.8431, 11505.47
530.3252, 11516.40
530.8073, 11506.22
531.2894, 11479.51
531.7715, 11393.74
532.2537, 11336.53
532.7358, 11346.50
533.2179, 11422.29
533.7000, 11458.13
534.1821, 11429.83
534.6642, 11393.77
535.1464, 11390.56
535.6285, 11432.73
536.1106, 11449.19
536.5927, 11427.44
537.0748, 11391.37
537.5569, 11385.03
538.0391, 11407.91
538.5212, 11431.20
539.0033, 11444.72
539.4854, 11450.27
539.9675, 11449.82
540.4496, 11443.63
540.9318, 11437.43
541.4139, 11441.60
541.8960, 11446.21
542.3781, 11435.46
542.8602, 11397.13
543.3423, 11364.31
543.8245, 11354.88
544.3066, 11363.84
544.7887, 11381.91
545.2708, 11435.15
545.7529, 11468.98
546.2350, 11448.87
546.7172, 11368.92
547.1993, 11332.22
547.6814, 11379.68
548.1635, 11434.03
548.6456, 11442.99
549.1277, 11378.93
549.6099, 11348.19
550.0920, 11366.95
550.5741, 11407.66
551.0562, 11413.94
551.5383, 11382.65
552.0204, 11362.85
552.5026, 11384.50
552.9847, 11429.30
553.4668, 11436.28
553.9489, 11406.76
554.4310, 11372.68
554.9131, 11354.13
555.3953, 11348.71
555.8774, 11355.92
556.3595, 11381.56
556.8416, 11403.32
557.3237, 11395.58
557.8058, 11375.16
558.2880, 11369.91
558.7701, 11406.43
559.2522, 11443.13
559.7343, 11463.62
560.2164, 11467.46
560.6985, 11476.21
561.1807, 11505.34
561.6628, 11526.18
562.1449, 11519.64
562.6270, 11465.92
563.1091, 11440.11
563.5912, 11456.35
564.0734, 11484.28
564.5555, 11464.43
565.0376, 11391.79
565.5197, 11352.79
566.0018, 11390.28
566.4839, 11470.88
566.9661, 11511.70
567.4482, 11514.54
567.9303, 11506.59
568.4124, 11505.14
568.8945, 11505.50
569.3766, 11498.60
569.8587, 11480.39
570.3408, 11468.68
570.8229, 11480.85
571.3051, 11504.62
571.7872, 11524.06
572.2693, 11541.00
572.7514, 11546.13
573.2335, 11531.89
573.7156, 11501.20
574.1978, 11474.48
574.6799, 11446.87
575.1620, 11429.91
575.6441, 11431.65
576.1262, 11457.68
576.6083, 11473.70
577.0905, 11477.74
577.5726, 11474.88
578.0547, 11466.20
578.5368, 11452.05
579.0189, 11451.43
579.5010, 11473.64
579.9832, 11504.53
580.4653, 11519.78
580.9474, 11521.47
