##NAMES=Paulingite-K
##RRUFFID=R070604
##IDEAL CHEMISTRY=(K,Ca,Na,Ba,[box])_10_(Si,Al)_42_O_84_&#183;34H_2_O
##LOCALITY=Squaw Creek, Riggins, Idaho County, Idaho, USA
##OWNER=RRUFF
##SOURCE=James Shigley
##DESCRIPTION=Vitreous colorless to pale-yellow cubes and dodecahedra
##STATUS=The identification of this mineral has been confirmed only by single crystal X-ray diffraction.
##URL=rruff.info/R070604
97.71497, 12519.47
98.19708, 13196.98
98.67920, 13845.55
99.16132, 14477.55
99.64343, 15069.15
100.1255, 15607.95
100.6077, 16103.54
101.0898, 16523.61
101.5719, 16671.37
102.0540, 16685.58
102.5361, 16705.94
103.0182, 16749.14
103.5004, 16784.17
103.9825, 16778.72
104.4646, 16728.26
104.9467, 16672.17
105.4288, 16627.28
105.9109, 16590.19
106.3931, 16558.87
106.8752, 16530.75
107.3573, 16506.00
107.8394, 16488.27
108.3215, 16477.50
108.8036, 16471.04
109.2858, 16469.26
109.7679, 16469.58
110.2500, 16466.63
110.7321, 16449.50
111.2142, 16406.86
111.6964, 16391.58
112.1785, 16419.88
112.6606, 16458.19
113.1427, 16490.67
113.6248, 16513.16
114.1069, 16529.72
114.5891, 16548.37
115.0712, 16580.63
115.5533, 16596.68
116.0354, 16582.05
116.5175, 16556.24
116.9996, 16541.28
117.4818, 16548.39
117.9639, 16571.40
118.4460, 16582.50
118.9281, 16570.67
119.4102, 16560.82
119.8923, 16563.86
120.3745, 16576.21
120.8566, 16585.95
121.3387, 16585.66
121.8208, 16574.37
122.3029, 16558.18
122.7850, 16532.29
123.2672, 16504.11
123.7493, 16477.38
124.2314, 16451.03
124.7135, 16433.26
125.1956, 16442.96
125.6777, 16469.70
126.1599, 16484.40
126.6420, 16466.07
127.1241, 16426.24
127.6062, 16401.24
128.0883, 16405.19
128.5704, 16411.37
129.0526, 16401.07
129.5347, 16375.46
130.0168, 16344.65
130.4989, 16316.84
130.9810, 16292.39
131.4631, 16265.77
131.9453, 16230.30
132.4274, 16196.29
132.9095, 16170.59
133.3916, 16154.36
133.8737, 16142.36
134.3558, 16125.26
134.8380, 16097.50
135.3201, 16075.04
135.8022, 16061.10
136.2843, 16051.60
136.7664, 16044.47
137.2485, 16038.87
137.7307, 16033.08
138.2128, 16019.65
138.6949, 15998.69
139.1770, 15969.45
139.6591, 15927.74
140.1412, 15877.75
140.6234, 15825.63
141.1055, 15774.11
141.5876, 15723.80
142.0697, 15686.59
142.5518, 15668.65
143.0339, 15655.13
143.5161, 15641.34
143.9982, 15626.17
144.4803, 15607.42
144.9624, 15581.97
145.4445, 15548.95
145.9266, 15518.20
146.4088, 15492.96
146.8909, 15468.71
147.3730, 15440.15
147.8551, 15405.72
148.3372, 15370.03
148.8193, 15336.21
149.3015, 15304.13
149.7836, 15279.00
150.2657, 15268.76
150.7478, 15267.63
151.2299, 15256.60
151.7121, 15223.17
152.1942, 15190.81
152.6763, 15186.91
153.1584, 15212.19
153.6405, 15233.85
154.1226, 15219.56
154.6048, 15167.79
155.0869, 15129.49
155.5690, 15134.84
156.0511, 15147.09
156.5332, 15141.40
157.0153, 15112.10
157.4975, 15072.15
157.9796, 15035.22
158.4617, 14993.79
158.9438, 14976.51
159.4259, 15009.52
159.9080, 15056.01
160.3902, 15085.44
160.8723, 15085.03
161.3544, 15062.10
161.8365, 15036.80
162.3186, 15004.71
162.8007, 14976.74
163.2829, 14957.74
163.7650, 14943.00
164.2471, 14925.75
164.7292, 14901.49
165.2113, 14871.43
165.6934, 14849.62
166.1756, 14839.44
166.6577, 14833.85
167.1398, 14832.58
167.6219, 14834.75
168.1040, 14839.58
168.5861, 14847.10
169.0683, 14857.82
169.5504, 14862.20
170.0325, 14862.77
170.5146, 14856.47
170.9967, 14836.10
171.4788, 14804.13
171.9610, 14774.41
172.4431, 14760.22
172.9252, 14765.47
173.4073, 14774.20
173.8894, 14797.00
174.3715, 14817.41
174.8537, 14819.21
175.3358, 14799.24
175.8179, 14769.08
176.3000, 14738.13
176.7821, 14705.01
177.2642, 14685.89
177.7464, 14698.19
178.2285, 14723.86
178.7106, 14732.82
179.1927, 14716.42
179.6748, 14685.89
180.1569, 14651.46
180.6391, 14612.06
181.1212, 14580.87
181.6033, 14567.53
182.0854, 14568.36
182.5675, 14569.36
183.0496, 14567.28
183.5318, 14563.51
184.0139, 14555.90
184.4960, 14542.70
184.9781, 14539.40
185.4602, 14571.84
185.9423, 14640.60
186.4245, 14679.30
186.9066, 14642.02
187.3887, 14582.40
187.8708, 14539.76
188.3529, 14521.50
188.8350, 14516.39
189.3172, 14514.02
189.7993, 14516.53
190.2814, 14513.63
190.7635, 14505.46
191.2456, 14489.90
191.7277, 14457.60
192.2099, 14402.83
192.6920, 14347.75
193.1741, 14341.36
193.6562, 14420.40
194.1383, 14474.89
194.6204, 14476.40
195.1026, 14449.37
195.5847, 14413.88
196.0668, 14377.96
196.5489, 14345.02
197.0310, 14326.83
197.5131, 14338.85
197.9953, 14346.28
198.4774, 14332.16
198.9595, 14312.79
199.4416, 14313.56
199.9237, 14352.29
200.4058, 14418.90
200.8880, 14445.25
201.3701, 14371.54
201.8522, 14316.31
202.3343, 14316.70
202.8164, 14349.57
203.2985, 14370.21
203.7807, 14345.70
204.2628, 14278.12
204.7449, 14242.56
205.2270, 14275.66
205.7091, 14300.25
206.1912, 14283.60
206.6734, 14236.55
207.1555, 14190.76
207.6376, 14170.96
208.1197, 14178.75
208.6018, 14184.28
209.0839, 14178.32
209.5661, 14178.67
210.0482, 14198.61
210.5303, 14234.85
211.0124, 14273.34
211.4945, 14305.16
211.9766, 14329.95
212.4588, 14326.21
212.9409, 14270.19
213.4230, 14206.36
213.9051, 14160.88
214.3872, 14136.46
214.8693, 14125.65
215.3515, 14124.36
215.8336, 14134.19
216.3157, 14140.26
216.7978, 14130.74
217.2799, 14124.20
217.7620, 14145.22
218.2442, 14197.05
218.7263, 14245.96
219.2084, 14253.67
219.6905, 14220.47
220.1726, 14193.65
220.6547, 14176.95
221.1369, 14170.71
221.6190, 14184.00
222.1011, 14222.71
222.5832, 14253.08
223.0653, 14222.38
223.5474, 14140.49
224.0296, 14084.39
224.5117, 14095.95
224.9938, 14139.43
225.4759, 14151.82
225.9580, 14116.06
226.4401, 14073.44
226.9223, 14069.11
227.4044, 14095.84
227.8865, 14121.20
228.3686, 14132.85
228.8507, 14134.39
229.3328, 14132.50
229.8150, 14125.40
230.2971, 14120.36
230.7792, 14123.09
231.2613, 14132.78
231.7434, 14147.71
232.2255, 14182.71
232.7077, 14224.78
233.1898, 14224.62
233.6719, 14152.89
234.1540, 14071.35
234.6361, 14023.85
235.1182, 14007.55
235.6004, 14010.45
236.0825, 14033.85
236.5646, 14073.62
237.0467, 14109.28
237.5288, 14144.68
238.0109, 14166.33
238.4931, 14159.74
238.9752, 14129.86
239.4573, 14103.30
239.9394, 14104.09
240.4215, 14128.87
240.9036, 14142.65
241.3858, 14143.75
241.8679, 14129.87
242.3500, 14090.79
242.8321, 14032.59
243.3142, 13982.53
243.7963, 13962.03
244.2785, 13970.67
244.7606, 13992.73
245.2427, 14049.43
245.7248, 14097.09
246.2069, 14109.46
246.6890, 14090.45
247.1712, 14063.51
247.6533, 14047.97
248.1354, 14044.30
248.6175, 14036.76
249.0996, 14014.43
249.5817, 13997.63
250.0639, 14000.14
250.5460, 14018.62
251.0281, 14037.49
251.5102, 14039.86
251.9923, 14023.51
252.4744, 14018.76
252.9566, 14043.84
253.4387, 14065.45
253.9208, 14063.92
254.4029, 14044.00
254.8850, 14026.88
255.3671, 14037.40
255.8493, 14080.35
256.3314, 14103.06
256.8135, 14080.29
257.2956, 14057.30
257.7777, 14054.40
258.2599, 14068.10
258.7420, 14080.90
259.2241, 14075.27
259.7062, 14049.06
260.1883, 14028.17
260.6704, 14020.02
261.1526, 14011.15
261.6347, 13992.07
262.1168, 13966.69
262.5989, 13948.07
263.0810, 13950.65
263.5631, 13977.11
264.0453, 13991.94
264.5274, 13983.71
265.0095, 13973.03
265.4916, 13965.86
265.9737, 13961.99
266.4558, 13957.98
266.9380, 13948.88
267.4201, 13933.74
267.9022, 13932.67
268.3843, 13966.51
268.8664, 13996.15
269.3485, 14014.59
269.8307, 14019.31
270.3128, 14006.88
270.7949, 13970.79
271.2770, 13910.31
271.7591, 13863.94
272.2412, 13813.50
272.7234, 13797.24
273.2055, 13850.89
273.6876, 13949.18
274.1697, 14040.24
274.6518, 14087.83
275.1339, 14092.48
275.6161, 14071.96
276.0982, 13979.99
276.5803, 13906.73
277.0624, 13878.58
277.5445, 13885.06
278.0266, 13906.03
278.5088, 13930.15
278.9909, 13956.31
279.4730, 13970.09
279.9551, 13966.88
280.4372, 13954.21
280.9193, 13922.96
281.4015, 13884.60
281.8836, 13856.98
282.3657, 13851.79
282.8478, 13865.95
283.3299, 13880.72
283.8120, 13911.33
284.2942, 13923.35
284.7763, 13891.85
285.2584, 13842.48
285.7405, 13810.72
286.2226, 13817.03
286.7047, 13852.79
287.1869, 13885.15
287.6690, 13929.89
288.1511, 13947.38
288.6332, 13908.86
289.1153, 13848.85
289.5974, 13807.99
290.0796, 13806.48
290.5617, 13832.51
291.0438, 13851.96
291.5259, 13863.47
292.0080, 13869.48
292.4901, 13871.56
292.9723, 13868.62
293.4544, 13857.10
293.9365, 13835.61
294.4186, 13810.84
294.9007, 13797.39
295.3828, 13799.33
295.8650, 13806.45
296.3471, 13824.13
296.8292, 13842.08
297.3113, 13851.28
297.7934, 13849.10
298.2755, 13839.63
298.7577, 13828.91
299.2398, 13814.09
299.7219, 13804.59
300.2040, 13802.64
300.6861, 13804.21
301.1682, 13810.56
301.6504, 13820.40
302.1325, 13825.26
302.6146, 13809.34
303.0967, 13760.08
303.5788, 13729.21
304.0609, 13728.47
304.5431, 13738.25
305.0252, 13753.10
305.5073, 13769.96
305.9894, 13783.12
306.4715, 13784.59
306.9536, 13771.03
307.4358, 13761.65
307.9179, 13749.24
308.4000, 13747.48
308.8821, 13776.91
309.3642, 13827.61
309.8463, 13863.09
310.3285, 13841.16
310.8106, 13757.80
311.2927, 13707.10
311.7748, 13716.26
312.2569, 13733.26
312.7390, 13741.87
313.2212, 13742.83
313.7033, 13741.32
314.1854, 13738.73
314.6675, 13736.22
315.1496, 13745.23
315.6317, 13781.45
316.1139, 13808.21
316.5960, 13806.30
317.0781, 13788.09
317.5602, 13774.95
318.0423, 13781.10
318.5244, 13799.07
319.0066, 13804.25
319.4887, 13791.92
319.9708, 13775.33
320.4529, 13752.00
320.9350, 13729.92
321.4171, 13721.38
321.8993, 13734.55
322.3814, 13755.95
322.8635, 13758.12
323.3456, 13734.16
323.8277, 13711.94
324.3098, 13703.28
324.7920, 13698.84
325.2741, 13690.56
325.7562, 13675.91
326.2383, 13658.70
326.7204, 13640.81
327.2025, 13620.99
327.6847, 13611.40
328.1668, 13633.15
328.6489, 13654.38
329.1310, 13638.10
329.6131, 13577.73
330.0952, 13532.18
330.5774, 13573.32
331.0595, 13694.44
331.5416, 13776.52
332.0237, 13787.55
332.5058, 13760.69
332.9879, 13713.21
333.4701, 13648.11
333.9522, 13606.09
334.4343, 13634.13
334.9164, 13708.25
335.3985, 13738.61
335.8806, 13697.41
336.3628, 13643.76
336.8449, 13629.58
337.3270, 13645.62
337.8091, 13657.39
338.2912, 13649.02
338.7733, 13628.80
339.2555, 13609.79
339.7376, 13592.30
340.2197, 13577.51
340.7018, 13569.23
341.1839, 13564.53
341.6660, 13555.47
342.1482, 13533.04
342.6303, 13510.58
343.1124, 13501.64
343.5945, 13506.07
344.0766, 13516.77
344.5587, 13536.05
345.0409, 13556.46
345.5230, 13557.18
346.0051, 13513.57
346.4872, 13479.86
346.9693, 13498.33
347.4514, 13555.97
347.9336, 13607.27
348.4157, 13636.09
348.8978, 13643.57
349.3799, 13630.36
349.8620, 13590.55
350.3441, 13548.16
350.8263, 13494.56
351.3084, 13446.48
351.7905, 13439.43
352.2726, 13487.47
352.7547, 13555.39
353.2368, 13589.82
353.7190, 13581.52
354.2011, 13567.85
354.6832, 13545.91
355.1653, 13523.09
355.6474, 13502.84
356.1295, 13486.74
356.6117, 13482.48
357.0938, 13501.49
357.5759, 13551.33
358.0580, 13578.46
358.5401, 13566.32
359.0222, 13548.58
359.5044, 13546.17
359.9865, 13555.75
360.4686, 13558.89
360.9507, 13539.35
361.4328, 13499.25
361.9149, 13485.72
362.3971, 13523.96
362.8792, 13558.72
363.3613, 13581.64
363.8434, 13590.95
364.3255, 13580.32
364.8076, 13545.19
365.2898, 13498.93
365.7719, 13485.35
366.2540, 13544.16
366.7361, 13579.66
367.2182, 13570.46
367.7003, 13543.99
368.1825, 13523.79
368.6646, 13517.19
369.1467, 13517.91
369.6288, 13517.96
370.1109, 13520.17
370.5930, 13513.58
371.0752, 13479.97
371.5573, 13452.46
372.0394, 13461.71
372.5215, 13501.09
373.0036, 13530.14
373.4857, 13495.74
373.9679, 13395.56
374.4500, 13355.66
374.9321, 13427.42
375.4142, 13502.35
375.8963, 13535.26
376.3784, 13537.20
376.8606, 13535.43
377.3427, 13547.29
377.8248, 13564.61
378.3069, 13562.83
378.7890, 13533.69
379.2711, 13506.09
379.7533, 13482.20
380.2354, 13470.21
380.7175, 13488.45
381.1996, 13555.61
381.6817, 13620.78
382.1638, 13613.07
382.6460, 13532.09
383.1281, 13471.51
383.6102, 13467.97
384.0923, 13494.65
384.5744, 13520.44
385.0565, 13546.53
385.5387, 13561.53
386.0208, 13551.93
386.5029, 13526.63
386.9850, 13507.57
387.4671, 13498.87
387.9492, 13497.67
388.4314, 13502.86
388.9135, 13513.83
389.3956, 13526.71
389.8777, 13548.94
390.3598, 13567.77
390.8419, 13563.48
391.3241, 13536.78
391.8062, 13517.15
392.2883, 13531.34
392.7704, 13574.02
393.2525, 13587.26
393.7346, 13535.29
394.2168, 13493.43
394.6989, 13501.19
395.1810, 13543.01
395.6631, 13585.35
396.1452, 13613.10
396.6273, 13628.05
397.1095, 13634.33
397.5916, 13625.30
398.0737, 13615.95
398.5558, 13601.13
399.0379, 13589.34
399.5201, 13590.07
400.0022, 13604.88
400.4843, 13626.92
400.9664, 13647.38
401.4485, 13665.37
401.9306, 13685.02
402.4128, 13710.26
402.8949, 13733.59
403.3770, 13752.71
403.8591, 13766.88
404.3412, 13773.85
404.8233, 13768.88
405.3055, 13755.25
405.7876, 13762.78
406.2697, 13809.56
406.7518, 13852.68
407.2339, 13883.04
407.7160, 13902.98
408.1982, 13911.99
408.6803, 13907.61
409.1624, 13903.57
409.6445, 13925.83
410.1266, 13980.12
410.6087, 14030.50
411.0909, 14071.33
411.5730, 14101.96
412.0551, 14118.04
412.5372, 14119.64
413.0193, 14120.71
413.5014, 14126.53
413.9836, 14139.27
414.4657, 14172.28
414.9478, 14237.99
415.4299, 14300.69
415.9120, 14320.61
416.3941, 14310.95
416.8763, 14314.70
417.3584, 14352.54
417.8405, 14403.46
418.3226, 14450.55
418.8047, 14493.02
419.2868, 14520.34
419.7690, 14520.84
420.2511, 14504.17
420.7332, 14504.96
421.2153, 14541.24
421.6974, 14567.65
422.1795, 14559.45
422.6617, 14532.70
423.1438, 14515.02
423.6259, 14515.50
424.1080, 14523.71
424.5901, 14523.66
425.0722, 14510.66
425.5544, 14500.42
426.0365, 14501.66
426.5186, 14498.99
427.0007, 14480.56
427.4828, 14447.45
427.9649, 14408.04
428.4471, 14367.71
428.9292, 14326.88
429.4113, 14299.61
429.8934, 14310.22
430.3755, 14308.77
430.8576, 14268.95
431.3398, 14216.92
431.8219, 14191.65
432.3040, 14211.13
432.7861, 14248.75
433.2682, 14251.35
433.7503, 14205.25
434.2325, 14167.53
434.7146, 14147.49
435.1967, 14138.44
435.6788, 14141.36
436.1609, 14154.52
436.6430, 14167.06
437.1252, 14175.42
437.6073, 14177.50
438.0894, 14157.24
438.5715, 14099.76
439.0536, 14050.03
439.5357, 14047.35
440.0179, 14073.50
440.5000, 14092.84
440.9821, 14090.20
441.4642, 14082.14
441.9463, 14086.09
442.4284, 14100.42
442.9106, 14110.32
443.3927, 14104.56
443.8748, 14095.87
444.3569, 14116.00
444.8390, 14181.14
445.3211, 14227.31
445.8033, 14218.40
446.2854, 14188.86
446.7675, 14181.93
447.2496, 14205.51
447.7317, 14241.00
448.2138, 14269.95
448.6960, 14291.85
449.1781, 14309.06
449.6602, 14314.41
450.1423, 14322.79
450.6244, 14337.73
451.1065, 14360.59
451.5887, 14392.87
452.0708, 14435.26
452.5529, 14487.09
453.0350, 14549.07
453.5171, 14636.82
453.9992, 14705.36
454.4814, 14730.60
454.9635, 14750.42
455.4456, 14803.18
455.9277, 14890.89
456.4098, 14971.54
456.8919, 14989.68
457.3741, 14947.49
457.8562, 14944.19
458.3383, 15003.85
458.8204, 15073.46
459.3026, 15127.70
459.7847, 15169.41
460.2668, 15203.24
460.7489, 15224.13
461.2310, 15244.82
461.7131, 15287.19
462.1953, 15350.33
462.6774, 15401.60
463.1595, 15422.72
463.6416, 15429.18
464.1237, 15449.08
464.6058, 15485.02
465.0880, 15522.86
465.5701, 15563.64
466.0522, 15601.44
466.5343, 15621.38
467.0164, 15622.25
467.4985, 15630.10
467.9807, 15673.11
468.4628, 15755.16
468.9449, 15813.53
469.4270, 15834.07
469.9091, 15849.86
470.3912, 15869.46
470.8734, 15893.88
471.3555, 15924.23
471.8376, 15961.26
472.3197, 16001.81
472.8018, 16038.68
473.2839, 16068.73
473.7661, 16101.06
474.2482, 16137.94
474.7303, 16175.53
475.2124, 16214.58
475.6945, 16252.93
476.1766, 16283.70
476.6588, 16294.92
477.1409, 16292.02
477.6230, 16310.11
478.1051, 16360.95
478.5872, 16406.96
479.0693, 16424.47
479.5515, 16427.29
480.0336, 16430.38
480.5157, 16431.11
480.9978, 16446.39
481.4799, 16502.20
481.9620, 16587.79
482.4442, 16656.40
482.9263, 16691.31
483.4084, 16714.73
483.8905, 16759.63
484.3726, 16830.35
484.8547, 16878.27
485.3369, 16865.67
485.8190, 16852.33
486.3011, 16894.14
486.7832, 16981.23
487.2653, 17061.73
487.7474, 17100.16
488.2296, 17107.31
488.7117, 17132.65
489.1938, 17211.74
489.6759, 17264.35
490.1580, 17266.14
490.6401, 17250.58
491.1223, 17253.20
491.6044, 17278.50
492.0865, 17298.13
492.5686, 17276.38
493.0507, 17210.17
493.5328, 17154.42
494.0150, 17112.72
494.4971, 17077.93
494.9792, 17059.70
495.4613, 17043.29
495.9434, 17001.85
496.4255, 16920.83
496.9077, 16819.11
497.3898, 16711.81
497.8719, 16600.01
498.3540, 16505.44
498.8361, 16440.11
499.3182, 16387.72
499.8004, 16334.75
500.2825, 16283.85
500.7646, 16202.91
501.2467, 16053.82
501.7288, 15889.93
502.2109, 15769.19
502.6931, 15690.01
503.1752, 15606.69
503.6573, 15485.69
504.1394, 15336.40
504.6215, 15213.22
505.1036, 15129.99
505.5858, 15055.34
506.0679, 14997.45
506.5500, 14940.56
507.0321, 14864.24
507.5142, 14766.62
507.9963, 14668.87
508.4785, 14596.09
508.9606, 14550.62
509.4427, 14502.27
509.9248, 14448.92
510.4069, 14395.63
510.8890, 14342.01
511.3712, 14290.20
511.8533, 14242.77
512.3354, 14200.79
512.8175, 14163.90
513.2996, 14134.45
513.7817, 14111.55
514.2639, 14085.67
514.7460, 14053.58
515.2281, 14018.70
515.7102, 13986.42
516.1923, 13956.72
516.6744, 13922.44
517.1566, 13872.44
517.6387, 13824.43
518.1208, 13797.91
518.6029, 13789.13
519.0850, 13776.69
519.5671, 13747.34
520.0493, 13706.94
520.5314, 13675.84
521.0135, 13662.59
521.4956, 13647.88
521.9777, 13622.54
522.4598, 13601.51
522.9420, 13602.58
523.4241, 13623.63
523.9062, 13643.21
524.3883, 13639.46
524.8704, 13615.40
525.3525, 13601.88
525.8347, 13605.75
526.3168, 13607.84
526.7989, 13595.06
527.2810, 13578.84
527.7631, 13576.46
528.2452, 13596.37
528.7274, 13609.59
529.2095, 13585.37
529.6916, 13534.85
530.1737, 13492.13
530.6558, 13462.49
531.1379, 13445.17
531.6201, 13439.68
532.1022, 13447.03
532.5843, 13465.49
533.0664, 13513.42
533.5485, 13553.48
534.0306, 13568.54
534.5128, 13562.79
534.9949, 13540.36
535.4770, 13503.05
535.9591, 13464.34
536.4412, 13450.44
536.9233, 13478.07
537.4055, 13485.22
537.8876, 13446.13
538.3697, 13412.18
538.8518, 13414.89
539.3339, 13441.23
539.8160, 13456.85
540.2982, 13439.74
540.7803, 13407.08
541.2624, 13389.57
541.7445, 13387.70
542.2266, 13396.93
542.7087, 13424.89
543.1909, 13454.75
543.6730, 13469.89
544.1551, 13470.50
544.6372, 13456.66
545.1193, 13413.47
545.6014, 13365.31
546.0836, 13338.19
546.5657, 13331.81
547.0478, 13333.26
547.5299, 13335.67
548.0120, 13339.25
548.4941, 13344.65
548.9763, 13342.82
549.4584, 13355.62
549.9405, 13413.37
550.4226, 13464.68
550.9047, 13458.01
551.3868, 13398.33
551.8690, 13336.58
552.3511, 13315.39
552.8332, 13328.31
553.3153, 13341.11
553.7974, 13357.10
554.2795, 13365.03
554.7617, 13357.55
555.2438, 13341.29
555.7259, 13319.07
556.2080, 13289.90
556.6901, 13266.71
557.1722, 13260.19
557.6544, 13264.34
558.1365, 13271.94
558.6186, 13282.30
559.1007, 13281.17
559.5828, 13252.27
560.0649, 13201.82
560.5471, 13179.19
561.0292, 13207.44
561.5113, 13230.48
561.9934, 13228.74
562.4755, 13220.11
562.9576, 13231.00
563.4398, 13263.26
563.9219, 13287.25
564.4040, 13264.37
564.8861, 13194.68
565.3682, 13160.44
565.8503, 13180.54
566.3325, 13208.66
566.8146, 13230.62
567.2967, 13249.30
567.7788, 13270.52
568.2609, 13297.53
568.7430, 13315.74
569.2252, 13308.95
569.7073, 13283.71
570.1894, 13255.27
570.6715, 13223.59
571.1536, 13203.96
571.6357, 13215.08
572.1179, 13253.32
572.6000, 13268.54
573.0821, 13245.53
573.5642, 13219.43
574.0463, 13191.98
574.5284, 13172.06
575.0106, 13176.60
575.4927, 13207.29
575.9748, 13241.67
576.4569, 13252.84
576.9390, 13239.58
577.4211, 13224.64
577.9033, 13202.81
578.3854, 13187.01
578.8675, 13189.79
579.3496, 13197.73
579.8317, 13189.69
580.3138, 13156.45
580.7960, 13125.22
581.2781, 13126.53
581.7602, 13149.33
582.2423, 13153.67
582.7244, 13129.35
583.2065, 13113.57
583.6887, 13145.34
584.1708, 13218.89
584.6529, 13255.61
585.1350, 13227.26
585.6171, 13198.50
586.0992, 13184.93
586.5814, 13183.63
587.0635, 13194.34
587.5456, 13215.17
588.0277, 13235.45
588.5098, 13242.48
588.9919, 13236.07
589.4741, 13234.58
589.9562, 13248.17
590.4383, 13250.72
590.9204, 13219.13
591.4025, 13178.54
591.8846, 13162.26
592.3668, 13180.83
592.8489, 13203.53
593.3310, 13210.32
593.8131, 13204.24
594.2952, 13187.30
