##NAMES=Paulingite-Na
##RRUFFID=R060457
##IDEAL CHEMISTRY=(Na_2_,K_2_,Ca,Ba)_5_Al_10_Si_35_O_90_&#183;45H_2_O
##LOCALITY=near Ritter, Grant County, Oregon, USA
##OWNER=RRUFF
##SOURCE=Michael Scott
##DESCRIPTION=Druse of colorless dodecahedral crystals coating vesicles in basalt
##STATUS=The identification of this mineral has been confirmed only by single crystal X-ray diffraction.
##URL=rruff.info/R060457
198.179, 7864.558
198.661, 7842.616
199.143, 7817.113
199.625, 7796.758
200.107, 7782.862
200.589, 7773.413
201.071, 7765.849
201.553, 7762.135
202.036, 7751.801
202.518, 7723.689
203.000, 7674.365
203.482, 7637.484
203.964, 7616.551
204.446, 7609.246
204.928, 7612.879
205.410, 7632.867
205.893, 7646.771
206.375, 7633.533
206.857, 7584.835
207.339, 7553.951
207.821, 7553.530
208.303, 7574.480
208.785, 7576.178
209.267, 7553.558
209.749, 7522.434
210.232, 7492.396
210.714, 7461.536
211.196, 7440.126
211.678, 7433.161
212.160, 7438.108
212.642, 7436.853
213.124, 7430.790
213.606, 7416.947
214.089, 7391.904
214.571, 7352.516
215.053, 7310.618
215.535, 7263.594
216.017, 7212.773
216.499, 7183.175
216.981, 7182.718
217.463, 7191.295
217.945, 7189.814
218.428, 7173.216
218.910, 7159.092
219.392, 7154.069
219.874, 7157.921
220.356, 7142.344
220.838, 7092.770
221.320, 7040.562
221.802, 7022.598
222.285, 7058.435
222.767, 7084.925
223.249, 7086.666
223.731, 7062.235
224.213, 7038.835
224.695, 7015.597
225.177, 6994.501
225.659, 6978.132
226.141, 6970.225
226.624, 6960.301
227.106, 6944.332
227.588, 6921.082
228.070, 6905.791
228.552, 6902.722
229.034, 6903.958
229.516, 6899.649
229.998, 6887.200
230.480, 6873.500
230.963, 6860.542
231.445, 6848.904
231.927, 6832.918
232.409, 6807.764
232.891, 6781.970
233.373, 6767.425
233.855, 6771.104
234.337, 6774.661
234.820, 6774.763
235.302, 6772.682
235.784, 6759.637
236.266, 6729.266
236.748, 6692.478
237.230, 6665.384
237.712, 6653.644
238.194, 6642.009
238.676, 6626.002
239.159, 6604.261
239.641, 6583.641
240.123, 6560.141
240.605, 6540.466
241.087, 6535.946
241.569, 6555.735
242.051, 6576.319
242.533, 6592.281
243.016, 6605.695
243.498, 6605.212
243.980, 6582.403
244.462, 6550.711
244.944, 6531.797
245.426, 6531.266
245.908, 6534.076
246.390, 6535.671
246.872, 6535.511
247.355, 6535.915
247.837, 6540.268
248.319, 6542.625
248.801, 6530.538
249.283, 6488.892
249.765, 6458.535
250.247, 6458.292
250.729, 6501.838
251.212, 6518.819
251.694, 6498.037
252.176, 6458.451
252.658, 6431.831
253.140, 6426.257
253.622, 6419.693
254.104, 6402.654
254.586, 6369.960
255.068, 6352.175
255.551, 6355.383
256.033, 6369.575
256.515, 6378.394
256.997, 6379.993
257.479, 6380.136
257.961, 6381.127
258.443, 6383.944
258.925, 6382.666
259.408, 6375.514
259.890, 6365.459
260.372, 6356.036
260.854, 6344.257
261.336, 6339.037
261.818, 6345.056
262.300, 6365.006
262.782, 6381.915
263.264, 6400.043
263.746, 6410.624
264.229, 6394.450
264.711, 6336.403
265.193, 6289.465
265.675, 6274.679
266.157, 6297.750
266.639, 6312.656
267.121, 6318.176
267.603, 6317.011
268.086, 6313.163
268.568, 6307.269
269.050, 6296.845
269.532, 6277.629
270.014, 6248.008
270.496, 6235.581
270.978, 6247.588
271.460, 6266.713
271.943, 6267.643
272.425, 6245.885
272.907, 6224.268
273.389, 6210.052
273.871, 6203.534
274.353, 6198.104
274.835, 6193.760
275.317, 6190.766
275.799, 6189.327
276.282, 6189.381
276.764, 6191.722
277.246, 6199.897
277.728, 6212.949
278.210, 6208.726
278.692, 6181.603
279.174, 6150.763
279.656, 6143.890
280.138, 6163.736
280.621, 6175.263
281.103, 6161.524
281.585, 6127.542
282.067, 6116.463
282.549, 6132.966
283.031, 6155.909
283.513, 6159.385
283.995, 6143.235
284.478, 6133.313
284.960, 6143.044
285.442, 6165.169
285.924, 6163.256
286.406, 6133.854
286.888, 6099.373
287.370, 6083.944
287.852, 6086.040
288.335, 6085.415
288.817, 6074.087
289.299, 6057.049
289.781, 6048.075
290.263, 6047.325
290.745, 6052.910
291.227, 6070.465
291.709, 6096.016
292.191, 6102.958
292.674, 6066.866
293.156, 6023.255
293.638, 6065.143
294.120, 6086.276
294.602, 6087.771
295.084, 6010.805
295.566, 6035.154
296.048, 6018.901
296.530, 6000.983
297.013, 6039.592
297.495, 5974.038
297.977, 6011.751
298.459, 6008.240
298.941, 6023.598
299.423, 5989.662
299.905, 6001.647
300.387, 5996.200
300.870, 5985.111
301.352, 5981.487
301.834, 5984.844
302.316, 5992.590
302.798, 6003.766
303.280, 6017.681
303.762, 6034.750
304.244, 6057.051
304.727, 6076.842
305.209, 6084.625
305.691, 6082.468
306.173, 6077.586
306.655, 6068.448
307.137, 6061.101
307.619, 6064.994
308.101, 6085.336
308.583, 6104.142
309.065, 6103.173
309.548, 6089.827
310.030, 6080.685
310.512, 6091.355
310.994, 6105.696
311.476, 6108.661
311.958, 6096.131
312.440, 6085.254
312.922, 6088.982
313.405, 6100.737
313.887, 6109.533
314.369, 6103.569
314.851, 6098.707
315.333, 6109.074
315.815, 6138.699
316.297, 6157.872
316.779, 6144.689
317.262, 6116.518
317.744, 6094.147
318.226, 6086.214
318.708, 6084.098
319.190, 6085.128
319.672, 6089.264
320.154, 6095.008
320.636, 6103.612
321.118, 6113.002
321.601, 6121.284
322.083, 6131.570
322.565, 6137.228
323.047, 6131.414
323.529, 6114.861
324.011, 6108.930
324.493, 6131.605
324.975, 6157.174
325.457, 6168.239
325.940, 6148.571
326.422, 6130.231
326.904, 6117.874
327.386, 6110.466
327.868, 6101.447
328.350, 6083.647
328.832, 6069.429
329.314, 6065.345
329.797, 6087.392
330.279, 6096.776
330.761, 6086.643
331.243, 6063.173
331.725, 6046.243
332.207, 6039.279
332.689, 6034.828
333.171, 6030.966
333.654, 6031.989
334.136, 6021.553
334.618, 5988.805
335.100, 5950.640
335.582, 5944.148
336.064, 5987.383
336.546, 6023.347
337.028, 6024.703
337.510, 5982.515
337.992, 5971.093
338.475, 6005.658
338.957, 6050.619
339.439, 6050.873
339.921, 5995.518
340.403, 5947.278
340.885, 5927.340
341.367, 5933.646
341.849, 5943.143
342.332, 5957.155
342.814, 5970.266
343.296, 5977.274
343.778, 5978.237
344.260, 5974.099
344.742, 5964.431
345.224, 5950.301
345.706, 5932.673
346.189, 5910.912
346.671, 5894.159
347.153, 5890.906
347.635, 5899.737
348.117, 5915.619
348.599, 5940.624
349.081, 5967.740
349.563, 5982.208
350.045, 5985.337
350.528, 5989.306
351.010, 6007.037
351.492, 6030.444
351.974, 6043.065
352.456, 6040.721
352.938, 6031.650
353.420, 6020.544
353.902, 6009.278
354.384, 6003.433
354.867, 5993.650
355.349, 5997.146
355.831, 5977.130
356.313, 6013.455
356.795, 6036.104
357.277, 6045.811
357.759, 6003.816
358.241, 6028.583
358.724, 6026.595
359.206, 6023.511
359.688, 6057.675
360.170, 6023.200
360.652, 6056.773
361.134, 6063.183
361.616, 6082.025
362.098, 6073.947
362.581, 6074.183
363.063, 6101.348
363.545, 6083.651
364.027, 6073.508
364.509, 6071.423
364.991, 6088.533
365.473, 6106.190
365.955, 6112.445
366.437, 6087.899
366.919, 6074.651
367.402, 6081.522
367.884, 6103.530
368.366, 6125.414
368.848, 6152.791
369.330, 6174.574
369.812, 6185.936
370.294, 6180.043
370.776, 6179.671
371.259, 6184.642
371.741, 6195.213
372.223, 6213.390
372.705, 6248.756
373.187, 6275.081
373.669, 6280.465
374.151, 6261.436
374.633, 6262.312
375.116, 6288.960
375.598, 6326.388
376.080, 6361.408
376.562, 6396.458
377.044, 6416.761
377.526, 6412.021
378.008, 6390.026
378.490, 6395.027
378.973, 6432.344
379.455, 6471.266
379.937, 6486.307
380.419, 6478.861
380.901, 6471.803
381.383, 6466.542
381.865, 6466.514
382.347, 6480.094
382.829, 6506.817
383.311, 6537.845
383.794, 6574.341
384.276, 6611.215
384.758, 6631.957
385.240, 6631.751
385.722, 6632.321
386.204, 6659.201
386.686, 6706.194
387.168, 6757.048
387.651, 6813.617
388.133, 6865.486
388.615, 6896.743
389.097, 6907.524
389.579, 6917.667
390.061, 6941.638
390.543, 6972.604
391.025, 7002.990
391.508, 7028.818
391.990, 7054.505
392.472, 7082.659
392.954, 7113.111
393.436, 7143.775
393.918, 7171.182
394.400, 7200.602
394.882, 7237.082
395.364, 7289.141
395.847, 7334.257
396.329, 7361.242
396.811, 7378.583
397.293, 7403.237
397.775, 7442.050
398.257, 7485.181
398.739, 7525.678
399.221, 7556.776
399.703, 7582.219
400.186, 7665.581
400.668, 7734.881
401.150, 7790.882
401.632, 7793.744
402.114, 7864.296
402.596, 7902.031
403.078, 7981.958
403.560, 8048.691
404.043, 8099.002
404.525, 8141.890
405.007, 8179.918
405.489, 8208.430
405.971, 8257.533
406.453, 8337.191
406.935, 8432.200
407.417, 8507.775
407.900, 8561.077
408.382, 8614.244
408.864, 8676.744
409.346, 8748.650
409.828, 8827.401
410.310, 8913.444
410.792, 9006.787
411.274, 9116.602
411.756, 9237.049
412.238, 9346.060
412.721, 9427.484
413.203, 9496.896
413.685, 9578.627
414.167, 9672.471
414.649, 9778.304
415.131, 9904.004
415.613, 10040.700
416.095, 10175.300
416.578, 10310.840
417.060, 10434.530
417.542, 10531.450
418.024, 10608.850
418.506, 10687.930
418.988, 10778.930
419.470, 10874.520
419.952, 10969.900
420.435, 11066.190
420.917, 11158.110
421.399, 11243.330
421.881, 11324.310
422.363, 11404.510
422.845, 11492.680
423.327, 11572.480
423.809, 11641.660
424.291, 11700.040
424.774, 11742.570
425.256, 11771.150
425.738, 11782.400
426.220, 11773.000
426.702, 11729.040
427.184, 11689.810
427.666, 11661.500
428.148, 11637.400
428.630, 11598.350
429.113, 11539.430
429.595, 11476.740
430.077, 11418.170
430.559, 11365.050
431.041, 11301.600
431.523, 11224.230
432.005, 11142.690
432.487, 11068.330
432.970, 11001.100
433.452, 10936.250
433.934, 10872.050
434.416, 10809.730
434.898, 10748.290
435.380, 10687.440
435.862, 10636.610
436.344, 10613.720
436.827, 10605.440
437.309, 10576.170
437.791, 10511.340
438.273, 10450.270
438.755, 10437.070
439.237, 10459.750
439.719, 10488.230
440.201, 10507.300
440.683, 10526.040
441.165, 10556.570
441.648, 10600.310
442.130, 10632.780
442.612, 10617.670
443.094, 10595.390
443.576, 10605.150
444.058, 10676.370
444.540, 10760.870
445.022, 10848.140
445.505, 10939.430
445.987, 11035.700
446.469, 11136.100
446.951, 11243.980
447.433, 11363.420
447.915, 11502.530
448.397, 11630.770
448.879, 11735.350
449.362, 11837.010
449.844, 11965.610
450.326, 12133.020
450.808, 12300.370
451.290, 12452.080
451.772, 12591.830
452.254, 12759.860
452.736, 12959.570
453.218, 13171.990
453.701, 13383.380
454.183, 13590.210
454.665, 13803.570
455.147, 14021.690
455.629, 14247.480
456.111, 14488.960
456.593, 14742.610
457.075, 14997.940
457.557, 15228.670
458.040, 15460.500
458.522, 15748.040
459.004, 16096.510
459.486, 16462.930
459.968, 16862.689
460.450, 17247.340
460.932, 17528.920
461.414, 17602.211
461.897, 17663.471
462.379, 17848.430
462.861, 18131.859
463.343, 18422.631
463.825, 18696.650
464.307, 18959.980
464.789, 19212.000
465.271, 19448.430
465.754, 19697.570
466.236, 19975.430
466.718, 20266.061
467.200, 20553.730
467.682, 20854.721
468.164, 21129.400
468.646, 21361.330
469.128, 21556.090
469.610, 21764.330
470.093, 21988.039
470.575, 22218.170
471.057, 22446.820
471.539, 22670.189
472.021, 22912.660
472.503, 23191.211
472.985, 23469.609
473.467, 23680.619
473.949, 23820.170
474.432, 23946.680
474.914, 24075.770
475.396, 24209.449
475.878, 24359.520
476.360, 24526.520
476.842, 24691.131
477.324, 24841.051
477.806, 24975.680
478.289, 25090.471
478.771, 25181.561
479.253, 25261.740
479.735, 25355.689
480.217, 25449.650
480.699, 25509.430
481.181, 25497.561
481.663, 25462.189
482.146, 25433.840
482.628, 25415.391
483.110, 25388.330
483.592, 25353.561
484.074, 25301.900
484.556, 25225.920
485.038, 25144.439
485.520, 25011.730
486.002, 24794.510
486.484, 24519.230
486.967, 24246.850
487.449, 23897.350
487.931, 23663.289
488.413, 23348.006
488.895, 23032.697
489.377, 22717.410
489.859, 22402.102
490.341, 22086.754
490.824, 21771.445
491.306, 21456.150
491.788, 20754.811
492.270, 20222.529
492.752, 19797.961
493.234, 19344.381
493.716, 18871.869
494.198, 18413.461
494.681, 18016.551
495.163, 17646.029
495.645, 17232.750
496.127, 16762.631
496.609, 16301.230
497.091, 15912.620
497.573, 15567.720
498.055, 15217.900
498.537, 14836.770
499.020, 14460.500
499.502, 14106.590
499.984, 13773.870
500.466, 13443.410
500.948, 13088.530
501.430, 12755.710
501.912, 12465.530
502.394, 12236.650
502.876, 12011.820
503.359, 11783.970
503.841, 11557.650
504.323, 11336.400
504.805, 11110.970
505.287, 10902.330
505.769, 10713.610
506.251, 10542.600
506.733, 10380.370
507.216, 10224.970
507.698, 10078.840
508.180, 9943.523
508.662, 9818.309
509.144, 9701.875
509.626, 9595.178
510.108, 9491.580
510.590, 9381.929
511.073, 9269.321
511.555, 9166.506
512.037, 9086.055
512.519, 9008.228
513.001, 8895.453
513.483, 8758.908
513.965, 8647.683
514.447, 8610.659
514.929, 8598.889
515.412, 8573.465
515.894, 8528.324
516.376, 8474.090
516.858, 8402.240
517.340, 8328.896
517.822, 8271.940
518.304, 8242.983
518.786, 8221.311
519.268, 8212.662
519.751, 8210.973
520.233, 8187.355
520.715, 8126.512
521.197, 8064.488
521.679, 8016.093
522.161, 7983.604
522.643, 7949.313
523.125, 7910.893
523.607, 7875.137
524.090, 7850.295
524.572, 7836.572
525.054, 7830.078
525.536, 7837.474
526.018, 7842.108
526.500, 7794.564
526.982, 7704.733
527.464, 7637.047
527.947, 7652.379
528.429, 7702.990
528.911, 7713.517
529.393, 7676.286
529.875, 7639.025
530.357, 7649.113
530.839, 7647.707
531.321, 7635.426
531.804, 7579.701
532.286, 7580.078
532.768, 7557.966
533.250, 7534.938
533.732, 7543.208
534.214, 7493.803
534.696, 7498.507
535.178, 7469.726
535.661, 7472.169
536.143, 7473.246
536.625, 7475.135
537.107, 7472.939
537.589, 7461.255
538.071, 7438.335
538.553, 7417.333
539.035, 7399.500
539.517, 7384.054
540.000, 7370.552
540.482, 7358.715
540.964, 7344.870
541.446, 7329.100
541.928, 7309.398
542.410, 7276.588
542.892, 7232.075
543.374, 7195.958
543.856, 7185.886
544.339, 7190.253
544.821, 7198.890
545.303, 7215.479
545.785, 7218.934
546.267, 7182.507
546.749, 7130.775
547.231, 7099.018
547.713, 7126.526
548.195, 7142.804
548.678, 7119.695
549.160, 7063.527
549.642, 7031.303
550.124, 7037.249
550.606, 7048.980
551.088, 7053.130
551.570, 7049.967
552.052, 7035.378
552.534, 7004.542
553.017, 6972.644
553.499, 6963.130
553.981, 6974.780
554.463, 6975.270
554.945, 6954.211
555.427, 6921.932
555.909, 6891.767
556.391, 6865.042
556.874, 6848.891
557.356, 6861.236
557.838, 6878.502
558.320, 6871.372
558.802, 6838.106
559.284, 6806.817
559.766, 6792.807
560.248, 6788.275
560.731, 6787.147
561.213, 6793.493
561.695, 6795.260
562.177, 6786.798
562.659, 6772.770
563.141, 6762.181
563.623, 6753.173
564.105, 6750.571
564.588, 6758.524
565.070, 6775.315
565.552, 6781.023
566.034, 6772.384
566.516, 6762.206
566.998, 6758.569
567.480, 6761.173
567.962, 6767.463
568.444, 6778.400
568.927, 6787.426
569.409, 6784.448
569.891, 6773.153
570.373, 6763.409
570.855, 6758.726
571.337, 6756.369
571.819, 6755.338
572.301, 6754.760
572.783, 6751.937
573.266, 6747.945
573.748, 6739.488
574.230, 6719.850
574.712, 6685.730
575.194, 6667.185
575.676, 6682.731
576.158, 6706.528
576.640, 6721.459
577.122, 6722.579
577.605, 6725.428
578.087, 6732.530
578.569, 6739.989
579.051, 6739.889
579.533, 6731.153
580.015, 6723.541
580.497, 6720.837
580.979, 6721.162
581.461, 6718.825
581.944, 6713.975
582.426, 6708.843
582.908, 6706.327
583.390, 6703.909
583.872, 6694.334
584.354, 6675.436
584.836, 6664.691
585.318, 6681.746
585.801, 6709.774
586.283, 6730.747
586.765, 6739.608
587.247, 6740.301
587.729, 6722.353
588.211, 6696.940
588.693, 6693.259
589.175, 6733.711
589.657, 6767.167
590.140, 6778.411
590.622, 6768.510
591.104, 6765.829
591.586, 6773.490
592.068, 6779.338
592.550, 6773.844
593.032, 6757.779
593.515, 6739.911
593.997, 6719.160
594.479, 6704.628
594.961, 6716.310
595.443, 6742.467
595.925, 6753.220
596.407, 6726.205
596.889, 6698.959
597.371, 6709.827
597.854, 6745.419
598.336, 6770.612
598.818, 6762.167
599.300, 6747.766
599.782, 6738.524
600.264, 6735.278
600.746, 6734.342
601.228, 6732.726
601.710, 6735.668
602.193, 6746.351
602.675, 6766.691
603.157, 6791.278
603.639, 6824.603
604.121, 6854.338
604.603, 6860.095
605.085, 6842.315
605.567, 6825.438
606.049, 6814.772
606.532, 6809.611
607.014, 6799.769
607.496, 6791.461
607.978, 6762.225
608.460, 6808.281
608.942, 6836.061
609.424, 6846.546
609.906, 6787.936
610.388, 6818.547
610.871, 6813.404
611.353, 6806.793
611.835, 6849.963
612.317, 6801.402
612.799, 6843.782
613.281, 6849.861
613.763, 6847.526
614.245, 6846.715
614.728, 6885.300
615.210, 6912.673
615.692, 6918.745
616.174, 6910.203
616.656, 6902.998
617.138, 6897.191
617.620, 6888.635
618.102, 6868.618
618.584, 6846.659
619.067, 6843.426
619.549, 6857.831
620.031, 6877.291
620.513, 6903.375
620.995, 6924.570
621.477, 6926.060
621.959, 6899.088
622.442, 6877.956
622.924, 6877.345
623.406, 6886.806
623.888, 6895.807
624.370, 6910.314
624.852, 6913.738
625.334, 6899.858
625.816, 6876.243
626.298, 6859.533
626.781, 6849.330
627.263, 6847.809
627.745, 6859.534
628.227, 6879.459
628.709, 6889.718
629.191, 6890.474
629.673, 6885.500
630.155, 6875.448
630.638, 6862.252
631.120, 6846.430
631.602, 6827.565
632.084, 6815.490
632.566, 6823.472
633.048, 6837.957
633.530, 6845.670
634.012, 6838.527
634.494, 6832.569
634.977, 6834.290
635.459, 6837.833
635.941, 6833.539
636.423, 6815.661
636.905, 6801.253
637.387, 6795.577
637.869, 6795.203
638.351, 6785.338
638.833, 6764.675
639.316, 6749.005
639.798, 6750.567
640.280, 6763.022
640.762, 6769.299
641.244, 6769.316
641.726, 6766.331
642.208, 6756.896
642.690, 6748.816
643.172, 6755.526
643.655, 6787.920
644.137, 6802.704
644.619, 6757.404
645.101, 6696.444
645.583, 6668.074
646.065, 6720.728
646.547, 6750.631
647.029, 6740.594
647.511, 6708.481
647.994, 6693.048
648.476, 6696.464
648.958, 6708.340
649.440, 6730.457
649.922, 6755.952
650.404, 6755.903
650.886, 6731.889
651.369, 6711.554
651.851, 6715.319
652.333, 6732.633
652.815, 6752.850
653.297, 6775.224
653.779, 6789.382
654.261, 6785.491
654.743, 6773.281
655.225, 6760.805
655.708, 6751.258
656.190, 6738.228
656.672, 6713.794
657.154, 6689.579
657.636, 6678.300
658.118, 6684.026
658.600, 6692.406
659.082, 6702.810
659.565, 6713.342
660.047, 6719.380
660.529, 6720.901
661.011, 6719.764
661.493, 6717.202
661.975, 6712.107
662.457, 6697.872
662.939, 6677.341
663.421, 6665.825
663.904, 6686.396
664.386, 6709.738
664.868, 6710.978
665.350, 6686.018
665.832, 6665.354
666.314, 6657.999
666.796, 6656.700
667.278, 6656.626
667.760, 6658.214
668.243, 6659.707
668.725, 6660.328
669.207, 6661.448
669.689, 6664.547
670.171, 6669.379
670.653, 6677.053
671.135, 6690.414
671.617, 6700.363
672.099, 6685.605
672.582, 6655.191
673.064, 6635.435
673.546, 6651.891
674.028, 6672.137
674.510, 6672.777
674.992, 6657.733
675.474, 6643.818
675.956, 6638.396
676.439, 6633.661
676.921, 6629.693
677.403, 6627.547
677.885, 6608.081
678.367, 6558.396
678.849, 6515.998
679.331, 6510.219
679.813, 6541.357
680.295, 6566.562
680.778, 6584.857
681.260, 6596.294
681.742, 6591.597
682.224, 6580.732
682.706, 6588.851
683.188, 6629.409
683.670, 6667.717
684.153, 6678.071
684.635, 6670.898
685.117, 6661.170
685.599, 6644.363
686.081, 6635.223
686.563, 6641.001
687.045, 6656.499
687.527, 6670.785
688.009, 6687.757
688.492, 6693.139
688.974, 6673.114
689.456, 6639.766
689.938, 6660.768
690.420, 6736.558
690.902, 6800.526
691.384, 6803.803
691.866, 6770.539
692.348, 6731.740
692.831, 6689.695
693.313, 6662.457
693.795, 6668.467
694.277, 6689.668
694.759, 6714.060
695.241, 6744.117
695.723, 6763.892
696.205, 6767.915
696.688, 6763.425
697.170, 6754.729
697.652, 6738.610
698.134, 6729.290
698.616, 6729.370
699.098, 6734.126
699.580, 6738.033
700.062, 6740.854
700.544, 6739.356
701.027, 6730.332
701.509, 6720.671
701.991, 6720.153
702.473, 6725.676
702.955, 6729.438
703.437, 6724.343
703.919, 6720.346
704.401, 6722.214
704.883, 6729.414
705.366, 6733.179
705.848, 6708.601
706.330, 6740.291
706.812, 6758.323
707.294, 6763.430
707.776, 6716.901
708.258, 6737.049
708.740, 6730.476
709.222, 6722.808
709.705, 6752.340
710.187, 6713.322
710.669, 6742.264
711.151, 6744.078
711.633, 6739.604
712.115, 6731.222
712.597, 6740.325
713.080, 6781.625
713.562, 6806.313
714.044, 6780.564
714.526, 6741.871
715.008, 6731.547
715.490, 6767.622
715.972, 6792.943
716.454, 6801.374
716.936, 6799.553
