##NAMES=Pavonite
##RRUFFID=R070566
##IDEAL CHEMISTRY=AgBi_3_S_5_
##LOCALITY=near Charcas, San Luis Potosi, Mexico
##OWNER=RRUFF
##SOURCE=James Shigley
##DESCRIPTION=Steel-gray metallic massive
##STATUS=The identification of this mineral has been confirmed only by single crystal X-ray diffraction.
##URL=rruff.info/R070566
138.9388, 1313.007
139.4209, 1339.458
139.9030, 1358.605
140.3851, 1374.326
140.8673, 1385.902
141.3494, 1394.969
141.8315, 1404.571
142.3136, 1415.761
142.7957, 1423.880
143.2778, 1425.052
143.7600, 1415.206
144.2421, 1413.589
144.7242, 1423.388
145.2063, 1441.413
145.6884, 1452.541
146.1705, 1447.300
146.6527, 1438.981
147.1348, 1426.221
147.6169, 1400.323
148.0990, 1385.834
148.5811, 1389.705
149.0633, 1413.859
149.5454, 1428.357
150.0275, 1428.620
150.5096, 1422.436
150.9917, 1419.032
151.4738, 1422.001
151.9560, 1423.865
152.4381, 1422.466
152.9202, 1414.990
153.4023, 1409.585
153.8844, 1409.431
154.3665, 1411.665
154.8487, 1408.498
155.3308, 1391.355
155.8129, 1374.730
156.2950, 1365.526
156.7771, 1373.637
157.2592, 1378.831
157.7414, 1376.968
158.2235, 1368.336
158.7056, 1360.840
159.1877, 1353.259
159.6698, 1348.373
160.1519, 1348.757
160.6341, 1358.231
161.1162, 1370.105
161.5983, 1385.150
162.0804, 1407.838
162.5625, 1417.511
163.0446, 1394.225
163.5268, 1354.388
164.0089, 1328.947
164.4910, 1346.980
164.9731, 1371.080
165.4552, 1377.100
165.9373, 1342.148
166.4195, 1312.342
166.9016, 1314.974
167.3837, 1343.732
167.8658, 1366.453
168.3479, 1362.899
168.8300, 1346.863
169.3122, 1332.485
169.7943, 1320.992
170.2764, 1315.631
170.7585, 1321.851
171.2406, 1340.628
171.7227, 1357.670
172.2049, 1362.997
172.6870, 1360.116
173.1691, 1355.451
173.6512, 1348.591
174.1333, 1343.119
174.6154, 1343.115
175.0976, 1350.497
175.5797, 1359.662
176.0618, 1367.466
176.5439, 1373.462
177.0260, 1376.162
177.5081, 1372.375
177.9903, 1365.088
178.4724, 1358.527
178.9545, 1351.454
179.4366, 1347.557
179.9187, 1354.207
180.4008, 1370.927
180.8830, 1387.228
181.3651, 1393.444
181.8472, 1392.015
182.3293, 1389.062
182.8114, 1384.720
183.2935, 1380.832
183.7757, 1381.676
184.2578, 1387.929
184.7399, 1395.585
185.2220, 1399.743
185.7041, 1400.982
186.1862, 1402.163
186.6684, 1404.387
187.1505, 1407.740
187.6326, 1413.617
188.1147, 1424.014
188.5968, 1433.787
189.0790, 1430.905
189.5611, 1415.637
190.0432, 1402.022
190.5253, 1404.606
191.0074, 1419.981
191.4895, 1428.234
191.9717, 1421.474
192.4538, 1406.317
192.9359, 1402.319
193.4180, 1410.715
193.9001, 1422.597
194.3822, 1429.723
194.8644, 1432.097
195.3465, 1431.852
195.8286, 1428.668
196.3107, 1423.032
196.7928, 1418.185
197.2749, 1413.714
197.7571, 1411.051
198.2392, 1412.543
198.7213, 1418.255
199.2034, 1426.836
199.6855, 1439.764
200.1676, 1457.170
200.6498, 1468.659
201.1319, 1472.200
201.6140, 1470.718
202.0961, 1472.879
202.5782, 1480.318
203.0603, 1483.922
203.5425, 1472.807
204.0246, 1444.170
204.5067, 1428.306
204.9888, 1433.610
205.4709, 1455.687
205.9530, 1470.519
206.4352, 1477.224
206.9173, 1478.841
207.3994, 1477.021
207.8815, 1470.651
208.3636, 1466.444
208.8457, 1466.327
209.3279, 1470.331
209.8100, 1475.585
210.2921, 1481.949
210.7742, 1489.876
211.2563, 1502.305
211.7384, 1522.991
212.2206, 1536.367
212.7027, 1533.855
213.1848, 1510.864
213.6669, 1494.336
214.1490, 1484.881
214.6311, 1481.535
215.1133, 1482.289
215.5954, 1487.925
216.0775, 1495.851
216.5596, 1506.408
217.0417, 1522.647
217.5238, 1530.002
218.0060, 1523.242
218.4881, 1506.204
218.9702, 1499.994
219.4523, 1507.771
219.9344, 1520.781
220.4165, 1533.975
220.8987, 1550.973
221.3808, 1558.183
221.8629, 1549.366
222.3450, 1524.823
222.8271, 1511.796
223.3092, 1514.598
223.7914, 1523.961
224.2735, 1529.822
224.7556, 1530.763
225.2377, 1531.474
225.7198, 1533.391
226.2020, 1536.956
226.6841, 1539.374
227.1662, 1541.489
227.6483, 1541.878
228.1304, 1537.062
228.6125, 1521.843
229.0947, 1510.480
229.5768, 1509.081
230.0589, 1522.768
230.5410, 1532.137
231.0231, 1535.570
231.5052, 1535.000
231.9874, 1536.006
232.4695, 1541.494
232.9516, 1544.240
233.4337, 1539.159
233.9158, 1518.684
234.3979, 1507.313
234.8801, 1510.102
235.3622, 1523.842
235.8443, 1531.171
236.3264, 1529.895
236.8085, 1524.943
237.2906, 1519.243
237.7728, 1511.707
238.2549, 1505.541
238.7370, 1501.053
239.2191, 1498.264
239.7012, 1497.581
240.1833, 1500.810
240.6655, 1504.325
241.1476, 1504.466
241.6297, 1499.483
242.1118, 1494.303
242.5939, 1490.137
243.0760, 1487.267
243.5582, 1482.972
244.0403, 1477.024
244.5224, 1469.871
245.0045, 1461.990
245.4866, 1453.096
245.9688, 1444.030
246.4509, 1434.515
246.9330, 1423.348
247.4151, 1416.655
247.8972, 1417.324
248.3793, 1420.905
248.8615, 1418.263
249.3436, 1403.092
249.8257, 1391.673
250.3078, 1392.467
250.7899, 1416.527
251.2720, 1425.098
251.7542, 1410.679
252.2363, 1382.409
252.7184, 1366.893
253.2005, 1372.324
253.6826, 1378.415
254.1647, 1373.471
254.6469, 1349.252
255.1290, 1333.082
255.6111, 1328.873
256.0932, 1334.203
256.5753, 1339.151
257.0574, 1346.479
257.5396, 1349.506
258.0217, 1341.979
258.5038, 1316.242
258.9859, 1298.503
259.4680, 1295.766
259.9501, 1305.739
260.4323, 1304.528
260.9144, 1284.910
261.3965, 1264.090
261.8786, 1258.071
262.3607, 1273.333
262.8428, 1287.618
263.3250, 1297.583
263.8071, 1303.246
264.2892, 1303.735
264.7713, 1297.476
265.2534, 1288.096
265.7355, 1280.092
266.2177, 1275.141
266.6998, 1266.510
267.1819, 1249.398
267.6640, 1222.830
268.1461, 1209.010
268.6282, 1211.911
269.1104, 1222.782
269.5925, 1230.392
270.0746, 1233.812
270.5567, 1236.417
271.0388, 1239.137
271.5209, 1241.979
272.0031, 1245.501
272.4852, 1251.119
272.9673, 1255.811
273.4494, 1253.290
273.9315, 1241.160
274.4136, 1230.123
274.8958, 1227.056
275.3779, 1234.742
275.8600, 1229.787
276.3421, 1206.367
276.8242, 1176.455
277.3063, 1166.235
277.7885, 1180.044
278.2706, 1195.468
278.7527, 1201.243
279.2348, 1196.496
279.7169, 1190.109
280.1990, 1182.296
280.6812, 1173.354
281.1633, 1163.211
281.6454, 1151.108
282.1275, 1141.081
282.6096, 1136.286
283.0917, 1136.873
283.5739, 1137.510
284.0560, 1137.834
284.5381, 1137.724
285.0202, 1137.708
285.5023, 1138.222
285.9844, 1135.849
286.4666, 1126.149
286.9487, 1109.541
287.4308, 1096.003
287.9129, 1086.981
288.3950, 1082.201
288.8771, 1085.011
289.3593, 1096.651
289.8414, 1102.363
290.3235, 1082.148
290.8056, 1040.377
291.2877, 1014.244
291.7699, 1016.255
292.2520, 1034.874
292.7341, 1042.446
293.2162, 1038.569
293.6983, 1031.372
294.1805, 1028.066
294.6626, 1027.696
295.1447, 1025.696
295.6268, 1020.755
296.1089, 1013.519
296.5910, 1003.408
297.0732, 990.2983
297.5553, 979.6838
298.0374, 980.2782
298.5195, 988.3641
299.0016, 991.2614
299.4837, 981.7806
299.9659, 966.5515
300.4480, 957.0385
300.9301, 953.3565
301.4122, 951.6112
301.8943, 948.2856
302.3764, 944.2235
302.8586, 941.5384
303.3407, 941.6460
303.8228, 943.2839
304.3049, 944.7999
304.7870, 946.2142
305.2691, 947.7097
305.7513, 950.0607
306.2334, 952.5985
306.7155, 954.0554
307.1976, 953.3388
307.6797, 951.5562
308.1618, 950.2328
308.6440, 949.3909
309.1261, 947.4834
309.6082, 942.1270
310.0903, 934.9996
310.5724, 928.9960
311.0545, 926.7565
311.5367, 925.0922
312.0188, 919.6646
312.5009, 909.9607
312.9830, 903.9873
313.4651, 912.2638
313.9472, 926.5408
314.4294, 934.6815
314.9115, 925.4960
315.3936, 913.2109
315.8757, 906.1834
316.3578, 905.0577
316.8399, 907.6763
317.3221, 918.5223
317.8042, 931.0875
318.2863, 937.0932
318.7684, 929.5911
319.2505, 917.8777
319.7326, 904.8963
320.2148, 890.4213
320.6969, 879.1821
321.1790, 874.3127
321.6611, 873.0819
322.1432, 871.9857
322.6253, 870.4977
323.1075, 868.4902
323.5896, 865.0583
324.0717, 859.4177
324.5538, 856.6008
325.0359, 860.4136
325.5180, 866.7806
326.0002, 870.7598
326.4823, 868.2766
326.9644, 866.3715
327.4465, 867.5012
327.9286, 872.7711
328.4107, 877.0464
328.8929, 882.9816
329.3750, 886.8094
329.8571, 883.9898
330.3392, 862.6156
330.8213, 846.2792
331.3034, 841.5505
331.7856, 852.4073
332.2677, 858.8265
332.7498, 858.0259
333.2319, 854.1924
333.7140, 852.5372
334.1961, 855.4215
334.6783, 857.1555
335.1604, 855.9846
335.6425, 851.1904
336.1246, 847.5048
336.6067, 845.0965
337.0888, 843.6275
337.5710, 842.6117
338.0531, 841.6908
338.5352, 841.9962
339.0173, 843.9887
339.4994, 847.7842
339.9815, 851.9164
340.4637, 856.5110
340.9458, 861.2303
341.4279, 867.3317
341.9100, 876.8287
342.3921, 878.7211
342.8742, 865.5353
343.3564, 838.7588
343.8385, 827.1006
344.3206, 833.9977
344.8027, 847.2917
345.2848, 851.9349
345.7669, 847.5726
346.2491, 845.7916
346.7312, 852.7220
347.2133, 865.5675
347.6954, 869.8413
348.1775, 864.6395
348.6596, 855.8643
349.1418, 848.9312
349.6239, 843.6987
350.1060, 839.0545
350.5881, 834.9281
351.0702, 830.9742
351.5523, 825.3438
352.0345, 817.7626
352.5166, 812.1722
352.9987, 813.0641
353.4808, 818.8751
353.9629, 825.4871
354.4450, 833.4874
354.9272, 840.2684
355.4093, 840.8682
355.8914, 835.4600
356.3735, 830.4124
356.8556, 832.5661
357.3377, 837.9304
357.8199, 840.3292
358.3020, 836.4639
358.7841, 829.8015
359.2662, 821.3921
359.7483, 811.6528
360.2304, 805.0308
360.7126, 806.2822
361.1947, 811.0820
361.6768, 815.0394
362.1589, 817.3018
362.6410, 817.8709
363.1231, 815.0988
363.6053, 809.7127
364.0874, 806.8057
364.5695, 811.4447
365.0516, 817.6364
365.5337, 820.8799
366.0158, 817.4376
366.4980, 813.7264
366.9801, 810.2188
367.4622, 807.3138
367.9443, 807.1841
368.4264, 816.0096
368.9085, 823.7747
369.3907, 825.0784
369.8728, 808.7241
370.3549, 798.5076
370.8370, 798.1511
371.3191, 805.6507
371.8012, 813.6580
372.2834, 828.6779
372.7655, 838.1542
373.2476, 835.3307
373.7297, 805.1097
374.2119, 790.0126
374.6940, 798.2687
375.1761, 820.1106
375.6582, 829.1984
376.1403, 818.9312
376.6224, 807.2037
377.1046, 801.6840
377.5867, 788.4728
378.0688, 807.7059
378.5509, 818.6266
379.0330, 821.6817
379.5151, 793.3125
379.9973, 805.5212
380.4794, 801.4681
380.9615, 796.7482
381.4436, 814.6682
381.9257, 790.8695
382.4078, 808.4304
382.8900, 809.4813
383.3721, 818.0884
383.8542, 810.3332
384.3363, 807.6318
384.8184, 821.2979
385.3005, 825.9012
385.7827, 816.2626
386.2648, 825.3500
386.7469, 800.9797
387.2290, 805.9691
387.7111, 823.6257
388.1932, 814.8096
388.6754, 824.1962
389.1575, 826.6503
389.6396, 797.5988
390.1217, 823.3385
390.6038, 825.3828
391.0859, 803.0971
391.5681, 826.9595
392.0502, 808.0280
392.5323, 804.3712
393.0144, 818.6005
393.4965, 820.7567
393.9786, 818.7220
394.4608, 818.3677
394.9429, 825.5508
395.4250, 834.5305
395.9071, 840.0950
396.3892, 837.0563
396.8713, 834.3226
397.3535, 838.2350
397.8356, 846.3161
398.3177, 846.4823
398.7998, 823.4249
399.2819, 799.6955
399.7640, 788.2326
400.2462, 801.3890
400.7283, 812.8549
401.2104, 819.6877
401.6925, 823.0228
402.1746, 826.7197
402.6567, 833.0446
403.1389, 837.5710
403.6210, 838.5583
404.1031, 835.0947
404.5852, 829.6586
405.0673, 819.1472
405.5494, 808.1833
406.0316, 806.9882
406.5137, 819.9055
406.9958, 832.6210
407.4779, 839.8179
407.9600, 840.9482
408.4421, 841.2942
408.9243, 839.7445
409.4064, 839.4448
409.8885, 848.2254
410.3706, 867.2962
410.8527, 877.5227
411.3348, 868.4238
411.8170, 844.7178
412.2991, 827.5820
412.7812, 817.4408
413.2633, 811.6302
413.7454, 806.8856
414.2275, 804.0712
414.7097, 807.2639
415.1918, 821.9383
415.6739, 840.0571
416.1560, 849.3817
416.6381, 850.2916
417.1202, 846.8175
417.6024, 839.4281
418.0845, 830.1715
418.5666, 821.3431
419.0487, 811.1832
419.5308, 805.0819
420.0129, 811.5529
420.4951, 826.6068
420.9772, 836.7471
421.4593, 829.1934
421.9414, 817.8361
422.4235, 812.6930
422.9056, 817.0145
423.3878, 824.1437
423.8699, 837.7169
424.3520, 852.1798
424.8341, 856.8716
425.3162, 835.7066
425.7983, 816.5906
426.2805, 810.8205
426.7626, 824.8873
427.2447, 834.8388
427.7268, 840.1757
428.2089, 840.9141
428.6910, 836.6072
429.1732, 821.3116
429.6553, 809.7834
430.1374, 806.1837
430.6195, 810.8028
431.1016, 813.3398
431.5837, 812.5149
432.0659, 811.5499
432.5480, 813.9550
433.0301, 820.6364
433.5122, 826.2004
433.9943, 830.2372
434.4764, 832.2435
434.9586, 827.8966
435.4407, 815.8435
435.9228, 807.6631
436.4049, 818.0657
436.8870, 842.2408
437.3691, 852.0116
437.8513, 839.4828
438.3334, 819.4664
438.8155, 813.4483
439.2976, 819.6158
439.7797, 828.6702
440.2618, 839.0341
440.7440, 847.6711
441.2261, 849.9053
441.7082, 844.8149
442.1903, 835.9997
442.6724, 819.6707
443.1545, 802.2448
443.6367, 795.1656
444.1188, 815.0892
444.6009, 837.1334
445.0830, 845.3724
445.5651, 838.7043
446.0472, 833.7728
446.5294, 840.2067
447.0115, 849.4398
447.4936, 853.7453
447.9757, 843.0424
448.4578, 836.6059
448.9399, 839.8721
449.4221, 851.8315
449.9042, 862.0084
450.3863, 871.8921
450.8684, 878.5090
451.3505, 879.7458
451.8326, 870.7176
452.3148, 866.3008
452.7969, 868.8043
453.2790, 875.1409
453.7611, 877.9348
454.2432, 876.3663
454.7253, 873.7993
455.2075, 872.1955
455.6896, 871.6802
456.1717, 866.6141
456.6538, 855.1326
457.1360, 844.3845
457.6181, 844.7380
458.1002, 855.4312
458.5823, 867.9640
459.0644, 881.6954
459.5465, 894.3764
460.0287, 900.8033
460.5108, 900.9335
460.9929, 898.3824
461.4750, 893.2990
461.9571, 888.0153
462.4392, 887.1039
462.9214, 894.8693
463.4035, 902.7525
463.8856, 901.0967
464.3677, 893.0669
464.8498, 889.0526
465.3319, 902.8701
465.8141, 916.5875
466.2962, 915.7882
466.7783, 890.8046
467.2604, 872.0797
467.7425, 873.7512
468.2246, 886.0643
468.7068, 894.4705
469.1889, 889.2087
469.6710, 887.2988
470.1531, 895.6996
470.6352, 916.4851
471.1173, 928.9938
471.5995, 930.8991
472.0816, 926.7552
472.5637, 919.8096
473.0458, 908.9127
473.5279, 897.9991
474.0100, 886.0417
474.4922, 874.8246
474.9743, 873.4651
475.4564, 884.3103
475.9385, 894.2251
476.4206, 893.2774
476.9027, 882.5421
477.3849, 873.9818
477.8670, 869.1216
478.3491, 865.2115
478.8312, 855.1642
479.3133, 841.2439
479.7954, 834.4981
480.2776, 847.2906
480.7597, 867.2149
481.2418, 877.0945
481.7239, 876.3087
482.2060, 871.6177
482.6881, 866.2208
483.1703, 860.3802
483.6524, 854.3976
484.1345, 845.3198
484.6166, 839.0891
485.0987, 840.8253
485.5808, 848.6232
486.0630, 853.3820
486.5451, 850.8276
487.0272, 845.6168
487.5093, 839.6230
487.9914, 828.7452
488.4735, 824.8835
488.9557, 834.9560
489.4378, 850.0554
489.9199, 854.3804
490.4020, 840.1588
490.8841, 828.3766
491.3662, 826.1926
491.8484, 833.9610
492.3305, 837.0579
492.8126, 833.7679
493.2947, 829.7535
493.7768, 831.3004
494.2589, 838.5538
494.7411, 844.4089
495.2232, 847.7952
495.7053, 848.6738
496.1874, 845.4183
496.6695, 838.5215
497.1516, 833.3569
497.6338, 834.1392
498.1159, 838.8774
498.5980, 845.2717
499.0801, 854.0323
499.5622, 859.9877
500.0443, 855.5097
500.5265, 845.7861
501.0086, 839.8484
501.4907, 848.7420
501.9728, 856.3767
502.4549, 850.9755
502.9370, 832.3506
503.4192, 819.3824
503.9013, 822.4586
504.3834, 830.2773
504.8655, 834.8894
505.3476, 833.7602
505.8297, 831.2054
506.3119, 825.9272
506.7940, 819.4296
507.2761, 815.9962
507.7582, 816.5473
508.2403, 818.6838
508.7224, 822.2319
509.2046, 827.6993
509.6867, 829.2008
510.1688, 824.7654
510.6509, 820.8022
511.1330, 829.0034
511.6151, 848.6097
512.0973, 859.0548
512.5794, 850.3577
513.0615, 832.0559
513.5436, 824.8973
514.0258, 828.1160
514.5079, 831.2203
514.9900, 822.6198
515.4721, 810.4258
515.9542, 807.5505
516.4363, 818.9411
516.9185, 831.1796
517.4006, 835.5369
517.8827, 834.1288
518.3648, 830.7853
518.8469, 823.4469
519.3290, 817.6650
519.8112, 817.3244
520.2933, 823.0873
520.7754, 825.6440
521.2575, 819.6827
521.7396, 812.4141
522.2217, 809.1859
522.7039, 814.4036
523.1860, 816.2935
523.6681, 811.6572
524.1502, 803.8505
524.6323, 804.1236
525.1144, 816.0478
525.5966, 825.1948
526.0787, 820.6741
526.5608, 802.9326
527.0429, 804.7900
527.5250, 830.5969
528.0071, 857.3298
528.4893, 851.9860
528.9714, 822.8320
529.4535, 804.0766
529.9356, 812.2484
530.4177, 829.7874
530.8998, 834.5448
531.3820, 828.2208
531.8641, 818.9090
532.3462, 807.5603
532.8283, 797.7900
533.3104, 793.0427
533.7925, 794.7707
534.2747, 798.6638
534.7568, 803.9811
535.2389, 810.2174
535.7210, 816.6471
536.2031, 827.1479
536.6852, 833.5891
537.1674, 831.9518
537.6495, 822.8331
538.1316, 818.4197
538.6137, 821.5771
539.0958, 825.7297
539.5779, 827.3420
540.0601, 826.6455
540.5422, 821.2430
541.0243, 808.6536
541.5064, 794.8328
541.9885, 790.7361
542.4706, 796.3478
542.9528, 804.2529
543.4349, 815.2390
543.9170, 825.4355
544.3991, 822.3630
544.8812, 806.3295
545.3633, 792.6602
545.8455, 798.8248
546.3276, 813.1991
546.8097, 819.1360
547.2918, 808.4459
547.7739, 796.5676
548.2560, 788.6101
548.7382, 786.0026
549.2203, 791.8459
549.7024, 823.6168
550.1845, 849.3439
550.6666, 851.6025
551.1487, 823.7492
551.6309, 808.7758
552.1130, 816.3062
552.5951, 829.6138
553.0772, 835.7241
553.5593, 831.9544
554.0414, 828.0445
554.5236, 825.1229
555.0057, 822.5824
555.4878, 817.9584
555.9699, 810.8647
556.4520, 806.0280
556.9341, 807.6292
557.4163, 813.6336
557.8984, 815.6429
558.3805, 813.2271
558.8626, 811.2852
559.3447, 815.8805
559.8268, 823.8462
560.3090, 829.7202
560.7911, 833.0694
561.2732, 832.4379
561.7553, 822.3732
562.2374, 806.9059
562.7195, 797.7794
563.2017, 805.0983
563.6838, 814.8682
564.1659, 821.0002
564.6480, 822.4677
565.1301, 822.5337
565.6122, 820.6306
566.0944, 817.9854
566.5765, 815.3101
567.0586, 811.1270
567.5407, 810.8365
568.0228, 817.0330
568.5049, 826.5298
568.9871, 828.6552
569.4692, 822.3588
569.9513, 817.0188
570.4334, 820.2120
570.9155, 828.7825
571.3976, 829.6708
571.8798, 821.9477
572.3619, 813.4815
572.8440, 812.2297
573.3261, 815.4030
573.8082, 818.3289
574.2903, 820.7532
574.7725, 820.9990
575.2546, 815.7902
575.7367, 807.3316
576.2188, 801.6920
576.7009, 803.0983
577.1830, 806.1057
577.6652, 809.1153
578.1473, 812.6800
578.6294, 812.7739
579.1115, 806.9501
579.5936, 799.6920
580.0757, 794.6457
580.5579, 792.2354
581.0400, 790.7592
581.5221, 789.5009
582.0042, 789.4767
582.4863, 795.1050
582.9684, 806.7139
583.4506, 815.1323
583.9327, 812.2368
584.4148, 802.9576
584.8969, 801.1272
585.3790, 807.0645
585.8611, 815.7524
586.3433, 828.7500
586.8254, 840.2387
587.3075, 841.2031
587.7896, 822.0539
588.2717, 804.3710
588.7538, 798.6045
589.2360, 802.1742
589.7181, 809.5767
590.2002, 828.6146
590.6823, 842.2797
591.1644, 842.0668
591.6465, 827.0035
592.1287, 818.1810
592.6108, 818.8480
593.0929, 821.5718
593.5750, 820.3917
594.0571, 814.2433
594.5392, 812.0535
595.0214, 816.0674
595.5035, 821.5145
595.9856, 820.0596
596.4677, 812.3190
596.9498, 803.1067
597.4319, 789.6543
597.9141, 778.5809
598.3962, 784.3329
598.8783, 804.7598
599.3604, 822.0532
599.8425, 822.2937
600.3246, 815.7485
600.8068, 811.3118
601.2889, 811.1400
601.7710, 811.3570
602.2531, 812.8116
602.7352, 813.3715
603.2173, 809.7643
603.6995, 792.4987
604.1816, 783.9919
604.6637, 791.3130
605.1458, 811.0064
605.6279, 823.8586
606.1100, 829.7207
606.5922, 829.3068
607.0743, 819.7719
607.5564, 802.3483
608.0385, 791.1105
608.5206, 786.6611
609.0027, 787.5845
609.4849, 797.2002
609.9670, 810.9026
610.4491, 817.3120
610.9312, 808.4324
611.4133, 797.9031
611.8954, 795.9406
612.3776, 800.8395
612.8597, 807.8989
613.3418, 820.0682
613.8239, 829.6678
614.3060, 831.3438
614.7881, 822.8704
615.2703, 819.8891
615.7524, 828.9384
616.2345, 838.1007
616.7166, 836.9595
617.1987, 819.1570
617.6808, 814.4553
618.1630, 830.2694
618.6451, 852.7031
619.1272, 853.8029
619.6093, 834.4445
620.0914, 817.9842
620.5735, 815.7537
621.0557, 820.9397
621.5378, 821.5773
622.0199, 818.1688
622.5020, 814.9379
622.9841, 816.6890
623.4662, 818.7404
623.9484, 815.8597
624.4305, 805.2458
624.9126, 797.1238
625.3947, 796.7031
625.8768, 799.8543
626.3589, 801.7448
626.8411, 797.9408
627.3232, 798.5481
627.8053, 807.0461
628.2874, 820.3338
628.7695, 827.4774
629.2516, 826.8790
629.7338, 825.9286
630.2159, 829.1373
630.6980, 835.2913
631.1801, 835.6349
631.6622, 829.8836
632.1443, 823.0174
632.6265, 818.4218
633.1086, 816.0663
633.5907, 816.4613
634.0728, 820.8726
634.5549, 824.9850
635.0370, 827.5435
635.5192, 827.5792
636.0013, 823.4764
636.4834, 806.5319
636.9655, 793.7563
637.4476, 791.7348
