##NAMES=Pearceite
##RRUFFID=R060689
##IDEAL CHEMISTRY=Cu(Ag,Cu)_6_Ag_9_As_2_S_11_
##LOCALITY=Clara mine, Rankach Valley, Oberwolfach, Wolfach, Black Forest, Baden-Württemberg, Germany
##OWNER=RRUFF
##SOURCE=Michael Scott
##DESCRIPTION=Black tabular hexagonal prism in quartz. X-ray diffraction shows that this is pearceite-Tac. 
##STATUS=The identification of this mineral is confirmed by single-crystal X-ray diffraction and chemical analysis.
##URL=rruff.info/R060689
##MEASURED CHEMISTRY=Cu_1.00_(Ag_3.28_Cu_2.72_)_Σ=6.00_Ag_9.61_(As_1.63_Sb_0.37_)_Σ=2.00_S_11_  (Dark material is chalcopyrite)
135.504, 1292.570
135.986, 1305.035
136.469, 1310.611
136.951, 1317.188
137.433, 1329.514
137.915, 1348.252
138.397, 1365.918
138.879, 1382.834
139.361, 1398.103
139.843, 1408.303
140.326, 1411.542
140.808, 1414.268
141.290, 1422.388
141.772, 1440.409
142.254, 1450.005
142.736, 1446.428
143.218, 1430.858
143.700, 1418.826
144.182, 1409.436
144.665, 1404.442
145.147, 1406.256
145.629, 1420.488
146.111, 1432.589
146.593, 1439.278
147.075, 1439.522
147.557, 1440.271
148.039, 1443.376
148.521, 1446.134
149.004, 1444.862
149.486, 1433.424
149.968, 1424.090
150.450, 1420.171
150.932, 1424.001
151.414, 1428.361
151.896, 1434.402
152.378, 1440.999
152.861, 1445.827
153.343, 1446.230
153.825, 1447.043
154.307, 1450.543
154.789, 1463.089
155.271, 1470.132
155.753, 1465.049
156.235, 1451.658
156.717, 1444.099
157.200, 1448.995
157.682, 1458.210
158.164, 1466.711
158.646, 1476.143
159.128, 1481.964
159.610, 1478.066
160.092, 1465.875
160.574, 1462.311
161.057, 1483.598
161.539, 1511.950
162.021, 1530.789
162.503, 1528.123
162.985, 1520.170
163.467, 1513.292
163.949, 1507.856
164.431, 1503.135
164.913, 1496.971
165.396, 1491.697
165.878, 1490.506
166.360, 1497.253
166.842, 1506.936
167.324, 1518.698
167.806, 1534.374
168.288, 1542.803
168.770, 1530.195
169.253, 1504.991
169.735, 1484.685
170.217, 1480.698
170.699, 1484.940
171.181, 1489.764
171.663, 1493.574
172.145, 1498.879
172.627, 1512.627
173.109, 1531.102
173.592, 1542.074
174.074, 1531.050
174.556, 1509.590
175.038, 1494.545
175.520, 1491.393
176.002, 1492.978
176.484, 1489.485
176.966, 1482.126
177.449, 1479.240
177.931, 1493.636
178.413, 1516.788
178.895, 1530.951
179.377, 1526.704
179.859, 1513.907
180.341, 1507.013
180.823, 1505.938
181.305, 1508.005
181.788, 1508.713
182.270, 1510.069
182.752, 1519.193
183.234, 1547.814
183.716, 1583.795
184.198, 1596.599
184.680, 1584.607
185.162, 1563.183
185.645, 1547.981
186.127, 1537.991
186.609, 1526.306
187.091, 1502.424
187.573, 1472.961
188.055, 1467.698
188.537, 1490.868
189.019, 1524.229
189.501, 1545.866
189.984, 1556.131
190.466, 1558.465
190.948, 1549.659
191.430, 1531.985
191.912, 1523.681
192.394, 1527.646
192.876, 1537.080
193.358, 1536.750
193.840, 1525.840
194.323, 1522.324
194.805, 1545.985
195.287, 1595.068
195.769, 1620.033
196.251, 1612.323
196.733, 1583.483
197.215, 1556.640
197.697, 1529.977
198.180, 1515.889
198.662, 1531.037
199.144, 1578.008
199.626, 1606.852
200.108, 1607.672
200.590, 1587.972
201.072, 1571.588
201.554, 1558.007
202.036, 1549.100
202.519, 1547.929
203.001, 1555.672
203.483, 1562.044
203.965, 1565.245
204.447, 1565.614
204.929, 1564.820
205.411, 1562.226
205.893, 1559.886
206.376, 1560.231
206.858, 1564.138
207.340, 1566.421
207.822, 1565.496
208.304, 1561.668
208.786, 1559.053
209.268, 1557.735
209.750, 1557.637
210.232, 1559.349
210.714, 1563.968
211.197, 1566.779
211.679, 1566.261
212.161, 1562.393
212.643, 1560.326
213.125, 1563.245
213.607, 1563.868
214.089, 1550.092
214.572, 1512.750
215.054, 1485.358
215.536, 1479.601
216.018, 1497.781
216.500, 1514.238
216.982, 1527.984
217.464, 1540.649
217.946, 1556.236
218.428, 1579.244
218.911, 1594.369
219.393, 1593.687
219.875, 1572.206
220.357, 1561.575
220.839, 1567.524
221.321, 1580.243
221.803, 1582.737
222.285, 1569.906
222.767, 1556.790
223.250, 1549.472
223.732, 1550.679
224.214, 1546.996
224.696, 1514.667
225.178, 1553.788
225.660, 1575.564
226.142, 1580.929
226.624, 1520.729
227.107, 1545.193
227.589, 1535.727
228.071, 1524.870
228.553, 1561.250
229.035, 1510.586
229.517, 1546.217
229.999, 1547.400
230.481, 1564.349
230.963, 1547.159
231.445, 1540.514
231.928, 1568.019
232.410, 1576.614
232.892, 1555.494
233.374, 1573.446
233.856, 1521.589
234.338, 1530.990
234.820, 1566.821
235.303, 1547.417
235.785, 1565.993
236.267, 1570.104
236.749, 1534.203
237.231, 1544.730
237.713, 1553.408
238.195, 1556.703
238.677, 1551.191
239.159, 1528.220
239.641, 1515.023
240.124, 1514.770
240.606, 1525.186
241.088, 1537.904
241.570, 1556.774
242.052, 1572.655
242.534, 1579.398
243.016, 1569.939
243.498, 1566.484
243.981, 1573.921
244.463, 1588.678
244.945, 1594.048
245.427, 1584.635
245.909, 1572.634
246.391, 1564.963
246.873, 1563.385
247.355, 1562.395
247.837, 1562.293
248.320, 1562.569
248.802, 1560.151
249.284, 1552.111
249.766, 1545.360
250.248, 1544.598
250.730, 1553.513
251.212, 1560.417
251.694, 1564.514
252.176, 1565.959
252.659, 1565.174
253.141, 1560.950
253.623, 1556.352
254.105, 1554.308
254.587, 1559.037
255.069, 1555.803
255.551, 1539.154
256.033, 1512.868
256.516, 1496.279
256.998, 1490.948
257.480, 1493.023
257.962, 1501.980
258.444, 1523.905
258.926, 1536.316
259.408, 1533.229
259.890, 1518.199
260.372, 1512.509
260.855, 1521.332
261.337, 1530.878
261.819, 1530.270
262.301, 1513.533
262.783, 1504.462
263.265, 1508.051
263.747, 1521.285
264.229, 1529.590
264.711, 1532.034
265.194, 1531.097
265.676, 1527.103
266.158, 1517.953
266.640, 1514.269
267.122, 1520.091
267.604, 1532.116
268.086, 1534.265
268.569, 1523.126
269.051, 1509.714
269.533, 1501.767
270.015, 1500.596
270.497, 1499.047
270.979, 1495.978
271.461, 1492.065
271.943, 1490.504
272.425, 1492.226
272.908, 1493.789
273.390, 1492.495
273.872, 1487.885
274.354, 1483.293
274.836, 1478.244
275.318, 1473.801
275.800, 1474.680
276.282, 1482.492
276.764, 1489.699
277.247, 1489.831
277.729, 1481.781
278.211, 1477.190
278.693, 1477.028
279.175, 1481.231
279.657, 1493.078
280.139, 1515.078
280.621, 1531.103
281.103, 1525.613
281.586, 1498.202
282.068, 1481.049
282.550, 1480.392
283.032, 1488.870
283.514, 1488.158
283.996, 1477.251
284.478, 1466.873
284.960, 1465.245
285.443, 1471.750
285.925, 1475.366
286.407, 1474.297
286.889, 1471.003
287.371, 1471.377
287.853, 1475.523
288.335, 1477.209
288.817, 1470.841
289.299, 1457.870
289.782, 1446.867
290.264, 1438.608
290.746, 1433.057
291.228, 1430.063
291.710, 1429.664
292.192, 1432.685
292.674, 1442.364
293.156, 1456.255
293.638, 1466.225
294.121, 1471.724
294.603, 1472.521
295.085, 1467.431
295.567, 1456.937
296.049, 1443.759
296.531, 1423.172
297.013, 1401.574
297.496, 1396.561
297.978, 1411.919
298.460, 1433.160
298.942, 1446.194
299.424, 1451.589
299.906, 1450.905
300.388, 1437.958
300.870, 1421.263
301.352, 1416.670
301.835, 1426.312
302.317, 1439.030
302.799, 1444.219
303.281, 1444.063
303.763, 1444.074
304.245, 1446.579
304.727, 1450.660
305.209, 1456.274
305.691, 1463.714
306.174, 1468.970
306.656, 1468.665
307.138, 1464.062
307.620, 1457.484
308.102, 1444.478
308.584, 1433.353
309.066, 1434.266
309.548, 1447.521
310.030, 1458.730
310.513, 1458.081
310.995, 1450.053
311.477, 1440.425
311.959, 1428.182
312.441, 1417.503
312.923, 1411.371
313.405, 1409.664
313.887, 1409.938
314.370, 1413.523
314.852, 1417.384
315.334, 1418.532
315.816, 1414.699
316.298, 1409.238
316.780, 1400.013
317.262, 1388.520
317.744, 1384.677
318.226, 1403.036
318.709, 1424.733
319.191, 1435.716
319.673, 1424.442
320.155, 1411.334
320.637, 1397.621
321.119, 1385.192
321.601, 1382.089
322.083, 1402.929
322.565, 1425.060
323.048, 1435.543
323.530, 1420.335
324.012, 1410.298
324.494, 1414.728
324.976, 1428.145
325.458, 1434.535
325.940, 1424.200
326.422, 1412.781
326.905, 1407.114
327.387, 1414.761
327.869, 1415.675
328.351, 1400.546
328.833, 1379.483
329.315, 1372.290
329.797, 1397.373
330.279, 1416.799
330.762, 1416.892
331.244, 1387.558
331.726, 1368.957
332.208, 1365.722
332.690, 1370.634
333.172, 1372.807
333.654, 1369.579
334.136, 1368.231
334.618, 1372.255
335.100, 1382.978
335.583, 1386.004
336.065, 1377.241
336.547, 1365.559
337.029, 1361.287
337.511, 1366.761
337.993, 1372.837
338.475, 1378.277
338.957, 1382.791
339.440, 1381.997
339.922, 1373.458
340.404, 1365.347
340.886, 1367.896
341.368, 1382.966
341.850, 1389.930
342.332, 1381.603
342.814, 1363.534
343.297, 1356.606
343.779, 1362.062
344.261, 1369.694
344.743, 1371.644
345.225, 1368.440
345.707, 1365.532
346.189, 1363.439
346.671, 1362.492
347.153, 1360.191
347.635, 1357.059
348.118, 1340.543
348.600, 1359.567
349.082, 1369.964
349.564, 1372.197
350.046, 1341.817
350.528, 1353.551
351.010, 1348.407
351.492, 1342.571
351.975, 1350.939
352.457, 1353.664
352.939, 1359.146
353.421, 1358.620
353.903, 1350.921
354.385, 1342.365
354.867, 1338.268
355.349, 1337.312
355.832, 1336.991
356.314, 1333.530
356.796, 1332.099
357.278, 1339.987
357.760, 1357.209
358.242, 1370.880
358.724, 1368.646
359.206, 1360.486
359.688, 1357.437
360.171, 1374.342
360.653, 1387.030
361.135, 1378.296
361.617, 1351.959
362.099, 1333.880
362.581, 1344.776
363.063, 1360.688
363.545, 1364.373
364.027, 1335.939
364.510, 1316.915
364.992, 1324.693
365.474, 1350.241
365.956, 1367.103
366.438, 1362.493
366.920, 1354.456
367.402, 1350.787
367.884, 1355.439
368.366, 1357.672
368.849, 1354.860
369.331, 1349.818
369.813, 1347.237
370.295, 1348.347
370.777, 1350.469
371.259, 1353.449
371.741, 1357.839
372.224, 1359.938
372.706, 1359.408
373.188, 1356.812
373.670, 1352.815
374.152, 1347.584
374.634, 1340.049
375.116, 1327.688
375.598, 1311.654
376.080, 1306.943
376.562, 1317.162
377.045, 1330.330
377.527, 1336.980
378.009, 1336.760
378.491, 1333.348
378.973, 1326.082
379.455, 1317.043
379.937, 1313.781
380.419, 1316.999
380.902, 1317.191
381.384, 1302.214
381.866, 1276.476
382.348, 1268.129
382.830, 1282.953
383.312, 1305.804
383.794, 1316.246
384.276, 1315.608
384.759, 1310.712
385.241, 1300.253
385.723, 1288.923
386.205, 1287.426
386.687, 1296.510
387.169, 1306.575
387.651, 1305.450
388.133, 1299.395
388.615, 1280.306
389.098, 1302.226
389.580, 1314.191
390.062, 1316.737
390.544, 1281.651
391.026, 1295.159
391.508, 1289.192
391.990, 1282.427
392.472, 1302.774
392.954, 1273.162
393.437, 1293.079
393.919, 1293.225
394.401, 1302.419
394.883, 1292.020
395.365, 1287.672
395.847, 1286.340
396.329, 1292.122
396.811, 1310.942
397.293, 1323.520
397.776, 1319.818
398.258, 1309.766
398.740, 1307.983
399.222, 1328.826
399.704, 1344.195
400.186, 1346.352
400.668, 1333.602
401.151, 1323.886
401.633, 1317.313
402.115, 1313.704
402.597, 1313.819
403.079, 1321.817
403.561, 1323.795
404.043, 1314.909
404.525, 1298.491
405.007, 1291.649
405.490, 1297.656
405.972, 1304.885
406.454, 1304.587
406.936, 1295.716
407.418, 1294.551
407.900, 1304.680
408.382, 1318.575
408.864, 1322.682
409.346, 1316.985
409.828, 1308.945
410.311, 1301.644
410.793, 1294.849
411.275, 1286.049
411.757, 1274.605
412.239, 1266.746
412.721, 1271.393
413.203, 1284.919
413.685, 1297.223
414.168, 1306.010
414.650, 1311.031
415.132, 1307.913
415.614, 1298.475
416.096, 1294.401
416.578, 1310.903
417.060, 1333.478
417.542, 1345.553
418.025, 1340.585
418.507, 1331.476
418.989, 1323.501
419.471, 1316.782
419.953, 1311.377
420.435, 1309.232
420.917, 1306.950
421.399, 1301.650
421.881, 1291.896
422.364, 1286.628
422.846, 1285.451
423.328, 1290.750
423.810, 1304.906
424.292, 1356.488
424.774, 1385.719
425.256, 1372.052
425.738, 1320.039
426.220, 1286.270
426.703, 1278.609
427.185, 1280.091
427.667, 1281.863
428.149, 1283.590
428.631, 1286.671
429.113, 1292.479
429.595, 1298.782
430.077, 1300.028
430.560, 1294.847
431.042, 1290.020
431.524, 1288.365
432.006, 1289.772
432.488, 1291.845
432.970, 1294.826
433.452, 1297.533
433.934, 1298.731
434.417, 1298.480
434.899, 1296.703
435.381, 1290.571
435.863, 1285.587
436.345, 1297.328
436.827, 1323.572
437.309, 1343.971
437.791, 1337.518
438.273, 1317.894
438.755, 1306.470
439.238, 1308.458
439.720, 1312.490
440.202, 1306.516
440.684, 1295.894
441.166, 1291.118
441.648, 1306.101
442.130, 1321.182
442.612, 1322.637
443.095, 1309.343
443.577, 1297.254
444.059, 1292.156
444.541, 1290.779
445.023, 1290.390
445.505, 1291.452
445.987, 1292.366
446.469, 1293.933
446.952, 1295.462
447.434, 1293.950
447.916, 1286.356
448.398, 1278.706
448.880, 1272.440
449.362, 1265.193
449.844, 1267.434
450.326, 1285.097
450.808, 1306.646
451.290, 1314.964
451.773, 1305.637
452.255, 1298.325
452.737, 1298.572
453.219, 1305.101
453.701, 1312.073
454.183, 1320.404
454.665, 1323.820
455.147, 1313.135
455.630, 1291.207
456.112, 1276.835
456.594, 1274.011
457.076, 1276.644
457.558, 1275.524
458.040, 1271.917
458.522, 1271.148
459.004, 1281.065
459.487, 1292.990
459.969, 1293.340
460.451, 1281.368
460.933, 1271.319
461.415, 1277.837
461.897, 1290.684
462.379, 1297.818
462.861, 1290.693
463.343, 1282.266
463.826, 1278.521
464.308, 1278.305
464.790, 1277.632
465.272, 1270.395
465.754, 1266.318
466.236, 1272.293
466.718, 1297.362
467.200, 1310.133
467.682, 1297.132
468.165, 1275.940
468.647, 1266.756
469.129, 1277.839
469.611, 1288.086
470.093, 1294.119
470.575, 1296.127
471.057, 1294.812
471.539, 1287.484
472.022, 1282.887
472.504, 1289.923
472.986, 1309.954
473.468, 1320.125
473.950, 1317.008
474.432, 1307.243
474.914, 1300.511
475.396, 1296.640
475.878, 1293.609
476.361, 1288.192
476.843, 1283.757
477.325, 1291.298
477.807, 1310.304
478.289, 1325.204
478.771, 1316.856
479.253, 1298.693
479.735, 1290.911
480.217, 1303.120
480.700, 1317.738
481.182, 1325.858
481.664, 1327.269
482.146, 1321.296
482.628, 1293.256
483.110, 1269.710
483.592, 1267.602
484.074, 1291.893
484.556, 1308.793
485.039, 1304.377
485.521, 1293.484
486.003, 1288.763
486.485, 1296.828
486.967, 1302.360
487.449, 1303.515
487.931, 1301.387
488.414, 1299.562
488.896, 1298.134
489.378, 1296.986
489.860, 1296.115
490.342, 1295.579
490.824, 1295.155
491.306, 1294.795
491.788, 1294.817
492.270, 1296.979
492.753, 1300.841
493.235, 1300.487
493.717, 1293.144
494.199, 1282.217
494.681, 1273.453
495.163, 1266.688
495.645, 1260.419
496.127, 1251.270
496.609, 1243.044
497.092, 1241.598
497.574, 1247.982
498.056, 1257.171
498.538, 1269.991
499.020, 1282.338
499.502, 1288.660
499.984, 1279.443
500.466, 1271.572
500.948, 1273.976
501.431, 1284.445
501.913, 1290.444
502.395, 1287.048
502.877, 1280.728
503.359, 1274.069
503.841, 1266.276
504.323, 1260.028
504.805, 1252.795
505.288, 1249.002
505.770, 1256.313
506.252, 1281.084
506.734, 1297.884
507.216, 1298.489
507.698, 1287.272
508.180, 1284.329
508.662, 1290.746
509.145, 1297.271
509.627, 1297.298
510.109, 1292.054
510.591, 1286.716
511.073, 1281.601
511.555, 1276.932
512.037, 1271.806
512.519, 1267.297
513.001, 1266.092
513.484, 1272.130
513.966, 1279.403
514.448, 1281.286
514.930, 1279.217
515.412, 1280.248
515.894, 1293.778
516.376, 1307.556
516.858, 1312.189
517.341, 1302.717
517.823, 1295.250
518.305, 1295.379
518.787, 1298.545
519.269, 1298.939
519.751, 1293.390
520.233, 1288.919
520.715, 1287.393
521.197, 1288.050
521.680, 1285.265
522.162, 1275.471
522.644, 1269.929
523.126, 1278.908
523.608, 1304.301
524.090, 1314.209
524.572, 1305.303
525.054, 1288.981
525.536, 1276.249
526.019, 1267.485
526.501, 1265.500
526.983, 1273.970
527.465, 1286.627
527.947, 1296.126
528.429, 1302.021
528.911, 1303.063
529.393, 1291.224
529.875, 1278.372
530.358, 1277.682
530.840, 1292.696
531.322, 1305.243
531.804, 1298.237
532.286, 1287.796
532.768, 1273.438
533.250, 1289.863
533.732, 1298.816
534.214, 1300.698
534.697, 1274.331
535.179, 1284.442
535.661, 1279.934
536.143, 1274.826
536.625, 1290.072
537.107, 1267.813
537.589, 1280.739
538.071, 1276.467
538.554, 1270.696
539.036, 1275.147
539.518, 1289.524
540.000, 1297.878
540.482, 1295.837
540.964, 1288.667
541.446, 1283.849
541.928, 1281.373
542.411, 1281.100
542.893, 1285.720
543.375, 1291.025
543.857, 1286.845
544.339, 1273.607
544.821, 1287.721
545.303, 1295.196
545.785, 1296.388
546.268, 1272.479
546.750, 1280.983
547.232, 1276.497
547.714, 1271.479
548.196, 1284.544
548.678, 1264.286
549.160, 1277.065
549.642, 1276.656
550.124, 1282.283
550.606, 1272.140
551.089, 1274.426
551.571, 1272.880
552.053, 1273.031
552.535, 1280.750
553.017, 1296.789
553.499, 1302.023
553.981, 1291.709
554.463, 1281.832
554.945, 1268.491
555.428, 1284.603
555.910, 1293.566
556.392, 1295.763
556.874, 1270.932
557.356, 1281.003
557.838, 1280.312
558.320, 1279.407
558.802, 1289.720
559.284, 1301.070
559.767, 1305.307
560.249, 1300.666
560.731, 1294.668
561.213, 1285.800
561.695, 1278.733
562.177, 1277.610
562.659, 1289.615
563.141, 1299.336
563.624, 1305.692
564.106, 1309.151
564.588, 1310.914
565.070, 1311.005
565.552, 1309.131
566.034, 1304.266
566.516, 1296.909
566.998, 1292.104
567.481, 1289.980
567.963, 1289.826
568.445, 1291.273
568.927, 1294.225
569.409, 1299.069
569.891, 1306.509
570.373, 1313.117
570.855, 1316.718
571.338, 1316.658
571.820, 1311.611
572.302, 1292.398
572.784, 1275.856
573.266, 1272.175
573.748, 1279.740
574.230, 1290.164
574.712, 1311.784
575.194, 1326.578
575.677, 1323.410
576.159, 1295.009
576.641, 1273.542
577.123, 1258.922
577.605, 1251.125
578.087, 1250.435
578.569, 1257.622
579.051, 1270.475
579.533, 1292.340
580.016, 1315.329
580.498, 1320.277
580.980, 1307.838
581.462, 1295.397
581.944, 1291.742
582.426, 1292.937
582.908, 1290.976
583.390, 1286.152
583.872, 1281.900
584.355, 1280.055
584.837, 1280.267
585.319, 1282.554
585.801, 1287.497
586.283, 1292.395
586.765, 1297.271
587.247, 1300.998
587.729, 1302.293
588.211, 1294.227
588.694, 1291.896
589.176, 1301.438
589.658, 1318.262
590.140, 1326.340
590.622, 1324.109
591.104, 1316.113
591.586, 1300.665
592.068, 1278.645
592.551, 1272.095
593.033, 1283.119
593.515, 1297.047
593.997, 1298.075
594.479, 1290.946
594.961, 1293.316
595.443, 1310.719
595.925, 1327.368
596.407, 1323.872
596.890, 1308.662
597.372, 1297.385
597.854, 1304.937
598.336, 1309.586
598.818, 1293.351
599.300, 1262.601
599.782, 1246.542
600.265, 1268.654
600.747, 1291.053
601.229, 1297.210
601.711, 1283.706
602.193, 1275.513
602.675, 1274.130
603.157, 1276.005
603.639, 1278.920
604.121, 1283.070
604.604, 1285.823
605.086, 1286.644
605.568, 1286.556
606.050, 1286.266
606.532, 1286.187
607.014, 1288.584
607.496, 1297.246
607.978, 1306.266
608.460, 1305.992
608.943, 1298.900
609.425, 1295.558
609.907, 1310.183
610.389, 1323.833
610.871, 1320.919
611.353, 1296.770
611.835, 1280.925
612.317, 1286.551
612.799, 1297.600
613.282, 1302.096
613.764, 1294.266
614.246, 1292.072
614.728, 1299.277
615.210, 1309.240
615.692, 1309.276
616.174, 1298.206
616.656, 1290.448
617.138, 1291.421
617.621, 1297.290
618.103, 1299.326
618.585, 1297.961
619.067, 1296.732
619.549, 1300.305
620.031, 1303.746
620.513, 1299.990
620.995, 1288.485
621.477, 1278.585
621.960, 1269.664
622.442, 1267.747
622.924, 1279.335
623.406, 1323.142
623.888, 1349.054
624.370, 1339.941
624.852, 1316.055
625.334, 1302.668
625.817, 1303.327
626.299, 1306.415
626.781, 1311.619
627.263, 1316.853
627.745, 1313.996
628.227, 1302.745
628.709, 1293.170
629.191, 1290.135
629.674, 1292.637
630.156, 1301.347
630.638, 1315.643
631.120, 1325.469
631.602, 1318.563
632.084, 1306.357
632.566, 1300.560
633.048, 1304.655
633.531, 1309.635
634.013, 1315.645
634.495, 1319.228
634.977, 1316.300
635.459, 1293.760
635.941, 1283.109
636.423, 1293.672
636.905, 1314.491
637.387, 1317.346
637.870, 1297.027
638.352, 1280.868
638.834, 1279.125
639.316, 1287.918
639.798, 1295.927
640.280, 1303.040
640.762, 1306.203
641.244, 1298.203
641.726, 1287.221
642.209, 1285.946
642.691, 1295.813
643.173, 1307.212
643.655, 1317.344
644.137, 1324.853
644.619, 1328.451
645.101, 1325.367
645.583, 1322.416
646.065, 1317.856
646.548, 1315.047
647.030, 1320.769
647.512, 1345.342
647.994, 1352.559
648.476, 1327.361
648.958, 1285.210
649.440, 1276.760
649.922, 1303.110
650.404, 1328.674
650.887, 1333.956
651.369, 1326.652
651.851, 1320.793
652.333, 1316.631
652.815, 1317.568
653.297, 1332.056
653.779, 1348.994
654.261, 1358.387
