##NAMES=Pearceite
##RRUFFID=R060689
##IDEAL CHEMISTRY=Cu(Ag,Cu)_6_Ag_9_As_2_S_11_
##LOCALITY=Clara mine, Rankach Valley, Oberwolfach, Wolfach, Black Forest, Baden-Württemberg, Germany
##OWNER=RRUFF
##SOURCE=Michael Scott
##DESCRIPTION=Black tabular hexagonal prism in quartz. X-ray diffraction shows that this is pearceite-Tac. 
##STATUS=The identification of this mineral is confirmed by single-crystal X-ray diffraction and chemical analysis.
##URL=rruff.info/R060689
##MEASURED CHEMISTRY=Cu_1.00_(Ag_3.28_Cu_2.72_)_Σ=6.00_Ag_9.61_(As_1.63_Sb_0.37_)_Σ=2.00_S_11_  (Dark material is chalcopyrite)
207.344, 9188.504
207.826, 9169.275
208.308, 9137.766
208.790, 9118.695
209.273, 9136.485
209.755, 9170.278
210.237, 9193.230
210.719, 9196.337
211.201, 9192.416
211.683, 9194.472
212.165, 9202.789
212.648, 9213.679
213.130, 9233.960
213.612, 9251.644
214.094, 9246.887
214.576, 9203.288
215.058, 9163.090
215.540, 9174.938
216.022, 9239.349
216.504, 9296.293
216.986, 9318.960
217.469, 9323.231
217.951, 9332.479
218.433, 9353.107
218.915, 9367.490
219.397, 9353.793
219.879, 9314.551
220.361, 9286.852
220.844, 9287.479
221.326, 9304.092
221.808, 9318.751
222.290, 9330.850
222.772, 9341.894
223.254, 9352.477
223.736, 9362.668
224.218, 9373.805
224.700, 9389.431
225.182, 9402.092
225.665, 9398.595
226.147, 9374.403
226.629, 9359.144
227.111, 9381.745
227.593, 9429.088
228.075, 9453.235
228.557, 9433.915
229.039, 9398.768
229.522, 9381.303
230.004, 9381.268
230.486, 9389.262
230.968, 9406.966
231.450, 9429.525
231.932, 9444.524
232.414, 9447.174
232.896, 9447.025
233.378, 9457.796
233.861, 9478.933
234.343, 9494.620
234.825, 9494.081
235.307, 9486.609
235.789, 9488.497
236.271, 9503.804
236.753, 9521.504
237.235, 9526.237
237.717, 9519.473
238.200, 9523.912
238.682, 9566.266
239.164, 9611.420
239.646, 9609.941
240.128, 9554.463
240.610, 9493.760
241.092, 9472.482
241.574, 9488.858
242.057, 9498.118
242.539, 9488.810
243.021, 9476.827
243.503, 9475.637
243.985, 9485.579
244.467, 9500.051
244.949, 9516.833
245.431, 9534.577
245.913, 9542.312
246.396, 9531.879
246.878, 9519.042
247.360, 9511.849
247.842, 9510.226
248.324, 9512.692
248.806, 9519.122
249.288, 9528.711
249.770, 9536.563
250.253, 9538.207
250.735, 9542.798
251.217, 9556.285
251.699, 9575.226
252.181, 9591.196
252.663, 9599.121
253.145, 9602.325
253.627, 9613.028
254.109, 9638.146
254.592, 9661.021
255.074, 9680.612
255.556, 9695.529
256.038, 9701.674
256.520, 9697.035
257.002, 9687.986
257.484, 9688.325
257.966, 9711.667
258.449, 9724.870
258.931, 9723.318
259.413, 9713.250
259.895, 9695.148
260.377, 9670.628
260.859, 9652.146
261.341, 9659.472
261.823, 9710.944
262.306, 9748.284
262.788, 9774.275
263.270, 9786.277
263.752, 9773.300
264.234, 9739.451
264.716, 9707.288
265.198, 9703.245
265.680, 9735.761
266.162, 9756.766
266.645, 9762.825
267.127, 9762.422
267.609, 9755.121
268.091, 9743.938
268.573, 9735.327
269.055, 9734.983
269.537, 9742.850
270.019, 9749.094
270.501, 9753.693
270.984, 9756.484
271.466, 9760.033
271.948, 9761.377
272.430, 9755.195
272.912, 9737.639
273.394, 9711.241
273.876, 9684.648
274.358, 9650.912
274.841, 9628.874
275.323, 9625.304
275.805, 9632.842
276.287, 9645.328
276.769, 9660.850
277.251, 9675.696
277.733, 9681.795
278.215, 9675.348
278.698, 9670.842
279.180, 9673.221
279.662, 9677.450
280.144, 9681.424
280.626, 9684.575
281.108, 9683.373
281.590, 9671.532
282.072, 9648.007
282.554, 9627.905
283.036, 9609.244
283.519, 9599.586
284.001, 9609.210
284.483, 9636.247
284.965, 9659.646
285.447, 9666.318
285.929, 9657.420
286.411, 9635.713
286.893, 9592.898
287.376, 9552.404
287.858, 9533.021
288.340, 9530.322
288.822, 9530.653
289.304, 9530.752
289.786, 9530.004
290.268, 9525.612
290.750, 9516.321
291.233, 9511.271
291.715, 9523.499
292.197, 9544.396
292.679, 9551.186
293.161, 9535.933
293.643, 9509.536
294.125, 9470.983
294.607, 9423.777
295.089, 9394.519
295.572, 9399.253
296.054, 9429.789
296.536, 9460.763
297.018, 9493.022
297.500, 9524.160
297.982, 9554.748
298.464, 9582.962
298.946, 9603.119
299.428, 9611.602
299.911, 9617.487
300.393, 9638.408
300.875, 9682.217
301.357, 9720.674
301.839, 9745.198
302.321, 9766.155
302.803, 9792.330
303.285, 9825.845
303.767, 9866.334
304.250, 9915.445
304.732, 9977.805
305.214, 10026.260
305.696, 10043.460
306.178, 10064.580
306.660, 10111.640
307.142, 10179.960
307.625, 10251.910
308.107, 10315.170
308.589, 10369.830
309.071, 10416.670
309.553, 10441.340
310.035, 10473.530
310.517, 10525.680
310.999, 10586.680
311.481, 10641.000
311.964, 10680.880
312.446, 10711.200
312.928, 10744.310
313.410, 10783.310
313.892, 10818.740
314.374, 10848.770
314.856, 10875.760
315.338, 10903.870
315.820, 10933.410
316.303, 10956.710
316.785, 10965.590
317.267, 10959.770
317.749, 10941.570
318.231, 10905.410
318.713, 10861.400
319.195, 10814.950
319.677, 10766.040
320.159, 10711.920
320.642, 10644.320
321.124, 10569.360
321.606, 10511.790
322.088, 10477.880
322.570, 10446.170
323.052, 10406.170
323.534, 10358.240
324.016, 10300.650
324.499, 10221.380
324.981, 10141.940
325.463, 10091.460
325.945, 10068.760
326.427, 10040.270
326.909, 9985.130
327.391, 9918.168
327.873, 9872.355
328.355, 9854.395
328.838, 9842.400
329.320, 9836.675
329.802, 9828.980
330.284, 9796.232
330.766, 9727.751
331.248, 9653.644
331.730, 9619.307
332.212, 9639.799
332.694, 9646.963
333.177, 9628.318
333.659, 9600.435
334.141, 9575.993
334.623, 9556.274
335.105, 9537.124
335.587, 9515.886
336.069, 9493.062
336.552, 9457.718
337.034, 9392.028
337.516, 9335.037
337.998, 9303.411
338.480, 9288.116
338.962, 9271.630
339.444, 9244.483
339.926, 9211.918
340.408, 9190.795
340.891, 9193.098
341.373, 9186.190
341.855, 9160.551
342.337, 9129.283
342.819, 9099.266
343.301, 9073.281
343.783, 9056.995
344.265, 9063.584
344.747, 9097.733
345.230, 9111.939
345.712, 9085.823
346.194, 9056.268
346.676, 9038.813
347.158, 9033.514
347.640, 9038.063
348.122, 9059.618
348.604, 9088.313
349.086, 9096.398
349.569, 9078.351
350.051, 9059.063
350.533, 9053.151
351.015, 9054.419
351.497, 9053.776
351.979, 9049.240
352.461, 9043.344
352.944, 9035.235
353.426, 9026.579
353.908, 9025.804
354.390, 9037.941
354.872, 9055.845
355.354, 9067.121
355.836, 9070.796
356.318, 9074.834
356.800, 9084.066
357.283, 9092.966
357.765, 9090.331
358.247, 9076.172
358.729, 9069.257
359.211, 9089.112
359.693, 9138.585
360.175, 9178.529
360.657, 9182.212
361.139, 9205.124
361.622, 9290.693
362.104, 9409.811
362.586, 9501.908
363.068, 9532.882
363.550, 9526.757
364.032, 9557.481
364.514, 9662.453
364.996, 9744.178
365.478, 9778.252
365.961, 9799.327
366.443, 9834.886
366.925, 9889.869
367.407, 9950.701
367.889, 10004.930
368.371, 10052.970
368.853, 10089.740
369.335, 10114.400
369.818, 10127.230
370.300, 10122.800
370.782, 10107.500
371.264, 10097.530
371.746, 10111.710
372.228, 10127.780
372.710, 10106.210
373.192, 10044.190
373.674, 9966.951
374.157, 9881.441
374.639, 9788.926
375.121, 9691.370
375.603, 9586.726
376.085, 9482.807
376.567, 9383.464
377.049, 9287.391
377.531, 9189.635
378.013, 9087.888
378.496, 8992.113
378.978, 8915.751
379.460, 8864.349
379.942, 8808.369
380.424, 8754.056
380.906, 8689.539
381.388, 8594.391
381.871, 8480.187
382.353, 8382.226
382.835, 8324.841
383.317, 8301.539
383.799, 8279.376
384.281, 8261.808
384.763, 8240.994
385.245, 8211.182
385.727, 8180.576
386.210, 8157.282
386.692, 8143.460
387.174, 8135.679
387.656, 8132.776
388.138, 8137.369
388.620, 8129.275
389.102, 8094.537
389.584, 8060.046
390.066, 8036.033
390.549, 8022.214
391.031, 8016.814
391.513, 8020.557
391.995, 8030.902
392.477, 8046.137
392.959, 8067.885
393.441, 8081.718
393.923, 8078.072
394.405, 8063.617
394.888, 8049.621
395.370, 8035.799
395.852, 8024.242
396.334, 8016.976
396.816, 8012.613
397.298, 8009.488
397.780, 8007.465
398.262, 8003.290
398.745, 7991.526
399.227, 7969.588
399.709, 7959.555
400.191, 7974.944
400.673, 7988.869
401.155, 7987.229
401.637, 7972.587
402.119, 7951.114
402.602, 7925.294
403.084, 7899.922
403.566, 7892.514
404.048, 7931.044
404.530, 7907.418
405.012, 7931.533
405.494, 7944.059
405.976, 7945.619
406.458, 7903.370
406.940, 7917.692
407.423, 7909.342
407.905, 7900.063
408.387, 7922.347
408.869, 7886.469
409.351, 7908.252
409.833, 7907.019
410.315, 7916.319
410.797, 7902.809
411.280, 7896.344
411.762, 7912.697
412.244, 7916.416
412.726, 7900.280
413.208, 7910.250
413.690, 7873.575
414.172, 7877.832
414.654, 7899.749
415.137, 7884.760
415.619, 7874.563
416.101, 7885.870
416.583, 7886.870
417.065, 7887.167
417.547, 7887.199
418.029, 7881.529
418.511, 7864.472
418.993, 7838.429
419.476, 7825.485
419.958, 7843.304
420.440, 7853.432
420.922, 7844.280
421.404, 7828.142
421.886, 7817.616
422.368, 7816.411
422.850, 7820.912
423.332, 7829.115
423.815, 7842.633
424.297, 7845.918
424.779, 7829.008
425.261, 7812.502
425.743, 7808.925
426.225, 7813.471
426.707, 7814.530
427.189, 7806.665
427.672, 7793.346
428.154, 7769.570
428.636, 7736.124
429.118, 7738.734
429.600, 7694.812
430.082, 7741.925
430.564, 7766.940
431.046, 7771.045
431.529, 7721.945
432.011, 7709.640
432.493, 7732.040
432.975, 7752.118
433.457, 7763.860
433.939, 7769.118
434.421, 7769.335
434.903, 7764.437
435.385, 7752.612
435.867, 7723.092
436.350, 7699.745
436.832, 7687.251
437.314, 7682.595
437.796, 7683.657
438.278, 7689.383
438.760, 7696.656
439.242, 7701.351
439.724, 7703.164
440.207, 7705.706
440.689, 7711.949
441.171, 7715.175
441.653, 7711.843
442.135, 7703.216
442.617, 7691.332
443.099, 7671.173
443.581, 7654.741
444.064, 7660.237
444.546, 7685.407
445.028, 7709.134
445.510, 7725.946
445.992, 7734.779
446.474, 7729.594
446.956, 7706.550
447.438, 7692.737
447.920, 7703.875
448.403, 7717.777
448.885, 7711.878
449.367, 7689.134
449.849, 7671.117
450.331, 7673.956
450.813, 7691.595
451.295, 7691.938
451.777, 7651.392
452.259, 7627.100
452.742, 7635.336
453.224, 7654.469
453.706, 7669.737
454.188, 7677.029
454.670, 7675.691
455.152, 7660.328
455.634, 7633.143
456.116, 7615.024
456.599, 7606.859
457.081, 7606.033
457.563, 7616.604
458.045, 7632.173
458.527, 7643.720
459.009, 7651.468
459.491, 7651.145
459.973, 7626.965
460.456, 7593.104
460.938, 7590.326
461.420, 7631.544
461.902, 7680.223
462.384, 7692.568
462.866, 7660.879
463.348, 7641.032
463.830, 7648.468
464.312, 7651.200
464.795, 7620.712
465.277, 7578.243
465.759, 7566.717
466.241, 7606.283
466.723, 7668.885
467.205, 7700.287
467.687, 7692.142
468.169, 7682.344
468.651, 7674.624
469.134, 7665.431
469.616, 7651.141
470.098, 7633.410
470.580, 7617.728
471.062, 7606.271
471.544, 7598.771
472.026, 7595.615
472.508, 7596.664
472.991, 7598.150
473.473, 7597.428
473.955, 7597.549
474.437, 7608.097
474.919, 7636.039
475.401, 7646.019
475.883, 7611.431
476.365, 7571.062
476.848, 7563.334
477.330, 7584.118
477.812, 7600.681
478.294, 7589.732
478.776, 7558.198
479.258, 7537.684
479.740, 7535.560
480.222, 7532.797
480.704, 7529.665
481.186, 7523.435
481.669, 7506.948
482.151, 7482.225
482.633, 7465.601
483.115, 7477.705
483.597, 7508.433
484.079, 7521.543
484.561, 7512.988
485.043, 7504.981
485.526, 7515.371
486.008, 7530.893
486.490, 7520.906
486.972, 7467.434
487.454, 7428.936
487.936, 7439.679
488.418, 7472.386
488.900, 7492.513
489.383, 7495.176
489.865, 7494.799
490.347, 7504.547
490.829, 7523.506
491.311, 7533.839
491.793, 7520.861
492.275, 7516.947
492.757, 7543.943
493.239, 7572.747
493.722, 7567.553
494.204, 7522.623
494.686, 7473.239
495.168, 7454.630
495.650, 7462.999
496.132, 7473.333
496.614, 7486.427
497.096, 7496.696
497.578, 7499.621
498.061, 7497.485
498.543, 7495.386
499.025, 7496.578
499.507, 7492.848
499.989, 7470.598
500.471, 7444.118
500.953, 7440.457
501.435, 7463.776
501.918, 7490.545
502.400, 7497.901
502.882, 7485.657
503.364, 7471.172
503.846, 7450.995
504.328, 7432.642
504.810, 7416.708
505.292, 7403.875
505.775, 7393.715
506.257, 7386.386
506.739, 7385.490
507.221, 7401.609
507.703, 7430.788
508.185, 7439.139
508.667, 7416.607
509.149, 7394.552
509.631, 7392.350
510.113, 7405.016
510.596, 7421.845
511.078, 7448.903
511.560, 7468.732
512.042, 7473.370
512.524, 7465.608
513.006, 7442.689
513.488, 7406.462
513.971, 7378.731
514.453, 7384.523
514.935, 7423.597
515.417, 7438.465
515.899, 7398.167
516.381, 7370.873
516.863, 7375.534
517.345, 7395.403
517.827, 7417.712
518.310, 7438.113
518.792, 7447.042
519.274, 7424.301
519.756, 7380.412
520.238, 7363.727
520.720, 7382.561
521.202, 7404.412
521.684, 7409.549
522.166, 7403.340
522.649, 7403.052
523.131, 7413.275
523.613, 7421.162
524.095, 7424.250
524.577, 7421.909
525.059, 7410.624
525.541, 7391.622
526.023, 7373.361
526.505, 7362.989
526.988, 7359.774
527.470, 7357.222
527.952, 7358.300
528.434, 7355.069
528.916, 7341.311
529.398, 7326.328
529.880, 7319.594
530.362, 7321.645
530.844, 7322.645
531.327, 7316.269
531.809, 7304.255
532.291, 7284.982
532.773, 7258.310
533.255, 7247.433
533.737, 7270.646
534.219, 7310.798
534.701, 7323.777
535.184, 7295.291
535.666, 7273.086
536.148, 7256.453
536.630, 7251.817
537.112, 7274.146
537.594, 7314.266
538.076, 7343.959
538.558, 7344.783
539.041, 7325.629
539.523, 7307.878
540.005, 7289.396
540.487, 7280.839
540.969, 7292.860
541.451, 7307.432
541.933, 7309.107
542.415, 7300.119
542.898, 7294.985
543.380, 7308.295
543.862, 7320.302
544.344, 7308.703
544.826, 7279.880
545.308, 7254.838
545.790, 7241.114
546.272, 7236.256
546.754, 7238.474
547.237, 7253.701
547.719, 7253.124
548.201, 7216.774
548.683, 7187.653
549.165, 7183.399
549.647, 7196.021
550.129, 7215.523
550.611, 7239.182
551.093, 7256.199
551.576, 7243.398
552.058, 7207.884
552.540, 7206.434
553.022, 7257.915
553.504, 7303.857
553.986, 7296.554
554.468, 7247.144
554.950, 7215.179
555.432, 7203.715
555.915, 7206.092
556.397, 7238.150
556.879, 7273.306
557.361, 7275.769
557.843, 7244.227
558.325, 7208.475
558.807, 7192.335
559.289, 7195.449
559.771, 7220.194
560.254, 7285.912
560.736, 7330.535
561.218, 7325.832
561.700, 7299.959
562.182, 7265.428
562.664, 7224.775
563.146, 7201.310
563.628, 7227.080
564.111, 7262.469
564.593, 7247.618
565.075, 7193.583
565.557, 7169.096
566.039, 7209.187
566.521, 7276.373
567.003, 7299.531
567.485, 7258.705
567.968, 7225.411
568.450, 7200.498
568.932, 7181.286
569.414, 7158.255
569.896, 7141.988
570.378, 7158.167
570.860, 7222.660
571.342, 7289.220
571.825, 7296.084
572.307, 7253.421
572.789, 7219.697
573.271, 7205.147
573.753, 7192.471
574.235, 7166.154
574.717, 7129.817
575.199, 7105.993
575.681, 7090.160
576.164, 7091.647
576.646, 7133.672
577.128, 7180.845
577.610, 7192.184
578.092, 7167.791
578.574, 7143.079
579.056, 7147.454
579.538, 7173.355
580.020, 7194.121
580.503, 7211.602
580.985, 7215.823
581.467, 7192.279
581.949, 7164.744
582.431, 7159.305
582.913, 7175.060
583.395, 7189.014
583.877, 7192.324
584.359, 7193.618
584.842, 7202.400
585.324, 7214.143
585.806, 7215.675
586.288, 7202.277
586.770, 7185.787
587.252, 7185.777
587.734, 7207.075
588.216, 7207.834
588.698, 7165.487
589.181, 7132.415
589.663, 7133.971
590.145, 7150.904
590.627, 7156.872
591.109, 7144.601
591.591, 7136.552
592.073, 7159.335
592.555, 7190.983
593.038, 7191.267
593.520, 7159.564
594.002, 7125.576
594.484, 7106.345
594.966, 7098.066
595.448, 7090.366
595.930, 7079.875
596.412, 7075.972
596.894, 7081.783
597.377, 7090.386
597.859, 7099.059
598.341, 7107.476
598.823, 7116.073
599.305, 7125.880
599.787, 7133.579
600.269, 7135.127
600.752, 7131.203
601.234, 7123.013
601.716, 7109.742
602.198, 7099.542
602.680, 7099.977
603.162, 7109.896
603.644, 7118.138
604.126, 7127.573
604.608, 7131.811
605.091, 7128.855
605.573, 7121.079
606.055, 7107.282
606.537, 7089.816
607.019, 7076.238
607.501, 7072.320
607.983, 7075.135
608.465, 7080.127
608.947, 7087.307
609.430, 7090.349
609.912, 7085.467
610.394, 7079.697
610.876, 7081.429
611.358, 7091.045
611.840, 7098.057
612.322, 7107.481
612.804, 7108.226
613.286, 7088.275
613.769, 7060.929
614.251, 7042.581
614.733, 7036.929
615.215, 7037.356
615.697, 7035.601
616.179, 7034.698
616.661, 7055.445
617.143, 7105.814
617.625, 7136.961
618.108, 7123.359
618.590, 7089.432
619.072, 7066.207
619.554, 7052.899
620.036, 7051.708
620.518, 7080.847
621.000, 7104.536
621.482, 7093.146
621.965, 7062.693
622.447, 7044.015
622.929, 7047.105
623.411, 7056.911
623.893, 7053.389
624.375, 7037.246
624.857, 7031.508
625.339, 7040.123
625.821, 7048.387
626.304, 7048.581
626.786, 7045.546
627.268, 7048.248
627.750, 7059.102
628.232, 7063.336
628.714, 7045.266
629.196, 7029.428
629.679, 7041.190
630.161, 7070.424
630.643, 7090.089
631.125, 7088.853
631.607, 7078.583
632.089, 7079.985
632.571, 7094.629
633.053, 7090.670
633.535, 7057.461
634.018, 7026.388
634.500, 7015.792
634.982, 7016.244
635.464, 7012.809
635.946, 7002.907
636.428, 6995.719
636.910, 6994.326
637.392, 6996.765
637.875, 7001.180
638.357, 7007.824
638.839, 7019.988
639.321, 7039.533
639.803, 7058.308
640.285, 7060.233
640.767, 7043.344
641.249, 7031.326
641.731, 7027.127
642.214, 7023.862
642.696, 7015.200
643.178, 7005.937
643.660, 7004.928
644.142, 7015.315
644.624, 7026.396
645.106, 7041.742
645.588, 7050.907
646.070, 7037.783
646.553, 7009.556
647.035, 6990.047
647.517, 6991.815
647.999, 7002.196
648.481, 6994.968
648.963, 6967.137
649.445, 6964.479
649.927, 7005.118
650.409, 7039.855
650.892, 7034.307
651.374, 7005.234
651.856, 6986.449
652.338, 6984.525
652.820, 6979.062
653.302, 6960.164
653.784, 6938.241
654.266, 6912.743
654.748, 6892.185
655.231, 6901.920
655.713, 6955.889
656.195, 7021.440
656.677, 7042.274
657.159, 7017.523
657.641, 7000.114
658.123, 6994.443
658.606, 6993.931
659.088, 7001.805
659.570, 7009.708
660.052, 6996.589
660.534, 6951.453
661.016, 6914.755
661.498, 6901.443
661.980, 6893.643
662.462, 6871.549
662.945, 6844.871
663.427, 6842.057
663.909, 6876.286
664.391, 6918.748
664.873, 6926.119
665.355, 6902.596
665.837, 6888.337
666.319, 6887.209
666.802, 6888.907
667.284, 6889.796
667.766, 6888.640
668.248, 6880.133
668.730, 6854.647
669.212, 6848.547
669.694, 6882.052
670.176, 6918.731
670.658, 6945.768
671.141, 6958.585
671.623, 6947.444
672.105, 6908.911
672.587, 6867.731
673.069, 6848.218
673.551, 6847.734
674.033, 6863.516
674.515, 6896.363
674.997, 6918.527
675.480, 6914.369
675.962, 6896.089
676.444, 6886.563
676.926, 6891.780
677.408, 6886.705
677.890, 6853.964
678.372, 6831.353
678.854, 6842.211
679.336, 6867.240
679.819, 6881.620
680.301, 6879.346
680.783, 6869.043
681.265, 6850.814
681.747, 6831.799
682.229, 6826.861
682.711, 6834.044
683.193, 6837.887
683.675, 6831.933
684.158, 6823.792
684.640, 6825.037
685.122, 6837.570
685.604, 6841.809
686.086, 6826.151
686.568, 6818.619
687.050, 6826.561
687.532, 6806.725
688.015, 6837.651
688.497, 6856.256
688.979, 6863.200
689.461, 6823.562
689.943, 6844.076
690.425, 6840.483
690.907, 6835.902
691.389, 6864.882
691.872, 6832.019
692.354, 6860.466
692.836, 6859.958
693.318, 6850.008
693.800, 6841.959
694.282, 6835.984
694.764, 6831.304
695.246, 6829.071
695.729, 6826.597
696.211, 6819.626
696.693, 6809.409
697.175, 6804.290
697.657, 6810.960
698.139, 6816.456
698.621, 6809.504
699.103, 6802.099
699.585, 6814.319
700.068, 6842.537
700.550, 6860.138
701.032, 6847.126
701.514, 6818.094
701.996, 6800.302
702.478, 6793.669
702.960, 6793.980
703.442, 6803.359
703.924, 6809.071
704.407, 6799.693
704.889, 6779.371
705.371, 6766.231
705.853, 6767.246
706.335, 6764.981
706.817, 6754.314
707.299, 6744.400
707.781, 6740.531
708.263, 6741.902
708.746, 6746.154
709.228, 6752.698
709.710, 6760.287
710.192, 6772.642
710.674, 6783.606
711.156, 6777.446
711.638, 6755.084
712.120, 6732.775
712.602, 6718.261
713.085, 6711.222
713.567, 6712.256
714.049, 6723.758
714.531, 6731.900
715.013, 6741.078
715.495, 6740.062
715.977, 6708.534
716.459, 6673.967
716.942, 6674.250
717.424, 6715.007
717.906, 6742.592
718.388, 6731.937
718.870, 6707.769
719.352, 6672.818
719.834, 6642.121
720.316, 6648.260
720.799, 6695.312
721.281, 6744.624
721.763, 6758.556
722.245, 6745.558
722.727, 6734.027
723.209, 6723.475
723.691, 6722.298
724.173, 6737.309
724.656, 6751.697
