##NAMES=Pectolite
##RRUFFID=R060101
##IDEAL CHEMISTRY=NaCa_2_Si_3_O_8_(OH)
##LOCALITY=West Patterson, New Jersey, USA
##OWNER=RRUFF
##SOURCE=University of Arizona Mineral Museum
##DESCRIPTION=Tufts of white acicular sprays
##STATUS=The identification of this mineral has been confirmed by X-ray diffraction and chemical analysis
##URL=rruff.info/R060101
##MEASURED CHEMISTRY=Na_1.02_Ca_2.00_Si_2.99_O_8_(OH)
89.78156, 0.0000000E+00
90.26367, 550.7917
90.74579, 556.1512
91.22791, 555.6680
91.71002, 549.6511
92.19214, 540.5759
92.67426, 527.9712
93.15638, 513.5275
93.63850, 501.9964
94.12061, 493.9509
94.60273, 489.9958
95.08485, 492.9562
95.56696, 503.4684
96.04908, 516.3973
96.53120, 524.9997
97.01331, 529.4225
97.49543, 535.7096
97.97755, 549.0647
98.45966, 568.6775
98.94178, 581.5817
99.42390, 587.5242
99.90602, 586.9410
100.3881, 577.1585
100.8703, 553.8419
101.3524, 536.6977
101.8345, 539.6885
102.3166, 570.2311
102.7987, 587.9100
103.2808, 584.8763
103.7630, 567.1205
104.2451, 562.0610
104.7272, 576.9899
105.2093, 594.9202
105.6914, 604.0060
106.1735, 594.9599
106.6557, 592.9579
107.1378, 602.8810
107.6199, 625.2247
108.1020, 645.7869
108.5841, 659.3160
109.0662, 673.9782
109.5484, 697.2432
110.0305, 729.2855
110.5126, 769.9798
110.9947, 821.5241
111.4768, 887.1758
111.9590, 950.6776
112.4411, 1001.324
112.9232, 1051.750
113.4053, 1116.680
113.8874, 1209.066
114.3695, 1308.555
114.8517, 1402.386
115.3338, 1476.412
115.8159, 1576.935
116.2980, 1722.519
116.7801, 1905.644
117.2622, 2107.741
117.7444, 2334.404
118.2265, 2571.914
118.7086, 2806.879
119.1907, 3020.176
119.6728, 3259.829
120.1549, 3567.310
120.6371, 3929.739
121.1192, 4296.460
121.6013, 4629.816
122.0834, 4951.357
122.5655, 5284.249
123.0476, 5648.503
123.5298, 6015.503
124.0119, 6362.609
124.4940, 6689.993
124.9761, 7001.418
125.4582, 7290.749
125.9404, 7564.223
126.4225, 7831.457
126.9046, 8087.915
127.3867, 8342.935
127.8688, 8613.697
128.3509, 8901.309
128.8331, 9193.894
129.3152, 9465.804
129.7973, 9726.729
130.2794, 10017.52
130.7615, 10360.66
131.2436, 10749.43
131.7258, 11156.94
132.2079, 11581.75
132.6900, 12026.58
133.1721, 12511.96
133.6542, 13036.45
134.1364, 13544.56
134.6185, 14001.41
135.1006, 14411.07
135.5827, 14833.08
136.0648, 15284.56
136.5469, 15740.79
137.0291, 16142.46
137.5112, 16481.98
137.9933, 16787.15
138.4754, 17073.23
138.9575, 17334.77
139.4396, 17597.98
139.9218, 17870.44
140.4039, 18145.30
140.8860, 18378.21
141.3681, 18550.00
141.8502, 18711.18
142.3323, 18894.51
142.8145, 19104.38
143.2966, 19332.18
143.7787, 19580.98
144.2608, 19852.36
144.7429, 20106.61
145.2250, 20332.47
145.7072, 20554.39
146.1893, 20794.22
146.6714, 21039.06
147.1535, 21321.17
147.6356, 21657.66
148.1178, 22059.04
148.5999, 22435.61
149.0820, 22791.16
149.5641, 23118.71
150.0462, 23405.75
150.5283, 23611.68
151.0105, 23813.99
151.4926, 23810.71
151.9747, 23784.55
152.4568, 23782.70
152.9389, 23832.97
153.4210, 23901.70
153.9032, 23942.27
154.3853, 23955.54
154.8674, 23936.71
155.3495, 23873.98
155.8316, 23728.94
156.3137, 23627.59
156.7959, 23621.59
157.2780, 23668.48
157.7601, 23688.78
158.2422, 23637.07
158.7243, 23575.19
159.2065, 23531.35
159.6886, 23510.56
160.1707, 23504.96
160.6528, 23518.91
161.1349, 23546.47
161.6170, 23572.58
162.0992, 23589.87
162.5813, 23604.79
163.0634, 23621.62
163.5455, 23642.40
164.0276, 23663.38
164.5097, 23686.12
164.9919, 23708.80
165.4740, 23724.17
165.9561, 23721.21
166.4382, 23712.97
166.9203, 23710.58
167.4024, 23709.28
167.8846, 23722.85
168.3667, 23774.02
168.8488, 23855.85
169.3309, 23922.89
169.8130, 23931.71
170.2952, 23914.39
170.7773, 23910.71
171.2594, 23945.96
171.7415, 23990.29
172.2236, 24016.10
172.7057, 24024.48
173.1879, 24034.96
173.6700, 24062.96
174.1521, 24102.28
174.6342, 24142.64
175.1163, 24183.07
175.5984, 24221.01
176.0806, 24253.02
176.5627, 24279.16
177.0448, 24300.64
177.5269, 24316.71
178.0090, 24328.78
178.4911, 24340.63
178.9733, 24365.36
179.4554, 24387.52
179.9375, 24371.84
180.4196, 24314.19
180.9017, 24259.84
181.3838, 24263.07
181.8660, 24311.81
182.3481, 24363.05
182.8302, 24407.54
183.3123, 24440.11
183.7944, 24438.04
184.2766, 24394.62
184.7587, 24351.85
185.2408, 24368.63
185.7229, 24436.57
186.2050, 24505.25
186.6871, 24546.48
187.1693, 24567.95
187.6514, 24597.12
188.1335, 24637.62
188.6156, 24677.87
189.0977, 24694.83
189.5798, 24689.75
190.0620, 24693.90
190.5441, 24726.06
191.0262, 24782.71
191.5083, 24845.66
191.9904, 24919.75
192.4725, 24988.10
192.9547, 25016.79
193.4368, 25005.06
193.9189, 24988.89
194.4010, 24984.48
194.8831, 24991.97
195.3652, 25013.37
195.8474, 25051.97
196.3295, 25099.94
196.8116, 25140.16
197.2937, 25171.30
197.7758, 25206.32
198.2579, 25261.80
198.7401, 25338.76
199.2222, 25379.27
199.7043, 25365.51
200.1864, 25327.51
200.6685, 25340.52
201.1507, 25414.17
201.6328, 25492.10
202.1149, 25539.35
202.5970, 25552.84
203.0791, 25564.73
203.5612, 25574.29
204.0434, 25586.19
204.5255, 25619.15
205.0076, 25681.80
205.4897, 25736.55
205.9718, 25753.36
206.4539, 25723.09
206.9361, 25712.34
207.4182, 25732.04
207.9003, 25772.97
208.3824, 25807.88
208.8645, 25838.05
209.3466, 25859.52
209.8288, 25863.20
210.3109, 25838.85
210.7930, 25845.16
211.2751, 25901.71
211.7572, 25988.84
212.2393, 26026.91
212.7215, 25989.38
213.2036, 25959.79
213.6857, 26000.39
214.1678, 26140.16
214.6499, 26251.63
215.1320, 26321.26
215.6142, 26355.10
216.0963, 26375.04
216.5784, 26372.52
217.0605, 26371.84
217.5426, 26389.38
218.0247, 26430.06
218.5069, 26474.17
218.9890, 26521.86
219.4711, 26571.82
219.9532, 26619.43
220.4353, 26668.20
220.9175, 26710.07
221.3996, 26740.19
221.8817, 26756.29
222.3638, 26765.83
222.8459, 26765.99
223.3280, 26759.78
223.8102, 26762.56
224.2923, 26777.39
224.7744, 26796.16
225.2565, 26810.23
225.7386, 26805.88
226.2207, 26832.69
226.7029, 26917.67
227.1850, 27040.64
227.6671, 27086.22
228.1492, 27008.32
228.6313, 26918.48
229.1134, 26886.14
229.5956, 26936.47
230.0777, 26987.63
230.5598, 27034.46
231.0419, 27077.97
231.5240, 27125.71
232.0062, 27189.81
232.4883, 27242.41
232.9704, 27261.20
233.4525, 27215.96
233.9346, 27205.42
234.4167, 27250.00
234.8989, 27336.55
235.3810, 27403.18
235.8631, 27444.13
236.3452, 27473.22
236.8273, 27496.94
237.3094, 27509.14
237.7916, 27528.16
238.2737, 27556.52
238.7558, 27592.17
239.2379, 27630.06
239.7200, 27682.49
240.2021, 27720.01
240.6843, 27719.55
241.1664, 27640.46
241.6485, 27615.22
242.1306, 27672.98
242.6127, 27789.14
243.0948, 27869.01
243.5770, 27906.75
244.0591, 27917.73
244.5412, 27903.12
245.0233, 27833.73
245.5054, 27806.77
245.9876, 27839.96
246.4697, 27916.10
246.9518, 27983.41
247.4339, 28044.70
247.9160, 28093.33
248.3981, 28123.52
248.8803, 28125.54
249.3624, 28130.89
249.8445, 28133.89
250.3266, 28141.58
250.8087, 28176.84
251.2908, 28254.16
251.7730, 28333.97
252.2551, 28396.97
252.7372, 28435.86
253.2193, 28477.09
253.7014, 28522.57
254.1835, 28569.01
254.6657, 28608.52
255.1478, 28640.21
255.6299, 28666.79
256.1120, 28689.03
256.5941, 28705.30
257.0763, 28723.13
257.5584, 28744.67
258.0405, 28767.09
258.5226, 28777.69
259.0047, 28754.47
259.4868, 28766.23
259.9690, 28858.72
260.4511, 29068.98
260.9332, 29182.68
261.4153, 29161.86
261.8974, 29079.07
262.3795, 29060.76
262.8617, 29133.59
263.3438, 29205.64
263.8259, 29240.97
264.3080, 29230.34
264.7901, 29251.57
265.2722, 29320.77
265.7544, 29402.30
266.2365, 29437.17
266.7186, 29405.78
267.2007, 29388.22
267.6828, 29418.78
268.1649, 29502.77
268.6471, 29541.02
269.1292, 29514.95
269.6113, 29473.78
270.0934, 29484.44
270.5755, 29562.84
271.0576, 29631.72
271.5398, 29663.29
272.0219, 29659.55
272.5040, 29687.05
272.9861, 29755.58
273.4682, 29833.18
273.9503, 29885.36
274.4325, 29907.41
274.9146, 29928.53
275.3967, 29957.44
275.8788, 29991.99
276.3610, 30009.53
276.8431, 30003.77
277.3252, 29999.58
277.8073, 30023.13
278.2894, 30077.06
278.7715, 30130.77
279.2537, 30181.31
279.7358, 30227.12
280.2179, 30262.18
280.7000, 30286.75
281.1821, 30301.02
281.6642, 30297.38
282.1464, 30275.69
282.6285, 30275.14
283.1106, 30309.35
283.5927, 30362.44
284.0748, 30381.51
284.5569, 30360.90
285.0391, 30355.78
285.5212, 30418.11
286.0033, 30540.77
286.4854, 30641.83
286.9675, 30706.04
287.4496, 30750.56
287.9318, 30815.66
288.4139, 30902.14
288.8960, 30973.68
289.3781, 30999.53
289.8602, 30989.58
290.3423, 30994.99
290.8245, 31023.21
291.3066, 31061.10
291.7887, 31087.82
292.2708, 31104.73
292.7529, 31121.07
293.2350, 31130.11
293.7172, 31141.90
294.1993, 31191.81
294.6814, 31286.10
295.1635, 31397.61
295.6456, 31505.41
296.1277, 31605.09
296.6099, 31676.20
297.0920, 31690.19
297.5741, 31671.87
298.0562, 31666.97
298.5383, 31676.29
299.0204, 31695.92
299.5026, 31720.40
299.9847, 31751.92
300.4668, 31797.75
300.9489, 31872.62
301.4311, 31956.92
301.9132, 32023.74
302.3953, 32074.02
302.8774, 32110.83
303.3595, 32125.60
303.8416, 32130.79
304.3238, 32148.74
304.8059, 32189.29
305.2880, 32242.76
305.7701, 32305.30
306.2522, 32375.00
306.7343, 32436.75
307.2165, 32467.94
307.6986, 32490.07
308.1807, 32531.99
308.6628, 32611.63
309.1449, 32695.29
309.6270, 32754.17
310.1092, 32795.32
310.5913, 32840.18
311.0734, 32907.89
311.5555, 32980.25
312.0376, 33037.90
312.5197, 33070.36
313.0019, 33106.61
313.4840, 33170.80
313.9661, 33251.02
314.4482, 33323.51
314.9303, 33371.95
315.4124, 33414.46
315.8946, 33465.32
316.3767, 33531.03
316.8588, 33582.79
317.3409, 33605.78
317.8230, 33609.66
318.3051, 33607.09
318.7873, 33602.79
319.2694, 33592.45
319.7515, 33564.39
320.2336, 33515.27
320.7157, 33493.65
321.1978, 33537.18
321.6800, 33603.26
322.1621, 33653.28
322.6442, 33662.22
323.1263, 33671.84
323.6084, 33693.57
324.0905, 33726.55
324.5727, 33755.47
325.0548, 33758.06
325.5369, 33768.75
326.0190, 33808.50
326.5012, 33916.39
326.9833, 34010.61
327.4654, 34090.62
327.9475, 34153.95
328.4296, 34188.72
328.9117, 34160.20
329.3939, 34133.67
329.8760, 34136.20
330.3581, 34187.00
330.8402, 34230.45
331.3223, 34261.36
331.8044, 34285.64
332.2866, 34317.06
332.7687, 34365.89
333.2508, 34404.18
333.7329, 34417.42
334.2150, 34394.91
334.6971, 34397.69
335.1793, 34431.32
335.6614, 34484.96
336.1435, 34548.55
336.6256, 34632.82
337.1077, 34702.46
337.5898, 34748.64
338.0720, 34773.04
338.5541, 34773.95
339.0362, 34735.26
339.5183, 34711.68
340.0004, 34765.95
340.4825, 34912.94
340.9647, 35041.08
341.4468, 35133.54
341.9289, 35193.41
342.4110, 35221.82
342.8931, 35212.79
343.3752, 35207.44
343.8574, 35230.97
344.3395, 35282.45
344.8216, 35360.36
345.3037, 35476.23
345.7858, 35592.87
346.2679, 35629.23
346.7501, 35590.57
347.2322, 35563.72
347.7143, 35604.61
348.1964, 35694.06
348.6785, 35772.84
349.1607, 35839.62
349.6428, 35895.90
350.1249, 35942.47
350.6070, 35980.77
351.0891, 36015.58
351.5713, 36042.59
352.0534, 36070.32
352.5355, 36117.26
353.0176, 36182.22
353.4997, 36243.71
353.9818, 36285.37
354.4640, 36312.51
354.9461, 36332.95
355.4282, 36345.62
355.9103, 36356.79
356.3924, 36374.79
356.8745, 36397.25
357.3567, 36414.02
357.8388, 36406.07
358.3209, 36397.59
358.8030, 36409.66
359.2851, 36448.25
359.7672, 36502.20
360.2494, 36589.82
360.7315, 36687.08
361.2136, 36748.48
361.6957, 36707.78
362.1778, 36667.66
362.6599, 36690.86
363.1421, 36792.54
363.6242, 36873.01
364.1063, 36879.92
364.5884, 36859.66
365.0705, 36859.61
365.5526, 36877.16
366.0348, 36927.59
366.5169, 37038.98
366.9990, 37205.06
367.4811, 37326.38
367.9632, 37362.36
368.4453, 37372.36
368.9275, 37389.36
369.4096, 37410.41
369.8917, 37442.77
370.3738, 37485.30
370.8559, 37539.53
371.3380, 37611.17
371.8202, 37725.01
372.3023, 37823.73
372.7844, 37881.25
373.2665, 37885.57
373.7487, 37897.23
374.2308, 37917.09
374.7129, 37943.75
375.1950, 37978.50
375.6771, 38027.09
376.1592, 38066.88
376.6414, 38094.60
377.1235, 38109.63
377.6056, 38094.56
378.0877, 38034.73
378.5698, 37993.15
379.0519, 38057.17
379.5341, 38227.60
380.0162, 38306.04
380.4983, 38228.59
380.9804, 38076.59
381.4625, 38048.45
381.9446, 38141.09
382.4268, 38238.82
382.9089, 38273.17
383.3910, 38256.28
383.8731, 38217.49
384.3552, 38151.59
384.8373, 38100.25
385.3195, 38125.34
385.8016, 38206.95
386.2837, 38287.48
386.7658, 38330.95
387.2479, 38363.48
387.7300, 38423.57
388.2122, 38509.88
388.6943, 38594.34
389.1764, 38662.88
389.6585, 38714.80
390.1406, 38744.69
390.6227, 38732.55
391.1049, 38724.80
391.5870, 38762.46
392.0691, 38831.18
392.5512, 38887.77
393.0333, 38895.23
393.5154, 38896.19
393.9976, 38920.38
394.4797, 38979.51
394.9618, 39035.27
395.4439, 39060.34
395.9260, 39079.31
396.4081, 39124.68
396.8903, 39231.31
397.3724, 39338.29
397.8545, 39431.68
398.3366, 39510.87
398.8188, 39580.61
399.3009, 39632.30
399.7830, 39680.48
400.2651, 39735.15
400.7472, 39817.32
401.2293, 39873.39
401.7115, 39890.48
402.1936, 39880.70
402.6757, 39878.01
403.1578, 39872.67
403.6399, 39891.16
404.1220, 39950.87
404.6042, 40061.81
405.0863, 40154.05
405.5684, 40219.85
406.0505, 40277.55
406.5326, 40359.90
407.0147, 40474.77
407.4969, 40554.50
407.9790, 40571.13
408.4611, 40541.92
408.9432, 40531.35
409.4253, 40539.70
409.9074, 40567.54
410.3896, 40623.62
410.8717, 40702.16
411.3538, 40776.11
411.8359, 40838.91
412.3180, 40900.66
412.8001, 40989.20
413.2823, 41092.37
413.7644, 41168.11
414.2465, 41173.10
414.7286, 41146.31
415.2107, 41142.68
415.6928, 41165.30
416.1750, 41183.52
416.6571, 41162.37
417.1392, 41125.77
417.6213, 41105.74
418.1034, 41124.38
418.5855, 41150.43
419.0677, 41164.97
419.5498, 41171.71
420.0319, 41183.77
420.5140, 41210.57
420.9961, 41241.79
421.4782, 41271.41
421.9604, 41297.87
422.4425, 41324.67
422.9246, 41356.03
423.4067, 41386.92
423.8889, 41410.86
424.3710, 41419.75
424.8531, 41429.00
425.3352, 41439.48
425.8173, 41451.07
426.2994, 41471.86
426.7816, 41499.69
427.2637, 41538.80
427.7458, 41591.56
428.2279, 41658.62
428.7100, 41745.93
429.1921, 41879.10
429.6743, 42016.18
430.1564, 42032.44
430.6385, 41889.61
431.1206, 41774.48
431.6027, 41778.26
432.0848, 41894.94
432.5670, 41979.22
433.0491, 42026.97
433.5312, 42060.59
434.0133, 42107.25
434.4954, 42163.68
434.9775, 42205.87
435.4597, 42224.27
435.9418, 42230.57
436.4239, 42229.22
436.9060, 42226.09
437.3881, 42257.98
437.8702, 42397.99
438.3524, 42569.38
438.8345, 42648.11
439.3166, 42609.08
439.7987, 42557.70
440.2808, 42566.39
440.7629, 42619.42
441.2451, 42692.27
441.7272, 42816.16
442.2093, 42920.20
442.6914, 42945.63
443.1735, 42905.88
443.6556, 42891.87
444.1378, 42975.89
444.6199, 43070.26
445.1020, 43115.59
445.5841, 43066.46
446.0662, 43041.85
446.5483, 43072.00
447.0305, 43133.95
447.5126, 43189.75
447.9947, 43232.92
448.4768, 43276.29
448.9590, 43323.86
449.4411, 43375.43
449.9232, 43419.84
450.4053, 43453.23
450.8874, 43484.41
451.3695, 43512.65
451.8517, 43528.15
452.3338, 43588.20
452.8159, 43713.97
453.2980, 43866.29
453.7801, 43966.61
454.2622, 44011.61
454.7444, 44038.45
455.2265, 44054.62
455.7086, 44065.13
456.1907, 44094.13
456.6728, 44143.61
457.1549, 44193.74
457.6371, 44225.13
458.1192, 44243.95
458.6013, 44265.44
459.0834, 44292.55
459.5655, 44324.70
460.0476, 44361.75
460.5298, 44403.45
461.0119, 44447.09
461.4940, 44493.77
461.9761, 44541.16
462.4582, 44583.18
462.9403, 44618.49
463.4225, 44668.23
463.9046, 44778.44
464.3867, 44891.59
464.8688, 44950.79
465.3509, 44884.29
465.8330, 44830.34
466.3152, 44816.34
466.7973, 44836.73
467.2794, 44870.74
467.7615, 44938.16
468.2436, 44998.52
468.7257, 45031.69
469.2079, 45023.28
469.6900, 45054.38
470.1721, 45145.63
470.6542, 45253.09
471.1363, 45332.23
471.6184, 45379.82
472.1006, 45409.30
472.5827, 45417.02
473.0648, 45411.82
473.5469, 45417.01
474.0291, 45432.19
474.5112, 45464.35
474.9933, 45525.05
475.4754, 45607.96
475.9575, 45689.85
476.4396, 45771.78
476.9218, 45839.36
477.4039, 45862.84
477.8860, 45859.75
478.3681, 45870.45
478.8502, 45909.05
479.3323, 45964.41
479.8145, 46037.86
480.2966, 46122.16
480.7787, 46188.76
481.2608, 46206.87
481.7429, 46214.16
482.2250, 46236.37
482.7072, 46277.98
483.1893, 46324.44
483.6714, 46388.61
484.1535, 46447.52
484.6356, 46478.39
485.1177, 46416.52
485.5999, 46397.77
486.0820, 46482.14
486.5641, 46633.80
487.0462, 46716.83
487.5283, 46675.07
488.0104, 46641.48
488.4926, 46673.29
488.9747, 46783.44
489.4568, 46878.38
489.9389, 46959.39
490.4210, 47021.64
490.9031, 47047.07
491.3853, 47031.93
491.8674, 47042.73
492.3495, 47098.16
492.8316, 47179.85
493.3137, 47255.93
493.7958, 47325.42
494.2780, 47376.66
494.7601, 47373.64
495.2422, 47354.37
495.7243, 47399.63
496.2064, 47515.53
496.6885, 47643.00
497.1707, 47750.08
497.6528, 47836.70
498.1349, 47901.75
498.6170, 47933.80
499.0992, 47961.45
499.5813, 48002.19
500.0634, 48050.71
500.5455, 48094.45
501.0276, 48121.46
501.5097, 48149.80
501.9919, 48188.75
502.4740, 48240.77
502.9561, 48289.16
503.4382, 48341.34
503.9203, 48384.02
504.4024, 48405.29
504.8846, 48382.32
505.3667, 48386.79
505.8488, 48435.40
506.3309, 48506.18
506.8130, 48549.86
507.2951, 48561.25
507.7773, 48568.76
508.2594, 48577.30
508.7415, 48590.01
509.2236, 48627.86
509.7057, 48692.11
510.1878, 48766.38
510.6700, 48848.60
511.1521, 48931.18
511.6342, 48991.23
512.1163, 49022.63
512.5984, 49038.86
513.0806, 49036.40
513.5627, 49029.63
514.0448, 49048.54
514.5269, 49138.72
515.0090, 49231.85
515.4911, 49269.26
515.9733, 49260.59
516.4554, 49273.70
516.9375, 49357.39
517.4196, 49453.63
517.9017, 49526.77
518.3839, 49560.59
518.8660, 49600.09
519.3481, 49662.94
519.8302, 49727.32
520.3123, 49768.01
520.7944, 49771.26
521.2766, 49778.33
521.7587, 49801.76
522.2408, 49833.75
522.7229, 49833.53
523.2050, 49786.79
523.6871, 49764.21
524.1693, 49821.64
524.6514, 49949.71
525.1335, 50027.08
525.6156, 50048.07
526.0977, 50058.55
526.5798, 50107.54
527.0620, 50184.26
527.5441, 50252.27
528.0262, 50292.21
528.5083, 50341.21
528.9904, 50470.55
529.4725, 50640.93
529.9547, 50756.04
530.4368, 50710.94
530.9189, 50638.24
531.4010, 50616.11
531.8831, 50647.37
532.3652, 50704.76
532.8474, 50825.97
533.3295, 50938.18
533.8116, 50991.02
534.2937, 50900.98
534.7758, 50886.90
535.2579, 51015.04
535.7401, 51192.19
536.2222, 51275.40
536.7043, 51221.07
537.1864, 51181.18
537.6685, 51193.22
538.1506, 51245.20
538.6328, 51276.45
539.1149, 51283.92
539.5970, 51295.65
540.0791, 51324.54
540.5612, 51371.41
541.0433, 51444.15
541.5255, 51545.10
542.0076, 51648.80
542.4897, 51739.67
542.9718, 51813.96
543.4539, 51864.43
543.9360, 51882.26
544.4182, 51884.92
544.9003, 51858.65
545.3824, 51826.61
545.8645, 51840.91
546.3466, 51965.80
546.8287, 52102.07
547.3109, 52201.60
547.7930, 52260.43
548.2751, 52325.38
548.7572, 52439.16
549.2393, 52532.64
549.7214, 52563.53
550.2036, 52486.02
550.6857, 52452.19
551.1678, 52475.11
551.6499, 52529.71
552.1320, 52588.82
552.6141, 52657.97
553.0963, 52696.69
553.5784, 52679.55
554.0605, 52640.66
554.5426, 52683.77
555.0247, 52804.21
555.5068, 52915.47
555.9890, 52945.38
556.4711, 52937.61
556.9532, 52972.39
557.4353, 53052.41
557.9174, 53138.47
558.3995, 53225.80
558.8817, 53290.82
559.3638, 53295.32
559.8459, 53177.57
560.3281, 53106.60
560.8102, 53208.44
561.2923, 53387.60
561.7744, 53493.36
562.2565, 53403.13
562.7386, 53342.51
563.2208, 53372.18
563.7029, 53477.54
564.1850, 53555.72
564.6671, 53591.84
565.1492, 53626.88
565.6313, 53690.26
566.1135, 53787.16
566.5956, 53822.88
567.0777, 53780.39
567.5598, 53735.62
568.0419, 53776.21
568.5240, 53887.17
569.0062, 53996.17
569.4883, 54089.14
569.9704, 54171.76
570.4525, 54260.08
570.9346, 54344.22
571.4167, 54395.00
571.8989, 54365.11
572.3810, 54327.29
572.8631, 54337.70
573.3452, 54389.77
573.8273, 54434.29
574.3094, 54444.97
574.7916, 54449.34
575.2737, 54456.01
575.7558, 54452.91
576.2379, 54497.79
576.7200, 54645.59
577.2021, 54796.25
577.6843, 54847.63
578.1664, 54740.59
578.6485, 54714.91
579.1306, 54818.85
579.6127, 54989.00
580.0948, 55103.59
580.5770, 55162.08
581.0591, 55203.63
581.5412, 55231.39
582.0233, 55258.42
582.5054, 55330.21
582.9875, 55437.79
583.4697, 55519.59
583.9518, 55497.39
584.4339, 55446.10
584.9160, 55450.97
585.3981, 55526.38
585.8802, 55611.73
