##NAMES=Pectolite
##RRUFFID=R070607
##IDEAL CHEMISTRY=NaCa_2_Si_3_O_8_(OH)
##LOCALITY=Poudrette quarry (Demix quarry; Uni-Mix quarry; Desourdy quarry), Mont Saint-Hilaire, Rouville County, Québec, Canada
##OWNER=RRUFF
##SOURCE=Michael Scott
##DESCRIPTION=Colorless platy microcrystals associated with griceite, R070436
##STATUS=The identification of this mineral is confirmed by single-crystal X-ray diffraction and chemical analysis.
##URL=rruff.info/R070607
##MEASURED CHEMISTRY=Na_1.00_(Ca_1.03_Mn_0.94_Fe^2+^_0.03_)_Σ=2_Si_3.00_O_8_(OH)
98.30615, 2884.544
98.78827, 2995.926
99.27039, 3119.280
99.75250, 3277.016
100.2346, 3431.079
100.7167, 3553.039
101.1989, 3635.608
101.6810, 3676.441
102.1631, 3641.354
102.6452, 3603.555
103.1273, 3560.859
103.6094, 3497.954
104.0916, 3427.809
104.5737, 3394.390
105.0558, 3424.199
105.5379, 3454.453
106.0200, 3452.022
106.5021, 3420.880
106.9843, 3378.389
107.4664, 3326.158
107.9485, 3251.515
108.4306, 3231.498
108.9127, 3339.846
109.3948, 3451.585
109.8770, 3489.478
110.3591, 3437.192
110.8412, 3345.056
111.3233, 3307.402
111.8054, 3368.051
112.2875, 3425.656
112.7697, 3482.620
113.2518, 3531.073
113.7339, 3562.842
114.2160, 3573.918
114.6981, 3564.919
115.1802, 3537.237
115.6624, 3482.625
116.1445, 3421.428
116.6266, 3350.285
117.1087, 3274.885
117.5908, 3212.100
118.0729, 3177.996
118.5551, 3174.408
119.0372, 3157.094
119.5193, 3110.462
120.0014, 3059.446
120.4835, 3025.535
120.9656, 3012.002
121.4478, 3009.917
121.9299, 3017.367
122.4120, 3032.229
122.8941, 3037.990
123.3762, 3024.404
123.8583, 2996.897
124.3405, 2970.618
124.8226, 2948.155
125.3047, 2927.953
125.7868, 2909.654
126.2689, 2893.364
126.7510, 2874.183
127.2332, 2843.206
127.7153, 2797.072
128.1974, 2764.558
128.6795, 2762.604
129.1616, 2771.177
129.6437, 2779.908
130.1259, 2785.929
130.6080, 2789.775
131.0901, 2792.538
131.5722, 2794.417
132.0543, 2794.552
132.5364, 2790.694
133.0186, 2785.988
133.5007, 2783.507
133.9828, 2784.860
134.4649, 2789.975
134.9470, 2798.499
135.4291, 2813.871
135.9113, 2829.421
136.3934, 2842.665
136.8755, 2854.834
137.3576, 2868.281
137.8397, 2884.391
138.3218, 2902.858
138.8040, 2929.354
139.2861, 2973.681
139.7682, 3016.575
140.2503, 3046.616
140.7324, 3063.088
141.2145, 3072.831
141.6967, 3083.563
142.1788, 3096.567
142.6609, 3103.800
143.1430, 3103.962
143.6251, 3098.498
144.1072, 3087.980
144.5894, 3071.683
145.0715, 3053.177
145.5536, 3036.715
146.0357, 3021.468
146.5178, 3010.544
147.0000, 3009.717
147.4821, 3015.343
147.9642, 3013.000
148.4463, 2990.764
148.9284, 2965.953
149.4105, 2963.343
149.8927, 2989.642
150.3748, 3016.040
150.8569, 3012.052
151.3390, 2974.036
151.8211, 2944.831
152.3032, 2949.604
152.7854, 2967.340
153.2675, 2982.985
153.7496, 2992.246
154.2317, 2997.521
154.7138, 3004.146
155.1959, 3016.666
155.6781, 3019.960
156.1602, 2999.386
156.6423, 2971.417
157.1244, 2955.866
157.6065, 2965.185
158.0886, 2994.145
158.5708, 3015.942
159.0529, 3027.893
159.5350, 3034.157
160.0171, 3034.173
160.4992, 3029.418
160.9813, 3022.890
161.4635, 3018.051
161.9456, 3016.004
162.4277, 2998.829
162.9098, 2951.609
163.3919, 2904.197
163.8740, 2867.838
164.3562, 2842.478
164.8383, 2821.401
165.3204, 2797.788
165.8025, 2770.312
166.2846, 2745.784
166.7667, 2730.695
167.2489, 2714.008
167.7310, 2684.594
168.2131, 2641.510
168.6952, 2597.217
169.1773, 2569.326
169.6594, 2566.827
170.1416, 2560.529
170.6237, 2549.866
171.1058, 2534.519
171.5879, 2512.127
172.0700, 2481.030
172.5521, 2447.279
173.0343, 2421.844
173.5164, 2403.134
173.9985, 2392.493
174.4806, 2395.757
174.9627, 2407.708
175.4448, 2415.404
175.9270, 2412.366
176.4091, 2404.811
176.8912, 2403.717
177.3733, 2409.377
177.8554, 2419.648
178.3375, 2437.427
178.8197, 2461.402
179.3018, 2478.531
179.7839, 2477.672
180.2660, 2469.823
180.7481, 2470.185
181.2302, 2482.145
181.7124, 2499.414
182.1945, 2515.794
182.6766, 2530.978
183.1587, 2546.961
183.6408, 2565.720
184.1229, 2585.341
184.6051, 2603.745
185.0872, 2619.552
185.5693, 2634.704
186.0514, 2653.193
186.5335, 2676.728
187.0156, 2699.884
187.4978, 2718.785
187.9799, 2736.507
188.4620, 2757.324
188.9441, 2784.217
189.4262, 2815.241
189.9083, 2842.493
190.3905, 2866.121
190.8726, 2885.120
191.3547, 2896.052
191.8368, 2903.061
192.3189, 2913.300
192.8010, 2932.768
193.2832, 2960.802
193.7653, 2982.270
194.2474, 2990.037
194.7295, 2997.307
195.2116, 3007.394
195.6937, 3019.689
196.1759, 3031.917
196.6580, 3041.924
197.1401, 3049.285
197.6222, 3058.729
198.1043, 3084.078
198.5864, 3099.125
199.0686, 3087.859
199.5507, 3054.234
200.0328, 3015.033
200.5149, 2987.037
200.9970, 2972.072
201.4791, 2961.880
201.9613, 2962.260
202.4434, 2961.865
202.9255, 2950.956
203.4076, 2930.156
203.8897, 2910.209
204.3718, 2904.776
204.8540, 2921.803
205.3361, 2931.152
205.8182, 2932.063
206.3003, 2926.472
206.7824, 2911.743
207.2645, 2888.292
207.7467, 2866.049
208.2288, 2859.205
208.7109, 2875.056
209.1930, 2889.461
209.6751, 2907.418
210.1572, 2920.955
210.6394, 2917.120
211.1215, 2891.471
211.6036, 2860.180
212.0857, 2850.501
212.5678, 2867.943
213.0499, 2884.438
213.5321, 2898.997
214.0142, 2908.807
214.4963, 2908.237
214.9784, 2894.190
215.4605, 2873.454
215.9426, 2855.949
216.4248, 2840.171
216.9069, 2830.816
217.3890, 2834.780
217.8711, 2846.369
218.3532, 2852.460
218.8353, 2848.057
219.3175, 2837.861
219.7996, 2829.757
220.2817, 2824.507
220.7638, 2817.926
221.2459, 2807.452
221.7280, 2793.785
222.2102, 2779.606
222.6923, 2765.403
223.1744, 2751.389
223.6565, 2738.063
224.1386, 2725.695
224.6207, 2712.710
225.1029, 2699.268
225.5850, 2684.946
226.0671, 2665.504
226.5492, 2633.765
227.0313, 2601.063
227.5134, 2580.148
227.9956, 2573.141
228.4777, 2571.993
228.9598, 2570.668
229.4419, 2569.166
229.9240, 2569.964
230.4061, 2577.757
230.8883, 2585.494
231.3704, 2587.552
231.8525, 2583.433
232.3346, 2572.472
232.8167, 2546.456
233.2988, 2501.906
233.7810, 2476.538
234.2631, 2504.225
234.7452, 2543.982
235.2273, 2564.200
235.7094, 2556.886
236.1915, 2538.908
236.6737, 2530.893
237.1558, 2535.666
237.6379, 2536.161
238.1200, 2518.411
238.6021, 2499.475
239.0842, 2494.558
239.5664, 2508.788
240.0485, 2526.723
240.5306, 2523.019
241.0127, 2488.074
241.4948, 2465.738
241.9769, 2479.684
242.4591, 2502.661
242.9412, 2513.532
243.4233, 2505.867
243.9054, 2491.398
244.3875, 2488.527
244.8696, 2500.615
245.3518, 2515.319
245.8339, 2531.448
246.3160, 2548.226
246.7981, 2565.407
247.2802, 2582.855
247.7623, 2599.779
248.2445, 2613.437
248.7266, 2619.302
249.2087, 2633.223
249.6908, 2665.507
250.1729, 2701.564
250.6550, 2728.629
251.1372, 2742.673
251.6193, 2751.072
252.1014, 2766.712
252.5835, 2790.643
253.0656, 2820.210
253.5477, 2863.404
254.0299, 2906.539
254.5120, 2938.073
254.9941, 2954.305
255.4762, 2961.509
255.9583, 2971.000
256.4405, 2983.959
256.9226, 2996.957
257.4047, 3014.678
257.8868, 3029.614
258.3689, 3033.181
258.8510, 3023.143
259.3332, 3008.244
259.8153, 3004.502
260.2974, 3016.683
260.7795, 3031.666
261.2616, 3052.406
261.7437, 3072.573
262.2259, 3084.724
262.7080, 3087.282
263.1901, 3088.383
263.6722, 3102.847
264.1543, 3136.894
264.6364, 3173.220
265.1186, 3195.854
265.6007, 3228.548
266.0828, 3308.542
266.5649, 3439.990
267.0470, 3570.727
267.5291, 3606.514
268.0113, 3476.683
268.4934, 3387.348
268.9755, 3359.138
269.4576, 3357.505
269.9397, 3361.605
270.4218, 3364.730
270.9040, 3367.754
271.3861, 3373.579
271.8682, 3391.454
272.3503, 3392.051
272.8324, 3350.276
273.3145, 3311.180
273.7967, 3311.277
274.2788, 3355.293
274.7609, 3415.460
275.2430, 3452.828
275.7251, 3455.065
276.2072, 3461.154
276.6894, 3473.330
277.1715, 3486.833
277.6536, 3497.231
278.1357, 3504.576
278.6178, 3513.562
279.0999, 3531.067
279.5821, 3562.045
280.0642, 3587.570
280.5463, 3602.332
281.0284, 3616.873
281.5105, 3637.246
281.9926, 3663.890
282.4748, 3693.590
282.9569, 3723.155
283.4390, 3753.770
283.9211, 3779.760
284.4032, 3795.756
284.8853, 3812.538
285.3675, 3835.125
285.8496, 3863.770
286.3317, 3897.195
286.8138, 3936.325
287.2959, 3986.001
287.7780, 4014.571
288.2602, 4001.856
288.7423, 3988.373
289.2244, 3993.928
289.7065, 4014.901
290.1886, 4034.742
290.6707, 4038.139
291.1529, 4023.599
291.6350, 4011.509
292.1171, 4010.268
292.5992, 4003.296
293.0813, 3981.058
293.5634, 3948.051
294.0456, 3916.022
294.5277, 3895.081
295.0098, 3884.948
295.4919, 3864.246
295.9740, 3822.528
296.4561, 3780.342
296.9383, 3738.739
297.4204, 3700.438
297.9025, 3670.124
298.3846, 3651.364
298.8667, 3642.575
299.3488, 3630.462
299.8310, 3609.382
300.3131, 3591.105
300.7952, 3579.018
301.2773, 3570.700
301.7594, 3562.169
302.2415, 3551.099
302.7237, 3538.661
303.2058, 3530.027
303.6879, 3533.532
304.1700, 3529.151
304.6521, 3511.078
305.1342, 3485.033
305.6164, 3456.377
306.0985, 3427.395
306.5806, 3399.290
307.0627, 3375.279
307.5448, 3354.943
308.0269, 3340.234
308.5091, 3338.593
308.9912, 3338.142
309.4733, 3325.448
309.9554, 3296.078
310.4375, 3261.608
310.9196, 3242.607
311.4018, 3244.299
311.8839, 3250.319
312.3660, 3265.137
312.8481, 3279.052
313.3302, 3285.085
313.8123, 3281.710
314.2945, 3272.506
314.7766, 3258.592
315.2587, 3234.010
315.7408, 3226.547
316.2229, 3256.499
316.7050, 3289.979
317.1872, 3307.776
317.6693, 3309.000
318.1514, 3306.414
318.6335, 3313.827
319.1156, 3332.681
319.5977, 3348.679
320.0799, 3354.683
320.5620, 3363.685
321.0441, 3386.361
321.5262, 3418.711
322.0083, 3446.011
322.4904, 3455.384
322.9726, 3447.553
323.4547, 3438.640
323.9368, 3434.208
324.4189, 3420.848
324.9010, 3388.193
325.3831, 3342.807
325.8653, 3299.210
326.3474, 3266.558
326.8295, 3242.137
327.3116, 3216.949
327.7937, 3194.718
328.2758, 3163.717
328.7580, 3110.114
329.2401, 3047.407
329.7222, 2996.238
330.2043, 2968.048
330.6864, 2952.619
331.1685, 2931.193
331.6507, 2902.797
332.1328, 2871.694
332.6149, 2835.233
333.0970, 2798.714
333.5791, 2766.550
334.0612, 2738.091
334.5434, 2718.625
335.0255, 2718.978
335.5076, 2740.800
335.9897, 2757.667
336.4718, 2759.774
336.9539, 2752.669
337.4361, 2740.157
337.9182, 2720.741
338.4003, 2705.126
338.8824, 2703.428
339.3645, 2713.914
339.8466, 2725.206
340.3288, 2735.791
340.8109, 2744.496
341.2930, 2747.174
341.7751, 2743.261
342.2572, 2747.500
342.7393, 2777.040
343.2215, 2819.343
343.7036, 2843.717
344.1857, 2842.230
344.6678, 2830.135
345.1499, 2817.875
345.6320, 2806.084
346.1142, 2804.327
346.5963, 2828.264
347.0784, 2857.440
347.5605, 2863.025
348.0426, 2841.438
348.5247, 2816.402
349.0069, 2807.529
349.4890, 2812.878
349.9711, 2813.301
350.4532, 2802.444
350.9353, 2790.540
351.4174, 2786.983
351.8996, 2790.255
352.3817, 2790.119
352.8638, 2779.209
353.3459, 2760.247
353.8280, 2746.964
354.3102, 2744.771
354.7923, 2741.576
355.2744, 2726.786
355.7565, 2708.078
356.2386, 2703.693
356.7207, 2723.368
357.2029, 2755.637
357.6850, 2771.965
358.1671, 2762.813
358.6492, 2753.741
359.1313, 2749.406
359.6134, 2745.820
360.0956, 2734.888
360.5777, 2715.041
361.0598, 2698.217
361.5419, 2703.315
362.0240, 2745.122
362.5061, 2772.766
362.9883, 2780.439
363.4704, 2779.679
363.9525, 2773.231
364.4346, 2764.259
364.9167, 2760.604
365.3988, 2770.450
365.8810, 2795.323
366.3631, 2820.390
366.8452, 2857.477
367.3273, 2882.991
367.8094, 2880.938
368.2915, 2860.822
368.7737, 2843.084
369.2558, 2841.475
369.7379, 2852.951
370.2200, 2859.413
370.7021, 2856.436
371.1842, 2854.016
371.6664, 2858.843
372.1485, 2863.355
372.6306, 2857.549
373.1127, 2837.063
373.5948, 2808.916
374.0769, 2787.547
374.5591, 2777.080
375.0412, 2762.036
375.5233, 2733.712
376.0054, 2704.333
376.4875, 2684.408
376.9696, 2675.040
377.4518, 2665.631
377.9339, 2643.397
378.4160, 2607.917
378.8981, 2576.797
379.3802, 2552.906
379.8623, 2533.266
380.3445, 2515.737
380.8266, 2500.518
381.3087, 2488.423
381.7908, 2485.350
382.2729, 2485.896
382.7550, 2471.914
383.2372, 2437.752
383.7193, 2403.368
384.2014, 2376.514
384.6835, 2358.527
385.1656, 2355.305
385.6477, 2380.476
386.1299, 2409.922
386.6120, 2414.466
387.0941, 2394.902
387.5762, 2376.817
388.0583, 2371.445
388.5404, 2375.653
389.0226, 2381.846
389.5047, 2392.350
389.9868, 2399.866
390.4689, 2401.778
390.9510, 2398.053
391.4331, 2384.762
391.9153, 2357.546
392.3974, 2332.077
392.8795, 2335.128
393.3616, 2373.798
393.8437, 2407.102
394.3258, 2429.946
394.8080, 2445.137
395.2901, 2453.308
395.7722, 2455.234
396.2543, 2454.315
396.7364, 2452.970
397.2185, 2450.959
397.7007, 2453.097
398.1828, 2459.158
398.6649, 2468.812
399.1470, 2481.365
399.6291, 2497.437
400.1112, 2520.120
400.5934, 2552.313
401.0755, 2589.538
401.5576, 2613.359
402.0397, 2604.042
402.5218, 2606.187
403.0039, 2631.559
403.4861, 2665.653
403.9682, 2692.565
404.4503, 2707.865
404.9324, 2721.670
405.4145, 2751.169
405.8966, 2804.907
406.3788, 2848.145
406.8609, 2874.333
407.3430, 2894.451
407.8251, 2912.120
408.3072, 2928.271
408.7893, 2943.552
409.2715, 2957.191
409.7536, 2969.868
410.2357, 2986.842
410.7178, 3007.372
411.1999, 3033.843
411.6820, 3070.709
412.1642, 3112.739
412.6463, 3152.178
413.1284, 3188.161
413.6105, 3217.787
414.0926, 3233.116
414.5747, 3232.816
415.0569, 3238.869
415.5390, 3266.411
416.0211, 3299.453
416.5032, 3315.499
416.9853, 3310.308
417.4674, 3303.336
417.9496, 3305.780
418.4317, 3314.367
418.9138, 3320.826
419.3959, 3322.767
419.8780, 3324.954
420.3601, 3336.032
420.8423, 3356.655
421.3244, 3364.328
421.8065, 3350.330
422.2886, 3326.869
422.7707, 3300.952
423.2528, 3274.008
423.7350, 3248.122
424.2171, 3223.470
424.6992, 3201.074
425.1813, 3189.317
425.6634, 3203.655
426.1455, 3208.759
426.6277, 3191.720
427.1098, 3162.191
427.5919, 3133.234
428.0740, 3109.768
428.5561, 3088.140
429.0382, 3060.468
429.5204, 3014.497
430.0025, 2987.526
430.4846, 2992.016
430.9667, 3002.025
431.4488, 3002.262
431.9309, 2992.388
432.4131, 2980.726
432.8952, 2974.707
433.3773, 2973.922
433.8594, 2969.985
434.3415, 2957.932
434.8236, 2949.967
435.3058, 2953.931
435.7879, 2963.262
436.2700, 2969.514
436.7521, 2970.625
437.2342, 2964.137
437.7163, 2939.497
438.1985, 2893.402
438.6806, 2865.128
439.1627, 2878.498
439.6448, 2905.622
440.1269, 2916.838
440.6090, 2910.223
441.0912, 2900.594
441.5733, 2895.529
442.0554, 2893.142
442.5375, 2887.773
443.0196, 2877.325
443.5017, 2871.933
443.9839, 2886.167
444.4660, 2917.466
444.9481, 2930.454
445.4302, 2906.451
445.9123, 2878.664
446.3944, 2867.595
446.8766, 2870.110
447.3587, 2875.755
447.8408, 2880.002
448.3229, 2881.939
448.8050, 2878.727
449.2871, 2859.137
449.7693, 2849.298
450.2514, 2860.376
450.7335, 2875.605
451.2156, 2878.633
451.6977, 2867.285
452.1798, 2851.742
452.6620, 2842.862
453.1441, 2840.881
453.6262, 2843.356
454.1083, 2859.103
454.5905, 2870.585
455.0726, 2868.560
455.5547, 2858.920
456.0368, 2852.559
456.5189, 2855.546
457.0010, 2864.470
457.4832, 2871.971
457.9653, 2877.626
458.4474, 2883.440
458.9295, 2889.257
459.4116, 2896.080
459.8937, 2906.392
460.3759, 2920.643
460.8580, 2931.685
461.3401, 2936.417
461.8222, 2934.083
462.3043, 2918.426
462.7864, 2883.757
463.2686, 2853.016
463.7507, 2852.863
464.2328, 2876.306
464.7149, 2884.730
465.1970, 2863.405
465.6791, 2834.658
466.1613, 2813.465
466.6434, 2797.663
467.1255, 2778.906
467.6076, 2753.702
468.0897, 2722.250
468.5718, 2684.755
469.0540, 2627.420
469.5361, 2585.805
470.0182, 2569.634
470.5003, 2564.229
470.9824, 2560.662
471.4645, 2555.862
471.9467, 2546.432
472.4288, 2527.317
472.9109, 2497.853
473.3930, 2479.728
473.8751, 2486.659
474.3572, 2489.924
474.8394, 2476.890
475.3215, 2457.439
475.8036, 2446.582
476.2857, 2451.358
476.7678, 2462.717
477.2499, 2466.981
477.7321, 2463.437
478.2142, 2457.977
478.6963, 2448.559
479.1784, 2440.832
479.6605, 2440.341
480.1426, 2446.646
480.6248, 2452.336
481.1069, 2451.059
481.5890, 2447.936
482.0711, 2452.174
482.5532, 2464.585
483.0353, 2479.230
483.5175, 2495.307
483.9996, 2509.939
484.4817, 2512.496
484.9638, 2487.591
485.4459, 2470.128
485.9280, 2475.935
486.4102, 2495.726
486.8923, 2517.518
487.3744, 2537.519
487.8565, 2554.529
488.3386, 2566.487
488.8207, 2572.401
489.3029, 2576.694
489.7850, 2569.044
490.2671, 2570.018
490.7492, 2595.954
491.2313, 2637.712
491.7134, 2674.276
492.1956, 2692.746
492.6777, 2699.723
493.1598, 2715.850
493.6419, 2748.600
494.1240, 2770.664
494.6061, 2768.421
495.0883, 2757.830
495.5704, 2749.316
496.0525, 2744.208
496.5346, 2738.607
497.0167, 2729.127
497.4988, 2716.987
497.9810, 2706.254
498.4631, 2697.822
498.9452, 2687.767
499.4273, 2669.837
499.9094, 2647.943
500.3915, 2635.941
500.8737, 2646.596
501.3558, 2654.527
501.8379, 2642.598
502.3200, 2618.990
502.8021, 2599.344
503.2842, 2588.734
503.7664, 2585.862
504.2485, 2589.347
504.7306, 2601.633
505.2127, 2613.479
505.6948, 2629.751
506.1769, 2641.273
506.6591, 2639.610
507.1412, 2629.017
507.6233, 2620.894
508.1054, 2623.085
508.5875, 2630.815
509.0696, 2627.893
509.5518, 2607.432
510.0339, 2592.793
510.5160, 2594.263
510.9981, 2599.842
511.4802, 2603.620
511.9623, 2604.227
512.4445, 2597.183
512.9266, 2574.278
513.4087, 2541.550
513.8908, 2513.736
514.3729, 2490.668
514.8550, 2479.334
515.3372, 2491.716
515.8193, 2519.542
516.3014, 2533.002
516.7835, 2522.191
517.2656, 2508.407
517.7477, 2498.096
518.2299, 2491.955
518.7120, 2492.710
519.1941, 2501.072
519.6762, 2511.691
520.1583, 2518.100
520.6404, 2520.385
521.1226, 2517.495
521.6047, 2501.993
522.0868, 2489.638
522.5689, 2489.812
523.0510, 2497.355
523.5331, 2502.683
524.0153, 2501.121
524.4974, 2494.404
524.9795, 2485.669
525.4616, 2474.814
525.9437, 2462.678
526.4258, 2452.045
526.9080, 2437.635
527.3901, 2413.771
527.8722, 2381.627
528.3543, 2350.779
528.8364, 2322.343
529.3185, 2299.673
529.8007, 2287.046
530.2828, 2284.620
530.7649, 2298.559
531.2470, 2344.725
531.7291, 2400.280
532.2112, 2396.264
532.6934, 2300.365
533.1755, 2219.121
533.6576, 2182.234
534.1397, 2164.941
534.6218, 2144.644
535.1039, 2117.875
535.5861, 2091.148
536.0682, 2070.432
536.5503, 2055.417
537.0324, 2041.040
537.5145, 2022.436
537.9966, 2011.319
538.4788, 2014.147
538.9609, 2023.181
539.4430, 2033.019
539.9251, 2042.007
540.4072, 2043.481
540.8893, 2026.852
541.3715, 1994.553
541.8536, 1964.290
542.3357, 1934.901
542.8178, 1914.440
543.2999, 1914.394
543.7820, 1928.334
544.2642, 1940.154
544.7463, 1951.388
545.2284, 1955.643
545.7105, 1943.365
546.1926, 1921.837
546.6747, 1907.140
547.1569, 1904.525
547.6390, 1907.089
548.1211, 1905.333
548.6032, 1897.016
549.0853, 1893.390
549.5674, 1895.666
550.0496, 1900.555
550.5317, 1911.635
551.0138, 1923.474
551.4959, 1925.950
551.9780, 1913.640
552.4601, 1894.146
552.9423, 1880.978
553.4244, 1874.960
553.9065, 1869.548
554.3886, 1863.816
554.8707, 1858.325
555.3528, 1851.920
555.8350, 1845.525
556.3171, 1843.714
556.7992, 1853.060
557.2813, 1864.458
557.7634, 1867.380
558.2455, 1863.118
558.7277, 1860.243
559.2098, 1863.646
559.6919, 1867.277
560.1740, 1858.449
560.6561, 1824.815
561.1382, 1806.176
561.6204, 1812.795
562.1025, 1826.184
562.5846, 1836.840
563.0667, 1843.700
563.5488, 1847.882
564.0309, 1849.930
564.5131, 1850.283
564.9952, 1849.958
565.4773, 1848.413
565.9594, 1847.766
566.4415, 1852.017
566.9236, 1854.569
567.4058, 1849.170
567.8879, 1836.512
568.3700, 1825.223
568.8521, 1820.010
569.3342, 1818.767
569.8163, 1817.802
570.2985, 1817.225
570.7806, 1821.753
571.2627, 1836.521
571.7448, 1854.509
572.2269, 1856.887
572.7090, 1831.038
573.1912, 1817.218
573.6733, 1829.915
574.1554, 1847.685
574.6375, 1854.373
575.1196, 1849.830
575.6017, 1841.882
576.0839, 1836.094
576.5660, 1831.006
577.0481, 1819.215
577.5302, 1793.389
578.0123, 1778.646
578.4944, 1793.307
578.9766, 1812.085
579.4587, 1815.293
579.9408, 1802.670
580.4229, 1790.974
580.9050, 1788.399
581.3871, 1793.046
581.8693, 1805.556
582.3514, 1825.263
582.8335, 1838.922
583.3156, 1838.786
583.7977, 1829.441
584.2798, 1821.636
584.7620, 1814.338
585.2441, 1810.496
585.7262, 1815.172
586.2083, 1819.687
586.6904, 1815.712
587.1725, 1804.887
587.6547, 1794.540
588.1368, 1788.864
588.6189, 1788.948
589.1010, 1801.595
589.5831, 1835.987
590.0652, 1857.105
590.5474, 1843.371
591.0295, 1823.462
591.5116, 1818.065
