##NAMES=Pectolite
##RRUFFID=R050396
##IDEAL CHEMISTRY=NaCa_2_Si_3_O_8_(OH)
##LOCALITY=Jeffrey Quarry, Asbestos, Quebec, Canada
##OWNER=RRUFF
##SOURCE=Marcus Origlieri
##DESCRIPTION=Colorless to gray columnar blocky crystals
##STATUS=The identification of this mineral has been confirmed by X-ray diffraction and chemical analysis
##URL=rruff.info/R050396
##MEASURED CHEMISTRY=Na_1.00_Ca_2.00_Si_3.00_O_8_(OH)
92.52344, 1504.235
93.00555, 1491.815
93.48767, 1493.930
93.96979, 1542.718
94.45190, 1594.740
94.93402, 1647.768
95.41614, 1675.137
95.89825, 1680.464
96.38037, 1675.815
96.86249, 1662.768
97.34460, 1646.124
97.82672, 1626.959
98.30884, 1607.239
98.79095, 1586.433
99.27307, 1563.357
99.75519, 1539.037
100.2373, 1519.027
100.7194, 1504.021
101.2015, 1490.403
101.6837, 1476.714
102.1658, 1464.466
102.6479, 1454.968
103.1300, 1448.192
103.6121, 1442.727
104.0942, 1437.341
104.5764, 1432.283
105.0585, 1428.510
105.5406, 1426.437
106.0227, 1425.759
106.5048, 1425.667
106.9869, 1425.823
107.4691, 1426.246
107.9512, 1427.092
108.4333, 1428.176
108.9154, 1429.104
109.3975, 1429.624
109.8796, 1429.742
110.3618, 1429.064
110.8439, 1427.995
111.3260, 1425.777
111.8081, 1421.152
112.2902, 1414.445
112.7723, 1407.519
113.2544, 1403.072
113.7366, 1402.817
114.2187, 1402.126
114.7008, 1399.933
115.1829, 1397.828
115.6650, 1397.592
116.1471, 1399.878
116.6293, 1403.401
117.1114, 1405.098
117.5935, 1404.338
118.0756, 1403.269
118.5577, 1402.179
119.0398, 1401.110
119.5220, 1400.128
120.0041, 1399.186
120.4862, 1398.437
120.9683, 1398.056
121.4504, 1397.915
121.9325, 1398.289
122.4147, 1399.699
122.8968, 1402.242
123.3789, 1404.536
123.8610, 1405.956
124.3431, 1406.704
124.8252, 1406.663
125.3074, 1405.382
125.7895, 1403.793
126.2716, 1403.971
126.7537, 1406.851
127.2358, 1409.946
127.7179, 1412.383
128.2001, 1414.516
128.6822, 1416.826
129.1643, 1419.575
129.6464, 1422.765
130.1285, 1426.233
130.6107, 1431.361
131.0928, 1435.465
131.5749, 1437.183
132.0570, 1437.235
132.5391, 1437.328
133.0212, 1439.031
133.5034, 1442.730
133.9855, 1445.498
134.4676, 1446.798
134.9497, 1447.828
135.4318, 1449.507
135.9139, 1451.822
136.3960, 1453.778
136.8782, 1453.997
137.3603, 1451.963
137.8424, 1451.020
138.3245, 1451.675
138.8066, 1453.389
139.2887, 1455.786
139.7709, 1458.941
140.2530, 1462.125
140.7351, 1464.171
141.2172, 1465.179
141.6993, 1466.474
142.1814, 1469.523
142.6636, 1473.529
143.1457, 1475.490
143.6278, 1474.207
144.1099, 1471.062
144.5920, 1467.202
145.0741, 1462.692
145.5563, 1458.031
146.0384, 1453.404
146.5205, 1448.720
147.0026, 1444.953
147.4847, 1442.019
147.9668, 1440.284
148.4490, 1440.619
148.9311, 1443.049
149.4132, 1446.091
149.8953, 1447.632
150.3774, 1447.612
150.8595, 1445.905
151.3417, 1441.538
151.8238, 1436.385
152.3059, 1432.050
152.7880, 1429.135
153.2701, 1426.887
153.7522, 1423.452
154.2344, 1417.377
154.7165, 1411.664
155.1986, 1406.628
155.6807, 1401.937
156.1628, 1396.867
156.6449, 1390.954
157.1271, 1384.838
157.6092, 1381.360
158.0913, 1382.687
158.5734, 1383.654
159.0555, 1382.307
159.5376, 1379.414
160.0198, 1377.110
160.5019, 1376.841
160.9840, 1377.904
161.4661, 1377.548
161.9482, 1373.854
162.4303, 1370.770
162.9125, 1372.044
163.3946, 1377.456
163.8767, 1381.682
164.3588, 1380.618
164.8409, 1376.515
165.3230, 1373.129
165.8052, 1370.926
166.2873, 1369.829
166.7694, 1370.081
167.2515, 1372.089
167.7336, 1374.066
168.2157, 1375.065
168.6979, 1375.558
169.1800, 1376.075
169.6621, 1376.885
170.1442, 1377.837
170.6263, 1378.449
171.1084, 1378.371
171.5906, 1378.528
172.0727, 1379.002
172.5548, 1379.889
173.0369, 1381.439
173.5190, 1383.984
174.0011, 1387.300
174.4833, 1389.489
174.9654, 1388.838
175.4475, 1388.698
175.9296, 1389.755
176.4117, 1391.840
176.8938, 1394.599
177.3760, 1397.834
177.8581, 1401.566
178.3402, 1404.990
178.8223, 1407.394
179.3044, 1410.206
179.7865, 1414.199
180.2687, 1419.112
180.7508, 1424.089
181.2329, 1428.391
181.7150, 1431.966
182.1971, 1435.495
182.6792, 1439.296
183.1614, 1442.808
183.6435, 1445.800
184.1256, 1448.220
184.6077, 1450.028
185.0898, 1451.145
185.5719, 1451.471
186.0541, 1451.385
186.5362, 1451.303
187.0183, 1450.557
187.5004, 1448.206
187.9825, 1444.070
188.4646, 1439.598
188.9468, 1435.930
189.4289, 1432.982
189.9110, 1430.481
190.3931, 1427.951
190.8752, 1425.970
191.3573, 1425.482
191.8395, 1426.727
192.3216, 1429.051
192.8037, 1432.738
193.2858, 1437.147
193.7679, 1440.747
194.2500, 1442.098
194.7322, 1442.032
195.2143, 1443.325
195.6964, 1446.649
196.1785, 1450.467
196.6606, 1453.624
197.1427, 1456.527
197.6249, 1460.065
198.1070, 1465.079
198.5891, 1471.390
199.0712, 1477.317
199.5533, 1483.667
200.0354, 1488.532
200.5176, 1490.799
200.9997, 1491.025
201.4818, 1490.438
201.9639, 1489.946
202.4460, 1489.561
202.9281, 1488.781
203.4103, 1487.544
203.8924, 1485.935
204.3745, 1483.728
204.8566, 1481.118
205.3387, 1478.606
205.8208, 1476.680
206.3030, 1475.455
206.7851, 1473.701
207.2672, 1470.744
207.7493, 1467.953
208.2314, 1465.568
208.7135, 1463.787
209.1957, 1462.981
209.6778, 1463.586
210.1599, 1465.830
210.6420, 1467.758
211.1241, 1469.084
211.6062, 1470.387
212.0884, 1471.890
212.5705, 1473.621
213.0526, 1475.617
213.5347, 1478.029
214.0168, 1480.935
214.4989, 1483.037
214.9811, 1482.635
215.4632, 1482.800
215.9453, 1486.595
216.4274, 1493.822
216.9095, 1500.371
217.3916, 1502.216
217.8737, 1499.253
218.3559, 1498.426
218.8380, 1501.428
219.3201, 1505.601
219.8022, 1508.779
220.2843, 1510.806
220.7664, 1512.497
221.2486, 1514.712
221.7307, 1517.168
222.2128, 1518.595
222.6949, 1518.384
223.1770, 1517.277
223.6591, 1516.416
224.1413, 1516.036
224.6234, 1514.453
225.1055, 1509.388
225.5876, 1502.280
226.0697, 1495.649
226.5518, 1490.534
227.0340, 1486.061
227.5161, 1480.731
227.9982, 1474.126
228.4803, 1468.104
228.9624, 1463.896
229.4445, 1460.899
229.9267, 1458.500
230.4088, 1456.778
230.8909, 1455.330
231.3730, 1453.262
231.8551, 1450.154
232.3372, 1447.538
232.8194, 1446.594
233.3015, 1446.277
233.7836, 1445.260
234.2657, 1442.783
234.7478, 1439.652
235.2299, 1437.695
235.7121, 1437.248
236.1942, 1437.400
236.6763, 1438.391
237.1584, 1439.541
237.6405, 1439.931
238.1227, 1439.033
238.6048, 1437.669
239.0869, 1438.060
239.5690, 1441.417
240.0511, 1444.485
240.5332, 1446.955
241.0154, 1448.752
241.4975, 1449.548
241.9796, 1449.189
242.4617, 1448.265
242.9438, 1448.304
243.4259, 1450.144
243.9081, 1451.668
244.3902, 1452.214
244.8723, 1452.563
245.3544, 1453.318
245.8365, 1454.735
246.3186, 1456.870
246.8008, 1459.983
247.2829, 1465.638
247.7650, 1469.930
248.2471, 1472.001
248.7292, 1473.083
249.2113, 1474.100
249.6935, 1475.412
250.1756, 1477.088
250.6577, 1479.304
251.1398, 1482.815
251.6219, 1485.729
252.1040, 1487.605
252.5862, 1489.122
253.0683, 1491.258
253.5504, 1494.190
254.0325, 1496.727
254.5146, 1496.750
254.9967, 1491.513
255.4789, 1488.927
255.9610, 1491.341
256.4431, 1495.036
256.9252, 1496.467
257.4073, 1494.895
257.8894, 1492.566
258.3716, 1492.550
258.8537, 1496.100
259.3358, 1498.937
259.8179, 1501.111
260.3000, 1502.569
260.7821, 1502.863
261.2643, 1502.010
261.7464, 1501.204
262.2285, 1501.911
262.7106, 1504.636
263.1927, 1506.351
263.6748, 1505.926
264.1570, 1505.146
264.6391, 1505.370
265.1212, 1506.757
265.6033, 1509.020
266.0854, 1512.225
266.5675, 1516.382
267.0497, 1519.384
267.5318, 1520.460
268.0139, 1520.852
268.4960, 1521.316
268.9781, 1521.932
269.4602, 1522.945
269.9424, 1524.846
270.4245, 1527.382
270.9066, 1528.878
271.3887, 1528.112
271.8708, 1527.206
272.3529, 1528.350
272.8351, 1531.339
273.3172, 1533.359
273.7993, 1532.248
274.2814, 1528.938
274.7635, 1526.761
275.2456, 1525.867
275.7278, 1526.034
276.2099, 1527.875
276.6920, 1531.109
277.1741, 1533.418
277.6562, 1533.694
278.1383, 1532.223
278.6205, 1529.816
279.1026, 1525.596
279.5847, 1522.266
280.0668, 1522.010
280.5489, 1524.414
281.0310, 1527.123
281.5132, 1529.559
281.9953, 1531.660
282.4774, 1533.612
282.9595, 1535.561
283.4416, 1536.552
283.9237, 1534.967
284.4059, 1531.636
284.8880, 1530.238
285.3701, 1532.435
285.8522, 1535.835
286.3343, 1538.180
286.8164, 1539.508
287.2986, 1539.860
287.7807, 1538.072
288.2628, 1535.170
288.7449, 1534.828
289.2270, 1538.606
289.7091, 1543.123
290.1913, 1545.362
290.6734, 1545.899
291.1555, 1546.843
291.6376, 1549.625
292.1197, 1553.450
292.6018, 1556.346
293.0840, 1557.825
293.5661, 1559.297
294.0482, 1561.987
294.5303, 1565.302
295.0124, 1568.152
295.4945, 1569.489
295.9767, 1570.427
296.4588, 1573.247
296.9409, 1578.543
297.4230, 1583.698
297.9051, 1586.846
298.3872, 1589.257
298.8694, 1592.588
299.3515, 1597.808
299.8336, 1603.263
300.3157, 1606.436
300.7978, 1606.894
301.2799, 1607.780
301.7621, 1610.160
302.2442, 1613.646
302.7263, 1618.202
303.2084, 1623.956
303.6905, 1630.008
304.1726, 1635.430
304.6548, 1640.177
305.1369, 1645.096
305.6190, 1650.507
306.1011, 1656.117
306.5832, 1661.232
307.0653, 1665.889
307.5475, 1671.664
308.0296, 1680.582
308.5117, 1692.302
308.9938, 1702.814
309.4759, 1710.809
309.9580, 1718.381
310.4402, 1726.998
310.9223, 1736.425
311.4044, 1745.722
311.8865, 1754.250
312.3686, 1762.100
312.8507, 1769.969
313.3329, 1778.422
313.8150, 1785.816
314.2971, 1790.952
314.7792, 1794.624
315.2613, 1798.454
315.7434, 1804.090
316.2256, 1809.751
316.7077, 1811.321
317.1898, 1807.764
317.6719, 1802.919
318.1540, 1797.634
318.6361, 1792.326
319.1183, 1787.577
319.6004, 1783.699
320.0825, 1779.972
320.5646, 1775.162
321.0467, 1768.999
321.5288, 1763.499
322.0110, 1760.490
322.4931, 1757.660
322.9752, 1753.099
323.4573, 1746.507
323.9394, 1739.211
324.4215, 1732.326
324.9037, 1725.886
325.3858, 1719.460
325.8679, 1713.243
326.3500, 1706.743
326.8321, 1699.323
327.3142, 1691.163
327.7964, 1683.433
328.2785, 1677.046
328.7606, 1671.795
329.2427, 1666.579
329.7248, 1661.213
330.2069, 1656.163
330.6891, 1651.590
331.1712, 1647.498
331.6533, 1643.905
332.1354, 1640.770
332.6175, 1638.164
333.0996, 1636.446
333.5818, 1635.951
334.0639, 1635.227
334.5460, 1631.903
335.0281, 1628.504
335.5102, 1628.451
335.9923, 1633.556
336.4745, 1640.065
336.9566, 1643.502
337.4387, 1643.671
337.9208, 1643.808
338.4029, 1644.821
338.8850, 1646.379
339.3671, 1648.252
339.8492, 1650.461
340.3314, 1652.589
340.8135, 1653.857
341.2956, 1654.567
341.7777, 1656.684
342.2598, 1661.184
342.7419, 1666.302
343.2241, 1670.385
343.7062, 1673.656
344.1883, 1677.174
344.6704, 1681.578
345.1525, 1686.559
345.6346, 1691.491
346.1168, 1696.350
346.5989, 1701.105
347.0810, 1705.188
347.5631, 1709.157
348.0452, 1714.208
348.5273, 1721.179
349.0095, 1728.876
349.4916, 1736.102
349.9737, 1742.829
350.4558, 1749.126
350.9379, 1754.054
351.4200, 1759.177
351.9022, 1767.169
352.3843, 1779.187
352.8664, 1791.115
353.3485, 1799.875
353.8306, 1806.153
354.3127, 1812.832
354.7949, 1821.216
355.2770, 1829.421
355.7591, 1835.423
356.2412, 1839.387
356.7233, 1841.280
357.2054, 1841.075
357.6876, 1838.794
358.1697, 1834.142
358.6518, 1826.916
359.1339, 1818.473
359.6160, 1809.847
360.0981, 1800.944
360.5803, 1791.579
361.0624, 1780.398
361.5445, 1769.782
362.0266, 1761.771
362.5087, 1756.239
362.9908, 1752.123
363.4730, 1749.057
363.9551, 1746.945
364.4372, 1745.291
364.9193, 1744.188
365.4014, 1743.338
365.8835, 1742.876
366.3657, 1742.557
366.8478, 1741.567
367.3299, 1739.411
367.8120, 1737.439
368.2941, 1738.037
368.7762, 1741.702
369.2584, 1745.437
369.7405, 1748.900
370.2226, 1752.208
370.7047, 1755.504
371.1868, 1758.813
371.6689, 1761.919
372.1511, 1764.596
372.6332, 1766.830
373.1153, 1769.295
373.5974, 1771.633
374.0795, 1774.550
374.5616, 1778.891
375.0438, 1784.124
375.5259, 1789.198
376.0080, 1793.672
376.4901, 1797.208
376.9722, 1798.474
377.4543, 1795.245
377.9365, 1792.643
378.4186, 1791.725
378.9007, 1791.430
379.3828, 1790.757
379.8649, 1789.383
380.3470, 1787.303
380.8292, 1784.358
381.3113, 1779.746
381.7934, 1776.733
382.2755, 1776.426
382.7576, 1776.528
383.2397, 1775.781
383.7219, 1774.241
384.2040, 1772.489
384.6861, 1770.849
385.1682, 1769.410
385.6503, 1769.616
386.1324, 1773.820
386.6146, 1777.137
387.0967, 1778.167
387.5788, 1778.017
388.0609, 1777.898
388.5430, 1778.336
389.0251, 1779.544
389.5073, 1782.007
389.9894, 1786.073
390.4715, 1790.759
390.9536, 1796.954
391.4357, 1802.908
391.9178, 1807.726
392.4000, 1811.199
392.8821, 1813.372
393.3642, 1813.754
393.8463, 1812.231
394.3284, 1812.577
394.8105, 1815.086
395.2927, 1819.373
395.7748, 1827.204
396.2569, 1836.287
396.7390, 1842.577
397.2211, 1843.364
397.7032, 1841.706
398.1854, 1844.925
398.6675, 1854.948
399.1496, 1864.069
399.6317, 1869.815
400.1138, 1874.081
400.5959, 1878.011
401.0781, 1881.817
401.5602, 1885.436
402.0423, 1888.486
402.5244, 1891.075
403.0065, 1894.472
403.4886, 1898.759
403.9708, 1904.034
404.4529, 1910.520
404.9350, 1917.931
405.4171, 1925.587
405.8992, 1933.517
406.3813, 1941.314
406.8635, 1948.260
407.3456, 1954.272
407.8277, 1960.238
408.3098, 1966.551
408.7919, 1973.195
409.2740, 1980.339
409.7562, 1988.661
410.2383, 1995.787
410.7204, 1999.409
411.2025, 2000.677
411.6846, 2003.270
412.1667, 2008.540
412.6489, 2014.184
413.1310, 2017.535
413.6131, 2018.751
414.0952, 2018.364
414.5773, 2015.331
415.0594, 2011.495
415.5416, 2009.199
416.0237, 2008.205
416.5058, 2005.488
416.9879, 1998.577
417.4700, 1988.440
417.9521, 1980.419
418.4343, 1975.691
418.9164, 1971.258
419.3985, 1966.664
419.8806, 1961.751
420.3627, 1955.684
420.8448, 1948.212
421.3270, 1941.398
421.8091, 1938.569
422.2912, 1941.848
422.7733, 1943.158
423.2554, 1941.326
423.7375, 1938.718
424.2197, 1936.562
424.7018, 1934.886
425.1839, 1933.132
425.6660, 1930.808
426.1481, 1928.151
426.6302, 1926.760
427.1124, 1928.234
427.5945, 1929.081
428.0766, 1928.611
428.5587, 1927.475
429.0408, 1926.192
429.5229, 1924.972
430.0051, 1923.981
430.4872, 1923.436
430.9693, 1923.347
431.4514, 1923.696
431.9335, 1925.405
432.4156, 1926.748
432.8978, 1927.164
433.3799, 1926.647
433.8620, 1925.141
434.3441, 1921.982
434.8262, 1918.324
435.3083, 1918.152
435.7905, 1923.224
436.2726, 1926.893
436.7547, 1925.306
437.2368, 1922.013
437.7189, 1920.090
438.2010, 1920.163
438.6832, 1920.672
439.1653, 1920.403
439.6474, 1919.448
440.1295, 1918.089
440.6116, 1915.838
441.0938, 1914.233
441.5759, 1915.052
442.0580, 1917.634
442.5401, 1920.120
443.0222, 1923.000
443.5043, 1924.855
443.9865, 1923.266
444.4686, 1918.698
444.9507, 1915.451
445.4328, 1916.065
445.9149, 1918.694
446.3970, 1918.911
446.8792, 1915.791
447.3613, 1913.398
447.8434, 1913.413
448.3255, 1914.487
448.8076, 1915.106
449.2897, 1914.989
449.7719, 1914.323
450.2540, 1913.130
450.7361, 1911.353
451.2182, 1910.544
451.7003, 1911.622
452.1824, 1912.519
452.6646, 1912.793
453.1467, 1912.316
453.6288, 1910.655
454.1109, 1907.609
454.5930, 1904.116
455.0751, 1902.005
455.5573, 1901.612
456.0394, 1902.059
456.5215, 1904.279
457.0036, 1906.390
457.4857, 1906.986
457.9678, 1906.367
458.4500, 1906.013
458.9321, 1907.299
459.4142, 1909.704
459.8963, 1910.043
460.3784, 1907.118
460.8605, 1904.201
461.3427, 1901.331
461.8248, 1899.300
462.3069, 1899.568
462.7890, 1902.489
463.2711, 1905.135
463.7532, 1904.293
464.2354, 1900.167
464.7175, 1895.288
465.1996, 1888.685
465.6817, 1883.434
466.1638, 1882.897
466.6459, 1885.333
467.1281, 1886.317
467.6102, 1883.162
468.0923, 1879.026
468.5744, 1877.868
469.0565, 1879.311
469.5386, 1879.536
470.0208, 1876.569
470.5029, 1872.201
470.9850, 1869.651
471.4671, 1869.073
471.9492, 1868.699
472.4313, 1868.572
472.9135, 1868.140
473.3956, 1866.591
473.8777, 1863.972
474.3598, 1861.173
474.8419, 1858.771
475.3240, 1856.813
475.8062, 1855.795
476.2883, 1857.529
476.7704, 1857.881
477.2525, 1854.529
477.7346, 1850.018
478.2167, 1847.806
478.6989, 1848.644
479.1810, 1850.057
479.6631, 1848.631
480.1452, 1843.501
480.6273, 1840.001
481.1094, 1838.824
481.5916, 1838.596
482.0737, 1839.639
482.5558, 1841.190
483.0379, 1842.071
483.5200, 1841.694
484.0021, 1840.480
484.4843, 1839.079
484.9664, 1837.336
485.4485, 1836.085
485.9306, 1836.149
486.4127, 1836.190
486.8948, 1834.800
487.3770, 1832.335
487.8591, 1830.892
488.3412, 1832.884
488.8233, 1836.332
489.3054, 1837.310
489.7875, 1835.646
490.2697, 1832.810
490.7518, 1828.215
491.2339, 1823.722
491.7160, 1823.229
492.1981, 1828.626
492.6802, 1832.488
493.1624, 1829.888
493.6445, 1824.473
494.1266, 1821.517
494.6087, 1821.911
495.0908, 1824.315
495.5729, 1828.108
496.0551, 1833.218
496.5372, 1835.750
497.0193, 1834.574
497.5014, 1832.576
497.9835, 1829.816
498.4656, 1827.048
498.9478, 1825.469
499.4299, 1825.406
499.9120, 1825.805
500.3941, 1825.173
500.8762, 1823.344
501.3583, 1821.101
501.8405, 1817.664
502.3226, 1814.607
502.8047, 1812.747
503.2868, 1811.640
503.7689, 1810.442
504.2510, 1808.694
504.7331, 1806.812
505.2152, 1805.661
505.6974, 1805.394
506.1795, 1804.881
506.6616, 1803.673
507.1437, 1802.366
507.6258, 1801.236
508.1079, 1800.343
508.5901, 1799.961
509.0722, 1801.337
509.5543, 1802.757
510.0364, 1800.869
510.5185, 1795.739
511.0006, 1791.949
511.4828, 1792.091
511.9649, 1794.487
512.4470, 1795.684
512.9291, 1795.637
513.4113, 1794.873
513.8934, 1792.479
514.3755, 1790.053
514.8576, 1789.982
515.3397, 1792.032
515.8218, 1793.194
516.3040, 1791.046
516.7861, 1786.141
517.2682, 1782.547
517.7503, 1780.641
518.2324, 1779.651
518.7145, 1780.390
519.1967, 1781.477
519.6788, 1781.755
520.1609, 1780.967
520.6430, 1779.334
521.1251, 1776.699
521.6072, 1773.126
522.0894, 1771.526
522.5715, 1773.806
523.0536, 1775.002
523.5357, 1772.150
524.0178, 1768.009
524.4999, 1765.907
524.9821, 1766.793
525.4642, 1768.543
525.9463, 1769.562
526.4284, 1769.865
526.9105, 1769.314
527.3926, 1767.552
527.8748, 1766.000
528.3569, 1766.268
528.8390, 1767.703
529.3211, 1768.017
529.8032, 1766.127
530.2853, 1764.057
530.7675, 1762.975
531.2496, 1762.483
531.7317, 1761.654
532.2138, 1760.201
532.6959, 1758.985
533.1780, 1759.274
533.6602, 1761.584
534.1423, 1762.096
534.6244, 1759.334
535.1065, 1756.676
535.5886, 1755.588
536.0707, 1755.374
536.5529, 1754.664
537.0350, 1752.949
537.5171, 1751.258
537.9992, 1751.583
538.4813, 1754.537
538.9634, 1756.349
539.4456, 1756.420
539.9277, 1755.760
540.4098, 1754.163
540.8919, 1752.292
541.3740, 1751.545
541.8561, 1752.907
542.3383, 1754.673
542.8204, 1754.626
543.3025, 1752.944
543.7846, 1751.215
544.2667, 1749.574
544.7488, 1748.494
545.2310, 1749.072
545.7131, 1751.058
546.1952, 1751.898
546.6773, 1750.249
547.1594, 1748.234
547.6415, 1746.672
548.1237, 1745.865
548.6058, 1746.921
549.0879, 1750.393
549.5700, 1754.143
550.0521, 1754.375
550.5342, 1749.171
551.0164, 1746.345
551.4985, 1748.016
551.9806, 1749.549
552.4627, 1748.500
552.9448, 1745.880
553.4269, 1743.847
553.9091, 1743.436
554.3912, 1743.867
554.8733, 1743.729
555.3554, 1742.871
555.8375, 1742.452
556.3196, 1742.958
556.8018, 1743.534
557.2839, 1743.508
557.7660, 1743.104
558.2481, 1743.061
558.7302, 1744.590
559.2123, 1745.456
559.6945, 1742.446
560.1766, 1736.510
560.6587, 1731.893
561.1408, 1729.901
561.6229, 1729.638
562.1050, 1730.461
562.5872, 1732.711
563.0693, 1733.217
563.5514, 1729.796
564.0335, 1726.791
564.5156, 1726.955
564.9977, 1729.001
565.4799, 1730.679
565.9620, 1731.061
566.4441, 1730.220
566.9262, 1727.870
567.4083, 1723.098
567.8904, 1720.510
568.3726, 1722.492
568.8547, 1724.261
569.3368, 1724.470
569.8189, 1723.302
570.3010, 1720.755
570.7831, 1716.439
571.2653, 1712.675
571.7474, 1713.219
572.2295, 1717.352
572.7116, 1718.973
573.1937, 1716.498
573.6758, 1712.897
574.1580, 1709.994
574.6401, 1707.934
575.1222, 1707.312
575.6043, 1710.206
576.0864, 1712.264
576.5685, 1710.769
577.0507, 1707.185
577.5328, 1703.640
578.0149, 1700.735
578.4970, 1698.582
578.9791, 1697.328
579.4612, 1696.993
579.9434, 1697.171
580.4255, 1698.332
580.9076, 1699.476
581.3897, 1700.643
581.8718, 1701.596
582.3539, 1702.179
582.8361, 1702.325
583.3182, 1701.874
583.8003, 1700.284
584.2824, 1697.783
584.7645, 1696.203
585.2466, 1695.826
585.7288, 1695.549
586.2108, 1694.982
586.6929, 1694.104
587.1750, 1692.699
587.6572, 1690.478
588.1393, 1688.906
588.6214, 1689.509
589.1035, 1690.698
