##NAMES=Pectolite
##RRUFFID=R120024
##IDEAL CHEMISTRY=NaCa_2_Si_3_O_8_(OH)
##LOCALITY=Eveslogchorr Mt., Khibiny Massif, Kola Peninsula, Murmanskaja Oblast', Russia
##OWNER=RRUFF
##SOURCE=Dr. JÃ¼rgen Wachsmuth 
##DESCRIPTION=Colorless elongated platy crystals
##STATUS=The identification of this mineral has been confirmed by single-crystal X-ray diffraction.
##URL=rruff.info/R120024
9.112140e+001, 0.000000e+000
9.160352e+001, 6.420742e+002
9.208563e+001, 6.302370e+002
9.256775e+001, 6.289210e+002
9.304987e+001, 6.439319e+002
9.353198e+001, 6.618166e+002
9.401410e+001, 6.707584e+002
9.449622e+001, 6.715628e+002
9.497833e+001, 6.682320e+002
9.546045e+001, 6.639029e+002
9.594257e+001, 6.585458e+002
9.642468e+001, 6.526281e+002
9.690680e+001, 6.461987e+002
9.738892e+001, 6.400948e+002
9.787103e+001, 6.350141e+002
9.835315e+001, 6.299641e+002
9.883527e+001, 6.236422e+002
9.931738e+001, 6.163734e+002
9.979950e+001, 6.078381e+002
1.002816e+002, 6.002010e+002
1.007637e+002, 5.932004e+002
1.012458e+002, 5.868279e+002
1.017280e+002, 5.809359e+002
1.022101e+002, 5.753214e+002
1.026922e+002, 5.705752e+002
1.031743e+002, 5.680532e+002
1.036564e+002, 5.676211e+002
1.041385e+002, 5.674397e+002
1.046207e+002, 5.664920e+002
1.051028e+002, 5.651525e+002
1.055849e+002, 5.648943e+002
1.060670e+002, 5.668849e+002
1.065491e+002, 5.692545e+002
1.070313e+002, 5.698710e+002
1.075134e+002, 5.684169e+002
1.079955e+002, 5.664207e+002
1.084776e+002, 5.652430e+002
1.089597e+002, 5.648549e+002
1.094418e+002, 5.653506e+002
1.099240e+002, 5.682159e+002
1.104061e+002, 5.711719e+002
1.108882e+002, 5.724988e+002
1.113703e+002, 5.715261e+002
1.118524e+002, 5.686895e+002
1.123345e+002, 5.650273e+002
1.128167e+002, 5.593303e+002
1.132988e+002, 5.544152e+002
1.137809e+002, 5.503864e+002
1.142630e+002, 5.473868e+002
1.147451e+002, 5.457029e+002
1.152272e+002, 5.456207e+002
1.157094e+002, 5.470204e+002
1.161915e+002, 5.476470e+002
1.166736e+002, 5.468394e+002
1.171557e+002, 5.460368e+002
1.176378e+002, 5.460184e+002
1.181199e+002, 5.465319e+002
1.186021e+002, 5.465588e+002
1.190842e+002, 5.450273e+002
1.195663e+002, 5.418078e+002
1.200484e+002, 5.398598e+002
1.205305e+002, 5.395173e+002
1.210126e+002, 5.401737e+002
1.214948e+002, 5.417114e+002
1.219769e+002, 5.442402e+002
1.224590e+002, 5.465641e+002
1.229411e+002, 5.474355e+002
1.234232e+002, 5.471218e+002
1.239053e+002, 5.459246e+002
1.243875e+002, 5.434991e+002
1.248696e+002, 5.402220e+002
1.253517e+002, 5.371053e+002
1.258338e+002, 5.341179e+002
1.263159e+002, 5.315574e+002
1.267980e+002, 5.294167e+002
1.272802e+002, 5.277283e+002
1.277623e+002, 5.266511e+002
1.282444e+002, 5.266933e+002
1.287265e+002, 5.280426e+002
1.292086e+002, 5.285301e+002
1.296907e+002, 5.267138e+002
1.301729e+002, 5.248967e+002
1.306550e+002, 5.243160e+002
1.311371e+002, 5.250357e+002
1.316192e+002, 5.261221e+002
1.321013e+002, 5.261969e+002
1.325834e+002, 5.243778e+002
1.330656e+002, 5.232881e+002
1.335477e+002, 5.232195e+002
1.340298e+002, 5.236071e+002
1.345119e+002, 5.241735e+002
1.349940e+002, 5.247913e+002
1.354761e+002, 5.253108e+002
1.359583e+002, 5.253708e+002
1.364404e+002, 5.242720e+002
1.369225e+002, 5.235727e+002
1.374046e+002, 5.233758e+002
1.378867e+002, 5.236212e+002
1.383688e+002, 5.243612e+002
1.388510e+002, 5.257245e+002
1.393331e+002, 5.273799e+002
1.398152e+002, 5.282045e+002
1.402973e+002, 5.277626e+002
1.407794e+002, 5.273246e+002
1.412615e+002, 5.275146e+002
1.417437e+002, 5.282000e+002
1.422258e+002, 5.287934e+002
1.427079e+002, 5.289883e+002
1.431900e+002, 5.288676e+002
1.436721e+002, 5.286360e+002
1.441542e+002, 5.280696e+002
1.446364e+002, 5.276790e+002
1.451185e+002, 5.282449e+002
1.456006e+002, 5.299977e+002
1.460827e+002, 5.313009e+002
1.465648e+002, 5.306676e+002
1.470469e+002, 5.293286e+002
1.475291e+002, 5.285196e+002
1.480112e+002, 5.287576e+002
1.484933e+002, 5.296908e+002
1.489754e+002, 5.305793e+002
1.494575e+002, 5.315245e+002
1.499396e+002, 5.322305e+002
1.504218e+002, 5.326852e+002
1.509039e+002, 5.328846e+002
1.513860e+002, 5.328196e+002
1.518681e+002, 5.324830e+002
1.523502e+002, 5.318764e+002
1.528323e+002, 5.310483e+002
1.533145e+002, 5.300646e+002
1.537966e+002, 5.287386e+002
1.542787e+002, 5.271568e+002
1.547608e+002, 5.251909e+002
1.552429e+002, 5.225283e+002
1.557250e+002, 5.187941e+002
1.562072e+002, 5.138618e+002
1.566893e+002, 5.098838e+002
1.571714e+002, 5.069801e+002
1.576535e+002, 5.046709e+002
1.581356e+002, 5.029179e+002
1.586177e+002, 5.016270e+002
1.590999e+002, 5.005815e+002
1.595820e+002, 4.996436e+002
1.600641e+002, 4.988498e+002
1.605462e+002, 4.976815e+002
1.610283e+002, 4.954471e+002
1.615104e+002, 4.933249e+002
1.619926e+002, 4.923728e+002
1.624747e+002, 4.927192e+002
1.629568e+002, 4.934452e+002
1.634389e+002, 4.937054e+002
1.639210e+002, 4.935130e+002
1.644031e+002, 4.929641e+002
1.648853e+002, 4.916777e+002
1.653674e+002, 4.901564e+002
1.658495e+002, 4.891745e+002
1.663316e+002, 4.889086e+002
1.668137e+002, 4.890060e+002
1.672958e+002, 4.889333e+002
1.677780e+002, 4.888162e+002
1.682601e+002, 4.893696e+002
1.687422e+002, 4.919191e+002
1.692243e+002, 4.956773e+002
1.697064e+002, 4.972560e+002
1.701885e+002, 4.951144e+002
1.706707e+002, 4.920972e+002
1.711528e+002, 4.898351e+002
1.716349e+002, 4.883271e+002
1.721170e+002, 4.873738e+002
1.725991e+002, 4.870617e+002
1.730812e+002, 4.874384e+002
1.735634e+002, 4.874330e+002
1.740455e+002, 4.862525e+002
1.745276e+002, 4.852643e+002
1.750097e+002, 4.851371e+002
1.754918e+002, 4.858189e+002
1.759739e+002, 4.867996e+002
1.764561e+002, 4.874947e+002
1.769382e+002, 4.877343e+002
1.774203e+002, 4.882895e+002
1.779024e+002, 4.898606e+002
1.783845e+002, 4.911740e+002
1.788666e+002, 4.912299e+002
1.793488e+002, 4.900763e+002
1.798309e+002, 4.887130e+002
1.803130e+002, 4.885814e+002
1.807951e+002, 4.905990e+002
1.812772e+002, 4.917940e+002
1.817593e+002, 4.917144e+002
1.822415e+002, 4.912227e+002
1.827236e+002, 4.908074e+002
1.832057e+002, 4.906290e+002
1.836878e+002, 4.907544e+002
1.841699e+002, 4.913376e+002
1.846520e+002, 4.928999e+002
1.851342e+002, 4.938574e+002
1.856163e+002, 4.937588e+002
1.860984e+002, 4.932242e+002
1.865805e+002, 4.928635e+002
1.870626e+002, 4.928528e+002
1.875447e+002, 4.931014e+002
1.880269e+002, 4.935833e+002
1.885090e+002, 4.944702e+002
1.889911e+002, 4.949180e+002
1.894732e+002, 4.944616e+002
1.899553e+002, 4.934817e+002
1.904374e+002, 4.924156e+002
1.909196e+002, 4.910869e+002
1.914017e+002, 4.903921e+002
1.918838e+002, 4.923052e+002
1.923659e+002, 4.971024e+002
1.928480e+002, 5.006285e+002
1.933301e+002, 5.000337e+002
1.938123e+002, 4.963794e+002
1.942944e+002, 4.935631e+002
1.947765e+002, 4.926108e+002
1.952586e+002, 4.928556e+002
1.957407e+002, 4.936226e+002
1.962228e+002, 4.949224e+002
1.967050e+002, 4.960357e+002
1.971871e+002, 4.962582e+002
1.976692e+002, 4.956405e+002
1.981513e+002, 4.952758e+002
1.986334e+002, 4.949821e+002
1.991155e+002, 4.954393e+002
1.995977e+002, 4.976472e+002
2.000798e+002, 5.015179e+002
2.005619e+002, 5.051367e+002
2.010440e+002, 5.064389e+002
2.015261e+002, 5.050652e+002
2.020082e+002, 5.038076e+002
2.024904e+002, 5.029802e+002
2.029725e+002, 5.023799e+002
2.034546e+002, 5.018943e+002
2.039367e+002, 5.015219e+002
2.044188e+002, 5.013644e+002
2.049009e+002, 5.016359e+002
2.053831e+002, 5.025692e+002
2.058652e+002, 5.032084e+002
2.063473e+002, 5.035495e+002
2.068294e+002, 5.036011e+002
2.073115e+002, 5.032566e+002
2.077936e+002, 5.025490e+002
2.082758e+002, 5.016866e+002
2.087579e+002, 5.009462e+002
2.092400e+002, 5.003135e+002
2.097221e+002, 4.998637e+002
2.102042e+002, 4.992868e+002
2.106863e+002, 4.990585e+002
2.111685e+002, 4.998101e+002
2.116506e+002, 5.015277e+002
2.121327e+002, 5.033550e+002
2.126148e+002, 5.040075e+002
2.130969e+002, 5.026129e+002
2.135790e+002, 5.018022e+002
2.140612e+002, 5.018205e+002
2.145433e+002, 5.022194e+002
2.150254e+002, 5.024175e+002
2.155075e+002, 5.023419e+002
2.159896e+002, 5.027667e+002
2.164717e+002, 5.049969e+002
2.169539e+002, 5.106333e+002
2.174360e+002, 5.141063e+002
2.179181e+002, 5.136440e+002
2.184002e+002, 5.118192e+002
2.188823e+002, 5.112047e+002
2.193644e+002, 5.124291e+002
2.198466e+002, 5.143065e+002
2.203287e+002, 5.152631e+002
2.208108e+002, 5.151713e+002
2.212929e+002, 5.149412e+002
2.217750e+002, 5.144346e+002
2.222571e+002, 5.139501e+002
2.227393e+002, 5.141193e+002
2.232214e+002, 5.152122e+002
2.237035e+002, 5.161349e+002
2.241856e+002, 5.151923e+002
2.246677e+002, 5.125550e+002
2.251498e+002, 5.100245e+002
2.256320e+002, 5.081264e+002
2.261141e+002, 5.066024e+002
2.265962e+002, 5.050310e+002
2.270783e+002, 5.033254e+002
2.275604e+002, 5.016286e+002
2.280425e+002, 5.000509e+002
2.285247e+002, 4.985870e+002
2.290068e+002, 4.972223e+002
2.294889e+002, 4.958150e+002
2.299710e+002, 4.945260e+002
2.304531e+002, 4.938921e+002
2.309352e+002, 4.943978e+002
2.314174e+002, 4.946349e+002
2.318995e+002, 4.931765e+002
2.323816e+002, 4.905647e+002
2.328637e+002, 4.882653e+002
2.333458e+002, 4.872665e+002
2.338279e+002, 4.871532e+002
2.343101e+002, 4.864501e+002
2.347922e+002, 4.846268e+002
2.352743e+002, 4.830860e+002
2.357564e+002, 4.828590e+002
2.362385e+002, 4.834543e+002
2.367206e+002, 4.838586e+002
2.372028e+002, 4.832227e+002
2.376849e+002, 4.819207e+002
2.381670e+002, 4.817414e+002
2.386491e+002, 4.839790e+002
2.391312e+002, 4.853630e+002
2.396133e+002, 4.839862e+002
2.400955e+002, 4.810475e+002
2.405776e+002, 4.785464e+002
2.410597e+002, 4.777023e+002
2.415418e+002, 4.782273e+002
2.420239e+002, 4.787862e+002
2.425060e+002, 4.795487e+002
2.429882e+002, 4.800924e+002
2.434703e+002, 4.802199e+002
2.439524e+002, 4.800917e+002
2.444345e+002, 4.799312e+002
2.449166e+002, 4.798595e+002
2.453987e+002, 4.798615e+002
2.458809e+002, 4.798833e+002
2.463630e+002, 4.801035e+002
2.468451e+002, 4.800878e+002
2.473272e+002, 4.794262e+002
2.478093e+002, 4.785774e+002
2.482914e+002, 4.782446e+002
2.487736e+002, 4.788614e+002
2.492557e+002, 4.800608e+002
2.497378e+002, 4.802947e+002
2.502199e+002, 4.779299e+002
2.507020e+002, 4.766396e+002
2.511841e+002, 4.775866e+002
2.516663e+002, 4.796153e+002
2.521484e+002, 4.814210e+002
2.526305e+002, 4.823852e+002
2.531126e+002, 4.826635e+002
2.535947e+002, 4.827483e+002
2.540768e+002, 4.821736e+002
2.545590e+002, 4.819833e+002
2.550411e+002, 4.824319e+002
2.555232e+002, 4.832181e+002
2.560053e+002, 4.840767e+002
2.564874e+002, 4.848905e+002
2.569695e+002, 4.856064e+002
2.574517e+002, 4.860943e+002
2.579338e+002, 4.859667e+002
2.584159e+002, 4.860705e+002
2.588980e+002, 4.864950e+002
2.593801e+002, 4.871155e+002
2.598622e+002, 4.879558e+002
2.603444e+002, 4.890059e+002
2.608265e+002, 4.899248e+002
2.613086e+002, 4.900365e+002
2.617907e+002, 4.883661e+002
2.622728e+002, 4.874124e+002
2.627549e+002, 4.875238e+002
2.632371e+002, 4.882060e+002
2.637192e+002, 4.890931e+002
2.642013e+002, 4.900693e+002
2.646834e+002, 4.910016e+002
2.651655e+002, 4.917039e+002
2.656476e+002, 4.921574e+002
2.661298e+002, 4.923410e+002
2.666119e+002, 4.918330e+002
2.670940e+002, 4.912900e+002
2.675761e+002, 4.913308e+002
2.680582e+002, 4.920759e+002
2.685403e+002, 4.932391e+002
2.690225e+002, 4.945336e+002
2.695046e+002, 4.959991e+002
2.699867e+002, 4.974508e+002
2.704688e+002, 4.996266e+002
2.709509e+002, 5.013249e+002
2.714330e+002, 5.011876e+002
2.719152e+002, 4.991373e+002
2.723973e+002, 4.966203e+002
2.728794e+002, 4.949172e+002
2.733615e+002, 4.941208e+002
2.738436e+002, 4.935677e+002
2.743257e+002, 4.932626e+002
2.748079e+002, 4.931803e+002
2.752900e+002, 4.934962e+002
2.757721e+002, 4.941642e+002
2.762542e+002, 4.945832e+002
2.767363e+002, 4.941886e+002
2.772184e+002, 4.930735e+002
2.777006e+002, 4.923221e+002
2.781827e+002, 4.921778e+002
2.786648e+002, 4.922097e+002
2.791469e+002, 4.921991e+002
2.796290e+002, 4.921301e+002
2.801111e+002, 4.918947e+002
2.805933e+002, 4.912556e+002
2.810754e+002, 4.904730e+002
2.815575e+002, 4.903802e+002
2.820396e+002, 4.918147e+002
2.825217e+002, 4.929278e+002
2.830038e+002, 4.922433e+002
2.834860e+002, 4.900881e+002
2.839681e+002, 4.881728e+002
2.844502e+002, 4.872949e+002
2.849323e+002, 4.871284e+002
2.854144e+002, 4.869026e+002
2.858965e+002, 4.866048e+002
2.863787e+002, 4.862847e+002
2.868608e+002, 4.857791e+002
2.873429e+002, 4.852281e+002
2.878250e+002, 4.852106e+002
2.883071e+002, 4.861271e+002
2.887892e+002, 4.873781e+002
2.892714e+002, 4.880949e+002
2.897535e+002, 4.882466e+002
2.902356e+002, 4.882474e+002
2.907177e+002, 4.882908e+002
2.911998e+002, 4.883290e+002
2.916819e+002, 4.881767e+002
2.921641e+002, 4.876696e+002
2.926462e+002, 4.872096e+002
2.931283e+002, 4.873258e+002
2.936104e+002, 4.879444e+002
2.940925e+002, 4.885228e+002
2.945746e+002, 4.886706e+002
2.950568e+002, 4.886611e+002
2.955389e+002, 4.891057e+002
2.960210e+002, 4.901930e+002
2.965031e+002, 4.913830e+002
2.969852e+002, 4.921656e+002
2.974673e+002, 4.926734e+002
2.979495e+002, 4.932625e+002
2.984316e+002, 4.940724e+002
2.989137e+002, 4.950174e+002
2.993958e+002, 4.959870e+002
2.998779e+002, 4.969869e+002
3.003600e+002, 4.979707e+002
3.008422e+002, 4.987821e+002
3.013243e+002, 4.995742e+002
3.018064e+002, 5.005887e+002
3.022885e+002, 5.016847e+002
3.027706e+002, 5.032273e+002
3.032527e+002, 5.060394e+002
3.037349e+002, 5.102645e+002
3.042170e+002, 5.138453e+002
3.046991e+002, 5.152197e+002
3.051812e+002, 5.156466e+002
3.056633e+002, 5.167786e+002
3.061454e+002, 5.188429e+002
3.066276e+002, 5.215536e+002
3.071097e+002, 5.247635e+002
3.075918e+002, 5.284536e+002
3.080739e+002, 5.324539e+002
3.085560e+002, 5.368492e+002
3.090381e+002, 5.413831e+002
3.095203e+002, 5.458459e+002
3.100024e+002, 5.502789e+002
3.104845e+002, 5.543365e+002
3.109666e+002, 5.570926e+002
3.114487e+002, 5.590222e+002
3.119308e+002, 5.627787e+002
3.124130e+002, 5.700420e+002
3.128951e+002, 5.775208e+002
3.133772e+002, 5.819213e+002
3.138593e+002, 5.836600e+002
3.143414e+002, 5.852038e+002
3.148235e+002, 5.880901e+002
3.153057e+002, 5.916799e+002
3.157878e+002, 5.944396e+002
3.162699e+002, 5.962956e+002
3.167520e+002, 5.971321e+002
3.172341e+002, 5.966658e+002
3.177162e+002, 5.951747e+002
3.181984e+002, 5.930648e+002
3.186805e+002, 5.898923e+002
3.191626e+002, 5.864613e+002
3.196447e+002, 5.842386e+002
3.201268e+002, 5.834854e+002
3.206089e+002, 5.826473e+002
3.210911e+002, 5.805392e+002
3.215732e+002, 5.778746e+002
3.220553e+002, 5.756879e+002
3.225374e+002, 5.744277e+002
3.230195e+002, 5.732871e+002
3.235016e+002, 5.715036e+002
3.239838e+002, 5.690657e+002
3.244659e+002, 5.662150e+002
3.249480e+002, 5.629047e+002
3.254301e+002, 5.592955e+002
3.259122e+002, 5.555999e+002
3.263943e+002, 5.517670e+002
3.268765e+002, 5.480023e+002
3.273586e+002, 5.445980e+002
3.278407e+002, 5.414360e+002
3.283228e+002, 5.378544e+002
3.288049e+002, 5.333802e+002
3.292870e+002, 5.288997e+002
3.297692e+002, 5.254333e+002
3.302513e+002, 5.228990e+002
3.307334e+002, 5.203427e+002
3.312155e+002, 5.170842e+002
3.316976e+002, 5.135047e+002
3.321797e+002, 5.105435e+002
3.326619e+002, 5.084189e+002
3.331440e+002, 5.065760e+002
3.336261e+002, 5.044476e+002
3.341082e+002, 5.022304e+002
3.345903e+002, 5.004531e+002
3.350724e+002, 4.993279e+002
3.355546e+002, 4.987159e+002
3.360367e+002, 4.986882e+002
3.365188e+002, 4.993304e+002
3.370009e+002, 4.996206e+002
3.374830e+002, 4.986246e+002
3.379651e+002, 4.969843e+002
3.384473e+002, 4.959261e+002
3.389294e+002, 4.957655e+002
3.394115e+002, 4.959203e+002
3.398936e+002, 4.960740e+002
3.403757e+002, 4.962024e+002
3.408578e+002, 4.960136e+002
3.413400e+002, 4.950109e+002
3.418221e+002, 4.940663e+002
3.423042e+002, 4.946346e+002
3.427863e+002, 4.970139e+002
3.432684e+002, 4.991591e+002
3.437505e+002, 4.998486e+002
3.442327e+002, 4.995720e+002
3.447148e+002, 4.994767e+002
3.451969e+002, 4.997969e+002
3.456790e+002, 5.003596e+002
3.461611e+002, 5.008649e+002
3.466432e+002, 5.013434e+002
3.471254e+002, 5.023728e+002
3.476075e+002, 5.042120e+002
3.480896e+002, 5.066292e+002
3.485717e+002, 5.097061e+002
3.490538e+002, 5.135126e+002
3.495359e+002, 5.166010e+002
3.500181e+002, 5.174935e+002
3.505002e+002, 5.166955e+002
3.509823e+002, 5.167353e+002
3.514644e+002, 5.182443e+002
3.519465e+002, 5.202021e+002
3.524286e+002, 5.220593e+002
3.529108e+002, 5.238120e+002
3.533929e+002, 5.254595e+002
3.538750e+002, 5.269288e+002
3.543571e+002, 5.283548e+002
3.548392e+002, 5.301428e+002
3.553214e+002, 5.326134e+002
3.558035e+002, 5.346928e+002
3.562856e+002, 5.361818e+002
3.567677e+002, 5.369814e+002
3.572498e+002, 5.368142e+002
3.577319e+002, 5.355409e+002
3.582141e+002, 5.335965e+002
3.586962e+002, 5.313788e+002
3.591783e+002, 5.287721e+002
3.596604e+002, 5.266324e+002
3.601425e+002, 5.253474e+002
3.606246e+002, 5.243845e+002
3.611068e+002, 5.234333e+002
3.615889e+002, 5.224025e+002
3.620710e+002, 5.209772e+002
3.625531e+002, 5.187893e+002
3.630352e+002, 5.158447e+002
3.635173e+002, 5.133107e+002
3.639995e+002, 5.108176e+002
3.644816e+002, 5.090311e+002
3.649637e+002, 5.087028e+002
3.654458e+002, 5.093708e+002
3.659279e+002, 5.098341e+002
3.664100e+002, 5.094280e+002
3.668922e+002, 5.084865e+002
3.673743e+002, 5.081132e+002
3.678564e+002, 5.086405e+002
3.683385e+002, 5.092154e+002
3.688206e+002, 5.097102e+002
3.693027e+002, 5.102045e+002
3.697849e+002, 5.107695e+002
3.702670e+002, 5.114260e+002
3.707491e+002, 5.121961e+002
3.712312e+002, 5.131276e+002
3.717133e+002, 5.142983e+002
3.721954e+002, 5.153782e+002
3.726776e+002, 5.160599e+002
3.731597e+002, 5.169055e+002
3.736418e+002, 5.184071e+002
3.741239e+002, 5.204529e+002
3.746060e+002, 5.225457e+002
3.750881e+002, 5.243530e+002
3.755703e+002, 5.258615e+002
3.760524e+002, 5.268491e+002
3.765345e+002, 5.270916e+002
3.770166e+002, 5.270975e+002
3.774987e+002, 5.272012e+002
3.779808e+002, 5.270800e+002
3.784630e+002, 5.261919e+002
3.789451e+002, 5.242838e+002
3.794272e+002, 5.216952e+002
3.799093e+002, 5.192400e+002
3.803914e+002, 5.171493e+002
3.808735e+002, 5.147693e+002
3.813557e+002, 5.117770e+002
3.818378e+002, 5.087297e+002
3.823199e+002, 5.059230e+002
3.828020e+002, 5.034447e+002
3.832841e+002, 5.013610e+002
3.837662e+002, 4.998340e+002
3.842484e+002, 4.989669e+002
3.847305e+002, 4.978825e+002
3.852126e+002, 4.962895e+002
3.856947e+002, 4.947403e+002
3.861768e+002, 4.932215e+002
3.866589e+002, 4.918910e+002
3.871411e+002, 4.911011e+002
3.876232e+002, 4.911884e+002
3.881053e+002, 4.917677e+002
3.885874e+002, 4.913475e+002
3.890695e+002, 4.891312e+002
3.895516e+002, 4.874203e+002
3.900338e+002, 4.869053e+002
3.905159e+002, 4.869610e+002
3.909980e+002, 4.870911e+002
3.914801e+002, 4.871535e+002
3.919622e+002, 4.871838e+002
3.924443e+002, 4.871784e+002
3.929265e+002, 4.871148e+002
3.934086e+002, 4.872516e+002
3.938907e+002, 4.877489e+002
3.943728e+002, 4.883521e+002
3.948549e+002, 4.891436e+002
3.953370e+002, 4.899742e+002
3.958192e+002, 4.903289e+002
3.963013e+002, 4.895159e+002
3.967834e+002, 4.879830e+002
3.972655e+002, 4.872957e+002
3.977476e+002, 4.877458e+002
3.982297e+002, 4.882906e+002
3.987119e+002, 4.879562e+002
3.991940e+002, 4.875116e+002
3.996761e+002, 4.881124e+002
4.001582e+002, 4.903787e+002
4.006403e+002, 4.930211e+002
4.011224e+002, 4.945960e+002
4.016046e+002, 4.951891e+002
4.020867e+002, 4.961125e+002
4.025688e+002, 4.979038e+002
4.030509e+002, 5.000363e+002
4.035330e+002, 5.018241e+002
4.040151e+002, 5.032554e+002
4.044973e+002, 5.048161e+002
4.049794e+002, 5.067231e+002
4.054615e+002, 5.088961e+002
4.059436e+002, 5.111789e+002
4.064257e+002, 5.135261e+002
4.069078e+002, 5.161064e+002
4.073900e+002, 5.191913e+002
4.078721e+002, 5.226521e+002
4.083542e+002, 5.258429e+002
4.088363e+002, 5.283386e+002
4.093184e+002, 5.308881e+002
4.098005e+002, 5.342699e+002
4.102827e+002, 5.381683e+002
4.107648e+002, 5.413283e+002
4.112469e+002, 5.430476e+002
4.117290e+002, 5.440142e+002
4.122111e+002, 5.458762e+002
4.126932e+002, 5.492060e+002
4.131754e+002, 5.518676e+002
4.136575e+002, 5.536039e+002
4.141396e+002, 5.544351e+002
4.146217e+002, 5.543593e+002
4.151038e+002, 5.533810e+002
4.155859e+002, 5.515417e+002
4.160681e+002, 5.488226e+002
4.165502e+002, 5.451557e+002
