##NAMES=Penfieldite
##RRUFFID=R050163
##IDEAL CHEMISTRY=Pb^2+^_2_Cl_3_(OH)
##LOCALITY=Margarita mine, Sierra Gorda, Antofagasta, Chile
##OWNER=RRUFF
##SOURCE=Jim McGlasson
##DESCRIPTION=Colorless pyramidal crystals, associated with blue pseudobol√©ite, R050162
##STATUS=The identification of this mineral has been confirmed by single-crystal X-ray diffraction.
##URL=rruff.info/R050163
93.46680, 963.4186
93.94891, 946.9996
94.43103, 949.4885
94.91315, 964.0876
95.39526, 978.5231
95.87738, 990.5788
96.35950, 1001.880
96.84161, 1011.638
97.32373, 1019.960
97.80585, 1027.197
98.28796, 1034.371
98.77008, 1041.860
99.25220, 1049.690
99.73431, 1057.735
100.2164, 1065.874
100.6985, 1072.315
101.1807, 1079.619
101.6628, 1088.207
102.1449, 1098.180
102.6270, 1109.667
103.1091, 1122.265
103.5912, 1133.842
104.0734, 1143.426
104.5555, 1152.906
105.0376, 1162.660
105.5197, 1172.542
106.0018, 1182.028
106.4839, 1190.539
106.9661, 1197.807
107.4482, 1206.410
107.9303, 1216.985
108.4124, 1227.742
108.8945, 1237.730
109.3766, 1246.787
109.8588, 1255.263
110.3409, 1263.435
110.8230, 1271.276
111.3051, 1278.833
111.7872, 1286.363
112.2693, 1293.529
112.7515, 1300.054
113.2336, 1306.089
113.7157, 1310.752
114.1978, 1312.656
114.6799, 1311.849
115.1620, 1310.972
115.6442, 1311.723
116.1263, 1314.034
116.6084, 1316.340
117.0905, 1317.928
117.5726, 1319.630
118.0547, 1322.423
118.5369, 1326.474
119.0190, 1330.373
119.5011, 1332.096
119.9832, 1330.879
120.4653, 1329.064
120.9474, 1327.886
121.4296, 1325.969
121.9117, 1321.740
122.3938, 1314.499
122.8759, 1305.336
123.3580, 1297.767
123.8401, 1295.101
124.3223, 1290.561
124.8044, 1282.061
125.2865, 1271.448
125.7686, 1261.547
126.2507, 1254.021
126.7328, 1248.748
127.2150, 1243.833
127.6971, 1239.259
128.1792, 1234.939
128.6613, 1231.118
129.1434, 1227.652
129.6255, 1223.951
130.1077, 1219.709
130.5898, 1214.751
131.0719, 1208.675
131.5540, 1202.203
132.0361, 1194.189
132.5182, 1183.319
133.0004, 1169.357
133.4825, 1153.203
133.9646, 1135.080
134.4467, 1115.293
134.9288, 1094.400
135.4109, 1072.167
135.8931, 1048.964
136.3752, 1025.613
136.8573, 1001.712
137.3394, 978.3376
137.8215, 955.8518
138.3036, 934.2785
138.7858, 913.8399
139.2679, 894.6331
139.7500, 876.6891
140.2321, 859.7737
140.7142, 843.4485
141.1963, 828.5555
141.6785, 815.6645
142.1606, 804.7389
142.6427, 795.0964
143.1248, 786.0176
143.6069, 777.7927
144.0890, 769.4802
144.5712, 760.4780
145.0533, 751.8127
145.5354, 744.3875
146.0175, 738.4156
146.4996, 732.9949
146.9817, 726.5103
147.4639, 718.0891
147.9460, 709.9209
148.4281, 701.6852
148.9102, 693.8320
149.3923, 687.0575
149.8744, 681.7185
150.3566, 677.2475
150.8387, 672.2131
151.3208, 666.2119
151.8029, 660.6537
152.2850, 656.2394
152.7671, 652.7218
153.2493, 649.3997
153.7314, 646.0384
154.2135, 642.6658
154.6956, 639.3502
155.1777, 636.1746
155.6598, 632.8907
156.1420, 629.0656
156.6241, 624.6556
157.1062, 620.7811
157.5883, 618.2141
158.0704, 616.3430
158.5525, 614.7606
159.0347, 613.4217
159.5168, 612.1940
159.9989, 610.7394
160.4810, 608.7032
160.9631, 607.3810
161.4452, 607.1774
161.9274, 607.7225
162.4095, 609.0047
162.8916, 611.1741
163.3737, 613.5728
163.8558, 613.9699
164.3379, 610.7626
164.8201, 607.4738
165.3022, 605.0839
165.7843, 602.9069
166.2664, 600.0745
166.7485, 596.0525
167.2306, 590.9230
167.7128, 585.1669
168.1949, 578.4383
168.6770, 571.4548
169.1591, 564.1693
169.6412, 556.7205
170.1233, 549.2750
170.6055, 541.9400
171.0876, 534.6790
171.5697, 527.9289
172.0518, 521.8670
172.5339, 516.0284
173.0160, 510.0592
173.4982, 504.0591
173.9803, 498.4914
174.4624, 493.8180
174.9445, 490.0698
175.4266, 486.2236
175.9087, 481.7490
176.3909, 477.5049
176.8730, 474.3710
177.3551, 472.4150
177.8372, 470.7173
178.3193, 468.5455
178.8014, 466.0520
179.2836, 463.7528
179.7657, 461.8192
180.2478, 460.1136
180.7299, 458.4604
181.2120, 456.9140
181.6941, 455.2622
182.1763, 453.1723
182.6584, 450.8800
183.1405, 448.8560
183.6226, 447.4074
184.1047, 446.3935
184.5868, 445.3639
185.0690, 444.3868
185.5511, 443.2725
186.0332, 441.8358
186.5153, 440.2228
186.9974, 438.7150
187.4795, 437.5907
187.9617, 436.8013
188.4438, 435.6788
188.9259, 433.9596
189.4080, 432.1381
189.8901, 430.3314
190.3722, 428.5499
190.8544, 426.7861
191.3365, 425.0662
191.8186, 423.3996
192.3007, 421.5617
192.7828, 419.6609
193.2649, 417.4879
193.7471, 414.8827
194.2292, 411.9265
194.7113, 408.7982
195.1934, 405.6528
195.6755, 402.4317
196.1576, 399.5138
196.6398, 397.2847
197.1219, 394.9465
197.6040, 391.8921
198.0861, 388.2492
198.5682, 384.7184
199.0503, 382.0576
199.5325, 380.4877
200.0146, 378.5149
200.4967, 376.1583
200.9788, 373.4301
201.4609, 370.2506
201.9430, 366.6314
202.4252, 362.8038
202.9073, 358.9359
203.3894, 355.0179
203.8715, 351.1391
204.3536, 347.6971
204.8357, 344.0732
205.3179, 339.5829
205.8000, 334.0973
206.2821, 328.2517
206.7642, 322.4202
207.2463, 316.6334
207.7284, 311.2802
208.2106, 306.6852
208.6927, 302.4786
209.1748, 298.2052
209.6569, 293.8234
210.1390, 289.3115
210.6211, 284.4634
211.1033, 279.4338
211.5854, 274.6434
212.0675, 270.3231
212.5496, 266.3251
213.0317, 262.2492
213.5138, 257.9673
213.9960, 253.9042
214.4781, 250.2428
214.9602, 246.9585
215.4423, 244.0562
215.9244, 241.7624
216.4065, 239.8782
216.8886, 237.6431
217.3708, 234.7742
217.8529, 231.9642
218.3350, 229.3770
218.8171, 227.0686
219.2992, 225.1443
219.7813, 223.7588
220.2635, 222.8300
220.7456, 221.8132
221.2277, 220.5855
221.7098, 219.4254
222.1919, 218.4614
222.6740, 217.6243
223.1562, 216.7905
223.6383, 215.8892
224.1204, 214.9213
224.6025, 213.8872
225.0846, 212.7328
225.5667, 211.5717
226.0489, 210.6396
226.5310, 209.7038
227.0131, 208.3305
227.4952, 206.1551
227.9773, 203.2560
228.4594, 200.6866
228.9416, 199.0138
229.4237, 197.1106
229.9058, 194.7233
230.3879, 191.9149
230.8700, 188.8268
231.3521, 185.5100
231.8343, 181.9849
232.3164, 178.7063
232.7985, 175.9345
233.2806, 173.1092
233.7627, 170.0608
234.2448, 166.8404
234.7270, 163.5336
235.2091, 160.1733
235.6912, 156.7851
236.1733, 153.6389
236.6554, 150.7213
237.1375, 147.9805
237.6197, 145.4042
238.1018, 142.9978
238.5839, 140.7693
239.0660, 138.7496
239.5481, 136.8988
240.0302, 134.9804
240.5124, 132.9059
240.9945, 130.8815
241.4766, 128.9324
241.9587, 127.0880
242.4408, 125.4507
242.9229, 124.1045
243.4051, 122.9771
243.8872, 121.7951
244.3693, 120.4708
244.8514, 119.2224
245.3335, 118.1404
245.8156, 117.2142
246.2978, 116.4245
246.7799, 115.7879
247.2620, 115.2640
247.7441, 114.7374
248.2262, 114.1730
248.7083, 113.6828
249.1905, 113.4610
249.6726, 113.3969
250.1547, 113.0257
250.6368, 111.9958
251.1189, 110.7895
251.6010, 110.1708
252.0832, 110.2155
252.5653, 110.3979
253.0474, 110.3999
253.5295, 110.2821
254.0116, 110.3262
254.4937, 110.6591
254.9759, 111.1338
255.4580, 111.5331
255.9401, 111.8497
256.4222, 112.2696
256.9043, 112.9729
257.3864, 113.9025
257.8686, 114.7406
258.3507, 115.3101
258.8328, 115.9312
259.3149, 116.9073
259.7970, 118.2017
260.2791, 119.5074
260.7613, 120.5594
261.2434, 121.4231
261.7255, 122.4840
262.2076, 123.7902
262.6897, 125.3148
263.1718, 127.0613
263.6540, 128.9893
264.1361, 130.9605
264.6182, 132.8902
265.1003, 134.7825
265.5824, 136.7191
266.0645, 138.7227
266.5467, 140.7271
267.0288, 142.6172
267.5109, 144.4802
267.9930, 146.5051
268.4751, 148.9077
268.9572, 151.5655
269.4394, 153.9051
269.9215, 155.6555
270.4036, 157.4973
270.8857, 159.7699
271.3678, 162.2807
271.8499, 164.7323
272.3321, 166.9584
272.8142, 169.0188
273.2963, 171.0945
273.7784, 173.2379
274.2605, 175.2807
274.7426, 177.1489
275.2248, 178.9203
275.7069, 180.6325
276.1890, 182.2915
276.6711, 183.9756
277.1532, 185.9180
277.6353, 188.3969
278.1175, 190.6147
278.5996, 192.5764
279.0817, 194.1859
279.5638, 195.2207
280.0459, 195.6026
280.5280, 195.7296
281.0102, 196.4524
281.4923, 198.2698
281.9744, 199.6158
282.4565, 200.1689
282.9386, 200.3620
283.4207, 200.5711
283.9029, 200.8751
284.3850, 200.9964
284.8671, 200.4223
285.3492, 198.7277
285.8313, 197.3852
286.3134, 196.8521
286.7956, 196.3313
287.2777, 195.3425
287.7598, 193.8302
288.2419, 192.0324
288.7240, 190.1757
289.2061, 188.2196
289.6883, 186.4006
290.1704, 184.7366
290.6525, 183.1842
291.1346, 181.8026
291.6167, 180.5361
292.0988, 179.2295
292.5810, 177.7101
293.0631, 175.9434
293.5452, 174.3636
294.0273, 173.2176
294.5094, 172.0076
294.9915, 170.3423
295.4737, 168.4688
295.9558, 166.9691
296.4379, 166.3201
296.9200, 166.4482
297.4021, 166.1999
297.8842, 165.2114
298.3664, 164.2115
298.8485, 163.2247
299.3306, 162.3422
299.8127, 161.7143
300.2948, 161.4387
300.7769, 161.4266
301.2591, 161.3242
301.7412, 161.2747
302.2233, 160.9309
302.7054, 159.9525
303.1875, 158.7926
303.6696, 158.0250
304.1518, 157.8756
304.6339, 157.9882
305.1160, 157.5842
305.5981, 156.3738
306.0802, 155.0182
306.5623, 153.3893
307.0445, 151.7231
307.5266, 150.2458
308.0087, 148.9978
308.4908, 147.7971
308.9729, 146.4076
309.4550, 144.8920
309.9372, 142.9771
310.4193, 140.2883
310.9014, 137.5557
311.3835, 135.2666
311.8656, 133.4195
312.3477, 131.6997
312.8299, 129.8132
313.3120, 127.7251
313.7941, 125.5924
314.2762, 123.3059
314.7583, 121.0765
315.2404, 118.9277
315.7226, 116.8955
316.2047, 115.0602
316.6868, 113.5158
317.1689, 112.2326
317.6510, 110.7454
318.1331, 108.7740
318.6153, 106.8968
319.0974, 105.2375
319.5795, 103.7551
320.0616, 102.3860
320.5437, 101.0996
321.0258, 99.88493
321.5080, 98.69414
321.9901, 97.69437
322.4722, 96.50988
322.9543, 94.80013
323.4364, 93.05568
323.9185, 91.83409
324.4007, 91.30906
324.8828, 91.09341
325.3649, 90.51497
325.8470, 89.32760
326.3291, 88.22484
326.8112, 87.30849
327.2934, 86.38487
327.7755, 85.25136
328.2576, 83.92313
328.7397, 82.62627
329.2218, 81.62823
329.7039, 81.02271
330.1861, 80.25094
330.6682, 79.13551
331.1503, 78.04431
331.6324, 77.21045
332.1145, 76.54276
332.5966, 75.77818
333.0788, 74.69815
333.5609, 73.32761
334.0430, 72.09950
334.5251, 71.13871
335.0072, 70.18240
335.4893, 69.13503
335.9715, 68.07496
336.4536, 67.13451
336.9357, 66.39028
337.4178, 65.76643
337.8999, 65.05240
338.3820, 64.13240
338.8642, 63.28997
339.3463, 62.58546
339.8284, 61.93615
340.3105, 61.30276
340.7926, 60.66015
341.2747, 59.96294
341.7568, 59.11771
342.2390, 58.02201
342.7211, 57.04082
343.2032, 56.30874
343.6853, 55.56982
344.1674, 54.59234
344.6495, 53.43465
345.1317, 52.39257
345.6138, 51.79158
346.0959, 51.67096
346.5780, 51.32796
347.0601, 50.44693
347.5422, 49.64057
348.0244, 49.03724
348.5065, 48.63121
348.9886, 48.45657
349.4707, 48.60285
349.9528, 48.87653
350.4349, 48.44363
350.9171, 46.69642
351.3992, 45.15495
351.8813, 44.13080
352.3634, 43.41430
352.8455, 42.83734
353.3276, 42.33600
353.8098, 41.87623
354.2919, 41.40615
354.7740, 40.92212
355.2561, 40.43880
355.7382, 39.91793
356.2203, 39.42756
356.7025, 39.01079
357.1846, 38.67037
357.6667, 38.38346
358.1488, 38.16613
358.6309, 38.02686
359.1130, 37.76003
359.5952, 37.23980
360.0773, 36.72684
360.5594, 36.38047
361.0415, 36.12164
361.5236, 35.77000
362.0057, 35.16536
362.4879, 34.43377
362.9700, 33.97949
363.4521, 33.93357
363.9342, 33.88457
364.4163, 33.69625
364.8984, 33.42825
365.3806, 33.13655
365.8627, 32.83673
366.3448, 32.51462
366.8269, 32.10493
367.3090, 31.57959
367.7911, 31.22022
368.2733, 31.26157
368.7554, 31.35531
369.2375, 31.23739
369.7196, 30.90495
370.2017, 30.53659
370.6838, 30.25044
371.1660, 30.03509
371.6481, 29.84869
372.1302, 29.71512
372.6123, 29.56005
373.0944, 29.30003
373.5765, 28.98301
374.0587, 28.71283
374.5408, 28.53329
375.0229, 28.41988
375.5050, 28.37830
375.9871, 28.42779
376.4692, 28.37880
376.9514, 28.04792
377.4335, 27.60550
377.9156, 27.30758
378.3977, 27.21310
378.8798, 27.16504
379.3619, 27.08239
379.8441, 26.95915
380.3262, 26.74833
380.8083, 26.38497
381.2904, 26.01615
381.7725, 25.84599
382.2546, 25.86504
382.7368, 25.88330
383.2189, 25.85624
383.7010, 25.78671
384.1831, 25.67177
384.6652, 25.50939
385.1473, 25.32527
385.6295, 25.11674
386.1116, 24.89932
386.5937, 24.74935
387.0758, 24.73608
387.5579, 24.73072
388.0400, 24.65089
388.5222, 24.51295
389.0043, 24.37837
389.4864, 24.28267
389.9685, 24.19651
390.4506, 24.03038
390.9327, 23.71081
391.4149, 23.48456
391.8970, 23.50537
392.3791, 23.60042
392.8612, 23.52968
393.3433, 23.24785
393.8254, 22.94478
394.3076, 22.85400
394.7897, 23.03920
395.2718, 23.08937
395.7539, 22.89163
396.2360, 22.67425
396.7181, 22.59847
397.2003, 22.61658
397.6824, 22.55356
398.1645, 22.28231
398.6466, 21.86714
399.1287, 21.62904
399.6108, 21.76123
400.0930, 21.84277
400.5751, 21.81896
401.0572, 21.72975
401.5393, 21.58728
402.0214, 21.40632
402.5035, 21.25784
402.9857, 21.26200
403.4678, 21.50298
403.9499, 21.65345
404.4320, 21.63287
404.9141, 21.60869
405.3962, 21.72311
405.8784, 21.91526
406.3605, 21.99010
406.8426, 21.77669
407.3247, 21.32807
407.8068, 21.03855
408.2889, 21.01427
408.7711, 21.00768
409.2532, 20.94710
409.7353, 20.88038
410.2174, 20.87187
410.6995, 20.94417
411.1816, 21.03763
411.6638, 21.06932
412.1459, 21.03384
412.6280, 20.96348
413.1101, 20.79769
413.5922, 20.65379
414.0743, 20.60280
414.5565, 20.63613
415.0386, 20.69984
415.5207, 20.78586
416.0028, 20.87460
416.4849, 20.88074
416.9670, 20.76703
417.4492, 20.66415
417.9313, 20.65399
418.4134, 20.69099
418.8955, 20.71730
419.3776, 20.70963
419.8597, 20.71096
420.3419, 20.76435
420.8240, 20.86643
421.3061, 20.98986
421.7882, 21.13892
422.2703, 21.28983
422.7524, 21.43075
423.2346, 21.56456
423.7167, 21.62974
424.1988, 21.52629
424.6809, 21.37698
425.1630, 21.36859
425.6451, 21.51954
426.1273, 21.68064
426.6094, 21.73843
427.0915, 21.71318
427.5736, 21.73377
428.0557, 21.79588
428.5378, 21.90600
429.0200, 22.11710
429.5021, 22.37384
429.9842, 22.55195
430.4663, 22.60286
430.9484, 22.59318
431.4305, 22.63161
431.9127, 22.74426
432.3948, 22.84568
432.8769, 22.92010
433.3590, 22.99429
433.8411, 23.10972
434.3232, 23.25043
434.8054, 23.34530
435.2875, 23.33149
435.7696, 23.22280
436.2517, 23.16499
436.7338, 23.27252
437.2159, 23.29570
437.6981, 23.12049
438.1802, 22.87667
438.6623, 22.72811
439.1444, 22.72282
439.6265, 22.75045
440.1086, 22.63226
440.5908, 22.30825
441.0729, 22.03603
441.5550, 21.82002
442.0371, 21.65137
442.5192, 21.56873
443.0013, 21.53409
443.4835, 21.45472
443.9656, 21.25313
444.4477, 20.98241
444.9298, 20.83109
445.4119, 20.85939
445.8940, 20.85187
446.3762, 20.67977
446.8583, 20.47387
447.3404, 20.36556
447.8225, 20.38197
448.3046, 20.39219
448.7867, 20.26104
449.2689, 20.01745
449.7510, 19.82645
450.2331, 19.73832
450.7152, 19.64708
451.1973, 19.43115
451.6794, 19.14186
452.1616, 18.91537
452.6437, 18.86639
453.1258, 18.83278
453.6079, 18.61776
454.0900, 18.25483
454.5721, 17.97097
455.0543, 17.87635
455.5364, 17.89606
456.0185, 17.88692
456.5006, 17.84725
456.9827, 17.79648
457.4648, 17.75053
457.9470, 17.68922
458.4291, 17.56928
458.9112, 17.39501
459.3933, 17.24590
459.8754, 17.19831
460.3575, 17.24748
460.8397, 17.21631
461.3218, 16.98828
461.8039, 16.82991
462.2860, 16.78400
462.7681, 16.85813
463.2502, 17.14757
463.7324, 17.66510
464.2145, 18.14990
464.6966, 18.14634
465.1787, 17.41988
465.6608, 16.91344
466.1429, 16.70052
466.6251, 16.62171
467.1072, 16.67942
467.5893, 16.81356
468.0714, 16.91975
468.5535, 16.93636
469.0356, 16.87660
469.5178, 16.76560
469.9999, 16.56830
470.4820, 16.41216
470.9641, 16.35787
471.4462, 16.33825
471.9283, 16.30931
472.4105, 16.26491
472.8926, 16.21786
473.3747, 16.17295
473.8568, 16.13266
474.3389, 16.11086
474.8210, 16.11575
475.3032, 16.11793
475.7853, 16.11368
476.2674, 16.09008
476.7495, 16.00955
477.2316, 15.80995
477.7137, 15.63952
478.1959, 15.66087
478.6780, 15.79739
479.1601, 15.79429
479.6422, 15.54486
480.1243, 15.26167
480.6064, 15.24949
481.0886, 15.56477
481.5707, 15.77129
482.0528, 15.77717
482.5349, 15.72717
483.0170, 15.71401
483.4991, 15.72703
483.9813, 15.70387
484.4634, 15.60372
484.9455, 15.46757
485.4276, 15.41901
485.9097, 15.55701
486.3918, 15.64043
486.8740, 15.67886
487.3561, 15.65547
487.8382, 15.50286
488.3203, 15.25644
488.8024, 15.06737
489.2845, 15.08116
489.7667, 15.27186
490.2488, 15.36963
490.7309, 15.31120
491.2130, 15.26140
491.6951, 15.29841
492.1772, 15.34865
492.6594, 15.31716
493.1415, 15.17994
493.6236, 15.04508
494.1057, 15.04806
494.5878, 15.16761
495.0699, 15.21719
495.5521, 15.15570
496.0342, 15.06378
496.5163, 14.99894
496.9984, 14.94887
497.4805, 14.88521
497.9626, 14.78169
498.4448, 14.68471
498.9269, 14.62652
499.4090, 14.60590
499.8911, 14.63143
500.3732, 14.71933
500.8553, 14.81347
501.3375, 14.82997
501.8196, 14.75409
502.3017, 14.67339
502.7838, 14.58109
503.2659, 14.49572
503.7480, 14.42371
504.2302, 14.36880
504.7123, 14.34140
505.1944, 14.34987
505.6765, 14.37948
506.1586, 14.38505
506.6407, 14.33129
507.1228, 14.31169
507.6049, 14.36077
508.0871, 14.41616
508.5692, 14.42942
509.0513, 14.40495
509.5334, 14.38277
510.0155, 14.39659
510.4977, 14.43718
510.9798, 14.45954
511.4619, 14.46120
511.9440, 14.45005
512.4261, 14.40205
512.9083, 14.35814
513.3904, 14.37814
513.8725, 14.47172
514.3546, 14.52531
514.8367, 14.41197
515.3188, 14.19600
515.8010, 14.05779
516.2831, 14.01820
516.7652, 14.03546
517.2473, 14.11875
517.7294, 14.23312
518.2115, 14.26642
518.6937, 14.17277
519.1758, 14.06009
519.6579, 13.91626
520.1400, 13.80263
520.6221, 13.86728
521.1042, 14.13970
521.5864, 14.41400
522.0685, 14.45660
522.5506, 14.23836
523.0327, 14.09467
523.5148, 14.03951
523.9969, 14.02816
524.4791, 14.08014
524.9612, 14.15574
525.4433, 14.19963
525.9254, 14.19287
526.4075, 14.16666
526.8896, 14.17315
527.3718, 14.22525
527.8539, 14.24196
528.3360, 14.20169
528.8181, 14.14628
529.3002, 14.04235
529.7823, 13.94455
530.2645, 13.96868
530.7466, 14.19898
531.2287, 14.46997
531.7108, 14.56107
532.1929, 14.48270
532.6750, 14.39704
533.1572, 14.35395
533.6393, 14.29513
534.1214, 14.10050
534.6035, 13.80292
535.0856, 13.64138
535.5677, 13.77128
536.0499, 13.96089
536.5320, 14.04702
537.0141, 14.04792
537.4962, 14.03289
537.9783, 14.02912
538.4604, 14.03359
538.9426, 14.04161
539.4247, 14.05615
539.9068, 14.06664
540.3889, 14.06039
540.8710, 14.06222
541.3531, 14.10043
541.8353, 14.15637
542.3174, 14.18789
542.7995, 14.17132
543.2816, 14.12245
543.7637, 14.06933
544.2458, 13.99912
544.7280, 13.96705
545.2101, 14.01157
545.6922, 14.07044
546.1743, 14.12711
546.6564, 14.17187
547.1385, 14.17844
547.6207, 14.11676
548.1028, 14.02533
548.5849, 13.94438
549.0670, 13.87543
549.5491, 13.87534
550.0313, 13.99106
550.5134, 14.14747
550.9955, 14.22376
551.4776, 14.21707
551.9597, 14.23223
552.4418, 14.33299
552.9240, 14.42620
553.4061, 14.42647
553.8882, 14.35328
554.3703, 14.27437
554.8524, 14.22153
555.3345, 14.19713
555.8167, 14.21064
556.2988, 14.30469
556.7809, 14.35156
557.2630, 14.31493
557.7451, 14.27124
558.2272, 14.25561
558.7094, 14.26822
559.1915, 14.30581
559.6736, 14.37581
560.1557, 14.44288
560.6378, 14.40469
561.1199, 14.23042
561.6021, 14.15524
562.0842, 14.30050
562.5663, 14.48759
563.0484, 14.57224
563.5305, 14.56709
564.0126, 14.54580
564.4948, 14.53074
564.9769, 14.51554
565.4590, 14.49981
565.9411, 14.48018
566.4232, 14.42575
566.9053, 14.30965
567.3875, 14.20695
567.8696, 14.24230
568.3517, 14.47065
568.8338, 14.66251
569.3159, 14.86181
569.7980, 14.98121
570.2802, 14.92258
570.7623, 14.75713
571.2444, 14.61154
571.7265, 14.54433
572.2086, 14.55162
572.6907, 14.65079
573.1729, 14.88765
573.6550, 15.03327
574.1371, 15.01496
574.6192, 14.96582
575.1013, 14.90241
575.5834, 14.85868
576.0656, 14.91393
576.5477, 15.14145
577.0298, 15.37464
577.5119, 15.40392
577.9940, 15.26718
578.4761, 15.16092
578.9583, 15.12749
579.4404, 15.13293
579.9225, 15.12697
580.4046, 15.11992
580.8867, 15.23133
581.3688, 15.68897
581.8510, 16.01856
582.3331, 15.88495
582.8152, 15.54009
583.2973, 15.36403
583.7794, 15.46121
584.2615, 15.67954
584.7437, 15.84677
585.2258, 15.95922
585.7079, 16.08742
586.1900, 16.29542
586.6721, 16.43650
587.1542, 16.41339
587.6363, 16.33977
588.1184, 16.34471
588.6005, 16.45712
589.0826, 16.60109
589.5648, 16.71831
590.0469, 16.81182
590.5290, 16.88932
