##NAMES=Penikisite
##RRUFFID=R060160
##IDEAL CHEMISTRY=BaMg_2_Al_2_(PO_4_)_3_(OH)_3_
##LOCALITY=16 miles north of the Hess River, Mayo Mining District, Yukon Territory, Canada
##OWNER=RRUFF
##SOURCE=Mark Mauthner
##DESCRIPTION=Aggregate of green crystals in quartz associated with purple gorceixite, R060158. Crystal used in the Bowman et al (2013) study.
##STATUS=The identification of this mineral is confirmed by single-crystal X-ray diffraction and chemical analysis.
##URL=rruff.info/R060160
##MEASURED CHEMISTRY=Ba_1.00_(Mg_1.97_Mn_0.03_)_Î£=2_Al_2.00_(P_1.00_O_4_)_3_(OH)_3_
90.26367, 13.15995
90.74579, 13.22214
91.22791, 13.22796
91.71002, 13.17764
92.19214, 13.06909
92.67426, 12.70236
93.15637, 12.24903
93.63850, 12.20045
94.12061, 13.12020
94.60273, 14.44847
95.08485, 14.63447
95.56696, 13.52658
96.04908, 12.28988
96.53120, 12.67370
97.01331, 14.57095
97.49543, 15.94850
97.97755, 15.56955
98.45966, 13.55891
98.94178, 12.22029
99.42390, 11.66290
99.90602, 11.64706
100.3881, 11.77996
100.8703, 12.11123
101.3524, 12.41798
101.8345, 12.55734
102.3166, 12.46247
102.7987, 12.50953
103.2808, 12.83780
103.7630, 13.32338
104.2451, 13.36950
104.7272, 12.73140
105.2093, 11.97765
105.6914, 11.41125
106.1735, 10.77023
106.6557, 10.78469
107.1378, 11.66734
107.6199, 13.45000
108.1020, 15.36142
108.5841, 18.54358
109.0662, 21.26310
109.5484, 22.00775
110.0305, 18.31256
110.5126, 15.09993
110.9947, 13.32263
111.4768, 13.26079
111.9590, 13.31433
112.4411, 13.39507
112.9232, 13.50146
113.4053, 13.62902
113.8874, 13.71719
114.3695, 13.87528
114.8517, 14.16896
115.3338, 14.67633
115.8159, 15.13655
116.2980, 15.28901
116.7801, 15.33616
117.2622, 15.71277
117.7444, 16.76980
118.2265, 18.10035
118.7086, 19.43371
119.1907, 20.70402
119.6728, 22.00478
120.1549, 23.26628
120.6371, 24.55756
121.1192, 26.16581
121.6013, 28.35677
122.0834, 30.90458
122.5655, 33.53531
123.0477, 35.95558
123.5298, 38.61024
124.0119, 42.08192
124.4940, 46.31923
124.9761, 50.61463
125.4582, 54.34314
125.9404, 57.70069
126.4225, 61.03881
126.9046, 64.71420
127.3867, 68.38649
127.8688, 71.43236
128.3509, 73.81231
128.8331, 75.95003
129.3152, 78.00687
129.7973, 80.10513
130.2794, 82.78968
130.7615, 86.65228
131.2436, 91.35338
131.7258, 95.65739
132.2079, 99.45936
132.6900, 103.0367
133.1721, 106.8589
133.6542, 110.9134
134.1364, 114.8752
134.6185, 118.4414
135.1006, 121.6577
135.5827, 125.2374
136.0648, 129.1885
136.5469, 133.6091
137.0291, 138.8052
137.5112, 144.8186
137.9933, 151.3058
138.4754, 158.2845
138.9575, 165.8119
139.4396, 173.0680
139.9218, 179.7645
140.4039, 186.0880
140.8860, 192.8031
141.3681, 199.8244
141.8502, 207.3218
142.3323, 215.3491
142.8145, 224.3461
143.2966, 233.1833
143.7787, 242.5722
144.2608, 252.4983
144.7429, 257.6352
145.2251, 257.9172
145.7072, 253.4969
146.1893, 244.0960
146.6714, 226.1667
147.1535, 208.5389
147.6356, 192.4590
148.1178, 177.7744
148.5999, 165.9645
149.0820, 157.5818
149.5641, 151.9032
150.0462, 148.2045
150.5283, 147.6423
151.0105, 147.9501
151.4926, 147.3444
151.9747, 146.9149
152.4568, 147.1254
152.9389, 148.7154
153.4210, 150.7606
153.9032, 151.9872
154.3853, 151.5726
154.8674, 150.9490
155.3495, 150.4710
155.8316, 149.9299
156.3138, 150.0497
156.7959, 151.1454
157.2780, 152.9388
157.7601, 154.9064
158.2422, 156.7868
158.7243, 158.9288
159.2065, 161.5666
159.6886, 165.0502
160.1707, 168.4579
160.6528, 171.9026
161.1349, 175.1293
161.6170, 177.4477
162.0992, 178.8109
162.5813, 179.0933
163.0634, 178.1596
163.5455, 175.4836
164.0276, 172.2939
164.5097, 168.7571
164.9919, 165.0369
165.4740, 161.7819
165.9561, 159.4448
166.4382, 157.6528
166.9203, 156.0229
167.4025, 154.1207
167.8846, 152.6830
168.3667, 152.3636
168.8488, 153.0249
169.3309, 153.7934
169.8130, 154.3586
170.2952, 154.6682
170.7773, 154.6500
171.2594, 154.1741
171.7415, 153.4469
172.2236, 152.6824
172.7057, 151.8661
173.1879, 150.7812
173.6700, 148.9945
174.1521, 146.8564
174.6342, 144.9555
175.1163, 143.4939
175.5984, 142.3643
176.0806, 141.4762
176.5627, 140.8220
177.0448, 140.3798
177.5269, 139.9866
178.0090, 139.7774
178.4911, 140.0690
178.9733, 141.3968
179.4554, 143.1789
179.9375, 144.3728
180.4196, 144.8900
180.9017, 145.4827
181.3839, 147.3621
181.8660, 150.0961
182.3481, 152.2085
182.8302, 152.9220
183.3123, 152.5378
183.7944, 151.6299
184.2766, 150.1618
184.7587, 148.4372
185.2408, 146.6392
185.7229, 144.8257
186.2050, 143.2463
186.6871, 142.1882
187.1693, 141.4902
187.6514, 140.5384
188.1335, 139.1937
188.6156, 137.9180
189.0977, 137.4295
189.5798, 137.6992
190.0620, 138.1456
190.5441, 138.4301
191.0262, 138.6070
191.5083, 139.0640
191.9904, 139.8685
192.4725, 140.8613
192.9547, 141.7517
193.4368, 142.5412
193.9189, 143.4369
194.4010, 144.6204
194.8831, 146.0699
195.3652, 147.3993
195.8474, 148.5369
196.3295, 149.6217
196.8116, 150.8677
197.2937, 152.2542
197.7758, 153.9309
198.2579, 155.9220
198.7401, 158.2221
199.2222, 161.0605
199.7043, 164.5175
200.1864, 168.3857
200.6685, 172.3719
201.1507, 176.5482
201.6328, 180.3936
202.1149, 183.5010
202.5970, 185.8001
203.0791, 188.0556
203.5612, 190.2320
204.0434, 192.4490
204.5255, 195.0234
205.0076, 197.9957
205.4897, 201.1860
205.9718, 204.4285
206.4539, 207.6584
206.9361, 211.3858
207.4182, 215.8455
207.9003, 220.7383
208.3824, 225.4242
208.8645, 230.1795
209.3466, 234.0439
209.8288, 236.3223
210.3109, 236.7198
210.7930, 236.8560
211.2751, 236.9635
211.7572, 236.8887
212.2393, 235.8489
212.7215, 233.3483
213.2036, 230.9912
213.6857, 229.6010
214.1678, 228.9688
214.6499, 230.1207
215.1321, 233.6186
215.6142, 238.9451
216.0963, 243.8009
216.5784, 248.0587
217.0605, 252.0536
217.5426, 256.2195
218.0248, 261.1059
218.5069, 264.5582
218.9890, 266.9218
219.4711, 267.7195
219.9532, 264.5394
220.4353, 256.2675
220.9175, 245.8350
221.3996, 234.5508
221.8817, 221.6649
222.3638, 210.1412
222.8459, 200.4480
223.3280, 192.3166
223.8102, 185.1294
224.2923, 178.8437
224.7744, 173.3609
225.2565, 168.7153
225.7386, 165.1133
226.2208, 161.8677
226.7029, 158.9874
227.1850, 156.4262
227.6671, 154.0870
228.1492, 151.9668
228.6313, 150.0710
229.1135, 148.3937
229.5956, 146.8571
230.0777, 145.6911
230.5598, 144.9807
231.0419, 144.6612
231.5240, 144.3782
232.0062, 144.0297
232.4883, 143.8586
232.9704, 144.0825
233.4525, 145.0637
233.9346, 145.6037
234.4167, 145.2948
234.8989, 144.4350
235.3810, 144.4674
235.8631, 145.8144
236.3452, 147.5000
236.8273, 148.9965
237.3095, 150.2297
237.7916, 151.4279
238.2737, 152.6483
238.7558, 153.8479
239.2379, 154.8672
239.7200, 155.6488
240.2022, 156.3251
240.6843, 156.9285
241.1664, 157.2678
241.6485, 157.9821
242.1306, 159.3144
242.6127, 161.0470
243.0949, 162.2297
243.5770, 162.3511
244.0591, 162.6426
244.5412, 163.8238
245.0233, 166.5535
245.5054, 168.6872
245.9876, 169.8512
246.4697, 170.4129
246.9518, 171.5982
247.4339, 173.7032
247.9160, 175.9983
248.3981, 178.0722
248.8803, 179.6653
249.3624, 181.6939
249.8445, 184.2821
250.3266, 187.2843
250.8087, 190.3288
251.2909, 193.3824
251.7730, 196.4826
252.2551, 199.6451
252.7372, 203.0247
253.2193, 206.1696
253.7014, 209.2629
254.1836, 212.0176
254.6657, 213.8561
255.1478, 215.1371
255.6299, 214.8663
256.1120, 212.4254
256.5941, 207.1902
257.0763, 201.7385
257.5584, 195.7353
258.0405, 189.6687
258.5226, 184.6611
259.0047, 181.0276
259.4868, 177.7106
259.9690, 174.2356
260.4511, 170.3745
260.9332, 167.4425
261.4153, 165.6102
261.8974, 164.5205
262.3795, 163.6887
262.8617, 163.2857
263.3438, 162.6977
263.8259, 161.5400
264.3080, 159.6294
264.7901, 158.5353
265.2722, 158.4202
265.7544, 158.9227
266.2365, 159.6312
266.7186, 160.6794
267.2007, 161.5085
267.6829, 161.8480
268.1650, 161.6591
268.6471, 161.7497
269.1292, 162.1540
269.6113, 162.7856
270.0934, 163.5775
270.5756, 164.5871
271.0577, 165.5634
271.5398, 166.4028
272.0219, 167.1202
272.5040, 168.0007
272.9861, 169.0738
273.4683, 170.2213
273.9504, 171.3105
274.4325, 172.3080
274.9146, 173.4295
275.3967, 174.8562
275.8788, 176.4983
276.3610, 177.4324
276.8431, 177.4767
277.3252, 177.3411
277.8073, 177.8023
278.2894, 178.9471
278.7715, 179.6927
279.2537, 179.7776
279.7358, 179.3168
280.2179, 178.6817
280.7000, 177.7973
281.1821, 177.0779
281.6642, 176.9074
282.1464, 177.2887
282.6285, 177.7554
283.1106, 178.2805
283.5927, 178.8033
284.0748, 179.1220
284.5569, 179.2154
285.0391, 179.2906
285.5212, 179.3542
286.0033, 179.4416
286.4854, 180.0612
286.9675, 181.4016
287.4496, 183.1050
287.9318, 184.4487
288.4139, 185.4369
288.8960, 186.3865
289.3781, 187.5830
289.8602, 188.9503
290.3424, 190.0862
290.8245, 190.9309
291.3066, 191.6109
291.7887, 192.3715
292.2708, 193.1889
292.7530, 193.7873
293.2351, 194.0270
293.7172, 193.9313
294.1993, 193.5146
294.6814, 192.7458
295.1635, 191.8067
295.6457, 190.9811
296.1278, 190.2073
296.6099, 189.2272
297.0920, 187.7313
297.5741, 186.0014
298.0562, 184.6078
298.5384, 183.5792
299.0205, 182.7635
299.5026, 181.9248
299.9847, 181.1782
300.4668, 180.8150
300.9489, 181.2885
301.4311, 182.0460
301.9132, 182.2007
302.3953, 181.7811
302.8774, 181.4265
303.3595, 181.5221
303.8416, 182.0523
304.3238, 183.0471
304.8059, 184.9270
305.2880, 186.8504
305.7701, 187.6652
306.2522, 187.5687
306.7343, 187.7155
307.2165, 189.0411
307.6986, 190.9997
308.1807, 192.8879
308.6628, 194.4381
309.1449, 196.0705
309.6270, 198.2970
310.1092, 200.9451
310.5913, 203.3940
311.0734, 205.2471
311.5555, 206.7880
312.0376, 208.2521
312.5197, 209.7332
313.0019, 211.0029
313.4840, 211.7837
313.9661, 212.2810
314.4482, 212.9223
314.9304, 213.8119
315.4125, 214.9607
315.8946, 216.4793
316.3767, 218.4958
316.8588, 220.3285
317.3409, 221.3559
317.8231, 222.1404
318.3052, 223.4171
318.7873, 225.7250
319.2694, 228.3136
319.7515, 230.8064
320.2336, 233.1492
320.7158, 235.9190
321.1979, 239.4968
321.6800, 243.4465
322.1621, 247.3618
322.6442, 251.3047
323.1263, 255.0562
323.6085, 258.5206
324.0906, 261.7104
324.5727, 264.8510
325.0548, 268.3798
325.5369, 271.5802
326.0190, 274.0096
326.5012, 276.0463
326.9833, 276.8384
327.4654, 275.9775
327.9475, 273.7253
328.4296, 271.1356
328.9117, 268.1187
329.3939, 264.8447
329.8760, 261.3391
330.3581, 257.4566
330.8402, 253.5623
331.3223, 249.3418
331.8044, 245.1663
332.2866, 241.7749
332.7687, 239.2900
333.2508, 237.4631
333.7329, 236.3895
334.2150, 236.3451
334.6971, 235.6602
335.1793, 234.1055
335.6614, 232.1241
336.1435, 230.2647
336.6256, 228.4773
337.1077, 226.9378
337.5899, 225.8501
338.0720, 225.1635
338.5541, 224.0349
339.0362, 222.3856
339.5183, 220.4705
340.0005, 218.3938
340.4826, 216.0441
340.9647, 214.2421
341.4468, 213.2460
341.9289, 212.8296
342.4110, 212.1599
342.8932, 211.1634
343.3753, 210.4137
343.8574, 210.4400
344.3395, 211.1867
344.8216, 211.8078
345.3037, 212.1711
345.7859, 212.4606
346.2680, 213.1044
346.7501, 214.0728
347.2322, 214.8357
347.7143, 214.7654
348.1964, 214.2456
348.6786, 214.7366
349.1607, 216.4569
349.6428, 218.2380
350.1249, 218.8031
350.6070, 218.3647
351.0891, 217.5842
351.5713, 216.6883
352.0534, 215.6389
352.5355, 214.3049
353.0176, 212.7114
353.4997, 211.0465
353.9818, 209.5078
354.4640, 207.9954
354.9461, 206.3159
355.4282, 204.3254
355.9103, 202.2882
356.3924, 200.2850
356.8745, 198.3784
357.3567, 196.8572
357.8388, 196.1508
358.3209, 195.7362
358.8030, 195.0929
359.2851, 193.9683
359.7672, 193.0654
360.2494, 193.0051
360.7315, 193.4095
361.2136, 193.5823
361.6957, 192.9180
362.1779, 192.2369
362.6600, 191.9576
363.1421, 192.1485
363.6242, 192.4628
364.1063, 192.8416
364.5884, 193.2739
365.0706, 193.7451
365.5527, 194.3729
366.0348, 194.9082
366.5169, 195.2128
366.9990, 195.3068
367.4811, 195.5536
367.9633, 196.3470
368.4454, 197.0553
368.9275, 197.3032
369.4096, 196.4884
369.8917, 196.0470
370.3738, 196.2327
370.8560, 196.7998
371.3381, 197.0645
371.8202, 196.9462
372.3023, 196.6389
372.7844, 196.2094
373.2665, 195.6594
373.7487, 194.9615
374.2308, 193.9694
374.7129, 192.9786
375.1950, 192.3845
375.6771, 192.2549
376.1592, 192.3161
376.6414, 192.5402
377.1235, 192.9105
377.6056, 193.2867
378.0877, 193.7047
378.5698, 194.0275
379.0519, 194.1064
379.5341, 193.9404
380.0162, 193.7308
380.4983, 193.4437
380.9804, 193.2142
381.4625, 193.5182
381.9446, 194.3443
382.4268, 194.9704
382.9089, 194.6581
383.3910, 193.7689
383.8731, 193.5748
384.3553, 194.2729
384.8374, 195.1884
385.3195, 195.4774
385.8016, 195.3244
386.2837, 195.2807
386.7658, 195.6019
387.2480, 196.1590
387.7301, 196.9081
388.2122, 197.8311
388.6943, 198.6145
389.1764, 198.7306
389.6585, 198.6625
390.1407, 199.0714
390.6228, 200.5376
391.1049, 201.9537
391.5870, 202.3646
392.0691, 202.0841
392.5512, 202.0581
393.0334, 202.9636
393.5155, 204.0931
393.9976, 204.9780
394.4797, 205.4700
394.9618, 206.0082
395.4439, 206.8698
395.9261, 207.8200
396.4082, 208.5436
396.8903, 208.4313
397.3724, 208.6351
397.8545, 209.6868
398.3366, 211.6400
398.8188, 213.1863
399.3009, 213.8151
399.7830, 214.2903
400.2651, 215.1011
400.7472, 216.6236
401.2293, 217.9164
401.7115, 218.8766
402.1936, 219.5867
402.6757, 220.2980
403.1578, 221.0424
403.6399, 221.7334
404.1220, 222.3326
404.6042, 222.8426
405.0863, 223.2336
405.5684, 223.4381
406.0505, 223.6232
406.5326, 224.1018
407.0147, 224.9533
407.4969, 225.4837
407.9790, 225.4000
408.4611, 224.8828
408.9432, 224.6434
409.4254, 224.6970
409.9075, 224.9053
410.3896, 225.0779
410.8717, 225.2901
411.3538, 225.9370
411.8359, 227.1610
412.3181, 228.6049
412.8002, 229.7432
413.2823, 230.6386
413.7644, 231.6283
414.2465, 232.9099
414.7286, 234.3702
415.2108, 235.9514
415.6929, 237.6418
416.1750, 239.2378
416.6571, 240.3691
417.1392, 241.3590
417.6213, 242.6994
418.1035, 244.8816
418.5856, 247.0875
419.0677, 248.6728
419.5498, 249.8354
420.0319, 251.2523
420.5140, 253.4316
420.9962, 255.8056
421.4783, 258.0496
421.9604, 260.0930
422.4425, 262.0594
422.9246, 264.3202
423.4067, 266.4017
423.8889, 267.6808
424.3710, 267.5572
424.8531, 267.1494
425.3352, 266.6229
425.8173, 265.9795
426.2994, 265.3715
426.7816, 265.1064
427.2637, 264.5684
427.7458, 263.2717
428.2279, 260.7155
428.7100, 258.5561
429.1921, 256.8843
429.6743, 255.6865
430.1564, 255.1313
430.6385, 255.4119
431.1206, 255.5826
431.6028, 255.1262
432.0849, 254.0827
432.5670, 253.4781
433.0491, 253.3265
433.5312, 253.5576
434.0133, 254.1635
434.4955, 255.1162
434.9776, 256.2029
435.4597, 257.3062
435.9418, 258.5998
436.4239, 260.4522
436.9060, 262.7937
437.3882, 265.2786
437.8703, 267.5768
438.3524, 269.9163
438.8345, 272.5760
439.3166, 275.5654
439.7987, 278.9988
440.2809, 283.2716
440.7630, 288.0060
441.2451, 292.5685
441.7272, 296.5033
442.2093, 300.3756
442.6914, 304.5758
443.1736, 309.0298
443.6557, 313.2313
444.1378, 316.4893
444.6199, 319.8002
445.1020, 323.8444
445.5841, 329.3004
446.0663, 334.3372
446.5484, 338.4148
447.0305, 341.9938
447.5126, 345.8543
447.9947, 349.9901
448.4768, 354.3860
448.9590, 359.2069
449.4411, 364.4483
449.9232, 369.1534
450.4053, 373.0504
450.8874, 376.8596
451.3695, 381.0976
451.8517, 385.9015
452.3338, 390.7078
452.8159, 395.6612
453.2980, 400.2924
453.7801, 403.5874
454.2622, 405.4574
454.7444, 406.8828
455.2265, 408.3452
455.7086, 409.7245
456.1907, 410.4934
456.6729, 410.6640
457.1550, 410.1761
457.6371, 409.1261
458.1192, 407.3848
458.6013, 404.5428
459.0834, 400.3635
459.5656, 395.3535
460.0477, 389.6250
460.5298, 383.4245
461.0119, 377.7820
461.4940, 373.2553
461.9761, 369.3330
462.4583, 365.5802
462.9404, 361.9057
463.4225, 358.7125
463.9046, 356.4555
464.3867, 354.6196
464.8688, 352.7721
465.3510, 351.2895
465.8331, 349.2328
466.3152, 346.3095
466.7973, 342.6523
467.2794, 338.7514
467.7615, 334.6245
468.2437, 330.2182
468.7258, 325.4629
469.2079, 320.3758
469.6900, 315.0701
470.1721, 309.2174
470.6542, 303.5493
471.1364, 298.8914
471.6185, 295.4341
472.1006, 292.2539
472.5827, 289.2627
473.0648, 286.3993
473.5469, 283.3687
474.0291, 280.1289
474.5112, 277.2233
474.9933, 274.9734
475.4754, 273.3226
475.9575, 272.1413
476.4396, 271.4758
476.9218, 270.8854
477.4039, 269.7603
477.8860, 268.3565
478.3681, 267.2931
478.8503, 266.8753
479.3324, 266.7391
479.8145, 266.5419
480.2966, 266.3204
480.7787, 266.2203
481.2608, 266.1354
481.7430, 266.3156
482.2251, 267.0520
482.7072, 268.4904
483.1893, 269.7977
483.6714, 270.5672
484.1535, 271.1189
484.6357, 271.7777
485.1178, 272.5839
485.5999, 273.5266
486.0820, 274.7306
486.5641, 276.0957
487.0462, 277.2675
487.5284, 278.1048
488.0105, 278.9534
488.4926, 280.0453
488.9747, 281.4907
489.4568, 282.3446
489.9389, 282.3656
490.4211, 282.2183
490.9032, 282.6059
491.3853, 283.5424
491.8674, 284.8340
492.3495, 286.6452
492.8316, 288.5298
493.3138, 289.3941
493.7959, 289.3120
494.2780, 289.0753
494.7601, 289.0199
495.2422, 289.1548
495.7243, 289.5251
496.2065, 290.1413
496.6886, 290.8807
497.1707, 291.9078
497.6528, 292.9291
498.1349, 293.5314
498.6170, 293.4277
499.0992, 293.1386
499.5813, 293.1432
500.0634, 293.1859
500.5455, 292.6448
501.0276, 291.0837
501.5097, 289.1153
501.9919, 286.9029
502.4740, 284.4399
502.9561, 281.9570
503.4382, 279.3865
503.9203, 276.8358
504.4025, 274.3364
504.8846, 271.7796
505.3667, 269.5658
505.8488, 267.7779
506.3309, 266.3282
506.8130, 264.9704
507.2952, 263.6276
507.7773, 262.7442
508.2594, 262.5921
508.7415, 263.0625
509.2236, 263.6892
509.7057, 264.5118
510.1879, 265.0031
510.6700, 264.2838
511.1521, 262.8653
511.6342, 262.3596
512.1163, 263.1781
512.5984, 264.3745
513.0806, 264.9046
513.5627, 265.0734
514.0448, 265.5182
514.5269, 266.7565
515.0090, 268.1667
515.4911, 269.4868
515.9733, 270.6744
516.4554, 271.4755
516.9375, 271.2511
517.4196, 271.0132
517.9017, 271.3988
518.3839, 272.7505
518.8660, 274.0633
519.3481, 275.3440
519.8302, 276.4756
520.3123, 277.3003
520.7944, 277.7264
521.2766, 278.0053
521.7587, 278.0350
522.2408, 277.9675
522.7229, 278.5883
523.2050, 280.2090
523.6871, 281.3879
524.1693, 281.1195
524.6514, 279.5511
525.1335, 278.5201
525.6156, 278.0811
526.0977, 277.8144
526.5798, 277.1021
527.0620, 276.1923
527.5441, 275.9579
528.0262, 276.9481
528.5083, 277.9612
528.9904, 277.4772
529.4725, 275.9835
529.9547, 274.6688
530.4368, 274.4146
530.9189, 274.2955
531.4010, 273.5565
531.8831, 272.1838
532.3652, 271.2511
532.8474, 271.6219
533.3295, 272.1721
533.8116, 272.1461
534.2937, 270.7438
534.7758, 270.0112
535.2579, 270.4259
535.7401, 271.3258
536.2222, 271.7340
536.7043, 271.4430
537.1865, 271.1647
537.6686, 271.0119
538.1507, 270.9985
538.6328, 271.1870
539.1149, 271.5884
539.5970, 272.1577
540.0792, 272.8967
540.5613, 273.7897
541.0434, 274.7289
541.5255, 275.7126
542.0076, 276.7055
542.4897, 277.5988
542.9719, 278.4899
543.4540, 279.6027
543.9361, 281.0575
544.4182, 282.6100
544.9003, 283.8454
545.3824, 285.0162
545.8646, 286.6877
546.3467, 289.5526
546.8288, 292.5476
547.3109, 295.2455
547.7930, 297.5961
548.2751, 299.6821
548.7573, 301.1324
549.2394, 302.6187
549.7215, 304.5292
550.2036, 307.1653
550.6857, 309.5170
551.1678, 311.3756
551.6500, 313.1789
552.1321, 315.4395
552.6142, 318.1526
553.0963, 321.4677
553.5784, 325.5728
554.0605, 330.1752
554.5427, 334.5685
555.0248, 338.7578
555.5069, 342.8228
555.9890, 346.5870
556.4711, 350.2928
556.9532, 354.5316
557.4354, 359.3188
557.9175, 363.8111
558.3996, 367.2145
558.8817, 370.0043
559.3638, 372.7652
559.8459, 375.9663
560.3281, 378.4057
560.8102, 380.0070
561.2923, 380.4354
561.7744, 379.1366
562.2565, 374.4684
562.7386, 369.7399
563.2208, 365.3986
563.7029, 361.5051
564.1850, 358.2439
564.6671, 355.8616
565.1492, 353.7308
565.6313, 351.3990
566.1135, 348.7973
566.5956, 347.1918
567.0777, 346.6379
567.5598, 346.9259
568.0419, 348.1931
568.5240, 350.2216
569.0062, 351.8979
569.4883, 352.8517
569.9704, 353.7030
570.4525, 355.3264
570.9346, 357.4836
571.4167, 359.4799
571.8989, 360.8996
572.3810, 362.1738
572.8631, 363.8898
573.3452, 365.8774
573.8273, 367.0996
574.3094, 366.7900
574.7916, 365.8906
575.2737, 364.8785
575.7558, 363.8184
576.2379, 362.5784
576.7200, 361.2423
577.2021, 359.6741
577.6843, 357.6605
578.1664, 354.9779
578.6485, 352.5291
579.1306, 350.3354
579.6127, 348.4629
580.0948, 346.9092
580.5770, 345.6754
581.0591, 345.0545
581.5412, 345.3783
582.0233, 346.2808
582.5054, 346.9197
