##NAMES=Penikisite
##RRUFFID=R060270
##IDEAL CHEMISTRY=BaMg_2_Al_2_(PO_4_)_3_(OH)_3_
##LOCALITY=16 miles north of Hess River, Yukon Territory, Canada
##OWNER=RRUFF
##SOURCE=Michael Scott
##DESCRIPTION=Pale bluish green massive associated with quartz
##STATUS=The identification of this mineral is confirmed by single-crystal X-ray diffraction and chemical analysis.
##URL=rruff.info/R060270
##MEASURED CHEMISTRY=Ba_1.00_(Mg_1.90_Mn_0.05_Sr_0.02_[box]_0.02_Ca_0.01_)_Σ=2_(Al_1.97_Ti_0.03_)_Σ=2_(P_1.00_O_4_)_3_(OH)_3_ ; H not measured but estimated by difference and charge balance
90.01007, 0.0000000E+00
90.49219, 25.49421
90.97430, 28.02376
91.45642, 28.92415
91.93854, 26.91290
92.42065, 23.64242
92.90277, 21.61518
93.38489, 21.12532
93.86700, 21.16777
94.34912, 20.53229
94.83124, 19.32933
95.31335, 18.20892
95.79547, 17.60086
96.27759, 17.41842
96.75970, 17.18410
97.24182, 16.64036
97.72394, 16.25410
98.20605, 17.52833
98.68817, 20.71336
99.17029, 23.55355
99.65240, 23.64923
100.1345, 20.72590
100.6166, 19.26214
101.0988, 20.60549
101.5809, 24.32855
102.0630, 26.93735
102.5451, 28.46815
103.0272, 28.86504
103.5093, 27.66218
103.9915, 23.89766
104.4736, 21.10069
104.9557, 20.73512
105.4378, 23.60296
105.9199, 24.29782
106.4020, 21.79770
106.8842, 17.63334
107.3663, 14.24751
107.8484, 10.62609
108.3305, 9.008803
108.8126, 10.47714
109.2947, 18.22704
109.7769, 23.75051
110.2590, 26.29992
110.7411, 26.50028
111.2232, 26.22739
111.7053, 24.02521
112.1874, 22.39890
112.6696, 22.49364
113.1517, 27.61444
113.6338, 31.01985
114.1159, 30.70829
114.5980, 27.26898
115.0801, 24.93878
115.5623, 26.57897
116.0444, 28.81597
116.5265, 29.04196
117.0086, 23.25608
117.4907, 18.25504
117.9728, 17.39675
118.4550, 20.90045
118.9371, 23.79690
119.4192, 23.46914
119.9013, 21.35204
120.3834, 19.27571
120.8655, 16.81603
121.3477, 15.40163
121.8298, 16.64517
122.3119, 21.14424
122.7940, 25.60461
123.2761, 27.65701
123.7582, 27.91699
124.2404, 27.75557
124.7225, 27.59683
125.2046, 27.52879
125.6867, 27.72582
126.1688, 28.32465
126.6509, 28.91889
127.1331, 28.86739
127.6152, 28.31876
128.0973, 28.01159
128.5794, 27.68885
129.0615, 27.96067
129.5436, 30.72651
130.0258, 37.80786
130.5079, 46.02848
130.9900, 49.06767
131.4721, 46.90387
131.9542, 44.24116
132.4363, 44.99153
132.9185, 48.84572
133.4006, 53.71346
133.8827, 59.27618
134.3648, 65.35715
134.8469, 71.56805
135.3290, 77.79471
135.8112, 84.68599
136.2933, 93.08961
136.7754, 103.1201
137.2575, 113.3485
137.7396, 122.6320
138.2217, 130.9234
138.7039, 143.2441
139.1860, 160.6741
139.6681, 180.4788
140.1502, 199.0303
140.6323, 215.9689
141.1144, 232.2548
141.5966, 248.4680
142.0787, 264.8636
142.5608, 279.5244
143.0429, 291.9303
143.5250, 302.8715
144.0071, 313.7726
144.4893, 323.6391
144.9714, 334.9342
145.4535, 348.9960
145.9356, 368.5442
146.4177, 385.8051
146.8998, 401.2468
147.3820, 414.4678
147.8641, 424.1319
148.3462, 426.6663
148.8283, 428.8836
149.3104, 434.4410
149.7925, 445.0063
150.2747, 456.7504
150.7568, 469.7542
151.2389, 483.9000
151.7210, 497.8053
152.2031, 510.5312
152.6852, 523.4392
153.1674, 537.5215
153.6495, 554.3779
154.1316, 570.6564
154.6137, 586.7275
155.0958, 602.6271
155.5779, 615.2117
156.0601, 619.9594
156.5422, 623.1234
157.0243, 629.9980
157.5064, 645.6115
157.9885, 661.2315
158.4706, 674.0897
158.9528, 683.6852
159.4349, 693.7108
159.9170, 705.2828
160.3991, 717.7341
160.8812, 730.2938
161.3633, 741.5792
161.8455, 753.8561
162.3276, 768.6784
162.8097, 786.5648
163.2918, 804.1052
163.7739, 819.4608
164.2560, 832.6264
164.7382, 839.7822
165.2203, 846.9875
165.7024, 853.7344
166.1845, 858.5722
166.6666, 861.2083
167.1487, 862.5494
167.6309, 861.5954
168.1130, 859.6924
168.5951, 859.7087
169.0772, 863.6705
169.5593, 869.6768
170.0414, 876.5731
170.5236, 885.0745
171.0057, 892.3290
171.4878, 895.4339
171.9699, 895.4889
172.4520, 895.7540
172.9341, 898.7579
173.4163, 902.7446
173.8984, 905.5657
174.3805, 906.3358
174.8626, 906.5258
175.3447, 907.4138
175.8268, 908.9145
176.3090, 910.6912
176.7911, 911.4771
177.2732, 912.5236
177.7553, 916.2072
178.2374, 924.7596
178.7195, 934.3489
179.2017, 939.8757
179.6838, 941.6900
180.1659, 942.5178
180.6480, 942.7661
181.1301, 943.5734
181.6122, 947.9059
182.0944, 958.3849
182.5765, 971.4969
183.0586, 982.3949
183.5407, 990.9166
184.0228, 996.5873
184.5049, 997.1750
184.9871, 994.0126
185.4692, 991.9246
185.9513, 993.1984
186.4334, 996.2292
186.9155, 997.0070
187.3976, 995.3749
187.8798, 993.3020
188.3619, 992.9207
188.8440, 993.9837
189.3261, 994.9267
189.8082, 995.1248
190.2903, 994.8027
190.7725, 994.8865
191.2546, 995.4719
191.7367, 995.9619
192.2188, 994.9410
192.7009, 992.5530
193.1830, 991.8913
193.6652, 994.9607
194.1473, 1001.042
194.6294, 1005.266
195.1115, 1007.291
195.5936, 1008.607
196.0757, 1010.780
196.5579, 1013.783
197.0400, 1018.210
197.5221, 1025.354
198.0042, 1034.865
198.4863, 1041.432
198.9684, 1044.516
199.4506, 1045.793
199.9327, 1046.895
200.4148, 1047.558
200.8969, 1050.325
201.3790, 1057.227
201.8611, 1068.432
202.3433, 1077.594
202.8254, 1084.284
203.3075, 1089.619
203.7896, 1095.354
204.2717, 1101.596
204.7538, 1107.730
205.2360, 1113.702
205.7181, 1119.611
206.2002, 1123.789
206.6823, 1124.965
207.1644, 1125.909
207.6465, 1132.431
208.1287, 1145.828
208.6108, 1159.990
209.0929, 1171.867
209.5750, 1180.716
210.0571, 1192.237
210.5392, 1208.319
211.0214, 1225.544
211.5035, 1236.839
211.9856, 1241.414
212.4677, 1242.150
212.9498, 1239.676
213.4319, 1233.225
213.9140, 1226.958
214.3962, 1220.964
214.8783, 1215.102
215.3604, 1208.535
215.8425, 1199.597
216.3246, 1193.488
216.8067, 1192.601
217.2889, 1197.600
217.7710, 1205.816
218.2531, 1218.850
218.7352, 1234.177
219.2173, 1245.660
219.6994, 1251.368
220.1816, 1256.956
220.6637, 1266.429
221.1458, 1284.328
221.6279, 1292.893
222.1100, 1290.373
222.5921, 1279.119
223.0743, 1264.898
223.5564, 1248.085
224.0385, 1227.860
224.5206, 1203.167
225.0027, 1169.829
225.4848, 1142.432
225.9670, 1122.121
226.4491, 1107.793
226.9312, 1096.742
227.4133, 1090.463
227.8954, 1085.141
228.3775, 1079.130
228.8597, 1071.774
229.3418, 1064.912
229.8239, 1057.986
230.3060, 1051.642
230.7881, 1048.220
231.2702, 1049.534
231.7524, 1050.885
232.2345, 1049.885
232.7166, 1044.687
233.1987, 1041.398
233.6808, 1040.551
234.1629, 1041.491
234.6451, 1042.631
235.1272, 1044.482
235.6093, 1045.807
236.0914, 1045.996
236.5735, 1044.513
237.0556, 1043.222
237.5378, 1042.287
238.0199, 1041.545
238.5020, 1040.347
238.9841, 1037.508
239.4662, 1035.985
239.9483, 1037.391
240.4305, 1043.685
240.9126, 1048.198
241.3947, 1050.227
241.8768, 1050.678
242.3589, 1051.792
242.8410, 1053.946
243.3232, 1056.131
243.8053, 1057.824
244.2874, 1058.554
244.7695, 1059.966
245.2516, 1062.521
245.7337, 1065.582
246.2159, 1067.582
246.6980, 1067.535
247.1801, 1068.002
247.6622, 1070.224
248.1443, 1075.294
248.6264, 1079.000
249.1086, 1080.579
249.5907, 1081.210
250.0728, 1083.376
250.5549, 1087.753
251.0370, 1092.516
251.5191, 1096.855
252.0013, 1100.220
252.4834, 1105.042
252.9655, 1112.456
253.4476, 1120.574
253.9297, 1125.529
254.4118, 1125.367
254.8940, 1125.571
255.3761, 1128.365
255.8582, 1134.739
256.3403, 1139.864
256.8224, 1143.875
257.3046, 1146.563
257.7867, 1147.771
258.2688, 1148.317
258.7509, 1145.682
259.2330, 1138.172
259.7151, 1124.517
260.1973, 1113.341
260.6794, 1105.191
261.1615, 1099.235
261.6436, 1094.555
262.1257, 1091.198
262.6078, 1088.953
263.0900, 1088.215
263.5721, 1089.267
264.0542, 1088.618
264.5363, 1085.254
265.0184, 1081.362
265.5005, 1079.891
265.9827, 1081.715
266.4648, 1083.426
266.9469, 1084.116
267.4290, 1083.766
267.9111, 1082.808
268.3932, 1080.738
268.8754, 1078.841
269.3575, 1079.045
269.8396, 1082.286
270.3217, 1084.072
270.8038, 1082.474
271.2859, 1077.803
271.7681, 1076.730
272.2502, 1080.320
272.7323, 1085.305
273.2144, 1088.248
273.6965, 1088.814
274.1786, 1089.162
274.6608, 1089.290
275.1429, 1089.491
275.6250, 1092.458
276.1071, 1099.088
276.5892, 1105.915
277.0714, 1109.157
277.5535, 1108.349
278.0356, 1108.524
278.5177, 1110.833
278.9998, 1114.782
279.4819, 1118.614
279.9641, 1122.552
280.4462, 1125.643
280.9283, 1127.075
281.4104, 1126.822
281.8925, 1125.503
282.3746, 1122.566
282.8568, 1119.112
283.3389, 1118.986
283.8210, 1122.651
284.3031, 1125.991
284.7852, 1124.916
285.2673, 1119.811
285.7495, 1117.941
286.2316, 1120.848
286.7137, 1126.416
287.1958, 1130.291
287.6779, 1132.407
288.1600, 1134.426
288.6422, 1137.892
289.1243, 1142.450
289.6064, 1144.981
290.0885, 1144.674
290.5706, 1143.763
291.0527, 1146.170
291.5349, 1151.712
292.0170, 1157.597
292.4991, 1162.176
292.9812, 1165.858
293.4633, 1170.140
293.9454, 1175.343
294.4276, 1180.301
294.9097, 1183.753
295.3918, 1185.708
295.8739, 1186.045
296.3560, 1183.749
296.8381, 1179.870
297.3203, 1177.203
297.8024, 1175.960
298.2845, 1174.487
298.7666, 1170.303
299.2487, 1164.331
299.7308, 1159.300
300.2130, 1157.386
300.6951, 1156.707
301.1772, 1153.861
301.6593, 1148.879
302.1414, 1143.823
302.6235, 1140.592
303.1057, 1138.632
303.5878, 1136.842
304.0699, 1134.137
304.5520, 1131.991
305.0341, 1132.873
305.5162, 1136.421
305.9984, 1139.567
306.4805, 1139.502
306.9626, 1137.801
307.4447, 1136.650
307.9268, 1136.789
308.4089, 1137.417
308.8911, 1137.869
309.3732, 1138.198
309.8553, 1138.661
310.3374, 1138.365
310.8195, 1138.742
311.3016, 1141.734
311.7838, 1149.291
312.2659, 1156.183
312.7480, 1157.892
313.2301, 1156.162
313.7122, 1155.353
314.1943, 1158.747
314.6765, 1163.013
315.1586, 1165.934
315.6407, 1167.160
316.1228, 1167.177
316.6049, 1164.746
317.0870, 1161.428
317.5692, 1159.820
318.0513, 1162.230
318.5334, 1165.390
319.0155, 1167.891
319.4976, 1169.615
319.9797, 1170.637
320.4619, 1169.734
320.9440, 1168.544
321.4261, 1168.908
321.9082, 1172.935
322.3903, 1176.941
322.8724, 1179.341
323.3546, 1180.048
323.8367, 1182.043
324.3188, 1186.810
324.8009, 1192.620
325.2830, 1198.100
325.7651, 1202.541
326.2473, 1207.349
326.7294, 1213.651
327.2115, 1221.039
327.6936, 1226.203
328.1757, 1228.557
328.6578, 1228.897
329.1400, 1227.528
329.6221, 1220.925
330.1042, 1217.448
330.5863, 1219.146
331.0684, 1224.048
331.5505, 1226.295
332.0327, 1224.017
332.5148, 1221.263
332.9969, 1219.523
333.4790, 1219.066
333.9611, 1218.934
334.4432, 1219.275
334.9254, 1219.843
335.4075, 1220.151
335.8896, 1219.885
336.3717, 1220.008
336.8538, 1220.802
337.3359, 1222.300
337.8180, 1224.614
338.3001, 1228.565
338.7823, 1232.107
339.2644, 1232.350
339.7465, 1228.375
340.2286, 1225.279
340.7107, 1224.834
341.1928, 1226.410
341.6750, 1224.992
342.1571, 1219.617
342.6392, 1214.711
343.1213, 1215.493
343.6034, 1222.090
344.0855, 1224.104
344.5677, 1218.424
345.0498, 1208.591
345.5319, 1203.470
346.0140, 1203.185
346.4961, 1204.103
346.9782, 1204.282
347.4604, 1203.782
347.9425, 1202.250
348.4246, 1198.983
348.9067, 1196.729
349.3888, 1201.032
349.8709, 1210.694
350.3531, 1218.986
350.8352, 1221.822
351.3173, 1221.156
351.7994, 1220.456
352.2815, 1219.815
352.7636, 1219.437
353.2458, 1219.870
353.7279, 1220.706
354.2100, 1221.083
354.6921, 1221.009
355.1742, 1220.070
355.6563, 1217.560
356.1385, 1213.568
356.6206, 1209.075
357.1027, 1203.314
357.5848, 1197.957
358.0669, 1195.183
358.5490, 1197.485
359.0312, 1199.630
359.5133, 1197.677
359.9954, 1192.724
360.4775, 1188.193
360.9596, 1185.277
361.4417, 1183.634
361.9239, 1183.245
362.4060, 1184.614
362.8881, 1185.731
363.3702, 1185.679
363.8523, 1184.932
364.3344, 1184.216
364.8166, 1183.104
365.2987, 1182.628
365.7808, 1183.652
366.2629, 1186.512
366.7450, 1188.302
367.2271, 1188.310
367.7093, 1187.206
368.1914, 1185.580
368.6735, 1180.518
369.1556, 1178.270
369.6377, 1181.625
370.1198, 1189.677
370.6020, 1194.248
371.0841, 1193.155
371.5662, 1190.608
372.0483, 1188.833
372.5304, 1188.298
373.0125, 1187.606
373.4947, 1186.652
373.9768, 1185.554
374.4589, 1184.573
374.9410, 1183.721
375.4231, 1182.956
375.9052, 1182.280
376.3874, 1181.712
376.8695, 1181.045
377.3516, 1180.168
377.8337, 1179.379
378.3158, 1178.686
378.7979, 1177.896
379.2801, 1178.955
379.7622, 1183.576
380.2443, 1190.335
380.7264, 1192.430
381.2085, 1189.353
381.6906, 1185.036
382.1728, 1182.626
382.6549, 1181.862
383.1370, 1181.078
383.6191, 1179.609
384.1012, 1178.649
384.5833, 1181.574
385.0655, 1187.691
385.5476, 1191.833
386.0297, 1188.821
386.5118, 1182.393
386.9939, 1179.442
387.4760, 1180.792
387.9582, 1183.874
388.4403, 1187.338
388.9224, 1190.745
389.4045, 1193.174
389.8866, 1193.944
390.3687, 1193.822
390.8509, 1193.059
391.3330, 1191.750
391.8151, 1190.822
392.2972, 1190.687
392.7793, 1191.264
393.2614, 1192.564
393.7436, 1195.325
394.2257, 1197.728
394.7078, 1198.626
395.1899, 1198.532
395.6720, 1198.791
396.1541, 1200.011
396.6363, 1201.551
397.1184, 1203.101
397.6005, 1204.565
398.0826, 1206.275
398.5647, 1208.987
399.0468, 1211.742
399.5290, 1213.380
400.0111, 1211.710
400.4932, 1211.230
400.9753, 1213.591
401.4574, 1218.781
401.9395, 1221.335
402.4217, 1219.089
402.9038, 1216.495
403.3859, 1216.543
403.8680, 1220.096
404.3501, 1224.427
404.8322, 1230.096
405.3144, 1236.052
405.7965, 1238.849
406.2786, 1237.423
406.7607, 1236.435
407.2428, 1238.717
407.7249, 1244.452
408.2071, 1246.928
408.6892, 1245.419
409.1713, 1242.827
409.6534, 1243.513
410.1355, 1247.230
410.6176, 1248.816
411.0998, 1245.550
411.5819, 1239.971
412.0640, 1238.278
412.5461, 1240.390
413.0282, 1243.822
413.5103, 1247.462
413.9925, 1250.930
414.4746, 1253.346
414.9567, 1254.348
415.4388, 1254.923
415.9209, 1256.177
416.4030, 1257.825
416.8852, 1259.191
417.3673, 1258.750
417.8494, 1258.643
418.3315, 1260.923
418.8136, 1265.706
419.2957, 1271.044
419.7779, 1276.255
420.2600, 1281.278
420.7421, 1285.971
421.2242, 1291.037
421.7063, 1295.063
422.1884, 1297.272
422.6706, 1298.033
423.1527, 1298.810
423.6348, 1299.305
424.1169, 1300.405
424.5990, 1302.807
425.0811, 1307.838
425.5633, 1311.200
426.0454, 1311.331
426.5275, 1310.336
427.0096, 1311.017
427.4917, 1315.412
427.9738, 1318.322
428.4560, 1317.998
428.9381, 1314.652
429.4202, 1313.655
429.9023, 1316.396
430.3844, 1318.920
430.8665, 1317.705
431.3487, 1311.807
431.8308, 1308.160
432.3129, 1308.063
432.7950, 1309.544
433.2771, 1307.614
433.7592, 1302.059
434.2414, 1298.661
434.7235, 1301.059
435.2056, 1307.913
435.6877, 1314.197
436.1698, 1319.900
436.6519, 1324.794
437.1341, 1328.139
437.6162, 1330.399
438.0983, 1332.914
438.5804, 1336.264
439.0625, 1339.718
439.5446, 1341.684
440.0268, 1342.820
440.5089, 1345.509
440.9910, 1351.792
441.4731, 1359.874
441.9552, 1368.495
442.4373, 1377.533
442.9195, 1386.496
443.4016, 1395.352
443.8837, 1403.913
444.3658, 1411.949
444.8479, 1418.921
445.3300, 1425.841
445.8122, 1432.656
446.2943, 1439.474
446.7764, 1447.622
447.2585, 1458.278
447.7406, 1469.541
448.2227, 1480.636
448.7049, 1492.007
449.1870, 1502.087
449.6691, 1510.028
450.1512, 1517.058
450.6333, 1525.050
451.1154, 1534.759
451.5976, 1543.945
452.0797, 1551.926
452.5618, 1558.785
453.0439, 1564.992
453.5260, 1570.115
454.0081, 1575.553
454.4903, 1582.871
454.9724, 1591.967
455.4545, 1600.034
455.9366, 1606.653
456.4187, 1612.134
456.9008, 1617.112
457.3830, 1621.511
457.8651, 1624.248
458.3472, 1624.770
458.8293, 1623.384
459.3114, 1621.175
459.7935, 1618.142
460.2757, 1612.226
460.7578, 1600.262
461.2399, 1584.882
461.7220, 1569.599
462.2041, 1554.545
462.6862, 1540.825
463.1684, 1530.026
463.6505, 1521.043
464.1326, 1511.586
464.6147, 1500.729
465.0968, 1489.083
465.5789, 1476.629
466.0611, 1463.055
466.5432, 1451.031
467.0253, 1441.491
467.5074, 1433.589
467.9895, 1426.680
468.4716, 1422.435
468.9538, 1416.782
469.4359, 1408.638
469.9180, 1398.997
470.4001, 1390.992
470.8822, 1385.143
471.3643, 1380.185
471.8465, 1376.002
472.3286, 1372.819
472.8107, 1367.879
473.2928, 1360.635
473.7749, 1353.188
474.2570, 1348.336
474.7392, 1346.066
475.2213, 1343.286
475.7034, 1339.019
476.1855, 1334.235
476.6676, 1330.655
477.1497, 1328.274
477.6319, 1327.180
478.1140, 1328.604
478.5961, 1330.937
479.0782, 1331.226
479.5603, 1329.147
480.0424, 1326.709
480.5246, 1325.119
481.0067, 1324.301
481.4888, 1324.182
481.9709, 1325.635
482.4530, 1326.729
482.9352, 1326.092
483.4173, 1324.221
483.8994, 1322.686
484.3815, 1321.236
484.8636, 1320.882
485.3457, 1322.621
485.8279, 1327.506
486.3100, 1330.695
486.7921, 1329.846
487.2742, 1328.190
487.7563, 1328.644
488.2384, 1332.890
488.7206, 1336.362
489.2027, 1338.272
489.6848, 1339.098
490.1669, 1340.649
490.6490, 1343.323
491.1311, 1345.502
491.6133, 1345.936
492.0954, 1344.684
492.5775, 1345.207
493.0596, 1347.822
493.5417, 1350.899
494.0238, 1352.079
494.5060, 1351.974
494.9881, 1353.547
495.4702, 1357.948
495.9523, 1363.676
496.4344, 1369.365
496.9165, 1374.710
497.3987, 1378.563
497.8808, 1378.499
498.3629, 1377.739
498.8450, 1380.008
499.3271, 1385.752
499.8092, 1390.545
500.2914, 1390.880
500.7735, 1389.699
501.2556, 1389.823
501.7377, 1393.522
502.2198, 1396.661
502.7019, 1398.820
503.1841, 1399.801
503.6662, 1399.117
504.1483, 1395.749
504.6304, 1391.742
505.1125, 1387.865
505.5946, 1384.259
506.0768, 1379.004
506.5589, 1371.252
507.0410, 1363.198
507.5231, 1356.325
508.0052, 1350.536
508.4873, 1346.957
508.9695, 1346.287
509.4516, 1347.111
509.9337, 1346.788
510.4158, 1345.382
510.8979, 1344.148
511.3800, 1343.812
511.8622, 1343.943
512.3443, 1343.099
512.8264, 1341.382
513.3085, 1340.698
513.7906, 1343.748
514.2728, 1348.225
514.7549, 1351.021
515.2370, 1351.177
515.7191, 1350.741
516.2012, 1350.351
516.6833, 1350.346
517.1655, 1351.238
517.6476, 1354.176
518.1297, 1357.079
518.6118, 1359.219
519.0939, 1360.641
519.5760, 1361.998
520.0582, 1362.810
520.5403, 1364.056
521.0224, 1366.224
521.5045, 1369.742
521.9866, 1372.997
522.4688, 1376.151
522.9509, 1378.841
523.4330, 1380.564
523.9151, 1381.174
524.3972, 1381.501
524.8793, 1381.472
525.3615, 1381.464
525.8436, 1383.024
526.3257, 1386.118
526.8078, 1388.317
527.2899, 1387.327
527.7720, 1384.592
528.2542, 1383.861
528.7363, 1385.382
529.2184, 1386.404
529.7005, 1384.013
530.1826, 1379.897
530.6647, 1376.378
531.1469, 1374.575
531.6290, 1372.753
532.1111, 1369.452
532.5932, 1365.487
533.0753, 1362.525
533.5574, 1360.389
534.0396, 1359.923
534.5217, 1362.858
535.0038, 1369.539
535.4859, 1371.944
535.9680, 1366.859
536.4501, 1360.420
536.9323, 1356.098
537.4144, 1354.541
537.8965, 1353.158
538.3786, 1351.814
538.8607, 1350.768
539.3428, 1350.838
539.8250, 1352.192
540.3071, 1352.380
540.7892, 1350.259
541.2713, 1346.913
541.7534, 1344.897
542.2355, 1344.167
542.7177, 1344.196
543.1998, 1345.125
543.6819, 1346.431
544.1640, 1346.955
544.6461, 1346.534
545.1282, 1346.964
545.6104, 1350.202
546.0925, 1354.693
546.5746, 1358.714
547.0567, 1361.825
547.5388, 1364.339
548.0209, 1366.231
548.5031, 1367.566
548.9852, 1368.542
549.4673, 1367.367
549.9494, 1367.798
550.4315, 1371.489
550.9136, 1378.420
551.3958, 1383.371
551.8779, 1385.325
552.3600, 1387.032
552.8421, 1390.535
553.3242, 1396.139
553.8063, 1400.373
554.2885, 1402.664
554.7706, 1404.763
555.2527, 1408.923
555.7348, 1414.990
556.2169, 1422.149
556.6990, 1430.582
557.1812, 1439.310
557.6633, 1446.836
558.1454, 1453.388
558.6275, 1459.848
559.1096, 1465.842
559.5917, 1472.509
560.0739, 1481.010
560.5560, 1491.484
561.0381, 1502.018
561.5202, 1514.458
562.0023, 1524.950
562.4844, 1530.474
562.9666, 1527.415
563.4487, 1524.087
563.9308, 1520.641
564.4129, 1517.348
564.8950, 1514.827
565.3771, 1513.948
565.8593, 1511.684
566.3414, 1506.242
566.8235, 1499.028
567.3056, 1496.707
567.7877, 1499.781
568.2698, 1504.174
568.7520, 1507.101
569.2341, 1509.303
569.7162, 1513.981
570.1983, 1521.273
570.6804, 1529.737
571.1625, 1539.015
571.6447, 1548.249
572.1268, 1555.885
572.6089, 1561.106
573.0910, 1565.828
573.5731, 1571.150
574.0552, 1576.890
574.5374, 1582.843
575.0195, 1591.012
575.5016, 1597.262
575.9837, 1600.509
576.4658, 1600.690
576.9479, 1597.872
577.4301, 1591.171
577.9122, 1582.650
578.3943, 1572.585
578.8764, 1560.417
579.3585, 1550.279
579.8406, 1542.603
580.3228, 1535.979
580.8049, 1529.119
581.2870, 1522.048
581.7691, 1514.288
