##NAMES=Penikisite
##RRUFFID=R060270
##IDEAL CHEMISTRY=BaMg_2_Al_2_(PO_4_)_3_(OH)_3_
##LOCALITY=16 miles north of Hess River, Yukon Territory, Canada
##OWNER=RRUFF
##SOURCE=Michael Scott
##DESCRIPTION=Pale bluish green massive associated with quartz
##STATUS=The identification of this mineral is confirmed by single-crystal X-ray diffraction and chemical analysis.
##URL=rruff.info/R060270
##MEASURED CHEMISTRY=Ba_1.00_(Mg_1.90_Mn_0.05_Sr_0.02_[box]_0.02_Ca_0.01_)_Σ=2_(Al_1.97_Ti_0.03_)_Σ=2_(P_1.00_O_4_)_3_(OH)_3_ ; H not measured but estimated by difference and charge balance
91.53320, 263.2239
92.01532, 268.7491
92.49744, 270.2036
92.97955, 270.0213
93.46167, 266.1557
93.94379, 259.1956
94.42590, 250.5991
94.90802, 241.5687
95.39014, 232.6482
95.87225, 223.7771
96.35437, 215.3167
96.83649, 206.3333
97.31860, 198.1745
97.80072, 192.6400
98.28284, 190.9403
98.76495, 191.9537
99.24707, 191.2456
99.72919, 187.2338
100.2113, 183.3446
100.6934, 179.7640
101.1755, 176.8595
101.6577, 175.3180
102.1398, 175.9700
102.6219, 179.5192
103.1040, 181.4246
103.5861, 181.5253
104.0682, 180.6390
104.5504, 178.6205
105.0325, 175.6813
105.5146, 172.8779
105.9967, 171.8642
106.4788, 173.8477
106.9609, 174.4040
107.4431, 172.0099
107.9252, 168.3770
108.4073, 165.6931
108.8894, 164.5861
109.3715, 164.9131
109.8536, 166.5065
110.3358, 169.4660
110.8179, 172.7835
111.3000, 176.4128
111.7821, 180.2353
112.2642, 182.9849
112.7463, 183.2015
113.2285, 182.6552
113.7106, 183.2399
114.1927, 185.5133
114.6748, 188.2678
115.1569, 189.6167
115.6390, 188.7759
116.1212, 188.5837
116.6033, 190.6453
117.0854, 193.3968
117.5675, 195.1265
118.0496, 194.8294
118.5317, 193.1316
119.0139, 193.0540
119.4960, 196.3904
119.9781, 199.6019
120.4602, 201.8540
120.9423, 203.5330
121.4244, 205.2749
121.9066, 207.4735
122.3887, 210.0615
122.8708, 214.3923
123.3529, 222.2299
123.8350, 229.8495
124.3171, 235.1182
124.7993, 238.1541
125.2814, 240.8671
125.7635, 245.3910
126.2456, 252.3388
126.7277, 257.6094
127.2098, 260.7917
127.6920, 262.4203
128.1741, 262.6638
128.6562, 261.3216
129.1383, 259.6848
129.6204, 259.1903
130.1025, 259.6642
130.5847, 261.1125
131.0668, 264.6012
131.5489, 269.3044
132.0310, 272.2825
132.5131, 272.4427
132.9952, 271.0373
133.4774, 269.1116
133.9595, 266.7114
134.4416, 264.3292
134.9237, 262.5378
135.4058, 261.4664
135.8879, 260.0425
136.3701, 256.8315
136.8522, 254.0051
137.3343, 253.0421
137.8164, 254.2751
138.2985, 256.7075
138.7806, 258.4889
139.2628, 258.3043
139.7449, 260.0563
140.2270, 265.1347
140.7091, 271.4831
141.1912, 277.5687
141.6733, 282.6669
142.1555, 286.7343
142.6376, 289.5087
143.1197, 288.3751
143.6018, 288.8012
144.0839, 293.0993
144.5660, 299.1498
145.0482, 304.1079
145.5303, 306.6368
146.0124, 306.3540
146.4945, 300.3440
146.9766, 286.7004
147.4587, 270.7437
147.9409, 253.0830
148.4230, 234.3948
148.9051, 217.1402
149.3872, 202.5595
149.8693, 191.2564
150.3514, 182.8475
150.8336, 178.4809
151.3157, 176.3170
151.7978, 175.0686
152.2799, 174.7986
152.7620, 174.7450
153.2441, 174.4561
153.7263, 173.9835
154.2084, 173.3531
154.6905, 172.2074
155.1726, 170.9634
155.6547, 170.8032
156.1368, 172.6818
156.6190, 173.8645
157.1011, 171.8273
157.5832, 168.1018
158.0653, 165.6967
158.5474, 166.9909
159.0295, 171.6846
159.5117, 175.7755
159.9938, 178.5977
160.4759, 181.4597
160.9580, 185.4741
161.4401, 190.0453
161.9222, 193.6275
162.4044, 194.6324
162.8865, 192.5686
163.3686, 190.7610
163.8507, 190.1707
164.3328, 189.0039
164.8149, 186.1788
165.2971, 181.8044
165.7792, 176.9219
166.2613, 172.6762
166.7434, 169.2540
167.2255, 166.1010
167.7076, 163.2641
168.1898, 160.6052
168.6719, 157.9556
169.1540, 155.2961
169.6361, 152.8600
170.1182, 150.8946
170.6003, 149.1698
171.0825, 148.8008
171.5646, 151.5840
172.0467, 155.0847
172.5288, 156.3172
173.0109, 154.2990
173.4930, 150.7259
173.9752, 148.1935
174.4573, 146.7153
174.9394, 145.4765
175.4215, 144.1297
175.9036, 142.8450
176.3857, 142.0266
176.8679, 141.8319
177.3500, 142.1034
177.8321, 142.4170
178.3142, 142.6780
178.7963, 143.6324
179.2784, 146.4714
179.7606, 150.8651
180.2427, 153.8343
180.7248, 153.5695
181.2069, 152.4071
181.6890, 152.2562
182.1711, 153.2642
182.6533, 155.0706
183.1354, 157.9024
183.6175, 162.0694
184.0996, 164.8021
184.5817, 164.7515
185.0638, 163.4204
185.5460, 161.0774
186.0281, 157.8523
186.5102, 154.6958
186.9923, 153.0611
187.4744, 153.5600
187.9565, 154.0065
188.4387, 153.9317
188.9208, 153.8218
189.4029, 153.9249
189.8850, 154.3401
190.3671, 155.1517
190.8492, 156.5857
191.3314, 159.1063
191.8135, 161.5237
192.2956, 164.1123
192.7777, 166.4064
193.2598, 167.8530
193.7419, 168.2513
194.2241, 168.0341
194.7062, 168.2422
195.1883, 169.2009
195.6704, 170.2714
196.1525, 171.7317
196.6346, 173.2006
197.1168, 173.8217
197.5989, 173.1439
198.0810, 172.2081
198.5631, 174.2089
199.0452, 182.0682
199.5273, 188.7991
200.0095, 192.8471
200.4916, 195.1150
200.9737, 197.0163
201.4558, 199.1273
201.9379, 201.3687
202.4200, 203.6060
202.9022, 206.1303
203.3843, 208.1907
203.8664, 209.3901
204.3485, 209.9038
204.8306, 210.1227
205.3127, 210.0391
205.7949, 209.9600
206.2770, 210.4747
206.7591, 211.6112
207.2412, 213.1812
207.7233, 215.1415
208.2054, 217.4774
208.6876, 220.0937
209.1697, 223.1889
209.6518, 226.3672
210.1339, 229.1554
210.6160, 231.6054
211.0981, 233.4241
211.5803, 234.7738
212.0624, 235.6629
212.5445, 234.5650
213.0266, 229.6416
213.5087, 223.1510
213.9908, 216.8489
214.4730, 210.8845
214.9551, 205.8362
215.4372, 202.6148
215.9193, 201.4256
216.4014, 200.7144
216.8836, 199.3088
217.3657, 198.6849
217.8478, 200.5344
218.3299, 205.3080
218.8120, 210.6628
219.2941, 213.3718
219.7763, 212.8853
220.2584, 211.4631
220.7405, 209.4834
221.2226, 206.7984
221.7047, 203.2121
222.1868, 198.6804
222.6690, 193.3847
223.1511, 187.3821
223.6332, 179.8218
224.1153, 173.5004
224.5974, 169.5004
225.0795, 166.1185
225.5617, 162.1212
226.0438, 157.1720
226.5259, 151.8163
227.0080, 146.9068
227.4901, 142.1955
227.9722, 138.5793
228.4544, 136.3922
228.9365, 134.9378
229.4186, 133.8375
229.9007, 132.9391
230.3828, 132.1605
230.8649, 131.3501
231.3471, 130.2366
231.8292, 129.5694
232.3113, 129.3816
232.7934, 129.5704
233.2755, 130.2084
233.7576, 131.2667
234.2398, 132.4187
234.7219, 133.0996
235.2040, 132.9184
235.6861, 132.9319
236.1682, 133.3892
236.6503, 133.9029
237.1325, 133.9308
237.6146, 133.3668
238.0967, 132.8742
238.5788, 133.5823
239.0609, 136.5807
239.5430, 138.1512
240.0252, 136.9440
240.5073, 134.8512
240.9894, 133.6616
241.4715, 133.7986
241.9536, 134.7679
242.4357, 136.0151
242.9179, 137.5842
243.4000, 139.2447
243.8821, 141.0958
244.3642, 142.9697
244.8463, 144.8907
245.3284, 146.9062
245.8106, 148.3571
246.2927, 147.9512
246.7748, 145.5626
247.2569, 144.5105
247.7390, 146.5020
248.2211, 149.5584
248.7033, 151.1863
249.1854, 150.9030
249.6675, 150.1092
250.1496, 150.1436
250.6317, 150.8980
251.1138, 151.7729
251.5960, 152.5238
252.0781, 153.3826
252.5602, 154.6133
253.0423, 156.2154
253.5244, 158.2888
254.0065, 161.7378
254.4887, 165.8558
254.9708, 168.4615
255.4529, 168.7277
255.9350, 167.2810
256.4171, 164.5745
256.8992, 160.3260
257.3813, 156.1867
257.8635, 153.3799
258.3456, 151.4832
258.8277, 149.9527
259.3098, 149.2247
259.7919, 148.4509
260.2740, 146.1234
260.7562, 141.8473
261.2383, 137.7263
261.7204, 134.8177
262.2025, 132.8163
262.6846, 131.5655
263.1667, 131.3665
263.6489, 131.4798
264.1310, 130.6913
264.6131, 128.7220
265.0952, 127.0673
265.5773, 126.8832
266.0594, 127.1698
266.5416, 126.8921
267.0237, 125.5896
267.5058, 124.1399
267.9879, 123.9433
268.4700, 125.3696
268.9521, 126.3410
269.4343, 125.1619
269.9164, 123.7601
270.3985, 123.9057
270.8806, 126.1406
271.3627, 128.7669
271.8448, 129.3947
272.3270, 127.5088
272.8091, 126.3281
273.2912, 127.1264
273.7733, 128.5733
274.2554, 130.0785
274.7375, 131.5155
275.2197, 132.7101
275.7018, 133.1700
276.1839, 132.6221
276.6660, 133.1053
277.1481, 136.7228
277.6302, 140.1278
278.1124, 141.3475
278.5945, 140.4034
279.0766, 138.8965
279.5587, 138.4573
280.0408, 139.2410
280.5229, 139.6740
281.0051, 139.3443
281.4872, 138.9338
281.9693, 138.5330
282.4514, 138.2583
282.9335, 138.3712
283.4156, 139.3045
283.8978, 141.0897
284.3799, 142.2100
284.8620, 142.4718
285.3441, 142.1667
285.8262, 140.6373
286.3083, 138.5984
286.7905, 137.5630
287.2726, 138.8959
287.7547, 142.2662
288.2368, 144.4469
288.7189, 144.5867
289.2010, 144.4338
289.6832, 144.0440
290.1653, 143.7613
290.6474, 144.0952
291.1295, 145.3975
291.6116, 147.4289
292.0938, 149.2249
292.5759, 150.7007
293.0580, 152.0217
293.5401, 153.5315
294.0222, 154.8141
294.5043, 155.2825
294.9865, 154.6542
295.4686, 153.3831
295.9507, 152.7114
296.4328, 153.7739
296.9149, 153.3022
297.3970, 149.9277
297.8792, 145.6467
298.3613, 142.1511
298.8434, 139.9522
299.3255, 138.4696
299.8076, 136.6101
300.2897, 133.6050
300.7719, 132.0593
301.2540, 133.3643
301.7361, 134.9966
302.2182, 135.2302
302.7003, 133.8664
303.1824, 132.0180
303.6646, 131.0671
304.1467, 131.3684
304.6288, 131.2950
305.1109, 129.5326
305.5930, 128.5474
306.0751, 130.1029
306.5573, 133.7247
307.0394, 137.4542
307.5215, 139.4803
308.0036, 139.6871
308.4857, 140.0193
308.9678, 140.7723
309.4500, 141.3623
309.9321, 141.7998
310.4142, 141.9375
310.8963, 141.4073
311.3784, 139.8037
311.8605, 137.3906
312.3427, 136.2976
312.8248, 138.1619
313.3069, 139.4901
313.7890, 139.0871
314.2711, 137.9549
314.7532, 137.5035
315.2354, 138.4585
315.7175, 140.2601
316.1996, 141.2930
316.6817, 141.1983
317.1638, 140.8284
317.6459, 139.9813
318.1281, 139.0982
318.6102, 138.5149
319.0923, 138.3516
319.5744, 138.6006
320.0565, 139.3664
320.5386, 141.1305
321.0208, 142.2724
321.5029, 142.3467
321.9850, 142.1685
322.4671, 142.0464
322.9492, 142.1247
323.4313, 142.5967
323.9135, 143.7395
324.3956, 145.6814
324.8777, 147.6537
325.3598, 149.9939
325.8419, 152.0559
326.3240, 153.5097
326.8062, 154.4591
327.2883, 155.2873
327.7704, 156.3773
328.2525, 157.6695
328.7346, 158.1567
329.2167, 157.8257
329.6989, 156.5675
330.1810, 153.2885
330.6631, 149.3216
331.1452, 146.7726
331.6273, 146.9096
332.1094, 148.7229
332.5916, 148.9032
333.0737, 145.7358
333.5558, 143.9046
334.0379, 145.1015
334.5200, 147.3243
335.0021, 148.7561
335.4843, 148.8071
335.9664, 148.0568
336.4485, 147.4212
336.9306, 147.0204
337.4127, 146.3610
337.8948, 145.0239
338.3770, 143.7053
338.8591, 142.8564
339.3412, 142.4860
339.8233, 142.2723
340.3055, 142.0099
340.7876, 141.7460
341.2697, 140.9459
341.7518, 138.7917
342.2339, 136.9001
342.7160, 136.2111
343.1982, 136.3049
343.6803, 136.0664
344.1624, 134.5155
344.6445, 132.0625
345.1266, 130.8087
345.6087, 131.2489
346.0909, 132.1756
346.5730, 133.9286
347.0551, 135.6092
347.5372, 135.8825
348.0193, 134.0070
348.5014, 131.1964
348.9836, 129.3413
349.4657, 128.1818
349.9478, 128.9159
350.4299, 134.7304
350.9120, 140.8057
351.3941, 143.2983
351.8763, 141.5349
352.3584, 138.2396
352.8405, 136.0098
353.3226, 134.8642
353.8047, 133.7770
354.2868, 132.5726
354.7690, 131.4592
355.2511, 130.9181
355.7332, 130.6997
356.2153, 129.8049
356.6974, 127.0923
357.1795, 123.1002
357.6617, 119.8529
358.1438, 117.3266
358.6259, 115.7225
359.1080, 115.4085
359.5901, 115.9764
360.0722, 116.9466
360.5544, 118.6257
361.0365, 120.0790
361.5186, 119.6102
362.0007, 116.9229
362.4828, 114.6694
362.9649, 114.2152
363.4471, 114.6124
363.9292, 114.8355
364.4113, 114.7888
364.8934, 114.5387
365.3755, 113.7769
365.8576, 112.7120
366.3398, 112.6606
366.8219, 114.4808
367.3040, 116.5755
367.7861, 117.3422
368.2682, 116.8864
368.7503, 115.8534
369.2325, 113.5773
369.7146, 111.1518
370.1967, 111.0958
370.6788, 114.0955
371.1609, 116.4406
371.6430, 114.0531
372.1252, 108.6007
372.6073, 105.7496
373.0894, 108.9449
373.5715, 112.8279
374.0536, 112.6848
374.5357, 109.1540
375.0179, 106.0577
375.5000, 105.3647
375.9821, 106.1730
376.4642, 106.2442
376.9463, 105.1902
377.4284, 104.3941
377.9106, 104.5717
378.3927, 105.2964
378.8748, 105.8247
379.3569, 105.9468
379.8390, 105.9550
380.3211, 106.3404
380.8033, 107.2799
381.2854, 107.4444
381.7675, 106.1736
382.2496, 104.5001
382.7317, 103.1614
383.2138, 102.2132
383.6960, 101.3436
384.1781, 100.1661
384.6602, 98.79980
385.1423, 98.91860
385.6244, 102.0274
386.1065, 104.6481
386.5887, 105.3921
387.0708, 104.9190
387.5529, 104.2948
388.0350, 103.9657
388.5171, 103.9268
388.9992, 104.1754
389.4814, 105.0052
389.9635, 105.6841
390.4456, 106.4576
390.9277, 106.9248
391.4098, 106.4990
391.8919, 105.2562
392.3741, 104.0158
392.8562, 103.6460
393.3383, 104.2517
393.8204, 104.9429
394.3025, 106.2714
394.7846, 107.1156
395.2668, 106.5951
395.7489, 105.3615
396.2310, 104.6853
396.7131, 105.3565
397.1952, 106.9229
397.6773, 107.7211
398.1595, 106.6798
398.6416, 106.6917
399.1237, 109.3643
399.6058, 112.3652
400.0879, 113.2473
400.5700, 111.6317
401.0522, 109.7312
401.5343, 110.7071
402.0164, 115.3226
402.4985, 118.2147
402.9806, 117.4639
403.4627, 116.5349
403.9449, 116.8923
404.4270, 118.2875
404.9091, 119.9024
405.3912, 121.4937
405.8733, 122.8084
406.3554, 122.7786
406.8376, 120.6262
407.3197, 119.0791
407.8018, 119.8796
408.2839, 121.5221
408.7660, 122.5112
409.2481, 122.4566
409.7303, 121.9874
410.2124, 121.7231
410.6945, 121.6423
411.1766, 121.3042
411.6587, 120.1819
412.1408, 119.3660
412.6230, 120.0797
413.1051, 122.1162
413.5872, 123.9762
414.0693, 125.0276
414.5514, 125.5191
415.0335, 125.6746
415.5157, 125.4580
415.9978, 125.4411
416.4799, 126.0328
416.9620, 127.1226
417.4441, 128.2814
417.9262, 129.5819
418.4084, 130.8341
418.8905, 132.0494
419.3726, 133.1356
419.8547, 133.5996
420.3368, 133.0522
420.8189, 132.5772
421.3011, 134.2214
421.7832, 138.6826
422.2653, 142.1547
422.7474, 144.1893
423.2295, 145.1028
423.7116, 144.4826
424.1938, 142.6736
424.6759, 141.6013
425.1580, 143.0392
425.6401, 146.7519
426.1222, 148.3377
426.6043, 145.8371
427.0865, 143.8352
427.5686, 143.8742
428.0507, 144.9615
428.5328, 145.5901
429.0149, 145.1935
429.4970, 144.4310
429.9792, 144.5019
430.4613, 145.9595
430.9434, 147.0615
431.4255, 147.3180
431.9076, 147.7094
432.3897, 149.2500
432.8719, 151.5302
433.3540, 153.0042
433.8361, 152.1002
434.3182, 149.4040
434.8003, 149.2974
435.2824, 153.3124
435.7646, 157.7137
436.2467, 161.8545
436.7288, 165.7084
437.2109, 169.0554
437.6930, 171.8188
438.1751, 174.6595
438.6573, 178.5793
439.1394, 183.6723
439.6215, 188.5501
440.1036, 193.1706
440.5857, 197.3549
441.0678, 200.5018
441.5500, 203.0347
442.0321, 206.4980
442.5142, 212.6541
442.9963, 219.8562
443.4784, 224.9975
443.9605, 227.8641
444.4427, 230.2911
444.9248, 232.7230
445.4069, 235.5120
445.8890, 239.1730
446.3711, 243.8862
446.8532, 249.0610
447.3354, 255.2133
447.8175, 261.4857
448.2996, 265.6186
448.7817, 266.8643
449.2638, 267.5077
449.7459, 270.1724
450.2281, 275.0189
450.7102, 278.7417
451.1923, 280.8333
451.6744, 282.1143
452.1565, 282.3746
452.6386, 282.1631
453.1208, 283.1254
453.6029, 286.2735
454.0850, 290.6381
454.5671, 293.5259
455.0492, 293.6240
455.5313, 293.9510
456.0135, 295.1617
456.4956, 296.2023
456.9777, 296.4140
457.4598, 295.6052
457.9419, 293.7487
458.4240, 290.8118
458.9062, 286.7990
459.3883, 281.6761
459.8704, 274.7721
460.3525, 267.3759
460.8346, 258.9612
461.3167, 250.5099
461.7989, 243.3276
462.2810, 237.8916
462.7631, 233.3941
463.2452, 228.6016
463.7273, 223.4326
464.2094, 218.4355
464.6916, 213.5457
465.1737, 208.9984
465.6558, 205.2690
466.1379, 202.0798
466.6200, 198.3918
467.1021, 193.1817
467.5843, 187.3056
468.0664, 182.5722
468.5485, 179.0832
469.0306, 175.8824
469.5127, 172.6620
469.9948, 169.4142
470.4770, 166.2803
470.9591, 163.4138
471.4412, 160.0973
471.9233, 155.4164
472.4054, 150.1730
472.8875, 145.8230
473.3697, 142.6252
473.8518, 140.3111
474.3339, 138.9103
474.8160, 138.4005
475.2981, 137.1162
475.7802, 134.3550
476.2624, 131.5867
476.7445, 128.8876
477.2266, 126.7271
477.7087, 126.3055
478.1908, 128.1238
478.6729, 130.7483
479.1551, 131.5205
479.6372, 129.2598
480.1193, 127.8772
480.6014, 127.8305
481.0835, 128.1182
481.5656, 128.0141
482.0478, 127.7470
482.5299, 128.1327
483.0120, 129.8010
483.4941, 132.3410
483.9762, 134.1720
484.4583, 135.1703
484.9405, 135.6748
485.4226, 135.2307
485.9047, 134.7177
486.3868, 134.9133
486.8689, 135.8739
487.3510, 136.9326
487.8332, 137.2609
488.3153, 137.1341
488.7974, 138.1810
489.2795, 141.1055
489.7616, 143.6005
490.2437, 143.4633
490.7259, 142.1643
491.2080, 142.0083
491.6901, 143.8204
492.1722, 145.9981
492.6543, 147.5653
493.1364, 148.5845
493.6186, 149.0821
494.1007, 148.9442
494.5828, 148.8436
495.0649, 149.6687
495.5470, 151.5406
496.0291, 152.9538
496.5113, 153.8580
496.9934, 154.3013
497.4755, 154.1463
497.9576, 153.5570
498.4397, 152.8920
498.9218, 152.3276
499.4040, 151.7838
499.8861, 151.0885
500.3682, 150.1932
500.8503, 149.2305
501.3324, 148.3084
501.8145, 147.2327
502.2967, 145.9918
502.7788, 144.4973
503.2609, 142.5221
503.7430, 139.8337
504.2251, 136.6138
504.7072, 133.6621
505.1894, 131.2749
505.6715, 128.4366
506.1536, 124.0759
506.6357, 119.6997
507.1178, 116.3714
507.5999, 114.2543
508.0821, 113.1954
508.5642, 113.7523
509.0463, 115.2667
509.5284, 115.6774
510.0105, 114.6692
510.4926, 113.4272
510.9748, 112.5415
511.4569, 111.9822
511.9390, 111.6256
512.4211, 111.4188
512.9032, 111.5101
513.3853, 112.4747
513.8674, 113.6522
514.3495, 113.6877
514.8317, 112.2830
515.3138, 110.5963
515.7959, 109.7478
516.2780, 109.7731
516.7601, 110.2377
517.2422, 111.2017
517.7244, 112.4613
518.2065, 114.8387
518.6886, 117.1748
519.1707, 117.4107
519.6528, 114.9314
520.1349, 111.6868
520.6171, 110.8558
521.0992, 113.2656
521.5813, 114.7135
522.0634, 114.2755
522.5455, 113.7471
523.0276, 113.7617
523.5098, 114.1545
523.9919, 114.5512
524.4740, 114.7869
524.9561, 114.9620
525.4382, 115.4667
525.9203, 116.3185
526.4025, 116.1639
526.8846, 114.1867
527.3667, 111.7648
527.8488, 110.2466
528.3309, 109.5029
528.8130, 108.7003
529.2952, 107.4484
529.7773, 106.1491
530.2594, 105.4206
530.7415, 105.0545
531.2236, 103.9170
531.7057, 101.3207
532.1879, 98.23081
532.6700, 96.51414
533.1521, 96.72136
533.6342, 97.16122
534.1163, 98.40482
534.5984, 99.36445
535.0806, 99.03588
535.5627, 97.77225
536.0448, 96.75233
536.5269, 96.75376
537.0090, 97.30237
537.4911, 96.78767
537.9733, 94.12748
538.4554, 92.80814
538.9375, 94.89657
539.4196, 97.01517
539.9017, 96.42801
540.3839, 93.69006
540.8660, 91.93884
541.3481, 94.01008
541.8302, 97.96542
542.3123, 99.16566
542.7944, 97.26804
543.2766, 95.58198
543.7587, 95.13660
544.2408, 95.82896
544.7229, 97.65916
545.2050, 100.8049
545.6871, 103.4631
546.1693, 105.1019
546.6514, 105.8844
547.1335, 105.3065
547.6156, 103.7329
548.0977, 103.4000
548.5798, 105.9350
549.0620, 110.2697
549.5441, 112.7795
550.0262, 110.7356
550.5083, 110.4890
550.9904, 113.6131
551.4725, 117.3702
551.9547, 119.6875
552.4368, 120.6004
552.9189, 121.2710
553.4010, 122.4305
553.8831, 124.1565
554.3652, 126.8817
554.8474, 131.0532
555.3295, 135.0634
555.8116, 138.1700
556.2937, 141.2068
556.7758, 144.9719
557.2579, 149.4093
557.7401, 153.4649
558.2222, 155.7836
558.7043, 157.5993
559.1864, 161.5404
559.6685, 167.6609
560.1506, 173.4057
560.6328, 177.8580
561.1149, 180.8267
561.5970, 181.7054
562.0791, 180.3157
562.5612, 177.9884
563.0433, 174.2546
563.5255, 170.2187
564.0076, 166.6675
564.4897, 163.6695
564.9718, 160.9739
565.4539, 158.4131
565.9360, 156.0590
566.4182, 154.1885
566.9003, 152.9417
567.3824, 151.9163
567.8645, 150.4963
568.3466, 149.7439
568.8287, 150.4436
569.3109, 152.4589
569.7930, 155.1711
570.2751, 158.5477
570.7572, 162.0335
571.2393, 164.2211
571.7214, 164.9736
572.2036, 166.0108
572.6857, 167.8959
573.1678, 170.2578
573.6499, 172.9161
574.1320, 175.8526
574.6141, 178.0860
575.0963, 179.0884
575.5784, 179.4739
576.0605, 179.8801
576.5426, 180.1523
577.0247, 179.5122
577.5068, 177.5155
577.9890, 175.0443
578.4711, 173.9250
578.9532, 175.6278
579.4353, 174.8425
579.9174, 169.2936
580.3995, 163.8528
580.8817, 160.9655
581.3638, 159.9253
581.8459, 159.0446
582.3280, 157.5108
582.8101, 155.9382
583.2922, 155.3434
583.7744, 155.7764
