##NAMES=Penikisite
##RRUFFID=R060160
##IDEAL CHEMISTRY=BaMg_2_Al_2_(PO_4_)_3_(OH)_3_
##LOCALITY=16 miles north of the Hess River, Mayo Mining District, Yukon Territory, Canada
##OWNER=RRUFF
##SOURCE=Mark Mauthner
##DESCRIPTION=Aggregate of green crystals in quartz associated with purple gorceixite, R060158. Crystal used in the Bowman et al (2013) study.
##STATUS=The identification of this mineral is confirmed by single-crystal X-ray diffraction and chemical analysis.
##URL=rruff.info/R060160
##MEASURED CHEMISTRY=Ba_1.00_(Mg_1.97_Mn_0.03_)_Î£=2_Al_2.00_(P_1.00_O_4_)_3_(OH)_3_
92.02539, 110.7591
92.50751, 115.1787
92.98962, 118.0714
93.47174, 116.7969
93.95386, 113.4493
94.43597, 108.9001
94.91809, 103.3992
95.40021, 97.42290
95.88232, 92.15298
96.36444, 87.69820
96.84656, 83.81326
97.32867, 80.48074
97.81078, 77.62920
98.29290, 75.20489
98.77502, 73.18496
99.25713, 71.54670
99.73925, 69.51327
100.2214, 66.58476
100.7035, 63.80379
101.1856, 61.56179
101.6677, 59.90051
102.1498, 58.70856
102.6320, 57.88684
103.1141, 57.59985
103.5962, 57.31135
104.0783, 56.91711
104.5604, 56.55095
105.0425, 56.45742
105.5247, 56.77352
106.0068, 57.12671
106.4889, 56.79942
106.9710, 55.75073
107.4531, 54.60606
107.9352, 53.51373
108.4173, 52.50249
108.8995, 51.74133
109.3816, 51.39002
109.8637, 51.26461
110.3458, 51.15516
110.8279, 51.03307
111.3100, 50.95118
111.7922, 50.97806
112.2743, 51.13225
112.7564, 51.33936
113.2385, 51.56744
113.7206, 51.83527
114.2027, 52.19025
114.6849, 52.66624
115.1670, 53.19963
115.6491, 53.55186
116.1312, 53.50848
116.6133, 53.52331
117.0954, 53.73303
117.5776, 54.04250
118.0597, 54.26650
118.5418, 54.24697
119.0239, 53.97444
119.5060, 54.18431
119.9881, 55.02086
120.4703, 56.08626
120.9524, 57.31422
121.4345, 58.65483
121.9166, 60.00614
122.3987, 61.25613
122.8808, 62.38210
123.3630, 63.59591
123.8451, 65.08790
124.3272, 66.57401
124.8093, 67.78449
125.2914, 68.68256
125.7735, 69.30432
126.2557, 69.66074
126.7378, 69.79135
127.2199, 69.62132
127.7020, 68.93672
128.1841, 67.89678
128.6662, 66.99797
129.1483, 66.25459
129.6305, 65.78395
130.1126, 65.67469
130.5947, 65.90142
131.0768, 66.23969
131.5589, 66.52655
132.0410, 66.76220
132.5232, 66.94503
133.0053, 67.02778
133.4874, 67.08944
133.9695, 67.19549
134.4516, 67.34917
134.9337, 67.47191
135.4159, 67.41418
135.8980, 66.97034
136.3801, 66.74343
136.8622, 66.64291
137.3443, 66.78732
137.8264, 67.30203
138.3086, 68.22880
138.7907, 69.48875
139.2728, 70.84863
139.7549, 72.34959
140.2370, 73.91983
140.7191, 75.62484
141.2013, 77.38938
141.6834, 79.07784
142.1655, 80.58681
142.6476, 82.00541
143.1297, 83.70627
143.6118, 86.05286
144.0939, 88.24329
144.5761, 90.48294
145.0582, 92.51524
145.5403, 93.18344
146.0224, 91.72228
146.5045, 88.17590
146.9866, 83.49644
147.4688, 76.84241
147.9509, 69.79209
148.4330, 63.68327
148.9151, 58.51561
149.3972, 54.25990
149.8793, 51.16836
150.3615, 48.90211
150.8436, 47.21284
151.3257, 46.15015
151.8078, 45.54969
152.2899, 45.07295
152.7720, 44.74238
153.2542, 44.50480
153.7363, 44.37126
154.2184, 44.29134
154.7005, 44.17886
155.1826, 43.95629
155.6647, 43.64496
156.1469, 43.47171
156.6290, 43.45654
157.1111, 43.58769
157.5932, 43.82970
158.0753, 44.21318
158.5574, 44.81533
159.0396, 45.73790
159.5217, 47.03753
160.0038, 48.13192
160.4859, 48.83535
160.9680, 49.53207
161.4501, 50.53670
161.9323, 51.75352
162.4144, 52.76690
162.8965, 53.13912
163.3786, 52.72578
163.8607, 52.11603
164.3428, 51.41253
164.8250, 50.47219
165.3071, 49.05806
165.7892, 47.16069
166.2713, 45.19759
166.7534, 43.66327
167.2355, 42.60970
167.7177, 41.68300
168.1998, 40.84435
168.6819, 40.11046
169.1640, 39.49537
169.6461, 38.99403
170.1282, 38.64502
170.6104, 38.59201
171.0925, 38.79701
171.5746, 38.94491
172.0567, 38.90968
172.5388, 38.72266
173.0209, 38.47408
173.5031, 38.17938
173.9852, 37.81696
174.4673, 37.33785
174.9494, 36.75737
175.4315, 36.21266
175.9136, 35.83325
176.3958, 35.61164
176.8779, 35.33952
177.3600, 34.82707
177.8421, 34.40237
178.3242, 34.34480
178.8063, 34.62560
179.2885, 34.91247
179.7706, 34.76609
180.2527, 34.00367
180.7348, 33.61520
181.2169, 33.96126
181.6990, 34.46999
182.1812, 34.87867
182.6633, 35.13502
183.1454, 35.31856
183.6275, 35.57649
184.1096, 36.10515
184.5917, 36.25811
185.0738, 35.87258
185.5560, 35.29781
186.0381, 34.73104
186.5202, 34.23913
187.0023, 33.81451
187.4844, 33.44433
187.9665, 33.08860
188.4487, 32.87352
188.9308, 33.01578
189.4129, 33.18834
189.8950, 33.01816
190.3771, 32.38884
190.8592, 31.57566
191.3414, 31.11220
191.8235, 31.08967
192.3056, 31.25293
192.7877, 31.75586
193.2698, 32.38221
193.7519, 32.84357
194.2341, 33.03222
194.7162, 33.04129
195.1983, 33.02654
195.6804, 32.96599
196.1625, 32.95127
196.6446, 33.05494
197.1268, 33.22496
197.6089, 33.30463
198.0910, 33.16151
198.5731, 33.04158
199.0552, 33.38055
199.5373, 34.25948
200.0195, 35.08968
200.5016, 35.46269
200.9837, 35.47794
201.4658, 35.64585
201.9479, 36.16925
202.4300, 36.86862
202.9122, 37.57420
203.3943, 38.29904
203.8764, 38.88501
204.3585, 39.10477
204.8406, 38.96196
205.3227, 38.98222
205.8048, 39.42444
206.2870, 39.98365
206.7691, 40.40107
207.2512, 40.65113
207.7333, 40.96267
208.2154, 41.60891
208.6975, 42.64616
209.1797, 43.68483
209.6618, 44.85822
210.1439, 45.87867
210.6260, 46.59104
211.1081, 46.96244
211.5902, 47.02375
212.0724, 46.71778
212.5545, 45.83367
213.0366, 45.23645
213.5187, 45.06293
214.0008, 45.10909
214.4829, 45.29680
214.9651, 45.59347
215.4472, 45.96812
215.9293, 46.33068
216.4114, 46.44437
216.8935, 47.09229
217.3756, 48.81736
217.8578, 50.60514
218.3399, 51.81366
218.8220, 52.28032
219.3041, 52.22943
219.7862, 52.00275
220.2683, 51.71898
220.7505, 50.94708
221.2326, 49.41116
221.7147, 47.61563
222.1968, 45.90983
222.6789, 44.38801
223.1610, 42.97065
223.6432, 41.53679
224.1253, 40.02545
224.6074, 38.64532
225.0895, 37.35187
225.5716, 36.20756
226.0537, 35.35161
226.5358, 34.80116
227.0180, 34.32079
227.5001, 33.54327
227.9822, 32.28997
228.4643, 31.33808
228.9464, 30.71545
229.4285, 30.42632
229.9107, 30.67040
230.3928, 31.51420
230.8749, 32.36156
231.3570, 32.31077
231.8391, 31.25748
232.3212, 30.50595
232.8034, 30.41370
233.2855, 30.67269
233.7676, 30.93307
234.2497, 31.14198
234.7318, 31.29570
235.2139, 31.26624
235.6961, 31.08783
236.1782, 31.23231
236.6603, 32.16722
237.1424, 33.39177
237.6245, 34.11925
238.1066, 34.18657
238.5888, 33.98774
239.0709, 33.80085
239.5530, 33.62941
240.0351, 33.49690
240.5172, 33.36127
240.9993, 33.27946
241.4815, 33.38245
241.9636, 33.72507
242.4457, 34.13416
242.9278, 34.48280
243.4099, 34.80015
243.8920, 35.14857
244.3742, 35.54650
244.8563, 35.99326
245.3384, 36.51891
245.8205, 37.19660
246.3026, 37.78115
246.7847, 38.08996
247.2668, 38.22973
247.7490, 38.35087
248.2311, 38.46504
248.7132, 38.63115
249.1953, 39.04417
249.6774, 39.86703
250.1595, 40.60243
250.6417, 40.84144
251.1238, 40.92981
251.6059, 41.33789
252.0880, 42.34205
252.5701, 43.71621
253.0522, 44.93713
253.5344, 46.02828
254.0165, 46.88115
254.4986, 47.56261
254.9807, 48.00064
255.4628, 48.14502
255.9449, 47.98947
256.4271, 47.46563
256.9092, 46.34920
257.3913, 44.34227
257.8734, 42.28023
258.3555, 40.18112
258.8376, 38.19255
259.3198, 36.42335
259.8019, 34.92220
260.2840, 33.69121
260.7661, 32.78505
261.2482, 32.47232
261.7303, 31.97343
262.2125, 30.88948
262.6946, 29.77984
263.1767, 29.19366
263.6588, 29.27953
264.1409, 29.65821
264.6230, 29.64272
265.1052, 28.96823
265.5873, 28.39935
266.0694, 27.99635
266.5515, 27.67736
267.0336, 27.34933
267.5157, 27.00696
267.9979, 26.75821
268.4800, 26.79333
268.9621, 27.31723
269.4442, 27.68330
269.9263, 27.82824
270.4084, 27.89601
270.8906, 27.93771
271.3727, 27.98194
271.8548, 28.07663
272.3369, 28.29836
272.8190, 28.72831
273.3011, 29.00352
273.7833, 28.97939
274.2654, 28.95197
274.7475, 29.06854
275.2296, 29.34335
275.7117, 29.73613
276.1938, 30.23486
276.6760, 30.89668
277.1581, 31.29629
277.6402, 31.45377
278.1223, 31.40325
278.6044, 30.97390
279.0865, 30.30667
279.5686, 29.81563
280.0508, 29.86828
280.5329, 30.48076
281.0150, 30.82975
281.4971, 30.79978
281.9792, 30.68386
282.4613, 30.54751
282.9435, 30.40940
283.4256, 30.27558
283.9077, 30.14050
284.3898, 30.01764
284.8719, 30.04356
285.3540, 30.32445
285.8362, 30.60874
286.3183, 30.88783
286.8004, 31.11957
287.2825, 31.19209
287.7646, 31.02250
288.2467, 30.73068
288.7289, 30.74862
289.2110, 31.38354
289.6931, 31.92233
290.1752, 32.22115
290.6573, 32.36804
291.1394, 32.48558
291.6216, 32.62246
292.1037, 32.73707
292.5858, 32.72784
293.0679, 32.45735
293.5500, 32.33026
294.0321, 32.54142
294.5143, 32.84860
294.9964, 33.01478
295.4785, 32.97548
295.9606, 32.72767
296.4427, 32.20854
296.9248, 31.21799
297.4070, 30.59950
297.8891, 30.75095
298.3712, 31.06589
298.8533, 30.91608
299.3354, 30.23687
299.8175, 29.55089
300.2997, 29.43696
300.7818, 30.02685
301.2639, 30.27188
301.7460, 29.77509
302.2281, 29.24949
302.7102, 29.26229
303.1924, 29.77800
303.6745, 30.28875
304.1566, 30.40077
304.6387, 30.12703
305.1208, 29.94299
305.6029, 29.74037
306.0851, 29.71577
306.5672, 30.08468
307.0493, 30.73906
307.5314, 31.32115
308.0135, 31.60103
308.4956, 31.67744
308.9778, 31.98445
309.4599, 32.71936
309.9420, 33.39632
310.4241, 33.84706
310.9062, 34.13291
311.3883, 34.35865
311.8705, 34.56233
312.3526, 34.73983
312.8347, 34.87593
313.3168, 34.97243
313.7989, 35.03583
314.2810, 34.99126
314.7632, 34.94024
315.2453, 35.01898
315.7274, 35.26561
316.2095, 35.62838
316.6916, 36.06249
317.1737, 36.59749
317.6559, 37.07482
318.1380, 37.40604
318.6201, 37.71951
319.1022, 38.14003
319.5843, 38.68304
320.0664, 39.27275
320.5485, 39.84975
321.0306, 40.40980
321.5128, 40.94536
321.9949, 41.26286
322.4770, 41.71899
322.9591, 42.63807
323.4412, 43.94505
323.9233, 45.28361
324.4055, 46.44353
324.8876, 47.42131
325.3697, 48.18081
325.8518, 48.63024
326.3339, 49.00310
326.8160, 49.48783
327.2982, 49.96035
327.7803, 50.14473
328.2624, 49.90007
328.7445, 49.32133
329.2266, 48.65820
329.7087, 48.11835
330.1909, 47.15646
330.6730, 45.28710
331.1551, 43.07525
331.6372, 41.24335
332.1193, 40.00224
332.6014, 39.13184
333.0836, 38.34741
333.5657, 37.70336
334.0478, 36.98205
334.5299, 36.03764
335.0120, 35.10871
335.4941, 34.40585
335.9763, 33.94860
336.4584, 33.58893
336.9405, 33.19801
337.4226, 32.76980
337.9047, 32.37902
338.3868, 32.00567
338.8690, 31.67874
339.3511, 31.48237
339.8332, 31.35616
340.3153, 31.11248
340.7974, 30.61074
341.2795, 29.90948
341.7617, 29.39551
342.2438, 29.10257
342.7259, 28.92482
343.2080, 28.93301
343.6901, 29.01976
344.1722, 28.99997
344.6544, 28.79361
345.1365, 28.52534
345.6186, 28.46042
346.1007, 28.87951
346.5828, 29.07337
347.0649, 28.83139
347.5471, 28.48225
348.0292, 28.33419
348.5113, 28.43566
348.9934, 28.59719
349.4755, 28.57759
349.9576, 28.29020
350.4398, 28.19101
350.9219, 28.44400
351.4040, 28.70530
351.8861, 28.83328
352.3682, 28.81339
352.8503, 28.66968
353.3325, 28.41744
353.8146, 28.05878
354.2967, 27.60799
354.7788, 26.95146
355.2609, 26.33421
355.7430, 25.80089
356.2252, 25.34066
356.7073, 24.93543
357.1894, 24.57824
357.6715, 24.26189
358.1536, 23.96387
358.6357, 23.67659
359.1179, 23.42428
359.5999, 23.20335
360.0821, 23.01671
360.5642, 22.86944
361.0463, 22.76097
361.5284, 22.68440
362.0105, 22.61795
362.4926, 22.52778
362.9748, 22.58691
363.4569, 23.12391
363.9390, 23.49627
364.4211, 23.27656
364.9032, 22.63149
365.3853, 22.04406
365.8675, 21.88525
366.3496, 22.11229
366.8317, 22.32590
367.3138, 22.63570
367.7959, 22.77665
368.2780, 22.52653
368.7602, 22.14167
369.2423, 21.96277
369.7244, 22.14427
370.2065, 22.49399
370.6886, 22.60899
371.1707, 22.34835
371.6529, 22.20940
372.1350, 22.45576
372.6171, 22.70047
373.0992, 22.64164
373.5813, 22.26225
374.0634, 21.82495
374.5456, 21.63449
375.0277, 21.70876
375.5098, 21.63330
375.9919, 21.18888
376.4740, 20.82703
376.9561, 20.80363
377.4383, 21.01867
377.9204, 21.23908
378.4025, 21.35186
378.8846, 21.36798
379.3667, 21.30775
379.8488, 21.14709
380.3310, 20.97146
380.8131, 20.77663
381.2952, 20.60151
381.7773, 20.50401
382.2594, 20.51275
382.7415, 20.53559
383.2237, 20.42850
383.7058, 20.19270
384.1879, 20.08758
384.6700, 20.19038
385.1521, 20.44354
385.6342, 20.89407
386.1164, 21.50868
386.5985, 21.89766
387.0806, 21.60443
387.5627, 20.95043
388.0448, 20.76742
388.5269, 21.24028
389.0091, 21.78452
389.4912, 21.99295
389.9733, 21.95053
390.4554, 21.80616
390.9375, 21.46328
391.4196, 21.14484
391.9018, 21.08016
392.3839, 21.24699
392.8660, 21.44779
393.3481, 21.60739
393.8302, 21.74211
394.3123, 21.90707
394.7945, 22.15097
395.2766, 22.27589
395.7587, 22.03327
396.2408, 21.66300
396.7229, 21.61578
397.2050, 22.01189
397.6872, 22.53931
398.1693, 22.85037
398.6514, 22.91887
399.1335, 23.08471
399.6156, 23.47915
400.0977, 23.88311
400.5798, 24.12167
401.0620, 24.21901
401.5441, 24.32142
402.0262, 24.52518
402.5083, 24.80132
402.9904, 24.99740
403.4725, 25.08251
403.9547, 25.13986
404.4368, 25.18672
404.9189, 25.21365
405.4010, 25.23239
405.8831, 25.24195
406.3652, 25.17214
406.8474, 24.89345
407.3295, 24.25455
407.8116, 23.86242
408.2937, 23.88159
408.7758, 23.97091
409.2579, 23.93123
409.7401, 23.78437
410.2222, 23.67314
410.7043, 23.71301
411.1864, 23.87694
411.6685, 23.92467
412.1506, 23.68842
412.6328, 23.54090
413.1149, 23.57066
413.5970, 23.69994
414.0791, 23.85217
414.5612, 23.99894
415.0433, 24.14095
415.5255, 24.25667
416.0076, 24.29973
416.4897, 24.48163
416.9718, 25.04952
417.4539, 25.55822
417.9360, 25.68397
418.4182, 25.53423
418.9003, 25.50506
419.3824, 25.91520
419.8645, 26.67165
420.3466, 27.38584
420.8287, 28.08068
421.3109, 28.67245
421.7930, 29.11728
422.2751, 29.45038
422.7572, 29.67924
423.2393, 29.78811
423.7214, 29.87714
424.2036, 30.11876
424.6857, 30.49922
425.1678, 30.64901
425.6499, 30.34935
426.1320, 29.96355
426.6141, 29.86512
427.0963, 30.01519
427.5784, 30.10680
428.0605, 30.00887
428.5426, 29.77589
429.0247, 29.43272
429.5068, 28.96565
429.9890, 28.61486
430.4711, 28.60943
430.9532, 28.82054
431.4353, 28.80877
431.9174, 28.38690
432.3995, 28.01811
432.8817, 27.98703
433.3638, 28.17151
433.8459, 28.29205
434.3280, 28.24888
434.8101, 28.20666
435.2922, 28.42389
435.7744, 29.00101
436.2565, 29.42309
436.7386, 29.36740
437.2207, 29.39531
437.7028, 30.01967
438.1849, 31.13059
438.6671, 32.18998
439.1492, 32.81890
439.6313, 33.11395
440.1134, 33.62717
440.5955, 34.65062
441.0776, 35.53536
441.5598, 36.09467
442.0418, 36.53945
442.5240, 37.08612
443.0061, 37.78648
443.4882, 38.54411
443.9703, 39.22457
444.4524, 39.80430
444.9345, 40.42741
445.4167, 41.06036
445.8988, 41.77024
446.3809, 42.58326
446.8630, 43.48736
447.3451, 44.50500
447.8272, 45.67955
448.3094, 46.87537
448.7915, 47.67828
449.2736, 47.87008
449.7557, 48.29191
450.2378, 49.50713
450.7199, 50.79133
451.2021, 51.55116
451.6842, 51.74781
452.1663, 51.92527
452.6484, 52.55865
453.1305, 53.54437
453.6126, 54.43804
454.0948, 55.24613
454.5769, 55.87017
455.0590, 56.10469
455.5411, 56.12517
456.0232, 56.23976
456.5053, 56.61360
456.9875, 56.96428
457.4696, 57.09610
457.9517, 57.01191
458.4338, 56.69876
458.9159, 56.10356
459.3980, 55.36985
459.8802, 54.68968
460.3623, 54.05822
460.8444, 53.48161
461.3265, 52.95134
461.8086, 52.48529
462.2907, 52.11637
462.7729, 51.83552
463.2550, 51.57726
463.7371, 51.28103
464.2192, 50.97856
464.7013, 50.85036
465.1834, 51.12115
465.6656, 51.26777
466.1477, 51.26917
466.6298, 51.08416
467.1119, 50.69069
467.5940, 50.07436
468.0761, 49.20095
468.5583, 48.01585
469.0404, 46.47469
469.5225, 44.84007
470.0046, 42.90944
470.4867, 41.09461
470.9688, 39.55241
471.4510, 38.20845
471.9331, 36.93083
472.4152, 35.64921
472.8973, 34.44548
473.3794, 33.56310
473.8615, 33.15026
474.3437, 32.42371
474.8258, 30.73310
475.3079, 29.10551
475.7900, 28.25925
476.2721, 28.12351
476.7542, 28.07384
477.2364, 27.65834
477.7185, 27.08031
478.2006, 26.87245
478.6827, 27.11505
479.1648, 27.25097
479.6469, 26.86222
480.1291, 26.24744
480.6112, 25.97638
481.0933, 26.20767
481.5754, 26.40451
482.0575, 26.14601
482.5396, 25.70347
483.0217, 25.64264
483.5038, 26.08974
483.9860, 26.61736
484.4681, 26.80837
484.9502, 26.64477
485.4323, 26.59900
485.9144, 26.71332
486.3965, 26.89155
486.8787, 27.16389
487.3608, 27.45923
487.8429, 27.62717
488.3250, 27.60850
488.8071, 27.53151
489.2892, 27.63546
489.7714, 28.04474
490.2535, 28.33127
490.7356, 28.44462
491.2177, 28.50361
491.6998, 28.51973
492.1819, 28.53124
492.6641, 28.62142
493.1462, 28.86258
493.6283, 29.17389
494.1104, 29.32680
494.5925, 29.31678
495.0746, 29.15919
495.5568, 28.69759
496.0389, 28.20053
496.5210, 27.83560
497.0031, 27.62171
497.4852, 27.51276
497.9673, 27.49079
498.4495, 27.54969
498.9316, 27.71909
499.4137, 28.04583
499.8958, 28.27067
500.3779, 28.26874
500.8600, 28.04531
501.3422, 27.61583
501.8243, 26.88363
502.3064, 26.15729
502.7885, 25.65800
503.2706, 25.24780
503.7527, 24.62620
504.2349, 23.72686
504.7170, 22.81241
505.1991, 22.15820
505.6812, 21.77880
506.1633, 21.28938
506.6454, 20.47733
507.1276, 19.80266
507.6097, 19.44715
508.0918, 19.33380
508.5739, 19.39019
509.0560, 19.57943
509.5381, 19.78371
510.0203, 19.80783
510.5024, 19.59991
510.9845, 19.38938
511.4666, 19.07904
511.9487, 18.86355
512.4308, 18.85462
512.9130, 18.99350
513.3951, 19.17653
513.8772, 19.37020
514.3593, 19.52604
514.8414, 19.52732
515.3235, 19.34754
515.8057, 19.21581
516.2878, 19.20370
516.7699, 19.23804
517.2520, 19.27797
517.7341, 19.31564
518.2162, 19.30419
518.6984, 19.10641
519.1805, 18.91560
519.6626, 19.05880
520.1447, 19.50974
520.6268, 19.85956
521.1089, 19.89968
521.5911, 19.73884
522.0732, 19.59662
522.5553, 19.42591
523.0374, 19.39266
523.5195, 19.64696
524.0016, 19.96481
524.4838, 20.17544
524.9659, 20.25759
525.4480, 20.24124
525.9301, 20.14215
526.4122, 19.97017
526.8943, 19.76614
527.3765, 19.43163
527.8586, 19.21483
528.3407, 19.27383
528.8228, 19.35606
529.3049, 19.20882
529.7870, 18.83862
530.2692, 18.49248
530.7513, 18.41948
531.2334, 18.56157
531.7155, 18.55427
532.1976, 18.31968
532.6797, 18.11770
533.1619, 18.21437
533.6440, 18.32187
534.1261, 18.05205
534.6082, 17.28662
535.0903, 16.64565
535.5724, 16.59919
536.0546, 16.94903
536.5367, 17.30054
537.0188, 17.60891
537.5009, 17.88410
537.9830, 18.13116
538.4651, 18.34904
538.9473, 18.53603
539.4294, 18.74495
539.9115, 18.86125
540.3936, 18.74362
540.8757, 18.56754
541.3578, 18.54776
541.8400, 18.72528
542.3221, 19.00502
542.8042, 19.28195
543.2863, 19.55347
543.7684, 19.98713
544.2505, 20.89213
544.7326, 21.57976
545.2147, 21.67677
545.6968, 21.61307
546.1790, 21.92375
546.6611, 22.72256
547.1432, 23.57171
547.6253, 23.95019
548.1074, 23.90503
548.5895, 23.94374
549.0717, 24.05285
549.5538, 24.31719
550.0359, 24.87796
550.5180, 25.60542
551.0001, 26.32196
551.4822, 26.98145
551.9644, 27.66470
552.4465, 28.44094
552.9286, 29.27588
553.4107, 30.06535
553.8928, 30.78564
554.3749, 31.60416
554.8571, 32.66740
555.3392, 33.97767
555.8213, 35.41625
556.3034, 37.18033
556.7855, 38.81287
557.2676, 39.44942
557.7498, 40.25755
558.2319, 43.02809
558.7140, 44.28773
559.1961, 45.35190
559.6782, 46.23110
560.1603, 46.37120
560.6425, 47.46591
561.1246, 48.17789
561.6067, 48.29372
562.0888, 47.37999
562.5709, 45.93941
563.0530, 44.33706
563.5352, 42.65630
564.0173, 40.98531
564.4994, 39.40662
564.9815, 37.89853
565.4636, 36.29281
565.9457, 34.47882
566.4279, 33.04758
566.9100, 32.50625
567.3921, 32.66532
567.8742, 32.73873
568.3563, 32.70538
568.8384, 32.62321
569.3206, 32.34599
569.8027, 32.11398
570.2848, 32.31668
570.7669, 32.95450
571.2490, 33.60050
571.7311, 33.86365
572.2133, 33.79004
572.6954, 33.88144
573.1775, 34.41509
573.6596, 34.72802
574.1417, 34.62773
574.6238, 34.35688
575.1060, 34.09017
575.5881, 33.86744
576.0702, 33.68953
576.5523, 33.65124
577.0344, 33.65079
577.5165, 33.26931
577.9987, 32.43791
578.4808, 31.52198
578.9629, 30.59373
579.4450, 29.72782
579.9271, 28.99885
580.4092, 28.40112
580.8914, 27.99056
581.3735, 27.98768
581.8556, 28.05844
582.3377, 27.66648
582.8198, 26.90805
583.3019, 26.51862
583.7841, 26.98173
584.2662, 27.94992
