##NAMES=Pentahydrite
##RRUFFID=R060990
##IDEAL CHEMISTRY=MgS^6+^O_4_&#183;5H_2_O
##LOCALITY=Strassfurt, Prussia
##OWNER=RRUFF
##SOURCE=Michael Scott
##DESCRIPTION=Unconsolidated aggregate of colorless grains, mixed with starkeyite
##STATUS=The identification of this mineral has been made only by X-ray diffraction.
##URL=rruff.info/R060990
166.2601, 1319.215
166.7422, 1320.386
167.2243, 1320.336
167.7064, 1321.171
168.1885, 1325.079
168.6707, 1329.203
169.1528, 1330.946
169.6349, 1330.036
170.1170, 1329.727
170.5991, 1333.063
171.0812, 1338.475
171.5634, 1343.188
172.0455, 1345.816
172.5276, 1347.302
173.0097, 1348.412
173.4918, 1349.157
173.9739, 1349.907
174.4561, 1351.014
174.9382, 1352.387
175.4203, 1353.816
175.9024, 1356.010
176.3845, 1357.917
176.8666, 1357.814
177.3488, 1355.218
177.8309, 1351.799
178.3130, 1348.821
178.7951, 1346.367
179.2772, 1344.879
179.7593, 1345.639
180.2415, 1347.378
180.7236, 1347.327
181.2057, 1344.622
181.6878, 1341.368
182.1699, 1340.470
182.6520, 1341.680
183.1342, 1343.281
183.6163, 1343.496
184.0984, 1343.144
184.5805, 1344.991
185.0626, 1350.232
185.5447, 1356.506
186.0269, 1359.565
186.5090, 1359.501
186.9911, 1359.116
187.4732, 1360.382
187.9553, 1363.043
188.4374, 1365.799
188.9196, 1368.290
189.4017, 1370.950
189.8838, 1375.305
190.3659, 1381.531
190.8480, 1387.176
191.3301, 1389.552
191.8123, 1389.119
192.2944, 1390.352
192.7765, 1394.549
193.2586, 1400.725
193.7407, 1405.869
194.2228, 1409.900
194.7050, 1413.584
195.1871, 1417.135
195.6692, 1420.567
196.1513, 1425.562
196.6334, 1433.423
197.1155, 1442.841
197.5977, 1448.210
198.0798, 1448.704
198.5619, 1448.293
199.0440, 1450.814
199.5261, 1456.445
200.0082, 1462.133
200.4904, 1467.433
200.9725, 1472.257
201.4546, 1476.342
201.9367, 1479.789
202.4188, 1482.191
202.9009, 1482.544
203.3831, 1480.394
203.8652, 1479.327
204.3473, 1480.621
204.8294, 1483.982
205.3115, 1486.150
205.7936, 1487.024
206.2758, 1486.941
206.7579, 1486.088
207.2400, 1484.320
207.7221, 1482.455
208.2042, 1480.305
208.6863, 1477.924
209.1685, 1478.127
209.6506, 1482.197
210.1327, 1486.703
210.6148, 1487.183
211.0969, 1482.232
211.5790, 1478.114
212.0612, 1476.625
212.5433, 1477.832
213.0254, 1478.640
213.5075, 1478.302
213.9896, 1478.559
214.4717, 1482.241
214.9538, 1491.417
215.4360, 1498.347
215.9181, 1500.567
216.4002, 1497.725
216.8823, 1495.118
217.3644, 1492.271
217.8465, 1490.172
218.3287, 1490.357
218.8108, 1494.056
219.2929, 1497.197
219.7750, 1498.477
220.2571, 1497.582
220.7392, 1497.818
221.2214, 1499.827
221.7035, 1502.337
222.1856, 1503.659
222.6677, 1503.191
223.1498, 1502.798
223.6319, 1503.008
224.1141, 1503.897
224.5962, 1504.755
225.0783, 1505.515
225.5604, 1506.285
226.0425, 1507.274
226.5246, 1508.709
227.0068, 1509.890
227.4889, 1510.478
227.9710, 1510.313
228.4531, 1510.655
228.9352, 1511.641
229.4173, 1513.005
229.8995, 1514.501
230.3816, 1516.662
230.8637, 1517.993
231.3458, 1517.850
231.8279, 1515.914
232.3100, 1514.503
232.7922, 1513.325
233.2743, 1512.912
233.7564, 1514.195
234.2385, 1518.491
234.7206, 1522.140
235.2027, 1523.849
235.6849, 1523.125
236.1670, 1523.882
236.6491, 1527.197
237.1312, 1531.138
237.6133, 1533.223
238.0954, 1532.866
238.5776, 1531.694
239.0597, 1529.965
239.5418, 1527.609
240.0239, 1525.271
240.5060, 1522.905
240.9881, 1520.594
241.4703, 1518.449
241.9524, 1516.507
242.4345, 1514.664
242.9166, 1512.823
243.3987, 1510.905
243.8808, 1509.675
244.3630, 1509.591
244.8451, 1509.801
245.3272, 1509.199
245.8093, 1507.116
246.2914, 1505.502
246.7735, 1505.235
247.2557, 1506.634
247.7378, 1505.810
248.2199, 1501.342
248.7020, 1496.005
249.1841, 1493.017
249.6662, 1493.740
250.1484, 1494.059
250.6305, 1492.756
251.1126, 1489.670
251.5947, 1487.877
252.0768, 1488.095
252.5589, 1488.820
253.0411, 1488.523
253.5232, 1487.025
254.0053, 1484.860
254.4874, 1481.980
254.9695, 1478.361
255.4516, 1474.859
255.9338, 1471.338
256.4159, 1468.145
256.8980, 1465.702
257.3801, 1464.195
257.8622, 1463.087
258.3444, 1462.624
258.8265, 1462.760
259.3086, 1461.625
259.7907, 1458.715
260.2728, 1455.353
260.7549, 1452.611
261.2371, 1450.328
261.7192, 1449.169
262.2013, 1449.827
262.6834, 1451.985
263.1655, 1451.937
263.6476, 1448.206
264.1298, 1444.716
264.6119, 1445.137
265.0940, 1451.186
265.5761, 1455.168
266.0582, 1455.211
266.5403, 1452.159
267.0225, 1451.030
267.5046, 1452.430
267.9867, 1454.469
268.4688, 1455.814
268.9509, 1456.352
269.4330, 1456.728
269.9152, 1457.120
270.3973, 1457.383
270.8794, 1456.759
271.3615, 1454.927
271.8436, 1453.099
272.3257, 1452.293
272.8079, 1452.749
273.2900, 1452.599
273.7721, 1451.385
274.2542, 1449.659
274.7363, 1448.953
275.2184, 1449.340
275.7006, 1450.532
276.1827, 1452.740
276.6648, 1456.139
277.1469, 1458.619
277.6290, 1459.954
278.1111, 1460.395
278.5933, 1460.241
279.0754, 1459.338
279.5575, 1458.708
280.0396, 1459.048
280.5217, 1460.350
281.0038, 1461.403
281.4860, 1462.036
281.9681, 1462.555
282.4502, 1463.709
282.9323, 1465.556
283.4144, 1466.981
283.8965, 1467.055
284.3787, 1465.945
284.8608, 1465.690
285.3429, 1466.395
285.8250, 1467.767
286.3071, 1469.884
286.7892, 1472.719
287.2714, 1474.611
287.7535, 1473.995
288.2356, 1471.549
288.7177, 1471.371
289.1998, 1473.749
289.6819, 1476.842
290.1641, 1478.351
290.6462, 1478.479
291.1283, 1478.796
291.6104, 1479.975
292.0925, 1481.774
292.5746, 1483.550
293.0568, 1485.326
293.5389, 1486.908
294.0210, 1487.560
294.5031, 1487.681
294.9852, 1488.890
295.4673, 1492.043
295.9495, 1496.395
296.4316, 1501.140
296.9137, 1506.201
297.3958, 1509.848
297.8779, 1509.336
298.3600, 1506.201
298.8422, 1504.352
299.3243, 1505.360
299.8064, 1507.504
300.2885, 1508.261
300.7706, 1507.820
301.2527, 1507.513
301.7349, 1508.038
302.2170, 1509.389
302.6991, 1511.843
303.1812, 1516.233
303.6633, 1520.302
304.1454, 1521.156
304.6276, 1519.490
305.1097, 1517.792
305.5918, 1517.676
306.0739, 1518.333
306.5560, 1518.612
307.0381, 1517.997
307.5203, 1518.027
308.0024, 1520.595
308.4845, 1524.833
308.9666, 1528.704
309.4487, 1532.401
309.9308, 1534.588
310.4130, 1533.184
310.8951, 1527.306
311.3772, 1522.061
311.8593, 1521.307
312.3414, 1523.272
312.8235, 1525.115
313.3057, 1525.363
313.7878, 1525.398
314.2699, 1525.964
314.7520, 1527.101
315.2341, 1528.720
315.7162, 1530.712
316.1984, 1533.179
316.6805, 1536.207
317.1626, 1542.021
317.6447, 1546.389
318.1268, 1547.035
318.6089, 1544.145
319.0911, 1541.074
319.5732, 1537.547
320.0553, 1535.031
320.5374, 1534.683
321.0195, 1539.554
321.5016, 1543.613
321.9838, 1544.595
322.4659, 1543.297
322.9480, 1543.587
323.4301, 1548.346
323.9122, 1553.399
324.3943, 1556.374
324.8765, 1554.334
325.3586, 1554.127
325.8407, 1557.936
326.3228, 1564.068
326.8049, 1568.252
327.2870, 1569.015
327.7692, 1568.772
328.2513, 1568.019
328.7334, 1565.619
329.2155, 1565.381
329.6976, 1569.131
330.1797, 1574.447
330.6619, 1577.448
331.1440, 1576.344
331.6261, 1575.340
332.1082, 1575.491
332.5903, 1576.895
333.0724, 1578.788
333.5546, 1581.583
334.0367, 1584.507
334.5188, 1586.528
335.0009, 1586.860
335.4830, 1588.179
335.9651, 1591.474
336.4473, 1596.508
336.9294, 1599.785
337.4115, 1600.769
337.8936, 1601.064
338.3757, 1601.802
338.8578, 1602.996
339.3399, 1604.855
339.8221, 1607.965
340.3042, 1611.495
340.7863, 1611.932
341.2684, 1608.520
341.7505, 1605.890
342.2326, 1607.479
342.7148, 1613.238
343.1969, 1618.054
343.6790, 1621.436
344.1611, 1623.910
344.6432, 1626.244
345.1253, 1628.416
345.6075, 1630.268
346.0896, 1632.051
346.5717, 1633.483
347.0538, 1632.651
347.5359, 1629.039
348.0180, 1625.772
348.5002, 1627.603
348.9823, 1633.271
349.4644, 1637.598
349.9465, 1638.699
350.4286, 1637.326
350.9107, 1633.793
351.3929, 1628.236
351.8750, 1623.406
352.3571, 1621.815
352.8392, 1622.541
353.3213, 1624.128
353.8034, 1627.189
354.2856, 1629.620
354.7677, 1627.988
355.2498, 1623.429
355.7319, 1620.500
356.2140, 1623.260
356.6961, 1628.365
357.1783, 1632.555
357.6604, 1635.196
358.1425, 1636.974
358.6246, 1638.090
359.1067, 1638.623
359.5888, 1638.766
360.0710, 1638.096
360.5531, 1637.394
361.0352, 1636.949
361.5173, 1636.732
361.9994, 1637.228
362.4815, 1639.446
362.9637, 1642.167
363.4458, 1644.086
363.9279, 1645.008
364.4100, 1644.971
364.8921, 1643.676
365.3742, 1641.221
365.8564, 1638.784
366.3385, 1635.464
366.8206, 1632.943
367.3027, 1632.235
367.7848, 1636.525
368.2669, 1638.926
368.7491, 1637.410
369.2312, 1633.635
369.7133, 1632.509
370.1954, 1637.505
370.6775, 1641.422
371.1596, 1641.063
371.6418, 1633.941
372.1239, 1629.934
372.6060, 1630.681
373.0881, 1633.439
373.5702, 1634.020
374.0523, 1631.017
374.5345, 1629.089
375.0166, 1629.796
375.4987, 1633.080
375.9808, 1635.293
376.4629, 1635.889
376.9450, 1636.527
377.4272, 1639.307
377.9093, 1644.620
378.3914, 1648.053
378.8735, 1648.346
379.3556, 1646.635
379.8377, 1646.240
380.3199, 1647.263
380.8020, 1648.303
381.2841, 1648.383
381.7662, 1647.673
382.2483, 1646.935
382.7304, 1646.153
383.2126, 1645.704
383.6947, 1646.367
384.1768, 1647.958
384.6589, 1649.452
385.1410, 1649.784
385.6231, 1649.948
386.1053, 1652.260
386.5874, 1656.809
387.0695, 1660.768
387.5516, 1660.882
388.0337, 1658.928
388.5158, 1658.052
388.9980, 1660.175
389.4801, 1662.689
389.9622, 1662.849
390.4443, 1661.293
390.9264, 1660.694
391.4085, 1663.841
391.8907, 1667.801
392.3728, 1670.004
392.8549, 1669.188
393.3370, 1668.603
393.8191, 1669.666
394.3012, 1671.851
394.7834, 1674.274
395.2655, 1677.215
395.7476, 1679.842
396.2297, 1681.576
396.7118, 1682.207
397.1939, 1683.420
397.6761, 1686.310
398.1582, 1689.447
398.6403, 1691.636
399.1224, 1691.307
399.6045, 1691.783
400.0866, 1693.988
400.5688, 1697.504
401.0509, 1699.672
401.5330, 1699.350
402.0151, 1699.149
402.4972, 1700.373
402.9793, 1703.581
403.4615, 1706.979
403.9436, 1710.984
404.4257, 1714.817
404.9078, 1716.564
405.3899, 1715.365
405.8720, 1715.431
406.3542, 1718.727
406.8363, 1724.906
407.3184, 1729.243
407.8005, 1731.598
408.2826, 1732.716
408.7647, 1732.949
409.2469, 1732.359
409.7290, 1731.767
410.2111, 1730.911
410.6932, 1730.680
411.1753, 1733.613
411.6574, 1739.368
412.1396, 1744.802
412.6217, 1747.466
413.1038, 1748.495
413.5859, 1749.698
414.0680, 1751.094
414.5501, 1753.732
415.0323, 1760.200
415.5144, 1768.542
415.9965, 1775.080
416.4786, 1776.598
416.9607, 1776.790
417.4428, 1778.163
417.9250, 1780.686
418.4071, 1784.051
418.8892, 1789.279
419.3713, 1794.594
419.8534, 1798.266
420.3355, 1798.484
420.8177, 1799.455
421.2998, 1802.742
421.7819, 1807.773
422.2640, 1813.380
422.7461, 1820.785
423.2282, 1827.391
423.7104, 1832.191
424.1925, 1834.708
424.6746, 1837.124
425.1567, 1837.542
425.6388, 1839.091
426.1209, 1844.976
426.6031, 1859.935
427.0852, 1871.267
427.5673, 1875.675
428.0494, 1874.821
428.5315, 1877.982
429.0136, 1886.523
429.4958, 1895.959
429.9779, 1903.844
430.4600, 1909.982
430.9421, 1915.508
431.4242, 1920.076
431.9063, 1924.689
432.3885, 1931.253
432.8706, 1939.748
433.3527, 1947.709
433.8348, 1954.290
434.3169, 1959.723
434.7990, 1964.195
435.2812, 1967.699
435.7633, 1971.773
436.2454, 1978.170
436.7275, 1986.055
437.2096, 1993.937
437.6917, 2002.090
438.1739, 2008.796
438.6560, 2011.417
439.1381, 2011.026
439.6202, 2010.455
440.1023, 2009.902
440.5844, 2010.610
441.0666, 2014.716
441.5487, 2022.482
442.0308, 2028.607
442.5129, 2027.904
442.9950, 2025.410
443.4771, 2025.936
443.9593, 2035.804
444.4414, 2043.414
444.9235, 2044.740
445.4056, 2041.210
445.8877, 2038.014
446.3698, 2035.073
446.8520, 2033.259
447.3341, 2033.205
447.8162, 2035.771
448.2983, 2037.369
448.7804, 2038.219
449.2625, 2037.888
449.7447, 2035.609
450.2268, 2030.177
450.7089, 2025.577
451.1910, 2022.924
451.6731, 2021.753
452.1552, 2019.779
452.6374, 2017.112
453.1195, 2013.519
453.6016, 2008.518
454.0837, 2002.226
454.5658, 1996.024
455.0479, 1989.792
455.5301, 1984.551
456.0122, 1982.924
456.4943, 1984.189
456.9764, 1984.157
457.4585, 1981.223
457.9406, 1976.036
458.4228, 1968.839
458.9049, 1959.885
459.3870, 1951.073
459.8691, 1943.101
460.3512, 1936.409
460.8333, 1932.057
461.3155, 1931.217
461.7976, 1929.798
462.2797, 1925.151
462.7618, 1918.094
463.2439, 1910.136
463.7260, 1901.167
464.2082, 1891.979
464.6903, 1882.658
465.1724, 1873.230
465.6545, 1865.172
466.1366, 1859.676
466.6187, 1855.172
467.1009, 1850.670
467.5830, 1846.075
468.0651, 1841.467
468.5472, 1836.957
469.0293, 1832.463
469.5114, 1827.779
469.9936, 1822.912
470.4757, 1817.875
470.9578, 1812.487
471.4399, 1806.755
471.9220, 1801.905
472.4041, 1798.181
472.8863, 1794.749
473.3684, 1790.599
473.8505, 1785.770
474.3326, 1782.485
474.8147, 1781.610
475.2968, 1781.366
475.7790, 1777.929
476.2611, 1771.855
476.7432, 1766.975
477.2253, 1766.480
477.7074, 1767.889
478.1895, 1767.187
478.6717, 1764.313
479.1538, 1760.979
479.6359, 1757.904
480.1180, 1755.346
480.6001, 1753.782
481.0822, 1754.361
481.5644, 1754.257
482.0465, 1750.678
482.5286, 1745.383
483.0107, 1742.169
483.4928, 1744.707
483.9749, 1747.393
484.4571, 1747.908
484.9392, 1745.886
485.4213, 1743.499
485.9034, 1739.830
486.3855, 1736.554
486.8676, 1734.753
487.3498, 1734.637
487.8319, 1735.673
488.3140, 1738.508
488.7961, 1742.101
489.2782, 1743.862
489.7603, 1743.341
490.2425, 1742.405
490.7246, 1742.051
491.2067, 1742.098
491.6888, 1739.896
492.1709, 1735.050
492.6530, 1730.452
493.1352, 1729.411
493.6173, 1731.081
494.0994, 1731.780
494.5815, 1730.573
495.0636, 1728.862
495.5457, 1728.472
496.0279, 1729.117
496.5100, 1729.898
496.9921, 1730.150
497.4742, 1730.496
497.9563, 1731.965
498.4384, 1734.491
498.9206, 1736.005
499.4027, 1734.540
499.8848, 1732.113
500.3669, 1730.330
500.8490, 1729.740
501.3311, 1729.435
501.8133, 1729.028
502.2954, 1728.778
502.7775, 1729.182
503.2596, 1730.802
503.7417, 1732.498
504.2238, 1734.311
504.7060, 1736.218
505.1881, 1736.495
505.6702, 1733.819
506.1523, 1731.678
506.6344, 1733.211
507.1165, 1739.306
507.5987, 1742.204
508.0808, 1740.602
508.5629, 1737.315
509.0450, 1736.877
509.5271, 1739.078
510.0092, 1740.994
510.4914, 1741.415
510.9735, 1741.036
511.4556, 1741.207
511.9377, 1741.891
512.4199, 1742.723
512.9020, 1743.591
513.3841, 1744.404
513.8662, 1745.113
514.3483, 1745.765
514.8304, 1746.001
515.3126, 1745.209
515.7947, 1743.973
516.2768, 1743.027
516.7589, 1742.251
517.2410, 1742.120
517.7231, 1742.991
518.2053, 1744.691
518.6874, 1746.415
519.1695, 1747.901
519.6516, 1749.566
520.1337, 1751.841
520.6158, 1755.311
521.0980, 1756.754
521.5801, 1755.396
522.0622, 1753.050
522.5443, 1751.493
523.0264, 1750.867
523.5085, 1750.267
523.9907, 1749.550
524.4728, 1748.819
524.9549, 1747.879
525.4370, 1746.791
525.9191, 1746.963
526.4012, 1750.210
526.8834, 1754.984
527.3655, 1757.794
527.8476, 1758.635
528.3297, 1758.873
528.8118, 1759.093
529.2939, 1759.494
529.7761, 1760.359
530.2582, 1761.833
530.7403, 1763.524
531.2224, 1765.457
531.7045, 1767.388
532.1866, 1768.919
532.6688, 1770.113
533.1509, 1770.696
533.6330, 1769.856
534.1151, 1767.725
534.5972, 1767.583
535.0793, 1771.886
535.5615, 1775.610
536.0436, 1776.097
536.5257, 1772.165
537.0078, 1769.057
537.4899, 1766.456
537.9720, 1765.232
538.4542, 1767.456
538.9363, 1773.482
539.4184, 1777.501
539.9005, 1777.680
540.3826, 1775.735
540.8647, 1775.047
541.3469, 1775.522
541.8290, 1776.347
542.3111, 1777.685
542.7932, 1778.836
543.2753, 1778.090
543.7574, 1775.429
544.2396, 1773.806
544.7217, 1776.524
545.2038, 1780.658
545.6859, 1783.082
546.1680, 1781.707
546.6501, 1781.028
547.1323, 1783.041
547.6144, 1786.627
548.0965, 1789.873
548.5786, 1792.785
549.0607, 1794.988
549.5428, 1796.231
550.0250, 1796.605
550.5071, 1796.971
550.9892, 1797.138
551.4713, 1797.680
551.9534, 1799.386
552.4355, 1802.569
552.9177, 1803.381
553.3998, 1801.249
553.8819, 1798.547
554.3640, 1798.682
554.8461, 1801.011
555.3282, 1801.615
555.8104, 1798.616
556.2925, 1795.048
556.7746, 1795.079
557.2567, 1797.984
557.7388, 1801.517
558.2209, 1805.853
558.7031, 1809.336
559.1852, 1810.067
559.6673, 1808.149
560.1494, 1806.534
560.6315, 1807.461
561.1136, 1808.426
561.5958, 1807.467
562.0779, 1801.622
562.5600, 1799.176
563.0421, 1802.777
563.5242, 1808.695
564.0063, 1812.234
564.4885, 1812.228
564.9706, 1812.375
565.4527, 1813.069
565.9348, 1814.425
566.4169, 1817.222
566.8990, 1821.607
567.3812, 1825.867
567.8633, 1829.191
568.3454, 1831.660
568.8275, 1833.738
569.3096, 1835.411
569.7917, 1836.532
570.2739, 1836.623
570.7560, 1836.180
571.2381, 1835.901
571.7202, 1835.884
572.2023, 1836.246
572.6844, 1837.100
573.1666, 1838.396
573.6487, 1840.070
574.1308, 1842.987
574.6129, 1845.372
575.0950, 1846.640
575.5771, 1846.885
576.0593, 1846.714
576.5414, 1844.370
577.0235, 1843.852
577.5056, 1847.462
577.9877, 1855.895
578.4698, 1860.966
578.9520, 1861.644
579.4341, 1861.460
579.9162, 1864.022
580.3983, 1869.057
580.8804, 1872.428
581.3625, 1873.064
581.8447, 1873.325
582.3268, 1877.400
582.8089, 1883.843
583.2910, 1888.654
583.7731, 1888.586
584.2552, 1887.612
584.7373, 1889.090
585.2194, 1892.660
585.7015, 1896.960
586.1837, 1902.105
586.6658, 1907.189
587.1479, 1911.886
587.6300, 1916.143
588.1121, 1919.893
588.5942, 1922.195
589.0764, 1924.659
589.5585, 1928.450
590.0406, 1934.523
590.5227, 1939.502
591.0048, 1942.735
591.4869, 1945.533
591.9691, 1950.494
592.4512, 1957.743
592.9333, 1963.708
593.4154, 1967.165
593.8975, 1969.021
594.3796, 1970.768
594.8618, 1972.485
595.3439, 1974.679
595.8260, 1978.243
596.3081, 1982.095
596.7902, 1985.266
597.2723, 1987.692
597.7545, 1989.203
598.2366, 1989.547
598.7187, 1988.999
599.2008, 1987.613
599.6829, 1984.713
600.1650, 1982.434
600.6472, 1982.700
601.1293, 1982.988
601.6114, 1980.284
602.0935, 1972.840
602.5756, 1966.029
603.0577, 1960.386
603.5399, 1955.941
604.0220, 1953.098
604.5041, 1952.115
604.9862, 1950.419
605.4683, 1945.839
605.9504, 1939.984
606.4326, 1938.718
606.9147, 1941.631
607.3968, 1943.181
607.8789, 1937.018
608.3610, 1928.223
608.8431, 1923.182
609.3253, 1922.924
609.8074, 1924.135
610.2895, 1926.671
610.7716, 1928.940
611.2537, 1929.440
611.7358, 1926.835
612.2180, 1923.721
612.7001, 1919.279
613.1822, 1914.846
613.6643, 1912.791
614.1464, 1914.303
614.6285, 1915.835
615.1107, 1917.001
615.5928, 1917.509
616.0749, 1915.326
616.5570, 1910.188
617.0391, 1906.042
617.5212, 1905.859
618.0034, 1908.366
618.4855, 1910.541
618.9676, 1912.314
619.4497, 1913.137
619.9318, 1912.098
620.4139, 1910.068
620.8961, 1907.706
621.3782, 1904.533
621.8603, 1902.942
622.3424, 1905.357
622.8245, 1909.327
623.3066, 1912.037
623.7888, 1912.815
624.2709, 1912.502
624.7530, 1910.482
625.2351, 1907.626
625.7172, 1906.120
626.1993, 1906.375
626.6815, 1906.668
627.1636, 1906.584
627.6457, 1906.084
628.1278, 1904.514
628.6099, 1901.862
629.0920, 1900.177
629.5742, 1901.879
630.0563, 1905.127
630.5384, 1906.578
631.0205, 1906.053
631.5026, 1904.763
631.9847, 1903.784
632.4669, 1902.384
632.9490, 1899.494
633.4311, 1893.635
633.9132, 1889.465
634.3953, 1889.642
634.8774, 1891.623
635.3596, 1892.206
635.8417, 1890.271
636.3238, 1888.703
636.8059, 1887.755
637.2880, 1887.373
637.7701, 1887.991
638.2523, 1889.997
638.7344, 1889.901
639.2165, 1885.040
639.6986, 1877.810
640.1807, 1875.279
640.6628, 1877.063
641.1450, 1879.835
641.6271, 1882.659
642.1092, 1884.608
642.5913, 1883.870
643.0734, 1880.313
643.5555, 1877.670
644.0377, 1879.076
644.5198, 1881.273
645.0019, 1881.663
645.4840, 1878.449
645.9661, 1876.536
646.4482, 1876.552
646.9304, 1877.663
647.4125, 1879.216
647.8946, 1881.653
648.3767, 1882.940
648.8588, 1882.511
649.3409, 1881.223
649.8231, 1880.979
650.3052, 1881.606
650.7873, 1881.275
651.2694, 1878.253
651.7515, 1874.871
652.2336, 1875.214
652.7158, 1878.350
653.1979, 1880.898
653.6800, 1880.066
654.1621, 1878.821
654.6442, 1879.477
655.1263, 1882.134
655.6085, 1883.514
656.0906, 1881.923
656.5727, 1879.656
657.0548, 1877.632
657.5369, 1875.529
658.0190, 1875.355
658.5012, 1878.128
658.9833, 1880.941
659.4654, 1880.490
659.9475, 1876.924
660.4296, 1874.517
660.9117, 1874.047
661.3939, 1874.065
661.8760, 1872.369
662.3581, 1869.767
662.8402, 1868.218
663.3223, 1868.988
663.8044, 1870.124
664.2866, 1870.054
