##NAMES=Pentahydrite
##RRUFFID=R070069
##IDEAL CHEMISTRY=MgS^6+^O_4_&#183;5H_2_O
##LOCALITY=Vulcano Island, Eolie Islands, Messina Province, Sicily, Italy
##OWNER=RRUFF
##SOURCE=James Shigley
##DESCRIPTION=Unconsolidated coarse crystalline grains associated with anhydrite
##STATUS=The identification of this mineral has been confirmed by single-crystal X-ray diffraction.
##URL=rruff.info/R070069
191.2170, 1501.458
191.6991, 1521.771
192.1812, 1529.272
192.6633, 1528.823
193.1454, 1540.583
193.6275, 1576.083
194.1097, 1607.484
194.5918, 1622.790
195.0739, 1627.860
195.5560, 1635.163
196.0381, 1650.722
196.5202, 1671.752
197.0024, 1689.307
197.4845, 1698.945
197.9666, 1712.680
198.4487, 1737.146
198.9308, 1767.943
199.4129, 1797.435
199.8951, 1822.967
200.3772, 1844.276
200.8593, 1858.866
201.3414, 1863.010
201.8235, 1870.336
202.3056, 1887.642
202.7878, 1910.220
203.2699, 1929.703
203.7520, 1943.107
204.2341, 1952.935
204.7162, 1963.501
205.1983, 1974.729
205.6805, 1986.589
206.1626, 2001.295
206.6447, 2016.148
207.1268, 2026.505
207.6089, 2030.689
208.0910, 2031.752
208.5732, 2034.565
209.0553, 2039.991
209.5374, 2042.749
210.0195, 2037.992
210.5016, 2031.257
210.9837, 2031.214
211.4659, 2040.331
211.9480, 2051.676
212.4301, 2056.948
212.9122, 2056.041
213.3943, 2051.510
213.8764, 2038.128
214.3586, 2023.848
214.8407, 2018.454
215.3228, 2023.674
215.8049, 2033.750
216.2870, 2043.824
216.7691, 2053.892
217.2513, 2062.626
217.7334, 2071.221
218.2155, 2077.600
218.6976, 2078.387
219.1797, 2073.432
219.6618, 2068.306
220.1440, 2068.510
220.6261, 2073.873
221.1082, 2075.727
221.5903, 2068.825
222.0724, 2061.922
222.5546, 2062.799
223.0367, 2071.217
223.5188, 2080.839
224.0009, 2089.048
224.4830, 2094.451
224.9651, 2091.642
225.4473, 2067.317
225.9294, 2046.542
226.4115, 2049.881
226.8936, 2072.560
227.3757, 2091.007
227.8578, 2090.296
228.3400, 2074.783
228.8221, 2065.399
229.3042, 2063.914
229.7863, 2065.846
230.2684, 2070.251
230.7505, 2076.709
231.2327, 2084.513
231.7148, 2093.906
232.1969, 2103.618
232.6790, 2109.345
233.1611, 2107.019
233.6432, 2108.193
234.1254, 2117.201
234.6075, 2132.099
235.0896, 2151.288
235.5717, 2175.555
236.0538, 2199.275
236.5359, 2208.592
237.0181, 2195.087
237.5002, 2190.727
237.9823, 2206.365
238.4644, 2232.943
238.9465, 2260.655
239.4286, 2287.057
239.9108, 2309.965
240.3929, 2325.258
240.8750, 2330.059
241.3571, 2337.335
241.8392, 2350.657
242.3213, 2365.367
242.8035, 2377.199
243.2856, 2385.457
243.7677, 2391.744
244.2498, 2397.813
244.7319, 2403.838
245.2140, 2407.659
245.6962, 2412.490
246.1783, 2412.795
246.6604, 2401.508
247.1425, 2380.325
247.6246, 2360.673
248.1067, 2353.773
248.5889, 2359.830
249.0710, 2348.436
249.5531, 2308.210
250.0352, 2264.656
250.5173, 2227.520
250.9994, 2196.226
251.4816, 2167.181
251.9637, 2138.296
252.4458, 2109.494
252.9279, 2080.707
253.4100, 2052.197
253.8921, 2023.370
254.3743, 1995.082
254.8564, 1966.154
255.3385, 1933.890
255.8206, 1896.721
256.3027, 1857.831
256.7849, 1825.893
257.2670, 1810.548
257.7491, 1790.595
258.2312, 1763.992
258.7133, 1733.218
259.1954, 1699.269
259.6776, 1662.964
260.1597, 1627.134
260.6418, 1596.047
261.1239, 1570.323
261.6060, 1549.585
262.0881, 1541.636
262.5703, 1532.514
263.0524, 1509.830
263.5345, 1473.702
264.0166, 1435.373
264.4987, 1407.311
264.9808, 1391.640
265.4630, 1375.947
265.9451, 1360.006
266.4272, 1344.289
266.9093, 1330.290
267.3914, 1316.875
267.8735, 1300.653
268.3557, 1277.847
268.8378, 1249.161
269.3199, 1228.581
269.8020, 1224.048
270.2841, 1220.171
270.7662, 1215.334
271.2484, 1208.966
271.7305, 1200.244
272.2126, 1188.547
272.6947, 1175.071
273.1768, 1163.981
273.6589, 1156.682
274.1411, 1149.511
274.6232, 1143.091
275.1053, 1135.894
275.5874, 1125.580
276.0695, 1111.455
276.5516, 1096.712
277.0338, 1087.097
277.5159, 1084.684
277.9980, 1080.984
278.4801, 1074.594
278.9622, 1066.990
279.4443, 1057.831
279.9265, 1047.637
280.4086, 1039.043
280.8907, 1035.369
281.3728, 1036.878
281.8549, 1037.725
282.3370, 1038.336
282.8192, 1037.422
283.3013, 1034.114
283.7834, 1028.831
284.2655, 1022.658
284.7476, 1015.881
285.2297, 1008.781
285.7119, 1001.943
286.1940, 993.6501
286.6761, 989.3986
287.1582, 997.0461
287.6403, 1008.855
288.1224, 1012.909
288.6046, 1001.980
289.0867, 985.7346
289.5688, 979.4864
290.0509, 984.9382
290.5330, 986.3924
291.0151, 972.5744
291.4973, 954.4439
291.9794, 945.0397
292.4615, 947.1805
292.9436, 951.8246
293.4257, 951.9937
293.9078, 948.5585
294.3900, 946.2890
294.8721, 946.6437
295.3542, 948.2124
295.8363, 948.9674
296.3184, 948.8712
296.8005, 950.2132
297.2827, 956.7894
297.7648, 964.5338
298.2469, 965.6183
298.7290, 958.2982
299.2111, 949.3401
299.6932, 945.0550
300.1754, 944.8249
300.6575, 942.7477
301.1396, 934.9777
301.6217, 927.6497
302.1038, 925.1836
302.5859, 927.5412
303.0681, 933.8192
303.5501, 944.9458
304.0323, 959.0085
304.5144, 967.4709
304.9965, 964.9860
305.4786, 963.9132
305.9607, 970.4405
306.4428, 980.5663
306.9250, 987.2223
307.4071, 987.7137
307.8892, 984.1264
308.3713, 980.0685
308.8534, 972.8829
309.3355, 970.4423
309.8177, 979.5229
310.2998, 989.2692
310.7819, 988.3049
311.2640, 976.1378
311.7461, 963.3027
312.2282, 961.7505
312.7104, 974.4158
313.1925, 979.7889
313.6746, 970.4930
314.1567, 962.4377
314.6388, 963.9766
315.1209, 971.8870
315.6031, 978.0589
316.0852, 977.0870
316.5673, 970.5176
317.0494, 966.3947
317.5315, 966.3123
318.0136, 966.7509
318.4958, 965.6545
318.9779, 965.4698
319.4600, 970.5332
319.9421, 982.1169
320.4242, 993.8981
320.9063, 994.7427
321.3885, 980.7362
321.8706, 969.5481
322.3527, 963.1892
322.8348, 960.0879
323.3169, 961.4011
323.7990, 966.1086
324.2812, 969.9169
324.7633, 966.9982
325.2454, 958.6601
325.7275, 957.6797
326.2096, 967.7273
326.6917, 979.4458
327.1739, 989.7010
327.6560, 997.9475
328.1381, 1002.983
328.6202, 1003.667
329.1023, 1001.642
329.5844, 998.6986
330.0666, 994.6923
330.5487, 991.0808
331.0308, 985.9156
331.5129, 983.3597
331.9950, 989.9988
332.4771, 1009.019
332.9593, 1027.188
333.4414, 1036.720
333.9235, 1039.139
334.4056, 1037.532
334.8877, 1031.353
335.3698, 1025.004
335.8520, 1024.268
336.3341, 1028.973
336.8162, 1034.211
337.2983, 1039.304
337.7804, 1044.497
338.2625, 1050.061
338.7447, 1055.973
339.2268, 1061.802
339.7089, 1066.987
340.1910, 1071.781
340.6731, 1078.631
341.1552, 1089.184
341.6374, 1099.486
342.1195, 1109.867
342.6016, 1118.841
343.0837, 1122.833
343.5658, 1120.306
344.0479, 1115.938
344.5301, 1118.919
345.0122, 1133.282
345.4943, 1148.351
345.9764, 1171.344
346.4585, 1189.751
346.9406, 1189.079
347.4228, 1172.525
347.9049, 1159.387
348.3870, 1169.002
348.8691, 1201.953
349.3512, 1228.768
349.8333, 1247.195
350.3155, 1261.267
350.7976, 1270.032
351.2797, 1275.681
351.7618, 1280.725
352.2439, 1286.108
352.7260, 1292.496
353.2082, 1301.455
353.6903, 1313.472
354.1724, 1326.286
354.6545, 1341.189
355.1366, 1355.429
355.6187, 1367.083
356.1009, 1376.032
356.5830, 1382.950
357.0651, 1388.089
357.5472, 1391.603
358.0293, 1393.473
358.5114, 1392.009
358.9936, 1392.664
359.4757, 1404.426
359.9578, 1421.918
360.4399, 1431.131
360.9220, 1420.426
361.4041, 1405.911
361.8863, 1405.262
362.3684, 1416.574
362.8505, 1424.722
363.3326, 1422.550
363.8147, 1413.105
364.2968, 1403.412
364.7790, 1393.889
365.2611, 1383.325
365.7432, 1372.212
366.2253, 1359.473
366.7074, 1342.869
367.1895, 1322.008
367.6717, 1300.542
368.1538, 1281.992
368.6359, 1266.588
369.1180, 1253.840
369.6001, 1248.832
370.0822, 1241.050
370.5644, 1222.194
371.0465, 1197.190
371.5286, 1176.896
372.0107, 1167.638
372.4928, 1165.724
372.9749, 1159.808
373.4571, 1148.797
373.9392, 1135.220
374.4213, 1118.113
374.9034, 1099.732
375.3855, 1080.157
375.8676, 1060.225
376.3498, 1043.789
376.8319, 1038.017
377.3140, 1043.234
377.7961, 1037.835
378.2782, 1014.312
378.7603, 989.9114
379.2425, 971.5506
379.7246, 958.4496
380.2067, 949.6512
380.6888, 946.6442
381.1709, 945.3111
381.6530, 938.8936
382.1352, 927.2581
382.6173, 918.6224
383.0994, 918.3398
383.5815, 920.2993
384.0636, 915.1260
384.5457, 901.5592
385.0279, 889.4979
385.5100, 882.7549
385.9921, 879.9945
386.4742, 880.3388
386.9563, 883.6691
387.4384, 886.4005
387.9206, 885.1827
388.4027, 880.0750
388.8848, 876.4936
389.3669, 875.8393
389.8490, 875.0909
390.3311, 873.4398
390.8133, 870.7623
391.2954, 866.2411
391.7775, 859.4932
392.2596, 852.5919
392.7417, 850.0080
393.2238, 855.7291
393.7060, 857.9678
394.1881, 852.4953
394.6702, 847.4873
395.1523, 849.7654
395.6344, 857.6957
396.1165, 863.6007
396.5987, 860.1711
397.0808, 849.7276
397.5629, 847.7372
398.0450, 860.3184
398.5271, 870.4041
399.0092, 873.0017
399.4914, 870.6592
399.9735, 864.5667
400.4556, 854.5315
400.9377, 845.6995
401.4198, 844.7787
401.9019, 850.6996
402.3841, 854.2936
402.8662, 853.2656
403.3483, 850.9671
403.8304, 850.0210
404.3125, 850.2868
404.7946, 851.4790
405.2768, 852.1508
405.7589, 854.7264
406.2410, 863.1068
406.7231, 876.1945
407.2052, 887.5541
407.6873, 893.6816
408.1695, 896.6047
408.6516, 901.9601
409.1337, 913.4139
409.6158, 920.5156
410.0979, 918.1758
410.5800, 913.3287
411.0622, 913.1412
411.5443, 917.9838
412.0264, 922.5088
412.5085, 921.3022
412.9906, 914.2723
413.4727, 910.3474
413.9549, 909.9486
414.4370, 912.5451
414.9191, 919.8826
415.4012, 929.4992
415.8833, 938.5881
416.3654, 946.1750
416.8476, 952.7062
417.3297, 958.0195
417.8118, 961.6674
418.2939, 968.8067
418.7760, 984.0186
419.2581, 998.3560
419.7403, 1004.223
420.2224, 1003.996
420.7045, 1006.544
421.1866, 1018.481
421.6687, 1033.775
422.1508, 1043.189
422.6330, 1047.013
423.1151, 1052.335
423.5972, 1062.042
424.0793, 1075.509
424.5614, 1091.969
425.0435, 1112.420
425.5257, 1132.365
426.0078, 1151.740
426.4899, 1169.379
426.9720, 1182.781
427.4541, 1192.231
427.9362, 1201.336
428.4184, 1212.798
428.9005, 1226.693
429.3826, 1243.978
429.8647, 1266.940
430.3468, 1290.589
430.8289, 1314.384
431.3111, 1338.159
431.7932, 1361.318
432.2753, 1383.818
432.7574, 1407.136
433.2395, 1433.547
433.7216, 1463.357
434.2038, 1493.839
434.6859, 1524.083
435.1680, 1556.260
435.6501, 1594.491
436.1322, 1635.077
436.6143, 1669.647
437.0965, 1691.728
437.5786, 1710.287
438.0607, 1738.108
438.5428, 1774.597
439.0249, 1806.532
439.5070, 1828.623
439.9892, 1845.696
440.4713, 1865.127
440.9534, 1887.455
441.4355, 1906.463
441.9176, 1916.413
442.3997, 1925.631
442.8819, 1945.943
443.3640, 1974.215
443.8461, 1993.827
444.3282, 1993.370
444.8103, 1977.520
445.2924, 1965.142
445.7746, 1958.240
446.2567, 1952.515
446.7388, 1951.959
447.2209, 1949.701
447.7030, 1938.254
448.1852, 1917.951
448.6673, 1896.975
449.1494, 1883.617
449.6315, 1876.852
450.1136, 1863.883
450.5957, 1838.454
451.0779, 1818.630
451.5600, 1812.068
452.0421, 1814.255
452.5242, 1821.559
453.0063, 1833.902
453.4884, 1847.396
453.9706, 1857.154
454.4527, 1865.395
454.9348, 1879.964
455.4169, 1903.033
455.8990, 1928.396
456.3811, 1950.402
456.8633, 1969.466
457.3454, 1991.935
457.8275, 2020.131
458.3096, 2049.448
458.7917, 2076.731
459.2738, 2103.928
459.7560, 2136.093
460.2381, 2174.705
460.7202, 2213.751
461.2023, 2242.987
461.6844, 2257.948
462.1665, 2279.322
462.6487, 2315.661
463.1308, 2349.372
463.6129, 2375.524
464.0950, 2393.890
464.5771, 2405.283
465.0592, 2410.251
465.5414, 2407.962
466.0235, 2397.662
466.5056, 2379.631
466.9877, 2349.616
467.4698, 2298.533
467.9519, 2244.293
468.4341, 2209.169
468.9162, 2188.992
469.3983, 2153.195
469.8804, 2079.365
470.3625, 1994.377
470.8446, 1924.841
471.3268, 1868.944
471.8089, 1811.187
472.2910, 1742.822
472.7731, 1672.897
473.2552, 1622.001
473.7373, 1609.819
474.2195, 1579.172
474.7016, 1512.880
475.1837, 1442.157
475.6658, 1386.356
476.1479, 1345.064
476.6300, 1309.911
477.1122, 1276.083
477.5943, 1242.998
478.0764, 1207.978
478.5585, 1166.982
479.0406, 1134.653
479.5227, 1122.004
480.0049, 1113.558
480.4870, 1099.725
480.9691, 1080.023
481.4512, 1058.847
481.9333, 1036.887
482.4154, 1015.929
482.8976, 999.8479
483.3797, 988.8300
483.8618, 977.9863
484.3439, 965.0865
484.8260, 950.6362
485.3081, 935.0101
485.7903, 916.4243
486.2724, 901.2628
486.7545, 890.2690
487.2366, 883.4510
487.7187, 883.7632
488.2008, 889.1841
488.6830, 891.5355
489.1651, 884.3993
489.6472, 869.9803
490.1293, 858.7974
490.6114, 853.4567
491.0935, 846.8160
491.5757, 834.2618
492.0578, 822.7475
492.5399, 818.8256
493.0220, 822.2328
493.5041, 825.6526
493.9862, 823.5696
494.4684, 817.7170
494.9505, 812.7023
495.4326, 808.8353
495.9147, 802.8965
496.3968, 791.4329
496.8789, 778.3273
497.3611, 771.4605
497.8432, 772.1252
498.3253, 774.2176
498.8074, 776.9734
499.2895, 779.8129
499.7716, 782.3873
500.2538, 784.5357
500.7359, 786.1102
501.2180, 787.1625
501.7001, 787.2706
502.1822, 784.3105
502.6643, 775.2391
503.1465, 768.1473
503.6286, 763.3796
504.1107, 760.9401
504.5928, 762.7609
505.0749, 767.6268
505.5570, 770.0368
506.0392, 763.4980
506.5213, 752.7992
507.0034, 751.8051
507.4855, 762.0721
507.9676, 767.4897
508.4497, 758.1737
508.9319, 743.4324
509.4140, 739.2211
509.8961, 747.5082
510.3782, 753.5797
510.8603, 750.5968
511.3424, 746.1165
511.8246, 747.6217
512.3067, 754.2827
512.7888, 761.1054
513.2709, 765.4022
513.7531, 766.9853
514.2352, 764.6592
514.7173, 753.7820
515.1994, 748.2100
515.6815, 751.5941
516.1636, 757.2350
516.6458, 763.5682
517.1279, 768.9412
517.6100, 769.8524
518.0921, 763.0152
518.5742, 752.2030
519.0563, 741.8330
519.5385, 731.9511
520.0206, 729.3354
520.5027, 739.1016
520.9848, 752.3686
521.4669, 757.4873
521.9490, 754.6715
522.4312, 751.9094
522.9133, 749.3629
523.3954, 748.1320
523.8775, 750.6968
524.3596, 754.9917
524.8417, 755.4886
525.3239, 749.8601
525.8060, 742.7626
526.2881, 742.9035
526.7702, 753.7286
527.2523, 759.6140
527.7344, 754.7039
528.2166, 750.6871
528.6987, 751.2689
529.1808, 755.7966
529.6629, 763.8193
530.1450, 776.6785
530.6271, 787.7797
531.1093, 788.2638
531.5914, 780.6327
532.0735, 775.6533
532.5556, 775.6808
533.0377, 776.7857
533.5198, 775.2269
534.0020, 771.3615
534.4841, 770.2660
534.9662, 774.5372
535.4483, 778.3260
535.9304, 777.3369
536.4125, 776.1154
536.8947, 782.5535
537.3768, 796.8954
537.8589, 809.0732
538.3410, 807.7040
538.8231, 794.2001
539.3052, 788.1840
539.7874, 794.3758
540.2695, 798.8872
540.7516, 794.2216
541.2337, 787.4292
541.7158, 785.4312
542.1979, 789.2062
542.6801, 793.7405
543.1622, 796.3077
543.6443, 797.9387
544.1264, 799.8666
544.6085, 802.2305
545.0906, 805.2455
545.5728, 808.9751
546.0549, 813.5532
546.5370, 819.4398
547.0191, 829.1909
547.5012, 835.6922
547.9833, 835.6269
548.4655, 835.3788
548.9476, 839.8041
549.4297, 847.1713
549.9117, 852.8447
550.3939, 854.4490
550.8760, 852.7519
551.3581, 847.0463
551.8402, 837.0287
552.3223, 833.6035
552.8044, 841.2846
553.2866, 851.9308
553.7687, 859.1838
554.2508, 863.5676
554.7329, 866.5594
555.2150, 867.3203
555.6971, 867.8129
556.1793, 869.4916
556.6614, 871.4220
557.1435, 871.6476
557.6256, 869.8638
558.1077, 868.0267
558.5898, 867.8998
559.0720, 869.5030
559.5541, 874.3088
560.0362, 884.0301
560.5183, 894.4774
561.0004, 907.8777
561.4825, 919.4828
561.9647, 923.1947
562.4468, 918.5925
562.9289, 914.5915
563.4110, 918.7795
563.8931, 926.6468
564.3752, 929.8503
564.8574, 928.4262
565.3395, 927.8550
565.8216, 930.7109
566.3037, 935.9484
566.7858, 941.8184
567.2679, 949.7717
567.7501, 954.6436
568.2322, 952.3588
568.7143, 950.9435
569.1964, 955.5298
569.6785, 964.0790
570.1606, 972.2086
570.6428, 977.9314
571.1249, 982.7825
571.6070, 988.7070
572.0891, 995.6911
572.5712, 1004.174
573.0533, 1014.479
573.5355, 1025.928
574.0176, 1040.871
574.4997, 1056.328
574.9818, 1063.554
575.4639, 1054.557
575.9460, 1050.162
576.4282, 1065.563
576.9103, 1085.867
577.3924, 1090.486
577.8745, 1079.735
578.3566, 1072.264
578.8387, 1083.036
579.3209, 1106.277
579.8030, 1117.482
580.2851, 1108.901
580.7672, 1107.062
581.2493, 1124.421
581.7314, 1143.259
582.2136, 1152.058
582.6957, 1152.623
583.1778, 1154.305
583.6599, 1161.055
584.1420, 1170.374
584.6241, 1179.913
585.1063, 1190.051
585.5884, 1203.909
586.0705, 1222.626
586.5526, 1238.109
587.0347, 1240.160
587.5168, 1227.963
587.9990, 1224.191
588.4811, 1232.111
588.9632, 1244.883
589.4453, 1267.145
589.9274, 1290.199
590.4095, 1305.932
590.8917, 1313.159
591.3738, 1316.066
591.8559, 1312.851
592.3380, 1309.111
592.8201, 1320.559
593.3022, 1347.158
593.7844, 1369.673
594.2665, 1380.240
594.7486, 1383.881
595.2307, 1386.442
595.7128, 1386.066
596.1949, 1393.994
596.6771, 1418.268
597.1592, 1442.559
597.6413, 1459.995
598.1234, 1472.264
598.6055, 1481.407
599.0876, 1488.386
599.5698, 1496.043
600.0519, 1509.992
600.5340, 1528.793
601.0161, 1537.895
601.4982, 1533.569
601.9803, 1532.003
602.4625, 1541.917
602.9446, 1558.637
603.4267, 1573.710
603.9088, 1586.929
604.3909, 1599.500
604.8730, 1613.717
605.3552, 1625.588
605.8373, 1631.053
606.3194, 1631.647
606.8015, 1631.541
607.2836, 1632.631
607.7657, 1634.030
608.2479, 1633.104
608.7300, 1628.899
609.2121, 1631.971
609.6942, 1647.924
610.1763, 1662.345
610.6584, 1665.377
611.1406, 1663.045
611.6227, 1664.411
612.1048, 1672.128
612.5869, 1677.803
613.0690, 1674.492
613.5511, 1669.293
614.0333, 1670.129
614.5154, 1676.940
614.9975, 1686.968
615.4796, 1699.111
615.9617, 1710.678
616.4438, 1715.247
616.9260, 1710.153
617.4081, 1707.145
617.8902, 1706.238
618.3723, 1708.091
618.8544, 1713.325
619.3365, 1721.267
619.8187, 1731.415
620.3008, 1744.957
620.7829, 1756.308
621.2650, 1760.658
621.7471, 1761.140
622.2292, 1760.550
622.7114, 1760.104
623.1935, 1765.376
623.6756, 1781.002
624.1577, 1801.246
624.6398, 1810.407
625.1219, 1804.728
625.6041, 1796.807
626.0862, 1784.948
626.5683, 1772.879
627.0504, 1760.758
627.5325, 1749.852
628.0146, 1742.524
628.4968, 1740.023
628.9789, 1739.342
629.4610, 1742.477
629.9431, 1744.417
630.4252, 1732.359
630.9073, 1706.318
631.3895, 1682.752
631.8716, 1673.892
632.3537, 1672.661
632.8358, 1656.539
633.3179, 1613.734
633.8000, 1579.819
634.2822, 1561.569
634.7643, 1546.135
635.2464, 1528.268
635.7285, 1508.575
636.2106, 1489.234
636.6927, 1471.690
637.1749, 1452.617
637.6570, 1428.312
638.1391, 1400.722
638.6212, 1373.707
639.1033, 1347.678
639.5854, 1320.697
640.0676, 1291.096
640.5497, 1260.758
641.0318, 1236.324
641.5139, 1225.490
641.9960, 1205.337
642.4781, 1164.922
642.9603, 1126.678
643.4424, 1103.004
643.9245, 1088.689
644.4066, 1072.933
644.8887, 1051.578
645.3708, 1031.107
645.8530, 1019.717
646.3351, 1012.261
646.8172, 996.3380
647.2993, 971.4761
647.7814, 949.5438
648.2635, 937.9239
648.7457, 932.5709
649.2278, 923.3484
649.7099, 909.3140
650.1920, 893.3884
650.6741, 870.7009
651.1563, 851.2521
651.6384, 841.5909
652.1205, 837.0512
652.6026, 829.3470
653.0847, 815.7175
653.5668, 801.7081
654.0490, 792.2386
654.5311, 784.7314
655.0132, 773.3117
655.4953, 758.4611
655.9774, 747.6552
656.4595, 745.3073
656.9417, 746.8416
657.4238, 742.9943
657.9059, 731.9022
658.3880, 721.4554
658.8701, 710.6279
659.3522, 701.7660
659.8344, 696.7372
660.3165, 693.7120
660.7986, 690.8418
661.2807, 687.9085
661.7628, 682.6964
662.2449, 670.4958
662.7271, 657.3557
663.2092, 652.8721
663.6913, 655.2440
664.1734, 654.6204
664.6555, 646.6862
665.1376, 636.2546
665.6198, 631.0741
666.1019, 632.1822
666.5840, 629.9333
667.0661, 621.2028
667.5482, 613.7845
668.0303, 612.8844
668.5125, 612.8005
668.9946, 605.8906
669.4767, 591.5056
669.9588, 580.9608
670.4409, 581.1987
670.9230, 585.6342
671.4052, 590.5604
671.8873, 594.6833
672.3694, 595.3000
672.8515, 591.6613
673.3336, 585.7798
673.8157, 579.3096
674.2979, 572.4803
674.7800, 568.9679
675.2621, 570.0931
675.7442, 571.2095
676.2263, 571.8594
676.7084, 571.2843
677.1906, 568.5522
677.6727, 563.8448
678.1548, 558.8807
678.6369, 553.9272
679.1190, 548.9556
679.6011, 543.2042
680.0833, 537.8206
680.5654, 534.3843
681.0475, 533.1320
681.5296, 533.5401
682.0117, 535.5112
682.4938, 538.3019
682.9760, 539.8832
683.4581, 540.2502
683.9402, 539.1702
684.4223, 535.7174
684.9044, 532.4555
685.3865, 532.6697
685.8687, 535.0645
686.3508, 533.1996
686.8329, 520.9976
687.3150, 513.2245
687.7971, 516.0087
