##NAMES=Pentlandite
##RRUFFID=R060144
##IDEAL CHEMISTRY=(Ni,Fe)_9_S_8_
##LOCALITY=Worthington, Ontario, Canada
##OWNER=RRUFF
##SOURCE=University of Arizona Mineral Museum
##DESCRIPTION=Bronze-white metallic massive
##STATUS=The identification of this mineral has been confirmed by X-ray diffraction and chemical analysis
##URL=rruff.info/R060144
##MEASURED CHEMISTRY=(Fe_4.80_Ni_4.12_Co_0.08_)_Î£=9_S_8_
90.26367, 10.66526
90.74579, 10.67265
91.22791, 10.74717
91.71002, 10.86674
92.19214, 10.82733
92.67426, 10.19511
93.15637, 9.237455
93.63850, 8.696152
94.12061, 9.087001
94.60273, 9.981967
95.08485, 10.36597
95.56696, 10.19638
96.04908, 9.780988
96.53120, 9.419157
97.01331, 9.116659
97.49543, 8.862840
97.97755, 8.654486
98.45966, 8.493331
98.94178, 8.380148
99.42390, 8.318013
99.90602, 8.299476
100.3881, 8.333478
100.8703, 8.448017
101.3524, 8.514773
101.8345, 8.425097
102.3166, 8.107332
102.7987, 7.956319
103.2808, 8.056300
103.7630, 8.341326
104.2451, 8.523249
104.7272, 8.598331
105.2093, 8.577308
105.6914, 8.454803
106.1735, 8.152235
106.6557, 7.887174
107.1378, 7.724055
107.6199, 7.667756
108.1020, 7.487119
108.5841, 6.960603
109.0662, 6.425092
109.5484, 6.175885
110.0305, 6.436250
110.5126, 6.757745
110.9947, 7.102951
111.4768, 7.506520
111.9590, 7.780591
112.4411, 7.893148
112.9232, 7.871927
113.4053, 7.749547
113.8874, 7.347889
114.3695, 6.994773
114.8517, 6.857340
115.3338, 7.081546
115.8159, 7.196791
116.2980, 6.945461
116.7801, 6.482230
117.2622, 6.146822
117.7444, 6.076653
118.2265, 6.167094
118.7086, 6.377474
119.1907, 6.842875
119.6728, 7.210462
120.1549, 7.205707
120.6371, 6.906698
121.1192, 6.628913
121.6013, 6.519448
122.0834, 6.541548
122.5655, 6.669938
123.0477, 7.066748
123.5298, 7.418252
124.0119, 7.341901
124.4940, 6.867946
124.9761, 6.422103
125.4582, 6.313058
125.9404, 6.475924
126.4225, 6.787635
126.9046, 7.325555
127.3867, 7.944977
127.8688, 8.435356
128.3509, 8.797488
128.8331, 9.022553
129.3152, 9.080410
129.7973, 8.982814
130.2794, 8.790641
130.7615, 8.418534
131.2436, 7.956782
131.7258, 7.741305
132.2079, 7.813927
132.6900, 8.047011
133.1721, 8.203123
133.6542, 8.279194
134.1364, 8.523042
134.6185, 9.227620
135.1006, 10.36635
135.5827, 11.10753
136.0648, 11.28722
136.5469, 11.16276
137.0291, 11.38381
137.5112, 12.02171
137.9933, 12.70432
138.4754, 13.24241
138.9575, 13.64165
139.4396, 13.82993
139.9218, 13.78590
140.4039, 13.52470
140.8860, 13.03565
141.3681, 12.13269
141.8502, 11.33984
142.3323, 11.14797
142.8145, 11.83098
143.2966, 12.39116
143.7787, 12.60339
144.2608, 12.47900
144.7429, 12.64108
145.2251, 13.41230
145.7072, 14.18184
146.1893, 14.32105
146.6714, 13.22411
147.1535, 12.40470
147.6356, 12.22921
148.1178, 12.80767
148.5999, 13.27493
149.0820, 13.48246
149.5641, 13.63954
150.0462, 13.99158
150.5283, 14.77096
151.0105, 15.50897
151.4926, 15.96090
151.9747, 16.22429
152.4568, 16.41070
152.9389, 16.46445
153.4210, 16.45888
153.9032, 16.49744
154.3853, 16.86412
154.8674, 17.03902
155.3495, 16.79872
155.8316, 15.87572
156.3138, 15.13982
156.7959, 14.75910
157.2780, 14.64435
157.7601, 14.63163
158.2422, 14.81685
158.7243, 14.99467
159.2065, 15.04896
159.6886, 14.83654
160.1707, 14.72142
160.6528, 14.86703
161.1349, 15.19461
161.6170, 15.49736
162.0992, 15.82880
162.5813, 16.03677
163.0634, 16.00044
163.5455, 15.49147
164.0276, 15.01251
164.5097, 14.82806
164.9919, 14.87454
165.4740, 14.90714
165.9561, 14.71414
166.4382, 14.49471
166.9203, 14.43216
167.4025, 14.70618
167.8846, 15.01839
168.3667, 15.18269
168.8488, 15.21675
169.3309, 15.23162
169.8130, 15.36288
170.2952, 15.49511
170.7773, 15.48146
171.2594, 15.14126
171.7415, 14.73779
172.2236, 14.47024
172.7057, 14.33493
173.1879, 14.29031
173.6700, 14.37490
174.1521, 14.52172
174.6342, 14.61800
175.1163, 14.52735
175.5984, 14.41060
176.0806, 14.49645
176.5627, 14.78644
177.0448, 15.07765
177.5269, 15.19785
178.0090, 15.18238
178.4911, 15.11744
178.9733, 15.04989
179.4554, 14.95346
179.9375, 14.74302
180.4196, 14.40524
180.9017, 14.09933
181.3839, 14.05862
181.8660, 14.21085
182.3481, 14.29671
182.8302, 14.09679
183.3123, 13.75523
183.7944, 13.63033
184.2766, 13.75583
184.7587, 13.95889
185.2408, 14.05059
185.7229, 14.03954
186.2050, 13.98068
186.6871, 13.88706
187.1693, 13.76396
187.6514, 13.62353
188.1335, 13.45210
188.6156, 13.30236
189.0977, 13.30063
189.5798, 13.43554
190.0620, 13.36925
190.5441, 13.66305
191.0262, 13.87175
191.5083, 13.84870
191.9904, 13.96989
192.4725, 14.00598
192.9547, 13.96153
193.4368, 13.59539
193.9189, 13.64467
194.4010, 13.52746
194.8831, 13.40343
195.3652, 13.51118
195.8474, 13.19182
196.3295, 13.23024
196.8116, 13.16870
197.2937, 13.15659
197.7758, 13.18816
198.2579, 13.27808
198.7401, 13.42807
199.2222, 13.56552
199.7043, 13.70682
200.1864, 13.80753
200.6685, 13.71907
201.1507, 13.39654
201.6328, 13.09739
202.1149, 12.99654
202.5970, 13.11525
203.0791, 13.21759
203.5612, 13.29584
204.0434, 13.33716
204.5255, 13.27000
205.0076, 13.04821
205.4897, 12.87658
205.9718, 12.92650
206.4539, 13.25566
206.9361, 13.44615
207.4182, 13.40977
207.9003, 13.23451
208.3824, 13.22389
208.8645, 13.44016
209.3466, 13.65882
209.8288, 13.73643
210.3109, 13.64222
210.7930, 13.53465
211.2751, 13.40199
211.7572, 13.27222
212.2393, 13.26872
212.7215, 13.45282
213.2036, 13.62840
213.6857, 13.66888
214.1678, 13.54659
214.6499, 13.36925
215.1321, 13.09623
215.6142, 12.77687
216.0963, 12.64779
216.5784, 12.77652
217.0605, 12.96591
217.5426, 13.10641
218.0248, 13.21133
218.5069, 13.21355
218.9890, 13.04894
219.4711, 12.77440
219.9532, 12.68621
220.4353, 12.91128
220.9175, 13.11344
221.3996, 13.05308
221.8817, 12.59204
222.3638, 12.22682
222.8459, 11.99328
223.3280, 11.88949
223.8102, 11.94949
224.2923, 12.30415
224.7744, 12.62386
225.2565, 12.66629
225.7386, 12.25988
226.2208, 11.99596
226.7029, 11.96369
227.1850, 12.12001
227.6671, 12.24874
228.1492, 12.34990
228.6313, 12.42354
229.1135, 12.46863
229.5956, 12.48137
230.0777, 12.47094
230.5598, 12.41080
231.0419, 12.32423
231.5240, 12.33627
232.0062, 12.52059
232.4883, 12.70361
232.9704, 12.78272
233.4525, 12.73453
233.9346, 12.62874
234.4167, 12.42832
234.8989, 12.16888
235.3810, 12.02995
235.8631, 12.09448
236.3452, 12.16805
236.8273, 12.12134
237.3095, 11.83558
237.7916, 11.69000
238.2737, 11.74341
238.7558, 11.95437
239.2379, 12.16735
239.7200, 12.46255
240.2022, 12.65134
240.6843, 12.59468
241.1664, 12.07343
241.6485, 11.79664
242.1306, 11.88865
242.6127, 12.24714
243.0949, 12.48759
243.5770, 12.59899
244.0591, 12.60888
244.5412, 12.51011
245.0233, 12.20542
245.5054, 12.00701
245.9876, 11.92787
246.4697, 11.96142
246.9518, 12.10861
247.4339, 12.47830
247.9160, 12.80015
248.3981, 12.92885
248.8803, 12.77052
249.3624, 12.64261
249.8445, 12.54137
250.3266, 12.47625
250.8087, 12.48395
251.2909, 12.61272
251.7730, 12.73586
252.2551, 12.79633
252.7372, 12.78160
253.2193, 12.72654
253.7014, 12.57882
254.1836, 12.41387
254.6657, 12.43446
255.1478, 12.77848
255.6299, 13.06520
256.1120, 13.10046
256.5941, 12.74281
257.0763, 12.61222
257.5584, 12.85190
258.0405, 13.22736
258.5226, 13.06336
259.0047, 13.18492
259.4868, 13.22138
259.9690, 13.17730
260.4511, 12.81152
260.9332, 12.86116
261.4153, 12.74432
261.8974, 12.62066
262.3795, 12.72877
262.8617, 12.88301
263.3438, 12.99035
263.8259, 13.01259
264.3080, 12.95430
264.7901, 12.57431
265.2722, 12.60974
265.7544, 12.47866
266.2365, 12.15088
266.7186, 12.10812
267.2007, 12.16913
267.6829, 12.34294
268.1650, 12.65054
268.6471, 12.68112
269.1292, 12.32489
269.6113, 11.86579
270.0934, 11.67883
270.5756, 11.83686
271.0577, 11.97851
271.5398, 11.98934
272.0219, 11.87494
272.5040, 11.83398
272.9861, 11.87862
273.4683, 11.97038
273.9504, 12.08822
274.4325, 12.24470
274.9146, 12.35449
275.3967, 12.40293
275.8788, 12.38912
276.3610, 12.25773
276.8431, 11.95333
277.3252, 11.70310
277.8073, 11.75017
278.2894, 12.11897
278.7715, 12.34531
279.2537, 12.49685
279.7358, 12.56328
280.2179, 12.54920
280.7000, 12.21341
281.1821, 12.29303
281.6642, 12.20618
282.1464, 12.11249
282.6285, 12.25058
283.1106, 12.16229
283.5927, 12.30724
284.0748, 12.24127
284.5569, 11.93480
285.0391, 11.68319
285.5212, 11.76460
286.0033, 12.14268
286.4854, 12.37429
286.9675, 12.37138
287.4496, 12.24625
287.9318, 12.23632
288.4139, 12.34355
288.8960, 12.42537
289.3781, 12.38297
289.8602, 12.23765
290.3424, 12.07875
290.8245, 11.89416
291.3066, 11.74881
291.7887, 11.78660
292.2708, 11.98854
292.7530, 12.17630
293.2351, 12.24904
293.7172, 12.23157
294.1993, 12.17422
294.6814, 12.06493
295.1635, 11.98536
295.6457, 12.08579
296.1278, 12.32314
296.6099, 12.51311
297.0920, 12.52259
297.5741, 12.43444
298.0562, 12.42258
298.5384, 12.49553
299.0205, 12.56453
299.5026, 12.52128
299.9847, 12.40211
300.4668, 12.30104
300.9489, 12.23895
301.4311, 12.22577
301.9132, 12.30192
302.3953, 12.46462
302.8774, 12.44755
303.3595, 12.61736
303.8416, 12.70208
304.3238, 12.70626
304.8059, 12.38873
305.2880, 12.33122
305.7701, 12.54962
306.2522, 12.68291
306.7343, 12.73568
307.2165, 12.46674
307.6986, 12.61322
308.1807, 12.59322
308.6628, 12.89661
309.1449, 13.04806
309.6270, 12.95642
310.1092, 12.69271
310.5913, 12.48837
311.0734, 12.53302
311.5555, 12.65852
312.0376, 12.71569
312.5197, 12.65903
313.0019, 12.58343
313.4840, 12.50357
313.9661, 12.44342
314.4482, 12.45053
314.9304, 12.66895
315.4125, 12.87275
315.8946, 12.89030
316.3767, 12.65887
316.8588, 12.46149
317.3409, 12.45928
317.8231, 12.54682
318.3052, 12.58501
318.7873, 12.41528
319.2694, 12.28972
319.7515, 12.19298
320.2336, 12.38741
320.7158, 12.49131
321.1979, 12.50953
321.6800, 12.18548
322.1621, 12.30341
322.6442, 12.24421
323.1263, 12.17775
323.6085, 12.35788
324.0906, 12.08361
324.5727, 12.25984
325.0548, 12.02129
325.5369, 11.90011
326.0190, 11.86944
326.5012, 12.09924
326.9833, 12.22246
327.4654, 12.15800
327.9475, 11.95120
328.4296, 11.78288
328.9117, 11.56158
329.3939, 11.46074
329.8760, 11.41144
330.3581, 11.62629
330.8402, 11.75060
331.3223, 11.78924
331.8044, 11.48561
332.2866, 11.62395
332.7687, 11.58517
333.2508, 11.53913
333.7329, 11.78841
334.2150, 11.54013
334.6971, 11.45098
335.1793, 11.59545
335.6614, 11.80682
336.1435, 11.84280
336.6256, 11.60500
337.1077, 11.45884
337.5899, 11.53260
338.0720, 11.81143
338.5541, 11.97532
339.0362, 12.00873
339.5183, 11.96680
340.0005, 11.87717
340.4826, 11.72564
340.9647, 11.62172
341.4468, 11.58406
341.9289, 11.60617
342.4110, 11.69164
342.8932, 11.85313
343.3753, 11.98947
343.8574, 11.99986
344.3395, 11.89533
344.8216, 11.86126
345.3037, 11.93644
345.7859, 12.04746
346.2680, 12.03713
346.7501, 11.91520
347.2322, 11.84316
347.7143, 11.95446
348.1964, 12.18633
348.6786, 12.32239
349.1607, 12.34339
349.6428, 12.34556
350.1249, 12.43186
350.6070, 12.58828
351.0891, 12.77536
351.5713, 13.03199
352.0534, 13.28102
352.5355, 13.24115
353.0176, 13.47959
353.4997, 13.63293
353.9818, 13.70575
354.4640, 13.45687
354.9461, 13.62340
355.4282, 13.62345
355.9103, 13.61667
356.3924, 13.84167
356.8745, 13.63958
357.3567, 13.86091
357.8388, 13.91321
358.3209, 14.04287
358.8030, 14.00502
359.2851, 14.01891
359.7672, 14.20036
360.2494, 14.28904
360.7315, 14.30040
361.2136, 14.68219
361.6957, 14.91414
362.1779, 15.00430
362.6600, 14.52796
363.1421, 14.78313
363.6242, 14.74514
364.1063, 14.69513
364.5884, 15.05326
365.0706, 14.65932
365.5527, 15.22281
366.0348, 15.36485
366.5169, 15.19814
366.9990, 14.75252
367.4811, 14.53061
367.9633, 14.79109
368.4454, 15.14312
368.9275, 15.36462
369.4096, 15.41715
369.8917, 15.38695
370.3738, 15.22043
370.8560, 14.97311
371.3381, 14.80702
371.8202, 14.78523
372.3023, 14.75658
372.7844, 14.65353
373.2665, 14.44414
373.7487, 14.29497
374.2308, 14.22360
374.7129, 14.19490
375.1950, 14.17965
375.6771, 14.21025
376.1592, 14.14144
376.6414, 13.88067
377.1235, 13.46305
377.6056, 13.27171
378.0877, 13.36840
378.5698, 13.48375
379.0519, 13.33082
379.5341, 12.90858
380.0162, 12.62834
380.4983, 12.61754
380.9804, 12.71904
381.4625, 12.52591
381.9446, 12.04299
382.4268, 11.60870
382.9089, 11.43256
383.3910, 11.46883
383.8731, 11.62375
384.3553, 11.92985
384.8374, 12.15643
385.3195, 11.89873
385.8016, 11.31775
386.2837, 10.88452
386.7658, 10.98552
387.2480, 11.26631
387.7301, 11.26084
388.2122, 10.97702
388.6943, 10.64284
389.1764, 10.37835
389.6585, 9.937401
390.1407, 10.20474
390.6228, 10.32224
391.1049, 10.29794
391.5870, 9.707160
392.0691, 9.847883
392.5512, 9.695449
393.0334, 9.530984
393.5155, 9.774658
393.9976, 9.266275
394.4797, 9.503478
394.9618, 9.443060
395.4439, 9.206079
395.9261, 9.355851
396.4082, 9.511237
396.8903, 9.684217
397.3724, 9.784644
397.8545, 9.756506
398.3366, 9.593222
398.8188, 9.473441
399.3009, 9.417728
399.7830, 9.403749
400.2651, 9.420144
400.7472, 9.509538
401.2293, 9.562221
401.7115, 9.536240
402.1936, 9.473402
402.6757, 9.522264
403.1578, 9.799178
403.6399, 9.986197
404.1220, 9.909194
404.6042, 9.498692
405.0863, 9.228558
405.5684, 9.117755
406.0505, 9.120661
406.5326, 9.203100
407.0147, 9.377691
407.4969, 9.544024
407.9790, 9.698582
408.4611, 9.820548
408.9432, 9.798577
409.4254, 9.621155
409.9075, 9.420503
410.3896, 9.295161
410.8717, 9.233196
411.3538, 9.186756
411.8359, 9.156292
412.3181, 9.121359
412.8002, 9.023709
413.2823, 8.887752
413.7644, 8.804130
414.2465, 8.886695
414.7286, 9.020731
415.2108, 9.030711
415.6929, 8.904812
416.1750, 8.792029
416.6571, 8.849766
417.1392, 8.977113
417.6213, 9.038100
418.1035, 8.941379
418.5856, 8.814885
419.0677, 8.699279
419.5498, 8.605968
420.0319, 8.582412
420.5140, 8.835933
420.9962, 8.744293
421.4783, 9.033610
421.9604, 9.173083
422.4425, 9.170757
422.9246, 8.601947
423.4067, 8.764634
423.8889, 8.634162
424.3710, 8.491675
424.8531, 8.757321
425.3352, 8.270901
425.8173, 8.530075
426.2994, 8.491618
426.7816, 8.589372
427.2637, 8.392168
427.7458, 8.407275
428.2279, 8.357472
428.7100, 8.273678
429.1921, 8.120362
429.6743, 7.961943
430.1564, 7.993470
430.6385, 8.280703
431.1206, 8.503714
431.6028, 8.518083
432.0849, 8.095679
432.5670, 8.374520
433.0491, 8.503510
433.5312, 8.490708
434.0133, 7.911415
434.4955, 8.063610
434.9776, 7.922668
435.4597, 7.769706
435.9418, 8.024868
436.4239, 7.527971
436.9060, 7.980858
437.3882, 8.136855
437.8703, 8.173174
438.3524, 8.128489
438.8345, 8.050046
439.3166, 7.939548
439.7987, 7.817506
440.2809, 7.661818
440.7630, 7.511938
441.2451, 7.430808
441.7272, 7.545625
442.2093, 7.643806
442.6914, 7.310153
443.1736, 7.709108
443.6557, 7.958203
444.1378, 8.065501
444.6199, 7.606315
445.1020, 7.878626
445.5841, 7.857789
446.0663, 7.824941
446.5484, 8.200208
447.0305, 7.823411
447.5126, 8.192208
447.9947, 8.098245
448.4768, 7.983933
448.9590, 7.871233
449.4411, 7.759964
449.9232, 7.694092
450.4053, 7.712143
450.8874, 7.718896
451.3695, 7.605052
451.8517, 7.298608
452.3338, 7.219018
452.8159, 7.496223
453.2980, 7.911904
453.7801, 7.972915
454.2622, 7.652217
454.7444, 7.370102
455.2265, 7.367276
455.7086, 7.565329
456.1907, 7.612150
456.6729, 7.497908
457.1550, 7.365648
457.6371, 7.346760
458.1192, 7.410763
458.6013, 7.487866
459.0834, 7.570837
459.5656, 7.641898
460.0477, 7.647844
460.5298, 7.619519
461.0119, 7.646986
461.4940, 7.896172
461.9761, 8.139413
462.4583, 8.170264
462.9404, 7.958616
463.4225, 7.741272
463.9046, 7.634631
464.3867, 7.569379
464.8688, 7.482549
465.3510, 7.268772
465.8331, 7.132685
466.3152, 7.146318
466.7973, 7.276865
467.2794, 7.405881
467.7615, 7.558678
468.2437, 7.678055
468.7258, 7.739305
469.2079, 7.728528
469.6900, 7.721498
470.1721, 7.722902
470.6542, 7.722883
471.1364, 7.712291
471.6185, 7.691826
472.1006, 7.650634
472.5827, 7.563166
473.0648, 7.468235
473.5469, 7.525146
474.0291, 7.751323
474.5112, 7.924733
474.9933, 7.862604
475.4754, 7.629159
475.9575, 7.507145
476.4396, 7.513566
476.9218, 7.576483
477.4039, 7.652087
477.8860, 7.725102
478.3681, 7.759270
478.8503, 7.743186
479.3324, 7.683333
479.8145, 7.518484
480.2966, 7.295582
480.7787, 7.191885
481.2608, 7.400919
481.7430, 7.686405
482.2251, 7.897979
482.7072, 8.017965
483.1893, 8.064609
483.6714, 7.992630
484.1535, 7.872877
484.6357, 7.777148
485.1178, 7.741738
485.5999, 7.702028
486.0820, 7.667686
486.5641, 7.626097
487.0462, 7.513450
487.5284, 7.198672
488.0105, 6.990490
488.4926, 7.047004
488.9747, 7.429053
489.4568, 7.688995
489.9389, 7.825830
490.4211, 7.838425
490.9032, 7.651812
491.3853, 7.243150
491.8674, 7.018439
492.3495, 7.110904
492.8316, 7.374867
493.3138, 7.496428
493.7959, 7.486459
494.2780, 7.459659
494.7601, 7.516835
495.2422, 7.594100
495.7243, 7.538286
496.2065, 7.336130
496.6886, 7.152790
497.1707, 7.118709
497.6528, 7.183053
498.1349, 7.285679
498.6170, 7.482150
499.0992, 7.606937
499.5813, 7.491240
500.0634, 7.232708
500.5455, 7.070213
501.0276, 7.173522
501.5097, 7.306236
501.9919, 7.370636
502.4740, 7.348509
502.9561, 7.338597
503.4382, 7.366798
503.9203, 7.396470
504.4025, 7.401289
504.8846, 7.364705
505.3667, 7.340709
505.8488, 7.350204
506.3309, 7.363074
506.8130, 7.291460
507.2952, 7.103308
507.7773, 6.973541
508.2594, 6.964996
508.7415, 7.069859
509.2236, 6.980610
509.7057, 7.371124
510.1879, 7.611803
510.6700, 7.710677
511.1521, 7.243060
511.6342, 7.506945
512.1163, 7.477677
512.5984, 7.436392
513.0806, 7.803247
513.5627, 7.418022
514.0448, 7.383505
514.5269, 7.153144
515.0090, 7.022335
515.4911, 7.041791
515.9733, 7.184893
516.4554, 7.279232
516.9375, 7.168376
517.4196, 7.054657
517.9017, 7.075939
518.3839, 7.339642
518.8660, 7.512792
519.3481, 7.512544
519.8302, 7.425273
520.3123, 7.331184
520.7944, 7.176801
521.2766, 7.111703
521.7587, 7.164773
522.2408, 7.322646
522.7229, 7.064064
523.2050, 7.437144
523.6871, 7.660372
524.1693, 7.741815
524.6514, 7.256761
525.1335, 7.230599
525.6156, 7.577233
526.0977, 7.774019
526.5798, 7.829010
527.0620, 7.317514
527.5441, 7.537519
528.0262, 7.464370
528.5083, 7.379201
528.9904, 7.702162
529.4725, 7.273059
529.9547, 7.589549
530.4368, 7.747617
530.9189, 7.907887
531.4010, 7.823804
531.8831, 7.497540
532.3652, 7.248510
532.8474, 7.254717
533.3295, 7.317301
533.8116, 7.302289
534.2937, 7.073518
534.7758, 6.982219
535.2579, 7.174434
535.7401, 7.439796
536.2222, 7.433347
536.7043, 6.947344
537.1865, 6.690145
537.6686, 6.891550
538.1507, 7.428325
538.6328, 7.727393
539.1149, 7.773579
539.5970, 7.693689
540.0792, 7.499483
540.5613, 7.228854
541.0434, 7.090604
541.5255, 7.102040
542.0076, 7.147934
542.4897, 7.104831
542.9719, 7.014334
543.4540, 6.959666
543.9361, 6.969538
544.4182, 7.011895
544.9003, 7.098678
545.3824, 7.198925
545.8646, 7.243933
546.3467, 7.148106
546.8288, 7.042649
547.3109, 6.964248
547.7930, 6.915907
548.2751, 6.958262
548.7573, 7.219871
549.2394, 7.481836
549.7215, 7.625848
550.2036, 7.607843
550.6857, 7.568816
551.1678, 7.501521
551.6500, 7.420533
552.1321, 7.331508
552.6142, 7.221786
553.0963, 7.201622
553.5784, 7.359652
554.0605, 7.569654
554.5427, 7.404239
555.0248, 6.889354
555.5069, 6.494738
555.9890, 6.616371
556.4711, 7.008829
556.9532, 7.257015
557.4354, 7.344295
557.9175, 7.350111
558.3996, 7.309886
558.8817, 7.230838
559.3638, 7.092717
559.8459, 6.777657
560.3281, 6.639603
560.8102, 7.037134
561.2923, 7.655141
561.7744, 7.995502
562.2565, 7.744442
562.7386, 7.448183
563.2208, 7.157013
563.7029, 6.893721
564.1850, 6.824649
564.6671, 7.059786
565.1492, 7.294022
565.6313, 7.347926
566.1135, 7.197354
566.5956, 7.234581
567.0777, 7.520235
567.5598, 7.778625
568.0419, 7.648810
568.5240, 7.212242
569.0062, 6.875207
569.4883, 6.717250
569.9704, 6.695584
570.4525, 6.852855
570.9346, 7.113295
571.4167, 7.274923
571.8989, 7.155284
572.3810, 6.983142
572.8631, 6.883993
573.3452, 6.863215
573.8273, 6.928291
574.3094, 7.233969
574.7916, 7.507446
575.2737, 7.565327
575.7558, 7.270150
576.2379, 7.158250
576.7200, 7.429265
577.2021, 7.733101
577.6843, 7.731850
578.1664, 7.283318
578.6485, 6.945673
579.1306, 6.760571
579.6127, 6.729450
580.0948, 6.943627
580.5770, 7.403241
581.0591, 7.686179
581.5412, 7.500304
582.0233, 7.095628
582.5054, 7.080883
582.9875, 7.405058
583.4697, 7.679237
583.9518, 7.519247
584.4340, 7.233821
584.9161, 7.188813
585.3982, 7.450604
585.8803, 7.691037
586.3624, 7.821686
586.8445, 7.814280
