##NAMES=Pentlandite
##RRUFFID=R060144
##IDEAL CHEMISTRY=(Ni,Fe)_9_S_8_
##LOCALITY=Worthington, Ontario, Canada
##OWNER=RRUFF
##SOURCE=University of Arizona Mineral Museum
##DESCRIPTION=Bronze-white metallic massive
##STATUS=The identification of this mineral has been confirmed by X-ray diffraction and chemical analysis
##URL=rruff.info/R060144
##MEASURED CHEMISTRY=(Fe_4.80_Ni_4.12_Co_0.08_)_Î£=9_S_8_
92.02539, 465.8079
92.50751, 488.9720
92.98962, 503.3021
93.47174, 494.3212
93.95386, 474.9740
94.43597, 453.4695
94.91809, 433.7924
95.40021, 415.5771
95.88232, 395.6808
96.36444, 372.1359
96.84656, 349.7704
97.32867, 330.8856
97.81078, 314.1582
98.29290, 297.2803
98.77502, 278.0302
99.25713, 255.4845
99.73925, 235.2914
100.2214, 217.3270
100.7035, 200.9308
101.1856, 185.8016
101.6677, 171.8184
102.1498, 159.1547
102.6320, 148.0846
103.1141, 139.0007
103.5962, 130.7312
104.0783, 123.6284
104.5604, 117.1121
105.0425, 110.4816
105.5247, 103.3933
106.0068, 96.46167
106.4889, 90.83886
106.9710, 86.49947
107.4531, 82.63761
107.9352, 78.76188
108.4173, 74.97814
108.8995, 71.87793
109.3816, 69.90321
109.8637, 68.60540
110.3458, 67.49467
110.8279, 66.53293
111.3100, 65.69547
111.7922, 64.96277
112.2743, 64.35484
112.7564, 63.80131
113.2385, 63.27873
113.7206, 62.79398
114.2027, 62.36261
114.6849, 61.99755
115.1670, 61.67791
115.6491, 61.33654
116.1312, 60.91197
116.6133, 60.53473
117.0954, 60.25923
117.5776, 60.03845
118.0597, 59.78056
118.5418, 59.40420
119.0239, 58.90333
119.5060, 58.67854
119.9881, 58.91500
120.4703, 59.19074
120.9524, 59.35575
121.4345, 59.40305
121.9166, 59.40004
122.3987, 59.43363
122.8808, 59.51377
123.3630, 59.34378
123.8451, 58.73265
124.3272, 57.96793
124.8093, 57.35849
125.2914, 56.97205
125.7735, 56.60539
126.2557, 55.91159
126.7378, 54.97196
127.2199, 54.23933
127.7020, 54.06362
128.1841, 54.26015
128.6662, 54.23860
129.1483, 53.83583
129.6305, 53.25627
130.1126, 52.71185
130.5947, 52.18836
131.0768, 51.54935
131.5589, 50.59820
132.0410, 49.27733
132.5232, 48.11988
133.0053, 47.16677
133.4874, 46.41365
133.9695, 45.92858
134.4516, 45.70590
134.9337, 45.62796
135.4159, 45.53529
135.8980, 45.49295
136.3801, 45.29115
136.8622, 44.91115
137.3443, 44.40364
137.8264, 43.82221
138.3086, 43.18621
138.7907, 42.46155
139.2728, 41.56672
139.7549, 40.25135
140.2370, 39.04160
140.7191, 37.97953
141.2013, 37.04293
141.6834, 36.19674
142.1655, 35.42743
142.6476, 34.73824
143.1297, 34.15501
143.6118, 33.58741
144.0939, 33.18526
144.5761, 33.12332
145.0582, 33.33009
145.5403, 33.47319
146.0224, 33.34106
146.5045, 32.99271
146.9866, 32.66922
147.4688, 32.46575
147.9509, 32.21888
148.4330, 31.70520
148.9151, 30.87088
149.3972, 30.10306
149.8793, 29.65403
150.3615, 29.40685
150.8436, 29.25701
151.3257, 29.20856
151.8078, 29.21519
152.2899, 29.19138
152.7720, 29.19329
153.2542, 29.04522
153.7363, 28.56815
154.2184, 27.93835
154.7005, 27.42374
155.1826, 27.21539
155.6647, 27.28091
156.1469, 27.29241
156.6290, 27.20678
157.1111, 27.10240
157.5932, 26.97464
158.0753, 26.84239
158.5574, 26.74276
159.0396, 26.71524
159.5217, 26.77459
160.0038, 26.76742
160.4859, 26.56933
160.9680, 26.42378
161.4501, 26.50453
161.9323, 26.76867
162.4144, 27.00610
162.8965, 26.98812
163.3786, 26.62705
163.8607, 26.37205
164.3428, 26.20632
164.8250, 26.14519
165.3071, 26.26320
165.7892, 26.55857
166.2713, 26.86126
166.7534, 26.96957
167.2355, 26.86355
167.7177, 26.67635
168.1998, 26.30677
168.6819, 25.90174
169.1640, 25.69090
169.6461, 25.76057
170.1282, 25.87884
170.6104, 25.72881
171.0925, 25.34580
171.5746, 24.97531
172.0567, 24.69523
172.5388, 24.49963
173.0209, 24.37947
173.5031, 24.36172
173.9852, 24.38546
174.4673, 24.41706
174.9494, 24.45141
175.4315, 24.43513
175.9136, 24.26777
176.3958, 23.95833
176.8779, 23.80143
177.3600, 24.00921
177.8421, 24.24227
178.3242, 24.29215
178.8063, 24.15869
179.2885, 23.98257
179.7706, 23.91591
180.2527, 23.99048
180.7348, 24.03656
181.2169, 24.10936
181.6990, 24.10364
182.1812, 23.88458
182.6633, 23.46543
183.1454, 23.03770
183.6275, 22.90317
184.1096, 23.30222
184.5917, 23.48389
185.0738, 23.35359
185.5560, 23.11025
186.0381, 22.89451
186.5202, 22.74084
187.0023, 22.58209
187.4844, 22.29589
187.9665, 21.67446
188.4487, 21.26557
188.9308, 21.20436
189.4129, 21.28055
189.8950, 21.30934
190.3771, 21.22919
190.8592, 21.08930
191.3414, 20.98661
191.8235, 20.97267
192.3056, 20.89808
192.7877, 20.60608
193.2698, 20.28389
193.7519, 20.22874
194.2341, 20.57992
194.7162, 21.11151
195.1983, 21.35686
195.6804, 21.30177
196.1625, 21.15184
196.6446, 20.88729
197.1268, 20.57139
197.6089, 20.36550
198.0910, 20.36527
198.5731, 20.43226
199.0552, 20.31170
199.5373, 19.95552
200.0195, 19.68186
200.5016, 19.74926
200.9837, 20.08252
201.4658, 20.29290
201.9479, 20.23600
202.4300, 20.02788
202.9122, 19.78114
203.3943, 19.48706
203.8764, 19.26103
204.3585, 19.24857
204.8406, 19.44787
205.3227, 19.56007
205.8048, 19.41918
206.2870, 19.23416
206.7691, 19.16770
207.2512, 19.23664
207.7333, 19.32417
208.2154, 19.28809
208.6975, 19.09814
209.1797, 18.96473
209.6618, 18.84978
210.1439, 18.85497
210.6260, 19.14783
211.1081, 19.72164
211.5902, 20.29378
212.0724, 20.45794
212.5545, 20.04580
213.0366, 19.72925
213.5187, 19.64775
214.0008, 19.60353
214.4829, 19.46605
214.9651, 19.21524
215.4472, 18.93057
215.9293, 18.72524
216.4114, 18.61704
216.8935, 18.56251
217.3756, 18.61038
217.8578, 18.66703
218.3399, 18.64573
218.8220, 18.53772
219.3041, 18.42293
219.7862, 18.43049
220.2683, 18.66153
220.7505, 18.82284
221.2326, 18.89036
221.7147, 18.91262
222.1968, 18.93498
222.6789, 18.96545
223.1610, 18.96836
223.6432, 18.88668
224.1253, 18.65868
224.6074, 18.46708
225.0895, 18.31624
225.5716, 18.19807
226.0537, 18.11341
226.5358, 18.06090
227.0180, 18.02166
227.5001, 17.95764
227.9822, 17.82923
228.4643, 17.82046
228.9464, 18.04151
229.4285, 18.34221
229.9107, 18.56991
230.3928, 18.69069
230.8749, 18.74553
231.3570, 18.78300
231.8391, 18.80785
232.3212, 18.77658
232.8034, 18.60557
233.2855, 18.40395
233.7676, 18.32016
234.2497, 18.39029
234.7318, 18.52148
235.2139, 18.63987
235.6961, 18.74521
236.1782, 18.78835
236.6603, 18.68327
237.1424, 18.53042
237.6245, 18.50639
238.1066, 18.66665
238.5888, 18.84104
239.0709, 18.86119
239.5530, 18.76495
240.0351, 18.64849
240.5172, 18.47491
240.9993, 18.31544
241.4815, 18.34434
241.9636, 18.64700
242.4457, 18.94140
242.9278, 18.99346
243.4099, 18.88593
243.8920, 18.77639
244.3742, 18.70854
244.8563, 18.68676
245.3384, 18.74473
245.8205, 18.93878
246.3026, 19.08283
246.7847, 19.11093
247.2668, 19.02309
247.7490, 18.78791
248.2311, 18.29929
248.7132, 17.70015
249.1953, 17.36916
249.6774, 17.46413
250.1595, 17.51091
250.6417, 17.22654
251.1238, 16.80422
251.6059, 16.49579
252.0880, 16.43365
252.5701, 16.53146
253.0522, 16.58506
253.5344, 16.61065
254.0165, 16.55046
254.4986, 16.35487
254.9807, 16.09290
255.4628, 15.81727
255.9449, 15.54027
256.4271, 15.30433
256.9092, 15.23193
257.3913, 15.45806
257.8734, 15.59074
258.3555, 15.47038
258.8376, 15.27595
259.3198, 15.20028
259.8019, 15.32071
260.2840, 15.51075
260.7661, 15.48823
261.2482, 15.09536
261.7303, 14.78601
262.2125, 14.59051
262.6946, 14.49391
263.1767, 14.51959
263.6588, 14.66580
264.1409, 14.84938
264.6230, 14.91643
265.1052, 14.78409
265.5873, 14.69292
266.0694, 14.70030
266.5515, 14.71609
267.0336, 14.66643
267.5157, 14.53863
267.9979, 14.38038
268.4800, 14.25186
268.9621, 14.11493
269.4442, 14.10682
269.9263, 14.42845
270.4084, 14.70762
270.8906, 14.64237
271.3727, 14.22774
271.8548, 13.72471
272.3369, 13.44516
272.8190, 13.43931
273.3011, 13.51580
273.7833, 13.73923
274.2654, 13.97417
274.7475, 14.13885
275.2296, 14.23523
275.7117, 14.32263
276.1938, 14.46929
276.6760, 14.70411
277.1581, 14.81170
277.6402, 14.68600
278.1223, 14.56232
278.6044, 14.52791
279.0865, 14.59045
279.5686, 14.74923
280.0508, 15.02938
280.5329, 15.43804
281.0150, 15.59606
281.4971, 15.27706
281.9792, 14.99097
282.4613, 15.00862
282.9435, 15.21689
283.4256, 15.31711
283.9077, 15.10356
284.3898, 14.61829
284.8719, 14.25148
285.3540, 14.08359
285.8362, 13.92116
286.3183, 13.69424
286.8004, 13.43987
287.2825, 13.22960
287.7646, 13.10175
288.2467, 13.03792
288.7289, 12.97370
289.2110, 12.86670
289.6931, 12.81061
290.1752, 12.85478
290.6573, 12.95001
291.1394, 13.02895
291.6216, 13.06570
292.1037, 13.07597
292.5858, 13.09564
293.0679, 13.16962
293.5500, 13.16540
294.0321, 12.94884
294.5143, 12.69980
294.9964, 12.67469
295.4785, 12.94056
295.9606, 13.25056
296.4427, 13.21734
296.9248, 12.62341
297.4070, 12.36822
297.8891, 12.80888
298.3712, 13.40574
298.8533, 13.69880
299.3354, 13.61574
299.8175, 13.31825
300.2997, 12.91820
300.7818, 12.38263
301.2639, 12.07083
301.7460, 12.15640
302.2281, 12.32611
302.7102, 12.35618
303.1924, 12.25047
303.6745, 12.16525
304.1566, 12.22895
304.6387, 12.43399
305.1208, 12.57819
305.6029, 12.64657
306.0851, 12.67683
306.5672, 12.68878
307.0493, 12.67877
307.5314, 12.62226
308.0135, 12.48981
308.4956, 12.31287
308.9778, 12.23223
309.4599, 12.27575
309.9420, 12.35905
310.4241, 12.55496
310.9062, 12.76486
311.3883, 12.75312
311.8705, 12.39077
312.3526, 11.86036
312.8347, 11.57505
313.3168, 11.57824
313.7989, 11.66400
314.2810, 11.89139
314.7632, 12.14567
315.2453, 12.26010
315.7274, 12.18505
316.2095, 12.02689
316.6916, 11.92069
317.1737, 11.87329
317.6559, 11.85309
318.1380, 11.93676
318.6201, 11.99983
319.1022, 11.86736
319.5843, 11.53219
320.0664, 11.23691
320.5485, 11.23917
321.0306, 11.56984
321.5128, 11.72610
321.9949, 11.59380
322.4770, 11.39043
322.9591, 11.21505
323.4412, 11.08347
323.9233, 11.02141
324.4055, 11.05932
324.8876, 11.18156
325.3697, 11.26655
325.8518, 11.37091
326.3339, 11.38640
326.8160, 11.14338
327.2982, 10.78334
327.7803, 10.65645
328.2624, 10.96763
328.7445, 11.50283
329.2266, 11.66436
329.7087, 11.22648
330.1909, 10.88150
330.6730, 10.77934
331.1551, 10.83225
331.6372, 10.98485
332.1193, 11.22442
332.6014, 11.40637
333.0836, 11.28579
333.5657, 10.68184
334.0478, 10.32358
334.5299, 10.43665
335.0120, 10.67267
335.4941, 10.72088
335.9763, 10.55814
336.4584, 10.40358
336.9405, 10.48415
337.4226, 10.83126
337.9047, 10.99388
338.3868, 10.81859
338.8690, 10.62710
339.3511, 10.60129
339.8332, 10.70449
340.3153, 10.78894
340.7974, 10.75222
341.2795, 10.62538
341.7617, 10.61312
342.2438, 10.84854
342.7259, 11.02399
343.2080, 11.02628
343.6901, 10.93679
344.1722, 10.88804
344.6544, 10.93633
345.1365, 11.01944
345.6186, 11.00690
346.1007, 10.80391
346.5828, 10.64367
347.0649, 10.57814
347.5471, 10.52715
348.0292, 10.34330
348.5113, 10.03328
348.9934, 9.842649
349.4755, 10.11662
349.9576, 11.06968
350.4398, 11.58130
350.9219, 11.40098
351.4040, 11.08313
351.8861, 10.85171
352.3682, 10.73209
352.8503, 10.69233
353.3325, 10.71656
353.8146, 10.79955
354.2967, 10.86071
354.7788, 10.98044
355.2609, 10.98728
355.7430, 10.76348
356.2252, 10.42562
356.7073, 10.12074
357.1894, 9.918377
357.6715, 9.811095
358.1536, 9.782230
358.6357, 9.890352
359.1179, 9.993763
359.5999, 10.09084
360.0821, 10.17947
360.5642, 10.25743
361.0463, 10.32484
361.5284, 10.38555
362.0105, 10.46255
362.4926, 10.60318
362.9748, 10.56874
363.4569, 10.14686
363.9390, 9.760024
364.4211, 9.596983
364.9032, 9.627885
365.3853, 9.731729
365.8675, 9.822267
366.3496, 9.902497
366.8317, 10.00763
367.3138, 10.24896
367.7959, 10.36412
368.2780, 10.19162
368.7602, 9.904218
369.2423, 9.710249
369.7244, 9.700728
370.2065, 9.814581
370.6886, 9.955785
371.1707, 10.17666
371.6529, 10.28594
372.1350, 10.17930
372.6171, 10.01667
373.0992, 9.894261
373.5813, 9.827927
374.0634, 9.779229
374.5456, 9.700415
375.0277, 9.588089
375.5098, 9.525134
375.9919, 9.567781
376.4740, 9.601077
376.9561, 9.564185
377.4383, 9.477422
377.9204, 9.386838
378.4025, 9.301301
378.8846, 9.239436
379.3667, 9.280372
379.8488, 9.495076
380.3310, 9.626560
380.8131, 9.486080
381.2952, 9.249305
381.7773, 9.091974
382.2594, 9.065068
382.7415, 9.092922
383.2237, 9.096141
383.7058, 9.074958
384.1879, 9.066695
384.6700, 9.064305
385.1521, 9.098159
385.6342, 9.245576
386.1164, 9.489813
386.5985, 9.619205
387.0806, 9.427663
387.5627, 9.044728
388.0448, 8.788244
388.5269, 8.710797
389.0091, 8.669339
389.4912, 8.547376
389.9733, 8.382609
390.4554, 8.258823
390.9375, 8.188382
391.4196, 8.169133
391.9018, 8.219501
392.3839, 8.332213
392.8660, 8.435043
393.3481, 8.483747
393.8302, 8.517449
394.3123, 8.643864
394.7945, 8.939823
395.2766, 9.083516
395.7587, 8.789703
396.2408, 8.300582
396.7229, 8.037996
397.2050, 8.101922
397.6872, 8.318069
398.1693, 8.539017
398.6514, 8.768836
399.1335, 8.861162
399.6156, 8.680707
400.0977, 8.465253
400.5798, 8.384454
401.0620, 8.426099
401.5441, 8.493237
402.0262, 8.529325
402.5083, 8.540648
402.9904, 8.557634
403.4725, 8.655011
403.9547, 8.666189
404.4368, 8.487041
404.9189, 8.231840
405.4010, 8.020781
405.8831, 7.896002
406.3652, 7.877317
406.8474, 8.017240
407.3295, 8.434705
407.8116, 8.653135
408.2937, 8.565110
408.7758, 8.399242
409.2579, 8.241789
409.7401, 8.117489
410.2222, 8.044803
410.7043, 8.041606
411.1864, 8.099544
411.6685, 8.144463
412.1506, 8.180232
412.6328, 8.195757
413.1149, 8.196247
413.5970, 8.173227
414.0791, 8.093178
414.5612, 7.949674
415.0433, 7.817084
415.5255, 7.834401
416.0076, 8.069283
416.4897, 8.219988
416.9718, 8.215495
417.4539, 8.166101
417.9360, 8.097318
418.4182, 8.023479
418.9003, 7.970554
419.3824, 7.960355
419.8645, 7.985412
420.3466, 8.011631
420.8287, 8.033717
421.3109, 8.068216
421.7930, 8.213578
422.2751, 8.336934
422.7572, 8.231863
423.2393, 7.793881
423.7214, 7.349828
424.2036, 7.302581
424.6857, 7.635590
425.1678, 7.909106
425.6499, 8.022273
426.1320, 8.048696
426.6141, 8.038574
427.0963, 7.999275
427.5784, 7.991517
428.0605, 8.069968
428.5426, 8.183747
429.0247, 8.260287
429.5068, 8.296488
429.9890, 8.291121
430.4711, 8.208532
430.9532, 8.092746
431.4353, 8.082677
431.9174, 8.277781
432.3995, 8.431470
432.8817, 8.400290
433.3638, 8.240587
433.8459, 8.045511
434.3280, 7.833426
434.8101, 7.664395
435.2922, 7.635282
435.7744, 7.788653
436.2565, 7.919801
436.7386, 8.053206
437.2207, 8.137547
437.7028, 8.116215
438.1849, 8.005910
438.6671, 7.875871
439.1492, 7.772027
439.6313, 7.687830
440.1134, 7.587298
440.5955, 7.388809
441.0776, 7.276115
441.5598, 7.332641
442.0418, 7.452760
442.5240, 7.546275
443.0061, 7.582474
443.4882, 7.558845
443.9703, 7.463052
444.4524, 7.276024
444.9345, 7.105268
445.4167, 6.857838
445.8988, 6.720748
446.3809, 6.798212
446.8630, 7.034376
447.3451, 7.350571
447.8272, 7.733237
448.3094, 8.087102
448.7915, 8.118092
449.2736, 7.665572
449.7557, 7.349935
450.2378, 7.447184
450.7199, 7.653070
451.2021, 7.782756
451.6842, 7.808434
452.1663, 7.758374
452.6484, 7.580268
453.1305, 7.327642
453.6126, 7.283359
454.0948, 7.564754
454.5769, 7.814031
455.0590, 7.677518
455.5411, 7.354623
456.0232, 7.205332
456.5053, 7.404705
456.9875, 7.666922
457.4696, 7.761847
457.9517, 7.713544
458.4338, 7.619216
458.9159, 7.486409
459.3980, 7.368586
459.8802, 7.362721
460.3623, 7.474929
460.8444, 7.585380
461.3265, 7.681375
461.8086, 7.760758
462.2907, 7.833595
462.7729, 7.893398
463.2550, 7.900252
463.7371, 7.816544
464.2192, 7.663400
464.7013, 7.560936
465.1834, 7.550954
465.6656, 7.534545
466.1477, 7.484022
466.6298, 7.426868
467.1119, 7.385098
467.5940, 7.367150
468.0761, 7.382511
468.5583, 7.443911
469.0404, 7.556227
469.5225, 7.687572
470.0046, 7.909074
470.4867, 8.075078
470.9688, 8.150297
471.4510, 8.136763
471.9331, 8.019773
472.4152, 7.781624
472.8973, 7.507459
473.3794, 7.353689
473.8615, 7.329869
474.3437, 7.388524
474.8258, 7.657720
475.3079, 7.895616
475.7900, 7.908913
476.2721, 7.729174
476.7542, 7.570498
477.2364, 7.579759
477.7185, 7.698645
478.2006, 7.804973
478.6827, 7.900167
479.1648, 7.968017
479.6469, 7.989490
480.1291, 7.981490
480.6112, 7.975253
481.0933, 7.971754
481.5754, 7.971000
482.0575, 7.972024
482.5396, 7.976067
483.0217, 8.008368
483.5038, 8.078041
483.9860, 8.089184
484.4681, 7.924014
484.9502, 7.574541
485.4323, 7.332948
485.9144, 7.218637
486.3965, 7.183626
486.8787, 7.299993
487.3608, 7.464314
487.8429, 7.450592
488.3250, 7.168965
488.8071, 6.819882
489.2892, 6.777434
489.7714, 7.225574
490.2535, 7.531974
490.7356, 7.734170
491.2177, 7.786084
491.6998, 7.542651
492.1819, 7.127464
492.6641, 6.825966
493.1462, 6.833099
493.6283, 7.044521
494.1104, 7.155451
494.5925, 7.132154
495.0746, 7.099283
495.5568, 7.058173
496.0389, 7.037063
496.5210, 7.081112
497.0031, 7.183495
497.4852, 7.254626
497.9673, 7.184007
498.4495, 7.037188
498.9316, 7.013818
499.4137, 7.146696
499.8958, 7.279615
500.3779, 7.315917
500.8600, 7.294973
501.3422, 7.308642
501.8243, 7.400115
502.3064, 7.442113
502.7885, 7.320366
503.2706, 7.119251
503.7527, 6.989621
504.2349, 6.964692
504.7170, 6.990015
505.1991, 7.016203
505.6812, 7.043284
506.1633, 7.081846
506.6454, 7.193922
507.1276, 7.248212
507.6097, 7.120053
508.0918, 6.924755
508.5739, 6.850821
509.0560, 6.965711
509.5381, 7.172290
510.0203, 7.316835
510.5024, 7.378915
510.9845, 7.449457
511.4666, 7.583083
511.9487, 7.670563
512.4308, 7.652806
512.9130, 7.558713
513.3951, 7.449214
513.8772, 7.355970
514.3593, 7.258939
514.8414, 7.091211
515.3235, 6.828110
515.8057, 6.684416
516.2878, 6.785933
516.7699, 6.948827
517.2520, 7.012846
517.7341, 6.989564
518.2162, 6.975075
518.6984, 7.051069
519.1805, 7.134221
519.6626, 7.096903
520.1447, 6.946558
520.6268, 6.805261
521.1089, 6.725038
521.5911, 6.695487
522.0732, 6.697967
522.5553, 6.728949
523.0374, 6.791743
523.5195, 6.928289
524.0016, 7.067935
524.4838, 7.144448
524.9659, 7.158886
525.4480, 7.164019
525.9301, 7.207425
526.4122, 7.259707
526.8943, 7.155415
527.3765, 6.639395
527.8586, 6.339459
528.3407, 6.433728
528.8228, 6.663452
529.3049, 6.823205
529.7870, 6.890288
530.2692, 6.970128
530.7513, 7.187623
531.2334, 7.501505
531.7155, 7.656683
532.1976, 7.602068
532.6797, 7.506122
533.1619, 7.425881
533.6440, 7.346478
534.1261, 7.233231
534.6082, 7.070274
535.0903, 6.963187
535.5724, 7.055148
536.0546, 7.236712
536.5367, 7.214999
537.0188, 6.933641
537.5009, 6.749666
537.9830, 6.984691
538.4651, 7.541739
538.9473, 7.856942
539.4294, 7.736804
539.9115, 7.643321
540.3936, 7.753280
540.8757, 7.937729
541.3578, 8.045285
541.8400, 8.043748
542.3221, 7.976332
542.8042, 7.874050
543.2863, 7.735031
543.7684, 7.678123
544.2505, 7.786710
544.7326, 7.880882
545.2147, 7.966438
545.6968, 8.000879
546.1790, 7.907845
546.6611, 7.678213
547.1432, 7.440911
547.6253, 7.321504
548.1074, 7.316908
548.5895, 7.425975
549.0717, 7.732954
549.5538, 7.971256
550.0359, 7.909615
550.5180, 7.694562
551.0001, 7.542644
551.4822, 7.520342
551.9644, 7.486881
552.4465, 7.279712
552.9286, 7.012526
553.4107, 6.987118
553.8928, 7.268802
554.3749, 7.484917
554.8571, 7.244315
555.3392, 6.567212
555.8213, 6.251528
556.3034, 6.514346
556.7855, 6.815286
557.2676, 7.107706
557.7498, 7.319789
558.2319, 7.334944
558.7140, 7.145593
559.1961, 6.892421
559.6782, 6.716850
560.1603, 6.619695
560.6425, 6.594138
561.1246, 6.709455
561.6067, 6.795412
562.0888, 6.813410
562.5709, 6.771795
563.0530, 6.643381
563.5352, 6.416529
564.0173, 6.250232
564.4994, 6.339285
564.9815, 6.600518
565.4636, 6.746382
565.9457, 6.730408
566.4279, 6.709301
566.9100, 6.828395
567.3921, 7.015171
567.8742, 7.018356
568.3563, 6.707973
568.8384, 6.432355
569.3206, 6.297098
569.8027, 6.267163
570.2848, 6.336430
570.7669, 6.484088
571.2490, 6.617953
571.7311, 6.654165
572.2133, 6.601936
572.6954, 6.560508
573.1775, 6.526917
573.6596, 6.509537
574.1417, 6.509668
574.6238, 6.525261
575.1060, 6.547821
575.5881, 6.580375
576.0702, 6.646701
576.5523, 6.824994
577.0344, 7.048380
577.5165, 7.028822
577.9987, 6.704022
578.4808, 6.402613
578.9629, 6.195889
579.4450, 6.143207
579.9271, 6.398804
580.4092, 7.042601
580.8914, 7.436576
581.3735, 7.088860
581.8556, 6.526893
582.3377, 6.371382
582.8198, 6.603079
583.3019, 6.820626
583.7841, 6.784606
584.2662, 6.601150
584.7483, 6.567339
585.2304, 6.862114
585.7125, 7.011473
586.1946, 6.980761
586.6768, 6.846200
587.1589, 6.542983
587.6410, 6.175812
588.1231, 5.994624
588.6052, 6.169902
