##NAMES=Pentahydrite
##RRUFFID=R060990
##IDEAL CHEMISTRY=MgS^6+^O_4_&#183;5H_2_O
##LOCALITY=Strassfurt, Prussia
##OWNER=RRUFF
##SOURCE=Michael Scott
##DESCRIPTION=Unconsolidated aggregate of colorless grains, mixed with starkeyite
##STATUS=The identification of this mineral has been made only by X-ray diffraction.
##URL=rruff.info/R060990
173.2195, 1496.186
175.1479, 1509.395
177.0764, 1521.444
179.0049, 1532.476
180.9333, 1542.742
182.8618, 1551.794
184.7903, 1559.088
186.7187, 1568.465
188.6472, 1579.512
190.5757, 1592.450
192.5041, 1607.028
194.4326, 1623.740
196.3611, 1641.145
198.2895, 1659.614
200.2180, 1679.300
202.1465, 1696.349
204.0749, 1708.811
206.0034, 1718.672
207.9319, 1728.396
209.8603, 1737.114
211.7888, 1746.746
213.7173, 1757.859
215.6457, 1770.029
217.5742, 1781.432
219.5027, 1791.542
221.4311, 1800.635
223.3596, 1809.031
225.2881, 1817.217
227.2165, 1824.074
229.1450, 1828.547
231.0735, 1830.823
233.0019, 1833.816
234.9304, 1839.632
236.8589, 1844.840
238.7873, 1846.571
240.7158, 1843.880
242.6443, 1842.392
244.5727, 1844.233
246.5012, 1848.299
248.4297, 1849.617
250.3581, 1846.649
252.2866, 1843.330
254.2151, 1840.604
256.1435, 1838.311
258.0720, 1836.286
260.0005, 1835.478
261.9289, 1835.595
263.8574, 1834.767
265.7859, 1831.030
267.7143, 1828.007
269.6428, 1827.517
271.5713, 1831.052
273.4997, 1834.378
275.4282, 1837.477
277.3567, 1839.419
279.2851, 1840.183
281.2136, 1838.327
283.1421, 1837.904
285.0705, 1839.992
286.9990, 1844.878
288.9275, 1849.948
290.8559, 1855.130
292.7844, 1859.936
294.7129, 1864.902
296.6413, 1869.371
298.5698, 1875.781
300.4983, 1884.627
302.4267, 1894.403
304.3552, 1901.695
306.2837, 1904.981
308.2121, 1908.033
310.1406, 1912.507
312.0691, 1919.145
313.9975, 1925.555
315.9260, 1930.760
317.8545, 1935.931
319.7829, 1943.523
321.7114, 1956.416
323.6399, 1969.151
325.5683, 1978.463
327.4968, 1983.895
329.4253, 1990.592
331.3537, 2002.227
333.2822, 2014.686
335.2107, 2023.972
337.1391, 2025.633
339.0676, 2029.846
340.9961, 2040.271
342.9245, 2054.654
344.8530, 2064.697
346.7815, 2066.862
348.7099, 2067.649
350.6384, 2070.001
352.5669, 2073.771
354.4953, 2078.501
356.4238, 2086.071
358.3523, 2095.119
360.2807, 2102.521
362.2092, 2104.433
364.1377, 2106.683
366.0661, 2113.300
367.9946, 2123.904
369.9231, 2131.044
371.8515, 2127.664
373.7800, 2122.339
375.7085, 2122.031
377.6369, 2130.913
379.5654, 2139.696
381.4939, 2146.931
383.4223, 2153.686
385.3508, 2162.104
387.2793, 2173.379
389.2077, 2184.940
391.1362, 2195.081
393.0647, 2203.229
394.9931, 2214.043
396.9216, 2230.556
398.8501, 2249.463
400.7785, 2267.692
402.7070, 2283.432
404.6355, 2301.149
406.5639, 2319.738
408.4924, 2338.635
410.4209, 2357.949
412.3493, 2379.878
414.2778, 2403.064
416.2063, 2426.183
418.1347, 2448.063
420.0632, 2471.899
421.9917, 2500.594
423.9201, 2531.795
425.8486, 2562.788
427.7771, 2591.660
429.7055, 2620.649
431.6340, 2650.348
433.5625, 2681.003
435.4909, 2712.889
437.4194, 2748.259
439.3479, 2781.311
441.2763, 2809.295
443.2048, 2829.971
445.1333, 2848.077
447.0617, 2865.783
448.9902, 2879.800
450.9187, 2887.167
452.8471, 2887.510
454.7756, 2883.625
456.7041, 2876.513
458.6325, 2865.708
460.5610, 2849.609
462.4895, 2829.719
464.4179, 2804.070
466.3464, 2771.467
468.2749, 2734.953
470.2033, 2700.444
472.1318, 2666.477
474.0603, 2634.673
475.9887, 2606.945
477.9172, 2584.980
479.8457, 2563.714
481.7741, 2540.388
483.7026, 2515.495
485.6311, 2490.781
487.5595, 2464.833
489.4880, 2443.013
491.4165, 2427.009
493.3449, 2415.251
495.2734, 2404.986
497.2019, 2398.654
499.1303, 2394.036
501.0588, 2389.756
502.9873, 2383.611
504.9157, 2378.297
506.8442, 2374.907
508.7727, 2374.904
510.7011, 2378.324
512.6296, 2384.206
514.5581, 2390.251
516.4866, 2396.061
518.4150, 2401.133
520.3435, 2405.162
522.2720, 2407.070
524.2004, 2408.650
526.1289, 2411.249
528.0574, 2415.744
529.9858, 2419.864
531.9143, 2422.207
533.8428, 2425.580
535.7712, 2431.699
537.6997, 2440.779
539.6282, 2450.001
541.5566, 2456.960
543.4851, 2462.772
545.4136, 2468.539
547.3420, 2477.202
549.2705, 2485.756
551.1990, 2493.406
553.1274, 2500.333
555.0559, 2507.974
556.9844, 2517.510
558.9128, 2528.057
560.8413, 2539.022
562.7698, 2549.920
564.6982, 2561.148
566.6267, 2573.071
568.5552, 2585.670
570.4836, 2598.799
572.4121, 2612.078
574.3406, 2625.948
576.2690, 2641.863
578.1975, 2656.484
580.1260, 2666.929
582.0544, 2674.187
583.9829, 2685.454
585.9114, 2703.979
587.8398, 2724.557
589.7683, 2744.041
591.6968, 2760.630
593.6252, 2778.729
595.5537, 2801.750
597.4822, 2823.657
599.4106, 2838.162
601.3391, 2843.923
603.2676, 2846.062
605.1960, 2845.432
607.1245, 2842.830
609.0530, 2837.703
610.9814, 2831.414
612.9099, 2825.885
614.8384, 2821.567
616.7668, 2817.438
618.6953, 2813.824
620.6238, 2810.555
622.5522, 2808.242
624.4807, 2807.837
626.4092, 2808.952
628.3376, 2807.302
630.2661, 2802.002
632.1946, 2795.657
634.1230, 2789.062
636.0515, 2780.727
637.9800, 2774.094
639.9084, 2771.046
641.8369, 2770.143
643.7654, 2769.812
645.6938, 2769.952
647.6223, 2769.317
649.5508, 2766.312
651.4792, 2763.444
653.4077, 2762.762
655.3362, 2764.161
657.2646, 2764.793
659.1931, 2764.692
661.1216, 2763.988
663.0500, 2762.406
664.9785, 2760.033
666.9070, 2757.803
668.8354, 2756.095
670.7639, 2754.854
672.6924, 2753.429
674.6208, 2750.324
676.5493, 2748.865
678.4778, 2750.731
680.4063, 2753.640
682.3347, 2754.322
684.2632, 2751.845
686.1917, 2749.292
688.1201, 2747.471
690.0486, 2746.698
691.9771, 2746.969
693.9055, 2749.022
695.8340, 2750.788
697.7625, 2750.617
699.6909, 2750.505
701.6194, 2753.177
703.5479, 2760.022
705.4763, 2767.237
707.4048, 2774.568
709.3333, 2781.665
711.2617, 2786.285
713.1902, 2786.008
715.1187, 2785.558
717.0471, 2786.519
718.9756, 2788.931
720.9041, 2792.321
722.8325, 2799.646
724.7610, 2805.258
726.6895, 2806.434
728.6179, 2803.022
730.5464, 2802.454
732.4749, 2806.704
734.4033, 2811.938
736.3318, 2816.192
738.2603, 2819.401
740.1887, 2822.900
742.1172, 2826.303
744.0457, 2830.367
745.9741, 2835.883
747.9026, 2842.995
749.8311, 2848.263
751.7595, 2850.084
753.6880, 2851.255
755.6165, 2853.686
757.5449, 2857.860
759.4734, 2861.873
761.4019, 2864.848
763.3303, 2867.977
765.2588, 2872.459
767.1873, 2878.629
769.1157, 2885.139
771.0442, 2892.306
772.9727, 2899.162
774.9011, 2904.459
776.8296, 2906.988
778.7581, 2909.934
780.6865, 2914.826
782.6150, 2920.492
784.5435, 2924.703
786.4719, 2926.549
788.4004, 2927.329
790.3289, 2927.079
792.2573, 2926.986
794.1858, 2927.005
796.1143, 2927.059
798.0427, 2928.117
799.9712, 2931.215
801.8997, 2933.959
803.8281, 2935.546
805.7566, 2937.970
807.6851, 2942.345
809.6135, 2950.128
811.5420, 2957.374
813.4705, 2962.296
815.3989, 2964.680
817.3274, 2968.721
819.2559, 2976.047
821.1843, 2982.494
823.1128, 2986.037
825.0413, 2987.175
826.9697, 2989.017
828.8982, 2991.741
830.8267, 2995.140
832.7551, 3000.129
834.6836, 3006.948
836.6121, 3012.589
838.5405, 3016.534
840.4690, 3020.889
842.3975, 3024.705
844.3259, 3024.056
846.2544, 3025.650
848.1829, 3030.837
850.1113, 3037.976
852.0398, 3044.919
853.9683, 3052.852
855.8967, 3059.632
857.8252, 3063.380
859.7537, 3065.453
861.6821, 3069.053
863.6106, 3072.950
865.5391, 3076.244
867.4675, 3079.983
869.3960, 3085.046
871.3245, 3088.436
873.2529, 3090.257
875.1814, 3095.224
877.1099, 3107.921
879.0383, 3119.483
880.9668, 3126.107
882.8953, 3126.539
884.8237, 3127.699
886.7522, 3131.619
888.6807, 3137.123
890.6091, 3141.058
892.5376, 3143.812
894.4661, 3147.263
896.3945, 3151.819
898.3230, 3157.132
900.2515, 3163.893
902.1799, 3170.139
904.1084, 3176.057
906.0369, 3182.458
907.9653, 3188.559
909.8938, 3192.997
911.8223, 3196.006
913.7507, 3199.999
915.6792, 3206.433
917.6077, 3213.759
919.5361, 3220.763
921.4646, 3225.328
923.3931, 3231.215
925.3215, 3241.819
927.2500, 3252.579
929.1785, 3260.704
931.1069, 3265.354
933.0354, 3269.116
934.9639, 3271.594
936.8923, 3276.766
938.8208, 3288.040
940.7493, 3302.199
942.6777, 3313.906
944.6062, 3320.140
946.5347, 3325.907
948.4631, 3333.418
950.3916, 3343.505
952.3201, 3355.332
954.2485, 3364.419
956.1770, 3379.776
958.1055, 3402.563
960.0339, 3435.734
961.9624, 3481.667
963.8909, 3542.812
965.8193, 3607.999
967.7478, 3683.332
969.6763, 3755.619
971.6047, 3805.329
973.5332, 3841.808
975.4617, 3877.418
977.3901, 3905.260
979.3186, 3949.604
981.2471, 4040.219
983.1755, 4125.175
985.1040, 4209.949
987.0325, 4301.799
988.9609, 4384.310
990.8894, 4453.953
992.8179, 4577.802
994.7463, 4768.414
996.6748, 4995.448
998.6033, 5301.745
1000.532, 5708.603
1002.460, 6137.009
1004.389, 6443.001
1006.317, 6664.926
1008.246, 6677.943
1010.174, 6418.494
1012.103, 5978.628
1014.031, 5524.633
1015.959, 5084.868
1017.888, 4705.664
1019.816, 4427.632
1021.745, 4241.350
1023.673, 4128.588
1025.602, 4069.875
1027.530, 4052.758
1029.459, 4036.536
1031.387, 3993.281
1033.316, 3921.621
1035.244, 3853.477
1037.173, 3779.566
1039.101, 3720.868
1041.030, 3683.893
1042.958, 3661.722
1044.886, 3646.161
1046.815, 3637.991
1048.743, 3631.405
1050.672, 3628.691
1052.600, 3630.719
1054.529, 3636.390
1056.457, 3642.598
1058.386, 3647.038
1060.314, 3650.129
1062.243, 3652.780
1064.171, 3656.777
1066.100, 3663.457
1068.028, 3672.282
1069.957, 3682.664
1071.885, 3694.760
1073.813, 3706.516
1075.742, 3717.572
1077.670, 3728.587
1079.599, 3740.915
1081.527, 3753.651
1083.456, 3767.608
1085.384, 3782.010
1087.313, 3796.483
1089.241, 3811.505
1091.170, 3828.567
1093.098, 3843.842
1095.027, 3857.123
1096.955, 3869.531
1098.884, 3880.544
1100.812, 3888.726
1102.740, 3893.938
1104.669, 3895.894
1106.597, 3899.367
1108.526, 3906.794
1110.454, 3918.583
1112.383, 3925.411
1114.311, 3926.549
1116.240, 3928.074
1118.168, 3930.591
1120.097, 3932.191
1122.025, 3932.065
1123.954, 3931.893
1125.882, 3933.224
1127.811, 3931.046
1129.739, 3925.928
1131.667, 3924.655
1133.596, 3930.004
1135.524, 3938.743
1137.453, 3947.925
1139.381, 3956.204
1141.310, 3965.712
1143.238, 3977.927
1145.167, 3992.397
1147.095, 4006.505
1149.024, 4018.458
1150.952, 4032.887
1152.881, 4050.606
1154.809, 4065.167
1156.738, 4074.746
1158.666, 4082.276
1160.594, 4091.433
1162.523, 4095.270
1164.451, 4094.270
1166.380, 4090.687
1168.308, 4087.449
1170.237, 4081.196
1172.165, 4071.957
1174.094, 4062.542
1176.022, 4054.507
1177.951, 4049.258
1179.879, 4048.985
1181.808, 4046.807
1183.736, 4040.118
1185.665, 4032.627
1187.593, 4028.523
1189.521, 4027.683
1191.450, 4026.792
1193.378, 4025.473
1195.307, 4024.801
1197.235, 4025.187
1199.164, 4024.659
1201.092, 4023.392
1203.021, 4021.640
1204.949, 4023.710
1206.878, 4030.320
1208.806, 4036.678
1210.735, 4042.355
1212.663, 4048.396
1214.592, 4055.654
1216.520, 4063.814
1218.448, 4070.677
1220.377, 4074.742
1222.305, 4077.873
1224.234, 4083.859
1226.162, 4093.307
1228.091, 4100.195
1230.019, 4101.552
1231.948, 4101.974
1233.876, 4105.479
1235.805, 4113.494
1237.733, 4122.106
1239.662, 4131.375
1241.590, 4138.563
1243.519, 4143.246
1245.447, 4147.289
1247.375, 4154.128
1249.304, 4165.487
1251.232, 4176.939
1253.161, 4185.684
1255.089, 4193.890
1257.018, 4205.876
1258.946, 4219.223
1260.875, 4227.053
1262.803, 4227.826
1264.732, 4228.608
1266.660, 4230.860
1268.589, 4234.374
1270.517, 4238.694
1272.446, 4243.334
1274.374, 4249.697
1276.302, 4259.064
1278.231, 4270.011
1280.159, 4282.493
1282.088, 4295.053
1284.016, 4304.149
1285.945, 4307.423
1287.873, 4311.038
1289.802, 4314.746
1291.730, 4320.443
1293.659, 4329.821
1295.587, 4341.898
1297.516, 4351.533
1299.444, 4357.881
1301.373, 4364.103
1303.301, 4370.467
1305.229, 4376.819
1307.158, 4384.449
1309.086, 4392.885
1311.015, 4397.026
1312.943, 4392.876
1314.872, 4391.515
1316.800, 4399.920
1318.729, 4412.510
1320.657, 4422.458
1322.586, 4429.455
1324.514, 4436.100
1326.443, 4441.566
1328.371, 4447.833
1330.300, 4456.259
1332.228, 4465.972
1334.156, 4474.585
1336.085, 4480.229
1338.013, 4487.713
1339.942, 4499.469
1341.870, 4510.460
1343.799, 4516.802
1345.727, 4519.453
1347.656, 4522.891
1349.584, 4526.593
1351.513, 4531.410
1353.441, 4538.656
1355.370, 4546.952
1357.298, 4556.602
1359.227, 4566.782
1361.155, 4572.564
1363.083, 4571.544
1365.012, 4572.875
1366.940, 4580.714
1368.869, 4590.542
1370.797, 4599.154
1372.726, 4606.849
1374.654, 4616.455
1376.583, 4628.250
1378.511, 4640.563
1380.440, 4655.016
1382.368, 4668.699
1384.297, 4677.099
1386.225, 4678.422
1388.154, 4682.515
1390.082, 4692.743
1392.010, 4702.117
1393.939, 4707.361
1395.867, 4710.506
1397.796, 4716.475
1399.724, 4727.033
1401.653, 4737.467
1403.581, 4747.435
1405.510, 4754.913
1407.438, 4758.686
1409.367, 4761.603
1411.295, 4763.710
1413.224, 4763.771
1415.152, 4769.703
1417.081, 4787.540
1419.009, 4804.519
1420.938, 4812.475
1422.866, 4817.031
1424.794, 4826.875
1426.723, 4842.171
1428.651, 4854.975
1430.580, 4863.542
1432.508, 4871.257
1434.437, 4878.582
1436.365, 4886.826
1438.294, 4896.844
1440.222, 4909.062
1442.151, 4917.002
1444.079, 4914.592
1446.008, 4915.494
1447.936, 4927.761
1449.865, 4945.509
1451.793, 4957.138
1453.721, 4961.034
1455.650, 4964.675
1457.578, 4969.040
1459.507, 4972.186
1461.435, 4971.430
1463.364, 4971.209
1465.292, 4978.996
1467.221, 4995.718
1469.149, 5009.452
1471.078, 5016.022
1473.006, 5020.769
1474.935, 5026.235
1476.863, 5032.610
1478.792, 5036.043
1480.720, 5034.583
1482.648, 5037.032
1484.577, 5048.283
1486.505, 5058.529
1488.434, 5063.101
1490.362, 5066.210
1492.291, 5070.430
1494.219, 5075.681
1496.148, 5087.486
1498.076, 5111.640
1500.005, 5129.791
1501.933, 5132.384
1503.862, 5131.376
1505.790, 5136.979
1507.719, 5148.485
1509.647, 5157.815
1511.575, 5163.965
1513.504, 5169.878
1515.432, 5175.455
1517.361, 5182.119
1519.289, 5192.339
1521.218, 5205.687
1523.146, 5216.345
1525.075, 5221.234
1527.003, 5227.688
1528.932, 5235.708
1530.860, 5244.563
1532.789, 5254.665
1534.717, 5265.384
1536.646, 5274.008
1538.574, 5279.275
1540.502, 5285.838
1542.431, 5295.772
1544.359, 5305.328
1546.288, 5312.762
1548.216, 5319.094
1550.145, 5325.798
1552.073, 5334.067
1554.002, 5344.502
1555.930, 5356.641
1557.859, 5368.437
1559.787, 5379.172
1561.716, 5389.758
1563.644, 5400.913
1565.573, 5411.519
1567.501, 5419.036
1569.429, 5422.456
1571.358, 5427.310
1573.286, 5438.681
1575.215, 5447.471
1577.143, 5444.707
1579.072, 5438.328
1581.000, 5443.182
1582.929, 5460.325
1584.857, 5475.523
1586.786, 5486.483
1588.714, 5494.489
1590.643, 5496.368
1592.571, 5499.440
1594.500, 5512.010
1596.428, 5532.475
1598.356, 5549.978
1600.285, 5562.809
1602.213, 5574.465
1604.142, 5585.715
1606.070, 5596.783
1607.999, 5608.610
1609.927, 5620.242
1611.856, 5628.113
1613.784, 5631.441
1615.713, 5637.524
1617.641, 5647.579
1619.570, 5659.765
1621.498, 5675.973
1623.427, 5691.924
1625.355, 5701.506
1627.283, 5704.323
1629.212, 5712.382
1631.140, 5729.302
1633.069, 5743.938
1634.997, 5754.203
1636.926, 5762.554
1638.854, 5769.651
1640.783, 5776.111
1642.711, 5783.004
1644.640, 5790.382
1646.568, 5796.811
1648.497, 5799.415
1650.425, 5804.575
1652.354, 5815.268
1654.282, 5827.807
1656.210, 5840.403
1658.139, 5852.738
1660.067, 5860.775
1661.996, 5862.671
1663.924, 5864.820
1665.853, 5865.606
1667.781, 5868.890
1669.710, 5877.528
1671.638, 5888.604
1673.567, 5898.158
1675.495, 5905.995
1677.424, 5914.018
1679.352, 5922.748
1681.281, 5930.428
1683.209, 5937.099
1685.137, 5941.816
1687.066, 5941.703
1688.994, 5939.498
1690.923, 5941.708
1692.851, 5949.833
1694.780, 5955.888
1696.708, 5962.222
1698.637, 5965.420
1700.565, 5961.607
1702.494, 5959.835
1704.422, 5968.298
1706.351, 5983.713
1708.279, 5996.055
1710.208, 6003.164
1712.136, 6010.492
1714.064, 6013.179
1715.993, 6019.771
1717.921, 6035.381
1719.850, 6051.689
1721.778, 6062.637
1723.707, 6069.447
1725.635, 6075.761
1727.564, 6084.000
1729.492, 6088.729
1731.421, 6084.460
1733.349, 6085.342
1735.278, 6096.956
1737.206, 6112.480
1739.135, 6126.207
1741.063, 6138.015
1742.991, 6149.787
1744.920, 6162.817
1746.848, 6170.911
1748.777, 6169.416
1750.705, 6169.420
1752.634, 6174.600
1754.562, 6182.214
1756.491, 6191.835
1758.419, 6202.538
1760.348, 6209.216
1762.276, 6210.331
1764.205, 6214.106
1766.133, 6221.780
1768.062, 6231.419
1769.990, 6242.857
1771.918, 6255.610
1773.847, 6269.178
1775.775, 6283.077
1777.704, 6296.533
1779.632, 6308.905
1781.561, 6320.895
1783.489, 6332.573
1785.418, 6342.505
1787.346, 6350.467
1789.275, 6356.711
1791.203, 6362.232
1793.132, 6366.704
1795.060, 6368.006
1796.989, 6366.397
1798.917, 6369.146
1800.845, 6378.213
1802.774, 6388.504
1804.702, 6399.481
1806.631, 6410.123
1808.559, 6420.340
1810.488, 6429.073
1812.416, 6432.471
1814.345, 6432.154
1816.273, 6441.725
1818.202, 6464.476
1820.130, 6483.158
1822.059, 6492.341
1823.987, 6500.398
1825.916, 6512.099
1827.844, 6523.149
1829.772, 6529.095
1831.701, 6531.536
1833.629, 6535.037
1835.558, 6540.125
1837.486, 6544.649
1839.415, 6546.756
1841.343, 6552.932
1843.272, 6569.375
1845.200, 6585.942
1847.129, 6594.144
1849.057, 6598.677
1850.986, 6609.259
1852.914, 6624.605
1854.843, 6631.079
1856.771, 6624.369
1858.699, 6622.063
1860.628, 6632.885
1862.556, 6642.211
1864.485, 6641.790
1866.413, 6640.663
1868.342, 6647.017
1870.270, 6659.701
1872.199, 6675.351
1874.127, 6694.532
1876.056, 6710.802
1877.984, 6724.678
1879.913, 6732.614
1881.841, 6727.418
1883.770, 6723.221
1885.698, 6729.641
1887.626, 6740.658
1889.555, 6749.528
1891.483, 6757.284
1893.412, 6764.315
1895.340, 6769.922
1897.269, 6780.325
1899.197, 6799.814
1901.126, 6815.828
1903.054, 6817.401
1904.983, 6819.930
1906.911, 6836.314
1908.840, 6855.846
1910.768, 6860.925
1912.697, 6853.836
1914.625, 6851.057
1916.553, 6854.804
1918.482, 6860.088
1920.410, 6867.490
1922.339, 6875.149
1924.267, 6881.265
1926.196, 6887.907
1928.124, 6896.372
1930.053, 6905.619
1931.981, 6915.662
1933.910, 6925.728
1935.838, 6929.831
1937.767, 6926.034
1939.695, 6926.666
1941.624, 6938.305
1943.552, 6947.782
1945.480, 6947.304
1947.409, 6947.599
1949.337, 6955.580
1951.266, 6968.662
1953.194, 6984.669
1955.123, 7002.766
1957.051, 7014.709
1958.980, 7017.611
1960.908, 7020.604
1962.837, 7022.036
1964.765, 7026.917
1966.694, 7041.790
1968.622, 7054.787
1970.551, 7055.366
1972.479, 7053.931
1974.407, 7064.806
1976.336, 7085.000
1978.264, 7100.202
1980.193, 7109.530
1982.121, 7116.884
1984.050, 7120.353
1985.978, 7128.354
1987.907, 7149.126
1989.835, 7165.561
1991.764, 7164.037
1993.692, 7159.992
1995.621, 7169.333
1997.549, 7186.021
1999.478, 7195.744
2001.406, 7198.682
2003.334, 7205.273
2005.263, 7217.227
2007.191, 7226.826
2009.120, 7232.099
2011.048, 7236.639
2012.977, 7241.250
2014.905, 7246.981
2016.834, 7255.068
2018.762, 7265.250
2020.691, 7277.167
2022.619, 7290.383
2024.548, 7302.515
2026.476, 7312.142
2028.405, 7325.043
2030.333, 7344.011
2032.261, 7354.767
2034.190, 7349.903
2036.118, 7345.203
2038.047, 7346.498
2039.975, 7352.463
2041.904, 7365.303
2043.832, 7380.564
2045.761, 7392.031
2047.689, 7399.699
2049.618, 7403.758
2051.546, 7403.498
2053.475, 7404.740
2055.403, 7409.779
2057.332, 7414.533
2059.260, 7417.203
2061.188, 7423.236
2063.117, 7435.867
2065.045, 7451.153
2066.974, 7467.097
2068.902, 7481.408
2070.831, 7489.404
2072.759, 7491.432
2074.688, 7495.253
2076.616, 7501.026
2078.545, 7508.131
2080.473, 7518.747
2082.402, 7526.253
2084.330, 7526.927
2086.259, 7531.119
2088.187, 7546.058
2090.115, 7561.997
2092.044, 7572.244
2093.972, 7578.526
2095.901, 7582.249
2097.829, 7583.750
2099.758, 7584.287
2101.686, 7583.779
2103.615, 7589.721
2105.543, 7608.003
2107.472, 7624.986
2109.400, 7646.477
2111.329, 7659.784
2113.257, 7649.063
2115.186, 7645.469
2117.114, 7668.130
2119.042, 7695.671
2120.971, 7710.820
2122.899, 7716.888
2124.828, 7719.389
2126.756, 7719.355
2128.685, 7721.168
2130.613, 7726.386
2132.542, 7729.370
2134.470, 7729.161
2136.399, 7732.281
2138.327, 7738.188
2140.256, 7749.175
2142.184, 7768.539
2144.113, 7786.984
2146.041, 7797.924
2147.969, 7804.757
2149.898, 7810.563
2151.826, 7815.401
2153.755, 7820.404
2155.683, 7825.648
2157.612, 7827.976
2159.540, 7827.759
2161.469, 7828.376
2163.397, 7830.237
2165.326, 7833.211
