##NAMES=Pentahydrite
##RRUFFID=R070069
##IDEAL CHEMISTRY=MgS^6+^O_4_&#183;5H_2_O
##LOCALITY=Vulcano Island, Eolie Islands, Messina Province, Sicily, Italy
##OWNER=RRUFF
##SOURCE=James Shigley
##DESCRIPTION=Unconsolidated coarse crystalline grains associated with anhydrite
##STATUS=The identification of this mineral has been confirmed by single-crystal X-ray diffraction.
##URL=rruff.info/R070069
182.9646, 2276.463
183.4467, 2284.519
183.9288, 2297.121
184.4109, 2311.265
184.8930, 2325.352
185.3751, 2338.905
185.8573, 2349.384
186.3394, 2350.987
186.8215, 2347.857
187.3036, 2358.456
187.7857, 2385.771
188.2678, 2415.881
188.7500, 2427.268
189.2321, 2420.871
189.7142, 2416.243
190.1963, 2425.156
190.6784, 2445.321
191.1605, 2459.371
191.6427, 2465.480
192.1248, 2468.172
192.6069, 2474.267
193.0890, 2483.815
193.5711, 2495.781
194.0532, 2511.757
194.5354, 2531.379
195.0175, 2544.771
195.4996, 2549.268
195.9817, 2550.109
196.4638, 2560.330
196.9460, 2581.504
197.4281, 2601.855
197.9102, 2612.401
198.3923, 2612.474
198.8744, 2616.692
199.3565, 2627.138
199.8387, 2642.183
200.3208, 2657.599
200.8029, 2673.636
201.2850, 2689.158
201.7671, 2703.250
202.2492, 2715.942
202.7314, 2727.409
203.2135, 2737.195
203.6956, 2745.853
204.1777, 2756.351
204.6598, 2769.694
205.1419, 2782.247
205.6241, 2790.219
206.1062, 2792.208
206.5883, 2796.499
207.0704, 2806.030
207.5525, 2819.500
208.0346, 2826.195
208.5168, 2824.109
208.9989, 2819.086
209.4810, 2816.071
209.9631, 2815.293
210.4452, 2815.849
210.9273, 2817.621
211.4095, 2820.601
211.8916, 2824.869
212.3737, 2831.115
212.8558, 2837.652
213.3379, 2843.231
213.8200, 2848.443
214.3022, 2850.468
214.7843, 2845.607
215.2664, 2833.173
215.7485, 2836.017
216.2306, 2862.415
216.7127, 2894.580
217.1949, 2911.411
217.6770, 2907.002
218.1591, 2900.293
218.6412, 2895.341
219.1233, 2892.226
219.6054, 2890.391
220.0876, 2889.418
220.5697, 2890.119
221.0518, 2894.269
221.5339, 2904.528
222.0160, 2912.818
222.4981, 2916.243
222.9803, 2913.706
223.4624, 2912.349
223.9445, 2910.564
224.4266, 2911.176
224.9087, 2919.490
225.3908, 2940.622
225.8730, 2960.162
226.3551, 2973.273
226.8372, 2978.447
227.3193, 2983.861
227.8014, 2989.911
228.2835, 2996.013
228.7657, 3000.977
229.2478, 3003.560
229.7299, 3007.136
230.2120, 3012.631
230.6941, 3020.042
231.1762, 3029.751
231.6584, 3042.323
232.1405, 3056.948
232.6226, 3072.072
233.1047, 3088.810
233.5868, 3104.334
234.0689, 3117.159
234.5511, 3126.468
235.0332, 3135.321
235.5153, 3141.665
235.9974, 3148.367
236.4795, 3162.038
236.9616, 3187.379
237.4438, 3212.835
237.9259, 3234.470
238.4080, 3253.844
238.8901, 3264.953
239.3722, 3262.595
239.8543, 3253.473
240.3365, 3253.536
240.8186, 3267.260
241.3007, 3283.694
241.7828, 3299.470
242.2649, 3317.659
242.7470, 3326.843
243.2292, 3321.813
243.7113, 3309.163
244.1934, 3306.609
244.6755, 3322.154
245.1576, 3336.066
245.6397, 3339.923
246.1219, 3331.110
246.6040, 3317.698
247.0861, 3296.878
247.5682, 3272.131
248.0503, 3253.392
248.5324, 3245.347
249.0146, 3236.478
249.4967, 3220.538
249.9788, 3190.692
250.4609, 3170.274
250.9430, 3164.902
251.4251, 3167.391
251.9073, 3157.664
252.3894, 3128.851
252.8715, 3098.703
253.3536, 3075.551
253.8357, 3063.105
254.3178, 3049.259
254.8000, 3035.260
255.2821, 3019.167
255.7642, 2994.214
256.2463, 2952.782
256.7284, 2915.140
257.2105, 2892.772
257.6927, 2892.970
258.1748, 2888.118
258.6569, 2877.208
259.1390, 2861.011
259.6211, 2840.845
260.1032, 2813.257
260.5854, 2788.002
261.0675, 2770.213
261.5496, 2762.898
262.0317, 2753.608
262.5138, 2741.410
262.9959, 2727.500
263.4781, 2714.348
263.9602, 2701.747
264.4423, 2690.607
264.9244, 2681.838
265.4065, 2676.119
265.8886, 2670.463
266.3708, 2666.500
266.8529, 2661.462
267.3350, 2646.651
267.8171, 2616.321
268.2992, 2590.854
268.7813, 2581.420
269.2635, 2591.416
269.7456, 2601.221
270.2277, 2611.044
270.7098, 2619.856
271.1919, 2625.786
271.6740, 2629.543
272.1562, 2628.031
272.6383, 2617.259
273.1204, 2595.056
273.6025, 2580.129
274.0846, 2574.757
274.5667, 2574.429
275.0489, 2570.620
275.5310, 2563.043
276.0131, 2553.373
276.4952, 2539.030
276.9773, 2518.866
277.4594, 2512.971
277.9416, 2525.850
278.4237, 2546.549
278.9058, 2556.150
279.3879, 2553.510
279.8700, 2548.637
280.3521, 2546.769
280.8343, 2547.861
281.3164, 2543.284
281.7985, 2530.506
282.2806, 2517.149
282.7627, 2518.951
283.2448, 2536.838
283.7270, 2549.925
284.2091, 2543.113
284.6912, 2519.234
285.1733, 2512.851
285.6554, 2527.454
286.1375, 2549.295
286.6197, 2559.997
287.1018, 2559.944
287.5839, 2556.125
288.0660, 2548.343
288.5481, 2538.385
289.0303, 2536.316
289.5124, 2543.201
289.9945, 2553.127
290.4766, 2559.946
290.9587, 2563.735
291.4409, 2564.732
291.9230, 2563.144
292.4051, 2558.834
292.8872, 2548.982
293.3693, 2532.575
293.8514, 2518.702
294.3336, 2517.875
294.8157, 2528.105
295.2978, 2541.486
295.7799, 2559.210
296.2620, 2576.678
296.7441, 2581.963
297.2263, 2574.619
297.7084, 2566.186
298.1905, 2571.891
298.6726, 2585.520
299.1547, 2590.677
299.6368, 2573.004
300.1190, 2549.124
300.6011, 2546.581
301.0832, 2564.425
301.5653, 2583.710
302.0474, 2587.076
302.5295, 2581.406
303.0117, 2579.455
303.4938, 2589.181
303.9759, 2600.573
304.4580, 2601.704
304.9401, 2593.624
305.4222, 2584.290
305.9044, 2574.756
306.3865, 2568.574
306.8686, 2571.326
307.3507, 2591.284
307.8328, 2611.727
308.3149, 2617.600
308.7971, 2611.451
309.2792, 2604.849
309.7613, 2605.817
310.2434, 2609.052
310.7255, 2608.867
311.2076, 2601.810
311.6898, 2594.808
312.1719, 2592.644
312.6540, 2594.076
313.1361, 2595.460
313.6182, 2590.659
314.1003, 2587.833
314.5825, 2595.095
315.0646, 2621.251
315.5467, 2640.817
316.0288, 2636.531
316.5109, 2617.799
316.9930, 2604.789
317.4752, 2608.948
317.9573, 2617.825
318.4394, 2625.479
318.9215, 2631.804
319.4036, 2635.026
319.8857, 2634.532
320.3679, 2630.658
320.8500, 2623.877
321.3321, 2605.815
321.8142, 2592.163
322.2963, 2591.685
322.7784, 2609.441
323.2606, 2620.798
323.7427, 2616.749
324.2248, 2606.263
324.7069, 2599.850
325.1890, 2595.699
325.6711, 2598.624
326.1533, 2614.059
326.6354, 2645.670
327.1175, 2665.532
327.5996, 2664.209
328.0817, 2655.475
328.5638, 2651.563
329.0460, 2662.231
329.5281, 2665.077
330.0102, 2650.204
330.4923, 2618.218
330.9744, 2606.554
331.4565, 2628.708
331.9387, 2658.078
332.4208, 2674.771
332.9029, 2670.915
333.3850, 2669.700
333.8671, 2675.538
334.3492, 2686.321
334.8314, 2690.369
335.3135, 2684.218
335.7956, 2677.200
336.2777, 2674.832
336.7598, 2677.852
337.2419, 2683.457
337.7241, 2693.128
338.2062, 2704.427
338.6883, 2708.719
339.1704, 2703.621
339.6525, 2700.344
340.1346, 2705.667
340.6168, 2720.127
341.0989, 2734.321
341.5810, 2747.935
342.0631, 2760.957
342.5452, 2773.976
343.0273, 2787.377
343.5095, 2796.480
343.9916, 2796.046
344.4737, 2788.015
344.9558, 2787.527
345.4379, 2795.789
345.9200, 2806.790
346.4022, 2812.317
346.8843, 2813.392
347.3664, 2816.710
347.8485, 2826.034
348.3306, 2839.042
348.8127, 2851.378
349.2949, 2863.214
349.7770, 2872.307
350.2591, 2874.646
350.7412, 2872.564
351.2233, 2871.430
351.7054, 2872.013
352.1876, 2875.179
352.6697, 2883.674
353.1518, 2896.840
353.6339, 2909.228
354.1160, 2914.388
354.5981, 2917.211
355.0803, 2925.190
355.5624, 2945.098
356.0445, 2962.016
356.5266, 2957.984
357.0087, 2939.985
357.4908, 2929.493
357.9730, 2946.610
358.4551, 2970.557
358.9372, 2984.634
359.4193, 2983.411
359.9014, 2980.527
360.3835, 2981.738
360.8657, 2985.684
361.3478, 2990.030
361.8299, 2995.506
362.3120, 2999.921
362.7941, 3003.720
363.2762, 3008.005
363.7584, 3005.024
364.2405, 2987.939
364.7226, 2964.510
365.2047, 2943.034
365.6868, 2916.150
366.1689, 2900.212
366.6511, 2905.303
367.1332, 2932.437
367.6153, 2947.942
368.0974, 2943.912
368.5795, 2931.705
369.0616, 2918.467
369.5438, 2899.391
370.0259, 2886.194
370.5080, 2884.374
370.9901, 2890.375
371.4722, 2885.200
371.9543, 2860.940
372.4365, 2836.209
372.9186, 2821.572
373.4007, 2821.383
373.8828, 2818.289
374.3649, 2810.284
374.8470, 2800.402
375.3292, 2795.723
375.8113, 2797.793
376.2934, 2799.891
376.7755, 2799.137
377.2576, 2795.452
377.7397, 2791.545
378.2219, 2787.326
378.7040, 2783.305
379.1861, 2780.162
379.6682, 2777.870
380.1503, 2776.518
380.6324, 2777.091
381.1146, 2778.393
381.5967, 2776.419
382.0788, 2771.080
382.5609, 2763.769
383.0430, 2750.778
383.5251, 2736.123
384.0073, 2734.214
384.4894, 2755.160
384.9715, 2781.450
385.4536, 2785.367
385.9357, 2770.402
386.4178, 2754.713
386.9000, 2751.539
387.3821, 2754.182
387.8642, 2752.520
388.3463, 2742.664
388.8284, 2736.137
389.3105, 2748.855
389.7927, 2771.486
390.2748, 2784.889
390.7569, 2766.605
391.2390, 2745.952
391.7211, 2746.944
392.2032, 2773.844
392.6854, 2793.489
393.1675, 2782.913
393.6496, 2760.654
394.1317, 2746.445
394.6138, 2755.602
395.0959, 2763.619
395.5781, 2760.237
396.0602, 2746.665
396.5423, 2739.519
397.0244, 2744.144
397.5065, 2754.375
397.9886, 2766.552
398.4708, 2793.330
398.9529, 2805.759
399.4350, 2793.871
399.9171, 2767.511
400.3992, 2754.117
400.8813, 2761.103
401.3635, 2771.474
401.8456, 2779.368
402.3277, 2784.307
402.8098, 2788.454
403.2919, 2792.060
403.7740, 2794.611
404.2562, 2795.219
404.7383, 2793.503
405.2204, 2790.896
405.7025, 2785.945
406.1846, 2779.882
406.6667, 2784.553
407.1489, 2802.513
407.6310, 2820.476
408.1131, 2823.218
408.5952, 2812.318
409.0773, 2807.986
409.5594, 2815.555
410.0416, 2829.415
410.5237, 2839.585
411.0058, 2846.440
411.4879, 2853.471
411.9700, 2864.432
412.4521, 2876.969
412.9343, 2885.210
413.4164, 2887.827
413.8985, 2890.445
414.3806, 2901.109
414.8628, 2915.899
415.3449, 2926.627
415.8270, 2922.154
416.3091, 2917.024
416.7912, 2926.240
417.2733, 2949.711
417.7555, 2970.044
418.2376, 2977.464
418.7197, 2977.706
419.2018, 2975.963
419.6839, 2965.883
420.1660, 2963.012
420.6482, 2977.748
421.1303, 3005.149
421.6124, 3027.508
422.0945, 3036.650
422.5766, 3043.568
423.0587, 3054.103
423.5409, 3074.221
424.0230, 3085.744
424.5051, 3078.278
424.9872, 3065.291
425.4693, 3065.175
425.9514, 3081.160
426.4336, 3105.531
426.9157, 3140.922
427.3978, 3187.435
427.8799, 3218.449
428.3620, 3226.697
428.8441, 3230.527
429.3263, 3245.412
429.8084, 3272.899
430.2905, 3301.514
430.7726, 3330.018
431.2547, 3358.273
431.7368, 3386.097
432.2190, 3413.421
432.7011, 3439.847
433.1832, 3460.597
433.6653, 3478.802
434.1474, 3513.435
434.6295, 3568.178
435.1117, 3624.877
435.5938, 3662.144
436.0759, 3683.690
436.5580, 3701.059
437.0401, 3712.961
437.5222, 3726.859
438.0044, 3756.168
438.4865, 3799.072
438.9686, 3839.145
439.4507, 3865.075
439.9328, 3882.487
440.4149, 3896.846
440.8971, 3907.715
441.3792, 3919.079
441.8613, 3935.226
442.3434, 3953.449
442.8255, 3968.020
443.3076, 3979.862
443.7898, 3984.978
444.2719, 3978.289
444.7540, 3955.983
445.2361, 3941.062
445.7182, 3946.757
446.2003, 3956.971
446.6825, 3956.245
447.1646, 3935.289
447.6467, 3915.118
448.1288, 3897.861
448.6109, 3883.308
449.0930, 3870.258
449.5752, 3857.366
450.0573, 3848.613
450.5394, 3847.520
451.0215, 3856.569
451.5036, 3861.305
451.9857, 3859.176
452.4679, 3856.137
452.9500, 3862.748
453.4321, 3879.534
453.9142, 3896.843
454.3963, 3911.180
454.8784, 3923.414
455.3606, 3935.020
455.8427, 3945.664
456.3248, 3962.257
456.8069, 3997.975
457.2890, 4043.960
457.7711, 4077.095
458.2533, 4087.602
458.7354, 4094.454
459.2175, 4120.206
459.6996, 4159.286
460.1817, 4196.474
460.6638, 4221.743
461.1460, 4242.574
461.6281, 4265.958
462.1102, 4292.769
462.5923, 4316.835
463.0744, 4338.499
463.5565, 4354.328
464.0387, 4361.036
464.5208, 4353.809
465.0029, 4341.363
465.4850, 4324.626
465.9671, 4303.904
466.4492, 4281.779
466.9314, 4263.517
467.4135, 4239.387
467.8956, 4205.094
468.3777, 4159.369
468.8598, 4105.501
469.3419, 4036.207
469.8241, 3965.940
470.3062, 3919.231
470.7883, 3908.053
471.2704, 3879.700
471.7525, 3813.367
472.2346, 3718.118
472.7168, 3647.522
473.1989, 3604.911
473.6810, 3568.467
474.1631, 3520.389
474.6452, 3463.596
475.1273, 3412.980
475.6095, 3370.720
476.0916, 3334.277
476.5737, 3300.927
477.0558, 3270.887
477.5379, 3243.804
478.0201, 3217.218
478.5022, 3194.919
478.9843, 3185.244
479.4664, 3187.561
479.9485, 3184.580
480.4306, 3161.801
480.9128, 3130.415
481.3949, 3100.123
481.8770, 3069.054
482.3591, 3046.280
482.8412, 3039.947
483.3233, 3044.142
483.8055, 3045.170
484.2876, 3038.125
484.7697, 3029.565
485.2518, 3021.870
485.7339, 3015.608
486.2160, 3007.053
486.6982, 2996.605
487.1803, 2983.614
487.6624, 2965.595
488.1445, 2936.760
488.6266, 2919.970
489.1087, 2921.555
489.5909, 2935.225
490.0730, 2944.337
490.5551, 2948.914
491.0372, 2948.789
491.5193, 2941.647
492.0014, 2928.894
492.4836, 2919.191
492.9657, 2912.869
493.4478, 2908.664
493.9299, 2904.037
494.4120, 2900.367
494.8941, 2902.466
495.3763, 2918.845
495.8584, 2932.824
496.3405, 2919.459
496.8226, 2886.227
497.3047, 2859.679
497.7868, 2858.277
498.2690, 2866.251
498.7511, 2873.036
499.2332, 2877.468
499.7153, 2880.417
500.1974, 2880.866
500.6795, 2880.552
501.1617, 2881.334
501.6438, 2885.560
502.1259, 2888.602
502.6080, 2889.872
503.0901, 2889.422
503.5722, 2886.937
504.0544, 2879.247
504.5365, 2873.906
505.0186, 2875.270
505.5007, 2885.647
505.9828, 2890.779
506.4649, 2889.185
506.9471, 2885.072
507.4292, 2883.602
507.9113, 2884.829
508.3934, 2886.842
508.8755, 2891.513
509.3576, 2894.460
509.8398, 2880.446
510.3219, 2851.508
510.8040, 2829.141
511.2861, 2831.855
511.7682, 2848.795
512.2504, 2864.310
512.7325, 2877.283
513.2146, 2886.306
513.6967, 2890.933
514.1788, 2890.860
514.6609, 2885.743
515.1431, 2869.000
515.6252, 2853.544
516.1073, 2841.422
516.5894, 2834.050
517.0715, 2837.610
517.5536, 2870.626
518.0358, 2900.514
518.5179, 2911.933
519.0000, 2899.343
519.4821, 2884.125
519.9642, 2857.960
520.4464, 2836.325
520.9285, 2839.829
521.4106, 2881.624
521.8927, 2906.599
522.3748, 2899.960
522.8569, 2872.871
523.3391, 2860.251
523.8212, 2862.997
524.3033, 2871.188
524.7854, 2883.153
525.2675, 2896.361
525.7496, 2899.428
526.2318, 2891.071
526.7139, 2881.355
527.1960, 2880.308
527.6781, 2884.954
528.1602, 2890.097
528.6423, 2896.502
529.1245, 2899.595
529.6066, 2892.941
530.0887, 2879.877
530.5708, 2869.553
531.0529, 2864.199
531.5350, 2864.008
532.0172, 2871.936
532.4993, 2890.477
532.9814, 2901.668
533.4635, 2894.740
533.9456, 2884.668
534.4277, 2882.917
534.9099, 2894.152
535.3920, 2905.855
535.8741, 2918.474
536.3562, 2930.312
536.8383, 2936.308
537.3204, 2935.346
537.8026, 2933.191
538.2847, 2932.995
538.7668, 2933.826
539.2489, 2927.014
539.7310, 2911.462
540.2131, 2899.160
540.6953, 2904.306
541.1774, 2920.623
541.6595, 2932.118
542.1416, 2935.909
542.6237, 2934.185
543.1058, 2925.685
543.5880, 2913.396
544.0701, 2903.281
544.5522, 2895.783
545.0343, 2892.907
545.5164, 2898.064
545.9985, 2910.520
546.4807, 2921.021
546.9628, 2924.653
547.4449, 2927.232
547.9270, 2932.220
548.4091, 2941.467
548.8912, 2949.853
549.3734, 2957.120
549.8555, 2963.698
550.3376, 2970.276
550.8197, 2977.235
551.3018, 2981.829
551.7839, 2978.469
552.2661, 2953.944
552.7482, 2982.424
553.2303, 2999.892
553.7124, 3006.939
554.1945, 2972.357
554.6766, 2991.531
555.1588, 2989.162
555.6409, 2985.910
556.1230, 3012.650
556.6051, 2984.122
557.0872, 3010.387
557.5693, 3014.779
558.0515, 3029.183
558.5336, 3021.909
559.0157, 3021.331
559.4978, 3042.436
559.9799, 3051.534
560.4620, 3041.765
560.9442, 3056.805
561.4263, 3027.520
561.9084, 3037.130
562.3905, 3063.522
562.8726, 3054.843
563.3547, 3070.278
563.8369, 3076.530
564.3190, 3041.043
564.8011, 3078.143
565.2832, 3083.852
565.7653, 3057.329
566.2474, 3091.941
566.7296, 3069.862
567.2117, 3068.018
567.6938, 3090.478
568.1759, 3111.401
568.6580, 3110.659
569.1401, 3091.210
569.6223, 3076.817
570.1044, 3094.351
570.5865, 3120.461
571.0686, 3124.347
571.5507, 3099.134
572.0328, 3079.436
572.5150, 3090.738
572.9971, 3114.049
573.4792, 3129.855
573.9613, 3122.348
574.4434, 3119.517
574.9255, 3129.617
575.4077, 3148.083
575.8898, 3162.244
576.3719, 3169.487
576.8540, 3176.805
577.3361, 3187.465
577.8182, 3201.418
578.3004, 3209.034
578.7825, 3209.773
579.2646, 3205.957
579.7467, 3193.474
580.2288, 3175.395
580.7109, 3176.176
581.1931, 3201.476
581.6752, 3234.109
582.1573, 3255.756
582.6394, 3268.481
583.1215, 3277.597
583.6036, 3284.178
584.0858, 3288.787
584.5679, 3290.585
585.0500, 3290.393
585.5321, 3291.267
586.0142, 3297.193
586.4963, 3302.172
586.9785, 3300.921
587.4606, 3289.737
587.9427, 3289.674
588.4248, 3310.699
588.9069, 3335.090
589.3890, 3347.745
589.8712, 3340.445
590.3533, 3347.852
590.8354, 3379.811
591.3175, 3418.101
591.7996, 3423.655
592.2817, 3396.218
592.7639, 3377.136
593.2460, 3385.469
593.7281, 3409.312
594.2102, 3423.410
594.6923, 3428.911
595.1744, 3432.489
595.6566, 3434.680
596.1387, 3439.310
596.6208, 3454.338
597.1029, 3482.857
597.5850, 3501.890
598.0671, 3490.379
598.5493, 3468.956
599.0314, 3456.878
599.5135, 3460.091
599.9956, 3470.013
600.4777, 3492.617
600.9598, 3519.591
601.4420, 3533.440
601.9241, 3529.332
602.4062, 3522.244
602.8883, 3513.505
603.3704, 3505.069
603.8525, 3513.349
604.3347, 3541.042
604.8168, 3561.508
605.2989, 3545.723
605.7810, 3508.536
606.2631, 3495.837
606.7452, 3512.531
607.2274, 3535.130
607.7095, 3544.304
608.1916, 3545.781
608.6737, 3547.500
609.1558, 3553.896
609.6379, 3557.716
610.1201, 3553.869
610.6022, 3545.419
611.0843, 3538.601
611.5664, 3533.459
612.0485, 3531.585
612.5306, 3535.039
613.0128, 3543.125
613.4949, 3546.625
613.9770, 3543.677
614.4591, 3540.004
614.9412, 3538.615
615.4233, 3539.526
615.9055, 3541.346
616.3876, 3544.025
616.8697, 3547.762
617.3518, 3554.123
617.8339, 3561.772
618.3160, 3567.770
618.7982, 3572.709
619.2803, 3572.794
619.7624, 3558.303
620.2445, 3536.827
620.7266, 3523.350
621.2087, 3533.435
621.6909, 3543.630
622.1730, 3540.656
622.6551, 3526.718
623.1372, 3523.194
623.6193, 3544.442
624.1014, 3564.090
624.5836, 3572.028
625.0657, 3566.850
625.5478, 3556.893
626.0299, 3538.373
626.5120, 3523.658
626.9941, 3530.348
627.4763, 3556.134
627.9584, 3566.109
628.4405, 3552.779
628.9226, 3530.808
629.4047, 3519.405
629.8868, 3514.859
630.3690, 3507.894
630.8511, 3492.765
631.3332, 3475.821
631.8153, 3462.951
632.2974, 3452.264
632.7795, 3437.385
633.2617, 3413.250
633.7438, 3387.164
634.2259, 3360.056
634.7080, 3331.019
635.1901, 3311.478
635.6722, 3306.030
636.1544, 3304.344
636.6365, 3300.118
637.1186, 3293.252
637.6007, 3286.426
638.0828, 3281.395
638.5649, 3271.483
639.0471, 3242.968
639.5292, 3200.583
640.0113, 3166.332
640.4934, 3147.222
640.9755, 3136.300
641.4576, 3127.899
641.9398, 3121.925
642.4219, 3118.368
642.9040, 3125.568
643.3861, 3127.476
643.8682, 3111.895
644.3503, 3080.475
644.8325, 3054.693
645.3146, 3039.395
645.7967, 3028.751
646.2788, 3021.333
646.7609, 3017.739
647.2430, 3013.543
647.7252, 3009.112
648.2073, 3003.168
648.6894, 2993.154
649.1715, 2979.597
649.6536, 2969.549
650.1357, 2964.418
650.6179, 2960.838
651.1000, 2955.971
651.5821, 2949.290
652.0642, 2939.599
652.5463, 2921.970
653.0284, 2906.178
653.5106, 2900.136
653.9927, 2901.125
654.4748, 2901.675
654.9569, 2896.699
655.4390, 2893.874
655.9211, 2898.882
656.4033, 2910.999
656.8854, 2913.566
657.3675, 2903.630
657.8496, 2889.432
658.3317, 2873.983
658.8138, 2857.094
659.2960, 2845.017
659.7781, 2838.034
660.2602, 2834.468
660.7423, 2836.768
661.2244, 2840.825
661.7065, 2834.651
662.1887, 2811.958
662.6708, 2790.701
663.1529, 2788.494
663.6350, 2796.496
664.1171, 2801.189
664.5992, 2794.124
665.0814, 2787.719
665.5635, 2787.293
666.0456, 2790.458
666.5277, 2788.670
667.0098, 2779.505
667.4919, 2769.020
667.9741, 2756.973
668.4562, 2744.522
668.9383, 2744.318
669.4204, 2757.738
669.9025, 2771.855
670.3846, 2779.775
670.8668, 2781.519
671.3489, 2773.287
671.8310, 2754.579
672.3131, 2741.025
672.7952, 2752.242
673.2773, 2771.922
673.7595, 2782.248
674.2416, 2779.135
674.7237, 2767.537
675.2058, 2736.133
675.6879, 2702.378
676.1700, 2689.529
676.6522, 2715.809
677.1343, 2732.623
677.6164, 2734.398
678.0985, 2723.813
678.5806, 2700.139
679.0627, 2660.507
679.5449, 2640.069
