##NAMES=Peprossiite-(Ce)
##RRUFFID=R110144
##IDEAL CHEMISTRY=(Ce,La)Al_2_B_4_O_10.67_
##LOCALITY=Capranica, Vico Lake, Viterbo Province, Latium, Italy
##OWNER=RRUFF
##SOURCE=Donald M Doell 
##DESCRIPTION=Yellow platy crystals frozen in matrix
##STATUS=The identification of this mineral has been confirmed only by single crystal X-ray diffraction.
##URL=rruff.info/R110144
180.6480, 69.74415
181.1301, 69.55381
181.6122, 69.50900
182.0944, 69.69991
182.5765, 70.43444
183.0586, 72.30544
183.5407, 74.73068
184.0228, 76.41131
184.5049, 77.20213
184.9871, 77.90517
185.4692, 79.58437
185.9513, 82.08414
186.4334, 84.48579
186.9155, 86.29343
187.3976, 87.67032
187.8798, 89.24763
188.3619, 91.10654
188.8440, 92.92440
189.3261, 94.06763
189.8082, 94.60292
190.2903, 95.27182
190.7725, 96.66338
191.2546, 98.61508
191.7367, 99.98557
192.2188, 100.6152
192.7009, 100.9640
193.1830, 102.0447
193.6652, 103.8656
194.1473, 105.0753
194.6294, 104.4168
195.1115, 102.0976
195.5936, 100.9776
196.0757, 101.5574
196.5579, 102.8035
197.0400, 102.4942
197.5221, 100.4676
198.0042, 98.64095
198.4863, 98.18421
198.9684, 99.11348
199.4506, 100.0723
199.9327, 101.0379
200.4148, 101.8928
200.8969, 102.3168
201.3790, 102.2606
201.8611, 102.0733
202.3433, 101.9773
202.8254, 101.9938
203.3075, 101.7885
203.7896, 101.1789
204.2717, 100.4703
204.7538, 100.6077
205.2360, 101.8315
205.7181, 103.0029
206.2002, 103.2706
206.6823, 102.4092
207.1644, 102.1477
207.6465, 102.7885
208.1287, 104.0189
208.6108, 104.9581
209.0929, 105.5816
209.5750, 105.9855
210.0571, 106.1295
210.5392, 105.8971
211.0214, 106.0155
211.5035, 106.7693
211.9856, 107.8458
212.4677, 108.0467
212.9498, 106.9967
213.4319, 105.9199
213.9140, 105.6502
214.3962, 106.5028
214.8783, 107.0244
215.3604, 107.0016
215.8425, 106.5711
216.3246, 106.2619
216.8067, 106.0707
217.2889, 105.9976
217.7710, 106.1138
218.2531, 106.6031
218.7352, 106.6886
219.2173, 106.0919
219.6994, 105.0327
220.1816, 104.6588
220.6637, 105.3525
221.1458, 106.0536
221.6279, 106.0357
222.1100, 104.9592
222.5921, 104.0407
223.0743, 103.2914
223.5564, 102.7665
224.0385, 102.7706
224.5206, 103.5830
225.0027, 104.4839
225.4848, 105.0598
225.9670, 105.2903
226.4491, 105.2052
226.9312, 104.5835
227.4133, 103.6275
227.8954, 103.3721
228.3775, 104.2700
228.8597, 105.2150
229.3418, 105.4704
229.8239, 104.6135
230.3060, 104.0524
230.7881, 103.9606
231.2702, 104.2502
231.7524, 104.5128
232.2345, 104.6941
232.7166, 104.9149
233.1987, 105.2827
233.6808, 105.9946
234.1629, 106.3968
234.6451, 106.3362
235.1272, 105.9260
235.6093, 105.6352
236.0914, 105.3494
236.5735, 105.3371
237.0556, 105.8689
237.5378, 107.5623
238.0199, 108.4384
238.5020, 108.1961
238.9841, 107.0613
239.4662, 105.8608
239.9483, 104.2165
240.4305, 103.0249
240.9126, 102.8689
241.3947, 104.4641
241.8768, 105.5159
242.3589, 105.7958
242.8410, 105.4748
243.3232, 105.1284
243.8053, 104.7053
244.2874, 104.3282
244.7695, 104.0766
245.2516, 104.0363
245.7337, 103.9021
246.2159, 103.5481
246.6980, 103.1048
247.1801, 103.0423
247.6622, 103.6390
248.1443, 104.1903
248.6264, 104.3268
249.1086, 103.8136
249.5907, 103.4461
250.0728, 103.2365
250.5549, 103.1805
251.0370, 103.3387
251.5191, 104.0441
252.0013, 104.4396
252.4834, 104.0186
252.9655, 102.2033
253.4476, 101.1634
253.9297, 101.3378
254.4118, 102.0945
254.8940, 101.8938
255.3761, 100.0402
255.8582, 98.45840
256.3403, 98.11811
256.8224, 99.62635
257.3046, 100.3045
257.7867, 99.78722
258.2688, 98.66531
258.7509, 98.11885
259.2330, 98.41664
259.7151, 98.74753
260.1973, 98.80283
260.6794, 98.52499
261.1615, 98.20338
261.6436, 97.76900
262.1257, 97.35473
262.6078, 97.23481
263.0900, 97.56635
263.5721, 97.82204
264.0542, 97.77203
264.5363, 97.34138
265.0184, 97.14575
265.5005, 97.29558
265.9827, 97.55075
266.4648, 97.45482
266.9469, 96.73606
267.4290, 96.48391
267.9111, 97.27950
268.3932, 99.23483
268.8754, 100.1908
269.3575, 99.78313
269.8396, 98.93380
270.3217, 98.87844
270.8038, 99.84304
271.2859, 100.7191
271.7681, 101.2235
272.2502, 101.3602
272.7323, 101.1903
273.2144, 100.5520
273.6965, 99.94051
274.1786, 99.93685
274.6608, 100.6403
275.1429, 101.4339
275.6250, 102.2394
276.1071, 103.0248
276.5892, 103.5132
277.0714, 103.6178
277.5535, 103.6523
278.0356, 103.9122
278.5177, 104.4155
278.9998, 104.9437
279.4819, 105.4259
279.9641, 105.9046
280.4462, 106.6868
280.9283, 107.9096
281.4104, 108.8528
281.8925, 108.6218
282.3746, 107.1913
282.8568, 106.5040
283.3389, 107.0573
283.8210, 108.4136
284.3031, 109.4530
284.7852, 110.1819
285.2673, 110.5923
285.7495, 110.5119
286.2316, 109.9959
286.7137, 109.7735
287.1958, 109.9967
287.6779, 110.4704
288.1600, 110.8291
288.6422, 111.0720
289.1243, 111.2384
289.6064, 111.3309
290.0885, 111.3575
290.5706, 111.3848
291.0527, 111.4487
291.5349, 111.4326
292.0170, 111.0076
292.4991, 110.2241
292.9812, 109.6221
293.4633, 109.5629
293.9454, 109.9244
294.4276, 110.3719
294.9097, 110.9066
295.3918, 111.4241
295.8739, 111.7919
296.3560, 112.0227
296.8381, 112.1922
297.3203, 112.3486
297.8024, 112.4646
298.2845, 112.4153
298.7666, 112.1743
299.2487, 112.0168
299.7308, 112.3143
300.2130, 112.9347
300.6951, 113.4956
301.1772, 113.9324
301.6593, 114.1790
302.1414, 113.8711
302.6235, 113.0322
303.1057, 112.5843
303.5878, 113.7803
304.0699, 115.8695
304.5520, 117.4272
305.0341, 117.6886
305.5162, 117.4992
305.9984, 117.7294
306.4805, 118.3251
306.9626, 118.9300
307.4447, 119.4012
307.9268, 119.7024
308.4089, 119.6869
308.8911, 118.9069
309.3732, 118.4370
309.8553, 119.7750
310.3374, 122.3138
310.8195, 124.0223
311.3016, 122.9296
311.7838, 120.8939
312.2659, 119.5398
312.7480, 119.2803
313.2301, 119.5113
313.7122, 120.2202
314.1943, 121.1586
314.6765, 121.7879
315.1586, 121.9095
315.6407, 121.6200
316.1228, 120.7749
316.6049, 119.1286
317.0870, 117.9347
317.5692, 118.1577
318.0513, 119.0848
318.5334, 119.7201
319.0155, 119.5986
319.4976, 119.2421
319.9797, 118.8200
320.4619, 118.3376
320.9440, 117.8885
321.4261, 117.5001
321.9082, 117.1604
322.3903, 116.8605
322.8724, 116.4811
323.3546, 116.2561
323.8367, 116.2889
324.3188, 116.5719
324.8009, 116.8778
325.2830, 117.2142
325.7651, 117.5343
326.2473, 117.8076
326.7294, 118.0162
327.2115, 118.2007
327.6936, 118.4017
328.1757, 118.5974
328.6578, 118.6796
329.1400, 118.4825
329.6221, 118.3149
330.1042, 118.3187
330.5863, 118.6992
331.0684, 118.8989
331.5505, 118.6500
332.0327, 118.2660
332.5148, 118.4938
332.9969, 119.9026
333.4790, 121.1521
333.9611, 121.7361
334.4432, 121.4208
334.9254, 121.3682
335.4075, 121.6910
335.8896, 122.1745
336.3717, 122.4984
336.8538, 122.5364
337.3359, 122.7128
337.8180, 123.1793
338.3001, 123.9282
338.7823, 124.6260
339.2644, 125.3005
339.7465, 125.8614
340.2286, 126.2476
340.7107, 126.4765
341.1928, 126.3751
341.6750, 125.7333
342.1571, 124.7934
342.6392, 124.6087
343.1213, 125.2799
343.6034, 126.1639
344.0855, 127.0247
344.5677, 127.8319
345.0498, 127.7883
345.5319, 126.4856
346.0140, 124.8060
346.4961, 124.5555
346.9782, 125.6857
347.4604, 127.0412
347.9425, 128.2468
348.4246, 129.1896
348.9067, 129.1751
349.3888, 127.9915
349.8709, 126.7257
350.3531, 126.8814
350.8352, 128.1320
351.3173, 129.2618
351.7994, 129.7882
352.2815, 129.8591
352.7636, 129.6739
353.2458, 129.2318
353.7279, 128.6386
354.2100, 127.6787
354.6921, 126.6709
355.1742, 126.2203
355.6563, 126.9902
356.1385, 127.8734
356.6206, 127.7029
357.1027, 126.6515
357.5848, 125.5950
358.0669, 124.8150
358.5490, 124.3899
359.0312, 124.5470
359.5133, 125.7548
359.9954, 126.5755
360.4775, 125.5793
360.9596, 123.5915
361.4417, 122.3765
361.9239, 123.6743
362.4060, 125.1401
362.8881, 125.2872
363.3702, 123.6532
363.8523, 122.3754
364.3344, 122.2895
364.8166, 122.8757
365.2987, 123.5469
365.7808, 124.4718
366.2629, 125.1458
366.7450, 125.3158
367.2271, 124.9839
367.7093, 124.7720
368.1914, 124.8632
368.6735, 125.0246
369.1556, 125.1056
369.6377, 125.0481
370.1198, 124.9647
370.6020, 124.7082
371.0841, 124.4049
371.5662, 124.5466
372.0483, 125.5029
372.5304, 126.4476
373.0125, 126.9974
373.4947, 126.9065
373.9768, 127.1488
374.4589, 127.9479
374.9410, 128.9037
375.4231, 129.2730
375.9052, 128.7543
376.3874, 128.5130
376.8695, 128.9510
377.3516, 130.0618
377.8337, 131.2173
378.3158, 132.5149
378.7979, 133.6447
379.2801, 134.2448
379.7622, 134.3029
380.2443, 134.1884
380.7264, 133.8270
381.2085, 133.4596
381.6906, 133.8714
382.1728, 135.0732
382.6549, 136.2967
383.1370, 136.8557
383.6191, 136.9614
384.1012, 137.4916
384.5833, 138.6228
385.0655, 139.9009
385.5476, 140.7301
386.0297, 141.1934
386.5118, 141.5492
386.9939, 141.6833
387.4760, 141.8865
387.9582, 142.7229
388.4403, 144.2164
388.9224, 145.6895
389.4045, 146.6915
389.8866, 147.2967
390.3687, 147.5757
390.8509, 147.1109
391.3330, 146.8036
391.8151, 147.4126
392.2972, 148.7683
392.7793, 150.1787
393.2614, 151.4313
393.7436, 152.5213
394.2257, 153.4601
394.7078, 154.2116
395.1899, 154.8799
395.6720, 155.5009
396.1541, 156.0596
396.6363, 156.5328
397.1184, 156.9650
397.6005, 157.2617
398.0826, 157.2371
398.5647, 156.7918
399.0468, 156.8363
399.5290, 158.2691
400.0111, 159.7702
400.4932, 160.2741
400.9753, 158.9139
401.4574, 157.7079
401.9395, 156.8257
402.4217, 156.2341
402.9038, 155.8296
403.3859, 155.7776
403.8680, 155.6712
404.3501, 155.3122
404.8322, 154.6621
405.3144, 153.8857
405.7965, 152.9358
406.2786, 151.9266
406.7607, 150.9480
407.2428, 149.9218
407.7249, 149.3840
408.2071, 149.7573
408.6892, 150.8247
409.1713, 151.1726
409.6534, 150.7432
410.1355, 149.9150
410.6176, 148.7910
411.0998, 147.4725
411.5819, 146.6433
412.0640, 146.5658
412.5461, 146.8134
413.0282, 146.6906
413.5103, 146.2502
413.9925, 145.8075
414.4746, 145.7325
414.9567, 145.7063
415.4388, 145.0550
415.9209, 143.6301
416.4030, 142.4143
416.8852, 142.5290
417.3673, 143.3452
417.8494, 143.8353
418.3315, 143.3254
418.8136, 142.5975
419.2957, 142.1316
419.7779, 141.8992
420.2600, 141.6574
420.7421, 141.3575
421.2242, 140.9733
421.7063, 140.4741
422.1884, 139.7309
422.6706, 139.0962
423.1527, 138.5479
423.6348, 138.1737
424.1169, 138.1309
424.5990, 139.1398
425.0811, 139.8127
425.5633, 139.4923
426.0454, 137.9333
426.5275, 137.1077
427.0096, 137.3447
427.4917, 138.0443
427.9738, 138.7800
428.4560, 139.7819
428.9381, 140.2950
429.4202, 140.0153
429.9023, 139.2291
430.3844, 138.9855
430.8665, 139.5071
431.3487, 139.9426
431.8308, 139.8808
432.3129, 139.3133
432.7950, 138.3666
433.2771, 136.8763
433.7592, 135.4640
434.2414, 135.0906
434.7235, 135.6668
435.2056, 136.1100
435.6877, 136.0854
436.1698, 135.7132
436.6519, 135.0079
437.1341, 134.0112
437.6162, 133.4100
438.0983, 134.3682
438.5804, 135.9073
439.0625, 136.1323
439.5446, 134.3967
440.0268, 132.4632
440.5089, 132.1348
440.9910, 132.7599
441.4731, 133.0103
441.9552, 131.6911
442.4373, 130.2741
442.9195, 129.7562
443.4016, 130.1511
443.8837, 130.6340
444.3658, 131.0412
444.8479, 131.2990
445.3300, 131.3341
445.8122, 130.7793
446.2943, 130.4623
446.7764, 130.8327
447.2585, 131.5504
447.7406, 131.7430
448.2227, 130.5941
448.7049, 129.6752
449.1870, 129.6254
449.6691, 130.7349
450.1512, 130.9096
450.6333, 129.5872
451.1154, 127.9453
451.5976, 127.1975
452.0797, 127.7314
452.5618, 127.8800
453.0439, 127.3042
453.5260, 126.2282
454.0081, 125.2379
454.4903, 124.3131
454.9724, 123.5936
455.4545, 123.2527
455.9366, 123.2274
456.4187, 123.0009
456.9008, 122.5207
457.3830, 122.0439
457.8651, 121.9563
458.3472, 122.1385
458.8293, 122.2128
459.3114, 122.0320
459.7935, 121.7049
460.2757, 121.4217
460.7578, 121.1375
461.2399, 120.6294
461.7220, 119.4627
462.2041, 118.1685
462.6862, 117.2419
463.1684, 116.7649
463.6505, 116.6156
464.1326, 117.1866
464.6147, 117.9205
465.0968, 118.1001
465.5789, 116.8740
466.0611, 115.7120
466.5432, 115.0890
467.0253, 114.9733
467.5074, 114.8357
467.9895, 115.0152
468.4716, 114.8341
468.9538, 113.8436
469.4359, 111.1693
469.9180, 109.6607
470.4001, 109.7408
470.8822, 110.6802
471.3643, 111.4925
471.8465, 112.3047
472.3286, 112.5913
472.8107, 112.0795
473.2928, 110.9215
473.7749, 109.9321
474.2570, 109.1268
474.7392, 108.4342
475.2213, 107.7012
475.7034, 106.9877
476.1855, 106.8004
476.6676, 107.2984
477.1497, 107.9671
477.6319, 108.0891
478.1140, 107.7960
478.5961, 107.5100
479.0782, 107.4679
479.5603, 107.4965
480.0424, 107.3239
480.5246, 106.9879
481.0067, 106.8008
481.4888, 107.0584
481.9709, 107.4938
482.4530, 107.8692
482.9352, 108.1077
483.4173, 108.3591
483.8994, 108.7982
484.3815, 109.2619
484.8636, 109.4981
485.3457, 109.4101
485.8279, 109.1305
486.3100, 108.5243
486.7921, 107.5976
487.2742, 107.1139
487.7563, 107.2487
488.2384, 107.6470
488.7206, 108.1805
489.2027, 109.0668
489.6848, 109.4709
490.1669, 109.2280
490.6490, 108.6701
491.1311, 108.2498
491.6133, 107.9507
492.0954, 107.9512
492.5775, 108.4496
493.0596, 109.2519
493.5417, 109.5378
494.0238, 109.2959
494.5060, 109.1229
494.9881, 109.5574
495.4702, 110.3920
495.9523, 111.1808
496.4344, 111.8992
496.9165, 112.3849
497.3987, 112.1755
497.8808, 111.6448
498.3629, 111.5033
498.8450, 112.7218
499.3271, 113.8561
499.8092, 113.7850
500.2914, 112.7063
500.7735, 111.7377
501.2556, 111.3807
501.7377, 111.2038
502.2198, 110.8855
502.7019, 110.1203
503.1841, 109.9141
503.6662, 110.7567
504.1483, 112.0761
504.6304, 113.2083
505.1125, 114.0648
505.5946, 114.8812
506.0768, 115.8813
506.5589, 116.8898
507.0410, 116.8244
507.5231, 115.1726
508.0052, 113.8836
508.4873, 114.2819
508.9695, 116.3820
509.4516, 117.6667
509.9337, 118.0412
510.4158, 117.9279
510.8979, 117.6240
511.3800, 117.1961
511.8622, 116.9820
512.3443, 117.1669
512.8264, 117.4646
513.3085, 117.3407
513.7906, 116.9595
514.2728, 116.9091
514.7549, 118.0175
515.2370, 119.2780
515.7191, 119.7182
516.2012, 119.2262
516.6833, 118.7756
517.1655, 118.9293
517.6476, 119.2648
518.1297, 119.4143
518.6118, 118.7878
519.0939, 118.6131
519.5760, 119.4707
520.0582, 120.8893
520.5403, 121.7598
521.0224, 121.7840
521.5045, 121.6548
521.9866, 121.4914
522.4688, 121.2933
522.9509, 121.2744
523.4330, 121.4451
523.9151, 121.7644
524.3972, 122.2628
524.8793, 122.9431
525.3615, 123.5395
525.8436, 124.0709
526.3257, 124.4041
526.8078, 124.1049
527.2899, 123.3419
527.7720, 122.9474
528.2542, 123.5590
528.7363, 124.4746
529.2184, 124.6299
529.7005, 124.1684
530.1826, 123.8803
530.6647, 124.5797
531.1469, 125.4648
531.6290, 125.7679
532.1111, 125.2398
532.5932, 124.8389
533.0753, 125.0596
533.5574, 125.5490
534.0396, 125.9374
534.5217, 126.1326
535.0038, 126.2629
535.4859, 126.3863
535.9680, 126.4638
536.4501, 126.3177
536.9323, 125.6330
537.4144, 125.2730
537.8965, 125.7273
538.3786, 127.0267
538.8607, 127.6083
539.3428, 127.3125
539.8250, 126.7719
540.3071, 126.6068
540.7892, 126.7654
541.2713, 126.6400
541.7534, 125.9987
542.2355, 125.4399
542.7177, 126.0169
543.1998, 127.4195
543.6819, 128.6469
544.1640, 129.3459
544.6461, 129.5733
545.1282, 129.1811
545.6104, 128.2659
546.0925, 127.4166
546.5746, 126.6531
547.0567, 126.2617
547.5388, 126.6220
548.0209, 128.1861
548.5031, 129.1285
548.9852, 128.3311
549.4673, 127.0857
549.9494, 126.7985
550.4315, 128.5974
550.9136, 129.5877
551.3958, 129.0997
551.8779, 127.7019
552.3600, 127.1606
552.8421, 127.7035
553.3242, 128.2891
553.8063, 128.4802
554.2885, 128.3268
554.7706, 128.2108
555.2527, 128.1336
555.7348, 128.0834
556.2169, 128.1056
556.6990, 128.1463
557.1812, 128.0343
557.6633, 127.7054
558.1454, 127.3735
558.6275, 127.3213
559.1096, 127.4014
559.5917, 127.3513
560.0739, 126.8129
560.5560, 126.3598
561.0381, 126.3909
561.5202, 126.7882
562.0023, 127.0249
562.4844, 126.8193
562.9666, 126.5505
563.4487, 126.3713
563.9308, 126.2875
564.4129, 126.2805
564.8950, 126.4015
565.3771, 126.5415
565.8593, 126.5972
566.3414, 126.5324
566.8235, 126.5423
567.3056, 126.6651
567.7877, 126.8407
568.2698, 127.0173
568.7520, 127.1867
569.2341, 127.1670
569.7162, 126.7863
570.1983, 126.2471
570.6804, 125.9992
571.1625, 125.9859
571.6447, 125.7977
572.1268, 124.8143
572.6089, 123.7320
573.0910, 123.2938
573.5731, 123.6427
574.0552, 124.1230
574.5374, 124.5169
575.0195, 124.8625
575.5016, 125.1965
575.9837, 125.6102
576.4658, 125.9020
576.9479, 126.0401
577.4301, 126.0465
577.9122, 125.9468
578.3943, 125.6471
578.8764, 125.4156
579.3585, 125.3199
579.8406, 125.3508
580.3228, 125.4638
580.8049, 125.6654
581.2870, 125.9047
581.7691, 126.2548
582.2512, 126.6340
582.7333, 126.6522
583.2155, 126.2589
583.6975, 125.8057
584.1796, 125.6476
584.6617, 125.6454
585.1439, 125.5348
585.6260, 125.0892
586.1081, 124.8050
586.5902, 125.1657
587.0723, 125.8861
587.5544, 126.4084
588.0366, 126.3899
588.5187, 126.3422
589.0008, 126.5157
589.4829, 126.8810
589.9650, 126.8908
590.4471, 126.3218
590.9293, 125.6753
591.4114, 125.1432
591.8935, 124.6972
592.3756, 124.6220
592.8577, 125.0671
593.3398, 125.4763
593.8220, 125.0526
594.3041, 123.9480
594.7862, 123.4073
595.2683, 123.7691
595.7504, 124.4695
596.2325, 125.1564
596.7147, 125.6232
597.1968, 125.3276
597.6789, 123.0440
598.1610, 120.7426
598.6431, 119.9979
599.1252, 120.5414
599.6074, 121.0596
600.0895, 121.0641
600.5716, 120.9488
601.0537, 120.9708
601.5358, 121.2619
602.0179, 121.0759
602.5001, 120.0034
602.9822, 118.8510
603.4643, 118.2718
603.9464, 118.4718
604.4285, 118.3838
604.9106, 117.8573
605.3928, 117.1825
605.8749, 116.7881
606.3570, 116.6582
606.8391, 116.6227
607.3212, 116.7175
607.8033, 116.7660
608.2855, 116.4658
608.7676, 115.8754
609.2497, 115.2004
609.7318, 114.2352
610.2139, 113.4688
610.6960, 113.4807
611.1782, 114.2585
611.6603, 114.8050
612.1424, 114.5655
612.6245, 114.1385
613.1066, 113.9217
613.5887, 114.1702
614.0709, 114.0977
614.5530, 113.6107
615.0351, 112.8878
615.5172, 111.9804
615.9993, 110.7009
616.4814, 110.1444
616.9636, 110.6808
617.4457, 111.6897
617.9278, 111.9232
618.4099, 111.4531
618.8920, 111.0400
619.3741, 111.0274
619.8563, 111.2260
620.3384, 111.3748
620.8205, 111.4877
621.3026, 111.6391
621.7847, 112.1403
622.2668, 112.5031
622.7490, 112.1601
623.2311, 110.9671
623.7132, 110.2512
624.1953, 110.7514
624.6774, 111.5912
625.1595, 112.1523
625.6417, 112.1848
626.1238, 112.4480
626.6059, 113.1395
627.0880, 113.8473
627.5701, 113.9337
628.0522, 113.3220
628.5344, 112.8643
629.0165, 112.8040
629.4986, 112.8950
629.9807, 112.4327
630.4628, 111.5854
630.9449, 111.2673
631.4271, 112.5534
631.9092, 114.1888
632.3913, 114.7615
632.8734, 114.3902
633.3555, 113.8800
633.8376, 113.1869
634.3198, 112.8236
634.8019, 113.3347
635.2840, 115.0850
635.7661, 116.0237
636.2482, 115.5198
636.7303, 114.5085
637.2125, 113.4864
637.6946, 112.1289
638.1767, 111.8680
638.6588, 113.1617
639.1409, 114.8600
639.6230, 115.2009
640.1052, 114.2767
640.5873, 113.4078
641.0694, 112.9208
641.5515, 112.6731
642.0336, 112.5005
642.5157, 112.4020
642.9979, 112.3722
643.4800, 112.5038
643.9621, 112.6237
644.4442, 112.5952
644.9263, 112.4375
645.4084, 112.2734
645.8906, 112.2911
646.3727, 112.1821
646.8548, 111.7032
647.3369, 110.7670
647.8190, 110.1736
648.3011, 110.0155
648.7833, 110.0698
649.2654, 110.3027
649.7475, 110.7693
650.2296, 110.6139
650.7117, 109.6559
651.1938, 108.5939
651.6760, 108.4325
652.1581, 108.8988
652.6402, 109.1132
653.1223, 108.6929
653.6044, 108.2749
654.0865, 108.6524
654.5687, 109.4170
655.0508, 109.7861
655.5329, 108.9392
656.0150, 108.1921
656.4971, 108.0738
656.9792, 108.4921
657.4614, 108.9292
657.9435, 109.5818
658.4256, 109.9306
658.9077, 109.6769
659.3898, 108.8598
659.8719, 108.4966
660.3541, 108.6551
660.8362, 108.9475
661.3183, 109.3014
661.8004, 109.5874
662.2825, 109.0713
662.7646, 107.6548
663.2468, 106.4782
663.7289, 106.8213
664.2110, 107.9033
664.6931, 108.7547
665.1752, 109.2145
665.6573, 109.2960
666.1395, 108.5660
666.6216, 107.6344
667.1037, 107.2510
667.5858, 108.0927
668.0679, 108.7693
668.5500, 109.1258
669.0322, 109.2778
669.5143, 109.4966
669.9964, 109.8349
670.4785, 109.9712
670.9606, 109.7306
671.4427, 109.2735
671.9249, 108.9478
672.4070, 108.7714
672.8891, 108.9171
673.3712, 109.9798
673.8533, 111.1276
674.3354, 111.1773
674.8176, 110.2186
675.2997, 109.4442
675.7818, 109.4969
676.2639, 109.8951
676.7460, 110.4013
677.2281, 111.0357
677.7103, 111.5693
678.1924, 112.1078
