##NAMES=Peretaite
##RRUFFID=R060459
##IDEAL CHEMISTRY=CaSb^3+^_4_O_4_(S^6+^O_4_)_2_(OH)_2_&#183;2H_2_O
##LOCALITY=Pereta mine, Grosseto, Tuscany, Italy
##OWNER=RRUFF
##SOURCE=Michael Scott
##DESCRIPTION=Colorless thin plates, with red incrustations of valentinite
##STATUS=The identification of this mineral has been confirmed by single-crystal X-ray diffraction.
##URL=rruff.info/R060459
178.2984, 1350.050
178.7805, 1360.006
179.2626, 1367.249
179.7447, 1371.466
180.2268, 1374.613
180.7090, 1377.787
181.1911, 1381.246
181.6732, 1385.813
182.1553, 1392.623
182.6374, 1400.684
183.1195, 1407.517
183.6017, 1412.979
184.0838, 1418.222
184.5659, 1424.699
185.0480, 1432.229
185.5301, 1440.283
186.0123, 1447.413
186.4944, 1454.708
186.9765, 1465.543
187.4586, 1480.327
187.9407, 1497.768
188.4228, 1517.003
188.9050, 1537.763
189.3871, 1558.371
189.8692, 1577.236
190.3513, 1594.777
190.8334, 1613.968
191.3155, 1635.186
191.7977, 1657.155
192.2798, 1678.549
192.7619, 1699.398
193.2440, 1718.138
193.7261, 1734.970
194.2082, 1749.635
194.6904, 1759.396
195.1725, 1763.788
195.6546, 1764.046
196.1367, 1762.510
196.6188, 1759.338
197.1009, 1752.800
197.5831, 1741.235
198.0652, 1724.565
198.5473, 1707.141
199.0294, 1688.900
199.5115, 1670.391
199.9937, 1652.284
200.4758, 1634.582
200.9579, 1618.441
201.4400, 1604.394
201.9221, 1592.349
202.4042, 1583.544
202.8864, 1578.719
203.3685, 1576.436
203.8506, 1572.680
204.3327, 1566.538
204.8148, 1562.675
205.2969, 1564.298
205.7791, 1572.160
206.2612, 1579.885
206.7433, 1586.962
207.2254, 1593.797
207.7075, 1601.467
208.1896, 1610.142
208.6718, 1619.225
209.1539, 1628.342
209.6360, 1637.177
210.1181, 1647.352
210.6002, 1659.344
211.0823, 1672.544
211.5645, 1685.369
212.0466, 1698.073
212.5287, 1710.034
213.0108, 1720.742
213.4929, 1729.910
213.9750, 1739.270
214.4572, 1748.855
214.9393, 1758.710
215.4214, 1769.537
215.9035, 1782.172
216.3856, 1794.146
216.8678, 1803.566
217.3499, 1809.474
217.8320, 1816.287
218.3141, 1824.365
218.7962, 1833.310
219.2783, 1841.605
219.7605, 1848.122
220.2426, 1855.786
220.7247, 1865.846
221.2068, 1877.948
221.6889, 1893.363
222.1710, 1912.691
222.6532, 1935.215
223.1353, 1957.809
223.6174, 1979.691
224.0995, 2003.420
224.5816, 2030.715
225.0637, 2063.974
225.5459, 2095.469
226.0280, 2124.556
226.5101, 2151.951
226.9922, 2179.616
227.4743, 2211.507
227.9564, 2237.890
228.4386, 2254.448
228.9207, 2259.867
229.4028, 2258.167
229.8849, 2250.200
230.3670, 2235.044
230.8492, 2208.968
231.3313, 2168.374
231.8134, 2122.763
232.2955, 2075.096
232.7776, 2024.303
233.2597, 1975.728
233.7419, 1929.269
234.2240, 1884.983
234.7061, 1844.154
235.1882, 1806.663
235.6703, 1772.961
236.1524, 1743.132
236.6346, 1718.306
237.1167, 1695.064
237.5988, 1672.971
238.0809, 1652.530
238.5630, 1634.588
239.0451, 1619.385
239.5273, 1606.481
240.0094, 1595.976
240.4915, 1588.844
240.9736, 1581.328
241.4557, 1572.795
241.9378, 1564.056
242.4200, 1556.979
242.9021, 1552.441
243.3842, 1548.025
243.8663, 1542.668
244.3484, 1535.688
244.8306, 1529.811
245.3127, 1525.479
245.7948, 1522.066
246.2769, 1518.493
246.7590, 1514.831
247.2411, 1510.963
247.7233, 1506.576
248.2054, 1501.049
248.6875, 1497.520
249.1696, 1497.037
249.6517, 1497.903
250.1338, 1497.359
250.6160, 1494.902
251.0981, 1491.947
251.5802, 1488.798
252.0623, 1485.274
252.5444, 1482.429
253.0265, 1480.409
253.5087, 1478.983
253.9908, 1477.916
254.4729, 1477.387
254.9550, 1476.879
255.4371, 1476.419
255.9192, 1476.142
256.4014, 1474.675
256.8835, 1471.022
257.3656, 1467.168
257.8477, 1465.701
258.3298, 1467.901
258.8120, 1469.590
259.2941, 1469.576
259.7762, 1467.723
260.2583, 1466.238
260.7404, 1464.975
261.2225, 1464.201
261.7047, 1464.104
262.1868, 1464.544
262.6689, 1466.107
263.1510, 1469.801
263.6331, 1475.441
264.1152, 1477.188
264.5974, 1473.487
265.0795, 1468.261
265.5616, 1465.414
266.0437, 1465.613
266.5258, 1465.899
267.0079, 1465.763
267.4901, 1465.280
267.9722, 1465.123
268.4543, 1465.618
268.9364, 1465.869
269.4185, 1464.889
269.9006, 1462.232
270.3828, 1460.418
270.8649, 1460.016
271.3470, 1460.713
271.8291, 1460.822
272.3112, 1459.881
272.7933, 1459.480
273.2755, 1461.466
273.7576, 1466.500
274.2397, 1468.971
274.7218, 1467.508
275.2039, 1463.410
275.6860, 1460.363
276.1682, 1458.226
276.6503, 1457.557
277.1324, 1459.611
277.6145, 1464.761
278.0966, 1467.686
278.5787, 1467.755
279.0609, 1465.764
279.5430, 1462.745
280.0251, 1458.409
280.5072, 1455.198
280.9893, 1455.069
281.4715, 1458.018
281.9536, 1459.833
282.4357, 1460.056
282.9178, 1459.625
283.3999, 1460.254
283.8820, 1461.984
284.3642, 1463.543
284.8463, 1464.075
285.3284, 1463.677
285.8105, 1463.690
286.2926, 1464.008
286.7747, 1464.942
287.2569, 1467.466
287.7390, 1471.478
288.2211, 1474.723
288.7032, 1476.068
289.1853, 1475.855
289.6674, 1475.861
290.1496, 1476.237
290.6317, 1475.964
291.1138, 1473.020
291.5959, 1467.921
292.0780, 1464.227
292.5602, 1463.204
293.0423, 1464.334
293.5244, 1467.200
294.0065, 1471.914
294.4886, 1475.660
294.9707, 1474.597
295.4529, 1470.150
295.9350, 1467.629
296.4171, 1469.266
296.8992, 1472.746
297.3813, 1473.830
297.8634, 1472.697
298.3456, 1471.393
298.8277, 1471.392
299.3098, 1472.370
299.7919, 1473.780
300.2740, 1475.816
300.7561, 1477.676
301.2383, 1477.548
301.7204, 1475.969
302.2025, 1475.396
302.6846, 1478.074
303.1667, 1482.533
303.6488, 1486.836
304.1310, 1490.850
304.6131, 1494.048
305.0952, 1494.828
305.5773, 1494.164
306.0594, 1494.685
306.5415, 1499.040
307.0237, 1504.653
307.5058, 1508.809
307.9879, 1511.101
308.4700, 1512.787
308.9521, 1514.696
309.4343, 1516.672
309.9164, 1518.488
310.3985, 1519.643
310.8806, 1520.882
311.3627, 1522.658
311.8448, 1525.002
312.3270, 1528.062
312.8091, 1533.134
313.2912, 1538.594
313.7733, 1542.531
314.2554, 1543.482
314.7375, 1543.420
315.2197, 1542.192
315.7018, 1540.183
316.1839, 1540.544
316.6660, 1545.768
317.1481, 1553.430
317.6302, 1561.561
318.1124, 1570.722
318.5945, 1579.038
319.0766, 1585.515
319.5587, 1590.576
320.0408, 1595.800
320.5229, 1600.325
321.0051, 1606.093
321.4872, 1614.516
321.9693, 1627.594
322.4514, 1639.781
322.9335, 1649.261
323.4156, 1657.155
323.8978, 1665.617
324.3799, 1674.736
324.8620, 1684.735
325.3441, 1695.780
325.8262, 1707.892
326.3083, 1720.682
326.7905, 1734.676
327.2726, 1749.210
327.7547, 1763.276
328.2368, 1775.973
328.7189, 1789.223
329.2010, 1803.368
329.6832, 1818.286
330.1653, 1834.034
330.6474, 1850.673
331.1295, 1868.082
331.6116, 1886.506
332.0938, 1907.540
332.5759, 1927.062
333.0580, 1943.723
333.5401, 1958.139
334.0222, 1974.002
334.5043, 1993.002
334.9865, 2011.291
335.4686, 2027.015
335.9507, 2040.597
336.4328, 2050.638
336.9149, 2057.583
337.3970, 2060.787
337.8792, 2058.332
338.3613, 2049.640
338.8434, 2036.959
339.3255, 2020.811
339.8076, 2000.880
340.2898, 1979.310
340.7719, 1955.621
341.2540, 1930.876
341.7361, 1905.607
342.2182, 1880.098
342.7003, 1855.510
343.1825, 1832.199
343.6646, 1810.152
344.1467, 1791.173
344.6288, 1775.402
345.1109, 1761.121
345.5930, 1745.541
346.0752, 1729.219
346.5573, 1716.010
347.0394, 1707.427
347.5215, 1701.878
348.0036, 1695.748
348.4857, 1689.074
348.9679, 1682.716
349.4500, 1677.185
349.9321, 1672.405
350.4142, 1668.350
350.8963, 1665.251
351.3784, 1662.221
351.8606, 1657.915
352.3427, 1652.678
352.8248, 1647.679
353.3069, 1643.315
353.7890, 1639.751
354.2711, 1637.272
354.7533, 1635.973
355.2354, 1635.214
355.7175, 1635.210
356.1996, 1635.310
356.6817, 1634.370
357.1638, 1630.564
357.6460, 1626.510
358.1281, 1624.361
358.6102, 1624.014
359.0923, 1623.756
359.5744, 1622.459
360.0565, 1620.859
360.5387, 1619.720
361.0208, 1620.082
361.5029, 1619.911
361.9850, 1617.927
362.4671, 1614.630
362.9492, 1611.570
363.4314, 1608.991
363.9135, 1607.012
364.3956, 1605.815
364.8777, 1605.807
365.3598, 1605.665
365.8419, 1604.908
366.3241, 1603.904
366.8062, 1603.206
367.2883, 1603.038
367.7704, 1603.034
368.2526, 1602.972
368.7347, 1602.717
369.2168, 1603.182
369.6989, 1605.393
370.1810, 1607.690
370.6631, 1608.696
371.1453, 1607.427
371.6274, 1606.333
372.1095, 1605.890
372.5916, 1605.917
373.0737, 1605.178
373.5558, 1603.105
374.0380, 1601.087
374.5201, 1599.766
375.0022, 1599.051
375.4843, 1599.524
375.9664, 1601.776
376.4485, 1604.724
376.9307, 1606.160
377.4128, 1605.772
377.8949, 1605.106
378.3770, 1604.546
378.8591, 1604.120
379.3412, 1604.844
379.8234, 1607.061
380.3055, 1609.197
380.7876, 1609.057
381.2697, 1606.795
381.7518, 1605.079
382.2339, 1604.692
382.7161, 1605.248
383.1982, 1606.141
383.6803, 1607.346
384.1624, 1608.192
384.6445, 1607.609
385.1266, 1606.295
385.6088, 1606.148
386.0909, 1607.717
386.5730, 1609.682
387.0551, 1610.552
387.5372, 1610.557
388.0193, 1610.369
388.5015, 1610.057
388.9836, 1609.865
389.4657, 1609.917
389.9478, 1610.203
390.4299, 1611.139
390.9120, 1614.328
391.3942, 1617.922
391.8763, 1619.563
392.3584, 1615.564
392.8405, 1612.174
393.3226, 1613.541
393.8047, 1618.628
394.2869, 1622.692
394.7690, 1622.308
395.2511, 1621.410
395.7332, 1622.695
396.2154, 1628.263
396.6975, 1632.508
397.1796, 1633.030
397.6617, 1631.718
398.1438, 1631.805
398.6259, 1634.036
399.1081, 1637.381
399.5902, 1642.020
400.0723, 1648.275
400.5544, 1653.429
401.0365, 1656.954
401.5186, 1659.742
402.0008, 1662.372
402.4829, 1664.309
402.9650, 1667.121
403.4471, 1671.328
403.9292, 1676.539
404.4113, 1681.185
404.8935, 1685.542
405.3756, 1688.787
405.8577, 1689.833
406.3398, 1688.078
406.8219, 1688.802
407.3040, 1692.506
407.7862, 1697.908
408.2683, 1703.108
408.7504, 1708.083
409.2325, 1714.262
409.7146, 1722.503
410.1967, 1732.227
410.6789, 1742.003
411.1610, 1751.840
411.6431, 1762.085
412.1252, 1773.025
412.6073, 1784.555
413.0894, 1796.328
413.5716, 1808.049
414.0537, 1819.910
414.5358, 1832.409
415.0179, 1845.155
415.5000, 1857.341
415.9821, 1870.410
416.4643, 1881.461
416.9464, 1887.039
417.4285, 1886.648
417.9106, 1883.307
418.3927, 1878.342
418.8748, 1871.696
419.3570, 1863.410
419.8391, 1850.334
420.3212, 1838.592
420.8033, 1831.095
421.2854, 1827.255
421.7675, 1824.041
422.2497, 1819.459
422.7318, 1816.094
423.2139, 1815.571
423.6960, 1819.315
424.1781, 1823.237
424.6602, 1827.019
425.1424, 1830.742
425.6245, 1834.398
426.1066, 1836.151
426.5887, 1840.139
427.0709, 1847.887
427.5530, 1859.386
428.0351, 1869.765
428.5172, 1878.907
428.9993, 1887.200
429.4814, 1894.838
429.9636, 1901.653
430.4457, 1908.526
430.9278, 1915.896
431.4099, 1922.978
431.8920, 1927.998
432.3741, 1930.883
432.8563, 1932.573
433.3384, 1933.547
433.8205, 1933.720
434.3026, 1932.793
434.7847, 1930.871
435.2668, 1927.076
435.7490, 1919.533
436.2311, 1909.134
436.7132, 1899.473
437.1953, 1892.157
437.6774, 1885.037
438.1595, 1874.982
438.6417, 1862.408
439.1238, 1849.017
439.6059, 1834.814
440.0880, 1820.858
440.5701, 1808.499
441.0522, 1798.024
441.5344, 1787.845
442.0165, 1776.823
442.4986, 1765.555
442.9807, 1754.824
443.4628, 1744.999
443.9449, 1735.646
444.4271, 1726.674
444.9092, 1718.050
445.3913, 1709.570
445.8734, 1699.834
446.3555, 1691.433
446.8376, 1685.964
447.3198, 1685.622
447.8019, 1684.033
448.2840, 1680.341
448.7661, 1675.650
449.2482, 1671.364
449.7303, 1666.963
450.2125, 1664.001
450.6946, 1663.311
451.1767, 1664.676
451.6588, 1664.905
452.1409, 1663.987
452.6230, 1661.993
453.1052, 1658.188
453.5873, 1652.212
454.0694, 1649.276
454.5515, 1650.528
455.0337, 1653.400
455.5158, 1653.371
455.9979, 1650.634
456.4800, 1648.143
456.9621, 1647.442
457.4442, 1647.758
457.9264, 1647.045
458.4085, 1645.360
458.8906, 1644.026
459.3727, 1644.802
459.8548, 1646.498
460.3369, 1647.059
460.8191, 1645.632
461.3012, 1644.027
461.7833, 1643.744
462.2654, 1644.371
462.7475, 1645.030
463.2296, 1645.137
463.7118, 1645.345
464.1939, 1645.968
464.6760, 1647.021
465.1581, 1648.435
465.6402, 1650.190
466.1223, 1652.241
466.6045, 1654.531
467.0866, 1657.382
467.5687, 1659.994
468.0508, 1662.603
468.5329, 1664.906
469.0150, 1666.106
469.4972, 1664.694
469.9793, 1664.504
470.4614, 1667.513
470.9435, 1674.047
471.4256, 1677.042
471.9077, 1675.397
472.3899, 1672.467
472.8720, 1671.082
473.3541, 1671.323
473.8362, 1672.279
474.3183, 1674.035
474.8004, 1676.126
475.2826, 1677.896
475.7647, 1679.305
476.2468, 1679.867
476.7289, 1677.748
477.2110, 1674.892
477.6931, 1676.663
478.1753, 1683.068
478.6574, 1689.143
479.1395, 1689.932
479.6216, 1688.018
480.1037, 1687.438
480.5858, 1690.359
481.0680, 1692.720
481.5501, 1690.931
482.0322, 1686.592
482.5143, 1683.036
482.9964, 1682.458
483.4786, 1682.232
483.9607, 1681.249
484.4428, 1679.431
484.9249, 1677.089
485.4070, 1673.954
485.8892, 1670.560
486.3713, 1667.262
486.8534, 1663.854
487.3355, 1660.867
487.8176, 1657.918
488.2997, 1655.528
488.7819, 1655.032
489.2640, 1657.478
489.7461, 1659.406
490.2282, 1659.635
490.7103, 1658.234
491.1924, 1656.368
491.6746, 1653.826
492.1567, 1651.573
492.6388, 1650.774
493.1209, 1651.208
493.6030, 1650.989
494.0851, 1649.664
494.5673, 1648.111
495.0494, 1647.450
495.5315, 1647.610
496.0136, 1648.371
496.4957, 1650.412
496.9778, 1652.545
497.4600, 1653.422
497.9421, 1653.118
498.4242, 1652.433
498.9063, 1651.951
499.3884, 1651.255
499.8705, 1649.672
500.3527, 1646.186
500.8348, 1644.085
501.3169, 1646.561
501.7990, 1650.617
502.2811, 1652.030
502.7632, 1647.084
503.2454, 1642.620
503.7275, 1640.147
504.2096, 1639.543
504.6917, 1639.407
505.1738, 1640.449
505.6559, 1641.041
506.1381, 1640.075
506.6202, 1636.897
507.1023, 1634.988
507.5844, 1634.646
508.0665, 1635.070
508.5486, 1635.165
509.0308, 1634.913
509.5129, 1634.961
509.9950, 1635.406
510.4771, 1636.271
510.9592, 1637.915
511.4413, 1640.207
511.9235, 1642.205
512.4056, 1643.650
512.8877, 1644.257
513.3698, 1642.950
513.8519, 1639.459
514.3340, 1636.887
514.8162, 1638.984
515.2983, 1642.768
515.7804, 1644.609
516.2625, 1641.825
516.7446, 1638.997
517.2267, 1637.840
517.7089, 1638.037
518.1910, 1638.809
518.6731, 1641.836
519.1552, 1643.732
519.6373, 1642.340
520.1194, 1637.069
520.6016, 1634.923
521.0837, 1637.308
521.5658, 1641.237
522.0479, 1644.887
522.5300, 1648.535
523.0121, 1650.657
523.4943, 1650.954
523.9764, 1649.925
524.4585, 1647.711
524.9406, 1644.282
525.4227, 1642.635
525.9048, 1644.768
526.3870, 1648.986
526.8691, 1650.990
527.3513, 1650.905
527.8334, 1650.480
528.3155, 1651.117
528.7976, 1652.163
529.2797, 1652.710
529.7618, 1652.647
530.2440, 1652.103
530.7261, 1650.465
531.2082, 1648.608
531.6903, 1647.681
532.1724, 1648.171
532.6545, 1649.492
533.1367, 1652.395
533.6188, 1656.154
534.1009, 1658.308
534.5830, 1656.967
535.0651, 1655.405
535.5472, 1654.709
536.0294, 1655.021
536.5115, 1655.132
536.9936, 1654.629
537.4757, 1654.516
537.9578, 1655.714
538.4399, 1658.403
538.9221, 1661.609
539.4042, 1665.801
539.8863, 1669.547
540.3684, 1669.529
540.8505, 1666.096
541.3326, 1663.455
541.8148, 1663.742
542.2969, 1665.619
542.7790, 1666.685
543.2611, 1667.067
543.7432, 1667.788
544.2253, 1670.671
544.7075, 1673.650
545.1896, 1673.993
545.6717, 1670.696
546.1538, 1668.420
546.6359, 1670.641
547.1180, 1674.576
547.6002, 1677.243
548.0823, 1676.456
548.5644, 1676.069
549.0465, 1676.783
549.5286, 1678.390
550.0107, 1680.332
550.4929, 1683.066
550.9750, 1685.394
551.4571, 1686.705
551.9392, 1686.990
552.4213, 1688.248
552.9034, 1690.796
553.3856, 1693.322
553.8677, 1694.868
554.3498, 1695.455
554.8319, 1695.128
555.3140, 1693.667
555.7961, 1692.120
556.2783, 1691.536
556.7604, 1691.956
557.2425, 1693.614
557.7246, 1697.684
558.2067, 1701.932
558.6888, 1703.931
559.1710, 1704.215
559.6531, 1704.519
560.1352, 1706.179
560.6173, 1707.739
561.0994, 1707.936
561.5815, 1706.395
562.0637, 1706.045
562.5458, 1707.628
563.0279, 1710.512
563.5100, 1714.252
563.9921, 1719.510
564.4742, 1724.444
564.9564, 1728.909
565.4385, 1733.059
565.9206, 1737.031
566.4027, 1740.656
566.8848, 1744.691
567.3669, 1749.413
567.8491, 1754.614
568.3312, 1759.566
568.8133, 1764.250
569.2954, 1768.761
569.7775, 1771.830
570.2596, 1775.120
570.7418, 1782.430
571.2239, 1794.176
571.7060, 1805.777
572.1881, 1812.828
572.6702, 1818.252
573.1523, 1825.446
573.6345, 1835.908
574.1166, 1846.915
574.5987, 1857.067
575.0808, 1867.074
575.5629, 1878.324
576.0450, 1889.834
576.5272, 1903.785
577.0093, 1921.173
577.4914, 1941.411
577.9735, 1961.039
578.4556, 1978.908
578.9377, 1998.244
579.4199, 2021.057
579.9020, 2047.125
580.3841, 2074.521
580.8662, 2103.083
581.3483, 2133.441
581.8304, 2166.378
582.3126, 2201.408
582.7947, 2237.000
583.2768, 2273.136
583.7589, 2308.970
584.2410, 2342.826
584.7231, 2375.761
585.2053, 2409.874
585.6874, 2446.937
586.1696, 2484.519
586.6517, 2521.915
587.1338, 2558.834
587.6159, 2594.228
588.0980, 2628.762
588.5801, 2660.740
589.0623, 2688.731
589.5444, 2712.046
590.0265, 2736.364
590.5086, 2763.480
590.9907, 2789.325
591.4728, 2810.380
591.9550, 2825.735
592.4371, 2841.731
592.9192, 2859.376
593.4013, 2876.275
593.8834, 2891.388
594.3655, 2903.685
594.8477, 2906.511
595.3298, 2898.388
595.8119, 2879.024
596.2940, 2847.173
596.7761, 2803.651
597.2582, 2750.235
597.7404, 2682.242
598.2225, 2609.014
598.7046, 2534.905
599.1867, 2460.595
599.6688, 2390.005
600.1509, 2322.173
600.6331, 2259.023
601.1152, 2202.717
601.5973, 2153.794
602.0794, 2108.813
602.5615, 2067.413
603.0436, 2030.678
603.5258, 2000.924
604.0079, 1979.061
604.4900, 1959.950
604.9721, 1943.360
605.4542, 1928.683
605.9363, 1914.162
606.4185, 1900.230
606.9006, 1889.453
607.3827, 1884.846
607.8648, 1883.178
608.3469, 1880.412
608.8290, 1876.597
609.3112, 1872.130
609.7933, 1866.539
610.2754, 1860.822
610.7575, 1856.259
611.2396, 1853.475
611.7217, 1848.261
612.2039, 1837.802
612.6860, 1825.529
613.1681, 1813.909
613.6502, 1803.724
614.1323, 1792.923
614.6144, 1780.391
615.0966, 1768.304
615.5787, 1760.059
616.0608, 1756.411
616.5429, 1751.986
617.0250, 1745.141
617.5071, 1737.283
617.9893, 1731.506
618.4714, 1727.734
618.9535, 1725.417
619.4356, 1725.481
619.9177, 1726.128
620.3998, 1724.817
620.8820, 1721.723
621.3641, 1718.635
621.8462, 1716.672
622.3283, 1714.960
622.8104, 1712.667
623.2925, 1709.258
623.7747, 1706.896
624.2568, 1707.008
624.7389, 1707.629
625.2210, 1707.169
625.7031, 1705.152
626.1852, 1702.967
626.6674, 1700.481
627.1495, 1698.104
627.6316, 1696.486
628.1137, 1695.632
628.5958, 1695.630
629.0779, 1697.201
629.5601, 1698.867
630.0422, 1696.833
630.5243, 1691.940
631.0064, 1688.014
631.4885, 1687.953
631.9706, 1689.357
632.4528, 1690.161
632.9349, 1690.330
633.4170, 1690.385
633.8991, 1690.349
634.3812, 1690.442
634.8633, 1690.742
635.3455, 1691.156
635.8276, 1692.221
636.3097, 1694.945
636.7918, 1697.387
637.2739, 1697.456
637.7560, 1694.012
638.2382, 1692.837
638.7203, 1694.804
639.2024, 1698.315
639.6845, 1701.298
640.1666, 1703.742
640.6487, 1705.615
641.1309, 1706.773
641.6130, 1707.526
642.0951, 1707.815
642.5772, 1707.964
643.0594, 1708.925
643.5415, 1711.644
644.0236, 1714.888
644.5057, 1718.549
644.9879, 1722.433
645.4700, 1724.857
645.9521, 1723.566
646.4342, 1722.549
646.9163, 1723.895
647.3984, 1728.242
647.8806, 1730.836
648.3627, 1730.995
648.8448, 1730.837
649.3269, 1732.584
649.8090, 1736.248
650.2911, 1737.927
650.7733, 1737.189
651.2554, 1735.281
651.7375, 1733.730
652.2196, 1732.152
652.7017, 1729.527
653.1838, 1725.261
653.6660, 1720.417
654.1481, 1714.898
654.6302, 1709.493
655.1123, 1705.537
655.5944, 1704.492
656.0765, 1703.876
656.5587, 1702.983
657.0408, 1701.856
657.5229, 1700.822
658.0050, 1699.747
658.4871, 1698.984
658.9692, 1698.875
659.4514, 1699.283
659.9335, 1698.457
660.4156, 1696.218
660.8977, 1694.263
661.3798, 1694.621
661.8619, 1696.158
662.3441, 1695.132
662.8262, 1691.255
663.3083, 1688.216
663.7904, 1690.146
664.2725, 1693.950
664.7546, 1696.120
665.2368, 1695.344
665.7189, 1694.653
666.2010, 1696.237
666.6831, 1697.961
667.1652, 1697.178
667.6473, 1690.600
668.1295, 1687.081
668.6116, 1688.563
669.0937, 1692.443
669.5758, 1693.533
670.0579, 1691.584
670.5400, 1689.199
671.0222, 1686.636
671.5043, 1684.604
671.9864, 1684.877
672.4685, 1687.107
672.9506, 1689.670
673.4327, 1692.076
673.9149, 1694.030
674.3970, 1695.181
674.8791, 1695.578
675.3612, 1695.678
