##NAMES=Perhamite
##RRUFFID=R110142
##IDEAL CHEMISTRY=Ca_3_Al_7.7_Si_3_P_4_O_23.5_(OH)_14.1_&#183;8H_2_O
##LOCALITY=Emmons quarry, Uncle Tom Mountain, Greenwood, Oxford County, Maine, USA
##OWNER=RRUFF
##SOURCE=Donald Doell
##DESCRIPTION=Parallel aggregates of tan colored hexagonal plates
##STATUS=The identification of this mineral has been confirmed by single-crystal X-ray diffraction.
##URL=rruff.info/R110142
186.4334, 6512.755
186.9155, 6543.144
187.3976, 6569.224
187.8798, 6594.191
188.3619, 6618.678
188.8440, 6639.661
189.3261, 6651.642
189.8082, 6655.138
190.2903, 6655.385
190.7725, 6655.112
191.2546, 6653.958
191.7367, 6650.054
192.2188, 6643.489
192.7009, 6633.951
193.1830, 6619.086
193.6652, 6598.907
194.1473, 6580.612
194.6294, 6568.136
195.1115, 6561.192
195.5936, 6557.011
196.0757, 6555.382
196.5579, 6556.366
197.0400, 6560.678
197.5221, 6568.500
198.0042, 6577.425
198.4863, 6586.155
198.9684, 6594.654
199.4506, 6604.524
199.9327, 6616.224
200.4148, 6628.841
200.8969, 6640.376
201.3790, 6650.971
201.8611, 6660.641
202.3433, 6669.843
202.8254, 6678.791
203.3075, 6684.980
203.7896, 6687.498
204.2717, 6687.707
204.7538, 6689.359
205.2360, 6693.003
205.7181, 6695.643
206.2002, 6694.220
206.6823, 6687.374
207.1644, 6684.981
207.6465, 6689.335
208.1287, 6697.619
208.6108, 6701.533
209.0929, 6700.160
209.5750, 6696.802
210.0571, 6692.992
210.5392, 6688.309
211.0214, 6685.305
211.5035, 6685.041
211.9856, 6686.466
212.4677, 6685.329
212.9498, 6680.469
213.4319, 6676.072
213.9140, 6675.257
214.3962, 6679.647
214.8783, 6682.175
215.3604, 6681.532
215.8425, 6678.757
216.3246, 6678.256
216.8067, 6681.297
217.2889, 6684.049
217.7710, 6683.558
218.2531, 6677.761
218.7352, 6674.537
219.2173, 6674.838
219.6994, 6678.030
220.1816, 6681.307
220.6637, 6684.091
221.1458, 6687.656
221.6279, 6693.497
222.1100, 6704.154
222.5921, 6710.132
223.0743, 6709.433
223.5564, 6703.493
224.0385, 6698.808
224.5206, 6696.018
225.0027, 6693.902
225.4848, 6691.341
225.9670, 6686.677
226.4491, 6686.356
226.9312, 6693.095
227.4133, 6704.880
227.8954, 6711.724
228.3775, 6711.216
228.8597, 6709.223
229.3418, 6709.336
229.8239, 6712.797
230.3060, 6715.146
230.7881, 6714.733
231.2702, 6712.640
231.7524, 6714.619
232.2345, 6722.425
232.7166, 6731.386
233.1987, 6738.876
233.6808, 6744.898
234.1629, 6748.841
234.6451, 6749.409
235.1272, 6747.662
235.6093, 6748.864
236.0914, 6755.667
236.5735, 6761.797
237.0556, 6763.511
237.5378, 6758.488
238.0199, 6754.429
238.5020, 6752.214
238.9841, 6751.457
239.4662, 6750.370
239.9483, 6748.946
240.4305, 6747.623
240.9126, 6746.620
241.3947, 6745.896
241.8768, 6745.984
242.3589, 6747.210
242.8410, 6749.321
243.3232, 6751.091
243.8053, 6750.840
244.2874, 6752.478
244.7695, 6758.483
245.2516, 6772.189
245.7337, 6782.313
246.2159, 6786.974
246.6980, 6787.815
247.1801, 6790.416
247.6622, 6796.232
248.1443, 6801.377
248.6264, 6803.424
249.1086, 6799.614
249.5907, 6799.335
250.0728, 6803.554
250.5549, 6811.219
251.0370, 6819.831
251.5191, 6830.750
252.0013, 6840.745
252.4834, 6848.302
252.9655, 6852.128
253.4476, 6856.999
253.9297, 6862.905
254.4118, 6869.964
254.8940, 6878.971
255.3761, 6891.751
255.8582, 6903.221
256.3403, 6910.086
256.8224, 6909.011
257.3046, 6914.417
257.7867, 6929.099
258.2688, 6948.181
258.7509, 6961.939
259.2330, 6967.951
259.7151, 6973.063
260.1973, 6980.400
260.6794, 6991.156
261.1615, 6997.665
261.6436, 6997.880
262.1257, 6995.644
262.6078, 6997.572
263.0900, 7004.961
263.5721, 7013.813
264.0542, 7023.049
264.5363, 7033.029
265.0184, 7042.925
265.5005, 7053.493
265.9827, 7063.610
266.4648, 7070.664
266.9469, 7072.151
267.4290, 7078.007
267.9111, 7093.237
268.3932, 7118.651
268.8754, 7137.767
269.3575, 7149.279
269.8396, 7156.201
270.3217, 7161.720
270.8038, 7165.494
271.2859, 7168.375
271.7681, 7169.716
272.2502, 7169.562
272.7323, 7172.923
273.2144, 7181.058
273.6965, 7189.917
274.1786, 7195.521
274.6608, 7197.878
275.1429, 7197.080
275.6250, 7192.210
276.1071, 7184.006
276.5892, 7178.006
277.0714, 7175.041
277.5535, 7172.227
278.0356, 7166.626
278.5177, 7157.935
278.9998, 7148.990
279.4819, 7139.688
279.9641, 7130.608
280.4462, 7126.618
280.9283, 7129.483
281.4104, 7129.646
281.8925, 7116.549
282.3746, 7089.981
282.8568, 7068.913
283.3389, 7058.300
283.8210, 7053.950
284.3031, 7043.078
284.7852, 7024.962
285.2673, 7007.701
285.7495, 6997.320
286.2316, 6993.501
286.7137, 6990.899
287.1958, 6989.091
287.6779, 6987.985
288.1600, 6987.063
288.6422, 6986.279
289.1243, 6986.641
289.6064, 6989.652
290.0885, 6994.542
290.5706, 6997.265
291.0527, 6996.854
291.5349, 6995.134
292.0170, 6995.031
292.4991, 6996.314
292.9812, 6997.544
293.4633, 6997.586
293.9454, 6996.866
294.4276, 6996.985
294.9097, 6998.188
295.3918, 6999.620
295.8739, 6999.882
296.3560, 6999.325
296.8381, 6999.488
297.3203, 7000.488
297.8024, 7002.860
298.2845, 7008.921
298.7666, 7019.186
299.2487, 7028.809
299.7308, 7031.875
300.2130, 7030.273
300.6951, 7029.368
301.1772, 7031.502
301.6593, 7035.426
302.1414, 7040.002
302.6235, 7045.134
303.1057, 7049.456
303.5878, 7050.651
304.0699, 7050.304
304.5520, 7051.477
305.0341, 7057.050
305.5162, 7062.868
305.9984, 7064.006
306.4805, 7061.020
306.9626, 7057.697
307.4447, 7054.972
307.9268, 7053.982
308.4089, 7056.925
308.8911, 7067.506
309.3732, 7077.334
309.8553, 7078.503
310.3374, 7072.982
310.8195, 7067.366
311.3016, 7065.219
311.7838, 7064.769
312.2659, 7064.165
312.7480, 7062.317
313.2301, 7061.989
313.7122, 7065.646
314.1943, 7072.002
314.6765, 7078.310
315.1586, 7085.804
315.6407, 7091.162
316.1228, 7091.320
316.6049, 7084.505
317.0870, 7078.591
317.5692, 7079.299
318.0513, 7082.589
318.5334, 7082.794
319.0155, 7073.440
319.4976, 7064.633
319.9797, 7060.778
320.4619, 7062.390
320.9440, 7066.145
321.4261, 7073.416
321.9082, 7081.236
322.3903, 7086.750
322.8724, 7087.264
323.3546, 7087.351
323.8367, 7088.460
324.3188, 7090.515
324.8009, 7091.275
325.2830, 7089.488
325.7651, 7086.951
326.2473, 7084.868
326.7294, 7083.374
327.2115, 7082.620
327.6936, 7082.881
328.1757, 7084.193
328.6578, 7086.203
329.1400, 7089.185
329.6221, 7092.917
330.1042, 7097.610
330.5863, 7106.242
331.0684, 7110.822
331.5505, 7107.775
332.0327, 7101.185
332.5148, 7100.355
332.9969, 7108.484
333.4790, 7117.614
333.9611, 7124.771
334.4432, 7128.698
334.9254, 7134.963
335.4075, 7145.125
335.8896, 7155.852
336.3717, 7162.327
336.8538, 7162.951
337.3359, 7162.682
337.8180, 7162.233
338.3001, 7161.662
338.7823, 7164.239
339.2644, 7171.636
339.7465, 7179.184
340.2286, 7182.163
340.7107, 7180.082
341.1928, 7176.884
341.6750, 7172.483
342.1571, 7167.995
342.6392, 7168.870
343.1213, 7176.209
343.6034, 7183.515
344.0855, 7185.192
344.5677, 7181.552
345.0498, 7179.996
345.5319, 7181.363
346.0140, 7185.302
346.4961, 7191.950
346.9782, 7201.171
347.4604, 7210.428
347.9425, 7217.214
348.4246, 7222.685
348.9067, 7231.289
349.3888, 7243.688
349.8709, 7257.104
350.3531, 7268.195
350.8352, 7277.415
351.3173, 7286.439
351.7994, 7295.116
352.2815, 7304.338
352.7636, 7315.748
353.2458, 7329.271
353.7279, 7344.008
354.2100, 7359.189
354.6921, 7374.966
355.1742, 7391.696
355.6563, 7410.547
356.1385, 7429.386
356.6206, 7446.714
357.1027, 7462.514
357.5848, 7476.389
358.0669, 7486.950
358.5490, 7496.247
359.0312, 7506.719
359.5133, 7520.563
359.9954, 7532.152
360.4775, 7538.006
360.9596, 7539.402
361.4417, 7538.915
361.9239, 7536.086
362.4060, 7533.000
362.8881, 7530.968
363.3702, 7530.404
363.8523, 7529.602
364.3344, 7527.930
364.8166, 7525.774
365.2987, 7523.553
365.7808, 7519.376
366.2629, 7517.219
366.7450, 7519.603
367.2271, 7526.471
367.7093, 7530.583
368.1914, 7527.711
368.6735, 7523.842
369.1556, 7522.839
369.6377, 7528.132
370.1198, 7532.069
370.6020, 7534.603
371.0841, 7535.510
371.5662, 7533.962
372.0483, 7528.307
372.5304, 7522.093
373.0125, 7517.093
373.4947, 7514.877
373.9768, 7509.147
374.4589, 7498.773
374.9410, 7485.719
375.4231, 7472.906
375.9052, 7459.787
376.3874, 7448.608
376.8695, 7440.708
377.3516, 7436.033
377.8337, 7431.146
378.3158, 7426.031
378.7979, 7421.073
379.2801, 7417.910
379.7622, 7416.853
380.2443, 7410.942
380.7264, 7396.544
381.2085, 7378.253
381.6906, 7368.353
382.1728, 7366.873
382.6549, 7368.886
383.1370, 7373.221
383.6191, 7378.583
384.1012, 7379.869
384.5833, 7376.144
385.0655, 7369.042
385.5476, 7358.527
386.0297, 7345.775
386.5118, 7335.906
386.9939, 7333.389
387.4760, 7334.337
387.9582, 7333.512
388.4403, 7330.841
388.9224, 7326.883
389.4045, 7321.206
389.8866, 7314.948
390.3687, 7309.689
390.8509, 7306.806
391.3330, 7304.479
391.8151, 7302.151
392.2972, 7299.577
392.7793, 7295.537
393.2614, 7285.465
393.7436, 7276.243
394.2257, 7273.321
394.7078, 7280.427
395.1899, 7286.956
395.6720, 7289.377
396.1541, 7288.703
396.6363, 7286.595
397.1184, 7278.806
397.6005, 7273.879
398.0826, 7276.029
398.5647, 7286.489
399.0468, 7294.821
399.5290, 7301.908
400.0111, 7305.403
400.4932, 7303.190
400.9753, 7285.102
401.4574, 7275.266
401.9395, 7279.875
402.4217, 7295.297
402.9038, 7303.806
403.3859, 7300.942
403.8680, 7297.786
404.3501, 7300.590
404.8322, 7312.592
405.3144, 7318.583
405.7965, 7316.263
406.2786, 7310.577
406.7607, 7309.865
407.2428, 7315.116
407.7249, 7319.803
408.2071, 7321.521
408.6892, 7320.741
409.1713, 7319.908
409.6534, 7318.719
410.1355, 7319.056
410.6176, 7323.867
411.0998, 7332.219
411.5819, 7338.666
412.0640, 7341.951
412.5461, 7343.134
413.0282, 7343.049
413.5103, 7342.021
413.9925, 7342.009
414.4746, 7345.380
414.9567, 7350.074
415.4388, 7352.826
415.9209, 7353.308
416.4030, 7352.750
416.8852, 7351.388
417.3673, 7349.863
417.8494, 7349.198
418.3315, 7352.021
418.8136, 7354.125
419.2957, 7352.005
419.7779, 7346.396
420.2600, 7341.604
420.7421, 7338.933
421.2242, 7338.428
421.7063, 7340.419
422.1884, 7346.359
422.6706, 7352.324
423.1527, 7357.854
423.6348, 7362.783
424.1169, 7366.792
424.5990, 7369.226
425.0811, 7371.266
425.5633, 7372.458
426.0454, 7372.166
426.5275, 7374.955
427.0096, 7383.318
427.4917, 7392.575
427.9738, 7398.596
428.4560, 7398.798
428.9381, 7400.975
429.4202, 7406.845
429.9023, 7414.962
430.3844, 7420.663
430.8665, 7423.362
431.3487, 7425.198
431.8308, 7427.942
432.3129, 7431.855
432.7950, 7431.231
433.2771, 7424.751
433.7592, 7417.332
434.2414, 7416.611
434.7235, 7421.940
435.2056, 7424.676
435.6877, 7420.913
436.1698, 7413.814
436.6519, 7409.676
437.1341, 7408.490
437.6162, 7408.927
438.0983, 7411.988
438.5804, 7415.591
439.0625, 7415.226
439.5446, 7408.860
440.0268, 7402.941
440.5089, 7404.271
440.9910, 7410.247
441.4731, 7415.519
441.9552, 7417.195
442.4373, 7417.718
442.9195, 7418.373
443.4016, 7419.163
443.8837, 7420.113
444.3658, 7419.806
444.8479, 7420.287
445.3300, 7423.279
445.8122, 7433.517
446.2943, 7440.339
446.7764, 7439.274
447.2585, 7433.378
447.7406, 7430.540
448.2227, 7433.092
448.7049, 7437.026
449.1870, 7441.702
449.6691, 7447.450
450.1512, 7452.151
450.6333, 7456.062
451.1154, 7458.804
451.5976, 7459.715
452.0797, 7458.172
452.5618, 7457.378
453.0439, 7458.041
453.5260, 7459.840
454.0081, 7461.548
454.4903, 7463.091
454.9724, 7465.375
455.4545, 7468.882
455.9366, 7473.525
456.4187, 7479.033
456.9008, 7485.263
457.3830, 7492.460
457.8651, 7500.821
458.3472, 7510.198
458.8293, 7520.075
459.3114, 7531.291
459.7935, 7541.752
460.2757, 7548.514
460.7578, 7551.974
461.2399, 7554.696
461.7220, 7557.257
462.2041, 7560.369
462.6862, 7564.958
463.1684, 7571.498
463.6505, 7578.191
464.1326, 7585.470
464.6147, 7592.032
465.0968, 7596.268
465.5789, 7597.389
466.0611, 7596.561
466.5432, 7593.609
467.0253, 7588.806
467.5074, 7584.125
467.9895, 7582.133
468.4716, 7578.517
468.9538, 7570.561
469.4359, 7553.543
469.9180, 7542.875
470.4001, 7540.957
470.8822, 7543.483
471.3643, 7544.360
471.8465, 7543.564
472.3286, 7540.648
472.8107, 7534.331
473.2928, 7525.646
473.7749, 7520.398
474.2570, 7518.828
474.7392, 7519.361
475.2213, 7521.549
475.7034, 7525.116
476.1855, 7528.215
476.6676, 7530.683
477.1497, 7532.801
477.6319, 7535.121
478.1140, 7537.491
478.5961, 7539.222
479.0782, 7538.308
479.5603, 7537.720
480.0424, 7541.593
480.5246, 7549.479
481.0067, 7557.594
481.4888, 7562.221
481.9709, 7566.673
482.4530, 7573.979
482.9352, 7585.355
483.4173, 7597.832
483.8994, 7611.492
484.3815, 7625.185
484.8636, 7637.045
485.3457, 7644.656
485.8279, 7652.335
486.3100, 7660.920
486.7921, 7670.550
487.2742, 7681.421
487.7563, 7693.579
488.2384, 7707.313
488.7206, 7723.135
489.2027, 7742.580
489.6848, 7759.862
490.1669, 7773.732
490.6490, 7786.891
491.1311, 7804.079
491.6133, 7825.551
492.0954, 7848.401
492.5775, 7872.341
493.0596, 7896.747
493.5417, 7919.260
494.0238, 7939.658
494.5060, 7960.369
494.9881, 7982.377
495.4702, 8005.800
495.9523, 8031.845
496.4344, 8060.548
496.9165, 8091.179
497.3987, 8125.650
497.8808, 8161.390
498.3629, 8192.900
498.8450, 8216.258
499.3271, 8236.216
499.8092, 8254.944
500.2914, 8272.799
500.7735, 8289.688
501.2556, 8306.696
501.7377, 8322.558
502.2198, 8336.940
502.7019, 8351.049
503.1841, 8361.186
503.6662, 8366.479
504.1483, 8367.854
504.6304, 8366.012
505.1125, 8357.693
505.5946, 8351.690
506.0768, 8350.938
506.5589, 8353.623
507.0410, 8349.999
507.5231, 8337.843
508.0052, 8325.396
508.4873, 8316.310
508.9695, 8310.654
509.4516, 8308.552
509.9337, 8310.828
510.4158, 8312.819
510.8979, 8307.871
511.3800, 8297.498
511.8622, 8289.022
512.3443, 8285.200
512.8264, 8282.928
513.3085, 8278.193
513.7906, 8271.454
514.2728, 8264.279
514.7549, 8259.182
515.2370, 8253.098
515.7191, 8242.931
516.2012, 8228.310
516.6833, 8213.106
517.1655, 8199.003
517.6476, 8185.175
518.1297, 8170.919
518.6118, 8155.589
519.0939, 8140.546
519.5760, 8127.702
520.0582, 8115.242
520.5403, 8098.276
521.0224, 8072.015
521.5045, 8048.185
521.9866, 8030.710
522.4688, 8019.458
522.9509, 8006.149
523.4330, 7990.143
523.9151, 7973.119
524.3972, 7955.384
524.8793, 7936.885
525.3615, 7921.694
525.8436, 7910.494
526.3257, 7901.226
526.8078, 7892.221
527.2899, 7882.959
527.7720, 7871.123
528.2542, 7854.859
528.7363, 7836.391
529.2184, 7817.690
529.7005, 7799.095
530.1826, 7781.552
530.6647, 7765.204
531.1469, 7750.595
531.6290, 7737.799
532.1111, 7726.808
532.5932, 7718.665
533.0753, 7716.915
533.5574, 7717.005
534.0396, 7714.232
534.5217, 7704.960
535.0038, 7696.257
535.4859, 7689.218
535.9680, 7683.505
536.4501, 7677.925
536.9323, 7672.604
537.4144, 7667.121
537.8965, 7660.163
538.3786, 7651.513
538.8607, 7650.752
539.3428, 7660.161
539.8250, 7670.153
540.3071, 7670.658
540.7892, 7662.677
541.2713, 7655.915
541.7534, 7651.586
542.2355, 7649.502
542.7177, 7650.441
543.1998, 7653.602
543.6819, 7656.434
544.1640, 7658.307
544.6461, 7658.941
545.1282, 7656.339
545.6104, 7651.433
546.0925, 7649.716
546.5746, 7658.938
547.0567, 7668.934
547.5388, 7672.292
548.0209, 7665.751
548.5031, 7660.145
548.9852, 7657.214
549.4673, 7656.480
549.9494, 7657.511
550.4315, 7662.022
550.9136, 7665.528
551.3958, 7668.087
551.8779, 7669.109
552.3600, 7665.984
552.8421, 7656.956
553.3242, 7649.807
553.8063, 7649.255
554.2885, 7654.006
554.7706, 7653.319
555.2527, 7646.864
555.7348, 7638.693
556.2169, 7630.846
556.6990, 7624.155
557.1812, 7621.186
557.6633, 7623.205
558.1454, 7625.891
558.6275, 7625.297
559.1096, 7622.485
559.5917, 7619.256
560.0739, 7616.132
560.5560, 7613.063
561.0381, 7609.804
561.5202, 7606.519
562.0023, 7603.789
562.4844, 7601.022
562.9666, 7599.361
563.4487, 7600.126
563.9308, 7604.438
564.4129, 7605.131
564.8950, 7600.612
565.3771, 7594.075
565.8593, 7587.415
566.3414, 7579.747
566.8235, 7576.025
567.3056, 7578.049
567.7877, 7582.096
568.2698, 7580.706
568.7520, 7574.257
569.2341, 7568.813
569.7162, 7567.149
570.1983, 7567.733
570.6804, 7568.469
571.1625, 7569.262
571.6447, 7568.918
572.1268, 7564.397
572.6089, 7559.811
573.0910, 7559.975
573.5731, 7566.123
574.0552, 7571.821
574.5374, 7573.565
575.0195, 7573.778
575.5016, 7574.703
575.9837, 7576.237
576.4658, 7578.900
576.9479, 7583.259
577.4301, 7588.383
577.9122, 7592.451
578.3943, 7594.481
578.8764, 7597.005
579.3585, 7601.006
579.8406, 7605.998
580.3228, 7609.181
580.8049, 7610.500
581.2870, 7610.253
581.7691, 7607.109
582.2512, 7602.435
582.7333, 7602.875
583.2155, 7609.532
583.6975, 7615.438
584.1796, 7612.507
584.6617, 7604.982
585.1439, 7599.787
585.6260, 7599.331
586.1081, 7600.974
586.5902, 7606.603
587.0723, 7612.875
587.5544, 7613.256
588.0366, 7596.360
588.5187, 7582.810
589.0008, 7581.146
589.4829, 7590.689
589.9650, 7596.287
590.4471, 7595.562
590.9293, 7593.521
591.4114, 7592.158
591.8935, 7591.308
592.3756, 7591.886
592.8577, 7594.503
593.3398, 7596.749
593.8220, 7595.426
594.3041, 7591.116
594.7862, 7588.243
595.2683, 7587.897
595.7504, 7588.772
596.2325, 7590.120
596.7147, 7591.472
597.1968, 7591.445
597.6789, 7586.464
598.1610, 7582.542
598.6431, 7586.311
599.1252, 7595.783
599.6074, 7601.592
600.0895, 7596.701
600.5716, 7590.537
601.0537, 7587.765
601.5358, 7589.603
602.0179, 7590.620
602.5001, 7589.736
602.9822, 7589.019
603.4643, 7590.085
603.9464, 7593.381
604.4285, 7596.825
604.9106, 7600.373
605.3928, 7603.960
605.8749, 7606.594
606.3570, 7608.568
606.8391, 7613.932
607.3212, 7625.530
607.8033, 7638.991
608.2855, 7646.883
608.7676, 7650.589
609.2497, 7655.650
609.7318, 7666.223
610.2139, 7678.356
610.6960, 7689.311
611.1782, 7698.887
611.6603, 7707.058
612.1424, 7714.481
612.6245, 7720.125
613.1066, 7723.355
613.5887, 7723.904
614.0709, 7722.788
614.5530, 7719.595
615.0351, 7715.309
615.5172, 7710.593
615.9993, 7705.083
616.4814, 7701.253
616.9636, 7700.261
617.4457, 7699.935
617.9278, 7696.131
618.4099, 7688.937
618.8920, 7679.762
619.3741, 7666.838
619.8563, 7653.704
620.3384, 7646.509
620.8205, 7644.289
621.3026, 7642.506
621.7847, 7638.276
622.2668, 7633.597
622.7490, 7630.174
623.2311, 7628.276
623.7132, 7626.275
624.1953, 7623.235
624.6774, 7620.509
625.1595, 7619.383
625.6417, 7623.299
626.1238, 7621.928
626.6059, 7611.974
627.0880, 7600.670
627.5701, 7598.983
628.0522, 7608.237
628.5344, 7614.730
629.0165, 7615.055
629.4986, 7611.878
629.9807, 7608.763
630.4628, 7606.145
630.9449, 7606.594
631.4271, 7613.667
631.9092, 7622.767
632.3913, 7629.338
632.8734, 7633.402
633.3555, 7635.756
633.8376, 7635.911
634.3198, 7635.025
634.8019, 7633.193
635.2840, 7629.788
635.7661, 7628.752
636.2482, 7634.160
636.7303, 7639.043
637.2125, 7638.042
637.6946, 7627.900
638.1767, 7622.256
638.6588, 7623.647
639.1409, 7626.336
639.6230, 7620.297
640.1052, 7606.360
640.5873, 7597.357
641.0694, 7598.443
641.5515, 7602.950
642.0336, 7600.626
642.5157, 7593.354
642.9979, 7586.542
643.4800, 7583.084
643.9621, 7580.833
644.4442, 7578.019
644.9263, 7574.913
645.4084, 7573.460
645.8906, 7576.854
646.3727, 7579.844
646.8548, 7579.707
647.3369, 7576.047
647.8190, 7572.525
648.3011, 7568.849
648.7833, 7565.832
649.2654, 7564.452
649.7475, 7564.883
650.2296, 7564.205
650.7117, 7561.905
651.1938, 7559.806
651.6760, 7559.881
652.1581, 7561.983
652.6402, 7566.007
653.1223, 7572.841
653.6044, 7579.505
654.0865, 7583.885
654.5687, 7586.143
655.0508, 7586.686
655.5329, 7583.959
656.0150, 7581.282
656.4971, 7579.131
656.9792, 7577.849
657.4614, 7579.065
657.9435, 7584.263
658.4256, 7589.898
658.9077, 7595.358
659.3898, 7600.539
659.8719, 7602.858
660.3541, 7601.986
660.8362, 7599.745
661.3183, 7596.425
661.8004, 7592.692
662.2825, 7591.408
662.7646, 7592.868
663.2468, 7594.625
663.7289, 7594.521
664.2110, 7593.484
664.6931, 7592.750
665.1752, 7592.804
665.6573, 7592.821
666.1395, 7591.464
666.6216, 7590.343
667.1037, 7591.408
667.5858, 7597.852
668.0679, 7602.813
668.5500, 7604.986
669.0322, 7605.701
669.5143, 7608.197
669.9964, 7613.157
670.4785, 7616.351
670.9606, 7615.959
671.4427, 7613.208
671.9249, 7610.498
672.4070, 7608.050
672.8891, 7608.126
673.3712, 7614.854
673.8533, 7623.154
674.3354, 7626.273
674.8176, 7624.609
675.2997, 7623.825
675.7818, 7627.068
676.2639, 7631.901
676.7460, 7637.492
677.2281, 7644.560
677.7103, 7648.536
678.1924, 7646.650
678.6745, 7644.340
679.1566, 7645.522
679.6387, 7650.652
680.1208, 7657.537
680.6030, 7666.750
681.0851, 7675.967
681.5672, 7682.735
682.0493, 7687.141
682.5314, 7689.794
