##NAMES=Perite
##RRUFFID=R060766
##IDEAL CHEMISTRY=Pb^2+^Bi^3+^O_2_Cl
##LOCALITY=Blue Bell mine, San Bernardino, California, USA
##OWNER=RRUFF
##SOURCE=Michael Scott
##DESCRIPTION=Pale straw-yellow granular, associated with fluorite, hemimorphite, quartz and chlorargyrite
##STATUS=The identification of this mineral has been confirmed by X-ray diffraction.
##URL=rruff.info/R060766
91.14941, 337.3739
91.63152, 336.6248
92.11364, 336.8426
92.59576, 337.5346
93.07787, 339.0655
93.55999, 342.5698
94.04211, 348.9294
94.52422, 356.2971
95.00634, 361.8779
95.48846, 365.6700
95.97057, 367.9806
96.45269, 367.9077
96.93481, 365.7306
97.41692, 365.4983
97.89904, 368.5117
98.38116, 374.5178
98.86327, 381.2281
99.34539, 388.0521
99.82751, 397.0078
100.3096, 410.3715
100.7917, 428.0284
101.2739, 451.0806
101.7560, 479.7875
102.2381, 513.4280
102.7202, 555.3312
103.2023, 606.5917
103.6844, 666.0513
104.1666, 731.1293
104.6487, 798.6032
105.1308, 875.2556
105.6129, 964.4140
106.0950, 1068.630
106.5771, 1182.414
107.0592, 1301.735
107.5414, 1423.757
108.0235, 1577.933
108.5056, 1771.165
108.9877, 1994.029
109.4698, 2239.948
109.9520, 2495.914
110.4341, 2783.007
110.9162, 3113.792
111.3983, 3502.160
111.8804, 3897.355
112.3625, 4297.376
112.8447, 4703.185
113.3268, 5118.721
113.8089, 5551.071
114.2910, 5995.973
114.7731, 6447.169
115.2552, 6893.251
115.7374, 7361.783
116.2195, 7855.618
116.7016, 8375.120
117.1837, 8921.852
117.6658, 9493.517
118.1479, 10097.89
118.6301, 10727.69
119.1122, 11396.11
119.5943, 12084.48
120.0764, 12788.75
120.5585, 13510.83
121.0406, 14226.46
121.5228, 14928.35
122.0049, 15612.42
122.4870, 16270.99
122.9691, 16896.63
123.4512, 17495.86
123.9333, 18074.45
124.4154, 18631.02
124.8976, 19172.37
125.3797, 19700.01
125.8618, 20216.25
126.3439, 20734.50
126.8260, 21252.68
127.3081, 21774.68
127.7903, 22314.85
128.2724, 22873.08
128.7545, 23453.82
129.2366, 24060.50
129.7187, 24692.52
130.2008, 25361.95
130.6830, 26082.38
131.1651, 26850.76
131.6472, 27661.80
132.1293, 28492.14
132.6114, 29358.12
133.0935, 30356.37
133.5757, 31506.33
134.0578, 32748.79
134.5399, 34010.27
135.0220, 35292.67
135.5041, 36628.30
135.9862, 38031.45
136.4684, 39508.17
136.9505, 41045.06
137.4326, 42656.55
137.9147, 44316.79
138.3968, 45993.87
138.8789, 47701.18
139.3611, 49416.73
139.8432, 51175.70
140.3253, 52975.81
140.8074, 54771.33
141.2895, 56569.51
141.7716, 58355.50
142.2538, 60112.77
142.7359, 61841.15
143.2180, 63526.43
143.7001, 65151.85
144.1822, 66757.50
144.6643, 68253.45
145.1465, 69636.78
145.6286, 70902.27
146.1107, 72020.60
146.5928, 72995.19
147.0749, 73814.95
147.5570, 74429.07
148.0392, 74859.48
148.5213, 75071.11
149.0034, 75054.23
149.4855, 74820.35
149.9676, 74345.00
150.4497, 73617.61
150.9319, 72643.92
151.4140, 71459.12
151.8961, 70033.84
152.3782, 68411.17
152.8603, 66621.46
153.3424, 64609.02
153.8246, 62476.43
154.3067, 60193.70
154.7888, 57773.53
155.2709, 55353.73
155.7530, 52934.20
156.2351, 50567.31
156.7173, 48308.98
157.1994, 46136.85
157.6815, 44096.14
158.1636, 42224.88
158.6457, 40534.14
159.1278, 38941.19
159.6100, 37425.49
160.0921, 36006.23
160.5742, 34701.66
161.0563, 33554.91
161.5384, 32510.98
162.0205, 31548.22
162.5026, 30677.98
162.9848, 29853.62
163.4669, 29054.34
163.9490, 28290.22
164.4311, 27565.67
164.9132, 26870.02
165.3953, 26224.13
165.8775, 25647.95
166.3596, 25178.23
166.8417, 24742.83
167.3238, 24299.06
167.8059, 23855.22
168.2880, 23431.04
168.7702, 23049.46
169.2523, 22693.61
169.7344, 22338.09
170.2165, 21940.95
170.6986, 21563.38
171.1807, 21265.91
171.6629, 21051.19
172.1450, 20851.85
172.6271, 20610.60
173.1092, 20352.24
173.5913, 20122.71
174.0734, 19965.54
174.5556, 19837.05
175.0377, 19686.32
175.5198, 19506.26
176.0019, 19320.71
176.4840, 19146.09
176.9661, 18982.35
177.4483, 18832.17
177.9304, 18700.89
178.4125, 18583.77
178.8946, 18471.13
179.3767, 18361.72
179.8588, 18255.55
180.3410, 18144.03
180.8231, 18030.45
181.3052, 17928.57
181.7873, 17855.45
182.2694, 17802.16
182.7515, 17742.75
183.2337, 17670.93
183.7158, 17592.63
184.1979, 17519.69
184.6800, 17451.89
185.1621, 17384.74
185.6442, 17317.08
186.1264, 17247.71
186.6085, 17167.09
187.0906, 17065.51
187.5727, 16953.97
188.0548, 16865.58
188.5369, 16802.73
189.0191, 16750.57
189.5012, 16695.88
189.9833, 16638.87
190.4654, 16586.48
190.9475, 16543.83
191.4296, 16508.34
191.9117, 16470.18
192.3939, 16431.01
192.8760, 16385.89
193.3581, 16325.11
193.8402, 16248.58
194.3223, 16175.16
194.8044, 16113.93
195.2866, 16064.62
195.7687, 16013.33
196.2508, 15959.26
196.7329, 15905.02
197.2150, 15853.50
197.6971, 15804.37
198.1793, 15762.43
198.6614, 15735.02
199.1435, 15723.09
199.6256, 15698.16
200.1077, 15651.25
200.5898, 15597.16
201.0720, 15579.56
201.5541, 15608.69
202.0362, 15630.02
202.5183, 15595.59
203.0004, 15494.25
203.4825, 15428.45
203.9647, 15418.63
204.4468, 15449.67
204.9289, 15464.26
205.4110, 15460.36
205.8931, 15444.43
206.3752, 15418.26
206.8574, 15378.72
207.3395, 15344.12
207.8216, 15320.55
208.3037, 15305.76
208.7858, 15279.66
209.2679, 15239.70
209.7501, 15194.49
210.2322, 15151.00
210.7143, 15107.59
211.1964, 15074.12
211.6785, 15057.69
212.1606, 15058.70
212.6428, 15043.85
213.1249, 15006.45
213.6070, 14963.47
214.0891, 14935.00
214.5712, 14924.02
215.0533, 14919.04
215.5355, 14916.75
216.0176, 14916.56
216.4997, 14921.78
216.9818, 14936.49
217.4639, 14951.20
217.9460, 14949.84
218.4282, 14924.09
218.9103, 14899.24
219.3924, 14886.07
219.8745, 14890.82
220.3566, 14878.79
220.8387, 14840.72
221.3209, 14792.71
221.8030, 14767.53
222.2851, 14778.55
222.7672, 14789.30
223.2493, 14785.72
223.7314, 14764.46
224.2135, 14737.54
224.6957, 14694.46
225.1778, 14649.78
225.6599, 14637.47
226.1420, 14661.08
226.6241, 14711.58
227.1062, 14793.83
227.5884, 14947.98
228.0705, 15040.29
228.5526, 15050.49
229.0347, 14996.98
229.5168, 14942.91
229.9989, 14881.28
230.4811, 14827.42
230.9632, 14790.99
231.4453, 14780.24
231.9274, 14768.71
232.4095, 14754.54
232.8916, 14738.32
233.3738, 14723.62
233.8559, 14713.88
234.3380, 14701.68
234.8201, 14679.13
235.3022, 14629.58
235.7843, 14604.61
236.2665, 14616.42
236.7486, 14660.69
237.2307, 14700.96
237.7128, 14747.11
238.1949, 14778.30
238.6770, 14774.09
239.1592, 14703.97
239.6413, 14659.17
240.1234, 14661.18
240.6055, 14707.78
241.0876, 14732.02
241.5697, 14720.68
242.0519, 14701.36
242.5340, 14697.15
243.0161, 14714.84
243.4982, 14734.15
243.9803, 14750.88
244.4624, 14764.59
244.9446, 14782.81
245.4267, 14805.59
245.9088, 14831.42
246.3909, 14861.81
246.8730, 14910.82
247.3551, 14935.23
247.8373, 14913.95
248.3194, 14842.51
248.8015, 14815.30
249.2836, 14859.95
249.7657, 14922.35
250.2478, 14944.52
250.7300, 14911.31
251.2121, 14867.87
251.6942, 14817.37
252.1763, 14756.60
252.6584, 14732.93
253.1405, 14766.67
253.6227, 14820.14
254.1048, 14847.45
254.5869, 14838.02
255.0690, 14825.51
255.5511, 14815.88
256.0332, 14808.19
256.5154, 14813.70
256.9975, 14839.23
257.4796, 14871.08
257.9617, 14892.04
258.4438, 14897.47
258.9259, 14900.34
259.4081, 14903.01
259.8902, 14904.60
260.3723, 14907.37
260.8544, 14904.28
261.3365, 14908.50
261.8186, 14945.82
262.3008, 15037.04
262.7829, 15108.91
263.2650, 15130.27
263.7471, 15091.13
264.2292, 15078.52
264.7113, 15104.95
265.1935, 15144.61
265.6756, 15155.94
266.1577, 15128.06
266.6398, 15103.18
267.1219, 15097.13
267.6040, 15112.83
268.0862, 15126.56
268.5683, 15139.47
269.0504, 15149.72
269.5325, 15151.21
270.0146, 15139.23
270.4967, 15135.81
270.9789, 15156.41
271.4610, 15206.85
271.9431, 15221.65
272.4252, 15186.71
272.9073, 15136.13
273.3894, 15125.83
273.8716, 15164.10
274.3537, 15208.93
274.8358, 15248.72
275.3179, 15284.40
275.8000, 15298.87
276.2821, 15283.38
276.7643, 15260.51
277.2464, 15272.44
277.7285, 15326.71
278.2106, 15368.61
278.6927, 15365.38
279.1748, 15316.22
279.6570, 15299.61
280.1391, 15322.04
280.6212, 15363.38
281.1033, 15394.88
281.5854, 15415.61
282.0675, 15432.97
282.5497, 15455.19
283.0318, 15480.87
283.5139, 15478.10
283.9960, 15438.99
284.4781, 15392.44
284.9602, 15387.52
285.4424, 15425.19
285.9245, 15454.71
286.4066, 15450.32
286.8887, 15416.86
287.3708, 15386.16
287.8529, 15357.06
288.3351, 15335.22
288.8172, 15331.08
289.2993, 15343.88
289.7814, 15359.30
290.2635, 15375.77
290.7456, 15390.71
291.2278, 15392.87
291.7099, 15381.02
292.1920, 15360.95
292.6741, 15337.42
293.1562, 15311.08
293.6383, 15286.28
294.1205, 15268.03
294.6026, 15253.16
295.0847, 15231.56
295.5668, 15202.51
296.0489, 15173.35
296.5310, 15151.73
297.0132, 15136.94
297.4953, 15125.39
297.9774, 15120.15
298.4595, 15116.55
298.9416, 15103.54
299.4237, 15080.10
299.9058, 15056.70
300.3879, 15037.28
300.8701, 15024.51
301.3522, 15026.21
301.8343, 15061.34
302.3164, 15105.13
302.7985, 15126.04
303.2806, 15122.77
303.7628, 15101.41
304.2449, 15050.14
304.7270, 14984.53
305.2091, 14935.89
305.6912, 14922.23
306.1733, 14928.11
306.6555, 14944.75
307.1376, 14971.99
307.6197, 14993.47
308.1018, 15000.85
308.5839, 14995.11
309.0660, 14977.71
309.5482, 14942.98
310.0303, 14902.11
310.5124, 14863.11
310.9945, 14825.66
311.4766, 14787.04
311.9587, 14737.86
312.4409, 14689.53
312.9230, 14653.89
313.4051, 14645.56
313.8872, 14642.56
314.3693, 14636.51
314.8514, 14626.96
315.3336, 14610.43
315.8157, 14578.34
316.2978, 14541.94
316.7799, 14511.12
317.2620, 14494.26
317.7441, 14477.81
318.2263, 14454.07
318.7084, 14425.23
319.1905, 14402.93
319.6726, 14397.70
320.1547, 14396.62
320.6368, 14390.95
321.1190, 14375.85
321.6011, 14359.05
322.0832, 14341.31
322.5653, 14322.62
323.0474, 14304.04
323.5295, 14283.73
324.0117, 14264.56
324.4938, 14247.86
324.9759, 14231.82
325.4580, 14220.47
325.9401, 14218.13
326.4222, 14221.29
326.9044, 14219.40
327.3865, 14207.67
327.8686, 14193.89
328.3507, 14181.43
328.8328, 14173.47
329.3149, 14161.36
329.7971, 14138.32
330.2792, 14112.17
330.7613, 14101.25
331.2434, 14117.69
331.7255, 14135.46
332.2076, 14147.16
332.6898, 14156.33
333.1719, 14149.07
333.6540, 14115.61
334.1361, 14071.39
334.6182, 14043.36
335.1003, 14039.72
335.5825, 14037.22
336.0646, 14026.58
336.5467, 14005.15
337.0288, 13994.46
337.5109, 13999.85
337.9930, 14008.91
338.4752, 14003.48
338.9573, 13979.61
339.4394, 13955.29
339.9215, 13936.93
340.4036, 13924.02
340.8857, 13904.19
341.3679, 13873.94
341.8500, 13846.36
342.3321, 13842.97
342.8142, 13865.55
343.2963, 13877.18
343.7784, 13865.29
344.2606, 13835.63
344.7427, 13808.65
345.2248, 13783.90
345.7069, 13766.38
346.1890, 13765.14
346.6711, 13777.55
347.1533, 13785.56
347.6354, 13783.25
348.1175, 13774.92
348.5996, 13768.20
349.0817, 13762.78
349.5638, 13759.15
350.0460, 13758.06
350.5281, 13758.51
351.0102, 13759.41
351.4923, 13761.94
351.9744, 13761.50
352.4565, 13749.03
352.9387, 13726.95
353.4208, 13706.89
353.9029, 13699.08
354.3850, 13697.12
354.8671, 13694.68
355.3492, 13693.51
355.8314, 13685.30
356.3135, 13653.08
356.7956, 13608.42
357.2777, 13577.03
357.7598, 13586.74
358.2419, 13606.94
358.7241, 13614.11
359.2062, 13604.34
359.6883, 13587.80
360.1704, 13560.70
360.6525, 13531.79
361.1346, 13514.07
361.6167, 13519.56
362.0988, 13530.89
362.5810, 13542.92
363.0631, 13555.80
363.5452, 13559.92
364.0273, 13545.03
364.5094, 13522.91
364.9915, 13505.10
365.4737, 13489.46
365.9558, 13483.16
366.4379, 13498.74
366.9200, 13535.60
367.4021, 13547.07
367.8842, 13505.96
368.3664, 13452.69
368.8485, 13413.75
369.3306, 13394.62
369.8127, 13384.01
370.2948, 13386.24
370.7769, 13398.03
371.2591, 13401.66
371.7412, 13389.20
372.2233, 13377.54
372.7054, 13376.47
373.1875, 13393.97
373.6696, 13402.23
374.1518, 13399.33
374.6339, 13386.72
375.1160, 13364.57
375.5981, 13324.79
376.0802, 13295.82
376.5623, 13294.97
377.0445, 13327.30
377.5266, 13345.69
378.0087, 13351.10
378.4908, 13341.40
378.9729, 13303.99
379.4550, 13236.08
379.9372, 13184.20
380.4193, 13172.58
380.9014, 13192.67
381.3835, 13198.60
381.8656, 13189.35
382.3477, 13174.66
382.8299, 13161.10
383.3120, 13149.69
383.7941, 13146.17
384.2762, 13161.13
384.7583, 13177.46
385.2404, 13154.65
385.7226, 13096.60
386.2047, 13044.97
386.6868, 13043.13
387.1689, 13066.22
387.6510, 13071.34
388.1331, 13042.59
388.6153, 13004.79
389.0974, 12975.05
389.5795, 12953.61
390.0616, 12941.52
390.5437, 12953.68
391.0258, 12967.02
391.5080, 12960.62
391.9901, 12928.20
392.4722, 12890.79
392.9543, 12852.97
393.4364, 12818.96
393.9185, 12795.72
394.4007, 12799.38
394.8828, 12802.47
395.3649, 12793.43
395.8470, 12770.67
396.3291, 12743.63
396.8112, 12701.68
397.2934, 12661.90
397.7755, 12640.60
398.2576, 12668.52
398.7397, 12682.66
399.2218, 12663.82
399.7039, 12615.23
400.1861, 12583.19
400.6682, 12582.17
401.1503, 12584.52
401.6324, 12573.49
402.1145, 12537.45
402.5966, 12512.13
403.0788, 12503.02
403.5609, 12504.65
404.0430, 12501.59
404.5251, 12491.72
405.0072, 12482.33
405.4893, 12476.54
405.9715, 12474.48
406.4536, 12475.76
406.9357, 12481.92
407.4178, 12488.31
407.8999, 12487.25
408.3820, 12478.41
408.8642, 12468.96
409.3463, 12460.95
409.8284, 12454.27
410.3105, 12446.82
410.7926, 12438.04
411.2747, 12435.59
411.7569, 12450.71
412.2390, 12478.72
412.7211, 12505.48
413.2032, 12529.28
413.6853, 12547.54
414.1674, 12554.48
414.6496, 12551.82
415.1317, 12549.13
415.6138, 12552.68
416.0959, 12559.30
416.5780, 12564.97
417.0602, 12567.96
417.5423, 12572.35
418.0244, 12588.03
418.5065, 12606.48
418.9886, 12611.91
419.4707, 12574.40
419.9529, 12540.53
420.4350, 12543.23
420.9171, 12589.66
421.3992, 12624.50
421.8813, 12620.02
422.3634, 12600.85
422.8455, 12590.21
423.3276, 12601.90
423.8098, 12612.08
424.2919, 12614.22
424.7740, 12609.48
425.2561, 12610.86
425.7382, 12620.15
426.2203, 12634.13
426.7025, 12651.83
427.1846, 12677.33
427.6667, 12698.43
428.1488, 12716.98
428.6309, 12729.47
429.1130, 12724.81
429.5952, 12693.67
430.0773, 12668.91
430.5594, 12665.65
431.0415, 12684.42
431.5236, 12696.41
432.0057, 12699.35
432.4879, 12701.40
432.9700, 12710.82
433.4521, 12727.78
433.9342, 12753.43
434.4163, 12793.78
434.8984, 12839.94
435.3806, 12869.24
435.8627, 12882.31
436.3448, 12892.29
436.8269, 12912.66
437.3090, 12936.82
437.7911, 12949.40
438.2733, 12944.73
438.7554, 12936.04
439.2375, 12927.50
439.7196, 12924.23
440.2017, 12939.29
440.6838, 12998.21
441.1660, 13065.21
441.6481, 13111.38
442.1302, 13133.48
442.6123, 13149.47
443.0944, 13164.82
443.5765, 13179.26
444.0587, 13192.49
444.5408, 13201.07
445.0229, 13212.12
445.5050, 13233.03
445.9871, 13261.48
446.4692, 13276.69
446.9514, 13246.80
447.4335, 13226.89
447.9156, 13245.06
448.3977, 13332.31
448.8798, 13402.10
449.3619, 13447.58
449.8441, 13478.70
450.3262, 13514.33
450.8083, 13557.13
451.2904, 13598.67
451.7725, 13636.33
452.2546, 13670.17
452.7368, 13697.29
453.2189, 13714.74
453.7010, 13732.78
454.1831, 13760.46
454.6652, 13797.75
455.1473, 13845.75
455.6295, 13910.53
456.1116, 13979.08
456.5937, 14016.66
457.0758, 14026.51
457.5579, 14040.18
458.0400, 14081.43
458.5222, 14139.68
459.0043, 14201.12
459.4864, 14266.43
459.9685, 14321.05
460.4506, 14330.66
460.9327, 14322.03
461.4149, 14343.41
461.8970, 14439.58
462.3791, 14552.10
462.8612, 14650.56
463.3433, 14733.73
463.8254, 14802.14
464.3076, 14842.98
464.7897, 14875.98
465.2718, 14915.56
465.7539, 14973.89
466.2360, 15025.32
466.7181, 15046.28
467.2003, 15057.79
467.6824, 15113.87
468.1645, 15262.55
468.6466, 15400.59
469.1287, 15492.05
469.6108, 15523.45
470.0930, 15584.81
470.5751, 15691.20
471.0572, 15806.99
471.5393, 15895.49
472.0214, 15950.06
472.5035, 16003.19
472.9857, 16055.44
473.4678, 16113.47
473.9499, 16209.82
474.4320, 16347.49
474.9141, 16475.76
475.3962, 16555.54
475.8784, 16599.16
476.3605, 16650.84
476.8426, 16716.25
477.3247, 16782.80
477.8068, 16836.64
478.2889, 16881.93
478.7711, 16927.96
479.2532, 16969.32
479.7353, 17019.84
480.2174, 17095.91
480.6995, 17195.62
481.1816, 17298.94
481.6638, 17398.00
482.1459, 17494.43
482.6280, 17590.97
483.1101, 17691.05
483.5922, 17783.59
484.0743, 17862.10
484.5565, 17930.77
485.0385, 17995.90
485.5207, 18060.68
486.0028, 18120.00
486.4849, 18174.42
486.9670, 18224.25
487.4491, 18260.94
487.9312, 18279.55
488.4134, 18291.62
488.8955, 18304.62
489.3776, 18315.86
489.8597, 18343.72
490.3418, 18401.70
490.8239, 18468.74
491.3061, 18479.97
491.7882, 18429.92
492.2703, 18391.29
492.7524, 18415.75
493.2345, 18485.63
493.7166, 18519.87
494.1988, 18515.02
494.6809, 18499.47
495.1630, 18497.76
495.6451, 18506.44
496.1272, 18519.41
496.6093, 18542.30
497.0915, 18558.66
497.5736, 18552.85
498.0557, 18527.60
498.5378, 18492.19
499.0199, 18438.58
499.5020, 18385.47
499.9842, 18348.39
500.4663, 18333.52
500.9484, 18314.32
501.4305, 18281.53
501.9126, 18241.00
502.3947, 18199.13
502.8769, 18149.43
503.3590, 18106.22
503.8411, 18073.76
504.3232, 18049.91
504.8053, 18024.89
505.2874, 18011.99
505.7696, 17976.78
506.2517, 17893.45
506.7338, 17745.21
507.2159, 17629.29
507.6980, 17553.34
508.1801, 17495.60
508.6623, 17424.63
509.1444, 17342.16
509.6265, 17269.31
510.1086, 17222.33
510.5907, 17183.64
511.0728, 17108.49
511.5550, 17000.26
512.0371, 16892.86
512.5192, 16819.68
513.0013, 16759.77
513.4835, 16679.46
513.9656, 16567.12
514.4477, 16464.32
514.9298, 16417.37
515.4119, 16394.24
515.8940, 16347.41
516.3761, 16234.57
516.8582, 16118.82
517.3403, 16022.82
517.8224, 15945.50
518.3046, 15871.46
518.7867, 15804.73
519.2688, 15735.39
519.7509, 15657.93
520.2330, 15569.63
520.7151, 15479.60
521.1973, 15381.56
521.6794, 15286.28
522.1615, 15213.17
522.6436, 15170.92
523.1257, 15119.65
523.6078, 15047.16
524.0900, 14957.87
524.5721, 14867.13
525.0542, 14775.80
525.5363, 14692.15
526.0184, 14627.98
526.5005, 14577.17
526.9827, 14520.05
527.4648, 14454.42
527.9469, 14380.92
528.4290, 14291.31
528.9111, 14194.43
529.3932, 14109.79
529.8754, 14054.21
530.3575, 14004.91
530.8396, 13951.18
531.3217, 13891.69
531.8038, 13821.16
532.2859, 13723.88
532.7681, 13625.78
533.2502, 13539.46
533.7323, 13466.23
534.2144, 13408.22
534.6965, 13379.18
535.1786, 13359.63
535.6608, 13328.64
536.1429, 13287.40
536.6250, 13230.45
537.1071, 13149.01
537.5892, 13050.77
538.0714, 12979.46
538.5535, 12939.56
539.0356, 12904.79
539.5177, 12854.04
539.9998, 12790.52
540.4819, 12756.08
540.9641, 12757.52
541.4462, 12755.47
541.9283, 12694.83
542.4104, 12595.29
542.8925, 12507.81
543.3746, 12446.74
543.8568, 12405.02
544.3389, 12386.74
544.8210, 12384.41
545.3031, 12374.23
545.7852, 12344.72
546.2673, 12303.73
546.7495, 12252.59
547.2316, 12188.60
547.7137, 12131.34
548.1958, 12093.47
548.6779, 12060.44
549.1600, 12019.51
549.6422, 11961.77
550.1243, 11909.74
550.6064, 11870.30
551.0885, 11836.31
551.5706, 11783.00
552.0527, 11701.35
552.5349, 11632.43
553.0170, 11600.25
553.4991, 11599.25
553.9812, 11575.68
554.4633, 11527.26
554.9454, 11474.44
555.4276, 11443.93
555.9097, 11424.69
556.3918, 11381.91
556.8739, 11299.41
557.3560, 11217.19
557.8381, 11181.81
558.3203, 11177.02
558.8024, 11167.76
559.2845, 11133.71
559.7666, 11094.90
560.2487, 11060.54
560.7308, 11030.78
561.2130, 11004.19
561.6951, 10993.17
562.1772, 10975.46
562.6593, 10934.48
563.1414, 10843.68
563.6235, 10783.52
564.1057, 10766.69
564.5878, 10771.28
565.0699, 10770.43
565.5520, 10765.98
566.0341, 10748.03
566.5162, 10710.66
566.9984, 10659.60
567.4805, 10612.17
567.9626, 10568.30
568.4447, 10534.53
568.9268, 10524.37
569.4089, 10525.72
569.8911, 10508.67
570.3732, 10470.50
570.8553, 10427.87
571.3374, 10389.51
571.8195, 10356.84
572.3016, 10330.83
572.7838, 10316.41
573.2659, 10302.75
573.7480, 10286.15
574.2301, 10266.68
574.7122, 10244.18
575.1943, 10220.38
575.6765, 10192.07
576.1586, 10155.60
576.6407, 10110.66
577.1228, 10074.14
577.6049, 10051.08
578.0870, 10030.28
578.5692, 10002.73
579.0513, 9966.517
579.5334, 9938.246
580.0155, 9921.340
580.4976, 9906.723
580.9797, 9879.613
581.4619, 9841.649
581.9440, 9804.269
582.4261, 9766.781
582.9082, 9735.495
583.3903, 9724.242
583.8724, 9729.238
584.3546, 9734.101
584.8367, 9728.062
585.3188, 9718.469
585.8009, 9712.857
586.2830, 9713.580
586.7651, 9706.550
587.2473, 9679.198
587.7294, 9646.078
588.2115, 9619.937
