##NAMES=Perite
##RRUFFID=R060766
##IDEAL CHEMISTRY=Pb^2+^Bi^3+^O_2_Cl
##LOCALITY=Blue Bell mine, San Bernardino, California, USA
##OWNER=RRUFF
##SOURCE=Michael Scott
##DESCRIPTION=Pale straw-yellow granular, associated with fluorite, hemimorphite, quartz and chlorargyrite
##STATUS=The identification of this mineral has been confirmed by X-ray diffraction.
##URL=rruff.info/R060766
120.5635, 2147.823
121.0456, 2366.976
121.5277, 2643.131
122.0098, 2991.531
122.4919, 3414.364
122.9741, 3907.830
123.4562, 4469.898
123.9383, 5090.731
124.4204, 5776.242
124.9025, 6536.902
125.3846, 7355.836
125.8668, 8181.510
126.3489, 9040.249
126.8310, 9864.025
127.3131, 10655.45
127.7952, 11403.42
128.2773, 12097.48
128.7595, 12715.78
129.2416, 13273.51
129.7237, 13856.93
130.2058, 14525.37
130.6879, 15153.85
131.1700, 15738.00
131.6522, 16259.79
132.1343, 16691.55
132.6164, 17003.93
133.0985, 17198.37
133.5806, 17376.56
134.0627, 17458.99
134.5449, 17600.68
135.0270, 17813.59
135.5091, 18120.13
135.9912, 18549.47
136.4733, 19117.53
136.9554, 19818.68
137.4376, 20736.77
137.9197, 21802.26
138.4018, 23113.65
138.8839, 24721.83
139.3660, 26615.34
139.8481, 28761.99
140.3303, 31108.36
140.8124, 33636.07
141.2945, 36535.24
141.7766, 39778.58
142.2587, 43309.45
142.7408, 47113.64
143.2230, 51173.71
143.7051, 55439.59
144.1872, 59881.49
144.6693, 64533.79
145.1514, 69315.93
145.6335, 74244.27
146.1156, 79256.95
146.5978, 84364.70
147.0799, 89556.55
147.5620, 94769.46
148.0441, 99974.66
148.5262, 105193.2
149.0083, 110299.0
149.4905, 115415.8
149.9726, 120370.9
150.4547, 125121.4
150.9368, 129657.3
151.4189, 133847.2
151.9010, 137587.8
152.3832, 140925.1
152.8653, 143476.8
153.3474, 145377.1
153.8295, 146397.0
154.3116, 146365.0
154.7937, 145251.0
155.2759, 142944.5
155.7580, 139092.0
156.2401, 133537.6
156.7222, 127385.6
157.2043, 120519.9
157.6864, 113221.4
158.1686, 105757.3
158.6507, 98112.54
159.1328, 90667.13
159.6149, 83965.30
160.0970, 77878.27
160.5791, 72485.21
161.0613, 67889.21
161.5434, 63960.95
162.0255, 60517.43
162.5076, 57563.38
162.9897, 55016.27
163.4718, 52868.00
163.9540, 51090.59
164.4361, 49525.83
164.9182, 48172.32
165.4003, 46996.15
165.8824, 45944.27
166.3645, 45025.12
166.8467, 44200.89
167.3288, 43442.30
167.8109, 42747.05
168.2930, 42079.17
168.7751, 41414.71
169.2572, 40767.68
169.7394, 40191.72
170.2215, 39722.46
170.7036, 39288.34
171.1857, 38798.84
171.6678, 38256.10
172.1499, 37734.82
172.6321, 37263.10
173.1142, 36839.05
173.5963, 36461.36
174.0784, 36141.75
174.5605, 35851.14
175.0426, 35553.08
175.5248, 35247.84
176.0069, 34958.73
176.4890, 34690.40
176.9711, 34445.89
177.4532, 34233.71
177.9353, 34069.61
178.4175, 33921.82
178.8996, 33752.20
179.3817, 33563.26
179.8638, 33392.83
180.3459, 33269.77
180.8280, 33185.80
181.3102, 33101.60
181.7923, 32997.66
182.2744, 32912.29
182.7565, 32887.41
183.2386, 32914.67
183.7207, 32929.07
184.2029, 32865.61
184.6850, 32743.60
185.1671, 32678.77
185.6492, 32716.90
186.1313, 32776.39
186.6134, 32796.25
187.0956, 32781.08
187.5777, 32759.76
188.0598, 32756.77
188.5419, 32766.64
189.0240, 32752.04
189.5061, 32692.88
189.9883, 32629.94
190.4704, 32590.50
190.9525, 32571.40
191.4346, 32556.13
191.9167, 32534.11
192.3988, 32506.88
192.8810, 32480.69
193.3631, 32442.26
193.8452, 32426.16
194.3273, 32471.86
194.8094, 32559.76
195.2915, 32623.83
195.7737, 32602.56
196.2558, 32513.42
196.7379, 32461.13
197.2200, 32469.17
197.7021, 32487.73
198.1842, 32487.74
198.6664, 32474.71
199.1485, 32463.79
199.6306, 32479.92
200.1127, 32510.71
200.5948, 32482.99
201.0770, 32339.13
201.5591, 32224.40
202.0412, 32232.78
202.5233, 32322.81
203.0054, 32403.43
203.4875, 32423.63
203.9697, 32393.33
204.4518, 32346.32
204.9339, 32266.44
205.4160, 32196.41
205.8981, 32167.45
206.3802, 32159.83
206.8624, 32137.52
207.3445, 32072.15
207.8266, 31980.84
208.3087, 31915.98
208.7908, 31886.25
209.2729, 31867.73
209.7551, 31849.61
210.2372, 31834.06
210.7193, 31825.24
211.2014, 31826.78
211.6835, 31834.81
212.1656, 31840.55
212.6478, 31844.05
213.1299, 31844.95
213.6120, 31834.29
214.0941, 31823.84
214.5762, 31829.72
215.0583, 31861.82
215.5405, 31909.19
216.0226, 31951.10
216.5047, 31986.20
216.9868, 32020.66
217.4689, 32066.86
217.9510, 32110.70
218.4332, 32134.21
218.9153, 32127.67
219.3974, 32109.19
219.8795, 32103.91
220.3616, 32112.22
220.8437, 32133.65
221.3259, 32189.99
221.8080, 32249.27
222.2901, 32281.17
222.7722, 32275.06
223.2543, 32253.86
223.7364, 32241.95
224.2186, 32238.72
224.7007, 32248.21
225.1828, 32297.43
225.6649, 32343.92
226.1470, 32345.38
226.6291, 32290.16
227.1113, 32229.50
227.5934, 32216.85
228.0755, 32253.80
228.5576, 32292.92
229.0397, 32327.87
229.5218, 32356.80
230.0040, 32374.84
230.4861, 32381.44
230.9682, 32391.13
231.4503, 32417.70
231.9324, 32459.92
232.4145, 32501.74
232.8967, 32541.19
233.3788, 32578.45
233.8609, 32615.43
234.3430, 32651.66
234.8251, 32683.56
235.3072, 32711.21
235.7894, 32733.27
236.2715, 32739.17
236.7536, 32709.75
237.2357, 32692.05
237.7178, 32734.39
238.1999, 32823.29
238.6821, 32898.84
239.1642, 32928.80
239.6463, 32923.80
240.1284, 32906.20
240.6105, 32868.79
241.0926, 32839.62
241.5748, 32844.77
242.0569, 32874.52
242.5390, 32906.88
243.0211, 32935.11
243.5032, 32961.34
243.9853, 32992.86
244.4675, 33033.66
244.9496, 33062.92
245.4317, 33056.62
245.9138, 33029.44
246.3959, 33009.18
246.8780, 33005.43
247.3602, 33008.84
247.8423, 33004.20
248.3244, 32990.79
248.8065, 32994.75
249.2886, 33039.88
249.7707, 33109.79
250.2529, 33168.06
250.7350, 33205.14
251.2171, 33237.64
251.6992, 33284.58
252.1813, 33341.24
252.6634, 33375.79
253.1456, 33362.82
253.6277, 33327.44
254.1098, 33322.64
254.5919, 33356.34
255.0740, 33399.05
255.5561, 33440.42
256.0382, 33479.60
256.5204, 33514.91
257.0025, 33546.17
257.4846, 33572.47
257.9667, 33594.33
258.4488, 33616.44
258.9309, 33621.05
259.4131, 33578.37
259.8952, 33522.25
260.3773, 33510.57
260.8594, 33560.68
261.3415, 33631.45
261.8236, 33668.90
262.3058, 33666.20
262.7879, 33676.87
263.2700, 33718.34
263.7521, 33769.45
264.2342, 33812.86
264.7163, 33845.97
265.1985, 33868.56
265.6806, 33879.52
266.1627, 33877.32
266.6448, 33872.12
267.1269, 33855.54
267.6090, 33843.18
268.0912, 33848.66
268.5733, 33868.72
269.0554, 33888.35
269.5375, 33897.12
270.0196, 33895.47
270.5017, 33890.16
270.9839, 33876.46
271.4660, 33865.10
271.9481, 33851.95
272.4302, 33844.30
272.9123, 33855.52
273.3944, 33892.93
273.8766, 33953.09
274.3587, 34023.80
274.8408, 34146.71
275.3229, 34229.18
275.8050, 34225.67
276.2871, 34191.73
276.7693, 34186.98
277.2514, 34233.31
277.7335, 34316.09
278.2156, 34411.17
278.6977, 34547.90
279.1798, 34645.67
279.6620, 34680.67
280.1441, 34697.74
280.6262, 34730.14
281.1083, 34782.59
281.5904, 34837.00
282.0725, 34865.86
282.5547, 34851.43
283.0368, 34885.80
283.5189, 35022.57
284.0010, 35156.95
284.4831, 35247.19
284.9652, 35295.09
285.4474, 35318.81
285.9295, 35329.33
286.4116, 35327.63
286.8937, 35330.89
287.3758, 35356.66
287.8579, 35365.66
288.3401, 35347.87
288.8222, 35306.83
289.3043, 35242.05
289.7864, 35144.52
290.2685, 35039.52
290.7506, 35003.50
291.2328, 35078.91
291.7149, 35129.43
292.1970, 35095.04
292.6791, 35030.08
293.1612, 34983.55
293.6433, 34970.25
294.1255, 34973.29
294.6076, 34971.70
295.0897, 34964.32
295.5718, 34963.66
296.0539, 34972.55
296.5360, 34989.54
297.0182, 35019.84
297.5003, 35062.98
297.9824, 35094.12
298.4645, 35072.14
298.9466, 35015.91
299.4287, 35021.77
299.9109, 35131.57
300.3930, 35251.41
300.8751, 35293.22
301.3572, 35273.07
301.8393, 35257.11
302.3214, 35272.36
302.8036, 35303.89
303.2857, 35337.61
303.7678, 35374.75
304.2499, 35392.16
304.7320, 35361.19
305.2141, 35296.94
305.6963, 35255.86
306.1784, 35264.75
306.6605, 35278.07
307.1426, 35264.40
307.6247, 35228.71
308.1068, 35190.46
308.5890, 35158.75
309.0711, 35130.81
309.5532, 35100.66
310.0353, 35076.13
310.5174, 35036.86
310.9995, 34966.02
311.4817, 34880.58
311.9638, 34810.19
312.4459, 34763.98
312.9280, 34718.64
313.4101, 34636.09
313.8922, 34481.52
314.3744, 34385.01
314.8565, 34403.25
315.3386, 34437.37
315.8207, 34412.36
316.3028, 34328.53
316.7849, 34235.32
317.2671, 34175.37
317.7492, 34150.66
318.2313, 34132.56
318.7134, 34130.14
319.1955, 34124.56
319.6776, 34110.04
320.1598, 34088.23
320.6419, 34062.34
321.1240, 34033.66
321.6061, 34002.73
322.0882, 33969.17
322.5703, 33913.52
323.0525, 33887.84
323.5346, 33916.16
324.0167, 33962.92
324.4988, 33996.06
324.9809, 34007.24
325.4630, 34011.46
325.9452, 34035.81
326.4273, 34089.20
326.9094, 34108.44
327.3915, 34044.80
327.8736, 33981.39
328.3557, 33971.63
328.8379, 34006.64
329.3200, 34035.18
329.8021, 34020.44
330.2842, 33970.18
330.7663, 33907.88
331.2484, 33819.18
331.7306, 33752.84
332.2127, 33768.23
332.6948, 33820.24
333.1769, 33830.45
333.6590, 33754.13
334.1411, 33651.87
334.6233, 33593.30
335.1054, 33576.89
335.5875, 33559.83
336.0696, 33532.59
336.5517, 33487.68
337.0338, 33407.44
337.5160, 33271.86
337.9981, 33162.71
338.4802, 33131.25
338.9623, 33147.41
339.4444, 33156.01
339.9265, 33143.54
340.4087, 33123.86
340.8908, 33111.59
341.3729, 33106.87
341.8550, 33111.09
342.3371, 33133.25
342.8192, 33156.96
343.3014, 33168.97
343.7835, 33170.41
344.2656, 33174.34
344.7477, 33193.50
345.2298, 33223.14
345.7119, 33213.98
346.1941, 33100.16
346.6762, 33025.61
347.1583, 33040.47
347.6404, 33104.12
348.1225, 33166.86
348.6046, 33208.54
349.0868, 33233.52
349.5689, 33249.03
350.0510, 33252.29
350.5331, 33251.36
351.0152, 33241.78
351.4973, 33232.54
351.9795, 33229.93
352.4616, 33233.76
352.9437, 33239.43
353.4258, 33246.77
353.9079, 33254.88
354.3900, 33242.57
354.8722, 33186.34
355.3543, 33144.77
355.8364, 33160.43
356.3185, 33201.76
356.8006, 33215.45
357.2827, 33172.80
357.7649, 33104.95
358.2470, 33053.44
358.7291, 33018.95
359.2112, 32996.44
359.6933, 32998.58
360.1754, 33000.94
360.6576, 32967.80
361.1397, 32890.54
361.6218, 32822.77
362.1039, 32802.18
362.5860, 32809.02
363.0681, 32794.90
363.5503, 32746.20
364.0324, 32707.67
364.5145, 32731.96
364.9966, 32821.65
365.4787, 32888.42
365.9608, 32911.39
366.4430, 32924.47
366.9251, 32942.55
367.4072, 32968.56
367.8893, 33008.86
368.3714, 33069.02
368.8535, 33142.57
369.3357, 33206.22
369.8178, 33254.04
370.2999, 33298.09
370.7820, 33337.77
371.2641, 33374.52
371.7462, 33411.50
372.2284, 33448.60
372.7105, 33480.56
373.1926, 33498.77
373.6747, 33498.34
374.1568, 33505.75
374.6389, 33535.70
375.1211, 33559.52
375.6032, 33562.53
376.0853, 33551.04
376.5674, 33541.57
377.0495, 33546.92
377.5316, 33557.50
378.0138, 33544.13
378.4959, 33497.61
378.9780, 33453.55
379.4601, 33429.70
379.9422, 33411.54
380.4243, 33386.36
380.9065, 33351.17
381.3886, 33314.30
381.8707, 33280.39
382.3528, 33249.85
382.8349, 33227.09
383.3170, 33217.26
383.7992, 33205.03
384.2813, 33165.62
384.7634, 33104.97
385.2455, 33066.58
385.7276, 33091.11
386.2097, 33116.17
386.6919, 33081.33
387.1740, 32995.54
387.6561, 32912.24
388.1382, 32860.61
388.6203, 32832.62
389.1024, 32800.39
389.5846, 32771.61
390.0667, 32728.92
390.5488, 32648.60
391.0309, 32564.67
391.5130, 32520.15
391.9951, 32520.25
392.4773, 32525.61
392.9594, 32485.52
393.4415, 32387.46
393.9236, 32322.85
394.4057, 32336.51
394.8878, 32339.28
395.3700, 32298.05
395.8521, 32225.68
396.3342, 32146.19
396.8163, 32070.10
397.2984, 31999.93
397.7805, 31944.57
398.2627, 31909.63
398.7448, 31867.53
399.2269, 31819.93
399.7090, 31754.35
400.1911, 31646.47
400.6732, 31494.50
401.1554, 31359.25
401.6375, 31295.74
402.1196, 31275.86
402.6017, 31227.40
403.0838, 31138.01
403.5659, 31045.59
404.0481, 30979.47
404.5302, 30935.79
405.0123, 30888.54
405.4944, 30826.13
405.9765, 30771.32
406.4586, 30755.69
406.9408, 30756.26
407.4229, 30709.33
407.9050, 30585.64
408.3871, 30440.27
408.8692, 30375.81
409.3513, 30456.33
409.8335, 30485.41
410.3156, 30414.92
410.7977, 30335.48
411.2798, 30313.69
411.7619, 30339.88
412.2440, 30355.88
412.7262, 30311.98
413.2083, 30222.78
413.6904, 30188.53
414.1725, 30249.31
414.6546, 30297.72
415.1367, 30298.93
415.6189, 30281.77
416.1010, 30272.93
416.5831, 30279.02
417.0652, 30293.79
417.5473, 30325.02
418.0294, 30366.78
418.5116, 30361.55
418.9937, 30281.62
419.4758, 30191.57
419.9579, 30151.94
420.4400, 30147.47
420.9221, 30130.15
421.4043, 30076.70
421.8864, 30016.22
422.3685, 29965.90
422.8506, 29928.08
423.3327, 29914.70
423.8148, 29936.72
424.2970, 29973.56
424.7791, 29978.22
425.2612, 29916.30
425.7433, 29890.79
426.2254, 29959.37
426.7076, 30029.55
427.1897, 30012.76
427.6718, 29916.46
428.1539, 29819.64
428.6360, 29788.59
429.1181, 29816.38
429.6003, 29820.37
430.0824, 29784.15
430.5645, 29746.29
431.0466, 29705.26
431.5287, 29671.22
432.0108, 29657.81
432.4930, 29668.69
432.9751, 29686.36
433.4572, 29688.13
433.9393, 29676.11
434.4214, 29681.56
434.9035, 29720.20
435.3857, 29755.82
435.8678, 29756.37
436.3499, 29731.68
436.8320, 29708.17
437.3141, 29686.97
437.7962, 29674.25
438.2784, 29684.36
438.7605, 29709.84
439.2426, 29718.69
439.7247, 29695.23
440.2068, 29657.29
440.6889, 29636.93
441.1711, 29636.17
441.6532, 29650.45
442.1353, 29695.59
442.6174, 29742.98
443.0995, 29771.50
443.5816, 29782.65
444.0638, 29789.74
444.5459, 29802.26
445.0280, 29818.30
445.5101, 29829.31
445.9922, 29836.42
446.4743, 29835.22
446.9565, 29814.50
447.4386, 29792.53
447.9207, 29789.31
448.4028, 29806.84
448.8849, 29821.34
449.3670, 29801.52
449.8492, 29759.67
450.3313, 29752.62
450.8134, 29793.73
451.2955, 29840.01
451.7776, 29870.11
452.2597, 29884.03
452.7419, 29880.85
453.2239, 29847.44
453.7061, 29815.19
454.1882, 29802.18
454.6703, 29802.18
455.1524, 29799.14
455.6345, 29788.19
456.1166, 29786.34
456.5988, 29816.74
457.0809, 29887.51
457.5630, 29952.21
458.0451, 30015.13
458.5272, 30067.94
459.0093, 30090.95
459.4915, 30103.82
459.9736, 30144.85
460.4557, 30233.93
460.9378, 30341.36
461.4199, 30404.14
461.9020, 30408.26
462.3842, 30432.72
462.8663, 30507.92
463.3484, 30588.85
463.8305, 30644.12
464.3126, 30678.17
464.7947, 30715.64
465.2769, 30764.89
465.7590, 30825.90
466.2411, 30901.32
466.7232, 30990.85
467.2053, 31085.79
467.6874, 31183.78
468.1696, 31284.96
468.6517, 31392.27
469.1338, 31514.36
469.6159, 31619.64
470.0980, 31692.54
470.5801, 31754.56
471.0623, 31810.54
471.5444, 31869.46
472.0265, 31961.76
472.5086, 32115.69
472.9907, 32313.98
473.4728, 32451.10
473.9550, 32477.60
474.4371, 32524.46
474.9192, 32601.51
475.4013, 32710.98
475.8834, 32868.82
476.3655, 33071.36
476.8477, 33272.47
477.3298, 33440.44
477.8119, 33577.98
478.2940, 33683.04
478.7761, 33746.65
479.2582, 33819.70
479.7404, 33936.13
480.2225, 34082.82
480.7046, 34221.03
481.1867, 34349.45
481.6688, 34472.41
482.1509, 34577.34
482.6331, 34683.75
483.1152, 34819.13
483.5973, 34987.18
484.0794, 35175.62
484.5615, 35378.48
485.0436, 35595.22
485.5258, 35762.73
486.0079, 35810.73
486.4900, 35887.17
486.9721, 36040.89
487.4542, 36224.84
487.9363, 36391.33
488.4185, 36525.71
488.9006, 36637.07
489.3827, 36732.48
489.8648, 36812.13
490.3469, 36877.32
490.8290, 36917.53
491.3112, 36965.91
491.7933, 37058.14
492.2754, 37172.09
492.7575, 37263.97
493.2396, 37321.45
493.7217, 37366.17
494.2039, 37413.28
494.6860, 37456.05
495.1681, 37475.72
495.6502, 37468.36
496.1323, 37463.95
496.6144, 37501.54
497.0966, 37590.44
497.5787, 37620.71
498.0608, 37546.45
498.5429, 37470.50
499.0250, 37413.28
499.5071, 37373.05
499.9893, 37354.82
500.4714, 37358.86
500.9535, 37354.26
501.4356, 37295.24
501.9177, 37182.88
502.3998, 37082.35
502.8820, 37002.28
503.3641, 36926.30
503.8462, 36841.36
504.3283, 36752.58
504.8104, 36671.88
505.2925, 36610.23
505.7747, 36543.91
506.2568, 36457.12
506.7389, 36355.28
507.2210, 36248.46
507.7031, 36139.73
508.1852, 36022.48
508.6674, 35888.56
509.1495, 35735.37
509.6316, 35590.94
510.1137, 35472.93
510.5958, 35341.68
511.0779, 35172.36
511.5601, 34989.64
512.0422, 34828.23
512.5243, 34698.11
513.0064, 34575.30
513.4885, 34429.88
513.9706, 34263.55
514.4528, 34106.05
514.9349, 33965.76
515.4170, 33819.23
515.8991, 33645.40
516.3812, 33456.14
516.8633, 33273.43
517.3455, 33094.84
517.8276, 32933.81
518.3097, 32813.63
518.7918, 32710.59
519.2739, 32588.35
519.7560, 32439.29
520.2382, 32274.57
520.7203, 32101.85
521.2024, 31921.58
521.6845, 31764.19
522.1666, 31636.41
522.6487, 31526.42
523.1309, 31458.17
523.6130, 31392.41
524.0951, 31276.14
524.5772, 31102.77
525.0593, 30934.38
525.5414, 30848.70
526.0236, 30819.55
526.5057, 30725.10
526.9878, 30545.95
527.4699, 30369.43
527.9520, 30246.70
528.4341, 30160.44
528.9163, 30064.11
529.3984, 29951.90
529.8805, 29843.32
530.3626, 29739.97
530.8447, 29645.91
531.3268, 29570.49
531.8090, 29511.13
532.2911, 29448.10
532.7732, 29364.81
533.2553, 29268.33
533.7374, 29195.24
534.2195, 29159.42
534.7017, 29121.19
535.1838, 29078.04
535.6659, 29027.40
536.1480, 28965.08
536.6301, 28891.96
537.1122, 28814.99
537.5944, 28726.51
538.0765, 28642.11
538.5586, 28598.77
539.0407, 28593.46
539.5228, 28567.97
540.0049, 28493.81
540.4871, 28392.31
540.9692, 28296.34
541.4513, 28197.76
541.9334, 28131.68
542.4155, 28147.41
542.8976, 28151.88
543.3798, 28069.77
543.8619, 27932.81
544.3440, 27817.69
544.8261, 27764.21
545.3082, 27745.49
545.7903, 27714.08
546.2725, 27668.62
546.7546, 27621.42
547.2367, 27572.79
547.7188, 27524.45
548.2009, 27480.06
548.6830, 27437.01
549.1652, 27387.25
549.6473, 27324.01
550.1294, 27259.62
550.6115, 27200.42
551.0936, 27146.98
551.5757, 27099.88
552.0579, 27059.41
552.5400, 27026.20
553.0221, 27003.49
553.5042, 26992.43
553.9863, 26963.93
554.4684, 26896.84
554.9506, 26836.52
555.4327, 26794.25
555.9148, 26760.75
556.3969, 26702.84
556.8790, 26621.12
557.3611, 26602.74
557.8433, 26815.51
558.3254, 27145.17
558.8075, 27207.12
559.2896, 26961.20
559.7717, 26701.70
560.2538, 26576.87
560.7360, 26539.17
561.2181, 26474.92
561.7002, 26365.24
562.1823, 26280.78
562.6644, 26245.77
563.1465, 26228.88
563.6287, 26214.00
564.1108, 26195.98
564.5929, 26167.63
565.0750, 26123.23
565.5571, 26073.56
566.0392, 26047.87
566.5214, 26054.42
567.0035, 26043.28
567.4856, 26000.38
567.9677, 25945.80
568.4498, 25890.09
568.9319, 25834.84
569.4141, 25785.36
569.8962, 25745.70
570.3783, 25709.59
570.8604, 25672.29
571.3425, 25636.01
571.8246, 25607.79
572.3068, 25589.20
572.7889, 25569.00
573.2710, 25533.63
573.7531, 25483.08
574.2352, 25443.99
574.7173, 25429.65
575.1995, 25409.99
575.6816, 25360.52
576.1637, 25314.40
576.6458, 25315.56
577.1279, 25366.49
577.6100, 25407.16
578.0922, 25380.33
578.5743, 25318.50
579.0564, 25290.07
579.5385, 25295.69
580.0206, 25294.56
580.5027, 25266.08
580.9849, 25223.29
581.4670, 25192.72
581.9491, 25184.20
582.4312, 25163.41
582.9133, 25116.36
583.3954, 25070.38
583.8776, 25043.96
584.3597, 25028.93
584.8418, 25006.73
585.3239, 24969.05
585.8060, 24926.50
586.2881, 24889.67
586.7703, 24859.11
587.2524, 24850.81
587.7345, 24876.94
588.2166, 24897.52
588.6987, 24882.69
589.1808, 24840.68
589.6630, 24801.39
590.1451, 24761.51
590.6272, 24731.09
591.1093, 24719.25
591.5914, 24714.55
592.0735, 24709.65
592.5557, 24700.81
593.0378, 24679.22
593.5199, 24636.15
594.0020, 24580.65
594.4841, 24542.20
594.9662, 24520.90
595.4484, 24516.59
595.9305, 24543.61
596.4126, 24573.09
596.8947, 24584.96
597.3768, 24580.31
597.8589, 24565.81
598.3411, 24545.52
598.8232, 24513.72
599.3053, 24444.29
599.7874, 24365.71
600.2695, 24343.77
600.7516, 24392.39
601.2338, 24452.26
601.7159, 24461.97
602.1980, 24422.49
602.6801, 24371.00
603.1622, 24283.08
603.6443, 24225.13
604.1265, 24234.32
604.6086, 24263.39
605.0907, 24273.79
605.5728, 24261.39
606.0549, 24237.90
606.5370, 24197.30
607.0192, 24156.67
607.5013, 24141.68
607.9834, 24147.09
608.4655, 24147.60
608.9476, 24132.87
609.4297, 24111.91
609.9119, 24097.70
610.3940, 24089.86
610.8761, 24089.47
611.3582, 24117.73
611.8403, 24128.79
612.3224, 24092.63
612.8046, 24039.79
613.2867, 24014.10
613.7688, 24026.12
614.2509, 24032.84
614.7330, 23984.49
615.2151, 23912.67
615.6973, 23892.51
616.1794, 23924.60
616.6615, 23934.76
617.1436, 23876.74
617.6257, 23794.00
