##NAMES=Perovskite
##RRUFFID=R050456
##IDEAL CHEMISTRY=CaTi^4+^O_3_
##LOCALITY=Magnet Cove, Arkansas, USA
##OWNER=RRUFF
##SOURCE=University of Arizona Mineral Museum
##DESCRIPTION=Groups of black cubo-octahedral crystals
##STATUS=The identification of this mineral has been confirmed by X-ray diffraction and chemical analysis
##URL=rruff.info/R050456
##MEASURED CHEMISTRY=darker phase: (Ca_0.82_Fe^2+^_0.09_Na_0.07_Ce_0.01_La_0.01_)_Σ=1_(Ti_0.95_Nb^5+^_0.05_)_Σ=1_O_3_ ; gray phase: (Ca_0.89_Fe^2+^_0.05_Na_0.04_Ce_0.01_La_0.01_)_Σ=1_(Ti_0.98_Nb^5+^_0.02_)_Σ=1_O_3_
93.78320, 106.8777
94.26532, 107.1735
94.74744, 107.6683
95.22955, 108.0921
95.71167, 108.4376
96.19379, 108.0564
96.67590, 107.0770
97.15802, 105.9127
97.64014, 104.5858
98.12225, 103.1241
98.60437, 101.5249
99.08649, 99.71748
99.56860, 97.96955
100.0507, 96.63485
100.5328, 95.56837
101.0150, 94.67214
101.4971, 93.96085
101.9792, 93.44287
102.4613, 92.91702
102.9434, 92.23923
103.4255, 91.52686
103.9077, 90.83681
104.3898, 90.16222
104.8719, 89.56680
105.3540, 89.19889
105.8361, 89.17879
106.3182, 89.17505
106.8004, 89.08293
107.2825, 88.96166
107.7646, 88.86873
108.2467, 88.83294
108.7288, 88.85251
109.2109, 88.94224
109.6931, 89.03127
110.1752, 89.25276
110.6573, 89.75137
111.1394, 90.43554
111.6215, 91.07887
112.1036, 91.47655
112.5858, 91.58855
113.0679, 91.68793
113.5500, 91.74210
114.0321, 91.80445
114.5142, 91.93616
114.9964, 92.14624
115.4785, 92.34974
115.9606, 92.45513
116.4427, 92.46916
116.9248, 92.38874
117.4069, 92.12514
117.8891, 91.77076
118.3712, 91.50756
118.8533, 91.36544
119.3354, 91.34504
119.8175, 91.46984
120.2996, 91.72570
120.7818, 91.96098
121.2639, 92.07862
121.7460, 92.07737
122.2281, 91.98455
122.7102, 91.59782
123.1923, 91.25806
123.6745, 91.22977
124.1566, 91.53580
124.6387, 91.89563
125.1208, 91.90624
125.6029, 91.45512
126.0850, 90.84880
126.5672, 89.94416
127.0493, 89.01814
127.5314, 88.28397
128.0135, 87.82424
128.4956, 87.60024
128.9777, 87.49976
129.4599, 87.84715
129.9420, 87.95655
130.4241, 87.58706
130.9062, 86.97851
131.3883, 86.52657
131.8705, 86.48344
132.3526, 86.72054
132.8347, 86.49911
133.3168, 85.30106
133.7989, 84.26526
134.2810, 84.01504
134.7632, 84.42310
135.2453, 84.79219
135.7274, 84.63138
136.2095, 84.07617
136.6916, 83.69386
137.1737, 83.64494
137.6559, 83.69823
138.1380, 83.59071
138.6201, 83.28157
139.1022, 83.00352
139.5843, 82.96221
140.0664, 83.04198
140.5486, 83.08179
141.0307, 82.95820
141.5128, 82.75553
141.9949, 82.75582
142.4770, 83.16001
142.9591, 83.46511
143.4413, 83.40739
143.9234, 83.11272
144.4055, 82.81319
144.8876, 82.68233
145.3697, 82.72154
145.8518, 82.71616
146.3340, 82.53284
146.8161, 82.42301
147.2982, 82.55386
147.7803, 82.85209
148.2624, 83.10136
148.7445, 83.07362
149.2267, 82.68262
149.7088, 82.36269
150.1909, 82.04833
150.6730, 81.83370
151.1551, 81.78768
151.6372, 81.91178
152.1194, 82.15194
152.6015, 82.46941
153.0836, 82.96499
153.5657, 83.20449
154.0478, 82.98325
154.5299, 82.60415
155.0121, 82.39306
155.4942, 82.44180
155.9763, 82.55598
156.4584, 82.37969
156.9405, 81.87096
157.4227, 81.52681
157.9048, 81.61797
158.3869, 81.96172
158.8690, 82.16875
159.3511, 82.11414
159.8332, 81.92097
160.3154, 81.74536
160.7975, 81.58851
161.2796, 81.42110
161.7617, 81.16731
162.2438, 80.84304
162.7259, 80.68800
163.2081, 80.95312
163.6902, 81.25114
164.1723, 81.24915
164.6544, 80.91843
165.1365, 80.54312
165.6186, 80.46648
166.1008, 80.77897
166.5829, 80.98415
167.0650, 80.88046
167.5471, 80.72412
168.0292, 80.67018
168.5113, 80.75782
168.9935, 80.91959
169.4756, 81.05532
169.9577, 81.19746
170.4398, 81.23940
170.9219, 81.14201
171.4040, 80.97792
171.8862, 80.74962
172.3683, 80.46865
172.8504, 80.23280
173.3325, 80.28281
173.8146, 81.19534
174.2967, 81.69970
174.7789, 81.50378
175.2610, 80.96921
175.7431, 80.50706
176.2252, 80.29958
176.7073, 80.27438
177.1894, 80.19823
177.6716, 80.13326
178.1537, 79.95267
178.6358, 79.56496
179.1179, 79.04636
179.6000, 78.53341
180.0821, 78.09140
180.5643, 77.70548
181.0464, 77.32632
181.5285, 76.94559
182.0106, 76.57652
182.4927, 76.21508
182.9749, 75.86625
183.4570, 75.55034
183.9391, 75.27058
184.4212, 75.04179
184.9033, 74.87952
185.3854, 74.81200
185.8676, 74.76496
186.3497, 74.72511
186.8318, 74.69659
187.3139, 74.52567
187.7960, 73.98520
188.2781, 73.33130
188.7603, 72.83974
189.2424, 72.57207
189.7245, 72.45548
190.2066, 72.42906
190.6887, 72.52635
191.1708, 72.59026
191.6530, 72.55202
192.1351, 72.46269
192.6172, 72.34279
193.0993, 72.18877
193.5814, 72.05100
194.0635, 72.04934
194.5457, 72.27644
195.0278, 72.45640
195.5099, 72.55807
195.9920, 72.58186
196.4741, 72.51143
196.9562, 72.33577
197.4384, 72.09366
197.9205, 71.88409
198.4026, 71.60320
198.8847, 71.52453
199.3668, 71.82451
199.8489, 72.28033
200.3311, 72.65107
200.8132, 72.81493
201.2953, 72.81136
201.7774, 72.79448
202.2595, 72.66150
202.7416, 72.63403
203.2238, 72.77475
203.7059, 73.02607
204.1880, 73.33045
204.6701, 73.66415
205.1522, 73.99936
205.6344, 74.20263
206.1165, 74.18040
206.5986, 74.15231
207.0807, 74.14784
207.5628, 74.17014
208.0449, 74.22507
208.5271, 74.31843
209.0092, 74.44306
209.4913, 74.56818
209.9734, 74.67107
210.4555, 74.79974
210.9376, 74.96660
211.4198, 75.17123
211.9019, 75.41635
212.3840, 75.70407
212.8661, 76.03289
213.3482, 76.39429
213.8303, 76.81982
214.3125, 77.22388
214.7946, 77.56306
215.2767, 77.84054
215.7588, 78.05729
216.2409, 78.18191
216.7230, 78.26709
217.2052, 78.41061
217.6873, 78.62341
218.1694, 78.87252
218.6515, 79.14320
219.1336, 79.43574
219.6157, 79.72313
220.0979, 79.96931
220.5800, 80.22683
221.0621, 80.59586
221.5442, 81.13231
222.0263, 81.59415
222.5084, 81.67383
222.9906, 81.32907
223.4727, 81.06735
223.9548, 81.08592
224.4369, 81.23095
224.9190, 81.40963
225.4011, 81.60715
225.8833, 81.82302
226.3654, 82.08548
226.8475, 82.42271
227.3296, 82.66247
227.8117, 82.66044
228.2938, 82.61696
228.7760, 82.62524
229.2581, 82.71069
229.7402, 82.89005
230.2223, 83.19469
230.7044, 83.65006
231.1866, 84.15836
231.6687, 84.81861
232.1508, 85.44856
232.6329, 85.90366
233.1150, 86.17193
233.5971, 86.37761
234.0793, 86.71004
234.5614, 87.26435
235.0435, 87.70782
235.5256, 87.82645
236.0077, 87.99725
236.4898, 88.52592
236.9720, 89.42558
237.4541, 90.42601
237.9362, 91.16958
238.4183, 91.60125
238.9004, 91.86560
239.3825, 91.81160
239.8647, 91.73271
240.3468, 91.84604
240.8289, 92.16403
241.3110, 92.52608
241.7931, 92.75578
242.2752, 92.89171
242.7574, 92.71195
243.2395, 92.00211
243.7216, 91.18826
244.2037, 90.54935
244.6858, 90.11267
245.1679, 89.71729
245.6501, 89.19080
246.1322, 88.51085
246.6143, 87.74944
247.0964, 86.77150
247.5785, 85.81867
248.0606, 85.11101
248.5428, 84.63844
249.0249, 84.15086
249.5070, 83.38845
249.9891, 82.28694
250.4712, 81.34336
250.9533, 80.51194
251.4355, 79.85779
251.9176, 79.54171
252.3997, 79.52071
252.8818, 79.44150
253.3639, 78.98768
253.8460, 78.14181
254.3282, 77.40234
254.8103, 76.76022
255.2924, 76.22623
255.7745, 75.80294
256.2566, 75.49400
256.7387, 75.34202
257.2209, 75.44197
257.7030, 75.74088
258.1851, 75.86366
258.6672, 75.74400
259.1493, 75.50201
259.6314, 75.14681
260.1136, 74.69939
260.5957, 74.33388
261.0778, 74.14810
261.5599, 74.13638
262.0420, 74.21151
262.5241, 74.47163
263.0063, 74.70151
263.4884, 74.72030
263.9705, 74.55004
264.4526, 74.37672
264.9347, 74.25492
265.4168, 74.21089
265.8990, 74.27457
266.3811, 74.48308
266.8632, 74.72092
267.3453, 74.90550
267.8275, 75.04386
268.3096, 75.19960
268.7917, 75.42956
269.2738, 75.65323
269.7559, 75.74765
270.2380, 75.68330
270.7202, 75.64323
271.2023, 75.79591
271.6844, 76.10755
272.1665, 76.34718
272.6486, 76.44007
273.1307, 76.45103
273.6129, 76.39058
274.0950, 76.26180
274.5771, 76.28081
275.0592, 76.74768
275.5413, 77.55269
276.0234, 78.02860
276.5056, 77.92556
276.9877, 77.65608
277.4698, 77.48462
277.9519, 77.41939
278.4340, 77.49882
278.9161, 77.88668
279.3983, 78.47618
279.8804, 78.75778
280.3625, 78.51421
280.8446, 78.24747
281.3267, 78.30230
281.8088, 78.57015
282.2910, 78.79579
282.7731, 78.78609
283.2552, 78.63075
283.7373, 78.66251
284.2194, 79.03613
284.7015, 79.30031
285.1837, 79.17323
285.6658, 78.83059
286.1479, 78.53162
286.6300, 78.41042
287.1121, 78.38881
287.5942, 78.28244
288.0764, 78.04506
288.5585, 77.83178
289.0406, 77.70165
289.5227, 77.62168
290.0048, 77.57417
290.4869, 77.56232
290.9691, 77.54517
291.4512, 77.42473
291.9333, 77.13909
292.4154, 76.95248
292.8975, 77.07082
293.3796, 77.23436
293.8618, 77.22881
294.3439, 77.00013
294.8260, 76.69169
295.3081, 76.46513
295.7902, 76.31521
296.2723, 76.27391
296.7545, 76.48256
297.2366, 76.70816
297.7187, 76.80883
298.2008, 76.77672
298.6829, 76.71031
299.1650, 76.73183
299.6472, 76.86058
300.1293, 76.88754
300.6114, 76.64846
301.0935, 76.43809
301.5756, 76.41031
302.0577, 76.53434
302.5399, 76.68232
303.0220, 76.79150
303.5041, 76.85631
303.9862, 76.72169
304.4683, 76.10954
304.9504, 75.62151
305.4326, 75.52215
305.9147, 75.69243
306.3968, 75.91102
306.8789, 76.06091
307.3610, 76.14688
307.8431, 76.18317
308.3253, 76.15800
308.8074, 76.09660
309.2895, 75.94958
309.7716, 75.79515
310.2537, 75.74490
310.7358, 75.85773
311.2180, 76.04729
311.7001, 76.11519
312.1822, 76.00170
312.6643, 75.89486
313.1464, 75.85925
313.6285, 75.82698
314.1107, 75.71343
314.5928, 75.50082
315.0749, 75.29633
315.5570, 75.27200
316.0392, 75.48393
316.5213, 75.67088
317.0034, 75.77853
317.4855, 75.87662
317.9676, 76.02795
318.4497, 76.22298
318.9319, 76.37886
319.4140, 76.41281
319.8961, 76.31906
320.3782, 76.16268
320.8603, 75.80449
321.3424, 75.51853
321.8246, 75.38528
322.3067, 75.40771
322.7888, 75.59020
323.2709, 76.01092
323.7530, 76.60648
324.2351, 76.87016
324.7173, 76.53043
325.1994, 76.22544
325.6815, 76.10122
326.1636, 76.14228
326.6457, 76.34204
327.1278, 76.72000
327.6100, 77.19414
328.0921, 77.57752
328.5742, 77.87321
329.0563, 78.06088
329.5384, 78.09951
330.0205, 78.06374
330.5027, 77.98663
330.9848, 77.87875
331.4669, 77.80537
331.9490, 77.90754
332.4311, 78.26527
332.9132, 78.44640
333.3954, 78.15488
333.8775, 77.83863
334.3596, 77.80535
334.8417, 78.03738
335.3238, 78.23038
335.8059, 78.00436
336.2881, 77.34890
336.7702, 77.00213
337.2523, 77.19777
337.7344, 77.47948
338.2165, 77.72668
338.6986, 77.89560
339.1808, 77.90075
339.6629, 77.61450
340.1450, 77.14297
340.6271, 76.91020
341.1092, 77.06563
341.5913, 77.17321
342.0735, 77.01907
342.5556, 76.74438
343.0377, 76.50142
343.5198, 76.33363
344.0019, 76.25856
344.4840, 76.35921
344.9662, 76.70623
345.4483, 76.92116
345.9304, 76.77496
346.4125, 76.51501
346.8946, 76.27688
347.3767, 76.08265
347.8589, 75.95741
348.3410, 75.96664
348.8231, 76.10529
349.3052, 76.16734
349.7873, 76.07841
350.2694, 75.95445
350.7516, 75.90644
351.2337, 75.90652
351.7158, 75.83504
352.1979, 75.53411
352.6800, 75.09952
353.1621, 74.87020
353.6443, 74.92550
354.1264, 75.01861
354.6085, 75.00613
355.0906, 74.93455
355.5727, 74.87029
356.0548, 74.82595
356.5370, 74.80984
357.0191, 74.86620
357.5012, 75.00876
357.9833, 75.06594
358.4654, 74.85434
358.9475, 74.58841
359.4297, 74.55886
359.9118, 74.84307
360.3939, 75.11348
360.8760, 75.08351
361.3581, 74.81330
361.8402, 74.61526
362.3224, 74.58765
362.8045, 74.61098
363.2866, 74.54820
363.7687, 74.40971
364.2508, 74.29948
364.7329, 74.31287
365.2151, 74.36288
365.6972, 74.27275
366.1793, 74.00166
366.6614, 73.74778
367.1436, 73.68256
367.6257, 73.75596
368.1078, 73.81149
368.5899, 73.82341
369.0720, 73.81641
369.5541, 73.81617
370.0363, 73.81872
370.5184, 73.80450
371.0005, 73.78927
371.4826, 73.72501
371.9647, 73.48322
372.4468, 72.95651
372.9290, 72.54259
373.4111, 72.47119
373.8932, 72.60319
374.3753, 72.71519
374.8574, 72.75990
375.3395, 72.70620
375.8217, 72.47903
376.3038, 72.05299
376.7859, 71.68333
377.2680, 71.39033
377.7501, 71.16471
378.2322, 71.01649
378.7144, 70.93772
379.1965, 70.88159
379.6786, 70.81726
380.1607, 70.74461
380.6428, 70.66451
381.1249, 70.60875
381.6071, 70.51358
382.0892, 70.26859
382.5713, 69.97826
383.0534, 69.88140
383.5355, 70.09624
384.0176, 70.43761
384.4998, 70.49757
384.9819, 69.96220
385.4640, 69.65508
385.9461, 69.81688
386.4282, 70.07581
386.9103, 70.08115
387.3925, 69.80218
387.8746, 69.47888
388.3567, 69.38235
388.8388, 69.56418
389.3209, 69.59696
389.8030, 69.36983
390.2852, 69.13290
390.7673, 68.97153
391.2494, 68.87395
391.7315, 68.81912
392.2136, 68.80337
392.6957, 68.78658
393.1779, 68.59885
393.6600, 67.91854
394.1421, 67.53555
394.6242, 67.78637
395.1063, 68.19051
395.5884, 68.30339
396.0706, 68.02172
396.5527, 67.56955
397.0348, 67.22645
397.5169, 67.01237
397.9990, 66.83440
398.4811, 66.75213
398.9633, 66.65318
399.4454, 66.42557
399.9275, 66.13863
400.4096, 65.97685
400.8917, 66.11288
401.3738, 66.44992
401.8560, 66.54301
402.3381, 66.21485
402.8202, 65.98074
403.3023, 66.08327
403.7844, 66.30534
404.2665, 66.43223
404.7487, 66.40034
405.2308, 66.27732
405.7129, 66.14134
406.1950, 65.99332
406.6771, 65.80257
407.1592, 65.53686
407.6414, 65.25381
408.1235, 64.92934
408.6056, 64.59765
409.0877, 64.42770
409.5698, 64.67785
410.0519, 65.13535
410.5341, 65.25454
411.0162, 64.93998
411.4983, 64.60603
411.9804, 64.57670
412.4625, 64.67494
412.9446, 64.58770
413.4268, 64.15807
413.9089, 63.71544
414.3910, 63.54472
414.8731, 63.59892
415.3553, 63.65673
415.8374, 63.65450
416.3195, 63.61558
416.8016, 63.55934
417.2837, 63.48114
417.7658, 63.43938
418.2480, 63.51971
418.7301, 63.60764
419.2122, 63.56146
419.6943, 63.36936
420.1764, 63.11752
420.6585, 62.85260
421.1407, 62.58343
421.6228, 62.39603
422.1049, 62.30832
422.5870, 62.27021
423.0691, 62.34746
423.5512, 62.44688
424.0334, 62.36515
424.5155, 62.01366
424.9976, 61.55721
425.4797, 61.30778
425.9618, 61.39125
426.4439, 61.44793
426.9261, 61.47631
427.4082, 61.48143
427.8903, 61.45983
428.3724, 61.41672
428.8545, 61.37272
429.3366, 61.35128
429.8188, 61.34816
430.3009, 61.26801
430.7830, 61.00468
431.2651, 60.77871
431.7472, 60.60344
432.2293, 60.49290
432.7115, 60.48934
433.1936, 60.60387
433.6757, 60.75158
434.1578, 60.77887
434.6399, 60.63598
435.1220, 60.54678
435.6042, 60.48946
436.0863, 60.52383
436.5684, 60.77546
437.0505, 61.16491
437.5326, 61.45208
438.0147, 61.45552
438.4969, 61.23441
438.9790, 60.97028
439.4611, 60.61029
439.9432, 60.34294
440.4253, 60.33755
440.9074, 60.42258
441.3896, 60.38692
441.8717, 60.15405
442.3538, 59.98954
442.8359, 60.19568
443.3180, 60.70897
443.8001, 61.13993
444.2823, 61.40934
444.7644, 61.59312
445.2465, 61.76654
445.7286, 61.92478
446.2107, 62.01669
446.6928, 61.98671
447.1750, 61.91246
447.6571, 61.80135
448.1392, 61.67868
448.6213, 61.76951
449.1034, 62.26415
449.5855, 62.98835
450.0677, 63.43903
450.5498, 63.49271
451.0319, 63.58927
451.5140, 63.89068
451.9961, 64.27071
452.4782, 64.55387
452.9604, 64.71444
453.4425, 64.88872
453.9246, 65.24245
454.4067, 65.81422
454.8888, 66.14078
455.3709, 65.99973
455.8531, 65.89938
456.3352, 66.06004
456.8173, 66.37906
457.2994, 66.66641
457.7815, 66.83319
458.2636, 66.94405
458.7458, 67.14419
459.2279, 67.50993
459.7100, 67.80584
460.1921, 67.97839
460.6742, 68.12884
461.1563, 68.33806
461.6385, 68.58678
462.1206, 68.78301
462.6027, 68.84626
463.0848, 68.80019
463.5669, 68.78324
464.0491, 68.86255
464.5312, 68.82864
465.0133, 68.44547
465.4954, 68.00471
465.9775, 67.86192
466.4597, 68.11990
466.9418, 68.36555
467.4239, 68.15668
467.9060, 67.56205
468.3881, 67.05029
468.8702, 66.71351
469.3524, 66.41842
469.8345, 66.07689
470.3166, 65.69141
470.7987, 65.25916
471.2808, 64.79745
471.7629, 64.27573
472.2451, 63.55087
472.7272, 62.69786
473.2093, 62.12608
473.6914, 62.05572
474.1735, 62.26665
474.6556, 62.34649
475.1378, 62.26990
475.6199, 62.17560
476.1020, 62.02004
476.5841, 61.89799
477.0662, 61.94212
477.5483, 62.12864
478.0305, 62.27954
478.5126, 62.25689
478.9947, 62.07722
479.4768, 61.89001
479.9589, 61.57692
480.4410, 61.40041
480.9232, 61.44599
481.4053, 61.61739
481.8874, 61.85757
482.3695, 62.13419
482.8516, 62.37140
483.3337, 62.46848
483.8159, 62.40955
484.2980, 62.34781
484.7801, 62.33443
485.2622, 62.25551
485.7443, 62.03336
486.2264, 61.73153
486.7086, 61.42945
487.1907, 61.13934
487.6728, 60.93764
488.1549, 60.99569
488.6370, 61.33631
489.1191, 61.55000
489.6013, 61.44212
490.0834, 61.29832
490.5655, 61.46322
491.0476, 61.87138
491.5297, 62.06502
492.0118, 61.64762
492.4940, 61.03642
492.9761, 60.77354
493.4582, 60.85744
493.9403, 61.02327
494.4224, 61.16895
494.9045, 61.28154
495.3867, 61.33254
495.8688, 61.35395
496.3509, 61.25816
496.8330, 60.89606
497.3151, 60.47929
497.7972, 60.23719
498.2794, 60.19080
498.7615, 60.22326
499.2436, 60.23360
499.7257, 60.22751
500.2078, 60.31743
500.6899, 60.67026
501.1721, 60.91624
501.6542, 60.95259
502.1363, 60.87400
502.6184, 60.77563
503.1005, 60.68636
503.5826, 60.58982
504.0648, 60.46649
504.5469, 60.31548
505.0290, 60.14390
505.5111, 59.87263
505.9932, 59.68441
506.4753, 59.71086
506.9575, 59.84575
507.4396, 59.91200
507.9217, 59.82936
508.4038, 59.71117
508.8859, 59.73717
509.3680, 59.89301
509.8502, 59.90425
510.3323, 59.64598
510.8144, 59.33057
511.2965, 59.13672
511.7786, 59.05660
512.2607, 59.08537
512.7429, 59.42705
513.2250, 59.71453
513.7071, 59.52538
514.1892, 58.97148
514.6713, 58.54826
515.1534, 58.48380
515.6356, 58.63834
516.1177, 58.75119
516.5998, 58.86546
517.0819, 58.82808
517.5640, 58.43727
518.0461, 58.05618
518.5283, 58.00654
519.0104, 58.20600
519.4925, 58.31193
519.9746, 58.07956
520.4567, 57.63755
520.9388, 57.49804
521.4210, 57.97219
521.9031, 58.15993
522.3852, 57.65956
522.8673, 57.09833
523.3494, 56.98922
523.8315, 57.30442
524.3137, 57.59801
524.7958, 57.49035
525.2779, 57.09625
525.7600, 56.82355
526.2421, 56.70210
526.7242, 56.59133
527.2064, 56.43826
527.6885, 56.25773
528.1706, 56.07301
528.6527, 55.89162
529.1348, 55.67601
529.6169, 55.32086
530.0991, 54.94897
530.5812, 54.82558
531.0633, 54.97723
531.5454, 55.06691
532.0275, 54.81258
532.5096, 54.28222
532.9918, 53.95605
533.4739, 54.06663
533.9560, 54.05188
534.4381, 53.64895
534.9202, 53.14256
535.4023, 52.85107
535.8845, 52.82658
536.3666, 52.90477
536.8487, 52.93058
537.3308, 52.90413
537.8129, 52.85455
538.2951, 52.84842
538.7772, 52.72161
539.2593, 52.34731
539.7415, 51.88769
540.2236, 51.48333
540.7057, 51.17633
541.1878, 50.99828
541.6699, 51.08529
542.1520, 51.37512
542.6342, 51.39012
543.1163, 50.98857
543.5984, 50.57810
544.0805, 50.43961
544.5626, 50.47220
545.0447, 50.50990
545.5269, 50.57820
546.0090, 50.55952
546.4911, 50.29464
546.9732, 49.91471
547.4553, 49.70388
547.9374, 49.72266
548.4196, 49.76241
548.9017, 49.59951
549.3838, 49.22540
549.8659, 49.04740
550.3480, 49.31290
550.8301, 49.44357
551.3123, 49.15046
551.7944, 48.69289
552.2765, 48.40041
552.7586, 48.35601
553.2407, 48.39672
553.7228, 48.31916
554.2050, 48.11218
554.6871, 47.99331
555.1692, 48.00043
555.6513, 48.04697
556.1334, 48.13468
556.6155, 48.22519
557.0977, 48.28804
557.5798, 48.32388
558.0619, 48.26329
558.5440, 47.96372
559.0261, 47.50551
559.5082, 47.18718
559.9904, 47.06079
560.4725, 47.02972
560.9546, 47.05962
561.4367, 47.12939
561.9188, 47.13529
562.4009, 47.01207
562.8831, 46.90586
563.3652, 46.92112
563.8473, 46.96514
564.3294, 46.88268
564.8115, 46.65308
565.2936, 46.41083
565.7758, 46.28622
566.2579, 46.27914
566.7400, 46.33225
567.2221, 46.67539
567.7042, 46.79173
568.1863, 46.40017
568.6685, 45.85014
569.1506, 45.49282
569.6327, 45.40417
570.1148, 45.42249
570.5969, 45.41454
571.0790, 45.38310
571.5612, 45.34110
572.0433, 45.27871
572.5254, 45.23659
573.0075, 45.29733
573.4896, 45.36225
573.9717, 45.26106
574.4539, 44.92631
574.9360, 44.62369
575.4181, 44.51979
575.9002, 44.50413
576.3823, 44.42150
576.8644, 44.25695
577.3466, 44.07581
577.8287, 43.91805
578.3108, 43.78632
578.7929, 43.69378
579.2750, 43.64599
579.7571, 43.63294
580.2393, 43.72226
580.7214, 43.79612
581.2035, 43.72433
581.6856, 43.53272
582.1677, 43.38326
582.6498, 43.42617
583.1320, 43.57430
583.6141, 43.49438
584.0962, 43.09750
584.5783, 42.77674
585.0604, 42.68794
585.5425, 42.68120
586.0247, 42.63015
