##NAMES=Perovskite
##RRUFFID=R110178
##IDEAL CHEMISTRY=CaTi^4+^O_3_
##LOCALITY=St Lawrence Columbium mine, Oka, Laurentides, Quebec, Canada
##OWNER=RRUFF
##SOURCE=Donald Doell
##DESCRIPTION=Black lustrous cubes
##STATUS=The identification of this mineral is confirmed by single-crystal X-ray diffraction and chemical analysis.
##URL=rruff.info/R110178
##MEASURED CHEMISTRY=(Ca_0.78_Na_0.21_Mg_0.03_Ce_0.01_La_0.01_)_∑=1.05_(Ti_0.42_Nb_0.39_Fe_0.12_Ta_0.03_Zr_0.01_)_∑=0.98_O_3_
203.3075, 269.0204
203.7896, 269.9457
204.2717, 271.2112
204.7538, 272.3870
205.2360, 273.6074
205.7181, 274.2423
206.2002, 273.5384
206.6823, 271.1236
207.1644, 269.8504
207.6465, 270.2625
208.1287, 271.7726
208.6108, 272.6528
209.0929, 272.7734
209.5750, 272.6220
210.0571, 272.3754
210.5392, 271.9115
211.0214, 271.9966
211.5035, 273.0144
211.9856, 274.5275
212.4677, 274.8896
212.9498, 273.6532
213.4319, 272.2892
213.9140, 271.6981
214.3962, 272.0651
214.8783, 272.5822
215.3604, 273.2714
215.8425, 274.0516
216.3246, 274.4994
216.8067, 274.4038
217.2889, 274.3843
217.7710, 274.8680
218.2531, 276.0562
218.7352, 277.1826
219.2173, 278.3511
219.6994, 279.4153
220.1816, 279.5013
220.6637, 277.9671
221.1458, 276.5501
221.6279, 276.5121
222.1100, 278.6237
222.5921, 280.0396
223.0743, 280.3473
223.5564, 279.7832
224.0385, 279.4501
224.5206, 279.4331
225.0027, 279.5328
225.4848, 279.6038
225.9670, 279.5201
226.4491, 279.7553
226.9312, 280.5266
227.4133, 281.6662
227.8954, 282.3715
228.3775, 282.4759
228.8597, 282.3765
229.3418, 282.2647
229.8239, 282.0222
230.3060, 282.0451
230.7881, 282.4444
231.2702, 283.1361
231.7524, 283.7049
232.2345, 284.0181
232.7166, 284.3705
233.1987, 284.9265
233.6808, 285.7259
234.1629, 286.6440
234.6451, 287.8432
235.1272, 289.1669
235.6093, 289.9682
236.0914, 290.2003
236.5735, 289.9788
237.0556, 289.2904
237.5378, 287.7842
238.0199, 286.6081
238.5020, 285.9861
238.9841, 285.7476
239.4662, 285.2104
239.9483, 284.2649
240.4305, 283.1884
240.9126, 282.0849
241.3947, 280.8309
241.8768, 279.8663
242.3589, 279.4312
242.8410, 279.2934
243.3232, 278.5423
243.8053, 276.7245
244.2874, 274.9160
244.7695, 273.6674
245.2516, 273.1145
245.7337, 272.7992
246.2159, 272.8401
246.6980, 273.0833
247.1801, 273.0250
247.6622, 272.4914
248.1443, 271.9081
248.6264, 271.5283
249.1086, 271.6074
249.5907, 271.2216
250.0728, 270.0388
250.5549, 268.4744
251.0370, 267.6934
251.5191, 268.1248
252.0013, 268.6680
252.4834, 268.8104
252.9655, 268.2996
253.4476, 268.0696
253.9297, 268.2222
254.4118, 268.6144
254.8940, 268.9185
255.3761, 269.0552
255.8582, 269.2456
256.3403, 269.6575
256.8224, 270.5091
257.3046, 270.7618
257.7867, 270.0019
258.2688, 268.8951
258.7509, 268.8531
259.2330, 270.4046
259.7151, 271.9258
260.1973, 272.7162
260.6794, 272.5027
261.1615, 272.7592
261.6436, 273.7139
262.1257, 274.9401
262.6078, 275.7339
263.0900, 276.0399
263.5721, 276.0424
264.0542, 275.7291
264.5363, 275.0252
265.0184, 274.4909
265.5005, 274.0602
265.9827, 273.8715
266.4648, 274.2190
266.9469, 275.3340
267.4290, 276.3094
267.9111, 276.8321
268.3932, 276.8649
268.8754, 276.9642
269.3575, 277.1206
269.8396, 277.3448
270.3217, 277.7388
270.8038, 278.4295
271.2859, 278.7645
271.7681, 278.4932
272.2502, 277.6343
272.7323, 276.6523
273.2144, 275.3964
273.6965, 274.3549
274.1786, 274.1909
274.6608, 275.0846
275.1429, 275.9017
275.6250, 276.4629
276.1071, 276.7403
276.5892, 276.3596
277.0714, 275.1206
277.5535, 273.8138
278.0356, 273.1713
278.5177, 273.2303
278.9998, 273.6346
279.4819, 274.6070
279.9641, 275.8130
280.4462, 275.5100
280.9283, 273.3956
281.4104, 271.0600
281.8925, 269.9249
282.3746, 270.0123
282.8568, 269.7597
283.3389, 268.8514
283.8210, 267.5019
284.3031, 266.2332
284.7852, 265.0376
285.2673, 264.0099
285.7495, 263.1761
286.2316, 262.5456
286.7137, 262.2579
287.1958, 262.4428
287.6779, 262.8189
288.1600, 262.8178
288.6422, 262.4358
289.1243, 261.8688
289.6064, 261.1454
290.0885, 260.3067
290.5706, 259.5828
291.0527, 258.9543
291.5349, 258.5270
292.0170, 258.5716
292.4991, 259.0476
292.9812, 259.5519
293.4633, 259.9565
293.9454, 260.2213
294.4276, 260.1629
294.9097, 259.7326
295.3918, 259.1610
295.8739, 258.7502
296.3560, 258.4645
296.8381, 258.1101
297.3203, 257.5392
297.8024, 256.8541
298.2845, 256.2362
298.7666, 255.6849
299.2487, 255.2319
299.7308, 254.9700
300.2130, 254.8357
300.6951, 254.6471
301.1772, 254.1958
301.6593, 253.7145
302.1414, 253.6192
302.6235, 253.9005
303.1057, 254.1583
303.5878, 254.0553
304.0699, 253.6935
304.5520, 253.2563
305.0341, 252.7523
305.5162, 252.2496
305.9984, 251.7725
306.4805, 251.3379
306.9626, 251.0266
307.4447, 250.9432
307.9268, 251.0047
308.4089, 251.1170
308.8911, 251.2977
309.3732, 251.4588
309.8553, 251.5763
310.3374, 251.6284
310.8195, 251.5393
311.3016, 251.2370
311.7838, 250.7893
312.2659, 250.1968
312.7480, 249.3327
313.2301, 248.6350
313.7122, 248.5035
314.1943, 248.7215
314.6765, 248.8378
315.1586, 248.4046
315.6407, 247.9781
316.1228, 248.0135
316.6049, 248.7288
317.0870, 249.2158
317.5692, 248.8132
318.0513, 247.9960
318.5334, 247.4296
319.0155, 247.9292
319.4976, 248.2113
319.9797, 247.4383
320.4619, 245.4300
320.9440, 243.9912
321.4261, 244.1482
321.9082, 244.9194
322.3903, 245.3763
322.8724, 245.0385
323.3546, 244.6467
323.8367, 244.4111
324.3188, 244.3267
324.8009, 244.1428
325.2830, 243.5568
325.7651, 243.0257
326.2473, 242.8488
326.7294, 243.8141
327.2115, 244.2675
327.6936, 243.7754
328.1757, 242.5544
328.6578, 241.6495
329.1400, 241.1544
329.6221, 240.9176
330.1042, 240.8899
330.5863, 241.2551
331.0684, 241.5408
331.5505, 241.8827
332.0327, 242.1152
332.5148, 241.8160
332.9969, 240.4354
333.4790, 239.2427
333.9611, 238.7122
334.4432, 239.0600
334.9254, 239.1752
335.4075, 239.0160
335.8896, 238.6462
336.3717, 238.0692
336.8538, 237.0524
337.3359, 236.4142
337.8180, 236.5286
338.3001, 237.3780
338.7823, 237.8095
339.2644, 237.7803
339.7465, 237.4244
340.2286, 236.8062
340.7107, 235.8905
341.1928, 234.9614
341.6750, 234.0210
342.1571, 233.1387
342.6392, 232.7512
343.1213, 232.9600
343.6034, 233.1191
344.0855, 232.7608
344.5677, 231.9026
345.0498, 230.7980
345.5319, 229.3675
346.0140, 227.8966
346.4961, 227.0216
346.9782, 226.7230
347.4604, 226.4371
347.9425, 225.7191
348.4246, 224.7360
348.9067, 224.1622
349.3888, 224.0770
349.8709, 224.1811
350.3531, 224.0547
350.8352, 223.7908
351.3173, 223.7350
351.7994, 224.5954
352.2815, 225.5665
352.7636, 224.9985
353.2458, 222.8910
353.7279, 220.7594
354.2100, 220.0761
354.6921, 220.2116
355.1742, 220.0691
355.6563, 219.1229
356.1385, 217.9535
356.6206, 217.0511
357.1027, 216.3875
357.5848, 215.8466
358.0669, 215.5523
358.5490, 215.2447
359.0312, 214.6384
359.5133, 213.5347
359.9954, 212.4448
360.4775, 211.6262
360.9596, 211.0348
361.4417, 210.5871
361.9239, 210.2852
362.4060, 210.0859
362.8881, 210.0935
363.3702, 210.4381
363.8523, 210.3430
364.3344, 209.2207
364.8166, 207.6435
365.2987, 206.2526
365.7808, 204.9145
366.2629, 204.0984
366.7450, 204.3298
367.2271, 205.5930
367.7093, 206.0768
368.1914, 204.9101
368.6735, 203.3132
369.1556, 202.0661
369.6377, 201.3740
370.1198, 200.8513
370.6020, 200.6438
371.0841, 200.6162
371.5662, 200.2596
372.0483, 199.2830
372.5304, 198.3350
373.0125, 197.7583
373.4947, 197.8887
373.9768, 197.3615
374.4589, 195.7655
374.9410, 193.8349
375.4231, 192.8602
375.9052, 193.2165
376.3874, 193.4612
376.8695, 193.1192
377.3516, 192.2056
377.8337, 191.4657
378.3158, 190.9092
378.7979, 190.4809
379.2801, 190.2049
379.7622, 190.0951
380.2443, 189.7974
380.7264, 189.1709
381.2085, 188.3688
381.6906, 187.8484
382.1728, 187.6167
382.6549, 187.3238
383.1370, 186.6602
383.6191, 185.7173
384.1012, 184.8332
384.5833, 183.9794
385.0655, 183.3571
385.5476, 183.5260
386.0297, 184.2369
386.5118, 184.5791
386.9939, 183.6366
387.4760, 182.2596
387.9582, 181.8750
388.4403, 182.5188
388.9224, 183.0502
389.4045, 182.2654
389.8866, 180.8634
390.3687, 179.8392
390.8509, 179.8394
391.3330, 179.9922
391.8151, 179.6651
392.2972, 178.9571
392.7793, 178.2639
393.2614, 177.7653
393.7436, 177.3680
394.2257, 177.0032
394.7078, 176.6777
395.1899, 176.3424
395.6720, 176.0872
396.1541, 175.7902
396.6363, 175.2569
397.1184, 174.1762
397.6005, 173.0950
398.0826, 172.1189
398.5647, 171.2260
399.0468, 170.6933
399.5290, 171.2769
400.0111, 171.8220
400.4932, 171.3781
400.9753, 168.6035
401.4574, 166.6391
401.9395, 165.9296
402.4217, 166.2800
402.9038, 166.8934
403.3859, 168.2205
403.8680, 169.1507
404.3501, 168.9966
404.8322, 167.2903
405.3144, 166.1554
405.7965, 165.7125
406.2786, 165.7108
406.7607, 165.9039
407.2428, 166.4006
407.7249, 166.4540
408.2071, 165.5205
408.6892, 163.8671
409.1713, 163.4889
409.6534, 164.6020
410.1355, 165.7205
410.6176, 165.2518
411.0998, 163.4758
411.5819, 161.9942
412.0640, 161.0646
412.5461, 160.6523
413.0282, 161.0926
413.5103, 162.1865
413.9925, 162.7793
414.4746, 161.7415
414.9567, 159.9251
415.4388, 158.6501
415.9209, 158.0331
416.4030, 157.7306
416.8852, 157.6670
417.3673, 157.6829
417.8494, 157.5195
418.3315, 156.8503
418.8136, 156.1590
419.2957, 155.7036
419.7779, 155.4856
420.2600, 155.4626
420.7421, 155.9753
421.2242, 156.4630
421.7063, 156.4945
422.1884, 155.8285
422.6706, 155.0308
423.1527, 153.8635
423.6348, 152.6949
424.1169, 152.2054
424.5990, 153.3784
425.0811, 154.3884
425.5633, 154.5655
426.0454, 153.7413
426.5275, 153.2415
427.0096, 153.2065
427.4917, 153.3755
427.9738, 153.5487
428.4560, 153.7514
428.9381, 153.9103
429.4202, 154.0771
429.9023, 154.1793
430.3844, 153.8998
430.8665, 153.0889
431.3487, 152.3268
431.8308, 151.8825
432.3129, 151.7614
432.7950, 151.9088
433.2771, 152.3919
433.7592, 152.9676
434.2414, 153.3823
434.7235, 153.6345
435.2056, 153.6632
435.6877, 153.2959
436.1698, 152.8029
436.6519, 152.8057
437.1341, 153.2867
437.6162, 153.8708
438.0983, 154.3139
438.5804, 154.6707
439.0625, 155.0167
439.5446, 155.3441
440.0268, 155.7329
440.5089, 156.3661
440.9910, 157.1123
441.4731, 157.6928
441.9552, 157.4950
442.4373, 157.4795
442.9195, 158.5320
443.4016, 160.6346
443.8837, 162.3623
444.3658, 163.0955
444.8479, 163.2326
445.3300, 163.0429
445.8122, 161.6559
446.2943, 161.1534
446.7764, 162.4476
447.2585, 164.8922
447.7406, 166.8337
448.2227, 167.6274
448.7049, 168.4426
449.1870, 169.7566
449.6691, 171.7599
450.1512, 173.0121
450.6333, 173.1092
451.1154, 172.8854
451.5976, 173.1569
452.0797, 174.1005
452.5618, 174.9498
453.0439, 175.5822
453.5260, 176.0494
454.0081, 176.5493
454.4903, 177.0958
454.9724, 177.6016
455.4545, 178.0800
455.9366, 178.5009
456.4187, 178.6450
456.9008, 178.4773
457.3830, 178.1703
457.8651, 178.0774
458.3472, 178.0382
458.8293, 177.4902
459.3114, 175.8679
459.7935, 174.0334
460.2757, 173.1447
460.7578, 173.0522
461.2399, 172.9795
461.7220, 172.6919
462.2041, 172.0621
462.6862, 170.7627
463.1684, 168.5116
463.6505, 166.6944
464.1326, 166.4661
464.6147, 166.9791
465.0968, 167.1340
465.5789, 166.1099
466.0611, 165.1911
466.5432, 164.7981
467.0253, 164.9022
467.5074, 165.0260
467.9895, 165.4061
468.4716, 165.5592
468.9538, 165.1679
469.4359, 163.6297
469.9180, 162.9081
470.4001, 163.3586
470.8822, 164.3714
471.3643, 165.0488
471.8465, 165.3116
472.3286, 165.4633
472.8107, 165.5932
473.2928, 165.6753
473.7749, 165.4495
474.2570, 164.8210
474.7392, 164.3867
475.2213, 164.8797
475.7034, 166.0979
476.1855, 166.5468
476.6676, 165.9308
477.1497, 165.0083
477.6319, 164.7706
478.1140, 165.0780
478.5961, 165.4858
479.0782, 166.1916
479.5603, 166.6577
480.0424, 165.9353
480.5246, 164.1812
481.0067, 162.6988
481.4888, 162.5106
481.9709, 162.8408
482.4530, 163.0033
482.9352, 162.7815
483.4173, 162.5931
483.8994, 162.7838
484.3815, 163.0695
484.8636, 163.0169
485.3457, 161.8911
485.8279, 161.0701
486.3100, 161.1876
486.7921, 162.2469
487.2742, 162.6007
487.7563, 161.5818
488.2384, 160.5430
488.7206, 160.2769
489.2027, 161.1209
489.6848, 161.8549
490.1669, 162.5119
490.6490, 163.0078
491.1311, 163.1751
491.6133, 162.9734
492.0954, 162.6888
492.5775, 162.2646
493.0596, 161.8616
493.5417, 162.3163
494.0238, 163.6418
494.5060, 164.7523
494.9881, 164.6246
495.4702, 163.6680
495.9523, 162.7676
496.4344, 161.9462
496.9165, 161.6292
497.3987, 162.7163
497.8808, 164.5706
498.3629, 165.9709
498.8450, 166.0005
499.3271, 165.7625
499.8092, 165.9064
500.2914, 166.3968
500.7735, 166.9886
501.2556, 167.9805
501.7377, 168.7692
502.2198, 168.8919
502.7019, 167.8750
503.1841, 167.3132
503.6662, 167.4882
504.1483, 168.1931
504.6304, 169.2396
505.1125, 171.1973
505.5946, 172.5320
506.0768, 172.7956
506.5589, 172.2333
507.0410, 172.1029
507.5231, 172.5059
508.0052, 173.0474
508.4873, 173.5220
508.9695, 173.9212
509.4516, 174.4850
509.9337, 175.2601
510.4158, 176.0024
510.8979, 176.2735
511.3800, 176.2190
511.8622, 176.5429
512.3443, 177.6604
512.8264, 178.9051
513.3085, 179.2681
513.7906, 178.9664
514.2728, 178.7771
514.7549, 179.2238
515.2370, 179.9181
515.7191, 180.5544
516.2012, 181.1107
516.6833, 181.6413
517.1655, 182.2397
517.6476, 182.7963
518.1297, 183.2161
518.6118, 183.4176
519.0939, 183.5615
519.5760, 183.6296
520.0582, 183.6579
520.5403, 183.7405
521.0224, 183.9792
521.5045, 184.1164
521.9866, 183.9744
522.4688, 183.5537
522.9509, 183.6427
523.4330, 184.3712
523.9151, 185.2995
524.3972, 186.0655
524.8793, 186.6578
525.3615, 187.5608
525.8436, 188.9696
526.3257, 190.2917
526.8078, 190.3724
527.2899, 189.4754
527.7720, 188.8685
528.2542, 189.3437
528.7363, 190.1516
529.2184, 190.2420
529.7005, 189.7213
530.1826, 189.1750
530.6647, 188.7296
531.1469, 188.5598
531.6290, 188.9444
532.1111, 190.0747
532.5932, 190.9986
533.0753, 191.2560
533.5574, 191.1612
534.0396, 191.0366
534.5217, 191.0810
535.0038, 190.9322
535.4859, 190.2047
535.9680, 189.2274
536.4501, 189.1597
536.9323, 190.8645
537.4144, 191.9915
537.8965, 191.3588
538.3786, 188.9013
538.8607, 187.7666
539.3428, 188.2423
539.8250, 189.1749
540.3071, 189.5063
540.7892, 189.2981
541.2713, 189.2000
541.7534, 189.3384
542.2355, 189.5294
542.7177, 189.4829
543.1998, 189.2677
543.6819, 189.1038
544.1640, 189.0983
544.6461, 189.1884
545.1282, 189.4050
545.6104, 189.7078
546.0925, 189.8555
546.5746, 189.6440
547.0567, 189.2926
547.5388, 188.8765
548.0209, 188.2934
548.5031, 188.0473
548.9852, 188.8179
549.4673, 189.7003
549.9494, 189.7033
550.4315, 187.8952
550.9136, 186.6642
551.3958, 186.5028
551.8779, 187.0105
552.3600, 186.9595
552.8421, 186.1906
553.3242, 185.4175
553.8063, 184.9452
554.2885, 184.7361
554.7706, 184.4842
555.2527, 184.1824
555.7348, 183.9177
556.2169, 183.9161
556.6990, 184.0075
557.1812, 183.7162
557.6633, 182.9197
558.1454, 181.9269
558.6275, 180.8218
559.1096, 179.7645
559.5917, 179.0122
560.0739, 179.0464
560.5560, 179.0672
561.0381, 178.6124
561.5202, 177.7850
562.0023, 177.0364
562.4844, 176.4497
562.9666, 175.9886
563.4487, 175.7263
563.9308, 175.7757
564.4129, 175.4305
564.8950, 174.4312
565.3771, 173.3174
565.8593, 172.5476
566.3414, 172.2147
566.8235, 171.8125
567.3056, 171.2739
567.7877, 170.6637
568.2698, 170.0694
568.7520, 169.4907
569.2341, 168.9963
569.7162, 168.6256
570.1983, 168.3450
570.6804, 168.1393
571.1625, 167.9906
571.6447, 167.7575
572.1268, 167.2456
572.6089, 166.6661
573.0910, 166.2583
573.5731, 166.0720
574.0552, 165.8503
574.5374, 165.5722
575.0195, 165.1510
575.5016, 164.5048
575.9837, 163.1006
576.4658, 162.1124
576.9479, 161.9050
577.4301, 162.1059
577.9122, 161.9837
578.3943, 161.3953
578.8764, 160.7570
579.3585, 160.2109
579.8406, 159.7144
580.3228, 158.8872
580.8049, 157.6585
581.2870, 156.5601
581.7691, 155.9999
582.2512, 155.8752
582.7333, 155.9033
583.2155, 156.1222
583.6975, 155.9736
584.1796, 154.5214
584.6617, 152.4403
585.1439, 150.8433
585.6260, 150.1384
586.1081, 149.8013
586.5902, 149.8013
587.0723, 149.9124
587.5544, 149.7014
588.0366, 148.6644
588.5187, 147.6642
589.0008, 146.9515
589.4829, 146.5282
589.9650, 146.2476
590.4471, 146.2224
590.9293, 146.1850
591.4114, 146.0036
591.8935, 145.6551
592.3756, 145.3056
592.8577, 144.9538
593.3398, 144.6001
593.8220, 144.2397
594.3041, 143.8743
594.7862, 143.5361
595.2683, 143.2658
595.7504, 142.9348
596.2325, 142.3030
596.7147, 141.4666
597.1968, 140.6849
597.6789, 140.0565
598.1610, 139.5319
598.6431, 139.2178
599.1252, 139.0263
599.6074, 138.5531
600.0895, 137.0357
600.5716, 135.7230
601.0537, 135.3775
601.5358, 136.3685
602.0179, 136.8103
602.5001, 136.4583
602.9822, 135.7739
603.4643, 135.0890
603.9464, 134.4270
604.4285, 133.6083
604.9106, 132.5217
605.3928, 131.4455
605.8749, 130.8246
606.3570, 130.6301
606.8391, 130.5173
607.3212, 130.3902
607.8033, 130.2758
608.2855, 130.2775
608.7676, 130.3432
609.2497, 130.2829
609.7318, 129.9184
610.2139, 129.4378
610.6960, 129.0189
611.1782, 128.6623
611.6603, 128.1662
612.1424, 127.2223
612.6245, 126.2838
613.1066, 125.6394
613.5887, 125.4132
614.0709, 125.2509
614.5530, 125.2522
615.0351, 125.2292
615.5172, 124.9478
615.9993, 124.3272
616.4814, 123.7980
616.9636, 123.4060
617.4457, 123.1573
617.9278, 123.1749
618.4099, 123.4169
618.8920, 123.4613
619.3741, 123.0191
619.8563, 122.3607
620.3384, 121.8353
620.8205, 121.4387
621.3026, 121.1546
621.7847, 121.2130
622.2668, 121.2056
622.7490, 120.7025
623.2311, 119.6002
623.7132, 118.8042
624.1953, 118.7079
624.6774, 118.9017
625.1595, 119.1362
625.6417, 119.7120
626.1238, 119.6790
626.6059, 118.7214
627.0880, 117.5074
627.5701, 117.0230
628.0522, 117.3695
628.5344, 117.4641
629.0165, 117.0467
629.4986, 116.3061
629.9807, 115.4024
630.4628, 114.4200
630.9449, 113.8351
631.4271, 114.1828
631.9092, 114.8421
632.3913, 115.0877
632.8734, 114.9919
633.3555, 115.0348
633.8376, 115.8736
634.3198, 116.5966
634.8019, 116.5182
635.2840, 115.3468
635.7661, 114.5764
636.2482, 114.7296
636.7303, 115.0179
637.2125, 114.9164
637.6946, 114.3358
638.1767, 113.5507
638.6588, 112.4191
639.1409, 111.3538
639.6230, 111.2110
640.1052, 111.9010
640.5873, 111.9701
641.0694, 110.8195
641.5515, 109.2785
642.0336, 108.3784
642.5157, 108.1078
642.9979, 108.4300
643.4800, 110.2056
643.9621, 111.8382
644.4442, 111.9050
644.9263, 110.6744
645.4084, 109.7942
645.8906, 110.4005
646.3727, 110.9494
646.8548, 110.6150
647.3369, 109.2558
647.8190, 108.1252
648.3011, 107.2448
648.7833, 106.5756
649.2654, 106.0974
649.7475, 105.8042
650.2296, 105.7824
650.7117, 106.0924
651.1938, 106.4536
651.6760, 106.5397
652.1581, 106.3910
652.6402, 106.0981
653.1223, 105.5977
653.6044, 105.1438
654.0865, 104.9743
654.5687, 105.0077
655.0508, 105.0844
655.5329, 104.9922
656.0150, 105.0902
656.4971, 105.8375
656.9792, 106.9983
657.4614, 107.3413
657.9435, 106.3764
658.4256, 105.2166
658.9077, 104.1061
659.3898, 103.0594
659.8719, 102.4743
660.3541, 102.3895
660.8362, 102.5823
661.3183, 103.0963
661.8004, 103.7826
662.2825, 104.0607
662.7646, 103.8901
663.2468, 103.4716
663.7289, 102.6368
664.2110, 101.7965
664.6931, 101.5786
665.1752, 102.4126
665.6573, 103.0978
666.1395, 102.9513
666.6216, 102.4283
667.1037, 102.0882
667.5858, 102.1762
668.0679, 102.2455
668.5500, 102.2662
669.0322, 102.2473
669.5143, 102.2183
669.9964, 102.1923
670.4785, 102.0822
670.9606, 101.8276
671.4427, 101.4926
671.9249, 101.2898
672.4070, 101.1977
672.8891, 101.0505
673.3712, 100.6824
673.8533, 100.2478
674.3354, 99.85955
674.8176, 99.53824
675.2997, 99.44984
675.7818, 99.95045
676.2639, 100.5045
676.7460, 100.7952
677.2281, 100.7527
677.7103, 100.5258
678.1924, 99.79573
678.6745, 99.21825
679.1566, 99.40049
679.6387, 100.6163
680.1208, 101.2434
680.6030, 101.1119
681.0851, 100.6251
681.5672, 100.1708
682.0493, 99.77595
682.5314, 99.57047
683.0135, 99.65632
683.4957, 99.77654
683.9778, 99.67593
684.4599, 99.41238
684.9420, 99.10100
685.4241, 98.61947
685.9063, 98.26824
686.3884, 98.22723
686.8705, 98.41544
687.3526, 98.55256
687.8347, 98.70673
688.3168, 98.68187
688.7990, 98.34049
689.2811, 97.75893
689.7632, 97.44355
690.2453, 97.39346
690.7274, 97.61516
691.2095, 98.43428
691.6917, 99.50442
692.1738, 99.65324
692.6559, 98.90088
693.1380, 98.07066
693.6201, 97.66441
694.1022, 97.53199
694.5844, 97.59919
695.0665, 97.90213
695.5486, 98.06675
696.0307, 97.66797
696.5128, 97.27096
696.9949, 97.35803
697.4771, 98.37186
697.9592, 98.91970
