##NAMES=Perovskite
##RRUFFID=R050456
##IDEAL CHEMISTRY=CaTi^4+^O_3_
##LOCALITY=Magnet Cove, Arkansas, USA
##OWNER=RRUFF
##SOURCE=University of Arizona Mineral Museum
##DESCRIPTION=Groups of black cubo-octahedral crystals
##STATUS=The identification of this mineral has been confirmed by X-ray diffraction and chemical analysis
##URL=rruff.info/R050456
##MEASURED CHEMISTRY=darker phase: (Ca_0.82_Fe^2+^_0.09_Na_0.07_Ce_0.01_La_0.01_)_Σ=1_(Ti_0.95_Nb^5+^_0.05_)_Σ=1_O_3_ ; gray phase: (Ca_0.89_Fe^2+^_0.05_Na_0.04_Ce_0.01_La_0.01_)_Σ=1_(Ti_0.98_Nb^5+^_0.02_)_Σ=1_O_3_
91.00781, 6.656617
91.48993, 6.102199
91.97205, 5.880714
92.45416, 5.841470
92.93628, 6.137059
93.41840, 7.316685
93.90051, 9.854141
94.38263, 12.63037
94.86475, 13.76168
95.34686, 13.25866
95.82898, 12.14273
96.31110, 10.92493
96.79321, 9.648563
97.27533, 8.869955
97.75745, 8.828070
98.23956, 9.370148
98.72168, 9.866654
99.20380, 10.27267
99.68591, 10.75755
100.1680, 11.51877
100.6501, 12.58034
101.1323, 13.77224
101.6144, 15.06670
102.0965, 16.47443
102.5786, 17.82030
103.0607, 19.01750
103.5428, 20.23874
104.0250, 21.79361
104.5071, 23.69222
104.9892, 25.88731
105.4713, 28.37964
105.9534, 31.31864
106.4355, 34.22337
106.9177, 37.17824
107.3998, 40.10225
107.8819, 42.83669
108.3640, 45.13798
108.8461, 47.41341
109.3282, 49.88441
109.8104, 52.66656
110.2925, 55.45382
110.7746, 58.17523
111.2567, 60.83964
111.7388, 63.63492
112.2209, 66.64600
112.7031, 69.72630
113.1852, 72.80982
113.6673, 75.50673
114.1494, 78.53505
114.6315, 82.08736
115.1136, 86.20512
115.5958, 90.71026
116.0779, 95.92525
116.5600, 101.3892
117.0421, 106.5630
117.5242, 111.3650
118.0063, 115.8115
118.4885, 119.8348
118.9706, 123.3296
119.4527, 126.9523
119.9348, 131.2059
120.4169, 135.8165
120.8990, 140.3526
121.3812, 144.7466
121.8633, 148.8690
122.3454, 152.5917
122.8275, 155.9871
123.3096, 158.8263
123.7917, 160.5707
124.2739, 161.4692
124.7560, 162.4360
125.2381, 164.1550
125.7202, 166.3238
126.2023, 168.3646
126.6844, 170.0265
127.1666, 171.6939
127.6487, 173.9291
128.1308, 176.7241
128.6129, 179.7416
129.0950, 183.0040
129.5771, 186.3577
130.0593, 189.2132
130.5414, 191.0563
131.0235, 192.3990
131.5056, 194.4019
131.9877, 196.3970
132.4698, 197.8002
132.9520, 199.1369
133.4341, 200.4083
133.9162, 201.4355
134.3983, 201.9397
134.8804, 202.0539
135.3625, 202.9346
135.8447, 204.7659
136.3268, 206.8949
136.8089, 208.3901
137.2910, 209.1568
137.7731, 209.9391
138.2552, 211.2351
138.7374, 213.2080
139.2195, 214.1998
139.7016, 213.9107
140.1837, 212.9517
140.6658, 212.5867
141.1479, 212.9409
141.6301, 213.5473
142.1122, 214.2561
142.5943, 215.2177
143.0764, 215.8283
143.5585, 215.8734
144.0406, 215.5775
144.5228, 215.7761
145.0049, 216.7295
145.4870, 217.8402
145.9691, 218.7773
146.4512, 219.4841
146.9333, 220.1440
147.4155, 220.8438
147.8976, 221.5606
148.3797, 221.9736
148.8618, 221.7412
149.3439, 221.4586
149.8260, 221.5067
150.3082, 222.2221
150.7903, 222.8885
151.2724, 223.3884
151.7545, 223.7092
152.2366, 224.1890
152.7188, 225.0911
153.2009, 226.0261
153.6830, 226.6703
154.1651, 226.9378
154.6472, 226.9643
155.1293, 226.7357
155.6115, 226.2343
156.0936, 225.6473
156.5757, 224.7065
157.0578, 223.7954
157.5399, 223.3486
158.0220, 224.1875
158.5042, 224.8938
158.9863, 224.8053
159.4684, 223.6754
159.9505, 222.7682
160.4326, 222.8096
160.9147, 223.2657
161.3969, 223.3403
161.8790, 222.2143
162.3611, 221.0320
162.8432, 220.4442
163.3253, 220.6844
163.8074, 221.0681
164.2896, 221.3222
164.7717, 221.4945
165.2538, 221.6834
165.7359, 222.1062
166.2180, 222.4561
166.7001, 222.4158
167.1823, 221.6918
167.6644, 221.0999
168.1465, 221.3353
168.6286, 222.1471
169.1107, 222.8332
169.5928, 222.7771
170.0750, 222.4955
170.5571, 222.5612
171.0392, 223.2783
171.5213, 224.0810
172.0034, 224.5376
172.4855, 224.6855
172.9677, 224.6741
173.4498, 224.3616
173.9319, 224.0098
174.4140, 224.0168
174.8961, 224.6541
175.3782, 225.4991
175.8604, 226.2167
176.3425, 226.7947
176.8246, 227.1080
177.3067, 227.0606
177.7888, 226.6857
178.2709, 226.0493
178.7531, 225.1120
179.2352, 223.9614
179.7173, 222.6507
180.1994, 221.1815
180.6815, 219.7407
181.1636, 218.5927
181.6458, 217.6255
182.1279, 216.5302
182.6100, 215.0146
183.0921, 213.3826
183.5742, 212.2688
184.0563, 211.7075
184.5385, 211.3365
185.0206, 210.8657
185.5027, 210.3003
185.9848, 209.6868
186.4669, 208.9489
186.9490, 208.1798
187.4312, 207.7088
187.9133, 207.5846
188.3954, 207.4819
188.8775, 206.9388
189.3596, 206.0118
189.8417, 205.2162
190.3239, 204.8038
190.8060, 204.7030
191.2881, 204.5791
191.7702, 204.4314
192.2523, 204.2764
192.7344, 204.1140
193.2166, 203.9469
193.6987, 203.8413
194.1808, 203.8907
194.6629, 204.0696
195.1450, 204.0388
195.6271, 203.7563
196.1093, 203.3727
196.5914, 203.0844
197.0735, 202.8913
197.5556, 202.7769
198.0377, 202.7492
198.5198, 202.8072
199.0020, 202.8603
199.4841, 202.8822
199.9662, 202.9405
200.4483, 203.1902
200.9304, 203.6683
201.4125, 204.1042
201.8947, 204.3104
202.3768, 204.2498
202.8589, 204.5145
203.3410, 205.3009
203.8231, 206.1621
204.3052, 206.0973
204.7874, 204.8588
205.2695, 203.7461
205.7516, 203.3674
206.2337, 203.8121
206.7158, 204.4130
207.1979, 205.2292
207.6801, 206.1393
208.1622, 206.9048
208.6443, 207.5474
209.1264, 208.0004
209.6085, 208.1656
210.0906, 207.9403
210.5728, 207.8824
211.0549, 207.9700
211.5370, 208.2516
212.0191, 208.9001
212.5012, 210.0806
212.9833, 211.2380
213.4655, 212.0806
213.9476, 212.5217
214.4297, 212.9916
214.9118, 213.4876
215.3939, 214.0235
215.8760, 214.6400
216.3581, 215.3155
216.8403, 216.1045
217.3224, 217.0639
217.8045, 218.3083
218.2866, 219.3908
218.7687, 220.3107
219.2508, 221.0502
219.7330, 221.4874
220.2151, 221.4307
220.6972, 221.4111
221.1793, 221.7142
221.6614, 222.5178
222.1435, 223.1507
222.6257, 223.5562
223.1078, 223.7970
223.5899, 224.0695
224.0720, 224.4370
224.5541, 224.7391
225.0362, 224.9162
225.5184, 224.9783
226.0005, 224.8750
226.4826, 224.4751
226.9647, 223.9500
227.4468, 223.7532
227.9289, 223.8989
228.4111, 224.3657
228.8932, 225.2409
229.3753, 226.9192
229.8574, 228.0514
230.3395, 228.4079
230.8216, 228.2508
231.3038, 228.2774
231.7859, 228.4655
232.2680, 228.8686
232.7501, 229.5468
233.2322, 230.6787
233.7143, 231.6412
234.1965, 232.2017
234.6786, 232.6415
235.1607, 233.8247
235.6428, 236.2637
236.1249, 238.6926
236.6070, 240.5259
237.0892, 241.4408
237.5713, 242.4603
238.0534, 243.6081
238.5355, 244.8510
239.0176, 246.1040
239.4997, 247.3885
239.9819, 248.6777
240.4640, 250.0083
240.9461, 251.6428
241.4282, 252.7138
241.9103, 253.1243
242.3924, 253.0054
242.8746, 252.6542
243.3567, 252.0442
243.8388, 251.2495
244.3209, 250.3175
244.8030, 249.3430
245.2851, 248.0084
245.7673, 246.2391
246.2494, 244.1453
246.7315, 241.9330
247.2136, 239.4911
247.6957, 237.1094
248.1778, 234.9006
248.6600, 232.9341
249.1421, 230.9788
249.6242, 229.0168
250.1063, 227.0613
250.5884, 225.1040
251.0705, 222.9933
251.5527, 221.1301
252.0348, 219.7261
252.5169, 218.9169
252.9990, 218.0079
253.4811, 216.8767
253.9632, 215.7121
254.4454, 214.8991
254.9275, 214.6314
255.4096, 214.3321
255.8917, 213.7972
256.3738, 212.9777
256.8560, 212.1540
257.3381, 211.2973
257.8202, 210.4552
258.3023, 209.6216
258.7844, 208.6205
259.2665, 208.0451
259.7487, 208.2605
260.2308, 209.4716
260.7129, 209.9857
261.1950, 209.5325
261.6771, 208.6782
262.1592, 208.1445
262.6414, 207.9364
263.1235, 208.0621
263.6056, 208.6469
264.0877, 209.7511
264.5698, 210.4282
265.0519, 210.4783
265.5341, 210.3735
266.0162, 210.7092
266.4983, 211.6394
266.9804, 212.5278
267.4625, 213.2028
267.9446, 213.6634
268.4268, 214.2314
268.9089, 214.9516
269.3910, 215.6802
269.8731, 216.2004
270.3552, 216.3876
270.8373, 216.8602
271.3195, 217.7953
271.8016, 219.1559
272.2837, 220.6269
272.7658, 222.2842
273.2479, 223.9200
273.7300, 225.3645
274.2122, 226.5939
274.6943, 227.7619
275.1764, 228.9027
275.6585, 230.0016
276.1406, 230.9361
276.6227, 231.6576
277.1049, 232.3833
277.5870, 233.3201
278.0691, 234.4921
278.5512, 235.6261
279.0333, 236.7144
279.5154, 237.7182
279.9976, 238.5047
280.4797, 239.0681
280.9618, 239.4497
281.4439, 239.6937
281.9260, 239.7975
282.4081, 239.6585
282.8903, 239.1554
283.3724, 238.5174
283.8545, 238.3743
284.3366, 238.7725
284.8187, 239.1708
285.3008, 239.1454
285.7830, 238.7426
286.2651, 238.5298
286.7472, 238.5973
287.2293, 238.7942
287.7114, 238.9159
288.1935, 238.9604
288.6757, 238.7948
289.1578, 238.1095
289.6399, 237.0676
290.1220, 236.6240
290.6041, 236.9343
291.0862, 237.4952
291.5684, 237.5439
292.0505, 237.1344
292.5326, 236.7828
293.0147, 236.9118
293.4968, 237.2989
293.9789, 237.1929
294.4611, 236.5159
294.9432, 235.7181
295.4253, 235.4414
295.9074, 235.5425
296.3895, 235.4041
296.8716, 234.3736
297.3538, 233.0179
297.8359, 232.6435
298.3180, 233.2860
298.8001, 234.0533
299.2822, 234.0403
299.7643, 233.4886
300.2465, 233.0309
300.7286, 232.9674
301.2107, 233.0689
301.6928, 233.0728
302.1749, 232.9773
302.6570, 232.7459
303.1392, 232.0695
303.6213, 231.2790
304.1034, 230.9966
304.5855, 231.6818
305.0676, 232.6071
305.5497, 233.0827
306.0319, 233.1546
306.5140, 233.0842
306.9961, 232.9922
307.4782, 232.8695
307.9603, 232.6784
308.4424, 232.3325
308.9246, 232.0608
309.4067, 232.1115
309.8888, 232.3904
310.3709, 232.6334
310.8530, 232.5849
311.3351, 232.4973
311.8173, 232.6493
312.2994, 233.2121
312.7815, 233.6238
313.2636, 233.3842
313.7457, 232.7759
314.2278, 232.3022
314.7100, 232.1034
315.1921, 232.1682
315.6742, 232.5697
316.1563, 233.3716
316.6384, 234.1502
317.1205, 234.6672
317.6027, 235.0632
318.0848, 235.5126
318.5669, 236.2077
319.0490, 236.8428
319.5311, 237.2418
320.0132, 237.3849
320.4954, 237.6061
320.9775, 238.0543
321.4596, 238.5894
321.9417, 239.0869
322.4238, 239.3050
322.9059, 239.7050
323.3881, 240.4910
323.8702, 241.6210
324.3523, 242.6544
324.8344, 243.6462
325.3165, 244.4475
325.7986, 244.9810
326.2808, 244.4386
326.7629, 244.5773
327.2450, 246.0696
327.7271, 248.4756
328.2092, 250.0548
328.6913, 250.0045
329.1735, 249.8212
329.6556, 250.1215
330.1377, 251.3513
330.6198, 252.2044
331.1019, 252.4457
331.5840, 252.3751
332.0662, 252.5807
332.5483, 253.2847
333.0304, 253.9440
333.5125, 254.3839
333.9946, 254.5900
334.4767, 254.6645
334.9589, 254.5800
335.4410, 254.3882
335.9231, 254.1541
336.4052, 253.8942
336.8873, 253.5551
337.3694, 253.1095
337.8516, 252.5679
338.3336, 252.0381
338.8158, 251.5053
339.2979, 251.0245
339.7800, 250.7041
340.2621, 250.6044
340.7442, 250.2672
341.2263, 249.5448
341.7085, 248.5743
342.1906, 247.8598
342.6727, 247.4257
343.1548, 247.0581
343.6369, 246.6604
344.1190, 246.2266
344.6012, 245.5564
345.0833, 244.5332
345.5654, 243.4505
346.0475, 242.9642
346.5296, 243.0297
347.0117, 242.9368
347.4939, 242.0291
347.9760, 240.6444
348.4581, 239.9930
348.9402, 240.2467
349.4223, 240.5782
349.9044, 239.8570
350.3866, 238.3838
350.8687, 237.1868
351.3508, 236.9902
351.8329, 237.1779
352.3150, 236.6327
352.7971, 235.3784
353.2793, 234.2915
353.7614, 234.2756
354.2435, 234.8259
354.7256, 235.1114
355.2077, 234.7587
355.6898, 234.2231
356.1720, 234.0184
356.6541, 234.0190
357.1362, 233.6993
357.6183, 232.2557
358.1004, 230.6187
358.5826, 229.6938
359.0647, 229.8895
359.5468, 230.1875
360.0289, 230.1149
360.5110, 229.7550
360.9931, 229.2643
361.4753, 228.4058
361.9574, 227.6752
362.4395, 227.4384
362.9216, 227.8356
363.4037, 228.0230
363.8858, 227.6528
364.3680, 226.9876
364.8501, 226.3010
365.3322, 225.4833
365.8143, 224.8345
366.2964, 224.5404
366.7785, 224.5900
367.2607, 224.4565
367.7428, 223.9702
368.2249, 223.3701
368.7070, 222.7943
369.1891, 222.1413
369.6712, 221.6588
370.1534, 221.3968
370.6355, 221.3062
371.1176, 221.2464
371.5997, 221.2769
372.0818, 221.2501
372.5639, 221.0791
373.0461, 220.6738
373.5282, 220.4283
374.0103, 220.4824
374.4924, 220.5539
374.9745, 220.1462
375.4566, 219.0589
375.9388, 218.1191
376.4209, 217.6230
376.9030, 217.5350
377.3851, 217.3374
377.8672, 217.0181
378.3493, 216.6414
378.8315, 216.2467
379.3136, 215.8329
379.7957, 215.4988
380.2778, 215.2746
380.7599, 215.1308
381.2420, 214.9780
381.7242, 214.8185
382.2063, 214.7069
382.6884, 214.7773
383.1705, 214.9349
383.6526, 214.8111
384.1347, 214.3221
384.6169, 213.7297
385.0990, 213.3816
385.5811, 213.2115
386.0632, 213.0290
386.5453, 212.7574
387.0274, 212.4143
387.5096, 212.0325
387.9917, 211.6147
388.4738, 211.1315
388.9559, 210.4164
389.4380, 209.6788
389.9201, 209.2170
390.4023, 209.4439
390.8844, 209.6174
391.3665, 209.1333
391.8486, 208.1474
392.3307, 207.2436
392.8128, 206.7110
393.2950, 206.3494
393.7771, 206.0477
394.2592, 205.8493
394.7413, 205.5385
395.2234, 204.8932
395.7055, 204.1202
396.1877, 203.5404
396.6698, 203.5166
397.1519, 203.4157
397.6340, 202.9931
398.1161, 202.1959
398.5982, 201.4986
399.0804, 201.0137
399.5625, 200.5957
400.0446, 200.1445
400.5267, 199.6673
401.0088, 199.1603
401.4909, 198.6905
401.9731, 198.2043
402.4552, 197.4301
402.9373, 196.0967
403.4194, 194.9206
403.9015, 194.3128
404.3836, 194.4754
404.8658, 194.3743
405.3479, 193.9192
405.8300, 193.3186
406.3121, 192.9347
406.7942, 192.8230
407.2763, 192.4921
407.7585, 191.6160
408.2406, 190.3631
408.7227, 189.8359
409.2048, 190.1150
409.6869, 190.4393
410.1690, 190.0926
410.6512, 189.1878
411.1333, 188.2296
411.6154, 187.2587
412.0975, 186.3759
412.5796, 185.7625
413.0617, 185.3823
413.5439, 185.0377
414.0260, 184.6721
414.5081, 184.2493
414.9902, 183.7011
415.4723, 183.0119
415.9544, 182.2996
416.4366, 181.6622
416.9187, 181.0691
417.4008, 180.4763
417.8829, 179.8174
418.3650, 179.1912
418.8471, 178.6868
419.3293, 178.2824
419.8114, 177.8189
420.2935, 177.0143
420.7756, 176.2662
421.2577, 175.9090
421.7398, 176.3118
422.2220, 176.4764
422.7041, 176.0235
423.1862, 175.2203
423.6683, 174.5479
424.1504, 174.2549
424.6325, 173.8975
425.1147, 173.2868
425.5968, 172.3528
426.0789, 171.7472
426.5610, 171.7708
427.0431, 171.8499
427.5252, 171.4581
428.0074, 170.2251
428.4895, 169.4139
428.9716, 169.3369
429.4537, 169.7196
429.9358, 169.6768
430.4179, 169.1157
430.9001, 168.4568
431.3822, 167.8482
431.8643, 167.2870
432.3464, 166.9878
432.8285, 166.9858
433.3106, 167.1337
433.7928, 167.3367
434.2749, 167.5698
434.7570, 167.6122
435.2391, 167.3461
435.7212, 166.8885
436.2033, 166.3869
436.6855, 165.8621
437.1676, 165.4714
437.6497, 165.4075
438.1318, 165.5293
438.6139, 165.6568
439.0960, 165.7986
439.5782, 165.8073
440.0603, 165.3773
440.5424, 164.7408
441.0245, 164.3384
441.5066, 164.5175
441.9887, 164.8474
442.4709, 165.0714
442.9530, 165.1863
443.4351, 165.3718
443.9172, 165.8042
444.3993, 166.2652
444.8814, 166.5898
445.3636, 166.6786
445.8457, 166.7272
446.3278, 166.7164
446.8099, 166.6828
447.2920, 166.7143
447.7741, 166.7153
448.2563, 166.8973
448.7384, 167.3918
449.2205, 168.2751
449.7026, 168.8927
450.1847, 169.1099
450.6668, 169.2270
451.1490, 169.5507
451.6311, 170.1752
452.1132, 170.6126
452.5953, 170.6694
453.0774, 170.5901
453.5595, 171.1577
454.0417, 172.4489
454.5238, 173.6862
455.0059, 174.4617
455.4880, 174.8215
455.9701, 174.9548
456.4522, 174.8203
456.9344, 174.7575
457.4165, 175.1247
457.8986, 175.8582
458.3807, 176.8061
458.8628, 178.1693
459.3449, 179.4530
459.8271, 179.8822
460.3092, 179.6634
460.7913, 179.6919
461.2734, 180.8918
461.7555, 182.3228
462.2376, 183.1809
462.7198, 183.2704
463.2019, 183.1455
463.6840, 182.9040
464.1661, 182.6405
464.6482, 182.4690
465.1303, 182.7846
465.6125, 182.8101
466.0946, 182.1612
466.5767, 180.9204
467.0588, 179.9294
467.5409, 179.4368
468.0230, 179.0409
468.5052, 178.5909
468.9873, 178.1408
469.4694, 177.4902
469.9515, 176.5368
470.4336, 175.4787
470.9157, 174.5805
471.3979, 173.8773
471.8800, 173.2421
472.3621, 172.6462
472.8442, 172.0966
473.3263, 171.5732
473.8084, 171.0628
474.2906, 170.6774
474.7727, 170.4981
475.2548, 170.5118
475.7369, 170.7117
476.2190, 171.1431
476.7011, 171.5716
477.1833, 171.6533
477.6654, 171.4998
478.1475, 171.4175
478.6296, 171.4986
479.1117, 171.7373
479.5938, 172.2503
480.0760, 172.9839
480.5581, 173.5595
481.0402, 173.6019
481.5223, 173.4987
482.0044, 173.5891
482.4865, 174.0334
482.9687, 174.4013
483.4508, 174.3773
483.9329, 174.2355
484.4150, 174.3658
484.8971, 175.1851
485.3792, 175.9159
485.8614, 176.3425
486.3435, 176.4884
486.8256, 176.6887
487.3077, 176.9827
487.7898, 177.2817
488.2719, 177.5698
488.7541, 177.9158
489.2362, 177.9742
489.7183, 177.6130
490.2004, 177.1357
490.6825, 177.0680
491.1646, 177.4660
491.6468, 177.6781
492.1289, 177.4227
492.6110, 176.8939
493.0931, 176.6709
493.5752, 176.7497
494.0573, 176.8687
494.5395, 176.8006
495.0216, 176.6430
495.5037, 176.6060
495.9858, 176.7249
496.4679, 176.9062
496.9500, 177.1891
497.4322, 177.4574
497.9143, 177.5123
498.3964, 177.0573
498.8785, 176.5659
499.3606, 176.2453
499.8427, 176.0987
500.3249, 176.1520
500.8070, 176.7249
501.2891, 177.2558
501.7712, 177.3936
502.2533, 176.8887
502.7354, 176.6078
503.2176, 176.8930
503.6997, 177.2878
504.1818, 177.3211
504.6639, 176.8040
505.1460, 176.2555
505.6281, 175.6824
506.1103, 175.1360
506.5924, 174.8535
507.0745, 174.8679
507.5566, 175.0228
508.0387, 175.2951
508.5208, 175.6737
509.0030, 175.9718
509.4851, 176.2033
509.9672, 176.2775
510.4493, 175.9769
510.9314, 175.4208
511.4135, 175.0193
511.8957, 174.9227
512.3778, 174.9546
512.8599, 174.9467
513.3420, 174.9073
513.8242, 174.8551
514.3063, 174.9028
514.7884, 174.8706
515.2705, 174.5506
515.7526, 173.9294
516.2347, 173.3883
516.7169, 173.0061
517.1990, 172.8042
517.6811, 172.8109
518.1632, 173.4068
518.6453, 173.6924
519.1274, 173.2970
519.6096, 172.5817
520.0917, 172.2259
520.5738, 172.4755
521.0559, 172.6728
521.5380, 172.6264
522.0201, 172.3548
522.5023, 172.2107
522.9844, 172.2598
523.4665, 172.2503
523.9486, 171.9265
524.4307, 171.3105
524.9128, 170.8991
525.3950, 170.7602
525.8771, 170.7421
526.3592, 170.7188
526.8413, 170.6628
527.3234, 170.4734
527.8055, 170.1089
528.2877, 169.5980
528.7698, 168.8302
529.2519, 167.8969
529.7340, 167.1590
530.2161, 167.0095
530.6982, 167.0085
531.1804, 166.8165
531.6625, 166.3689
532.1446, 165.9077
532.6267, 165.5900
533.1088, 165.2628
533.5909, 164.7904
534.0731, 164.0224
534.5552, 163.2696
535.0373, 162.5116
535.5194, 161.7928
536.0015, 161.1935
536.4836, 160.7617
536.9658, 160.3612
537.4479, 159.9521
537.9300, 159.5355
538.4121, 159.1502
538.8942, 158.8260
539.3763, 158.4046
539.8585, 157.6682
540.3406, 156.6833
540.8227, 155.8172
541.3048, 155.0898
541.7869, 154.5558
542.2690, 154.4884
542.7512, 154.6749
543.2333, 154.5815
543.7154, 153.8399
544.1975, 152.8521
544.6796, 151.8765
545.1617, 150.9131
545.6439, 150.0002
546.1260, 149.2129
546.6081, 148.4366
547.0902, 147.5205
547.5723, 146.3303
548.0544, 145.5510
548.5366, 145.6952
549.0187, 146.0494
549.5008, 145.9918
549.9829, 145.3764
550.4650, 144.5937
550.9471, 143.5562
551.4293, 142.4365
551.9114, 141.6631
552.3935, 141.3136
552.8756, 140.9367
553.3577, 140.3453
553.8398, 139.5878
554.3220, 138.8761
554.8041, 138.2080
555.2862, 137.5745
555.7683, 136.8950
556.2504, 136.2531
556.7325, 135.8760
557.2147, 135.8553
557.6968, 135.7571
558.1789, 135.0322
558.6610, 134.0372
559.1431, 133.3061
559.6252, 133.3869
560.1074, 133.3999
560.5895, 132.9149
561.0716, 132.0670
561.5537, 131.3218
562.0358, 130.7754
562.5179, 130.3349
563.0001, 130.0049
563.4822, 129.8047
563.9643, 129.5197
564.4464, 129.1539
564.9285, 128.6978
565.4106, 128.1221
565.8928, 127.4058
566.3749, 126.6821
566.8570, 125.9301
567.3391, 125.2267
567.8212, 124.6719
568.3033, 124.2603
568.7855, 124.0067
569.2676, 124.0270
569.7497, 124.0899
570.2318, 123.7766
570.7139, 123.1731
571.1960, 122.6305
571.6782, 122.4454
572.1603, 122.3507
572.6424, 122.1400
573.1245, 121.7891
573.6066, 121.3933
574.0887, 120.9094
574.5709, 120.4399
575.0530, 120.0595
575.5351, 119.7844
576.0172, 119.5923
576.4993, 119.5743
576.9814, 119.5951
577.4636, 119.4156
577.9457, 118.9414
578.4278, 118.5280
578.9099, 118.3070
579.3920, 118.2011
579.8741, 117.8377
580.3563, 117.1885
580.8384, 116.6865
581.3205, 116.7703
581.8026, 117.1913
582.2847, 117.1921
582.7668, 116.7445
583.2490, 116.2020
