##NAMES=Perovskite
##RRUFFID=R110178
##IDEAL CHEMISTRY=CaTi^4+^O_3_
##LOCALITY=St Lawrence Columbium mine, Oka, Laurentides, Quebec, Canada
##OWNER=RRUFF
##SOURCE=Donald Doell
##DESCRIPTION=Black lustrous cubes
##STATUS=The identification of this mineral is confirmed by single-crystal X-ray diffraction and chemical analysis.
##URL=rruff.info/R110178
##MEASURED CHEMISTRY=(Ca_0.78_Na_0.21_Mg_0.03_Ce_0.01_La_0.01_)_∑=1.05_(Ti_0.42_Nb_0.39_Fe_0.12_Ta_0.03_Zr_0.01_)_∑=0.98_O_3_
198.1513, 352.5291
198.6334, 352.7955
199.1155, 353.0012
199.5977, 353.3915
200.0798, 353.9748
200.5619, 354.5619
201.0440, 354.9233
201.5261, 355.0062
202.0082, 355.2445
202.4904, 355.8134
202.9725, 356.4754
203.4546, 357.0913
203.9367, 357.6583
204.4188, 358.3046
204.9009, 359.2603
205.3831, 360.7334
205.8652, 361.8580
206.3473, 362.2037
206.8294, 362.5199
207.3115, 363.3807
207.7936, 364.8002
208.2758, 366.2505
208.7579, 366.8986
209.2400, 366.0464
209.7221, 365.9379
210.2042, 367.0773
210.6863, 368.4665
211.1685, 369.4919
211.6506, 370.0084
212.1327, 370.2023
212.6148, 370.3298
213.0969, 370.3401
213.5790, 370.3844
214.0612, 370.6710
214.5433, 370.8649
215.0254, 370.5385
215.5075, 369.6391
215.9896, 368.6870
216.4717, 368.4462
216.9539, 369.3025
217.4360, 370.0240
217.9181, 370.5996
218.4002, 371.0291
218.8823, 371.2448
219.3644, 371.2271
219.8466, 371.1907
220.3287, 371.4833
220.8108, 372.2037
221.2929, 372.6883
221.7750, 372.4933
222.2571, 372.1523
222.7393, 372.5427
223.2214, 373.9690
223.7035, 375.3905
224.1856, 375.1026
224.6677, 373.2486
225.1498, 372.0520
225.6320, 372.3818
226.1141, 373.6469
226.5962, 375.0984
227.0783, 376.8450
227.5604, 378.1002
228.0425, 377.6425
228.5247, 375.8799
229.0068, 374.3866
229.4889, 373.5811
229.9710, 373.4872
230.4531, 374.3650
230.9352, 376.6906
231.4174, 379.0394
231.8995, 380.6082
232.3816, 381.4160
232.8637, 381.3371
233.3458, 379.6466
233.8279, 376.9561
234.3101, 375.3143
234.7922, 375.2665
235.2743, 375.4914
235.7564, 375.3265
236.2385, 374.8489
236.7206, 374.1912
237.2028, 373.3563
237.6849, 372.3987
238.1670, 371.5995
238.6491, 371.3336
239.1312, 370.6228
239.6133, 368.9288
240.0955, 366.6085
240.5776, 364.1987
241.0597, 361.9271
241.5418, 359.8457
242.0239, 358.3226
242.5060, 358.0041
242.9882, 357.3480
243.4703, 355.5298
243.9524, 353.1918
244.4345, 351.2781
244.9166, 350.3686
245.3987, 350.2541
245.8809, 349.9763
246.3630, 349.4221
246.8451, 348.8321
247.3272, 348.2408
247.8093, 347.6488
248.2914, 347.1072
248.7736, 346.6626
249.2557, 346.2088
249.7378, 345.3035
250.2199, 343.3140
250.7020, 341.6425
251.1841, 340.3657
251.6663, 339.5354
252.1484, 339.4331
252.6305, 340.2161
253.1126, 341.3802
253.5947, 341.3102
254.0768, 337.9462
254.5590, 335.8166
255.0411, 335.9980
255.5232, 337.2249
256.0053, 338.1163
256.4874, 338.0871
256.9695, 337.4881
257.4517, 337.1656
257.9338, 337.4350
258.4159, 337.6250
258.8980, 337.5711
259.3801, 337.5033
259.8622, 337.7583
260.3444, 338.4407
260.8265, 339.2267
261.3086, 339.4990
261.7907, 338.8274
262.2728, 338.2741
262.7549, 337.9068
263.2371, 337.6325
263.7192, 337.3048
264.2013, 336.8917
264.6834, 336.5885
265.1655, 336.7285
265.6476, 337.6336
266.1298, 338.1976
266.6119, 338.2447
267.0940, 338.0318
267.5761, 337.7957
268.0582, 337.5829
268.5403, 337.2890
269.0225, 336.7701
269.5046, 335.9590
269.9867, 335.2178
270.4688, 334.3981
270.9509, 333.7531
271.4330, 333.7396
271.9152, 334.3559
272.3973, 334.7648
272.8794, 334.0469
273.3615, 332.0936
273.8436, 330.6263
274.3257, 329.7325
274.8079, 329.2802
275.2900, 329.3855
275.7721, 329.9941
276.2542, 330.5128
276.7363, 330.4726
277.2184, 329.9044
277.7006, 329.4151
278.1827, 329.3092
278.6648, 329.0415
279.1469, 327.9925
279.6290, 326.2809
280.1111, 324.8808
280.5933, 324.5449
281.0754, 324.9211
281.5575, 324.6835
282.0396, 323.2790
282.5217, 321.9410
283.0038, 321.5638
283.4860, 321.9802
283.9681, 322.3144
284.4502, 322.1896
284.9323, 321.7168
285.4144, 321.1631
285.8965, 320.4777
286.3787, 319.8380
286.8608, 319.3161
287.3429, 318.9153
287.8250, 318.6675
288.3071, 318.6581
288.7892, 318.7050
289.2714, 318.5240
289.7535, 318.0905
290.2356, 317.6689
290.7177, 317.4352
291.1998, 317.3075
291.6819, 317.0797
292.1641, 316.7245
292.6462, 316.2143
293.1283, 315.3027
293.6104, 314.0596
294.0925, 313.2819
294.5746, 313.6300
295.0568, 314.6028
295.5389, 315.2633
296.0210, 315.5345
296.5031, 315.3981
296.9852, 314.5790
297.4673, 313.3015
297.9495, 312.1468
298.4316, 311.2351
298.9137, 310.5823
299.3958, 310.3649
299.8779, 310.7113
300.3600, 310.8751
300.8422, 310.1650
301.3243, 308.9550
301.8064, 307.8568
302.2885, 306.9506
302.7706, 306.2468
303.2527, 305.8031
303.7349, 305.6328
304.2170, 305.5134
304.6991, 305.3646
305.1812, 305.1975
305.6633, 305.0822
306.1454, 305.1324
306.6276, 304.9721
307.1097, 303.9611
307.5918, 302.1802
308.0739, 301.0801
308.5560, 301.5812
309.0381, 302.6095
309.5203, 302.9406
310.0024, 302.5030
310.4845, 301.8116
310.9666, 301.1357
311.4487, 300.4764
311.9308, 299.8512
312.4130, 299.2788
312.8951, 298.7221
313.3772, 298.2131
313.8593, 297.7261
314.3414, 297.0863
314.8235, 295.8889
315.3057, 294.4838
315.7878, 293.9019
316.2699, 294.5534
316.7520, 295.2503
317.2341, 295.0193
317.7162, 294.1778
318.1984, 293.3683
318.6805, 292.8889
319.1626, 292.5453
319.6447, 291.8663
320.1268, 290.6895
320.6089, 290.0143
321.0911, 291.2810
321.5732, 293.1629
322.0553, 293.6618
322.5374, 291.7890
323.0195, 289.4047
323.5016, 288.6294
323.9838, 289.4732
324.4659, 289.9574
324.9480, 289.0172
325.4301, 287.5498
325.9122, 286.6785
326.3943, 286.5278
326.8765, 286.5839
327.3586, 286.6927
327.8407, 286.7721
328.3228, 286.2769
328.8049, 284.7627
329.2870, 283.0761
329.7692, 282.0401
330.2513, 281.6140
330.7334, 281.4785
331.2155, 281.7651
331.6976, 282.2097
332.1797, 282.1054
332.6619, 281.2097
333.1440, 280.2408
333.6261, 279.9287
334.1082, 280.0123
334.5903, 279.8641
335.0724, 278.9819
335.5546, 277.9273
336.0367, 277.5904
336.5188, 278.0633
337.0009, 278.3012
337.4830, 277.4778
337.9651, 276.0835
338.4473, 275.0629
338.9294, 274.6618
339.4115, 274.4222
339.8936, 273.9904
340.3757, 273.3924
340.8578, 272.8769
341.3400, 272.6975
341.8221, 272.4563
342.3042, 271.4339
342.7863, 269.4322
343.2684, 267.7540
343.7505, 267.1351
344.2327, 267.3047
344.7148, 267.7503
345.1969, 268.5280
345.6790, 269.1187
346.1611, 268.6785
346.6432, 267.3818
347.1254, 266.2507
347.6075, 265.7246
348.0896, 265.4213
348.5717, 264.8669
349.0538, 264.0124
349.5359, 263.1180
350.0181, 262.3791
350.5002, 261.7581
350.9823, 261.0715
351.4644, 260.2252
351.9465, 259.3872
352.4286, 258.6126
352.9108, 257.9232
353.3929, 257.4247
353.8750, 257.2118
354.3571, 257.1865
354.8392, 257.1221
355.3214, 257.0880
355.8035, 256.8831
356.2856, 256.4930
356.7677, 255.8739
357.2498, 254.8005
357.7319, 253.1254
358.2141, 251.4396
358.6962, 250.6082
359.1783, 250.7620
359.6604, 250.9169
360.1425, 251.1199
360.6246, 251.1812
361.1068, 250.8111
361.5889, 250.0192
362.0710, 249.2405
362.5531, 248.8448
363.0352, 248.8338
363.5173, 248.7721
363.9995, 249.1586
364.4816, 249.0174
364.9637, 247.3639
365.4458, 244.7744
365.9279, 242.7523
366.4100, 242.1269
366.8922, 242.4824
367.3743, 242.4936
367.8564, 241.7872
368.3385, 241.2863
368.8206, 241.2595
369.3027, 241.4324
369.7849, 241.5824
370.2670, 241.6282
370.7491, 241.4254
371.2312, 240.7347
371.7133, 239.3329
372.1954, 238.1093
372.6776, 237.0150
373.1597, 236.1252
373.6418, 235.6069
374.1239, 235.3706
374.6060, 235.1074
375.0881, 234.5729
375.5703, 233.7737
376.0524, 232.8667
376.5345, 231.8522
377.0166, 230.7316
377.4987, 228.9979
377.9808, 227.2859
378.4630, 226.7060
378.9451, 227.7798
379.4272, 229.6535
379.9093, 230.2547
380.3914, 228.5647
380.8735, 227.2495
381.3557, 226.7074
381.8378, 226.3234
382.3199, 225.5605
382.8020, 224.3900
383.2841, 223.2483
383.7662, 222.6760
384.2484, 222.7836
384.7305, 222.6643
385.2126, 222.0252
385.6947, 221.4300
386.1768, 221.0525
386.6589, 220.8554
387.1411, 220.7557
387.6232, 220.7310
388.1053, 220.7229
388.5874, 220.4992
389.0695, 219.8999
389.5516, 219.3865
390.0338, 219.0963
390.5159, 218.9076
390.9980, 218.7824
391.4801, 218.7040
391.9622, 218.4890
392.4443, 217.8234
392.9265, 216.6471
393.4086, 215.6240
393.8907, 214.8854
394.3728, 214.2897
394.8549, 213.7748
395.3370, 213.3331
395.8192, 212.9625
396.3013, 212.7533
396.7834, 212.6120
397.2655, 212.1990
397.7476, 211.4211
398.2297, 210.6154
398.7119, 209.6779
399.1940, 208.8993
399.6761, 208.8316
400.1582, 209.9228
400.6403, 211.0625
401.1224, 210.9364
401.6046, 209.6258
402.0867, 208.5663
402.5688, 208.2851
403.0509, 208.3294
403.5330, 208.1827
404.0151, 207.8474
404.4973, 207.3863
404.9794, 206.6575
405.4615, 205.8679
405.9436, 205.4449
406.4257, 205.4807
406.9078, 205.5452
407.3900, 205.2316
407.8721, 204.6347
408.3542, 204.2568
408.8363, 204.4420
409.3184, 204.5793
409.8005, 204.1759
410.2827, 203.3725
410.7648, 202.6213
411.2469, 202.0718
411.7290, 201.7857
412.2111, 202.0404
412.6932, 203.2563
413.1754, 203.8965
413.6575, 203.1349
414.1396, 201.9716
414.6217, 201.5195
415.1038, 201.9376
415.5859, 202.5825
416.0681, 202.8615
416.5502, 202.7616
417.0323, 202.3155
417.5144, 201.1035
417.9965, 200.0391
418.4786, 199.6026
418.9608, 199.5742
419.4429, 199.4453
419.9250, 198.9414
420.4071, 198.2941
420.8892, 198.1712
421.3713, 199.1890
421.8535, 199.8047
422.3356, 199.6039
422.8177, 199.2731
423.2998, 199.4752
423.7819, 200.2081
424.2640, 200.8311
424.7462, 200.5496
425.2283, 199.2498
425.7104, 198.7352
426.1925, 199.8310
426.6746, 200.8588
427.1567, 201.3519
427.6389, 201.4617
428.1210, 201.4180
428.6031, 201.3040
429.0852, 201.2010
429.5673, 201.2900
430.0494, 201.6192
430.5316, 201.9659
431.0137, 202.2031
431.4958, 202.4971
431.9779, 202.9932
432.4600, 203.6870
432.9421, 204.4044
433.4243, 205.0541
433.9064, 205.6265
434.3885, 206.0551
434.8706, 206.2686
435.3527, 206.5022
435.8348, 206.8358
436.3170, 207.3012
436.7991, 208.0217
437.2812, 209.2208
437.7633, 210.4068
438.2454, 210.8169
438.7275, 210.6393
439.2097, 211.2905
439.6918, 213.5528
440.1739, 216.4066
440.6560, 218.3635
441.1381, 219.4484
441.6202, 220.1634
442.1024, 220.2469
442.5845, 220.2476
443.0666, 220.9524
443.5487, 222.3788
444.0308, 223.6650
444.5129, 224.0670
444.9951, 223.7249
445.4772, 224.0157
445.9593, 225.4906
446.4414, 226.8553
446.9235, 227.6275
447.4056, 228.0710
447.8878, 228.5259
448.3699, 229.1158
448.8520, 229.9150
449.3341, 231.1102
449.8162, 233.0687
450.2983, 234.3309
450.7805, 234.2737
451.2626, 234.2022
451.7447, 234.9273
452.2268, 236.2317
452.7089, 237.4522
453.1910, 238.1758
453.6732, 238.4033
454.1553, 238.0531
454.6374, 236.5491
455.1195, 235.4529
455.6016, 235.2413
456.0837, 235.3353
456.5659, 235.3902
457.0480, 235.2879
457.5301, 234.8606
458.0122, 233.5611
458.4943, 231.4226
458.9764, 230.6011
459.4586, 232.1926
459.9407, 233.5613
460.4228, 233.2147
460.9049, 231.7571
461.3870, 230.2355
461.8691, 229.0156
462.3513, 227.8777
462.8334, 226.4338
463.3155, 224.7099
463.7976, 223.4426
464.2797, 223.0959
464.7618, 223.0273
465.2440, 222.3389
465.7261, 221.0176
466.2082, 219.8970
466.6903, 219.1735
467.1724, 218.8398
467.6545, 219.1228
468.1367, 219.9782
468.6188, 220.5763
469.1009, 220.2881
469.5830, 219.3073
470.0651, 218.6165
470.5472, 218.3643
471.0294, 218.1727
471.5115, 218.0805
471.9936, 217.9410
472.4757, 217.4821
472.9578, 216.6616
473.4399, 215.8142
473.9221, 215.3697
474.4042, 215.4391
474.8863, 215.2647
475.3684, 214.7588
475.8505, 214.1325
476.3326, 213.3127
476.8148, 212.4568
477.2969, 211.8285
477.7790, 211.5645
478.2611, 211.5080
478.7432, 211.3807
479.2253, 211.2727
479.7075, 210.8338
480.1896, 209.4569
480.6717, 208.2133
481.1538, 207.7862
481.6359, 208.0817
482.1180, 208.5164
482.6002, 208.8849
483.0823, 209.0508
483.5644, 208.5320
484.0465, 207.1698
484.5286, 205.6996
485.0107, 204.2200
485.4929, 202.9302
485.9750, 202.1069
486.4571, 201.8445
486.9392, 201.7396
487.4213, 201.6051
487.9034, 201.4446
488.3856, 201.3095
488.8677, 201.2269
489.3498, 200.9940
489.8319, 200.3509
490.3140, 199.3422
490.7961, 198.6265
491.2783, 198.4942
491.7604, 198.3388
492.2425, 197.8709
492.7246, 197.1872
493.2067, 196.3239
493.6888, 195.2948
494.1710, 194.5334
494.6531, 194.8100
495.1352, 196.6771
495.6173, 197.8379
496.0994, 197.9497
496.5815, 197.7991
497.0637, 197.6767
497.5458, 197.5963
498.0279, 197.5309
498.5100, 197.4810
498.9921, 197.3497
499.4742, 196.8223
499.9564, 195.6440
500.4385, 194.7183
500.9206, 193.9724
501.4027, 193.6659
501.8848, 194.3517
502.3669, 195.7987
502.8491, 196.8640
503.3312, 196.3586
503.8133, 194.9973
504.2954, 194.9072
504.7775, 196.3981
505.2596, 197.6830
505.7418, 197.6697
506.2239, 197.1200
506.7060, 197.1586
507.1881, 197.9621
507.6702, 198.8446
508.1523, 199.6761
508.6345, 200.2966
509.1166, 200.2079
509.5987, 199.3339
510.0808, 198.7182
510.5629, 199.4001
511.0450, 201.1945
511.5272, 201.9514
512.0093, 200.6391
512.4914, 199.6630
512.9735, 200.0694
513.4556, 201.0708
513.9377, 201.5402
514.4199, 201.2063
514.9020, 200.7639
515.3841, 201.1861
515.8662, 202.7206
516.3483, 203.4109
516.8304, 202.2655
517.3126, 201.3092
517.7947, 201.3212
518.2768, 201.8123
518.7589, 201.9852
519.2410, 201.5089
519.7231, 200.8607
520.2053, 200.7245
520.6874, 201.1282
521.1695, 201.6665
521.6516, 202.4662
522.1337, 203.1552
522.6158, 203.4323
523.0980, 203.4082
523.5801, 203.4031
524.0622, 203.5922
524.5443, 203.7856
525.0264, 203.8010
525.5085, 203.6475
525.9907, 203.3054
526.4728, 202.6557
526.9549, 202.0654
527.4370, 202.1651
527.9191, 203.0819
528.4012, 203.8337
528.8834, 204.3263
529.3655, 204.6246
529.8476, 204.6005
530.3297, 204.4086
530.8118, 204.5245
531.2939, 205.2381
531.7761, 206.1902
532.2582, 206.4177
532.7403, 205.2341
533.2224, 204.5845
533.7045, 204.6072
534.1866, 204.9984
534.6688, 205.7999
535.1509, 206.8275
535.6330, 207.6812
536.1151, 208.1177
536.5972, 208.1806
537.0793, 207.9178
537.5615, 207.2323
538.0436, 206.6264
538.5257, 206.2134
539.0078, 205.9800
539.4899, 206.0460
539.9720, 206.3806
540.4542, 206.4663
540.9363, 205.7479
541.4184, 204.7856
541.9005, 204.5601
542.3826, 205.0500
542.8647, 205.1723
543.3469, 204.2201
543.8290, 202.6834
544.3111, 201.8428
544.7932, 201.9122
545.2753, 202.0497
545.7574, 202.3010
546.2396, 202.4565
546.7217, 202.1795
547.2038, 201.5826
547.6859, 201.2231
548.1680, 201.5405
548.6501, 202.3104
549.1323, 202.5173
549.6144, 201.8013
550.0965, 201.1263
550.5786, 200.4768
551.0607, 199.9912
551.5428, 199.8196
552.0250, 199.9354
552.5071, 200.1593
552.9892, 200.4761
553.4713, 200.7669
553.9534, 200.5540
554.4355, 199.6772
554.9177, 199.1495
555.3998, 199.7973
555.8819, 200.6851
556.3640, 200.4048
556.8461, 198.7566
557.3282, 197.4397
557.8104, 197.4112
558.2925, 197.8810
558.7746, 197.9438
559.2567, 197.5638
559.7388, 197.0691
560.2209, 196.6203
560.7031, 196.2503
561.1852, 196.0661
561.6673, 196.5438
562.1494, 196.5165
562.6315, 195.4354
563.1136, 194.2624
563.5958, 193.8155
564.0779, 193.9706
564.5600, 194.0079
565.0421, 193.3781
565.5242, 192.3254
566.0063, 191.6813
566.4885, 191.5684
566.9706, 191.5144
567.4527, 191.5303
567.9348, 191.4782
568.4169, 191.2539
568.8990, 190.8632
569.3812, 190.3823
569.8633, 189.7549
570.3454, 189.1152
570.8275, 188.6769
571.3096, 188.4317
571.7917, 188.2413
572.2739, 188.0843
572.7560, 187.8883
573.2381, 187.4924
573.7202, 186.8247
574.2023, 186.2511
574.6844, 185.6844
575.1666, 185.3252
575.6487, 185.5703
576.1308, 186.1380
576.6129, 186.2580
577.0950, 185.5067
577.5771, 184.3352
578.0593, 183.8287
578.5414, 184.4554
579.0235, 184.4615
579.5056, 183.1052
579.9877, 181.7171
580.4698, 180.8973
580.9520, 180.5149
581.4341, 180.1504
581.9162, 179.5549
582.3983, 179.0271
582.8804, 179.2510
583.3625, 180.0988
583.8447, 180.0532
584.3268, 178.4568
584.8089, 176.5851
585.2910, 175.9256
585.7731, 176.3261
586.2552, 176.1855
586.7374, 174.6120
587.2195, 173.2559
587.7016, 173.0144
588.1837, 173.5656
588.6658, 174.4722
589.1479, 175.5656
589.6301, 176.5782
590.1122, 177.2014
590.5943, 177.4295
591.0764, 177.2981
591.5585, 176.6138
592.0406, 175.7699
592.5228, 174.5441
593.0049, 173.3560
593.4870, 172.7848
593.9691, 172.9597
594.4512, 173.2828
594.9333, 173.1845
595.4155, 172.7531
595.8976, 172.3732
596.3797, 172.0741
596.8618, 171.8049
597.3439, 171.6441
597.8260, 171.4452
598.3082, 170.8489
598.7903, 169.6320
599.2724, 168.5856
599.7545, 167.9014
600.2366, 167.5515
600.7188, 167.6535
601.2009, 168.1194
601.6830, 168.5551
602.1651, 168.6947
602.6472, 168.6040
603.1293, 168.5094
603.6115, 168.2938
604.0936, 168.2989
604.5757, 168.9001
605.0578, 169.3959
605.5399, 169.3768
606.0220, 168.8679
606.5042, 168.0159
606.9863, 166.6649
607.4684, 165.3797
607.9505, 165.2998
608.4326, 166.3885
608.9147, 167.1396
609.3969, 167.1138
609.8790, 166.7188
610.3611, 166.3585
610.8432, 166.0223
611.3253, 165.5650
611.8074, 164.6799
612.2896, 163.9744
612.7717, 163.9631
613.2538, 164.2925
613.7359, 164.2585
614.2180, 163.6855
614.7001, 163.1657
615.1823, 163.5303
615.6644, 164.8692
616.1465, 165.1599
616.6286, 163.4001
617.1107, 161.9557
617.5928, 161.3920
618.0750, 161.4358
618.5571, 162.0239
619.0392, 163.0954
619.5213, 163.9324
620.0034, 163.8216
620.4855, 163.1315
620.9677, 162.7315
621.4498, 162.6717
621.9319, 162.3953
622.4140, 161.4242
622.8961, 160.2906
623.3782, 160.3092
623.8604, 162.0595
624.3425, 162.9860
624.8246, 162.0365
625.3067, 160.8530
625.7888, 160.5561
626.2709, 160.9463
626.7531, 161.3539
627.2352, 161.4527
627.7173, 161.3025
628.1994, 160.9536
628.6815, 160.3413
629.1636, 159.8738
629.6458, 159.5361
630.1279, 159.4066
630.6100, 159.5808
631.0921, 159.9487
631.5742, 160.3547
632.0563, 160.8302
632.5385, 161.1248
633.0206, 160.9306
633.5027, 160.4611
633.9848, 160.1227
634.4669, 159.9765
634.9490, 159.9483
635.4312, 160.0171
635.9133, 160.1393
636.3954, 160.1033
636.8775, 159.7112
637.3596, 159.4255
637.8417, 159.4200
638.3239, 159.3967
638.8060, 159.0817
639.2881, 158.5468
639.7702, 158.0663
640.2523, 157.7936
640.7344, 157.6930
641.2166, 157.6662
641.6987, 157.7039
642.1808, 158.0893
642.6629, 159.1539
643.1450, 160.1329
643.6271, 160.1982
644.1093, 159.5777
644.5914, 159.0549
645.0735, 158.7600
645.5556, 158.5577
646.0377, 158.3794
646.5198, 158.2581
647.0020, 158.2741
647.4841, 158.4254
647.9662, 158.5908
648.4483, 158.6607
648.9304, 158.6501
649.4125, 158.6625
649.8947, 158.6756
650.3768, 158.7556
650.8589, 159.1433
651.3410, 159.4158
651.8231, 159.1716
652.3052, 158.4920
652.7874, 157.8661
653.2695, 157.4757
653.7516, 157.3187
654.2337, 157.5028
654.7158, 157.9504
655.1979, 158.3388
655.6801, 158.5966
656.1622, 158.6410
656.6443, 158.3270
657.1264, 157.6268
657.6085, 157.1210
658.0906, 156.7566
658.5728, 156.6216
659.0549, 156.8088
659.5370, 157.1908
660.0191, 157.8060
660.5012, 158.5516
660.9833, 158.9555
661.4655, 158.4171
661.9476, 157.3648
662.4297, 157.3549
662.9118, 158.5871
663.3939, 159.2251
663.8760, 158.3426
664.3582, 157.0670
664.8403, 156.9210
665.3224, 157.7923
665.8045, 158.1523
666.2866, 157.1508
666.7687, 156.2162
667.2509, 156.2915
667.7330, 156.9190
668.2151, 157.3146
668.6972, 157.2810
669.1793, 157.1505
669.6614, 157.2473
670.1436, 157.5685
670.6257, 158.1508
671.1078, 159.4449
671.5899, 160.0699
672.0720, 158.8777
672.5541, 157.4017
673.0363, 156.9755
673.5184, 157.5641
674.0005, 157.9628
674.4826, 157.2042
674.9647, 156.3875
675.4468, 156.8558
675.9290, 158.1904
676.4111, 159.1249
676.8932, 159.2650
677.3753, 158.9171
677.8574, 158.3233
678.3395, 157.4456
678.8217, 157.3283
679.3038, 158.9082
679.7859, 160.0636
680.2680, 160.2359
680.7501, 159.9712
681.2322, 159.6780
681.7144, 159.4426
682.1965, 159.2655
682.6786, 159.0995
683.1607, 159.0281
683.6428, 159.2604
684.1249, 159.7577
684.6071, 160.1745
685.0892, 160.3986
685.5713, 160.5306
686.0534, 160.6221
686.5355, 160.6506
687.0176, 161.0897
687.4998, 162.6857
687.9819, 163.7156
688.4640, 163.1810
688.9461, 162.2286
689.4282, 162.1329
689.9103, 162.9490
690.3925, 163.7290
690.8746, 163.7473
691.3567, 163.2403
691.8388, 162.5924
692.3209, 161.7767
692.8030, 161.5808
