##NAMES=Perroudite
##RRUFFID=R060699
##IDEAL CHEMISTRY=Ag^1+^_4_Hg^2+^_5_S^2-^_5_(I^1-^,Br^1-^)_2_Cl_2_
##LOCALITY=Copiapo, Chile
##OWNER=RRUFF
##SOURCE=Bob Jenkins
##DESCRIPTION=Reddish brown thin bladed crystals associated with white cerussite
##STATUS=The identification of this mineral has been confirmed by X-ray diffraction.
##URL=rruff.info/R060699
157.205, 15759.580
157.687, 15812.290
158.169, 15887.760
158.651, 15974.210
159.133, 16061.400
159.615, 16176.160
160.097, 16339.330
160.579, 16544.180
161.062, 16762.850
161.544, 16985.439
162.026, 17209.359
162.508, 17422.721
162.990, 17602.789
163.472, 17800.949
163.954, 18041.730
164.436, 18323.070
164.919, 18639.279
165.401, 19030.320
165.883, 19481.080
166.365, 19801.539
166.847, 19822.801
167.329, 19881.330
167.811, 19948.539
168.293, 20200.115
168.775, 20406.967
169.258, 20571.441
169.740, 20566.727
170.222, 20780.484
170.704, 20926.881
171.186, 21018.561
171.668, 21131.570
172.150, 21257.250
172.632, 21385.020
173.115, 21504.180
173.597, 21614.600
174.079, 21733.641
174.561, 21879.820
175.043, 22020.420
175.525, 22133.090
176.007, 22223.721
176.489, 22316.590
176.971, 22437.760
177.454, 22590.461
177.936, 22732.891
178.418, 22856.301
178.900, 22974.740
179.382, 23102.811
179.864, 23234.650
180.346, 23347.391
180.828, 23412.600
181.311, 23423.801
181.793, 23446.689
182.275, 23518.580
182.757, 23569.881
183.239, 23563.510
183.721, 23506.869
184.203, 23436.750
184.685, 23390.270
185.167, 23372.820
185.650, 23327.711
186.132, 23258.320
186.614, 23154.240
187.096, 22988.850
187.578, 22777.020
188.060, 22566.350
188.542, 22399.051
189.024, 22280.971
189.507, 22158.920
189.989, 22029.850
190.471, 21899.910
190.953, 21765.891
191.435, 21631.949
191.917, 21507.740
192.399, 21402.471
192.881, 21317.859
193.363, 21235.430
193.846, 21141.930
194.328, 21063.211
194.810, 21020.301
195.292, 21002.330
195.774, 20978.500
196.256, 20915.760
196.738, 20810.109
197.220, 20751.100
197.702, 20783.170
198.185, 20824.881
198.667, 20860.660
199.149, 20887.471
199.631, 20904.600
200.113, 20910.789
200.595, 20905.990
201.077, 20898.779
201.559, 20857.811
202.042, 20845.289
202.524, 20898.490
203.006, 20994.381
203.488, 21085.029
203.970, 21135.660
204.452, 21147.891
204.934, 21152.520
205.416, 21120.199
205.898, 21110.590
206.381, 21156.750
206.863, 21234.939
207.345, 21300.859
207.827, 21322.010
208.309, 21304.900
208.791, 21308.119
209.273, 21340.221
209.755, 21385.730
210.238, 21450.730
210.720, 21524.740
211.202, 21593.289
211.684, 21647.490
212.166, 21688.779
212.648, 21723.930
213.130, 21744.109
213.612, 21768.779
214.094, 21802.711
214.577, 21842.840
215.059, 21886.869
215.541, 21934.090
216.023, 21981.930
216.505, 22022.449
216.987, 22062.811
217.469, 22083.301
217.951, 22079.330
218.434, 22056.990
218.916, 22019.211
219.398, 21966.311
219.880, 21907.289
220.362, 21867.680
220.844, 21869.410
221.326, 21852.551
221.808, 21788.820
222.290, 21714.199
222.773, 21666.641
223.255, 21660.100
223.737, 21673.420
224.219, 21662.551
224.701, 21609.820
225.183, 21570.039
225.665, 21559.660
226.147, 21557.039
226.629, 21547.461
227.112, 21526.199
227.594, 21494.471
228.076, 21446.740
228.558, 21365.141
229.040, 21320.039
229.522, 21350.391
230.004, 21395.180
230.486, 21411.449
230.969, 21393.160
231.451, 21371.770
231.933, 21391.311
232.415, 21465.551
232.897, 21520.500
233.379, 21538.039
233.861, 21543.529
234.343, 21542.170
234.825, 21537.631
235.307, 21539.641
235.790, 21558.961
236.272, 21596.939
236.754, 21639.020
237.236, 21698.990
237.718, 21749.980
238.200, 21769.301
238.682, 21765.381
239.165, 21770.381
239.647, 21819.199
240.129, 21908.910
240.611, 21970.699
241.093, 21972.520
241.575, 21985.551
242.057, 22054.061
242.539, 22159.250
243.021, 22253.980
243.503, 22299.330
243.986, 22310.730
244.468, 22357.180
244.950, 22461.789
245.432, 22562.721
245.914, 22629.330
246.396, 22674.449
246.878, 22716.369
247.361, 22752.211
247.843, 22798.510
248.325, 22900.570
248.807, 23081.900
249.289, 23255.439
249.771, 23374.029
250.253, 23466.240
250.735, 23561.189
251.217, 23658.850
251.699, 23776.230
252.182, 23944.680
252.664, 24170.039
253.146, 24401.010
253.628, 24609.449
254.110, 24816.070
254.592, 25044.260
255.074, 25298.840
255.556, 25567.539
256.039, 25834.080
256.521, 26099.721
257.003, 26385.260
257.485, 26699.320
257.967, 27037.340
258.449, 27388.100
258.931, 27749.631
259.413, 28135.789
259.896, 28555.881
260.378, 29009.990
260.860, 29490.289
261.342, 29995.289
261.824, 30536.449
262.306, 31125.369
262.788, 31757.211
263.270, 32442.289
263.752, 33197.012
264.235, 34009.941
264.717, 34858.449
265.199, 35738.449
265.681, 36673.711
266.163, 37696.219
266.645, 38802.719
267.127, 39965.141
267.609, 41192.898
268.091, 42466.871
268.574, 43771.801
269.056, 45103.828
269.538, 46465.730
270.020, 47858.648
270.502, 49279.781
270.984, 50661.031
271.466, 52024.719
271.948, 53329.859
272.431, 54573.570
272.913, 55746.211
273.395, 56804.191
273.877, 57741.211
274.359, 58534.980
274.841, 59111.250
275.323, 59516.109
275.805, 59698.148
276.288, 59624.180
276.770, 59317.289
277.252, 58808.781
277.734, 58102.660
278.216, 57227.250
278.698, 56242.141
279.180, 55160.262
279.662, 53948.051
280.144, 52503.969
280.626, 50967.109
281.109, 49467.609
281.591, 48044.109
282.073, 46680.449
282.555, 45362.930
283.037, 44073.289
283.519, 42866.961
284.001, 41706.180
284.483, 40648.871
284.966, 39747.520
285.448, 38997.121
285.930, 38322.422
286.412, 37656.031
286.894, 36983.609
287.376, 36420.961
287.858, 35990.879
288.340, 35638.141
288.823, 35358.629
289.305, 35145.590
289.787, 34989.250
290.269, 34882.289
290.751, 34827.191
291.233, 34839.879
291.715, 34940.230
292.197, 35093.539
292.679, 35291.520
293.162, 35535.309
293.644, 35822.250
294.126, 36148.699
294.608, 36533.129
295.090, 37015.840
295.572, 37619.480
296.054, 38272.109
296.536, 38952.680
297.018, 39679.770
297.501, 40464.820
297.983, 41312.078
298.465, 42218.410
298.947, 43174.672
299.429, 44183.922
299.911, 45249.180
300.393, 46378.000
300.875, 47559.281
301.358, 48771.719
301.840, 50018.641
302.322, 51332.980
302.804, 52736.879
303.286, 54224.871
303.768, 55777.141
304.250, 57402.379
304.732, 59088.879
305.215, 60838.078
305.697, 62645.070
306.179, 64494.559
306.661, 66432.883
307.143, 68396.391
307.625, 70318.578
308.107, 72191.844
308.589, 74047.633
309.071, 75951.508
309.553, 77813.781
310.036, 79436.148
310.518, 80852.344
311.000, 81980.344
311.482, 82802.969
311.964, 83306.867
312.446, 83451.492
312.928, 83230.781
313.410, 82624.797
313.893, 81548.602
314.375, 80027.938
314.857, 78128.641
315.339, 75711.859
315.821, 72997.781
316.303, 70174.883
316.785, 67300.703
317.267, 64445.090
317.750, 61653.160
318.232, 58918.648
318.714, 56392.379
319.196, 54059.000
319.678, 51943.730
320.160, 50067.801
320.642, 48425.910
321.124, 46968.559
321.606, 45677.961
322.089, 44542.430
322.571, 43510.488
323.053, 42608.680
323.535, 41776.648
324.017, 41021.141
324.499, 40327.520
324.981, 39690.289
325.463, 39108.691
325.945, 38552.609
326.428, 37972.859
326.910, 37359.520
327.392, 36742.391
327.874, 36107.539
328.356, 35479.641
328.838, 34878.301
329.320, 34305.570
329.802, 33758.441
330.284, 33239.961
330.767, 32751.520
331.249, 32260.830
331.731, 31742.141
332.213, 31255.080
332.695, 30818.961
333.177, 30433.250
333.659, 30086.150
334.142, 29774.311
334.624, 29500.039
335.106, 29278.770
335.588, 29120.529
336.070, 28976.020
336.552, 28813.891
337.034, 28656.650
337.516, 28533.891
337.998, 28453.721
338.480, 28400.930
338.963, 28374.670
339.445, 28369.369
339.927, 28356.141
340.409, 28323.750
340.891, 28284.539
341.373, 28251.740
341.855, 28222.301
342.337, 28213.490
342.819, 28248.801
343.302, 28297.980
343.784, 28318.721
344.266, 28306.330
344.748, 28293.891
345.230, 28307.359
345.712, 28348.170
346.194, 28414.699
346.677, 28540.891
347.159, 28656.160
347.641, 28717.920
348.123, 28743.631
348.605, 28778.500
349.087, 28847.820
349.569, 28936.170
350.051, 28993.740
350.533, 29028.660
351.016, 29015.939
351.498, 28948.949
351.980, 28838.939
352.462, 28696.699
352.944, 28524.311
353.426, 28314.279
353.908, 28042.131
354.390, 27681.561
354.872, 27388.000
355.355, 27298.910
355.837, 27155.250
356.319, 26839.830
356.801, 26390.590
357.283, 25906.939
357.765, 25427.270
358.247, 24971.850
358.729, 24603.859
359.211, 24349.859
359.694, 24117.211
360.176, 23858.580
360.658, 23605.721
361.140, 23393.811
361.622, 23235.840
362.104, 23101.740
362.586, 22964.199
363.069, 22825.990
363.551, 22711.590
364.033, 22638.090
364.515, 22572.939
364.997, 22465.721
365.479, 22317.500
365.961, 22202.660
366.443, 22162.619
366.925, 22154.910
367.408, 22136.359
367.890, 22103.369
368.372, 22065.289
368.854, 22027.801
369.336, 21991.260
369.818, 21958.830
370.300, 21916.250
370.782, 21892.670
371.264, 21911.779
371.747, 21952.561
372.229, 21983.840
372.711, 21993.391
373.193, 21985.430
373.675, 21965.850
374.157, 21920.539
374.639, 21891.770
375.121, 21900.539
375.603, 21906.461
376.086, 21876.090
376.568, 21815.619
377.050, 21761.039
377.532, 21747.070
378.014, 21768.689
378.496, 21768.619
378.978, 21730.490
379.460, 21694.449
379.943, 21676.520
380.425, 21667.180
380.907, 21655.980
381.389, 21640.561
381.871, 21617.160
382.353, 21576.230
382.835, 21517.340
383.317, 21465.500
383.799, 21423.311
384.282, 21395.510
384.764, 21389.270
385.246, 21404.279
385.728, 21419.051
386.210, 21435.150
386.692, 21441.830
387.174, 21413.770
387.656, 21348.660
388.138, 21289.949
388.621, 21269.131
389.103, 21283.260
389.585, 21299.391
390.067, 21322.449
390.549, 21341.811
391.031, 21349.221
391.513, 21351.180
391.996, 21361.250
392.478, 21384.449
392.960, 21409.330
393.442, 21415.340
393.924, 21392.359
394.406, 21372.391
394.888, 21347.359
395.370, 21331.650
395.852, 21339.850
396.335, 21366.070
396.817, 21391.051
397.299, 21400.270
397.781, 21395.850
398.263, 21391.539
398.745, 21391.461
399.227, 21383.320
399.709, 21359.461
400.191, 21328.490
400.674, 21300.039
401.156, 21277.230
401.638, 21251.850
402.120, 21212.141
402.602, 21160.230
403.084, 21114.381
403.566, 21075.689
404.048, 21048.020
404.530, 21042.240
405.013, 21053.730
405.495, 21058.080
405.977, 21041.260
406.459, 21020.439
406.941, 21016.301
407.423, 21025.881
407.905, 21024.471
408.387, 20993.740
408.870, 20948.920
409.352, 20940.211
409.834, 20999.199
410.316, 21044.820
410.798, 21062.500
411.280, 21064.641
411.762, 21059.910
412.244, 21051.410
412.727, 21042.020
413.209, 21033.570
413.691, 21024.949
414.173, 21027.430
414.655, 21064.340
415.137, 21086.900
415.619, 21066.820
416.101, 21028.080
416.583, 21007.570
417.065, 21022.350
417.548, 21056.750
418.030, 21094.949
418.512, 21141.551
418.994, 21152.051
419.476, 21085.320
419.958, 21009.391
420.440, 20988.570
420.922, 21018.609
421.405, 21040.770
421.887, 21022.289
422.369, 20983.080
422.851, 20947.811
423.333, 20918.279
423.815, 20900.100
424.297, 20900.580
424.779, 20914.260
425.262, 20918.680
425.744, 20903.971
426.226, 20894.721
426.708, 20899.900
427.190, 20912.920
427.672, 20932.141
428.154, 20954.900
428.636, 20964.660
429.118, 20939.080
429.601, 20870.320
430.083, 20814.721
430.565, 20773.961
431.047, 20744.461
431.529, 20730.699
432.011, 20726.369
432.493, 20720.250
432.975, 20706.170
433.457, 20693.061
433.940, 20705.920
434.422, 20754.619
434.904, 20765.359
435.386, 20677.420
435.868, 20590.160
436.350, 20596.449
436.832, 20687.699
437.314, 20761.330
437.797, 20751.070
438.279, 20703.850
438.761, 20689.131
439.243, 20709.010
439.725, 20727.170
440.207, 20721.230
440.689, 20699.590
441.171, 20691.260
441.654, 20700.350
442.136, 20713.510
442.618, 20732.721
443.100, 20751.830
443.582, 20763.391
444.064, 20766.359
444.546, 20765.539
445.028, 20765.520
445.510, 20766.170
445.992, 20766.609
446.475, 20767.529
446.957, 20766.891
447.439, 20762.359
447.921, 20756.490
448.403, 20753.980
448.885, 20756.930
449.367, 20758.529
449.849, 20752.109
450.332, 20737.820
450.814, 20706.449
451.296, 20636.721
451.778, 20579.350
452.260, 20588.381
452.742, 20647.430
453.224, 20689.010
453.706, 20686.600
454.189, 20664.400
454.671, 20639.619
455.153, 20613.221
455.635, 20584.859
456.117, 20552.070
456.599, 20523.641
457.081, 20518.500
457.563, 20554.230
458.045, 20578.820
458.528, 20578.000
459.010, 20575.859
459.492, 20594.561
459.974, 20628.570
460.456, 20652.369
460.938, 20644.490
461.420, 20615.789
461.902, 20617.590
462.384, 20672.680
462.867, 20710.949
463.349, 20693.930
463.831, 20669.600
464.313, 20684.510
464.795, 20742.949
465.277, 20794.980
465.759, 20794.340
466.241, 20761.070
466.724, 20748.711
467.206, 20763.320
467.688, 20783.410
468.170, 20800.859
468.652, 20812.170
469.134, 20807.330
469.616, 20772.961
470.098, 20742.000
470.581, 20724.711
471.063, 20717.480
471.545, 20718.391
472.027, 20725.820
472.509, 20732.029
472.991, 20728.230
473.473, 20713.439
473.955, 20699.869
474.437, 20693.670
474.919, 20681.260
475.402, 20656.619
475.884, 20624.900
476.366, 20590.619
476.848, 20554.850
477.330, 20524.740
477.812, 20516.670
478.294, 20528.760
478.776, 20515.141
479.259, 20453.699
479.741, 20396.090
480.223, 20393.189
480.705, 20428.070
481.187, 20453.990
481.669, 20463.840
482.151, 20460.109
482.633, 20434.189
483.116, 20396.551
483.598, 20372.359
484.080, 20370.811
484.562, 20380.590
485.044, 20382.859
485.526, 20365.730
486.008, 20386.230
486.490, 20489.740
486.972, 20579.061
487.455, 20601.939
487.937, 20581.570
488.419, 20564.211
488.901, 20572.430
489.383, 20591.779
489.865, 20597.990
490.347, 20590.051
490.829, 20575.619
491.311, 20554.779
491.794, 20528.240
492.276, 20487.260
492.758, 20438.141
493.240, 20411.760
493.722, 20440.279
494.204, 20478.439
494.686, 20480.131
495.168, 20453.449
495.651, 20431.369
496.133, 20427.250
496.615, 20432.859
497.097, 20433.750
497.579, 20424.330
498.061, 20425.551
498.543, 20458.221
499.025, 20481.551
499.508, 20464.250
499.990, 20420.490
500.472, 20383.250
500.954, 20370.000
501.436, 20374.350
501.918, 20386.891
502.400, 20410.789
502.882, 20424.600
503.364, 20410.631
503.846, 20399.949
504.329, 20424.859
504.811, 20477.711
505.293, 20513.570
505.775, 20501.840
506.257, 20476.711
506.739, 20475.279
507.221, 20491.830
507.703, 20497.051
508.186, 20476.760
508.668, 20448.779
509.150, 20446.600
509.632, 20492.609
510.114, 20506.039
510.596, 20447.410
511.078, 20395.910
511.560, 20403.420
512.042, 20450.090
512.525, 20485.930
513.007, 20483.260
513.489, 20462.869
513.971, 20465.760
514.453, 20495.551
514.935, 20521.260
515.417, 20543.230
515.899, 20551.930
516.382, 20535.500
516.864, 20498.869
517.346, 20464.131
517.828, 20429.930
518.310, 20407.180
518.792, 20411.561
519.274, 20435.539
519.756, 20457.609
520.239, 20470.180
520.721, 20475.510
521.203, 20475.180
521.685, 20462.971
522.167, 20467.631
522.649, 20521.270
523.131, 20555.801
523.613, 20523.570
524.096, 20457.971
524.578, 20415.869
525.060, 20422.100
525.542, 20453.811
526.024, 20490.279
526.506, 20530.779
526.988, 20534.109
527.470, 20479.381
527.952, 20414.369
528.435, 20369.980
528.917, 20345.350
529.399, 20341.369
529.881, 20384.930
530.363, 20421.330
530.845, 20410.430
531.327, 20376.141
531.809, 20363.070
532.291, 20381.930
532.774, 20404.369
533.256, 20394.881
533.738, 20349.689
534.220, 20328.689
534.702, 20341.520
535.184, 20368.510
535.666, 20415.961
536.148, 20469.289
536.630, 20518.330
537.113, 20560.420
537.595, 20576.711
538.077, 20528.840
538.559, 20441.061
539.041, 20393.980
539.523, 20396.619
540.005, 20420.689
540.487, 20460.529
540.969, 20504.891
541.452, 20512.170
541.934, 20449.529
542.416, 20405.490
542.898, 20408.971
543.380, 20430.811
543.862, 20448.260
544.344, 20456.789
544.826, 20457.881
545.309, 20452.330
545.791, 20440.930
546.273, 20424.939
546.755, 20399.961
547.237, 20383.189
547.719, 20382.580
548.201, 20389.551
548.683, 20398.949
549.166, 20410.250
549.648, 20422.340
550.130, 20444.010
550.612, 20459.699
551.094, 20442.311
551.576, 20400.289
552.058, 20374.029
552.540, 20382.039
553.023, 20407.600
553.505, 20421.939
553.987, 20420.840
554.469, 20419.699
554.951, 20415.990
555.433, 20414.801
555.915, 20419.900
556.397, 20428.779
556.879, 20435.881
557.362, 20438.381
557.844, 20443.029
558.326, 20463.010
558.808, 20495.811
559.290, 20517.730
559.772, 20526.400
560.254, 20521.289
560.736, 20495.199
561.218, 20453.070
561.701, 20423.711
562.183, 20409.699
562.665, 20405.631
563.147, 20418.500
563.629, 20435.680
564.111, 20439.039
564.593, 20427.920
565.075, 20420.359
565.557, 20435.920
566.040, 20467.660
566.522, 20467.359
567.004, 20418.061
567.486, 20375.480
567.968, 20355.820
568.450, 20349.070
568.932, 20356.891
569.414, 20377.609
569.896, 20378.609
570.379, 20321.561
570.861, 20254.740
571.343, 20235.850
571.825, 20257.230
572.307, 20279.420
572.789, 20285.910
573.271, 20283.770
573.753, 20285.070
574.236, 20291.350
574.718, 20296.840
575.200, 20295.420
575.682, 20300.020
576.164, 20323.820
576.646, 20354.561
577.128, 20370.770
577.610, 20363.520
578.093, 20351.381
578.575, 20354.119
579.057, 20368.080
579.539, 20380.529
580.021, 20390.420
580.503, 20393.721
580.985, 20385.000
581.467, 20367.461
581.950, 20357.670
582.432, 20356.891
582.914, 20360.619
583.396, 20374.830
583.878, 20388.420
584.360, 20391.801
584.842, 20385.000
585.324, 20373.779
585.806, 20362.660
586.289, 20348.369
586.771, 20313.590
587.253, 20251.570
587.735, 20228.971
588.217, 20285.471
588.699, 20354.189
589.181, 20360.660
589.663, 20315.240
590.145, 20287.811
590.628, 20293.471
591.110, 20315.561
591.592, 20364.689
592.074, 20418.211
592.556, 20437.750
593.038, 20414.510
593.520, 20371.250
594.002, 20328.539
594.484, 20286.801
594.967, 20263.680
595.449, 20266.500
595.931, 20273.311
596.413, 20274.779
596.895, 20277.900
597.377, 20292.770
597.859, 20320.631
598.341, 20341.430
598.823, 20336.631
599.306, 20327.381
599.788, 20344.590
600.270, 20379.570
600.752, 20394.301
601.234, 20371.109
601.716, 20330.609
602.198, 20307.330
602.680, 20305.131
603.162, 20306.529
603.645, 20320.430
604.127, 20328.279
604.609, 20324.250
605.091, 20310.490
605.573, 20286.240
606.055, 20248.689
606.537, 20220.061
607.019, 20224.529
607.502, 20247.070
607.984, 20254.391
608.466, 20244.990
608.948, 20248.480
609.430, 20286.381
609.912, 20342.971
610.394, 20371.670
610.876, 20345.891
611.359, 20337.301
611.841, 20365.381
612.323, 20389.920
612.805, 20380.410
613.287, 20351.320
613.769, 20339.660
614.251, 20366.279
614.733, 20396.619
615.216, 20384.090
615.698, 20341.789
616.180, 20321.051
616.662, 20331.980
617.144, 20342.631
617.626, 20325.199
618.108, 20287.561
618.590, 20274.010
619.072, 20315.439
619.555, 20338.779
620.037, 20328.971
620.519, 20307.881
621.001, 20279.811
621.483, 20254.480
621.965, 20256.051
622.447, 20308.150
622.929, 20374.410
623.411, 20398.391
623.894, 20383.461
624.376, 20353.881
624.858, 20307.900
625.340, 20274.641
625.822, 20286.840
626.304, 20340.400
626.786, 20365.930
627.268, 20354.010
627.750, 20330.250
628.233, 20278.820
628.715, 20232.230
629.197, 20224.891
629.679, 20254.010
630.161, 20289.920
630.643, 20318.711
631.125, 20333.490
631.607, 20305.119
632.089, 20235.971
632.572, 20212.990
633.054, 20275.180
633.536, 20344.211
634.018, 20333.260
634.500, 20242.051
634.982, 20191.350
635.464, 20210.211
635.946, 20231.471
636.429, 20233.711
636.911, 20231.840
637.393, 20246.330
637.875, 20275.900
638.357, 20298.580
638.839, 20298.920
639.321, 20279.770
639.803, 20235.910
640.286, 20166.779
640.768, 20132.080
641.250, 20156.260
641.732, 20203.311
642.214, 20242.600
642.696, 20274.109
643.178, 20272.199
643.660, 20195.320
644.143, 20137.039
644.625, 20148.420
645.107, 20177.891
645.589, 20158.990
646.071, 20090.471
646.553, 20035.840
647.035, 20055.391
647.517, 20113.400
647.999, 20123.750
648.482, 20086.730
648.964, 20052.689
649.446, 20033.920
649.928, 20028.789
650.410, 20041.840
650.892, 20075.320
651.374, 20081.711
651.856, 20027.100
652.338, 19989.000
652.821, 20000.279
653.303, 20030.881
653.785, 20051.211
654.267, 20056.670
654.749, 20057.660
