##NAMES=Petarasite
##RRUFFID=R060220
##IDEAL CHEMISTRY=Na_5_Zr^4+^_2_Si_6_O_18_(Cl,OH)&#183;2H_2_O
##LOCALITY=Mont Saint-Hilaire, Rouville County, Quebec, Canada
##OWNER=RRUFF
##SOURCE=Rock Currier
##DESCRIPTION=Pale yellowish brown massive associated with aegirine, albite, natrolite, astrophyllite and rhodochrosite
##STATUS=The identification of this mineral has been confirmed by X-ray diffraction and chemical analysis
##URL=rruff.info/R060220
##MEASURED CHEMISTRY=(Na_4.86_[box]_0.07_Ca_0.06_Mn_0.01_)_Σ=5_Zr_2.00_Si_6.00_O_18_(Cl_0.62_(OH)_0.38_)_Σ=1_·2H_2_O
91.82715, 251.1963
92.30927, 249.0561
92.79138, 249.6287
93.27350, 250.7604
93.75562, 251.0620
94.23773, 250.5305
94.71985, 249.6531
95.20197, 248.6220
95.68408, 247.7239
96.16620, 246.7397
96.64832, 245.6163
97.13043, 244.3719
97.61255, 243.1612
98.09467, 242.0717
98.57678, 240.9041
99.05890, 239.8557
99.54102, 240.0063
100.0231, 240.7347
100.5052, 241.3831
100.9874, 241.5939
101.4695, 241.4281
101.9516, 241.3133
102.4337, 240.3853
102.9158, 240.3884
103.3979, 242.1539
103.8801, 245.0533
104.3622, 247.9167
104.8443, 249.8008
105.3264, 250.5987
105.8085, 251.6580
106.2906, 253.0641
106.7728, 254.5248
107.2549, 255.7861
107.7370, 256.8483
108.2191, 258.0422
108.7012, 259.8437
109.1833, 262.3055
109.6655, 264.4211
110.1476, 266.0080
110.6297, 267.1813
111.1118, 267.9284
111.5939, 267.9215
112.0760, 268.1895
112.5582, 269.9645
113.0403, 273.0946
113.5224, 276.4321
114.0045, 279.2739
114.4866, 281.6525
114.9688, 284.0281
115.4509, 286.9040
115.9330, 289.4619
116.4151, 291.1159
116.8972, 291.7869
117.3793, 292.0133
117.8615, 292.3751
118.3436, 292.6373
118.8257, 293.6898
119.3078, 296.1768
119.7899, 299.0469
120.2720, 301.5352
120.7542, 303.3310
121.2363, 304.5933
121.7184, 305.7920
122.2005, 307.2643
122.6826, 308.2427
123.1647, 308.7458
123.6468, 308.7087
124.1290, 307.9961
124.6111, 306.4850
125.0932, 304.2536
125.5753, 301.9671
126.0574, 299.7354
126.5395, 297.3580
127.0217, 294.6079
127.5038, 291.5647
127.9859, 288.6889
128.4680, 286.4707
128.9501, 284.7097
129.4323, 282.2968
129.9144, 279.1284
130.3965, 275.3047
130.8786, 270.5046
131.3607, 264.3981
131.8428, 258.8277
132.3250, 255.7760
132.8071, 254.2231
133.2892, 252.5521
133.7713, 249.9150
134.2534, 246.6053
134.7355, 243.5665
135.2177, 240.7646
135.6998, 238.3513
136.1819, 236.5235
136.6640, 235.1142
137.1461, 233.7341
137.6282, 231.9933
138.1104, 229.8257
138.5925, 228.0277
139.0746, 226.9683
139.5567, 225.9851
140.0388, 224.8490
140.5209, 223.5462
141.0031, 222.1555
141.4852, 220.7063
141.9673, 218.9130
142.4494, 217.9099
142.9315, 217.9274
143.4136, 218.4056
143.8958, 219.0499
144.3779, 219.7657
144.8600, 220.5586
145.3421, 221.4400
145.8242, 222.4328
146.3063, 223.4919
146.7885, 224.6383
147.2706, 225.8475
147.7527, 227.0645
148.2348, 228.2563
148.7169, 229.5104
149.1990, 231.0595
149.6812, 232.9320
150.1633, 234.8826
150.6454, 237.0735
151.1275, 239.3262
151.6096, 240.9769
152.0917, 241.5326
152.5739, 241.5758
153.0560, 242.1996
153.5381, 243.6697
154.0202, 244.8730
154.5023, 244.9261
154.9844, 243.8104
155.4665, 242.0766
155.9487, 239.9608
156.4308, 237.2282
156.9129, 233.5078
157.3950, 228.6174
157.8771, 223.1467
158.3592, 217.9456
158.8414, 213.2151
159.3235, 208.2778
159.8056, 202.9134
160.2877, 197.3367
160.7698, 191.6037
161.2519, 185.7366
161.7341, 179.8902
162.2162, 174.5938
162.6983, 170.3097
163.1804, 165.9813
163.6625, 161.1819
164.1446, 156.3173
164.6268, 151.9528
165.1089, 148.3999
165.5910, 145.5415
166.0731, 142.5345
166.5552, 138.9354
167.0373, 135.6634
167.5195, 132.9331
168.0016, 130.6607
168.4837, 128.6867
168.9658, 126.9485
169.4479, 125.4111
169.9300, 123.7384
170.4122, 121.8277
170.8943, 119.9118
171.3764, 118.0087
171.8585, 116.1626
172.3406, 114.5268
172.8227, 113.2763
173.3049, 112.3834
173.7870, 111.3618
174.2691, 109.9641
174.7512, 108.6025
175.2333, 107.6526
175.7154, 107.1332
176.1976, 106.7362
176.6797, 106.3199
177.1618, 105.8552
177.6439, 105.2755
178.1260, 104.5395
178.6081, 103.6886
179.0903, 102.7311
179.5724, 101.6085
180.0545, 100.5677
180.5366, 99.67601
181.0187, 98.96597
181.5008, 98.55532
181.9830, 98.63494
182.4651, 99.03544
182.9472, 99.23222
183.4293, 99.15585
183.9114, 98.95762
184.3935, 98.78789
184.8757, 98.56310
185.3578, 98.09514
185.8399, 97.10863
186.3220, 95.70597
186.8041, 95.01709
187.2862, 95.75012
187.7684, 96.51066
188.2505, 97.05468
188.7326, 97.31931
189.2147, 97.20537
189.6968, 96.52812
190.1789, 95.23878
190.6611, 94.69209
191.1432, 95.71139
191.6253, 96.66991
192.1074, 97.00322
192.5895, 96.81308
193.0716, 96.48927
193.5538, 96.34756
194.0359, 96.38287
194.5180, 96.67574
195.0001, 97.19630
195.4822, 97.92664
195.9643, 98.98965
196.4465, 100.3028
196.9286, 101.5876
197.4107, 102.5696
197.8928, 103.1958
198.3749, 103.8940
198.8570, 104.6067
199.3392, 105.4243
199.8213, 106.4688
200.3034, 107.7306
200.7855, 109.0028
201.2676, 110.0964
201.7497, 110.9978
202.2319, 111.9262
202.7140, 112.9558
203.1961, 113.9782
203.6782, 114.7729
204.1603, 115.3000
204.6424, 116.0300
205.1246, 117.5754
205.6067, 119.7624
206.0888, 121.7685
206.5709, 123.2358
207.0530, 124.5116
207.5351, 126.1049
208.0173, 128.1272
208.4994, 130.1996
208.9815, 131.9017
209.4636, 133.4219
209.9457, 135.1770
210.4278, 137.4027
210.9100, 139.9627
211.3921, 142.6439
211.8742, 145.5938
212.3563, 148.3007
212.8384, 150.2459
213.3205, 151.7716
213.8027, 153.4987
214.2848, 155.7435
214.7669, 158.4297
215.2490, 161.2890
215.7311, 164.5271
216.2132, 167.6227
216.6954, 170.5543
217.1775, 173.2036
217.6596, 175.3495
218.1417, 176.7372
218.6238, 177.5135
219.1059, 178.5507
219.5881, 180.1876
220.0702, 181.6649
220.5523, 182.6640
221.0344, 183.3706
221.5165, 184.0698
221.9986, 184.9116
222.4808, 185.9111
222.9629, 187.2150
223.4450, 189.2163
223.9271, 191.1174
224.4092, 192.8965
224.8913, 194.4540
225.3735, 195.6053
225.8556, 196.1907
226.3377, 196.2765
226.8198, 196.6731
227.3019, 197.7377
227.7840, 198.7449
228.2662, 199.6969
228.7483, 200.4709
229.2304, 200.8528
229.7125, 200.6846
230.1946, 200.0161
230.6767, 199.3956
231.1589, 199.0393
231.6410, 198.4939
232.1231, 197.7297
232.6052, 196.6891
233.0873, 195.2439
233.5694, 193.2852
234.0516, 190.8854
234.5337, 188.5562
235.0158, 186.2588
235.4979, 184.0418
235.9800, 181.8750
236.4621, 179.8026
236.9443, 177.9412
237.4264, 176.4110
237.9085, 175.0890
238.3906, 173.3891
238.8727, 170.7427
239.3548, 168.4309
239.8370, 167.1350
240.3191, 166.5286
240.8012, 165.8271
241.2833, 164.6424
241.7654, 163.1087
242.2475, 161.6155
242.7297, 160.1079
243.2118, 158.7157
243.6939, 157.5047
244.1760, 156.4623
244.6581, 155.5362
245.1402, 154.6708
245.6224, 153.9696
246.1045, 153.6616
246.5866, 153.9177
247.0687, 154.0589
247.5508, 153.6792
248.0329, 152.8897
248.5151, 152.0551
248.9972, 151.2170
249.4793, 150.4848
249.9614, 150.0215
250.4435, 149.8574
250.9256, 149.7206
251.4078, 149.3976
251.8899, 148.9538
252.3720, 148.7087
252.8541, 148.9071
253.3362, 149.1195
253.8183, 148.9151
254.3005, 148.3013
254.7826, 147.4872
255.2647, 146.6343
255.7468, 145.7046
256.2289, 144.4433
256.7110, 142.5239
257.1931, 140.6413
257.6753, 139.4579
258.1574, 138.8720
258.6395, 138.2302
259.1216, 137.1021
259.6037, 135.5590
260.0858, 133.9248
260.5680, 131.9753
261.0501, 130.3131
261.5322, 129.4200
262.0143, 129.0969
262.4964, 128.7383
262.9785, 127.6727
263.4607, 126.1317
263.9428, 125.5859
264.4249, 126.8782
264.9070, 127.9752
265.3891, 127.5210
265.8712, 126.1867
266.3534, 125.3468
266.8355, 125.9684
267.3176, 127.7064
267.7997, 129.0925
268.2818, 129.9489
268.7639, 130.6980
269.2461, 131.4818
269.7282, 132.2796
270.2103, 132.9959
270.6924, 133.4775
271.1745, 133.9582
271.6566, 135.2728
272.1388, 137.9545
272.6209, 140.5916
273.1030, 142.8659
273.5851, 144.8799
274.0672, 146.6335
274.5493, 148.0926
275.0315, 149.5031
275.5136, 151.5118
275.9957, 154.5330
276.4778, 157.3985
276.9599, 159.5643
277.4420, 161.6710
277.9242, 164.4143
278.4063, 168.0460
278.8884, 172.0385
279.3705, 175.3756
279.8526, 177.5319
280.3347, 180.1311
280.8169, 183.3961
281.2990, 187.0345
281.7811, 190.9510
282.2632, 195.0755
282.7453, 199.1916
283.2274, 202.9026
283.7096, 205.8546
284.1917, 209.3060
284.6738, 213.8398
285.1559, 218.3884
285.6380, 222.3510
286.1201, 225.6394
286.6023, 228.5549
287.0844, 231.4975
287.5665, 234.6066
288.0486, 237.0643
288.5307, 238.8565
289.0128, 240.0718
289.4950, 240.4897
289.9771, 240.2865
290.4592, 239.9841
290.9413, 240.1370
291.4234, 240.8440
291.9055, 240.6762
292.3877, 238.6469
292.8698, 236.7407
293.3519, 235.8165
293.8340, 235.5284
294.3161, 235.0779
294.7982, 233.9233
295.2804, 232.0818
295.7625, 229.8235
296.2446, 227.1173
296.7267, 223.9822
297.2088, 220.3797
297.6909, 216.3554
298.1731, 211.9885
298.6552, 207.3382
299.1373, 202.3992
299.6194, 197.1628
300.1015, 191.2376
300.5836, 185.5061
301.0658, 180.2434
301.5479, 175.1704
302.0300, 169.8552
302.5121, 164.1609
302.9942, 158.4410
303.4763, 153.3307
303.9585, 148.8660
304.4406, 145.1472
304.9227, 142.6646
305.4048, 140.5633
305.8869, 138.0303
306.3690, 134.9397
306.8512, 131.8812
307.3333, 129.7093
307.8154, 128.8289
308.2975, 127.8221
308.7796, 126.6101
309.2617, 125.3524
309.7439, 123.9947
310.2260, 122.6300
310.7081, 121.5590
311.1902, 121.1047
311.6723, 121.3361
312.1544, 121.6881
312.6366, 122.1843
313.1187, 122.7588
313.6008, 123.4306
314.0829, 124.1648
314.5650, 124.9044
315.0471, 125.6153
315.5293, 126.2904
316.0114, 126.8317
316.4935, 127.1969
316.9756, 127.4785
317.4577, 127.6045
317.9398, 127.6755
318.4220, 127.8566
318.9041, 128.2378
319.3862, 128.7301
319.8683, 129.0532
320.3504, 129.0034
320.8326, 129.0269
321.3147, 129.4529
321.7968, 129.8135
322.2789, 129.5399
322.7610, 128.4803
323.2431, 127.0837
323.7253, 126.1558
324.2074, 126.1752
324.6895, 125.7080
325.1716, 124.3486
325.6537, 122.8706
326.1358, 121.9230
326.6180, 121.5002
327.1001, 121.0077
327.5822, 119.7578
328.0643, 117.5570
328.5464, 115.5645
329.0285, 113.7710
329.5107, 112.1579
329.9928, 110.8280
330.4749, 109.6813
330.9570, 108.5226
331.4391, 107.2156
331.9212, 105.7599
332.4034, 104.1490
332.8855, 101.9140
333.3676, 100.0224
333.8497, 98.92738
334.3318, 98.22810
334.8139, 97.36328
335.2961, 96.05811
335.7782, 94.44056
336.2603, 92.91870
336.7424, 91.56924
337.2245, 90.19794
337.7066, 88.62356
338.1888, 87.10857
338.6709, 85.92088
339.1530, 85.11515
339.6351, 84.51956
340.1172, 83.87563
340.5993, 83.13608
341.0815, 82.47563
341.5636, 81.86018
342.0457, 81.34191
342.5278, 81.07858
343.0099, 80.98421
343.4920, 80.75433
343.9742, 80.08936
344.4563, 78.96851
344.9384, 77.80244
345.4205, 76.04995
345.9026, 74.80830
346.3847, 74.75400
346.8669, 75.38787
347.3490, 75.80991
347.8311, 75.45112
348.3132, 74.51949
348.7953, 73.84875
349.2774, 73.55125
349.7596, 73.35535
350.2417, 73.30134
350.7238, 73.26492
351.2059, 73.10583
351.6880, 72.77769
352.1701, 72.38436
352.6523, 72.14985
353.1344, 72.22391
353.6165, 71.98861
354.0986, 70.85035
354.5807, 69.79906
355.0628, 69.46528
355.5450, 69.85674
356.0271, 70.51656
356.5092, 71.10271
356.9913, 71.61857
357.4734, 71.89846
357.9555, 71.96772
358.4377, 71.72945
358.9198, 70.67599
359.4019, 69.32014
359.8840, 68.74380
360.3661, 69.83227
360.8482, 71.94852
361.3304, 73.09510
361.8125, 72.80282
362.2946, 72.55405
362.7767, 72.84086
363.2588, 73.43757
363.7409, 74.24247
364.2231, 75.28931
364.7052, 76.16584
365.1873, 76.13038
365.6694, 75.03369
366.1515, 74.41456
366.6336, 74.89117
367.1158, 75.77480
367.5979, 76.61821
368.0800, 77.39409
368.5621, 78.16956
369.0442, 79.06530
369.5263, 80.02244
370.0085, 80.69085
370.4906, 80.83855
370.9727, 81.07405
371.4548, 82.02296
371.9369, 83.36458
372.4190, 84.35538
372.9012, 84.27818
373.3833, 83.97524
373.8654, 84.90092
374.3475, 87.21462
374.8296, 89.35008
375.3117, 90.28391
375.7939, 90.69302
376.2760, 91.61748
376.7581, 93.29967
377.2402, 95.11045
377.7223, 96.68061
378.2044, 98.01906
378.6866, 99.12610
379.1687, 99.92199
379.6508, 100.6263
380.1329, 101.6004
380.6150, 102.8369
381.0971, 103.8372
381.5793, 104.1779
382.0614, 104.3013
382.5435, 104.9675
383.0256, 106.2970
383.5077, 107.4587
383.9898, 107.6646
384.4720, 107.0594
384.9541, 106.8853
385.4362, 107.7529
385.9183, 108.5384
386.4004, 108.3696
386.8825, 107.5040
387.3647, 106.8409
387.8468, 106.8199
388.3289, 107.2367
388.8110, 107.6332
389.2931, 108.2085
389.7752, 108.3762
390.2574, 107.7721
390.7395, 106.8042
391.2216, 105.9570
391.7037, 105.3387
392.1858, 104.7381
392.6679, 103.8489
393.1501, 102.5133
393.6322, 101.8362
394.1143, 102.3717
394.5964, 103.0005
395.0785, 103.1258
395.5606, 102.8070
396.0428, 102.3360
396.5249, 101.8707
397.0070, 101.4476
397.4891, 101.2556
397.9712, 101.4520
398.4533, 101.7003
398.9355, 102.1136
399.4176, 102.4940
399.8997, 102.5597
400.3818, 102.2471
400.8639, 101.8394
401.3460, 101.7913
401.8282, 102.3083
402.3103, 102.6117
402.7924, 102.6701
403.2745, 102.5777
403.7566, 102.3381
404.2387, 101.9828
404.7209, 101.5499
405.2030, 101.0331
405.6851, 100.4727
406.1672, 100.2048
406.6493, 100.3222
407.1314, 100.6326
407.6136, 101.1341
408.0957, 101.7625
408.5778, 102.5558
409.0599, 103.5321
409.5420, 104.3624
410.0241, 104.3665
410.5063, 103.2775
410.9884, 102.8139
411.4705, 104.0171
411.9526, 105.2557
412.4347, 105.5976
412.9168, 105.1037
413.3990, 104.3591
413.8811, 103.5986
414.3632, 102.8931
414.8453, 102.5664
415.3274, 102.7734
415.8095, 102.9776
416.2917, 102.7925
416.7738, 102.4565
417.2559, 102.3100
417.7380, 102.5214
418.2201, 102.7578
418.7022, 102.7363
419.1844, 102.4626
419.6665, 101.9361
420.1486, 100.9773
420.6307, 100.0068
421.1128, 99.63161
421.5949, 99.83991
422.0771, 99.96704
422.5592, 99.71763
423.0413, 99.27443
423.5234, 98.81829
424.0055, 98.36784
424.4876, 98.07328
424.9698, 98.05749
425.4519, 98.31486
425.9340, 98.67313
426.4161, 99.17748
426.8982, 99.73006
427.3803, 100.2787
427.8625, 100.8442
428.3446, 101.5220
428.8267, 102.3715
429.3088, 103.1790
429.7909, 103.5082
430.2730, 102.7944
430.7552, 102.9657
431.2373, 104.5805
431.7194, 106.6733
432.2015, 108.8809
432.6836, 110.9715
433.1657, 112.4209
433.6479, 112.6659
434.1300, 111.8626
434.6121, 112.1303
435.0942, 114.2709
435.5763, 116.6045
436.0584, 119.2099
436.5406, 121.7273
437.0227, 123.6214
437.5048, 124.7439
437.9869, 125.7092
438.4690, 127.5387
438.9511, 130.5525
439.4333, 133.3884
439.9154, 136.0719
440.3975, 138.5458
440.8796, 140.9462
441.3617, 143.1202
441.8438, 144.6655
442.3260, 145.2092
442.8081, 145.0007
443.2902, 144.8460
443.7723, 144.8122
444.2544, 144.6602
444.7365, 144.5480
445.2187, 144.1521
445.7008, 143.0243
446.1829, 141.0443
446.6650, 138.9052
447.1471, 137.2805
447.6292, 136.0601
448.1114, 134.5589
448.5935, 132.5293
449.0756, 130.5084
449.5577, 129.0564
450.0398, 127.9974
450.5219, 126.8065
451.0041, 125.1626
451.4862, 123.4633
451.9683, 122.0529
452.4504, 120.9226
452.9325, 120.0640
453.4146, 119.5585
453.8968, 119.2188
454.3789, 118.6321
454.8610, 117.7828
455.3431, 116.8321
455.8252, 115.4404
456.3073, 114.1710
456.7895, 113.8080
457.2716, 114.3794
457.7537, 115.0826
458.2358, 115.2547
458.7179, 114.8948
459.2000, 114.2768
459.6822, 112.8501
460.1643, 111.8389
460.6464, 111.8915
461.1285, 112.4643
461.6106, 112.7574
462.0927, 112.4786
462.5748, 111.9946
463.0569, 111.9664
463.5391, 112.7050
464.0212, 113.0492
464.5033, 112.4637
464.9854, 112.0070
465.4675, 112.3949
465.9496, 113.3409
466.4318, 114.0264
466.9139, 113.8576
467.3960, 113.1424
467.8781, 112.8476
468.3602, 113.0765
468.8423, 113.4592
469.3245, 114.3056
469.8066, 115.0062
470.2887, 114.8844
470.7708, 113.8689
471.2529, 112.8815
471.7350, 112.5523
472.2172, 112.8230
472.6993, 113.6233
473.1814, 115.1804
473.6635, 116.5813
474.1456, 116.8523
474.6277, 116.5078
475.1099, 116.6897
475.5920, 117.7221
476.0741, 119.1310
476.5562, 120.7165
477.0383, 122.4190
477.5204, 124.0299
478.0026, 125.4056
478.4847, 126.9049
478.9668, 129.0328
479.4489, 131.8917
479.9310, 134.9957
480.4131, 138.0693
480.8953, 141.5858
481.3774, 145.9534
481.8595, 151.0519
482.3416, 156.5248
482.8237, 162.2363
483.3058, 168.0345
483.7880, 173.4077
484.2701, 177.5101
484.7522, 182.4222
485.2343, 188.5292
485.7164, 195.2205
486.1985, 202.1935
486.6807, 209.3301
487.1628, 216.4156
487.6449, 223.2758
488.1270, 229.9507
488.6091, 236.9673
489.0912, 244.3239
489.5734, 252.0937
490.0555, 260.2265
490.5376, 268.7654
491.0197, 277.6991
491.5018, 287.0033
491.9839, 296.8302
492.4661, 307.2580
492.9482, 318.3190
493.4303, 330.0362
493.9124, 342.6784
494.3945, 355.4537
494.8766, 367.5321
495.3588, 379.2051
495.8409, 391.1459
496.3230, 404.6153
496.8051, 417.4100
497.2872, 427.8795
497.7693, 436.1251
498.2515, 442.6696
498.7336, 447.8645
499.2157, 450.8845
499.6978, 450.3326
500.1799, 445.8623
500.6620, 438.8641
501.1442, 428.8637
501.6263, 416.8161
502.1084, 402.8519
502.5905, 387.3689
503.0726, 370.9685
503.5547, 353.9308
504.0369, 336.4869
504.5190, 319.3465
505.0011, 302.4637
505.4832, 285.8913
505.9653, 268.7516
506.4474, 252.4683
506.9296, 238.1238
507.4117, 225.7047
507.8938, 214.4463
508.3759, 203.7664
508.8580, 193.6669
509.3401, 184.5698
509.8223, 176.5332
510.3044, 169.3398
510.7865, 163.4234
511.2686, 158.0140
511.7507, 152.2852
512.2328, 146.0368
512.7150, 140.1233
513.1971, 135.2249
513.6792, 131.1460
514.1613, 127.3067
514.6434, 123.6654
515.1255, 120.1077
515.6077, 116.4845
516.0898, 112.8768
516.5719, 109.6052
517.0540, 106.6878
517.5361, 104.1150
518.0182, 101.9979
518.5004, 100.1927
518.9825, 98.48408
519.4646, 96.80349
519.9467, 95.15955
520.4288, 93.54970
520.9109, 91.95619
521.3931, 90.51225
521.8752, 89.14859
522.3573, 87.96474
522.8394, 87.14024
523.3215, 86.47762
523.8036, 85.62270
524.2858, 84.44728
524.7679, 83.26414
525.2500, 82.60782
525.7321, 82.55232
526.2142, 82.66695
526.6964, 83.26401
527.1785, 83.66451
527.6606, 83.26717
528.1427, 82.45791
528.6248, 82.13969
529.1069, 82.89452
529.5891, 83.95753
530.0712, 84.24707
530.5533, 83.81189
531.0354, 83.48989
531.5175, 83.52773
531.9996, 83.73528
532.4818, 83.91821
532.9639, 84.07759
533.4460, 84.21396
533.9281, 84.13877
534.4102, 84.19710
534.8923, 84.89706
535.3745, 85.99894
535.8566, 86.63462
536.3387, 86.34383
536.8208, 85.64732
537.3029, 85.62986
537.7850, 86.76321
538.2672, 87.62306
538.7493, 88.07369
539.2314, 88.39487
539.7135, 88.88449
540.1956, 89.38496
540.6777, 89.45448
541.1599, 88.79571
541.6420, 87.66627
542.1241, 86.71410
542.6062, 85.99271
543.0883, 85.26302
543.5704, 84.57474
544.0526, 83.78794
544.5347, 82.88639
545.0168, 81.82426
545.4989, 80.45064
545.9810, 78.25420
546.4631, 75.93177
546.9453, 74.78032
547.4274, 74.76185
547.9095, 74.57608
548.3916, 73.64677
548.8737, 72.34448
549.3558, 71.29490
549.8380, 70.50558
550.3201, 69.81241
550.8022, 69.31966
551.2843, 68.81489
551.7664, 68.01398
552.2485, 67.02086
552.7307, 66.22632
553.2128, 65.85561
553.6949, 65.80208
554.1770, 65.77524
554.6591, 65.83642
555.1412, 65.81075
555.6234, 65.73685
556.1055, 65.55150
556.5876, 65.20805
557.0697, 64.71725
557.5518, 64.09850
558.0339, 63.30820
558.5161, 62.48359
558.9982, 61.97156
559.4803, 61.82348
559.9624, 61.67488
560.4445, 61.27215
560.9266, 61.00157
561.4088, 61.38543
561.8909, 62.34499
562.3730, 62.96482
562.8551, 62.56636
563.3372, 61.90535
563.8193, 61.71595
564.3015, 61.98205
564.7836, 62.55285
565.2657, 63.41796
565.7478, 64.38438
566.2299, 65.09662
566.7120, 65.43006
567.1942, 65.78690
567.6763, 66.11502
568.1584, 66.51055
568.6405, 67.06848
569.1226, 67.73542
569.6047, 68.38195
570.0869, 68.93271
570.5690, 69.47542
571.0511, 70.21726
571.5332, 71.25060
572.0153, 72.14436
572.4974, 72.65864
572.9796, 73.22401
573.4617, 74.16101
573.9438, 75.33320
574.4259, 76.35759
574.9080, 77.00727
575.3901, 77.55445
575.8723, 78.23058
576.3544, 79.05230
576.8365, 80.18372
577.3186, 81.74524
577.8007, 83.39995
578.2828, 84.80119
578.7650, 85.93418
579.2471, 86.84010
579.7292, 87.47620
580.2113, 87.92434
580.6934, 88.08200
581.1755, 88.11960
581.6577, 88.46416
582.1398, 89.21335
582.6219, 89.76560
583.1040, 89.24590
583.5861, 87.51180
584.0682, 85.83826
