##NAMES=Petarasite
##RRUFFID=R060223
##IDEAL CHEMISTRY=Na_5_Zr^4+^_2_Si_6_O_18_(Cl,OH)&#183;2H_2_O
##LOCALITY=Demix Quarry, Mont Saint-Hilaire, Rouville County, Quebec, Canada
##OWNER=RRUFF
##SOURCE=Royal Ontario Museum
##DESCRIPTION=Tan colored cleavage fragment associated with catapleiite
##STATUS=The identification of this mineral is confirmed by single-crystal X-ray diffraction and chemical analysis.
##URL=rruff.info/R060223
##MEASURED CHEMISTRY=(Na_4.82_[box]_0.09_Ca_0.06_Mn_0.02_)_Σ=5_Zr_2.00_Si_6.00_O_18_(Cl_0.63_(OH)_0.37_)_Σ=1_·2H_2_O
92.07813, 20.50031
92.56024, 20.83533
93.04236, 20.59774
93.52448, 19.93116
94.00659, 19.36679
94.48871, 19.32338
94.97083, 19.61496
95.45294, 19.72839
95.93506, 19.56987
96.41718, 19.28689
96.89929, 19.14118
97.38141, 19.13591
97.86353, 19.13181
98.34564, 18.93411
98.82776, 18.56534
99.30988, 18.49639
99.79199, 18.90032
100.2741, 19.62502
100.7562, 20.11814
101.2383, 20.36288
101.7205, 20.42299
102.2026, 20.28021
102.6847, 19.83376
103.1668, 19.59075
103.6489, 19.73752
104.1310, 20.28653
104.6132, 20.58196
105.0953, 20.51239
105.5774, 20.29137
106.0595, 20.01758
106.5416, 18.73880
107.0237, 18.91838
107.5059, 21.96360
107.9880, 30.02736
108.4701, 34.12150
108.9522, 31.82564
109.4343, 26.04183
109.9164, 21.98705
110.3986, 20.86682
110.8807, 20.53503
111.3628, 20.37538
111.8449, 20.51530
112.3270, 20.60964
112.8091, 20.50479
113.2913, 20.32087
113.7734, 20.39152
114.2555, 20.93075
114.7376, 21.63559
115.2197, 22.33175
115.7018, 22.69129
116.1840, 23.38080
116.6661, 24.74801
117.1482, 26.67204
117.6303, 28.51667
118.1124, 30.05433
118.5945, 31.43115
119.0767, 32.76124
119.5588, 33.47612
120.0409, 34.66011
120.5230, 37.09438
121.0051, 40.71485
121.4872, 44.47879
121.9694, 47.33864
122.4515, 50.00841
122.9336, 53.49361
123.4157, 58.41216
123.8978, 64.17651
124.3799, 70.12916
124.8621, 76.20143
125.3442, 83.03062
125.8263, 91.43454
126.3084, 101.0554
126.7905, 111.0613
127.2726, 121.3931
127.7548, 131.6814
128.2369, 141.2469
128.7190, 150.0105
129.2011, 158.1621
129.6832, 166.0924
130.1653, 173.6573
130.6474, 180.4354
131.1296, 185.8870
131.6117, 190.2495
132.0938, 194.3921
132.5759, 198.1820
133.0580, 202.2026
133.5401, 207.5205
134.0223, 214.1693
134.5044, 221.5484
134.9865, 229.1698
135.4686, 237.1252
135.9507, 245.9748
136.4328, 256.1428
136.9150, 267.2420
137.3971, 277.7065
137.8792, 287.4520
138.3613, 297.1097
138.8434, 307.4083
139.3255, 318.4995
139.8077, 328.9998
140.2898, 338.7939
140.7719, 347.8076
141.2540, 356.1075
141.7361, 363.4161
142.2182, 370.3175
142.7004, 377.2530
143.1825, 383.9334
143.6646, 391.2389
144.1467, 399.1676
144.6288, 407.8165
145.1109, 417.4606
145.5931, 429.8156
146.0752, 441.8661
146.5573, 449.8641
147.0394, 449.9904
147.5215, 451.4837
148.0036, 456.6227
148.4858, 466.2565
148.9679, 476.4615
149.4500, 486.9120
149.9321, 498.0699
150.4142, 510.3885
150.8963, 524.9199
151.3785, 539.8583
151.8606, 554.4726
152.3427, 568.6316
152.8248, 583.3571
153.3069, 598.7748
153.7890, 614.8185
154.2712, 629.3973
154.7533, 641.2011
155.2354, 651.6971
155.7175, 660.6255
156.1996, 668.5141
156.6817, 673.5433
157.1639, 674.6043
157.6460, 672.7460
158.1281, 670.1273
158.6102, 668.6017
159.0923, 665.4870
159.5744, 659.3629
160.0566, 649.1371
160.5387, 637.5623
161.0208, 625.1090
161.5029, 611.9103
161.9850, 598.3315
162.4671, 584.0674
162.9493, 569.7311
163.4314, 555.7493
163.9135, 542.4326
164.3956, 529.1744
164.8777, 514.8890
165.3598, 500.0546
165.8420, 486.7311
166.3241, 476.7192
166.8062, 468.2203
167.2883, 459.6457
167.7704, 450.3885
168.2525, 441.0582
168.7346, 431.6319
169.2168, 422.2026
169.6989, 413.4430
170.1810, 405.7633
170.6631, 398.9573
171.1452, 392.7755
171.6273, 387.6723
172.1095, 382.8112
172.5916, 377.2207
173.0737, 370.9926
173.5558, 365.2020
174.0379, 360.7995
174.5201, 357.3358
175.0022, 354.0135
175.4843, 350.6987
175.9664, 347.2659
176.4485, 343.5338
176.9306, 339.4774
177.4128, 335.5553
177.8949, 332.2700
178.3770, 329.4289
178.8591, 326.5309
179.3412, 323.0702
179.8233, 319.5297
180.3055, 316.8055
180.7876, 314.9117
181.2697, 313.1607
181.7518, 310.8171
182.2339, 308.0382
182.7160, 305.2413
183.1982, 302.4456
183.6803, 299.7970
184.1624, 297.7176
184.6445, 296.2652
185.1266, 295.0756
185.6087, 293.6513
186.0909, 292.0707
186.5730, 290.8267
187.0551, 290.4414
187.5372, 290.5884
188.0193, 290.0675
188.5014, 288.7678
188.9836, 287.2125
189.4657, 285.8193
189.9478, 284.6227
190.4299, 283.9373
190.9120, 284.2449
191.3941, 285.3084
191.8763, 285.8182
192.3584, 285.6761
192.8405, 285.1961
193.3226, 284.8106
193.8047, 284.5227
194.2868, 284.1391
194.7690, 283.3047
195.2511, 282.1101
195.7332, 281.8086
196.2153, 282.5574
196.6974, 283.9100
197.1795, 285.2054
197.6617, 286.4625
198.1438, 287.5661
198.6259, 288.3072
199.1080, 288.6851
199.5901, 289.5245
200.0722, 290.8838
200.5544, 292.6416
201.0365, 294.6281
201.5186, 296.8876
202.0007, 299.1360
202.4828, 301.2751
202.9649, 303.3089
203.4471, 305.1224
203.9292, 306.6918
204.4113, 308.0858
204.8934, 309.3365
205.3755, 310.3002
205.8576, 311.6285
206.3398, 313.7393
206.8219, 316.7667
207.3040, 319.6897
207.7861, 322.4985
208.2682, 325.1565
208.7503, 327.4849
209.2325, 329.3250
209.7146, 331.2758
210.1967, 333.7320
210.6788, 336.9024
211.1609, 339.4309
211.6430, 340.7958
212.1252, 341.9073
212.6073, 345.0536
213.0894, 351.0008
213.5715, 356.9396
214.0536, 361.4196
214.5357, 363.8564
215.0179, 367.0693
215.5000, 371.1801
215.9821, 376.0203
216.4642, 381.1594
216.9463, 386.3151
217.4284, 392.2780
217.9105, 400.0898
218.3927, 411.2566
218.8748, 418.8145
219.3569, 421.5483
219.8390, 421.3388
220.3211, 422.3889
220.8032, 425.2772
221.2854, 428.3537
221.7675, 431.0069
222.2496, 433.0996
222.7317, 435.0923
223.2138, 436.9139
223.6959, 438.6630
224.1781, 440.6207
224.6602, 442.8593
225.1423, 445.1542
225.6244, 447.3055
226.1065, 449.1353
226.5886, 451.4678
227.0708, 454.5585
227.5529, 458.0428
228.0350, 461.2376
228.5171, 464.3082
228.9992, 466.8734
229.4813, 468.8151
229.9635, 470.1505
230.4456, 470.7964
230.9277, 470.6081
231.4098, 469.8093
231.8919, 468.8061
232.3740, 467.6597
232.8562, 466.2308
233.3383, 464.4972
233.8204, 462.5157
234.3025, 460.0646
234.7846, 457.1875
235.2667, 453.8204
235.7489, 449.7841
236.2310, 444.4335
236.7131, 439.4977
237.1952, 435.7367
237.6773, 433.8643
238.1594, 430.6587
238.6416, 425.2681
239.1237, 419.0670
239.6058, 414.3261
240.0879, 411.6585
240.5700, 409.3687
241.0521, 406.7812
241.5343, 403.5785
242.0164, 401.6745
242.4985, 401.8207
242.9806, 402.7432
243.4627, 402.5058
243.9448, 400.3096
244.4270, 398.2905
244.9091, 397.0140
245.3912, 396.5473
245.8733, 396.4202
246.3554, 396.6143
246.8375, 397.1453
247.3197, 398.0879
247.8018, 399.6967
248.2839, 401.2497
248.7660, 402.5218
249.2481, 403.4601
249.7302, 404.5776
250.2124, 405.8189
250.6945, 407.3081
251.1766, 409.2389
251.6587, 411.7935
252.1408, 414.4743
252.6229, 417.3579
253.1051, 420.5369
253.5872, 422.7372
254.0693, 423.4727
254.5514, 423.8223
255.0335, 425.0356
255.5156, 427.8343
255.9978, 429.8859
256.4799, 430.6979
256.9620, 430.2706
257.4441, 429.3235
257.9262, 427.7918
258.4083, 425.8180
258.8904, 423.5670
259.3726, 421.0804
259.8547, 418.1435
260.3368, 414.6144
260.8189, 410.5305
261.3010, 406.6997
261.7831, 403.2837
262.2653, 399.8769
262.7474, 396.2186
263.2295, 392.2307
263.7116, 388.0787
264.1937, 383.4743
264.6758, 378.6871
265.1580, 375.0854
265.6401, 373.0250
266.1222, 371.5379
266.6043, 370.0581
267.0864, 368.6366
267.5685, 366.9290
268.0507, 364.5983
268.5328, 362.0177
269.0149, 360.6676
269.4970, 360.8912
269.9791, 361.5028
270.4612, 361.7180
270.9434, 361.3270
271.4255, 361.5651
271.9076, 362.6180
272.3897, 364.2744
272.8718, 365.9538
273.3539, 367.5503
273.8361, 369.4963
274.3182, 372.0568
274.8003, 375.2661
275.2824, 378.6854
275.7645, 382.2655
276.2466, 386.0485
276.7288, 390.1588
277.2109, 394.6164
277.6930, 399.2292
278.1751, 403.6731
278.6572, 407.9203
279.1393, 413.0293
279.6215, 419.1719
280.1036, 425.8548
280.5857, 432.0756
281.0678, 437.6616
281.5499, 444.2943
282.0320, 453.0185
282.5142, 463.6513
282.9963, 472.9536
283.4784, 480.5917
283.9605, 487.9337
284.4426, 496.5948
284.9247, 506.5853
285.4069, 517.3742
285.8890, 529.1874
286.3711, 541.6414
286.8532, 553.4114
287.3353, 564.4681
287.8174, 575.0421
288.2996, 585.2575
288.7817, 595.1453
289.2638, 604.5584
289.7459, 613.6379
290.2280, 622.1122
290.7101, 629.2551
291.1923, 635.0412
291.6744, 640.3637
292.1565, 646.4395
292.6386, 652.9288
293.1207, 658.0101
293.6028, 660.9872
294.0850, 662.7117
294.5671, 664.7070
295.0492, 666.9662
295.5313, 669.5023
296.0134, 672.6989
296.4955, 676.1894
296.9777, 678.9589
297.4598, 680.9020
297.9419, 681.8762
298.4240, 681.7669
298.9061, 680.5456
299.3882, 678.0045
299.8704, 674.7109
300.3525, 669.9218
300.8346, 661.8381
301.3167, 650.0491
301.7988, 636.1918
302.2809, 621.0938
302.7631, 605.1975
303.2452, 589.2969
303.7273, 573.7685
304.2094, 558.6020
304.6915, 544.0869
305.1736, 530.1089
305.6558, 516.6701
306.1379, 503.3547
306.6200, 490.5537
307.1021, 479.0541
307.5842, 469.5745
308.0663, 461.1982
308.5485, 452.7718
309.0306, 444.3500
309.5127, 436.7909
309.9948, 431.0634
310.4769, 426.4311
310.9590, 421.9617
311.4412, 416.8481
311.9233, 412.2206
312.4054, 408.9322
312.8875, 406.8315
313.3696, 405.2939
313.8517, 404.3989
314.3339, 403.7163
314.8160, 402.8513
315.2981, 401.5657
315.7802, 400.3390
316.2623, 399.1649
316.7444, 398.2145
317.2266, 397.9235
317.7087, 399.2792
318.1908, 400.8222
318.6729, 401.5844
319.1550, 401.1162
319.6371, 400.6806
320.1193, 400.6617
320.6014, 400.9495
321.0835, 401.3682
321.5656, 402.2820
322.0477, 402.9497
322.5298, 402.9071
323.0120, 401.9202
323.4941, 401.2718
323.9762, 401.7690
324.4583, 402.5252
324.9404, 402.5826
325.4225, 401.1676
325.9047, 399.6586
326.3868, 398.3549
326.8689, 397.2581
327.3510, 396.3417
327.8331, 395.8392
328.3152, 395.3900
328.7974, 394.7484
329.2795, 394.5934
329.7616, 393.4261
330.2437, 390.8568
330.7258, 387.0995
331.2079, 383.2209
331.6901, 379.0240
332.1722, 374.8928
332.6543, 370.9945
333.1364, 367.4249
333.6185, 363.9525
334.1006, 360.5530
334.5828, 357.2575
335.0649, 354.2418
335.5470, 351.5363
336.0291, 349.0070
336.5112, 346.7144
336.9933, 344.7679
337.4755, 342.3832
337.9576, 339.3707
338.4397, 336.1784
338.9218, 333.3333
339.4039, 330.8636
339.8860, 328.7541
340.3681, 327.1609
340.8503, 326.0134
341.3324, 324.5175
341.8145, 322.6114
342.2966, 320.4879
342.7787, 318.0653
343.2608, 315.3218
343.7430, 313.2504
344.2251, 312.3167
344.7072, 312.0075
345.1893, 310.6712
345.6714, 308.2019
346.1535, 305.8765
346.6357, 304.8185
347.1178, 304.7944
347.5999, 304.3833
348.0820, 303.3730
348.5641, 302.0415
349.0462, 300.6943
349.5284, 299.3524
350.0105, 298.1354
350.4926, 297.0392
350.9747, 296.1198
351.4568, 295.6442
351.9389, 295.6782
352.4211, 295.6374
352.9032, 294.7347
353.3853, 293.2836
353.8674, 292.0410
354.3495, 291.3711
354.8316, 291.0230
355.3138, 290.7348
355.7959, 290.5108
356.2780, 290.3821
356.7601, 290.4415
357.2422, 290.5874
357.7243, 290.6625
358.2065, 290.4742
358.6886, 290.4367
359.1707, 291.0259
359.6528, 292.0357
360.1349, 292.8443
360.6170, 292.8798
361.0992, 292.7726
361.5813, 292.9438
362.0634, 293.4575
362.5455, 294.2343
363.0276, 295.2938
363.5097, 296.5819
363.9919, 298.0192
364.4740, 300.0168
364.9561, 301.7625
365.4382, 302.7870
365.9203, 302.9981
366.4024, 303.4506
366.8846, 304.4413
367.3667, 305.7115
367.8488, 307.0521
368.3309, 308.1839
368.8130, 309.6772
369.2951, 311.8454
369.7773, 314.5721
370.2594, 316.9579
370.7415, 318.7839
371.2236, 320.4964
371.7057, 322.2901
372.1878, 324.0655
372.6700, 326.1279
373.1521, 328.4703
373.6342, 331.0862
374.1163, 334.0334
374.5984, 337.5970
375.0805, 340.8638
375.5627, 343.3710
376.0448, 345.0016
376.5269, 347.4911
377.0090, 351.1237
377.4911, 355.1451
377.9732, 358.7819
378.4554, 361.9392
378.9375, 365.1763
379.4196, 368.6407
379.9017, 372.2690
380.3838, 376.1570
380.8659, 380.3637
381.3481, 384.1315
381.8302, 386.3720
382.3123, 387.3931
382.7944, 389.6533
383.2765, 393.7813
383.7586, 398.3531
384.2408, 401.2081
384.7229, 402.5256
385.2050, 403.5580
385.6871, 404.9739
386.1692, 406.5036
386.6513, 407.6947
387.1335, 408.5230
387.6156, 409.0765
388.0977, 409.3577
388.5798, 409.4153
389.0619, 409.3551
389.5440, 409.3709
390.0262, 409.1093
390.5083, 408.0381
390.9904, 406.3072
391.4725, 404.6786
391.9546, 403.8631
392.4367, 403.1941
392.9189, 401.9882
393.4010, 399.8289
393.8831, 397.8779
394.3652, 396.9247
394.8473, 396.5372
395.3294, 395.9980
395.8116, 394.7758
396.2937, 393.6254
396.7758, 392.8905
397.2579, 392.6285
397.7400, 392.4243
398.2221, 392.2421
398.7043, 392.0626
399.1864, 391.8698
399.6685, 391.5873
400.1506, 391.3756
400.6327, 391.2114
401.1148, 391.1155
401.5970, 391.1726
402.0791, 391.1270
402.5612, 391.5276
403.0433, 392.7448
403.5254, 395.3145
404.0075, 397.2189
404.4897, 398.3727
404.9718, 398.9516
405.4539, 399.1520
405.9360, 398.8710
406.4181, 398.5197
406.9002, 397.9906
407.3824, 397.4058
407.8645, 398.1191
408.3466, 400.4024
408.8287, 402.9380
409.3108, 404.4044
409.7929, 404.8573
410.2751, 405.8777
410.7572, 407.9315
411.2393, 410.2856
411.7214, 411.3185
412.2035, 411.1744
412.6856, 411.1914
413.1678, 412.4822
413.6499, 414.4213
414.1320, 415.6435
414.6141, 416.0693
415.0962, 416.1252
415.5783, 416.1653
416.0605, 416.1412
416.5426, 415.9638
417.0247, 415.7115
417.5068, 415.1999
417.9889, 414.2755
418.4710, 412.9596
418.9532, 411.3075
419.4353, 409.1343
419.9174, 406.7682
420.3995, 404.5643
420.8816, 402.7540
421.3637, 400.5721
421.8459, 397.3247
422.3280, 393.6006
422.8101, 390.2526
423.2922, 387.8475
423.7743, 385.5356
424.2564, 382.9986
424.7386, 380.2022
425.2207, 377.7102
425.7028, 375.5195
426.1849, 373.7174
426.6670, 372.3158
427.1491, 370.6396
427.6313, 370.5468
428.1134, 373.1891
428.5955, 377.2813
429.0776, 379.1704
429.5597, 377.8605
430.0418, 376.3716
430.5240, 375.8777
431.0061, 376.4595
431.4882, 376.7990
431.9703, 376.6063
432.4524, 376.8048
432.9345, 378.7819
433.4167, 382.5821
433.8988, 385.8627
434.3809, 387.6458
434.8630, 388.8709
435.3451, 392.0479
435.8272, 397.1212
436.3094, 402.4737
436.7915, 406.7970
437.2736, 410.6324
437.7557, 415.1200
438.2378, 420.3528
438.7199, 426.4223
439.2020, 434.2794
439.6841, 443.0107
440.1663, 450.7428
440.6484, 455.8218
441.1305, 460.2486
441.6126, 465.7242
442.0947, 472.0768
442.5768, 478.1183
443.0590, 483.6615
443.5411, 488.3789
444.0232, 491.9380
444.5053, 493.9618
444.9874, 495.5201
445.4695, 497.2951
445.9517, 498.7381
446.4338, 498.9806
446.9159, 497.5537
447.3980, 495.2039
447.8801, 491.9463
448.3622, 487.7212
448.8444, 483.4401
449.3265, 479.1302
449.8086, 474.7298
450.2907, 470.1201
450.7728, 464.8102
451.2549, 460.3720
451.7371, 457.2021
452.2192, 454.7997
452.7013, 452.0068
453.1834, 448.6496
453.6655, 445.6514
454.1476, 443.5363
454.6298, 442.2165
455.1119, 440.4887
455.5940, 438.2546
456.0761, 436.1971
456.5582, 435.2501
457.0403, 435.1816
457.5225, 434.7242
458.0046, 433.5036
458.4867, 432.0172
458.9688, 430.9310
459.4509, 430.2088
459.9330, 429.7557
460.4152, 429.7298
460.8973, 429.8297
461.3794, 429.5951
461.8615, 428.9895
462.3436, 428.5768
462.8257, 429.0797
463.3079, 429.8392
463.7900, 430.1068
464.2721, 429.3391
464.7542, 428.4471
465.2363, 427.7655
465.7184, 427.2389
466.2006, 426.7064
466.6827, 425.9640
467.1648, 425.3551
467.6469, 425.2060
468.1290, 425.8721
468.6111, 425.6253
469.0933, 423.5337
469.5754, 421.1269
470.0575, 419.8102
470.5396, 420.4127
471.0217, 420.4118
471.5038, 419.3088
471.9860, 417.4526
472.4681, 415.9672
472.9502, 414.8507
473.4323, 414.1072
473.9144, 413.9072
474.3965, 414.2198
474.8787, 414.1190
475.3608, 413.5264
475.8429, 412.8730
476.3250, 412.5577
476.8071, 412.5775
477.2892, 412.9591
477.7714, 413.7977
478.2535, 414.8586
478.7356, 415.6493
479.2177, 416.3081
479.6998, 417.4035
480.1819, 419.3094
480.6641, 421.8155
481.1462, 424.6374
481.6283, 427.7509
482.1104, 431.4392
482.5925, 436.1611
483.0746, 441.4253
483.5568, 446.7455
484.0389, 451.0486
484.5210, 456.3439
485.0031, 463.7104
485.4852, 472.5397
485.9673, 481.1782
486.4495, 488.3347
486.9316, 496.1388
487.4137, 505.2454
487.8958, 515.7679
488.3779, 527.2027
488.8600, 539.9241
489.3422, 553.2443
489.8243, 566.7198
490.3064, 580.0928
490.7885, 593.9456
491.2706, 608.1494
491.7527, 623.0092
492.2349, 639.9802
492.7170, 659.0436
493.1991, 678.7616
493.6812, 697.7561
494.1633, 716.5367
494.6454, 737.9646
495.1276, 761.9395
495.6097, 787.1486
496.0918, 812.7874
496.5739, 838.6832
497.0560, 863.2601
497.5381, 886.1926
498.0203, 908.6882
498.5024, 933.5552
498.9845, 958.9519
499.4666, 981.4415
499.9487, 1000.527
500.4308, 1015.065
500.9130, 1024.398
501.3951, 1028.487
501.8772, 1027.833
502.3593, 1022.522
502.8414, 1012.540
503.3235, 997.7214
503.8057, 976.4940
504.2878, 952.6212
504.7699, 925.4739
505.2520, 896.0847
505.7341, 865.8732
506.2162, 833.7562
506.6984, 803.0591
507.1805, 774.9437
507.6626, 749.2362
508.1447, 724.2640
508.6268, 699.8633
509.1089, 676.7908
509.5911, 655.4393
510.0732, 635.8303
510.5553, 618.4607
511.0374, 603.6183
511.5195, 590.0483
512.0016, 576.1327
512.4838, 562.0939
512.9659, 549.0187
513.4480, 537.2529
513.9301, 526.3271
514.4122, 515.7027
514.8943, 505.4126
515.3765, 495.5873
515.8586, 486.3275
516.3407, 477.5054
516.8228, 469.0973
517.3049, 461.0215
517.7870, 453.4584
518.2692, 446.2320
518.7513, 439.7266
519.2334, 434.3464
519.7155, 431.5768
520.1976, 428.1922
520.6797, 423.2725
521.1619, 417.5505
521.6440, 413.2022
522.1261, 410.8195
522.6082, 408.8353
523.0903, 406.6630
523.5724, 404.2902
524.0546, 402.6485
524.5367, 401.9333
525.0188, 401.3882
525.5009, 400.6237
525.9830, 399.5683
526.4651, 397.1730
526.9473, 392.8671
527.4294, 388.3046
527.9115, 386.0900
528.3936, 385.7228
528.8757, 385.5179
529.3578, 384.4507
529.8400, 383.3354
530.3221, 383.2018
530.8042, 383.8997
531.2863, 384.4702
531.7684, 383.9998
532.2505, 383.4299
532.7327, 383.5755
533.2148, 384.8432
533.6969, 385.8377
534.1790, 386.0821
534.6611, 385.9057
535.1432, 385.6680
535.6254, 384.9560
536.1075, 384.7765
536.5896, 385.4470
537.0717, 386.7246
537.5538, 387.8017
538.0359, 388.8288
538.5181, 389.3203
539.0002, 388.7718
539.4823, 387.2281
539.9644, 386.8587
540.4465, 387.8135
540.9286, 389.1896
541.4108, 390.5663
541.8929, 391.7524
542.3750, 391.6720
542.8571, 389.8537
543.3392, 387.5732
543.8214, 386.2262
544.3035, 385.6015
544.7856, 385.1328
545.2677, 384.7599
545.7498, 384.2955
546.2319, 383.6092
546.7141, 382.7106
547.1962, 381.6693
547.6783, 380.4668
548.1604, 379.1700
548.6425, 377.7516
549.1246, 376.1175
549.6068, 374.6712
550.0889, 373.4530
550.5710, 372.4312
551.0531, 371.5882
551.5352, 370.9678
552.0173, 370.4410
552.4995, 370.0351
552.9816, 369.6936
553.4637, 369.2582
553.9458, 368.7076
554.4279, 368.2213
554.9100, 367.8925
555.3922, 367.6904
555.8743, 367.4837
556.3564, 367.2755
556.8385, 367.1133
557.3206, 366.9464
557.8027, 366.8761
558.2849, 367.1536
558.7670, 367.8992
559.2491, 368.5903
559.7312, 368.7497
560.2133, 368.6255
560.6954, 368.5535
561.1776, 368.3530
561.6597, 368.5289
562.1418, 369.3690
562.6239, 370.7487
563.1060, 372.1941
563.5881, 373.5711
564.0703, 375.0833
564.5524, 376.7646
565.0345, 378.5840
565.5166, 380.8525
565.9987, 383.8646
566.4808, 386.8338
566.9630, 388.8077
567.4451, 389.5912
567.9272, 392.2846
568.4093, 397.6704
568.8914, 403.6255
569.3735, 406.9355
569.8557, 408.0778
570.3378, 409.4517
570.8199, 411.7245
571.3020, 414.8064
571.7841, 418.8623
572.2662, 423.6828
572.7484, 428.4771
573.2305, 432.4620
573.7126, 436.5705
574.1947, 441.7890
574.6768, 448.2206
575.1589, 454.1676
575.6411, 457.8228
576.1232, 461.5072
576.6053, 466.8375
577.0874, 475.0851
577.5695, 483.0961
578.0516, 490.8676
578.5338, 498.3123
579.0159, 505.4677
579.4980, 512.2988
579.9801, 518.5791
580.4622, 524.1843
580.9443, 529.2567
581.4265, 534.3206
581.9086, 539.3757
582.3907, 543.3005
582.8728, 545.5372
583.3549, 546.1945
583.8370, 545.5042
584.3192, 543.4803
584.8013, 540.3566
