##NAMES=Petarasite
##RRUFFID=R060223
##IDEAL CHEMISTRY=Na_5_Zr^4+^_2_Si_6_O_18_(Cl,OH)&#183;2H_2_O
##LOCALITY=Demix Quarry, Mont Saint-Hilaire, Rouville County, Quebec, Canada
##OWNER=RRUFF
##SOURCE=Royal Ontario Museum
##DESCRIPTION=Tan colored cleavage fragment associated with catapleiite
##STATUS=The identification of this mineral is confirmed by single-crystal X-ray diffraction and chemical analysis.
##URL=rruff.info/R060223
##MEASURED CHEMISTRY=(Na_4.82_[box]_0.09_Ca_0.06_Mn_0.02_)_Σ=5_Zr_2.00_Si_6.00_O_18_(Cl_0.63_(OH)_0.37_)_Σ=1_·2H_2_O
91.82715, 230.4446
92.30927, 230.8778
92.79138, 230.9166
93.27350, 228.3130
93.75562, 225.0374
94.23773, 222.9669
94.71985, 222.1600
95.20197, 220.4533
95.68408, 216.9014
96.16620, 212.5391
96.64832, 208.3232
97.13043, 204.3454
97.61255, 200.7811
98.09467, 197.8955
98.57678, 195.8079
99.05890, 193.5715
99.54102, 191.5593
100.0231, 189.7672
100.5052, 188.1282
100.9874, 186.5752
101.4695, 185.0775
101.9516, 183.6355
102.4337, 181.7718
102.9158, 180.4143
103.3979, 179.9220
103.8801, 180.0288
104.3622, 180.2541
104.8443, 180.2171
105.3264, 179.8760
105.8085, 179.6749
106.2906, 179.5845
106.7728, 179.5652
107.2549, 179.5383
107.7370, 179.5115
108.2191, 179.6376
108.7012, 180.1217
109.1833, 180.9813
109.6655, 181.9080
110.1476, 182.9018
110.6297, 183.9256
111.1118, 184.9173
111.5939, 185.8250
112.0760, 186.7617
112.5582, 187.8014
113.0403, 188.9303
113.5224, 190.2343
114.0045, 191.8536
114.4866, 193.7736
114.9688, 195.5697
115.4509, 197.1430
115.9330, 198.5618
116.4151, 199.8331
116.8972, 200.9575
117.3793, 202.0449
117.8615, 203.3290
118.3436, 205.0850
118.8257, 206.3084
119.3078, 206.4383
119.7899, 206.3341
120.2720, 206.7551
120.7542, 207.9948
121.2363, 209.6692
121.7184, 210.6892
122.2005, 210.3304
122.6826, 210.0133
123.1647, 210.0528
123.6468, 210.1516
124.1290, 209.8709
124.6111, 208.9401
125.0932, 207.4175
125.5753, 205.7985
126.0574, 203.6681
126.5395, 201.8519
127.0217, 200.9589
127.5038, 200.8129
127.9859, 200.5231
128.4680, 199.3789
128.9501, 197.4956
129.4323, 195.8207
129.9144, 194.2842
130.3965, 193.0146
130.8786, 192.2469
131.3607, 192.0852
131.8428, 191.9789
132.3250, 191.4466
132.8071, 190.6691
133.2892, 189.9641
133.7713, 189.5369
134.2534, 189.2982
134.7355, 188.8910
135.2177, 188.0522
135.6998, 187.4234
136.1819, 187.4103
136.6640, 187.8481
137.1461, 188.3250
137.6282, 188.5177
138.1104, 188.4001
138.5925, 188.2813
139.0746, 188.0430
139.5567, 187.9028
140.0388, 187.8867
140.5209, 188.0322
141.0031, 188.4169
141.4852, 189.1780
141.9673, 190.5648
142.4494, 191.6822
142.9315, 192.1458
143.4136, 192.6470
143.8958, 193.7081
144.3779, 195.4317
144.8600, 197.4867
145.3421, 199.3433
145.8242, 200.8318
146.3063, 202.4358
146.7885, 204.2137
147.2706, 206.1096
147.7527, 208.0260
148.2348, 209.9121
148.7169, 211.8816
149.1990, 214.2481
149.6812, 217.0669
150.1633, 219.9524
150.6454, 223.0165
151.1275, 226.0913
151.6096, 228.5467
152.0917, 229.9585
152.5739, 230.7790
153.0560, 231.8805
153.5381, 233.4034
154.0202, 234.7466
154.5023, 235.4546
154.9844, 235.5195
155.4665, 235.1440
155.9487, 234.6197
156.4308, 233.5052
156.9129, 231.2946
157.3950, 227.7885
157.8771, 223.5208
158.3592, 219.2403
158.8414, 215.0640
159.3235, 210.5834
159.8056, 205.4987
160.2877, 200.2139
160.7698, 195.0017
161.2519, 189.9907
161.7341, 185.1836
162.2162, 180.6472
162.6983, 176.5802
163.1804, 172.5258
163.6625, 168.3253
164.1446, 164.1160
164.6268, 160.1004
165.1089, 156.3731
165.5910, 152.9113
166.0731, 149.4760
166.5552, 145.8787
167.0373, 142.5053
167.5195, 139.4878
168.0016, 136.7452
168.4837, 134.1137
168.9658, 131.5061
169.4479, 128.9035
169.9300, 126.3217
170.4122, 123.4968
170.8943, 120.9296
171.3764, 118.9398
171.8585, 117.4543
172.3406, 116.1060
172.8227, 114.6643
173.3049, 113.1421
173.7870, 111.6468
174.2691, 110.1326
174.7512, 108.6668
175.2333, 107.2930
175.7154, 106.0087
176.1976, 104.8375
176.6797, 103.8002
177.1618, 102.8960
177.6439, 102.1667
178.1260, 101.8650
178.6081, 101.6525
179.0903, 100.8375
179.5724, 99.08906
180.0545, 97.74385
180.5366, 98.35230
181.0187, 99.84043
181.5008, 100.4344
181.9830, 98.82976
182.4651, 95.81177
182.9472, 93.82856
183.4293, 93.34221
183.9114, 93.29111
184.3935, 93.32825
184.8757, 93.39455
185.3578, 93.39088
185.8399, 93.22622
186.3220, 92.92249
186.8041, 92.71569
187.2862, 92.63471
187.7684, 92.63598
188.2505, 92.81210
188.7326, 93.06203
189.2147, 93.17244
189.6968, 92.91875
190.1789, 92.27103
190.6611, 92.07664
191.1432, 92.71042
191.6253, 93.42898
192.1074, 94.03952
192.5895, 94.53572
193.0716, 94.97880
193.5538, 95.40470
194.0359, 95.79692
194.5180, 96.33805
195.0001, 97.18262
195.4822, 98.00111
195.9643, 98.35941
196.4465, 98.43137
196.9286, 99.01526
197.4107, 101.0471
197.8928, 104.8453
198.3749, 107.0372
198.8570, 106.5635
199.3392, 105.4662
199.8213, 104.8571
200.3034, 104.8815
200.7855, 105.4223
201.2676, 106.4681
201.7497, 108.0646
202.2319, 109.6578
202.7140, 111.4667
203.1961, 113.1295
203.6782, 114.1606
204.1603, 114.4848
204.6424, 114.7796
205.1246, 115.6120
205.6067, 116.9309
206.0888, 118.5550
206.5709, 120.8127
207.0530, 123.2212
207.5351, 125.0507
208.0173, 126.1463
208.4994, 127.0976
208.9815, 128.2149
209.4636, 129.5211
209.9457, 131.1493
210.4278, 133.6238
210.9100, 136.4028
211.3921, 138.0608
211.8742, 137.8799
212.3563, 138.0709
212.8384, 140.2226
213.3205, 143.5981
213.8027, 146.9226
214.2848, 149.5157
214.7669, 151.5593
215.2490, 153.6727
215.7311, 155.9818
216.2132, 158.1630
216.6954, 160.1640
217.1775, 161.9601
217.6596, 163.4957
218.1417, 164.6602
218.6238, 165.5378
219.1059, 166.6371
219.5881, 168.2795
220.0702, 169.7380
220.5523, 170.6541
221.0344, 171.2672
221.5165, 171.9841
221.9986, 173.0917
222.4808, 174.5361
222.9629, 175.8084
223.4450, 176.7188
223.9271, 177.6331
224.4092, 178.6001
224.8913, 179.6298
225.3735, 180.8187
225.8556, 182.3168
226.3377, 184.0094
226.8198, 184.6261
227.3019, 183.1008
227.7840, 181.5697
228.2662, 180.4108
228.7483, 179.5642
229.2304, 178.8867
229.7125, 178.2989
230.1946, 177.7810
230.6767, 177.1341
231.1589, 176.7630
231.6410, 175.8456
232.1231, 173.8804
232.6052, 171.2211
233.0873, 168.5310
233.5694, 166.2082
234.0516, 164.1964
234.5337, 162.0961
235.0158, 159.6987
235.4979, 157.4427
235.9800, 155.4921
236.4621, 153.7847
236.9443, 152.1667
237.4264, 150.5644
237.9085, 148.9827
238.3906, 147.4362
238.8727, 145.8784
239.3548, 144.4034
239.8370, 143.0406
240.3191, 141.7880
240.8012, 140.6256
241.2833, 139.5062
241.7654, 138.5236
242.2475, 137.9272
242.7297, 137.8016
243.2118, 137.8380
243.6939, 138.0431
244.1760, 138.3322
244.6581, 138.4185
245.1402, 138.1049
245.6224, 137.6159
246.1045, 137.4024
246.5866, 137.5168
247.0687, 137.7160
247.5508, 137.8868
248.0329, 138.0439
248.5151, 138.2466
248.9972, 138.5276
249.4793, 138.8515
249.9614, 139.1591
250.4435, 139.4464
250.9256, 139.7470
251.4078, 140.0942
251.8899, 140.4751
252.3720, 140.9214
252.8541, 141.7291
253.3362, 142.1898
253.8183, 141.4065
254.3005, 139.3918
254.7826, 137.4874
255.2647, 136.6896
255.7468, 136.7743
256.2289, 136.6250
256.7110, 136.1031
257.1931, 135.2018
257.6753, 133.7978
258.1574, 131.9849
258.6395, 130.3605
259.1216, 129.4196
259.6037, 129.0398
260.0858, 128.5467
260.5680, 127.9521
261.0501, 127.1208
261.5322, 125.8057
262.0143, 124.1818
262.4964, 122.7753
262.9785, 122.0864
263.4607, 121.9689
263.9428, 121.4913
264.4249, 120.2855
264.9070, 119.2579
265.3891, 118.8060
265.8712, 118.8203
266.3534, 119.0933
266.8355, 119.5793
267.3176, 120.2180
267.7997, 120.7285
268.2818, 120.9130
268.7639, 121.2874
269.2461, 122.0533
269.7282, 123.0919
270.2103, 124.2240
270.6924, 125.3417
271.1745, 126.5036
271.6566, 127.9017
272.1388, 129.6355
272.6209, 131.4435
273.1030, 133.3284
273.5851, 135.2127
274.0672, 136.9118
274.5493, 138.3129
275.0315, 139.6712
275.5136, 141.6518
275.9957, 144.6476
276.4778, 147.5598
276.9599, 150.1700
277.4420, 152.6317
277.9242, 155.0192
278.4063, 157.3747
278.8884, 159.8140
279.3705, 162.6067
279.8526, 165.9030
280.3347, 169.2289
280.8169, 172.5790
281.2990, 175.9046
281.7811, 179.1296
282.2632, 182.2476
282.7453, 185.3397
283.2274, 188.4788
283.7096, 191.5289
284.1917, 195.0001
284.6738, 199.3882
285.1559, 203.7732
285.6380, 207.8470
286.1201, 211.4325
286.6023, 214.3021
287.0844, 216.0989
287.5665, 216.5210
288.0486, 216.9873
288.5307, 217.7033
289.0128, 218.2760
289.4950, 218.5345
289.9771, 218.4782
290.4592, 218.1754
290.9413, 217.6528
291.4234, 216.8844
291.9055, 216.2514
292.3877, 216.0544
292.8698, 215.6904
293.3519, 214.9223
293.8340, 213.8292
294.3161, 212.6143
294.7982, 211.4268
295.2804, 210.2485
295.7625, 208.8999
296.2446, 207.3624
296.7267, 205.6557
297.2088, 204.0521
297.6909, 202.2277
298.1731, 199.7115
298.6552, 196.2486
299.1373, 191.9732
299.6194, 187.4020
300.1015, 182.5363
300.5836, 177.3418
301.0658, 171.5912
301.5479, 165.6500
302.0300, 159.7839
302.5121, 154.1293
302.9942, 148.7987
303.4763, 143.9472
303.9585, 139.6945
304.4406, 135.8837
304.9227, 132.7016
305.4048, 129.8085
305.8869, 126.8449
306.3690, 123.7697
306.8512, 120.8847
307.3333, 118.6498
307.8154, 117.3933
308.2975, 115.9530
308.7796, 114.0558
309.2617, 112.2150
309.7439, 110.7189
310.2260, 109.5911
310.7081, 108.7253
311.1902, 108.0354
311.6723, 107.5285
312.1544, 107.1211
312.6366, 106.8348
313.1187, 106.6077
313.6008, 106.4050
314.0829, 106.2399
314.5650, 106.1472
315.0471, 106.1524
315.5293, 106.2535
316.0114, 106.4304
316.4935, 106.7501
316.9756, 107.0724
317.4577, 107.5359
317.9398, 107.9475
318.4220, 107.9273
318.9041, 107.2592
319.3862, 106.2518
319.8683, 105.8957
320.3504, 107.1667
320.8326, 107.8782
321.3147, 107.6520
321.7968, 106.9613
322.2789, 106.1880
322.7610, 105.4826
323.2431, 104.8742
323.7253, 104.4424
324.2074, 104.3977
324.6895, 104.1037
325.1716, 103.5311
325.6537, 102.7704
326.1358, 101.8192
326.6180, 100.7135
327.1001, 99.56004
327.5822, 98.46285
328.0643, 97.42007
328.5464, 96.44059
329.0285, 95.74109
329.5107, 94.89176
329.9928, 93.57873
330.4749, 91.94434
330.9570, 90.41196
331.4391, 89.33583
331.9212, 88.65946
332.4034, 87.53929
332.8855, 85.31911
333.3676, 83.34038
333.8497, 81.95463
334.3318, 80.94633
334.8139, 80.00446
335.2961, 78.98067
335.7782, 77.92190
336.2603, 76.97407
336.7424, 75.93869
337.2245, 75.35622
337.7066, 75.77334
338.1888, 76.33003
338.6709, 76.20992
339.1530, 75.21628
339.6351, 73.82460
340.1172, 72.74684
340.5993, 72.14746
341.0815, 71.45438
341.5636, 70.60593
342.0457, 69.73240
342.5278, 68.82694
343.0099, 67.94180
343.4920, 67.21930
343.9742, 66.83291
344.4563, 66.80874
344.9384, 66.63202
345.4205, 66.07674
345.9026, 65.58303
346.3847, 65.28579
346.8669, 65.13176
347.3490, 65.00961
347.8311, 64.85060
348.3132, 64.67754
348.7953, 64.58724
349.2774, 64.62334
349.7596, 64.67988
350.2417, 64.78356
350.7238, 64.87295
351.2059, 64.87384
351.6880, 64.76237
352.1701, 64.60099
352.6523, 64.46626
353.1344, 64.31154
353.6165, 64.33326
354.0986, 64.83332
354.5807, 65.29449
355.0628, 65.28191
355.5450, 64.84428
356.0271, 64.48659
356.5092, 64.76665
356.9913, 65.70901
357.4734, 66.51389
357.9555, 67.21112
358.4377, 67.70887
358.9198, 67.87762
359.4019, 67.83346
359.8840, 67.79457
360.3661, 67.86645
360.8482, 68.04717
361.3304, 68.32527
361.8125, 68.67627
362.2946, 69.18647
362.7767, 70.00410
363.2588, 70.92923
363.7409, 71.74014
364.2231, 72.35946
364.7052, 72.94613
365.1873, 73.74717
365.6694, 74.80151
366.1515, 75.73374
366.6336, 76.34856
367.1158, 76.89803
367.5979, 77.51553
368.0800, 78.22106
368.5621, 79.06712
369.0442, 80.22489
369.5263, 81.59367
370.0085, 82.64513
370.4906, 83.19736
370.9727, 83.68205
371.4548, 84.40527
371.9369, 85.28354
372.4190, 86.14097
372.9012, 86.83139
373.3833, 87.51195
373.8654, 88.44032
374.3475, 89.63664
374.8296, 90.88168
375.3117, 92.08501
375.7939, 93.26048
376.2760, 94.44709
376.7581, 95.68037
377.2402, 96.84567
377.7223, 97.80422
378.2044, 98.60853
378.6866, 99.51965
379.1687, 100.6998
379.6508, 101.8634
380.1329, 102.6082
380.6150, 102.9506
381.0971, 103.2869
381.5793, 103.7344
382.0614, 104.2543
382.5435, 104.8631
383.0256, 105.5772
383.5077, 106.1151
383.9898, 106.1549
384.4720, 105.7801
384.9541, 105.6737
385.4362, 106.3683
385.9183, 106.8711
386.4004, 106.4032
386.8825, 105.1993
387.3647, 104.0633
387.8468, 103.3784
388.3289, 102.9917
388.8110, 102.5518
389.2931, 102.1628
389.7752, 101.5237
390.2574, 100.3319
390.7395, 98.96247
391.2216, 97.87205
391.7037, 97.16051
392.1858, 96.60976
392.6679, 95.94630
393.1501, 95.08926
393.6322, 94.62432
394.1143, 94.87016
394.5964, 95.18116
395.0785, 95.23133
395.5606, 95.03953
396.0428, 94.75805
396.5249, 94.48605
397.0070, 94.03976
397.4891, 93.77023
397.9712, 93.01289
398.4533, 92.32552
398.9355, 91.71024
399.4176, 91.20251
399.8997, 90.81608
400.3818, 90.56206
400.8639, 90.47633
401.3460, 90.66254
401.8282, 91.34068
402.3103, 91.66584
402.7924, 91.49177
403.2745, 91.15103
403.7566, 90.72398
404.2387, 90.26686
404.7209, 89.86470
405.2030, 89.59675
405.6851, 89.43800
406.1672, 89.19984
406.6493, 88.75619
407.1314, 88.42153
407.6136, 88.30061
408.0957, 88.29977
408.5778, 88.32805
409.0599, 88.35397
409.5420, 88.37488
410.0241, 88.39614
410.5063, 88.42738
410.9884, 88.40634
411.4705, 88.26308
411.9526, 88.11520
412.4347, 87.97360
412.9168, 87.87007
413.3990, 87.91183
413.8811, 88.32042
414.3632, 88.94762
414.8453, 89.19909
415.3274, 88.94233
415.8095, 88.63540
416.2917, 88.54939
416.7738, 88.55679
417.2559, 88.46072
417.7380, 88.12576
418.2201, 87.86382
418.7022, 88.14507
419.1844, 88.88577
419.6665, 89.17488
420.1486, 88.36446
420.6307, 87.50800
421.1128, 88.15108
421.5949, 90.28156
422.0771, 92.05894
422.5592, 92.53960
423.0413, 92.41135
423.5234, 92.74521
424.0055, 93.65591
424.4876, 94.21671
424.9698, 93.51245
425.4519, 91.81068
425.9340, 90.95299
426.4161, 91.49014
426.8982, 92.25594
427.3803, 92.69424
427.8625, 92.98817
428.3446, 93.55843
428.8267, 94.58120
429.3088, 95.81548
429.7909, 96.84338
430.2730, 97.51681
430.7552, 98.32076
431.2373, 99.13224
431.7194, 100.1667
432.2015, 101.7820
432.6836, 103.8411
433.1657, 105.7122
433.6479, 106.8030
434.1300, 107.2216
434.6121, 108.4691
435.0942, 111.3375
435.5763, 114.1530
436.0584, 116.6414
436.5406, 118.9434
437.0227, 121.2018
437.5048, 123.4713
437.9869, 125.8310
438.4690, 128.4790
438.9511, 131.6194
439.4333, 134.3737
439.9154, 136.5998
440.3975, 138.5653
440.8796, 140.4826
441.3617, 142.2393
441.8438, 143.4904
442.3260, 143.8957
442.8081, 143.7035
443.2902, 143.7405
443.7723, 144.1303
444.2544, 144.4400
444.7365, 144.9726
445.2187, 145.1166
445.7008, 144.1698
446.1829, 141.9659
446.6650, 139.2124
447.1471, 136.3072
447.6292, 133.3230
448.1114, 130.6066
448.5935, 128.1714
449.0756, 126.1120
449.5577, 124.7698
450.0398, 123.9045
450.5219, 122.7858
451.0041, 120.9776
451.4862, 119.0121
451.9683, 117.3895
452.4504, 116.0791
452.9325, 114.8913
453.4146, 113.7582
453.8968, 112.6797
454.3789, 111.6381
454.8610, 110.5845
455.3431, 109.7048
455.8252, 109.0513
456.3073, 108.5886
456.7895, 108.3924
457.2716, 108.4259
457.7537, 108.3313
458.2358, 107.7469
458.7179, 106.6715
459.2000, 105.9485
459.6822, 105.8327
460.1643, 105.7132
460.6464, 105.3872
461.1285, 104.9657
461.6106, 104.6398
462.0927, 104.4763
462.5748, 104.3496
463.0569, 104.0391
463.5391, 103.4643
464.0212, 102.9259
464.5033, 102.5321
464.9854, 102.0730
465.4675, 101.3350
465.9496, 100.4412
466.4318, 99.71664
466.9139, 99.40928
467.3960, 99.36883
467.8781, 99.08768
468.3602, 98.42018
468.8423, 97.89148
469.3245, 97.91241
469.8066, 97.96852
470.2887, 97.58759
470.7708, 96.71125
471.2529, 95.79467
471.7350, 95.15615
472.2172, 94.75962
472.6993, 94.51099
473.1814, 94.45029
473.6635, 94.39655
474.1456, 94.19467
474.6277, 93.90543
475.1099, 93.66714
475.5920, 93.53826
476.0741, 93.41778
476.5562, 93.11820
477.0383, 92.76014
477.5204, 92.74297
478.0026, 93.23976
478.4847, 93.94853
478.9668, 94.37701
479.4489, 94.37206
479.9310, 94.91280
480.4131, 96.30838
480.8953, 98.04838
481.3774, 99.94399
481.8595, 101.8948
482.3416, 103.6872
482.8237, 105.1842
483.3058, 106.4989
483.7880, 108.0251
484.2701, 109.7833
484.7522, 111.7509
485.2343, 114.1830
485.7164, 116.6389
486.1985, 118.6065
486.6807, 120.1652
487.1628, 121.9532
487.6449, 124.6316
488.1270, 128.1319
488.6091, 131.4260
489.0912, 134.2724
489.5734, 137.3183
490.0555, 140.7520
490.5376, 144.4688
491.0197, 148.3368
491.5018, 152.3116
491.9839, 156.4759
492.4661, 160.8676
492.9482, 165.5049
493.4303, 170.3967
493.9124, 175.5340
494.3945, 180.9400
494.8766, 187.0280
495.3588, 193.4331
495.8409, 199.0119
496.3230, 203.0751
496.8051, 206.6136
497.2872, 210.6633
497.7693, 214.9228
498.2515, 218.4001
498.7336, 220.8421
499.2157, 221.9600
499.6978, 221.1309
500.1799, 217.9450
500.6620, 214.2915
501.1442, 210.3889
501.6263, 205.9646
502.1084, 200.6835
502.5905, 194.6877
503.0726, 188.3105
503.5547, 181.7142
504.0369, 175.0046
504.5190, 168.5110
505.0011, 162.2135
505.4832, 156.1524
505.9653, 150.3797
506.4474, 144.7538
506.9296, 138.9500
507.4117, 133.1021
507.8938, 127.8381
508.3759, 123.7965
508.8580, 120.7636
509.3401, 117.6687
509.8223, 114.5247
510.3044, 111.2684
510.7865, 107.6758
511.2686, 104.0649
511.7507, 100.7172
512.2328, 97.67440
512.7150, 94.93443
513.1971, 92.67033
513.6792, 90.69965
514.1613, 88.38160
514.6434, 85.54948
515.1255, 82.78911
515.6077, 80.50565
516.0898, 78.67143
516.5719, 77.06216
517.0540, 75.78101
517.5361, 74.60068
518.0182, 73.44247
518.5004, 72.31129
518.9825, 71.19194
519.4646, 70.07792
519.9467, 69.06157
520.4288, 68.27542
520.9109, 67.77413
521.3931, 67.12634
521.8752, 66.08675
522.3573, 65.18345
522.8394, 64.68790
523.3215, 64.42289
523.8036, 64.13686
524.2858, 63.72890
524.7679, 63.22168
525.2500, 62.56260
525.7321, 61.62750
526.2142, 61.17995
526.6964, 61.63157
527.1785, 62.20626
527.6606, 62.69935
528.1427, 63.02589
528.6248, 62.97641
529.1069, 62.24624
529.5891, 61.47494
530.0712, 61.73916
530.5533, 62.95671
531.0354, 63.67472
531.5175, 63.34168
531.9996, 62.60353
532.4818, 62.20316
532.9639, 62.11242
533.4460, 62.02059
533.9281, 61.78742
534.4102, 61.59635
534.8923, 61.68369
535.3745, 61.95037
535.8566, 62.04954
536.3387, 61.80894
536.8208, 61.36753
537.3029, 61.00507
537.7850, 60.71700
538.2672, 60.52592
538.7493, 60.46761
539.2314, 60.46648
539.7135, 60.57966
540.1956, 60.71347
540.6777, 60.66488
541.1599, 60.30687
541.6420, 59.71237
542.1241, 59.02053
542.6062, 58.14229
543.0883, 57.44357
543.5704, 57.08931
544.0526, 56.86539
544.5347, 56.79475
545.0168, 56.78501
545.4989, 56.47192
545.9810, 55.33246
546.4631, 53.96050
546.9453, 53.38576
547.4274, 53.58476
547.9095, 53.74780
548.3916, 53.50035
548.8737, 53.10646
549.3558, 53.08308
549.8380, 53.49371
550.3201, 53.76003
550.8022, 53.60906
551.2843, 53.40039
551.7664, 53.48955
552.2485, 53.80380
552.7307, 54.01690
553.2128, 53.94113
553.6949, 53.65323
554.1770, 53.36275
554.6591, 53.05050
555.1412, 52.77253
555.6234, 52.38914
556.1055, 52.15520
556.5876, 52.16740
557.0697, 52.46109
557.5518, 53.12428
558.0339, 54.32430
558.5161, 55.74664
558.9982, 56.62752
559.4803, 56.88081
559.9624, 57.09285
560.4445, 57.41423
560.9266, 57.74994
561.4088, 57.91838
561.8909, 57.95448
562.3730, 58.25911
562.8551, 59.10330
563.3372, 60.20094
563.8193, 61.28352
564.3015, 62.34907
564.7836, 63.42783
565.2657, 64.52434
565.7478, 65.66840
566.2299, 66.94859
566.7120, 68.52345
567.1942, 69.81392
567.6763, 70.52348
568.1584, 71.21557
568.6405, 72.17676
569.1226, 73.38562
569.6047, 74.75532
570.0869, 76.23849
570.5690, 77.79836
571.0511, 79.33038
571.5332, 80.81808
572.0153, 82.39785
572.4974, 84.28828
572.9796, 86.05985
573.4617, 87.36224
573.9438, 88.37312
574.4259, 89.53271
574.9080, 90.95369
575.3901, 92.69668
575.8723, 95.04996
576.3544, 97.86814
576.8365, 100.3169
577.3186, 102.0915
577.8007, 103.6554
578.2828, 105.6357
578.7650, 108.0672
579.2471, 109.7562
579.7292, 110.2509
580.2113, 110.4299
580.6934, 110.8653
581.1755, 111.2239
581.6577, 110.9309
582.1398, 109.7998
582.6219, 108.0730
583.1040, 106.0277
583.5861, 103.6234
584.0682, 101.2417
584.5504, 99.19161
