##NAMES=Petarasite
##RRUFFID=R060220
##IDEAL CHEMISTRY=Na_5_Zr^4+^_2_Si_6_O_18_(Cl,OH)&#183;2H_2_O
##LOCALITY=Mont Saint-Hilaire, Rouville County, Quebec, Canada
##OWNER=RRUFF
##SOURCE=Rock Currier
##DESCRIPTION=Pale yellowish brown massive associated with aegirine, albite, natrolite, astrophyllite and rhodochrosite
##STATUS=The identification of this mineral has been confirmed by X-ray diffraction and chemical analysis
##URL=rruff.info/R060220
##MEASURED CHEMISTRY=(Na_4.86_[box]_0.07_Ca_0.06_Mn_0.01_)_Σ=5_Zr_2.00_Si_6.00_O_18_(Cl_0.62_(OH)_0.38_)_Σ=1_·2H_2_O
92.07813, 13.87020
92.56024, 13.63833
93.04236, 13.76337
93.52448, 14.17262
94.00659, 14.59712
94.48871, 14.95097
94.97083, 15.20804
95.45294, 15.31034
95.93506, 15.25134
96.41718, 15.03370
96.89929, 14.59221
97.38141, 13.92761
97.86353, 13.25981
98.34564, 12.55639
98.82776, 11.85570
99.30988, 11.84519
99.79199, 12.86494
100.2741, 14.57734
100.7562, 15.77064
101.2383, 16.42072
101.7205, 16.61952
102.2026, 16.25668
102.6847, 15.06574
103.1668, 14.38859
103.6489, 14.72861
104.1310, 16.12082
104.6132, 16.73646
105.0953, 16.18336
105.5774, 15.21740
106.0595, 14.79923
106.5416, 15.30087
107.0237, 15.77028
107.5059, 15.88244
107.9880, 15.34748
108.4701, 15.37939
108.9522, 16.63221
109.4343, 18.32743
109.9164, 19.07065
110.3986, 17.88177
110.8807, 16.54858
111.3628, 15.54638
111.8449, 14.73556
112.3270, 14.51650
112.8091, 15.18644
113.2913, 16.50383
113.7734, 17.78550
114.2555, 18.37280
114.7376, 19.27666
115.2197, 21.04953
115.7018, 24.82862
116.1840, 28.31397
116.6661, 30.54525
117.1482, 31.79502
117.6303, 33.47236
118.1124, 35.41170
118.5945, 38.33984
119.0767, 42.84222
119.5588, 50.58162
120.0409, 58.75589
120.5230, 66.01247
121.0051, 72.34206
121.4872, 78.38232
121.9694, 83.31062
122.4515, 88.34522
122.9336, 95.20651
123.4157, 105.3526
123.8978, 117.1428
124.3799, 129.1931
124.8621, 141.4460
125.3442, 154.0204
125.8263, 167.2142
126.3084, 180.8342
126.7905, 194.4663
127.2726, 208.5294
127.7548, 222.2154
128.2369, 234.0738
128.7190, 243.9180
129.2011, 252.2406
129.6832, 259.3500
130.1653, 265.2836
130.6474, 270.6628
131.1296, 275.0274
131.6117, 278.9344
132.0938, 284.6919
132.5759, 292.8982
133.0580, 302.5033
133.5401, 311.4201
134.0223, 319.6691
134.5044, 327.9593
134.9865, 336.5496
135.4686, 345.5406
135.9507, 355.5145
136.4328, 367.0364
136.9150, 379.5258
137.3971, 390.7155
137.8792, 400.4487
138.3613, 409.7345
138.8434, 419.5421
139.3255, 429.9982
139.8077, 439.9366
140.2898, 449.3896
140.7719, 458.2136
141.2540, 465.7447
141.7361, 471.5524
142.2182, 476.6425
142.7004, 481.8807
143.1825, 487.1312
143.6646, 492.7668
144.1467, 498.6724
144.6288, 504.8952
145.1109, 511.9140
145.5931, 520.1899
146.0752, 528.9392
146.5573, 537.3232
147.0394, 544.5451
147.5215, 552.4863
148.0036, 561.4763
148.4858, 571.8238
148.9679, 582.5231
149.4500, 593.3411
149.9321, 604.6184
150.4142, 616.6271
150.8963, 630.3930
151.3785, 644.1462
151.8606, 657.0507
152.3427, 668.4595
152.8248, 681.0485
153.3069, 696.6094
153.7890, 713.2531
154.2712, 725.4344
154.7533, 728.9496
155.2354, 730.4649
155.7175, 731.1169
156.1996, 731.5748
156.6817, 730.0568
157.1639, 726.4115
157.6460, 720.6926
158.1281, 713.0251
158.6102, 702.3086
159.0923, 690.5369
159.5744, 678.6574
160.0566, 667.2969
160.5387, 655.3571
161.0208, 642.6003
161.5029, 629.1285
161.9850, 615.2147
162.4671, 600.3096
162.9493, 585.3846
163.4314, 571.0438
163.9135, 557.0076
164.3956, 544.0486
164.8777, 532.6910
165.3598, 522.6646
165.8420, 512.9103
166.3241, 502.3966
166.8062, 492.1341
167.2883, 483.0304
167.7704, 475.6407
168.2525, 469.1191
168.7346, 463.1734
169.2168, 457.7069
169.6989, 452.1517
170.1810, 445.6546
170.6631, 439.0223
171.1452, 433.2002
171.6273, 428.8035
172.1095, 425.1629
172.5916, 421.9877
173.0737, 419.2264
173.5558, 416.2542
174.0379, 412.4055
174.5201, 408.0945
175.0022, 403.9059
175.4843, 399.5991
175.9664, 395.7427
176.4485, 393.4965
176.9306, 392.7983
177.4128, 392.0709
177.8949, 389.6854
178.3770, 386.2546
178.8591, 383.0849
179.3412, 380.7970
179.8233, 379.0462
180.3055, 377.3139
180.7876, 375.5823
181.2697, 373.9018
181.7518, 372.4327
182.2339, 371.0797
182.7160, 369.4734
183.1982, 367.1994
183.6803, 364.6132
184.1624, 362.5504
184.6445, 361.0663
185.1266, 359.8360
185.6087, 358.2874
186.0909, 356.5562
186.5730, 355.4511
187.0551, 355.7907
187.5372, 357.0735
188.0193, 357.6003
188.5014, 357.2826
188.9836, 356.4853
189.4657, 355.2950
189.9478, 353.7964
190.4299, 352.9015
190.9120, 353.4274
191.3941, 355.0565
191.8763, 356.1200
192.3584, 356.5669
192.8405, 356.4984
193.3226, 355.7564
193.8047, 354.3393
194.2868, 353.3287
194.7690, 353.1752
195.2511, 353.8654
195.7332, 355.3217
196.2153, 357.7330
196.6974, 360.4967
197.1795, 362.4384
197.6617, 363.5077
198.1438, 364.6159
198.6259, 366.1249
199.1080, 368.0265
199.5901, 370.3326
200.0722, 373.0999
200.5544, 376.1703
201.0365, 379.2922
201.5186, 382.5148
202.0007, 385.5611
202.4828, 388.1243
202.9649, 390.1268
203.4471, 392.6734
203.9292, 395.8597
204.4113, 399.5334
204.8934, 403.5826
205.3755, 408.1081
205.8576, 412.4247
206.3398, 415.9586
206.8219, 418.4572
207.3040, 421.9518
207.7861, 426.6807
208.2682, 432.1638
208.7503, 437.3799
209.2325, 442.1707
209.7146, 447.0458
210.1967, 452.1292
210.6788, 457.3221
211.1609, 463.3055
211.6430, 470.3802
212.1252, 478.0650
212.6073, 485.0681
213.0894, 491.0141
213.5715, 497.1915
214.0536, 504.1932
214.5357, 512.2158
215.0179, 520.4369
215.5000, 528.9000
215.9821, 537.5817
216.4642, 546.6404
216.9463, 556.4971
217.4284, 565.6636
217.9105, 573.4084
218.3927, 579.1052
218.8748, 585.2873
219.3569, 592.4209
219.8390, 599.7656
220.3211, 605.7684
220.8032, 609.9795
221.2854, 613.7243
221.7675, 617.6461
222.2496, 621.8838
222.7317, 625.7473
223.2138, 629.2416
223.6959, 632.3472
224.1781, 635.0346
224.6602, 636.9788
225.1423, 639.0372
225.6244, 641.4192
226.1065, 643.9846
226.5886, 647.4633
227.0708, 652.4310
227.5529, 658.0539
228.0350, 662.6551
228.5171, 666.0936
228.9992, 668.8320
229.4813, 671.0537
229.9635, 672.8001
230.4456, 673.9305
230.9277, 674.5460
231.4098, 674.4979
231.8919, 673.5196
232.3740, 671.7327
232.8562, 668.8322
233.3383, 664.5659
233.8204, 658.5183
234.3025, 652.4476
234.7846, 646.3046
235.2667, 640.1583
235.7489, 634.2678
236.2310, 628.7526
236.7131, 623.3289
237.1952, 617.8369
237.6773, 612.3507
238.1594, 606.8052
238.6416, 600.9841
239.1237, 595.2389
239.6058, 590.1799
240.0879, 586.0184
240.5700, 582.1160
241.0521, 578.2909
241.5343, 574.6016
242.0164, 570.8471
242.4985, 566.8542
242.9806, 562.9014
243.4627, 559.3719
243.9448, 556.2162
244.4270, 553.5450
244.9091, 551.4200
245.3912, 549.8830
245.8733, 548.6291
246.3554, 547.8671
246.8375, 547.1956
247.3197, 545.9608
247.8018, 543.4149
248.2839, 541.6651
248.7660, 541.4833
249.2481, 543.1438
249.7302, 544.1945
250.2124, 544.2347
250.6945, 544.0598
251.1766, 544.6119
251.6587, 546.2098
252.1408, 547.9463
252.6229, 549.7069
253.1051, 551.5308
253.5872, 553.0836
254.0693, 554.5478
254.5514, 555.5855
255.0335, 555.8118
255.5156, 555.0258
255.9978, 553.8416
256.4799, 552.2333
256.9620, 550.1945
257.4441, 548.6526
257.9262, 548.5115
258.4083, 547.6877
258.8904, 543.9099
259.3726, 535.4279
259.8547, 528.3279
260.3368, 524.2167
260.8189, 522.7017
261.3010, 519.5978
261.7831, 514.1607
262.2653, 508.3222
262.7474, 503.6487
263.2295, 500.3350
263.7116, 497.5756
264.1937, 495.5199
264.6758, 493.9695
265.1580, 491.4527
265.6401, 487.3359
266.1222, 483.4850
266.6043, 481.3265
267.0864, 481.3298
267.5685, 481.2317
268.0507, 480.5726
268.5328, 479.7104
269.0149, 480.0280
269.4970, 481.7711
269.9791, 484.1305
270.4612, 486.6002
270.9434, 489.0157
271.4255, 492.2988
271.9076, 496.6601
272.3897, 501.8524
272.8718, 507.2677
273.3539, 512.8406
273.8361, 518.8254
274.3182, 525.4186
274.8003, 532.6464
275.2824, 540.0474
275.7645, 547.6270
276.2466, 555.2618
276.7288, 562.4896
277.2109, 569.0496
277.6930, 576.3600
278.1751, 585.0842
278.6572, 595.3185
279.1393, 605.6690
279.6215, 616.1066
280.1036, 626.7299
280.5857, 637.7121
281.0678, 649.0291
281.5499, 660.4011
282.0320, 672.2759
282.5142, 684.0071
282.9963, 696.1396
283.4784, 708.5712
283.9605, 721.7286
284.4426, 736.5219
284.9247, 752.9882
285.4069, 769.2507
285.8890, 784.9982
286.3711, 799.9944
286.8532, 813.7291
287.3353, 826.1469
287.8174, 837.6446
288.2996, 849.0754
288.7817, 860.2953
289.2638, 868.9343
289.7459, 874.2634
290.2280, 876.6237
290.7101, 876.7883
291.1923, 874.7034
291.6744, 871.2089
292.1565, 866.4806
292.6386, 860.7516
293.1207, 855.2465
293.6028, 850.2948
294.0850, 845.5857
294.5671, 840.3240
295.0492, 834.5202
295.5313, 828.4668
296.0134, 823.0439
296.4955, 817.6227
296.9777, 810.1189
297.4598, 799.7686
297.9419, 788.3572
298.4240, 779.3419
298.9061, 772.1369
299.3882, 763.3878
299.8704, 750.4098
300.3525, 734.6826
300.8346, 718.5262
301.3167, 702.1855
301.7988, 685.9418
302.2809, 669.7144
302.7631, 653.7438
303.2452, 638.1897
303.7273, 622.9346
304.2094, 608.3456
304.6915, 595.3839
305.1736, 584.0455
305.6558, 573.4600
306.1379, 562.4005
306.6200, 551.5309
307.1021, 542.1418
307.5842, 535.0676
308.0663, 529.4409
308.5485, 524.4983
309.0306, 520.2399
309.5127, 516.4758
309.9948, 512.7440
310.4769, 509.5174
310.9590, 507.4224
311.4412, 507.0262
311.9233, 507.4358
312.4054, 508.2580
312.8875, 509.4385
313.3696, 510.6647
313.8517, 511.4095
314.3339, 512.2914
314.8160, 513.9088
315.2981, 516.7551
315.7802, 519.8124
316.2623, 522.5945
316.7444, 525.1990
317.2266, 527.9261
317.7087, 530.9791
318.1908, 534.1223
318.6729, 537.3856
319.1550, 541.1111
319.6371, 544.0330
320.1193, 545.3371
320.6014, 545.6103
321.0835, 545.8280
321.5656, 546.3658
322.0477, 546.7960
322.5298, 547.0482
323.0120, 547.1910
323.4941, 546.6916
323.9762, 545.6728
324.4583, 543.8630
324.9404, 540.9711
325.4225, 535.8408
325.9047, 530.7054
326.3868, 526.3560
326.8689, 522.8082
327.3510, 518.8074
327.8331, 514.4895
328.3152, 509.5779
328.7974, 503.8786
329.2795, 496.3884
329.7616, 489.2746
330.2437, 483.0148
330.7258, 477.4228
331.2079, 471.2661
331.6901, 463.8432
332.1722, 456.5410
332.6543, 450.0200
333.1364, 444.7520
333.6185, 439.4986
334.1006, 434.3506
334.5828, 429.1855
335.0649, 423.8752
335.5470, 418.3969
336.0291, 412.7134
336.5112, 406.7572
336.9933, 400.3388
337.4755, 394.4808
337.9576, 389.3543
338.4397, 384.6743
338.9218, 380.0294
339.4039, 375.4843
339.8860, 370.8511
340.3681, 365.8934
340.8503, 360.6752
341.3324, 356.8231
341.8145, 354.5999
342.2966, 352.8906
342.7787, 350.6654
343.2608, 347.9312
343.7430, 344.9594
344.2251, 341.8180
344.7072, 338.4843
345.1893, 334.7104
345.6714, 330.3785
346.1535, 326.6649
346.6357, 324.9179
347.1178, 324.7370
347.5999, 323.5994
348.0820, 321.0181
348.5641, 317.8598
349.0462, 315.3497
349.5284, 313.4443
350.0105, 311.7323
350.4926, 310.0421
350.9747, 308.3822
351.4568, 306.7822
351.9389, 305.2533
352.4211, 303.7422
352.9032, 302.2110
353.3853, 300.6736
353.8674, 299.1622
354.3495, 297.7216
354.8316, 296.2968
355.3138, 294.6447
355.7959, 292.8223
356.2780, 291.4248
356.7601, 291.2890
357.2422, 291.6748
357.7243, 291.6342
358.2065, 290.8515
358.6886, 289.6791
359.1707, 287.7631
359.6528, 285.5366
360.1349, 284.3075
360.6170, 285.7643
361.0992, 287.7712
361.5813, 288.6918
362.0634, 287.8976
362.5455, 287.2674
363.0276, 287.8457
363.5097, 288.9949
363.9919, 289.7674
364.4740, 289.6909
364.9561, 289.3565
365.4382, 288.7175
365.9203, 287.6964
366.4024, 287.4760
366.8846, 288.9929
367.3667, 291.0227
367.8488, 292.5744
368.3309, 293.0263
368.8130, 293.5712
369.2951, 294.3196
369.7773, 295.2842
370.2594, 296.4765
370.7415, 298.1109
371.2236, 299.7898
371.7057, 301.3656
372.1878, 302.9180
372.6700, 304.1758
373.1521, 304.7071
373.6342, 305.1207
374.1163, 306.7396
374.5984, 310.3148
375.0805, 313.5751
375.5627, 315.5650
376.0448, 316.0997
376.5269, 317.7526
377.0090, 320.7483
377.4911, 324.4821
377.9732, 328.6659
378.4554, 333.4857
378.9375, 337.2722
379.4196, 339.3120
379.9017, 340.2247
380.3838, 342.6042
380.8659, 346.6224
381.3481, 350.6150
381.8302, 353.1450
382.3123, 354.4253
382.7944, 356.0329
383.2765, 358.2389
383.7586, 360.6126
384.2408, 362.4865
384.7229, 363.9237
385.2050, 365.4083
385.6871, 367.3932
386.1692, 369.5166
386.6513, 371.1230
387.1335, 372.1709
387.6156, 372.9701
388.0977, 373.7933
388.5798, 374.5489
389.0619, 375.0785
389.5440, 375.3020
390.0262, 375.2841
390.5083, 375.0115
390.9904, 374.5164
391.4725, 373.9743
391.9546, 373.9186
392.4367, 373.6209
392.9189, 372.1177
393.4010, 368.3778
393.8831, 365.6396
394.3652, 366.6619
394.8473, 369.5657
395.3294, 371.2624
395.8116, 369.5597
396.2937, 367.4580
396.7758, 366.0939
397.2579, 365.5800
397.7400, 365.4723
398.2221, 365.9398
398.7043, 366.6440
399.1864, 367.3089
399.6685, 368.0099
400.1506, 368.5466
400.6327, 368.6505
401.1148, 368.4961
401.5970, 368.9496
402.0791, 370.4198
402.5612, 372.0147
403.0433, 373.3224
403.5254, 374.1588
404.0075, 375.2629
404.4897, 376.8068
404.9718, 378.4823
405.4539, 379.7506
405.9360, 380.4316
406.4181, 381.2924
406.9002, 382.4951
407.3824, 384.0472
407.8645, 386.2762
408.3466, 389.3548
408.8287, 392.4450
409.3108, 394.7138
409.7929, 396.1881
410.2751, 397.7130
410.7572, 399.2913
411.2393, 401.2015
411.7214, 404.3528
412.2035, 408.5847
412.6856, 412.3106
413.1678, 414.2281
413.6499, 415.0553
414.1320, 416.3826
414.6141, 418.3315
415.0962, 420.4225
415.5783, 422.4865
416.0605, 424.3647
416.5426, 425.7705
417.0247, 426.1290
417.5068, 426.4152
417.9889, 427.8261
418.4710, 430.0538
418.9532, 431.6993
419.4353, 431.6174
419.9174, 430.8416
420.3995, 430.1086
420.8816, 429.4253
421.3637, 429.0826
421.8459, 429.7616
422.3280, 430.7192
422.8101, 430.8340
423.2922, 429.4637
423.7743, 427.5345
424.2564, 425.0413
424.7386, 421.9318
425.2207, 419.4589
425.7028, 417.7519
426.1849, 416.7426
426.6670, 416.4253
427.1491, 417.3595
427.6313, 418.1070
428.1134, 418.4340
428.5955, 418.5710
429.0776, 419.0895
429.5597, 419.9271
430.0418, 421.3096
430.5240, 423.3796
431.0061, 426.1554
431.4882, 429.2128
431.9703, 432.4914
432.4524, 436.1456
432.9345, 440.4951
433.4167, 445.5377
433.8988, 450.4585
434.3809, 454.7576
434.8630, 458.9662
435.3451, 464.5233
435.8272, 471.3911
436.3094, 478.4974
436.7915, 485.0222
437.2736, 491.2884
437.7557, 497.7776
438.2378, 504.4676
438.7199, 511.9956
439.2020, 521.6741
439.6841, 532.6431
440.1663, 543.1381
440.6484, 552.4222
441.1305, 560.9745
441.6126, 568.8882
442.0947, 576.2659
442.5768, 583.5207
443.0590, 591.9881
443.5411, 599.7490
444.0232, 605.2639
444.5053, 607.8644
444.9874, 609.0309
445.4695, 608.9562
445.9517, 607.7843
446.4338, 605.7455
446.9159, 603.1921
447.3980, 599.4529
447.8801, 593.9300
448.3622, 586.4575
448.8444, 579.6263
449.3265, 574.2117
449.8086, 568.7424
450.2907, 562.1417
450.7728, 553.4000
451.2549, 545.6887
451.7371, 539.3488
452.2192, 534.0952
452.7013, 529.3773
453.1834, 525.2333
453.6655, 521.6573
454.1476, 518.8952
454.6298, 516.8544
455.1119, 514.2657
455.5940, 511.0589
456.0761, 507.7745
456.5582, 504.6804
457.0403, 501.8856
457.5225, 500.2129
458.0046, 500.1618
458.4867, 500.7249
458.9688, 500.5562
459.4509, 499.7380
459.9330, 498.6317
460.4152, 497.0407
460.8973, 495.4514
461.3794, 494.5883
461.8615, 494.4911
462.3436, 494.4033
462.8257, 493.3599
463.3079, 492.2357
463.7900, 492.0503
464.2721, 494.1307
464.7542, 495.9429
465.2363, 496.1053
465.7184, 495.1801
466.2006, 494.7606
466.6827, 495.7333
467.1648, 496.8606
467.6469, 497.6719
468.1290, 498.0872
468.6111, 498.3881
469.0933, 498.4707
469.5754, 498.5236
470.0575, 498.7536
470.5396, 499.4355
471.0217, 499.6929
471.5038, 499.1286
471.9860, 498.1437
472.4681, 498.1766
472.9502, 499.4524
473.4323, 500.9937
473.9144, 502.4205
474.3965, 503.7321
474.8787, 504.6507
475.3608, 505.0744
475.8429, 505.5462
476.3250, 506.4713
476.8071, 507.8986
477.2892, 510.1404
477.7714, 513.3871
478.2535, 517.2728
478.7356, 521.1824
479.2177, 525.2408
479.6998, 529.8712
480.1819, 535.2912
480.6641, 541.4986
481.1462, 548.1757
481.6283, 555.2687
482.1104, 563.8768
482.5925, 574.8193
483.0746, 587.5352
483.5568, 601.5052
484.0389, 616.2985
484.5210, 632.4480
485.0031, 649.9975
485.4852, 668.9188
485.9673, 689.7048
486.4495, 712.1687
486.9316, 736.5112
487.4137, 762.7158
487.8958, 790.8605
488.3779, 820.8929
488.8600, 853.2773
489.3422, 887.2855
489.8243, 922.7558
490.3064, 959.2451
490.7885, 997.4587
491.2706, 1037.573
491.7527, 1079.312
492.2349, 1123.145
492.7170, 1168.688
493.1991, 1216.471
493.6812, 1266.500
494.1633, 1318.444
494.6454, 1372.892
495.1276, 1429.511
495.6097, 1486.516
496.0918, 1541.376
496.5739, 1595.340
497.0560, 1649.100
497.5381, 1704.783
498.0203, 1758.225
498.5024, 1808.514
498.9845, 1854.079
499.4666, 1892.732
499.9487, 1925.668
500.4308, 1949.046
500.9130, 1961.408
501.3951, 1962.644
501.8772, 1951.133
502.3593, 1924.014
502.8414, 1885.612
503.3235, 1838.296
503.8057, 1781.193
504.2878, 1716.799
504.7699, 1641.786
505.2520, 1560.945
505.7341, 1481.863
506.2162, 1404.160
506.6984, 1329.150
507.1805, 1257.351
507.6626, 1188.875
508.1447, 1124.743
508.6268, 1064.862
509.1089, 1009.660
509.5911, 959.7416
510.0732, 914.9778
510.5553, 874.0507
511.0374, 836.9958
511.5195, 803.2432
512.0016, 772.6346
512.4838, 744.7153
512.9659, 718.6815
513.4480, 693.7199
513.9301, 670.2996
514.4122, 648.7839
514.8943, 629.1547
515.3765, 611.3283
515.8586, 595.8609
516.3407, 581.7135
516.8228, 568.3513
517.3049, 555.6610
517.7870, 543.4677
518.2692, 531.7670
518.7513, 520.6176
519.2334, 510.1270
519.7155, 499.8941
520.1976, 490.8231
520.6797, 483.4239
521.1619, 477.2460
521.6440, 471.0856
522.1261, 464.8907
522.6082, 458.9038
523.0903, 453.0127
523.5724, 447.1953
524.0546, 442.9928
524.5367, 440.8006
525.0188, 439.0954
525.5009, 436.3734
525.9830, 432.7451
526.4651, 429.6230
526.9473, 427.1671
527.4294, 425.3087
527.9115, 424.1383
528.3936, 423.5359
528.8757, 423.0908
529.3578, 422.3935
529.8400, 421.9047
530.3221, 422.3357
530.8042, 423.5349
531.2863, 424.5781
531.7684, 424.3990
532.2505, 424.2050
532.7327, 425.0314
533.2148, 427.3840
533.6969, 429.5323
534.1790, 430.7663
534.6611, 431.6569
535.1432, 432.8192
535.6254, 434.1138
536.1075, 436.0075
536.5896, 438.9432
537.0717, 442.5102
537.5538, 445.0051
538.0359, 445.9259
538.5181, 447.0273
539.0002, 449.3313
539.4823, 452.7852
539.9644, 455.0333
540.4465, 455.9718
540.9286, 456.2372
541.4108, 456.3799
541.8929, 456.3495
542.3750, 455.9997
542.8571, 455.4071
543.3392, 454.1807
543.8214, 451.8189
544.3035, 448.4477
544.7856, 444.3145
545.2677, 439.0423
545.7498, 433.4404
546.2319, 428.1999
546.7141, 423.2388
547.1962, 418.0326
547.6783, 411.7690
548.1604, 405.6847
548.6425, 400.4582
549.1246, 396.5610
549.6068, 392.4204
550.0889, 387.5668
550.5710, 382.6131
551.0531, 378.1007
551.5352, 374.0689
552.0173, 370.3763
552.4995, 367.0175
552.9816, 364.0172
553.4637, 361.6251
553.9458, 359.9523
554.4279, 358.1114
554.9100, 355.5598
555.3922, 352.5546
555.8743, 350.1326
556.3564, 348.3151
556.8385, 346.7076
557.3206, 345.0876
557.8027, 343.4517
558.2849, 341.7320
558.7670, 339.8869
559.2491, 338.1068
559.7312, 336.5137
560.2133, 335.0973
560.6954, 333.8488
561.1776, 332.8005
561.6597, 331.8973
562.1418, 330.9366
562.6239, 330.0634
563.1060, 329.8179
563.5881, 331.1485
564.0703, 332.2245
564.5524, 332.3362
565.0345, 331.3636
565.5166, 330.9765
565.9987, 331.2488
566.4808, 331.9846
566.9630, 333.0480
567.4451, 334.4325
567.9272, 336.2550
568.4093, 338.6274
568.8914, 341.2059
569.3735, 343.4352
569.8557, 345.4208
570.3378, 347.7923
570.8199, 350.9179
571.3020, 354.3491
571.7841, 357.4753
572.2662, 360.3677
572.7484, 363.2782
573.2305, 365.9896
573.7126, 369.0530
574.1947, 373.1403
574.6768, 378.3269
575.1589, 383.2183
575.6411, 386.8388
576.1232, 390.2597
576.6053, 394.1806
577.0874, 398.8859
577.5695, 403.7025
578.0516, 408.5884
578.5338, 413.5549
579.0159, 418.8466
579.4980, 424.6636
579.9801, 429.8071
580.4622, 433.9307
580.9443, 437.2559
581.4265, 440.5597
581.9086, 443.8415
582.3907, 446.0302
582.8728, 446.1251
583.3549, 444.8020
583.8370, 443.7707
584.3192, 443.0328
