##NAMES=Petalite
##RRUFFID=R060365
##IDEAL CHEMISTRY=LiAlSi_4_O_10_
##LOCALITY=Paprok, near Kamdesh, Nuristan, Kunar Province, Afghanistan
##OWNER=RRUFF
##SOURCE=Herb Obodda
##DESCRIPTION=Colorless fragment
##STATUS=The identification of this mineral has been confirmed by X-ray diffraction and chemical analysis
##URL=rruff.info/R060365
##MEASURED CHEMISTRY=Li_1.00_Al_1.00_Si_4.00_O_10_
117.4907, 14.34031
117.9728, 14.02067
118.4550, 13.48647
118.9371, 13.01888
119.4192, 12.80233
119.9013, 12.71037
120.3834, 12.58538
120.8655, 12.20584
121.3477, 11.86894
121.8298, 11.82432
122.3119, 12.12926
122.7940, 12.50801
123.2761, 12.92418
123.7582, 13.28188
124.2404, 13.36765
124.7225, 12.66294
125.2046, 11.76117
125.6867, 11.49939
126.1688, 12.19477
126.6509, 13.05917
127.1331, 13.10817
127.6152, 12.49683
128.0973, 11.99575
128.5794, 12.22786
129.0615, 12.96471
129.5436, 13.69490
130.0258, 14.38710
130.5079, 14.93526
130.9900, 14.89466
131.4721, 14.26641
131.9542, 13.96944
132.4363, 15.08760
132.9185, 17.41432
133.4006, 19.49423
133.8827, 20.75149
134.3648, 21.48719
134.8469, 22.77869
135.3290, 24.60402
135.8112, 27.09508
136.2933, 30.54281
136.7754, 35.01237
137.2575, 39.62297
137.7396, 44.01788
138.2217, 48.14295
138.7039, 52.92231
139.1860, 58.50464
139.6681, 64.52233
140.1502, 70.55538
140.6323, 76.52258
141.1144, 82.57975
141.5966, 88.91004
142.0787, 95.65633
142.5608, 101.8546
143.0429, 107.3491
143.5250, 112.3725
144.0071, 117.4259
144.4893, 122.5653
144.9714, 127.5725
145.4535, 132.2145
145.9356, 136.0965
146.4177, 140.5298
146.8998, 145.8705
147.3820, 151.8303
147.8641, 157.4313
148.3462, 162.2612
148.8283, 167.0496
149.3104, 172.2352
149.7925, 177.9055
150.2747, 183.8351
150.7568, 190.2372
151.2389, 197.0244
151.7210, 203.0818
152.2031, 208.0370
152.6852, 212.4342
153.1674, 216.6646
153.6495, 221.2378
154.1316, 225.0804
154.6137, 228.3459
155.0958, 231.0481
155.5779, 232.0290
156.0601, 230.0910
156.5422, 226.8533
157.0243, 223.7170
157.5064, 221.2789
157.9885, 218.6413
158.4706, 215.3519
158.9528, 211.2717
159.4349, 207.6280
159.9170, 204.8237
160.3991, 202.5963
160.8812, 200.6418
161.3633, 198.5200
161.8455, 196.9358
162.3276, 196.2595
162.8097, 196.6263
163.2918, 197.4332
163.7739, 198.3531
164.2560, 199.3599
164.7382, 199.5145
165.2203, 200.8588
165.7024, 202.2589
166.1845, 202.6302
166.6666, 201.5701
167.1487, 200.4230
167.6309, 199.8881
168.1130, 199.7899
168.5951, 199.7700
169.0772, 199.5834
169.5593, 199.4339
170.0414, 199.5272
170.5236, 199.9874
171.0057, 200.4777
171.4878, 200.9994
171.9699, 201.4166
172.4520, 201.3020
172.9341, 199.9501
173.4163, 198.1111
173.8984, 196.6189
174.3805, 195.5571
174.8626, 195.0216
175.3447, 195.2457
175.8268, 196.1194
176.3090, 197.1564
176.7911, 197.9451
177.2732, 198.6822
177.7553, 199.6541
178.2374, 200.8232
178.7195, 202.3780
179.2017, 204.6364
179.6838, 207.5760
180.1659, 210.8223
180.6480, 213.9818
181.1301, 217.2314
181.6122, 221.1327
182.0944, 226.2861
182.5765, 231.8404
183.0586, 236.2681
183.5407, 239.5106
184.0228, 242.7828
184.5049, 247.7955
184.9871, 253.9041
185.4692, 258.6114
185.9513, 261.3203
186.4334, 262.1121
186.9155, 260.9524
187.3976, 257.7806
187.8798, 253.4710
188.3619, 248.7554
188.8440, 243.6029
189.3261, 238.0681
189.8082, 231.6769
190.2903, 224.8875
190.7725, 219.4276
191.2546, 215.3678
191.7367, 211.8812
192.2188, 207.9546
192.7009, 203.5826
193.1830, 199.3205
193.6652, 195.1500
194.1473, 191.1561
194.6294, 188.2975
195.1115, 186.7453
195.5936, 185.7413
196.0757, 184.2281
196.5579, 182.1786
197.0400, 180.4008
197.5221, 179.4529
198.0042, 179.2505
198.4863, 178.3713
198.9684, 176.7502
199.4506, 174.6038
199.9327, 172.1856
200.4148, 169.4575
200.8969, 166.7185
201.3790, 164.0413
201.8611, 161.4363
202.3433, 158.8289
202.8254, 156.0784
203.3075, 153.5310
203.7896, 151.9167
204.2717, 151.3670
204.7538, 151.0031
205.2360, 150.3794
205.7181, 149.4163
206.2002, 148.8877
206.6823, 148.7729
207.1644, 149.1098
207.6465, 150.0293
208.1287, 151.6021
208.6108, 153.4691
209.0929, 155.7111
209.5750, 158.5948
210.0571, 160.4126
210.5392, 160.9734
211.0214, 160.6704
211.5035, 160.4099
211.9856, 160.4696
212.4677, 159.8377
212.9498, 157.8063
213.4319, 153.9192
213.9140, 150.6947
214.3962, 148.3789
214.8783, 146.5793
215.3604, 144.3888
215.8425, 141.5783
216.3246, 138.8430
216.8067, 136.5466
217.2889, 134.9431
217.7710, 132.9228
218.2531, 130.2288
218.7352, 127.2335
219.2173, 124.8042
219.6994, 123.1416
220.1816, 121.6427
220.6637, 119.9796
221.1458, 117.9964
221.6279, 116.2964
222.1100, 114.9388
222.5921, 113.8438
223.0743, 112.7732
223.5564, 111.7473
224.0385, 110.7279
224.5206, 109.6966
225.0027, 108.5579
225.4848, 107.6459
225.9670, 107.0673
226.4491, 106.6945
226.9312, 106.1755
227.4133, 105.4426
227.8954, 104.6767
228.3775, 103.9349
228.8597, 103.0648
229.3418, 102.5803
229.8239, 102.6487
230.3060, 103.0574
230.7881, 103.2114
231.2702, 102.9858
231.7524, 102.6890
232.2345, 102.4582
232.7166, 102.3124
233.1987, 102.1753
233.6808, 102.0483
234.1629, 101.9299
234.6451, 101.7468
235.1272, 101.1562
235.6093, 101.0186
236.0914, 101.9017
236.5735, 104.8117
237.0556, 106.3953
237.5378, 106.1276
238.0199, 104.6950
238.5020, 103.8072
238.9841, 103.5943
239.4662, 103.7219
239.9483, 104.1204
240.4305, 105.0601
240.9126, 105.5996
241.3947, 105.5209
241.8768, 105.1083
242.3589, 105.0697
242.8410, 105.5494
243.3232, 106.1747
243.8053, 106.8127
244.2874, 107.5298
244.7695, 108.0935
245.2516, 108.4717
245.7337, 108.7130
246.2159, 108.8770
246.6980, 108.7309
247.1801, 108.8771
247.6622, 109.6020
248.1443, 111.1488
248.6264, 112.6088
249.1086, 113.9839
249.5907, 115.2833
250.0728, 116.4917
250.5549, 117.4609
251.0370, 118.5908
251.5191, 120.1073
252.0013, 122.2056
252.4834, 124.0021
252.9655, 125.4955
253.4476, 126.6708
253.9297, 127.4905
254.4118, 127.9467
254.8940, 128.0468
255.3761, 127.8046
255.8582, 127.2407
256.3403, 126.1799
256.8224, 124.3870
257.3046, 122.2792
257.7867, 120.6058
258.2688, 119.5244
258.7509, 118.5141
259.2330, 117.3473
259.7151, 115.9103
260.1973, 114.9462
260.6794, 114.4803
261.1615, 114.4824
261.6436, 114.9744
262.1257, 116.1051
262.6078, 117.3691
263.0900, 118.5846
263.5721, 119.7348
264.0542, 121.1111
264.5363, 122.7924
265.0184, 124.6168
265.5005, 126.4403
265.9827, 128.2350
266.4648, 130.0417
266.9469, 131.7299
267.4290, 133.2708
267.9111, 135.5818
268.3932, 138.8514
268.8754, 142.5744
269.3575, 146.0926
269.8396, 149.2521
270.3217, 152.9132
270.8038, 157.3650
271.2859, 162.6054
271.7681, 167.8049
272.2502, 172.8872
272.7323, 178.0860
273.2144, 183.4250
273.6965, 188.8605
274.1786, 194.7497
274.6608, 201.1301
275.1429, 208.0375
275.6250, 216.0594
276.1071, 225.3868
276.5892, 235.2479
277.0714, 244.7249
277.5535, 253.8119
278.0356, 262.9828
278.5177, 272.2738
278.9998, 281.7307
279.4819, 291.7994
279.9641, 302.8617
280.4462, 313.3646
280.9283, 322.5836
281.4104, 330.4890
281.8925, 335.8672
282.3746, 338.5276
282.8568, 338.5468
283.3389, 335.9816
283.8210, 330.7624
284.3031, 323.4762
284.7852, 313.9971
285.2673, 302.4977
285.7495, 290.6023
286.2316, 278.4049
286.7137, 266.0477
287.1958, 253.5289
287.6779, 240.8148
288.1600, 228.9255
288.6422, 218.4519
289.1243, 209.2802
289.6064, 201.2995
290.0885, 194.4411
290.5706, 188.6077
291.0527, 183.8395
291.5349, 180.0990
292.0170, 176.7970
292.4991, 173.8018
292.9812, 171.0200
293.4633, 168.3469
293.9454, 165.8562
294.4276, 163.0772
294.9097, 159.1730
295.3918, 154.3322
295.8739, 149.6100
296.3560, 145.5645
296.8381, 142.0082
297.3203, 138.5149
297.8024, 135.0472
298.2845, 132.0032
298.7666, 130.0943
299.2487, 129.0313
299.7308, 127.8662
300.2130, 125.8212
300.6951, 123.5840
301.1772, 122.3542
301.6593, 122.1319
302.1414, 122.2351
302.6235, 122.0087
303.1057, 121.6846
303.5878, 121.7445
304.0699, 122.5454
304.5520, 123.6548
305.0341, 124.5994
305.5162, 125.3924
305.9984, 126.1829
306.4805, 126.9261
306.9626, 127.7655
307.4447, 128.8888
307.9268, 130.3999
308.4089, 132.1575
308.8911, 134.0638
309.3732, 136.1190
309.8553, 138.3276
310.3374, 140.6477
310.8195, 143.1458
311.3016, 145.8595
311.7838, 148.7877
312.2659, 151.9398
312.7480, 155.3081
313.2301, 158.8689
313.7122, 162.6286
314.1943, 166.8427
314.6765, 171.1356
315.1586, 175.2673
315.6407, 179.1831
316.1228, 182.9756
316.6049, 186.7717
317.0870, 190.4462
317.5692, 193.7379
318.0513, 197.6019
318.5334, 200.2502
319.0155, 200.5962
319.4976, 198.3498
319.9797, 195.3195
320.4619, 191.9205
320.9440, 188.0900
321.4261, 183.8083
321.9082, 178.6953
322.3903, 173.4529
322.8724, 168.3152
323.3546, 163.2962
323.8367, 158.1363
324.3188, 151.9303
324.8009, 146.0120
325.2830, 141.4658
325.7651, 139.8136
326.2473, 137.9431
326.7294, 135.1317
327.2115, 131.5543
327.6936, 128.6075
328.1757, 126.7401
328.6578, 125.2853
329.1400, 123.9101
329.6221, 122.5388
330.1042, 121.3708
330.5863, 120.4493
331.0684, 119.7279
331.5505, 119.0866
332.0327, 118.4843
332.5148, 117.9961
332.9969, 117.5781
333.4790, 116.9939
333.9611, 117.1875
334.4432, 118.5356
334.9254, 120.4480
335.4075, 121.8359
335.8896, 122.2991
336.3717, 123.0659
336.8538, 124.4999
337.3359, 126.6452
337.8180, 129.2082
338.3001, 132.3480
338.7823, 135.6584
339.2644, 138.3955
339.7465, 140.2180
340.2286, 143.0951
340.7107, 147.7947
341.1928, 154.0422
341.6750, 159.2079
342.1571, 163.0422
342.6392, 166.9834
343.1213, 172.3444
343.6034, 179.0915
344.0855, 186.2605
344.5677, 193.6121
345.0498, 201.3008
345.5319, 209.5245
346.0140, 218.2845
346.4961, 227.4925
346.9782, 236.8412
347.4604, 246.5620
347.9425, 257.2197
348.4246, 268.8836
348.9067, 281.7937
349.3888, 296.5865
349.8709, 313.1059
350.3531, 330.4732
350.8352, 347.9619
351.3173, 365.9860
351.7994, 385.5334
352.2815, 406.5436
352.7636, 429.2286
353.2458, 454.5265
353.7279, 481.6534
354.2100, 508.9415
354.6921, 536.6801
355.1742, 563.5344
355.6563, 589.2596
356.1385, 613.5314
356.6206, 634.3344
357.1027, 651.7648
357.5848, 664.3496
358.0669, 670.6503
358.5490, 670.2761
359.0312, 663.5263
359.5133, 649.2727
359.9954, 628.4866
360.4775, 604.1104
360.9596, 575.2474
361.4417, 544.8157
361.9239, 514.0724
362.4060, 482.4904
362.8881, 452.8175
363.3702, 425.8040
363.8523, 401.4013
364.3344, 379.5338
364.8166, 360.7748
365.2987, 343.8783
365.7808, 328.6962
366.2629, 314.9979
366.7450, 303.2965
367.2271, 294.1918
367.7093, 286.8648
368.1914, 280.5957
368.6735, 275.1400
369.1556, 270.9172
369.6377, 268.0814
370.1198, 266.5662
370.6020, 266.2353
371.0841, 267.3921
371.5662, 269.4583
372.0483, 272.1164
372.5304, 275.3898
373.0125, 279.2226
373.4947, 283.4168
373.9768, 288.1940
374.4589, 294.0320
374.9410, 300.6314
375.4231, 308.9542
375.9052, 319.5981
376.3874, 332.8178
376.8695, 346.7307
377.3516, 361.4779
377.8337, 376.9228
378.3158, 393.3549
378.7979, 410.8769
379.2801, 429.2209
379.7622, 448.9998
380.2443, 469.5236
380.7264, 489.2594
381.2085, 508.3966
381.6906, 524.6169
382.1728, 536.4442
382.6549, 543.8853
383.1370, 546.3167
383.6191, 543.6388
384.1012, 535.9882
384.5833, 522.8315
385.0655, 504.3773
385.5476, 482.7733
386.0297, 457.2900
386.5118, 429.7340
386.9939, 402.4713
387.4760, 375.7269
387.9582, 350.1870
388.4403, 325.4681
388.9224, 302.1822
389.4045, 281.7327
389.8866, 265.3914
390.3687, 251.3637
390.8509, 238.5727
391.3330, 227.0370
391.8151, 216.5315
392.2972, 207.3122
392.7793, 199.0077
393.2614, 191.2115
393.7436, 183.7049
394.2257, 177.0019
394.7078, 171.7046
395.1899, 167.4711
395.6720, 163.4038
396.1541, 158.9600
396.6363, 154.8255
397.1184, 151.3970
397.6005, 148.9298
398.0826, 146.4919
398.5647, 143.9396
399.0468, 141.3450
399.5290, 138.7954
400.0111, 135.7741
400.4932, 133.3781
400.9753, 132.1557
401.4574, 132.0941
401.9395, 131.1248
402.4217, 128.3618
402.9038, 125.6141
403.3859, 124.2101
403.8680, 124.9774
404.3501, 125.0859
404.8322, 124.1495
405.3144, 122.5289
405.7965, 121.2280
406.2786, 120.3506
406.7607, 119.4198
407.2428, 118.0527
407.7249, 116.2109
408.2071, 115.2535
408.6892, 115.4025
409.1713, 115.7630
409.6534, 115.0403
410.1355, 113.3021
410.6176, 111.8917
411.0998, 111.3540
411.5819, 111.2907
412.0640, 110.6882
412.5461, 109.5715
413.0282, 108.4430
413.5103, 107.7614
413.9925, 107.3487
414.4746, 106.8332
414.9567, 106.1470
415.4388, 105.3636
415.9209, 104.3876
416.4030, 103.3570
416.8852, 102.5881
417.3673, 102.4353
417.8494, 102.4940
418.3315, 102.4755
418.8136, 102.3638
419.2957, 102.1245
419.7779, 101.6029
420.2600, 101.0020
420.7421, 100.5344
421.2242, 100.4498
421.7063, 100.3061
422.1884, 99.85937
422.6706, 99.21265
423.1527, 98.73640
423.6348, 98.59708
424.1169, 98.58887
424.5990, 98.64094
425.0811, 98.82198
425.5633, 98.89381
426.0454, 98.83828
426.5275, 98.67707
427.0096, 98.41862
427.4917, 97.91216
427.9738, 97.54247
428.4560, 97.41283
428.9381, 97.51237
429.4202, 97.63612
429.9023, 97.82383
430.3844, 97.95864
430.8665, 97.93252
431.3487, 97.71488
431.8308, 97.48176
432.3129, 97.17090
432.7950, 96.95029
433.2771, 97.36600
433.7592, 98.45094
434.2414, 99.22668
434.7235, 99.05514
435.2056, 98.17922
435.6877, 97.57823
436.1698, 97.26699
436.6519, 97.05933
437.1341, 96.74074
437.6162, 96.38403
438.0983, 96.18470
438.5804, 96.25749
439.0625, 96.42249
439.5446, 96.42873
440.0268, 96.33706
440.5089, 96.36805
440.9910, 96.85322
441.4731, 97.40016
441.9552, 97.65784
442.4373, 97.55576
442.9195, 97.32012
443.4016, 96.93127
443.8837, 96.51759
444.3658, 96.23512
444.8479, 96.31077
445.3300, 96.34278
445.8122, 95.97250
446.2943, 95.30706
446.7764, 95.26104
447.2585, 96.97824
447.7406, 98.57012
448.2227, 99.01643
448.7049, 97.39130
449.1870, 96.38954
449.6691, 96.22237
450.1512, 96.57931
450.6333, 97.01866
451.1154, 97.65287
451.5976, 98.12930
452.0797, 98.30565
452.5618, 98.20805
453.0439, 98.18198
453.5260, 98.20647
454.0081, 98.36613
454.4903, 98.84240
454.9724, 99.62352
455.4545, 100.0586
455.9366, 99.92519
456.4187, 99.70766
456.9008, 100.3188
457.3830, 101.6784
457.8651, 103.0788
458.3472, 104.3124
458.8293, 105.3424
459.3114, 106.0268
459.7935, 106.3649
460.2757, 106.7355
460.7578, 107.3195
461.2399, 108.1564
461.7220, 109.3182
462.2041, 110.9414
462.6862, 112.7138
463.1684, 114.4438
463.6505, 116.1784
464.1326, 117.9871
464.6147, 119.3872
465.0968, 121.2988
465.5789, 124.5641
466.0611, 129.5290
466.5432, 133.4965
467.0253, 135.7817
467.5074, 136.8916
467.9895, 137.2354
468.4716, 136.2953
468.9538, 135.2768
469.4359, 134.1431
469.9180, 132.9928
470.4001, 132.1389
470.8822, 131.6265
471.3643, 131.3338
471.8465, 131.0174
472.3286, 130.5467
472.8107, 131.5571
473.2928, 134.2655
473.7749, 137.8747
474.2570, 141.4902
474.7392, 145.1159
475.2213, 149.1523
475.7034, 153.7012
476.1855, 158.6934
476.6676, 163.7986
477.1497, 169.1121
477.6319, 175.2486
478.1140, 183.2138
478.5961, 192.0968
479.0782, 200.1172
479.5603, 207.0600
480.0424, 214.5199
480.5246, 223.6484
481.0067, 234.1624
481.4888, 245.6514
481.9709, 257.9231
482.4530, 271.3110
482.9352, 285.9274
483.4173, 301.7855
483.8994, 318.9302
484.3815, 336.6485
484.8636, 356.3250
485.3457, 378.6944
485.8279, 404.2388
486.3100, 431.2113
486.7921, 459.6729
487.2742, 489.3555
487.7563, 520.5050
488.2384, 554.7639
488.7206, 588.0898
489.2027, 621.0198
489.6848, 652.5607
490.1669, 679.6161
490.6490, 703.3215
491.1311, 718.4719
491.6133, 722.4838
492.0954, 715.4693
492.5775, 698.2344
493.0596, 670.0759
493.5417, 634.9073
494.0238, 594.8497
494.5060, 550.7956
494.9881, 507.1178
495.4702, 464.4167
495.9523, 424.0111
496.4344, 388.3917
496.9165, 357.2936
497.3987, 329.8454
497.8808, 305.7929
498.3629, 284.6971
498.8450, 266.3910
499.3271, 250.7364
499.8092, 236.8293
500.2914, 224.0825
500.7735, 212.7914
501.2556, 202.8906
501.7377, 195.1382
502.2198, 188.0272
502.7019, 181.1227
503.1841, 174.5856
503.6662, 168.7971
504.1483, 163.8181
504.6304, 159.4696
505.1125, 155.9128
505.5946, 153.2302
506.0768, 150.1706
506.5589, 146.4138
507.0410, 142.7927
507.5231, 140.0935
508.0052, 138.4866
508.4873, 136.6931
508.9695, 134.5182
509.4516, 132.2434
509.9337, 130.4090
510.4158, 129.0017
510.8979, 127.7848
511.3800, 126.7212
511.8622, 125.7441
512.3443, 124.7159
512.8264, 123.6419
513.3085, 122.4806
513.7906, 121.1552
514.2728, 119.7426
514.7549, 118.2481
515.2370, 116.5047
515.7191, 115.1987
516.2012, 115.2154
516.6833, 115.8529
517.1655, 116.0316
517.6476, 114.9167
518.1297, 113.7725
518.6118, 113.0828
519.0939, 112.8126
519.5760, 112.4265
520.0582, 111.7178
520.5403, 111.0084
521.0224, 110.4408
521.5045, 110.0458
521.9866, 109.7001
522.4688, 109.4422
522.9509, 109.1890
523.4330, 108.7931
523.9151, 108.2016
524.3972, 107.7778
524.8793, 107.6757
525.3615, 107.7291
525.8436, 107.5462
526.3257, 107.1242
526.8078, 106.4551
527.2899, 105.1208
527.7720, 103.5970
528.2542, 103.2300
528.7363, 104.1149
529.2184, 104.9400
529.7005, 104.3819
530.1826, 103.1507
530.6647, 102.2191
531.1469, 102.0264
531.6290, 101.9173
532.1111, 101.4629
532.5932, 100.8388
533.0753, 100.4050
533.5574, 100.4483
534.0396, 100.5179
534.5217, 100.5021
535.0038, 100.3971
535.4859, 100.0901
535.9680, 99.31020
536.4501, 98.59399
536.9323, 98.28555
537.4144, 98.59450
537.8965, 98.70899
538.3786, 98.56798
538.8607, 98.29443
539.3428, 98.08447
539.8250, 97.94648
540.3071, 97.74514
540.7892, 97.45930
541.2713, 97.07675
541.7534, 96.41605
542.2355, 95.52789
542.7177, 94.94784
543.1998, 95.34444
543.6819, 96.14127
544.1640, 96.46778
544.6461, 96.25417
545.1282, 95.74497
545.6104, 94.61856
546.0925, 93.49287
546.5746, 93.09670
547.0567, 94.22095
547.5388, 95.27171
548.0209, 95.75549
548.5031, 95.78036
548.9852, 95.59869
549.4673, 94.93658
549.9494, 94.39909
550.4315, 94.19984
550.9136, 94.33681
551.3958, 94.26899
551.8779, 93.83228
552.3600, 93.46766
552.8421, 93.58949
553.3242, 94.30676
553.8063, 94.36606
554.2885, 93.54882
554.7706, 92.53008
555.2527, 92.28395
555.7348, 92.69395
556.2169, 93.03453
556.6990, 93.07217
557.1812, 92.95135
557.6633, 92.88274
558.1454, 92.83526
558.6275, 92.69137
559.1096, 92.14059
559.5917, 91.63448
560.0739, 91.64456
560.5560, 92.20996
561.0381, 92.68452
561.5202, 92.77431
562.0023, 92.68712
562.4844, 92.57455
562.9666, 92.49746
563.4487, 92.32589
563.9308, 91.86185
564.4129, 91.38128
564.8950, 91.38592
565.3771, 92.26675
565.8593, 92.71139
566.3414, 92.21528
566.8235, 91.08376
567.3056, 90.82532
567.7877, 91.57114
568.2698, 92.24113
568.7520, 91.98497
569.2341, 91.10133
569.7162, 90.79017
570.1983, 91.11666
570.6804, 91.58210
571.1625, 91.78126
571.6447, 91.79328
572.1268, 91.73479
572.6089, 91.60803
573.0910, 91.47492
573.5731, 91.39572
574.0552, 91.33465
574.5374, 91.22678
575.0195, 90.83883
575.5016, 90.61838
575.9837, 90.88674
576.4658, 91.57828
576.9479, 91.85474
577.4301, 91.38908
577.9122, 90.87674
578.3943, 90.67165
578.8764, 90.90066
579.3585, 90.60943
579.8406, 89.52895
580.3228, 88.52583
580.8049, 88.70069
581.2870, 89.97255
581.7691, 90.94345
582.2512, 91.37422
582.7333, 91.39620
583.2155, 90.94041
583.6975, 90.19637
584.1796, 89.74221
584.6617, 90.12536
585.1439, 90.71839
585.6260, 90.98312
586.1081, 90.95788
586.5902, 90.84752
587.0723, 90.57619
587.5544, 90.38169
588.0366, 90.41699
588.5187, 90.74588
589.0008, 91.10092
589.4829, 91.63728
589.9650, 92.06258
590.4471, 92.14026
590.9293, 91.72737
591.4114, 91.28691
591.8935, 90.81633
592.3756, 90.36356
592.8577, 90.01645
593.3398, 89.78097
593.8220, 89.59116
594.3041, 89.38097
594.7862, 89.23664
595.2683, 89.50063
595.7504, 90.10001
596.2325, 90.51604
596.7147, 90.12258
597.1968, 89.52938
597.6789, 89.54648
598.1610, 90.24279
598.6431, 90.81435
599.1252, 90.72762
599.6074, 90.37192
600.0895, 90.05019
600.5716, 89.74653
601.0537, 89.60378
601.5358, 89.71989
602.0179, 89.98153
602.5001, 90.24422
602.9822, 90.46557
603.4643, 90.79811
603.9464, 91.41132
604.4285, 92.09592
604.9106, 91.99987
605.3928, 91.00913
605.8749, 90.27579
606.3570, 90.69155
606.8391, 91.77994
607.3212, 91.75632
607.8033, 90.67173
608.2855, 89.75957
608.7676, 90.36003
609.2497, 91.53419
609.7318, 92.02772
610.2139, 91.54440
610.6960, 90.94099
611.1782, 90.62386
611.6603, 90.46141
612.1424, 90.31056
612.6245, 89.95019
613.1066, 89.83340
613.5887, 90.12789
614.0709, 90.67986
614.5530, 91.24496
