##NAMES=Petalite
##RRUFFID=R060365
##IDEAL CHEMISTRY=LiAlSi_4_O_10_
##LOCALITY=Paprok, near Kamdesh, Nuristan, Kunar Province, Afghanistan
##OWNER=RRUFF
##SOURCE=Herb Obodda
##DESCRIPTION=Colorless fragment
##STATUS=The identification of this mineral has been confirmed by X-ray diffraction and chemical analysis
##URL=rruff.info/R060365
##MEASURED CHEMISTRY=Li_1.00_Al_1.00_Si_4.00_O_10_
91.53320, 231.2993
92.01532, 238.4520
92.49744, 240.4284
92.97955, 237.8908
93.46167, 231.1754
93.94379, 224.4483
94.42590, 219.8902
94.90802, 216.3619
95.39014, 212.1370
95.87225, 207.1688
96.35437, 201.9274
96.83649, 196.3045
97.31860, 190.8138
97.80072, 186.0493
98.28284, 182.2275
98.76495, 178.9700
99.24707, 175.3666
99.72919, 170.7618
100.2113, 166.5932
100.6934, 162.9893
101.1755, 160.0053
101.6577, 157.7771
102.1398, 156.4670
102.6219, 156.2631
103.1040, 155.9436
103.5861, 155.0016
104.0682, 154.3245
104.5504, 154.3986
105.0325, 155.2832
105.5146, 156.6913
105.9967, 158.1972
106.4788, 159.6159
106.9609, 161.6729
107.4431, 163.9903
107.9252, 167.0711
108.4073, 171.6758
108.8894, 178.1685
109.3715, 186.0675
109.8536, 194.7762
110.3358, 204.7296
110.8179, 213.9330
111.3000, 222.6723
111.7821, 230.6020
112.2642, 234.1193
112.7463, 230.4615
113.2285, 222.0381
113.7106, 210.6317
114.1927, 195.7941
114.6748, 180.0804
115.1569, 166.9870
115.6390, 156.6868
116.1212, 148.5430
116.6033, 142.5224
117.0854, 138.0506
117.5675, 134.7171
118.0496, 132.3635
118.5317, 130.8906
119.0139, 129.8473
119.4960, 129.2303
119.9781, 129.1423
120.4602, 129.7104
120.9423, 130.8118
121.4244, 132.2560
121.9066, 133.9124
122.3887, 135.7915
122.8708, 137.8078
123.3529, 139.5854
123.8350, 141.7797
124.3171, 144.8652
124.7993, 148.7823
125.2814, 152.9006
125.7635, 156.4583
126.2456, 159.2004
126.7277, 163.3223
127.2098, 169.8023
127.6920, 177.2485
128.1741, 184.0601
128.6562, 189.7284
129.1383, 195.5419
129.6204, 203.1836
130.1025, 212.4105
130.5847, 222.4582
131.0668, 233.1359
131.5489, 244.4174
132.0310, 256.1265
132.5131, 268.1358
132.9952, 280.9689
133.4774, 294.8920
133.9595, 309.9103
134.4416, 325.8039
134.9237, 342.4508
135.4058, 359.9727
135.8879, 377.9543
136.3701, 395.9937
136.8522, 414.6390
137.3343, 434.5770
137.8164, 456.0460
138.2985, 477.8923
138.7806, 498.4903
139.2628, 517.8240
139.7449, 535.6989
140.2270, 552.4283
140.7091, 567.9064
141.1912, 582.2318
141.6733, 595.3767
142.1555, 607.1129
142.6376, 616.3937
143.1197, 622.2180
143.6018, 626.4391
144.0839, 629.4077
144.5660, 630.8411
145.0482, 630.1872
145.5303, 627.0274
146.0124, 621.5569
146.4945, 615.1857
146.9766, 608.7247
147.4587, 600.8817
147.9409, 590.6406
148.4230, 578.3317
148.9051, 565.4179
149.3872, 552.5673
149.8693, 539.9351
150.3514, 527.6954
150.8336, 516.7283
151.3157, 505.6307
151.7978, 492.7634
152.2799, 477.7777
152.7620, 462.7596
153.2441, 449.2150
153.7263, 436.7070
154.2084, 424.4510
154.6905, 412.2292
155.1726, 400.1906
155.6547, 388.5419
156.1368, 377.2627
156.6190, 366.5800
157.1011, 356.5892
157.5832, 347.1631
158.0653, 337.9539
158.5474, 328.8148
159.0295, 319.7478
159.5117, 310.7797
159.9938, 301.3592
160.4759, 292.5907
160.9580, 285.1511
161.4401, 278.7532
161.9222, 272.6594
162.4044, 266.1488
162.8865, 258.9854
163.3686, 252.6119
163.8507, 247.5090
164.3328, 242.6718
164.8149, 237.7259
165.2971, 232.6047
165.7792, 227.5573
166.2613, 222.8688
166.7434, 218.8544
167.2255, 214.2866
167.7076, 208.4471
168.1898, 202.5995
168.6719, 197.7382
169.1540, 194.0125
169.6361, 190.8177
170.1182, 187.3049
170.6003, 183.2733
171.0825, 179.4335
171.5646, 175.6411
172.0467, 172.1342
172.5288, 169.2834
173.0109, 167.2403
173.4930, 165.5944
173.9752, 163.6949
174.4573, 161.5265
174.9394, 159.3447
175.4215, 156.9689
175.9036, 154.6233
176.3857, 152.8749
176.8679, 151.9958
177.3500, 151.6025
177.8321, 151.1618
178.3142, 150.6630
178.7963, 150.2019
179.2784, 149.6925
179.7606, 149.1848
180.2427, 149.1506
180.7248, 149.9856
181.2069, 151.1437
181.6890, 152.1491
182.1711, 152.9692
182.6533, 153.7137
183.1354, 154.6591
183.6175, 155.9156
184.0996, 156.5024
184.5817, 155.7035
185.0638, 154.4286
185.5460, 153.2417
186.0281, 152.2520
186.5102, 151.0292
186.9923, 148.9532
187.4744, 145.8456
187.9565, 142.2885
188.4387, 138.1537
188.9208, 133.7796
189.4029, 129.2897
189.8850, 124.7299
190.3671, 120.3324
190.8492, 116.4679
191.3314, 113.3745
191.8135, 110.5602
192.2956, 108.0047
192.7777, 105.6774
193.2598, 103.6354
193.7419, 101.8955
194.2241, 100.2935
194.7062, 98.43550
195.1883, 95.55020
195.6704, 93.31896
196.1525, 92.21471
196.6346, 91.64851
197.1168, 90.93364
197.5989, 89.76849
198.0810, 88.33325
198.5631, 87.15341
199.0452, 86.46239
199.5273, 85.69778
200.0095, 84.66313
200.4916, 83.51404
200.9737, 82.52144
201.4558, 81.82554
201.9379, 81.30937
202.4200, 80.59477
202.9022, 79.49524
203.3843, 78.55769
203.8664, 78.14106
204.3485, 78.05871
204.8306, 77.72070
205.3127, 76.68891
205.7949, 75.47256
206.2770, 75.19935
206.7591, 76.21938
207.2412, 77.31924
207.7233, 77.82779
208.2054, 77.80968
208.6876, 77.62428
209.1697, 77.28678
209.6518, 76.95236
210.1339, 76.87560
210.6160, 77.16142
211.0981, 77.43023
211.5803, 77.35923
212.0624, 76.94846
212.5445, 76.48519
213.0266, 76.38233
213.5087, 76.04416
213.9908, 74.72652
214.4730, 72.17904
214.9551, 69.46697
215.4372, 67.85413
215.9193, 67.50229
216.4014, 67.20438
216.8836, 66.79820
217.3657, 66.21526
217.8478, 65.30556
218.3299, 64.03050
218.8120, 62.66508
219.2941, 61.55790
219.7763, 60.70876
220.2584, 60.13947
220.7405, 60.20199
221.2226, 60.31035
221.7047, 60.01913
222.1868, 59.21648
222.6690, 58.17815
223.1511, 57.34850
223.6332, 56.84711
224.1153, 56.27565
224.5974, 55.43998
225.0795, 54.62859
225.5617, 54.07972
226.0438, 53.85082
226.5259, 53.79076
227.0080, 53.63926
227.4901, 53.33694
227.9722, 53.04791
228.4544, 52.80017
228.9365, 52.55394
229.4186, 52.25154
229.9007, 51.88752
230.3828, 51.53815
230.8649, 51.34235
231.3471, 51.39832
231.8292, 51.46650
232.3113, 51.61659
232.7934, 51.73835
233.2755, 51.72661
233.7576, 51.55700
234.2398, 51.29815
234.7219, 51.06020
235.2040, 50.80741
235.6861, 50.65467
236.1682, 50.53059
236.6503, 50.53923
237.1325, 50.86924
237.6146, 51.55088
238.0967, 52.30559
238.5788, 52.70480
239.0609, 52.54222
239.5430, 52.47024
240.0252, 52.58784
240.5073, 52.76509
240.9894, 52.84301
241.4715, 52.78498
241.9536, 52.73473
242.4357, 52.92756
242.9179, 53.46162
243.4000, 53.78711
243.8821, 53.50392
244.3642, 53.14782
244.8463, 53.39287
245.3284, 54.39603
245.8106, 55.61198
246.2927, 56.42913
246.7748, 56.84227
247.2569, 57.12640
247.7390, 57.20116
248.2211, 57.21924
248.7033, 57.31646
249.1854, 57.49866
249.6675, 57.87236
250.1496, 58.56043
250.6317, 59.54458
251.1138, 60.79117
251.5960, 62.46128
252.0781, 64.32401
252.5602, 66.22087
253.0423, 68.19294
253.5244, 69.82877
254.0065, 70.54578
254.4887, 70.59387
254.9708, 70.58200
255.4529, 70.59114
255.9350, 70.65039
256.4171, 70.91135
256.8992, 71.47594
257.3813, 71.79247
257.8635, 70.96785
258.3456, 69.65246
258.8277, 68.98929
259.3098, 69.62752
259.7919, 70.90152
260.2740, 71.83627
260.7562, 72.32974
261.2383, 72.92099
261.7204, 73.83674
262.2025, 75.06069
262.6846, 76.68192
263.1667, 78.86841
263.6489, 81.28846
264.1310, 83.36862
264.6131, 84.93531
265.0952, 86.92381
265.5773, 89.89568
266.0594, 93.44637
266.5416, 97.30630
267.0237, 101.4391
267.5058, 105.7746
267.9879, 110.1523
268.4700, 114.4447
268.9521, 119.3329
269.4343, 124.8693
269.9164, 131.2340
270.3985, 138.7278
270.8806, 147.4568
271.3627, 157.0049
271.8448, 166.7669
272.3270, 176.6545
272.8091, 187.4413
273.2912, 198.6942
273.7733, 211.3911
274.2554, 226.4386
274.7375, 244.0568
275.2197, 263.3561
275.7018, 283.4647
276.1839, 304.1691
276.6660, 326.5468
277.1481, 351.4663
277.6302, 377.6579
278.1124, 404.7074
278.5945, 432.5183
279.0766, 460.4366
279.5587, 488.2608
280.0408, 516.2654
280.5229, 542.3755
281.0051, 568.1636
281.4872, 590.1288
281.9693, 607.9817
282.4514, 620.8786
282.9335, 626.9843
283.4156, 624.1960
283.8978, 612.4263
284.3799, 595.9794
284.8620, 572.3824
285.3441, 546.0259
285.8262, 516.9778
286.3083, 486.3507
286.7905, 455.8752
287.2726, 426.5659
287.7547, 398.5209
288.2368, 373.2945
288.7189, 351.0674
289.2010, 331.9254
289.6832, 315.9329
290.1653, 302.9301
290.6474, 292.8017
291.1295, 285.7373
291.6116, 281.2312
292.0938, 277.5386
292.5759, 276.6339
293.0580, 273.5620
293.5401, 267.2183
294.0222, 258.5035
294.5043, 248.1937
294.9865, 236.5868
295.4686, 224.1391
295.9507, 211.8171
296.4328, 199.0193
296.9149, 187.5819
297.3970, 177.8731
297.8792, 169.3092
298.3613, 161.4226
298.8434, 154.0461
299.3255, 147.4086
299.8076, 141.9196
300.2897, 137.7819
300.7719, 134.4400
301.2540, 131.8608
301.7361, 129.9093
302.2182, 128.6029
302.7003, 127.8925
303.1824, 127.5327
303.6646, 127.1332
304.1467, 126.4283
304.6288, 126.7051
305.1109, 128.2840
305.5930, 130.4930
306.0751, 133.1135
306.5573, 136.1028
307.0394, 139.4617
307.5215, 143.1298
308.0036, 147.0972
308.4857, 151.8924
308.9678, 157.6272
309.4500, 164.1524
309.9321, 171.4661
310.4142, 179.5929
310.8963, 188.4860
311.3784, 198.0914
311.8605, 208.5185
312.3427, 220.3835
312.8248, 234.1482
313.3069, 249.1804
313.7890, 265.8155
314.2711, 283.4930
314.7532, 301.9669
315.2354, 321.0797
315.7175, 340.3038
316.1996, 357.8693
316.6817, 373.5861
317.1638, 387.8184
317.6459, 402.4809
318.1281, 414.9455
318.6102, 422.9779
319.0923, 425.8408
319.5744, 424.0005
320.0565, 418.0635
320.5386, 407.5537
321.0208, 393.6627
321.5029, 375.0731
321.9850, 354.7600
322.4671, 333.9131
322.9492, 312.9373
323.4313, 292.2865
323.9135, 272.0741
324.3956, 252.1391
324.8777, 233.6266
325.3598, 216.3717
325.8419, 200.6448
326.3240, 186.6203
326.8062, 174.1942
327.2883, 162.9641
327.7704, 152.5883
328.2525, 143.0922
328.7346, 134.5421
329.2167, 127.2596
329.6989, 120.6365
330.1810, 114.5815
330.6631, 109.0486
331.1452, 104.0653
331.6273, 99.65761
332.1094, 95.74376
332.5916, 92.09298
333.0737, 88.81693
333.5558, 85.63743
334.0379, 82.41179
334.5200, 79.28078
335.0021, 76.39006
335.4843, 73.77719
335.9664, 71.43705
336.4485, 69.40465
336.9306, 67.74323
337.4127, 66.19347
337.8948, 64.60648
338.3770, 63.20525
338.8591, 62.22297
339.3412, 61.62215
339.8233, 61.09705
340.3055, 60.17745
340.7876, 58.75543
341.2697, 58.07955
341.7518, 58.90461
342.2339, 59.78611
342.7160, 60.12621
343.1982, 60.06862
343.6803, 60.02980
344.1624, 60.25446
344.6445, 60.73030
345.1266, 61.34806
345.6087, 61.81902
346.0909, 62.97094
346.5730, 65.38215
347.0551, 68.40292
347.5372, 71.14701
348.0193, 73.21696
348.5014, 75.08205
348.9836, 77.45939
349.4657, 80.14344
349.9478, 84.01795
350.4299, 89.77666
350.9120, 96.55154
351.3941, 103.7220
351.8763, 111.1648
352.3584, 119.3467
352.8405, 128.8042
353.3226, 139.5988
353.8047, 150.8063
354.2868, 162.4323
354.7690, 174.3696
355.2511, 186.8540
355.7332, 199.7023
356.2153, 211.9917
356.6974, 223.7720
357.1795, 234.6321
357.6617, 243.0605
358.1438, 249.1357
358.6259, 252.3268
359.1080, 252.2134
359.5901, 249.2883
360.0722, 243.9168
360.5544, 235.6103
361.0365, 225.6424
361.5186, 215.4971
362.0007, 205.2090
362.4828, 194.7886
362.9649, 183.6171
363.4471, 172.6701
363.9292, 163.0199
364.4113, 154.8777
364.8934, 147.5187
365.3755, 140.2561
365.8576, 133.2280
366.3398, 127.2882
366.8219, 122.8866
367.3040, 119.2524
367.7861, 115.3616
368.2682, 111.2757
368.7503, 107.9855
369.2325, 106.2506
369.7146, 105.4415
370.1967, 104.4030
370.6788, 102.9439
371.1609, 101.8031
371.6430, 101.6188
372.1252, 102.2415
372.6073, 103.1595
373.0894, 104.3839
373.5715, 105.8240
374.0536, 107.0991
374.5357, 108.3611
375.0179, 110.6474
375.5000, 114.5946
375.9821, 119.7625
376.4642, 125.0062
376.9463, 129.9189
377.4284, 135.7173
377.9106, 142.9230
378.3927, 151.2733
378.8748, 160.5339
379.3569, 170.7236
379.8390, 181.1756
380.3211, 191.1368
380.8033, 200.5418
381.2854, 209.6862
381.7675, 220.1494
382.2496, 229.1882
382.7317, 234.8357
383.2138, 236.9315
383.6960, 236.0630
384.1781, 232.5210
384.6602, 226.3530
385.1423, 218.2428
385.6244, 207.4637
386.1065, 195.9574
386.5887, 183.8741
387.0708, 171.6258
387.5529, 159.6646
388.0350, 148.1565
388.5171, 137.2906
388.9992, 127.4320
389.4814, 118.9263
389.9635, 111.0907
390.4456, 103.6906
390.9277, 97.09322
391.4098, 91.73307
391.8919, 87.59658
392.3741, 84.15086
392.8562, 80.89910
393.3383, 77.84180
393.8204, 74.88769
394.3025, 71.83494
394.7846, 69.07928
395.2668, 66.82938
395.7489, 64.96141
396.2310, 63.24781
396.7131, 61.55698
397.1952, 59.91286
397.6773, 58.38062
398.1595, 56.89683
398.6416, 55.64760
399.1237, 54.71567
399.6058, 53.95646
400.0879, 53.27525
400.5700, 52.63885
401.0522, 52.02321
401.5343, 51.40375
402.0164, 50.79189
402.4985, 50.11782
402.9806, 49.18380
403.4627, 48.37962
403.9449, 48.01967
404.4270, 47.93813
404.9091, 47.69774
405.3912, 46.97355
405.8733, 45.92047
406.3554, 45.03846
406.8376, 44.38820
407.3197, 43.74152
407.8018, 42.68899
408.2839, 41.73709
408.7660, 41.60260
409.2481, 42.59574
409.7303, 43.63241
410.2124, 43.44049
410.6945, 42.11374
411.1766, 41.15788
411.6587, 41.11658
412.1408, 41.24561
412.6230, 40.75172
413.1051, 39.73029
413.5872, 38.89138
414.0693, 38.65112
414.5514, 38.73193
415.0335, 38.76509
415.5157, 38.74413
415.9978, 38.49907
416.4799, 37.70522
416.9620, 36.63937
417.4441, 36.14545
417.9262, 36.62821
418.4084, 37.18859
418.8905, 37.27594
419.3726, 37.04505
419.8547, 36.92214
420.3368, 37.08191
420.8189, 37.30450
421.3011, 37.20140
421.7832, 36.67405
422.2653, 36.26307
422.7474, 36.06418
423.2295, 35.97905
423.7116, 35.96049
424.1938, 35.98611
424.6759, 35.98471
425.1580, 35.88527
425.6401, 35.69957
426.1222, 35.64837
426.6043, 35.90104
427.0865, 36.06957
427.5686, 35.99908
428.0507, 35.80492
428.5328, 35.64909
429.0149, 35.59343
429.4970, 35.59125
429.9792, 35.56734
430.4613, 35.54882
430.9434, 35.44078
431.4255, 35.03743
431.9076, 34.73695
432.3897, 34.85841
432.8719, 35.30915
433.3540, 35.74404
433.8361, 35.90282
434.3182, 35.80742
434.8003, 35.59210
435.2824, 35.09052
435.7646, 34.73269
436.2467, 34.70716
436.7288, 34.82151
437.2109, 34.85180
437.6930, 34.72630
438.1751, 34.60659
438.6573, 34.77769
439.1394, 35.27832
439.6215, 35.48104
440.1036, 34.91272
440.5857, 34.46998
441.0678, 34.90549
441.5500, 35.99610
442.0321, 36.87654
442.5142, 37.01104
442.9963, 36.70173
443.4784, 36.44153
443.9605, 36.21923
444.4427, 36.14455
444.9248, 36.38852
445.4069, 36.76003
445.8890, 36.87835
446.3711, 36.58247
446.8532, 36.44240
447.3354, 36.97213
447.8175, 37.86177
448.2996, 38.43061
448.7817, 38.51446
449.2638, 38.34033
449.7459, 38.05146
450.2281, 37.63794
450.7102, 37.55204
451.1923, 38.09921
451.6744, 38.72192
452.1565, 39.05164
452.6386, 39.15753
453.1208, 39.28107
453.6029, 39.54138
454.0850, 39.92436
454.5671, 40.39147
455.0492, 40.90977
455.5313, 41.57383
456.0135, 42.55325
456.4956, 43.56587
456.9777, 44.22321
457.4598, 44.58599
457.9419, 45.22322
458.4240, 46.74070
458.9062, 49.15132
459.3883, 51.35579
459.8704, 53.25420
460.3525, 55.05300
460.8346, 56.34436
461.3167, 57.72702
461.7989, 59.90736
462.2810, 63.16527
462.7631, 67.29404
463.2452, 72.05222
463.7273, 77.48412
464.2094, 83.29173
464.6916, 89.61218
465.1737, 96.16482
465.6558, 103.3832
466.1379, 110.8021
466.6200, 117.0174
467.1021, 121.6084
467.5843, 124.3389
468.0664, 124.5164
468.5485, 121.9827
469.0306, 117.9535
469.5127, 112.2576
469.9948, 105.7266
470.4770, 99.60976
470.9591, 93.80013
471.4412, 88.97281
471.9233, 85.30650
472.4054, 82.88229
472.8875, 82.09260
473.3697, 83.05566
473.8518, 84.87518
474.3339, 86.77435
474.8160, 88.78999
475.2981, 91.44160
475.7802, 94.83097
476.2624, 98.71145
476.7445, 102.8671
477.2266, 107.4717
477.7087, 112.7644
478.1908, 118.8773
478.6729, 125.8355
479.1551, 133.5991
479.6372, 141.8880
480.1193, 151.9010
480.6014, 163.7643
481.0835, 177.0215
481.5656, 191.0659
482.0478, 206.2285
482.5299, 223.2269
483.0120, 242.3123
483.4941, 263.9296
483.9762, 289.0381
484.4583, 317.3384
484.9405, 350.0186
485.4226, 387.3833
485.9047, 428.8311
486.3868, 473.7234
486.8689, 522.0510
487.3510, 573.8594
487.8332, 630.5502
488.3153, 690.8760
488.7974, 751.9130
489.2795, 816.2220
489.7616, 874.3828
490.2437, 924.3131
490.7259, 963.4024
491.2080, 986.3493
491.6901, 992.0655
492.1722, 981.1291
492.6543, 950.7604
493.1364, 903.8467
493.6186, 847.0134
494.1007, 779.9552
494.5828, 709.5361
495.0649, 642.1315
495.5470, 577.7869
496.0291, 519.2636
496.5113, 466.6051
496.9934, 419.5250
497.4755, 378.5438
497.9576, 342.9401
498.4397, 311.1881
498.9218, 282.7751
499.4040, 257.5705
499.8861, 235.7661
500.3682, 218.5876
500.8503, 203.0989
501.3324, 189.2810
501.8145, 176.8853
502.2967, 165.7809
502.7788, 155.9020
503.2609, 147.1718
503.7430, 139.6077
504.2251, 132.9915
504.7072, 126.4976
505.1894, 119.8163
505.6715, 113.9266
506.1536, 109.5453
506.6357, 105.7131
507.1178, 101.7376
507.5999, 97.53336
508.0821, 93.45530
508.5642, 89.58515
509.0463, 86.05226
509.5284, 83.35910
510.0105, 81.71298
510.4926, 80.14417
510.9748, 78.04359
511.4569, 75.61192
511.9390, 73.33723
512.4211, 71.35143
512.9032, 69.35475
513.3853, 66.96725
513.8674, 64.53861
514.3495, 62.78006
514.8317, 61.83335
515.3138, 61.18170
515.7959, 60.30333
516.2780, 59.17068
516.7601, 58.18615
517.2422, 57.44947
517.7244, 56.71866
518.2065, 55.96883
518.6886, 55.15507
519.1707, 54.23426
519.6528, 53.19087
520.1349, 52.00437
520.6171, 50.51487
521.0992, 48.44516
521.5813, 47.20916
522.0634, 47.68604
522.5455, 48.16010
523.0276, 48.03069
523.5098, 47.44882
523.9919, 46.73566
524.4740, 45.99390
524.9561, 45.28440
525.4382, 44.69992
525.9203, 44.24573
526.4025, 43.80802
526.8846, 43.38853
527.3667, 42.94413
527.8488, 42.41274
528.3309, 41.80959
528.8130, 41.21712
529.2952, 40.54282
529.7773, 39.97865
530.2594, 39.87602
530.7415, 40.09673
531.2236, 39.95412
531.7057, 39.07466
532.1879, 37.87647
532.6700, 37.16706
533.1521, 37.17369
533.6342, 37.18157
534.1163, 37.19809
534.5984, 37.19706
535.0806, 37.22310
535.5627, 37.22057
536.0448, 37.02480
536.5269, 36.51658
537.0090, 35.82347
537.4911, 35.34556
537.9733, 35.16901
538.4554, 35.01329
538.9375, 34.83949
539.4196, 34.68010
539.9017, 34.64784
540.3839, 34.67535
540.8660, 34.48213
541.3481, 33.68671
541.8302, 32.66101
542.3123, 32.36943
542.7944, 32.91978
543.2766, 33.24854
543.7587, 32.83161
544.2408, 32.06227
544.7229, 31.48430
545.2050, 31.09508
545.6871, 30.88154
546.1693, 30.88736
546.6514, 31.03951
547.1335, 31.40244
547.6156, 31.89877
548.0977, 32.06770
548.5798, 31.55384
549.0620, 30.62861
549.5441, 30.21180
550.0262, 30.93629
550.5083, 31.33869
550.9904, 31.34223
551.4725, 31.07505
551.9547, 30.52218
552.4368, 29.77114
552.9189, 29.01302
553.4010, 28.35535
553.8831, 27.84678
554.3652, 27.76049
554.8474, 28.32926
555.3295, 28.73301
555.8116, 28.57283
556.2937, 28.30309
556.7758, 28.30867
557.2579, 28.58316
557.7401, 28.71903
558.2222, 28.30814
558.7043, 27.67254
559.1864, 27.39046
559.6685, 27.47997
560.1506, 27.63419
560.6328, 27.73566
561.1149, 27.78149
561.5970, 27.76509
562.0791, 27.70013
562.5612, 27.55141
563.0433, 27.26768
563.5255, 26.93187
564.0076, 26.54915
564.4897, 26.16599
564.9718, 25.91244
565.4539, 25.87830
565.9360, 26.01245
566.4182, 26.15526
566.9003, 26.38561
567.3824, 26.47153
567.8645, 26.24572
568.3466, 26.01705
568.8287, 26.05064
569.3109, 26.27467
569.7930, 26.37457
570.2751, 26.08750
570.7572, 25.62494
571.2393, 25.46398
571.7214, 25.63181
572.2036, 25.76717
572.6857, 25.71988
573.1678, 25.63281
573.6499, 25.74866
574.1320, 26.06103
574.6141, 26.13490
575.0963, 25.64973
575.5784, 25.03827
576.0605, 24.58459
576.5426, 24.32111
577.0247, 24.38392
577.5068, 24.88241
577.9890, 25.42577
578.4711, 25.20491
578.9532, 23.56909
579.4353, 22.85138
579.9174, 23.77375
580.3995, 24.77126
580.8817, 25.12635
581.3638, 24.98891
581.8459, 24.73185
582.3280, 24.51966
582.8101, 24.35043
583.2922, 24.21512
583.7744, 24.11241
584.2565, 24.08359
584.7386, 24.22198
585.2207, 24.30836
585.7029, 24.13292
586.1850, 23.78937
586.6671, 23.51781
587.1492, 23.41909
587.6313, 23.34786
588.1135, 23.09536
588.5956, 22.79930
