##NAMES=Pharmacoalumite
##RRUFFID=R060411
##IDEAL CHEMISTRY=KAl_4_(As^5+^O_4_)_3_(OH)_4_&#183;6.5H_2_O
##LOCALITY=Maria Josefa, Rodalquilar, Almeria Province, Spain
##OWNER=RRUFF
##SOURCE=Bob Jenkins
##DESCRIPTION=Pale green, yellow and colorless transparent single cubes associated with quartz
##STATUS=The identification of this mineral is confirmed by single-crystal X-ray diffraction and chemical analysis.
##URL=rruff.info/R060411
##MEASURED CHEMISTRY=(K_0.75_Na_0.25_)_Σ=1_(Al_3.94_Fe^3+^_0.06_)_Σ=4_(As_1.00_O_4_)_3_(OH)_4_·6.5H_2_O ; H not measured but estimated by difference and stoichiometry
205.3492, 54.56826
205.8313, 55.70243
206.3134, 57.52774
206.7955, 58.44297
207.2776, 58.27563
207.7597, 57.99703
208.2419, 58.19525
208.7240, 58.45399
209.2061, 58.29350
209.6882, 57.45049
210.1703, 56.35035
210.6524, 55.75410
211.1346, 55.84866
211.6167, 55.98621
212.0988, 56.03283
212.5809, 55.98899
213.0630, 55.81447
213.5451, 55.47374
214.0273, 55.07684
214.5094, 54.89901
214.9915, 55.12468
215.4736, 55.23677
215.9557, 55.05779
216.4378, 54.76923
216.9200, 54.57646
217.4021, 54.57685
217.8842, 54.65666
218.3663, 54.47309
218.8484, 53.65185
219.3305, 53.11591
219.8127, 53.21483
220.2948, 53.52979
220.7769, 53.56580
221.2590, 53.09708
221.7411, 52.35526
222.2232, 52.02636
222.7054, 52.48267
223.1875, 52.95246
223.6696, 53.61275
224.1517, 54.18777
224.6338, 54.26419
225.1159, 53.65413
225.5980, 52.65917
226.0802, 52.15728
226.5623, 52.55323
227.0444, 52.98405
227.5265, 53.51003
228.0086, 54.00437
228.4907, 54.30315
228.9729, 54.33809
229.4550, 54.14716
229.9371, 53.79692
230.4192, 53.03540
230.9013, 52.51157
231.3834, 52.42049
231.8656, 52.60785
232.3477, 52.94350
232.8298, 53.42894
233.3119, 53.83513
233.7940, 53.48677
234.2761, 51.87689
234.7583, 50.89399
235.2404, 51.55225
235.7225, 53.06391
236.2046, 54.04589
236.6867, 54.00265
237.1688, 53.37736
237.6510, 52.78703
238.1331, 52.12167
238.6152, 51.90359
239.0973, 52.80034
239.5794, 54.24262
240.0615, 54.94004
240.5437, 54.39773
241.0258, 53.32483
241.5079, 52.57504
241.9900, 52.11769
242.4721, 51.89846
242.9542, 51.95123
243.4364, 52.22808
243.9185, 52.63620
244.4006, 53.21892
244.8827, 53.81733
245.3648, 54.30434
245.8469, 54.68590
246.3290, 54.93550
246.8112, 55.11494
247.2933, 55.16020
247.7754, 54.77372
248.2575, 53.59555
248.7396, 52.53716
249.2217, 52.37001
249.7039, 52.90188
250.1860, 53.52128
250.6681, 54.05611
251.1502, 54.44354
251.6323, 54.39568
252.1144, 53.64341
252.5966, 52.86523
253.0787, 52.51157
253.5608, 52.44014
254.0429, 52.31914
254.5250, 51.82348
255.0071, 51.12592
255.4893, 50.96634
255.9714, 51.74863
256.4535, 52.42895
256.9356, 52.39949
257.4177, 51.99109
257.8998, 51.74799
258.3820, 52.00308
258.8641, 52.62097
259.3462, 53.13443
259.8283, 53.52791
260.3104, 53.82720
260.7925, 54.13657
261.2747, 54.35502
261.7568, 54.31137
262.2389, 53.87333
262.7210, 53.20887
263.2031, 52.80563
263.6852, 52.77154
264.1674, 52.83940
264.6495, 53.15014
265.1316, 53.43170
265.6137, 53.29297
266.0958, 52.53778
266.5779, 51.53646
267.0601, 51.23275
267.5422, 52.19245
268.0243, 52.84585
268.5064, 52.59981
268.9885, 52.18493
269.4706, 52.33741
269.9528, 53.30106
270.4349, 54.61679
270.9170, 55.42066
271.3991, 55.54499
271.8812, 55.42691
272.3633, 54.89265
272.8455, 54.30559
273.3276, 53.91742
273.8097, 53.79710
274.2918, 53.88359
274.7739, 54.13548
275.2560, 54.79012
275.7382, 55.08245
276.2202, 54.78267
276.7024, 54.37334
277.1845, 54.03475
277.6666, 53.85740
278.1487, 53.98509
278.6308, 54.69172
279.1129, 56.35939
279.5951, 57.24257
280.0772, 56.50863
280.5593, 55.84942
281.0414, 56.42847
281.5235, 58.06157
282.0056, 59.59683
282.4878, 59.83842
282.9699, 58.49846
283.4520, 57.97535
283.9341, 58.97866
284.4162, 59.98219
284.8983, 60.19934
285.3805, 59.86346
285.8626, 59.77523
286.3447, 60.62776
286.8268, 62.39062
287.3089, 63.33461
287.7910, 62.57507
288.2732, 62.01481
288.7553, 62.15455
289.2374, 62.89288
289.7195, 64.04450
290.2016, 65.54478
290.6837, 67.26529
291.1659, 68.50777
291.6480, 68.90681
292.1301, 69.25010
292.6122, 69.51012
293.0943, 69.82729
293.5764, 70.36832
294.0586, 71.21133
294.5407, 72.33762
295.0228, 73.70415
295.5049, 75.65098
295.9870, 77.43185
296.4691, 79.00414
296.9513, 80.40539
297.4334, 81.61370
297.9155, 82.62698
298.3976, 83.59485
298.8797, 84.75058
299.3618, 86.04846
299.8440, 87.69857
300.3261, 90.05991
300.8082, 92.52840
301.2903, 94.59293
301.7724, 96.16761
302.2545, 97.59596
302.7367, 99.31168
303.2188, 101.4546
303.7009, 103.2934
304.1830, 104.4732
304.6651, 105.6715
305.1472, 107.3009
305.6294, 109.3702
306.1115, 111.6874
306.5936, 114.1233
307.0757, 116.7004
307.5578, 119.0741
308.0399, 120.9204
308.5221, 122.9209
309.0042, 125.6442
309.4863, 128.7974
309.9684, 131.4723
310.4505, 132.9741
310.9326, 133.5845
311.4148, 135.2603
311.8969, 138.9830
312.3790, 142.4702
312.8611, 144.9993
313.3432, 146.9681
313.8253, 149.1801
314.3075, 152.0311
314.7896, 155.0527
315.2717, 157.0205
315.7538, 157.0293
316.2359, 157.2922
316.7180, 158.0536
317.2001, 159.1203
317.6823, 160.4885
318.1644, 162.1309
318.6465, 163.5536
319.1286, 164.0194
319.6107, 163.2086
320.0928, 161.9971
320.5750, 160.0068
321.0571, 157.8817
321.5392, 156.1703
322.0213, 154.9043
322.5034, 153.6816
322.9855, 152.1481
323.4677, 150.2810
323.9498, 148.0155
324.4319, 145.3877
324.9140, 142.3966
325.3961, 138.7102
325.8782, 134.6003
326.3604, 130.7915
326.8425, 127.8333
327.3246, 125.6392
327.8067, 123.1557
328.2888, 120.3908
328.7709, 117.3792
329.2531, 113.8065
329.7352, 110.0577
330.2173, 106.7199
330.6994, 104.0701
331.1815, 102.0047
331.6636, 100.2347
332.1458, 99.56513
332.6279, 98.17819
333.1100, 95.57713
333.5921, 92.46351
334.0742, 89.31870
334.5563, 86.35339
335.0385, 83.78616
335.5206, 81.98379
336.0027, 81.21402
336.4848, 80.60551
336.9669, 80.40748
337.4490, 80.15352
337.9312, 79.50613
338.4133, 78.47404
338.8954, 77.29845
339.3775, 76.18477
339.8596, 75.12540
340.3417, 74.19849
340.8239, 73.23478
341.3060, 72.55288
341.7881, 72.42976
342.2702, 72.66980
342.7523, 72.89993
343.2344, 72.89388
343.7166, 72.68404
344.1987, 72.42686
344.6808, 71.94375
345.1629, 71.62373
345.6450, 71.52929
346.1271, 71.60726
346.6093, 71.80421
347.0914, 72.09750
347.5735, 72.49277
348.0556, 73.03646
348.5377, 74.08293
349.0198, 74.60587
349.5020, 74.14868
349.9841, 73.58404
350.4662, 73.54232
350.9483, 74.06161
351.4304, 74.73339
351.9125, 75.09233
352.3947, 75.05247
352.8768, 75.27389
353.3589, 75.93083
353.8410, 76.67113
354.3231, 77.48438
354.8052, 78.28300
355.2874, 78.91740
355.7695, 79.26395
356.2516, 79.37892
356.7337, 79.61040
357.2158, 80.26028
357.6979, 80.59477
358.1800, 80.21237
358.6621, 79.58469
359.1443, 79.20447
359.6264, 79.25978
360.1085, 79.63589
360.5906, 80.21883
361.0727, 81.25967
361.5548, 81.83306
362.0370, 81.45291
362.5191, 80.90864
363.0012, 80.65812
363.4833, 80.74926
363.9654, 80.97426
364.4475, 81.04475
364.9297, 80.92419
365.4118, 81.27333
365.8939, 82.40186
366.3760, 83.69900
366.8581, 84.96935
367.3402, 86.21151
367.8224, 87.47526
368.3045, 88.83961
368.7866, 90.19444
369.2687, 91.16383
369.7508, 91.54383
370.2329, 91.98204
370.7151, 92.67131
371.1972, 93.53372
371.6793, 94.55714
372.1614, 95.75010
372.6435, 96.95933
373.1256, 97.90218
373.6078, 98.53886
374.0899, 99.47006
374.5720, 101.0658
375.0541, 102.7917
375.5362, 104.2592
376.0183, 105.4766
376.5005, 106.6266
376.9826, 107.8674
377.4647, 109.1459
377.9468, 110.2607
378.4289, 111.1516
378.9110, 111.9809
379.3932, 112.8525
379.8753, 113.7424
380.3574, 114.6204
380.8395, 115.6100
381.3216, 116.4612
381.8037, 116.8740
382.2859, 116.8482
382.7680, 116.5076
383.2501, 115.9424
383.7322, 115.0221
384.2143, 113.5963
384.6964, 111.5896
385.1786, 109.3621
385.6607, 106.9028
386.1428, 104.3918
386.6249, 102.4126
387.1070, 101.2738
387.5891, 100.2257
388.0713, 98.26466
388.5534, 95.48694
389.0355, 92.79221
389.5176, 90.51279
389.9997, 88.30357
390.4818, 85.71299
390.9640, 82.74283
391.4461, 79.93156
391.9282, 77.63346
392.4103, 75.81480
392.8924, 74.15230
393.3745, 72.66216
393.8567, 71.29087
394.3388, 70.12764
394.8209, 69.05801
395.3030, 67.87244
395.7851, 66.47714
396.2672, 64.94854
396.7494, 63.36913
397.2315, 61.58667
397.7136, 60.15984
398.1957, 59.37652
398.6778, 58.76851
399.1599, 57.81364
399.6420, 56.54264
400.1241, 55.55682
400.6063, 55.49752
401.0884, 56.41712
401.5705, 56.41972
402.0526, 54.47871
402.5347, 52.89162
403.0168, 52.71022
403.4990, 53.27661
403.9811, 53.47001
404.4632, 52.75000
404.9453, 51.46906
405.4274, 50.46755
405.9095, 49.84583
406.3917, 49.37440
406.8738, 49.17479
407.3559, 49.01326
407.8380, 48.80695
408.3201, 48.49501
408.8022, 47.93113
409.2844, 46.82257
409.7665, 45.09572
410.2486, 44.11103
410.7307, 44.64146
411.2128, 45.11303
411.6949, 45.05756
412.1771, 44.63780
412.6592, 44.13176
413.1413, 43.65905
413.6234, 43.23254
414.1055, 42.86861
414.5876, 42.54342
415.0698, 42.35168
415.5519, 42.59014
416.0340, 42.78616
416.5161, 42.57722
416.9982, 41.93148
417.4803, 41.13972
417.9625, 40.35869
418.4446, 39.61220
418.9267, 39.00851
419.4088, 38.44809
419.8909, 38.24808
420.3730, 38.96923
420.8552, 40.15463
421.3373, 40.82903
421.8194, 40.37169
422.3015, 39.56993
422.7836, 39.42526
423.2657, 39.92884
423.7479, 40.34417
424.2300, 40.36773
424.7121, 40.15193
425.1942, 39.95530
425.6763, 39.78805
426.1584, 39.59192
426.6406, 39.28848
427.1227, 38.95477
427.6048, 38.71549
428.0869, 38.58928
428.5690, 38.56607
429.0511, 38.67436
429.5333, 38.91172
430.0154, 39.04314
430.4975, 38.91455
430.9796, 38.82439
431.4617, 39.11126
431.9438, 39.57894
432.4260, 39.65069
432.9081, 39.00655
433.3902, 38.00071
433.8723, 37.46985
434.3544, 37.63079
434.8365, 37.94552
435.3187, 38.65584
435.8008, 39.34216
436.2829, 39.66311
436.7650, 39.58149
437.2471, 39.22383
437.7292, 38.65750
438.2114, 37.86678
438.6935, 37.41805
439.1756, 37.46972
439.6577, 37.69628
440.1398, 38.19346
440.6219, 38.77099
441.1040, 39.24849
441.5862, 39.54731
442.0683, 39.56739
442.5504, 39.01563
443.0325, 37.58454
443.5146, 36.52437
443.9967, 35.90223
444.4789, 35.71608
444.9610, 36.29003
445.4431, 37.39256
445.9252, 38.27071
446.4073, 38.24894
446.8894, 37.58922
447.3716, 37.32495
447.8537, 37.59921
448.3358, 37.91316
448.8179, 38.05180
449.3000, 38.11294
449.7821, 38.16417
450.2643, 38.19208
450.7464, 38.34069
451.2285, 38.91103
451.7106, 39.77079
452.1927, 40.20203
452.6748, 39.96701
453.1570, 39.46880
453.6391, 38.93006
454.1212, 38.40163
454.6033, 38.25850
455.0854, 39.07451
455.5675, 39.95339
456.0497, 39.94531
456.5318, 39.17749
457.0139, 38.50548
457.4960, 38.34539
457.9781, 38.58282
458.4602, 38.95076
458.9424, 39.54629
459.4245, 40.04854
459.9066, 40.21528
460.3887, 40.36497
460.8708, 40.99467
461.3529, 42.09148
461.8351, 43.00706
462.3172, 43.09673
462.7993, 42.32916
463.2814, 41.68310
463.7635, 41.03113
464.2456, 40.63495
464.7278, 40.73913
465.2099, 41.07769
465.6920, 41.26116
466.1741, 41.14411
466.6562, 40.93829
467.1383, 41.02623
467.6205, 41.53951
468.1026, 41.93978
468.5847, 42.05114
469.0668, 42.18935
469.5489, 42.54255
470.0310, 43.04725
470.5132, 43.51582
470.9953, 43.85592
471.4774, 44.06279
471.9595, 44.09692
472.4416, 43.91561
472.9237, 43.71813
473.4059, 43.44317
473.8880, 43.27026
474.3701, 43.43810
474.8522, 43.98486
475.3343, 44.50968
475.8164, 44.76873
476.2986, 44.81023
476.7807, 44.74491
477.2628, 44.57964
477.7449, 44.32566
478.2270, 43.88120
478.7091, 43.34843
479.1913, 43.13061
479.6734, 43.30556
480.1555, 43.73429
480.6376, 44.60246
481.1197, 45.64662
481.6018, 46.27649
482.0839, 46.28709
482.5660, 45.99021
483.0482, 45.78153
483.5303, 45.63245
484.0124, 45.73677
484.4945, 46.21156
484.9766, 46.81128
485.4587, 47.59015
485.9409, 48.38587
486.4230, 48.83368
486.9051, 48.71309
487.3872, 48.22637
487.8693, 47.96676
488.3514, 48.09693
488.8336, 48.14914
489.3157, 47.89327
489.7978, 47.71372
490.2799, 47.90032
490.7620, 48.43282
491.2441, 49.09192
491.7263, 49.78865
492.2084, 50.46059
492.6905, 50.73973
493.1726, 50.41887
493.6547, 50.20362
494.1368, 50.45427
494.6190, 50.92308
495.1011, 51.42120
495.5832, 51.93462
496.0653, 52.32560
496.5474, 52.29595
497.0295, 52.05080
497.5117, 52.31506
497.9938, 53.31476
498.4759, 54.32753
498.9580, 54.82570
499.4401, 54.82682
499.9222, 54.53797
500.4044, 53.84793
500.8865, 52.99768
501.3686, 51.73622
501.8507, 50.44766
502.3328, 50.10742
502.8149, 51.08422
503.2971, 52.38791
503.7792, 52.57054
504.2613, 51.18649
504.7434, 50.25288
505.2255, 49.94346
505.7076, 49.85933
506.1898, 50.02592
506.6719, 50.24754
507.1540, 50.13937
507.6361, 49.48419
508.1182, 48.55534
508.6003, 48.05755
509.0825, 48.31268
509.5646, 48.13085
510.0467, 46.96995
510.5288, 45.71092
511.0109, 44.80967
511.4930, 44.23877
511.9752, 43.73777
512.4573, 43.12416
512.9394, 42.48461
513.4215, 42.07647
513.9036, 41.95683
514.3857, 41.68993
514.8679, 41.02001
515.3500, 40.17543
515.8321, 39.45818
516.3142, 38.88549
516.7963, 38.33556
517.2784, 37.58825
517.7606, 36.90814
518.2427, 36.76149
518.7248, 37.16140
519.2069, 37.59279
519.6890, 37.70341
520.1711, 37.57234
520.6533, 37.59167
521.1354, 37.92743
521.6175, 38.16828
522.0996, 38.32871
522.5817, 38.31630
523.0638, 37.91888
523.5460, 37.17408
524.0281, 36.42855
524.5102, 35.99192
524.9923, 35.86374
525.4744, 36.07209
525.9565, 36.95802
526.4387, 37.74217
526.9208, 38.34212
527.4029, 38.73263
527.8850, 38.77571
528.3671, 38.46574
528.8492, 38.21208
529.3314, 38.58862
529.8135, 39.50062
530.2956, 39.97700
530.7777, 39.80620
531.2598, 39.52381
531.7419, 39.40981
532.2241, 39.41613
532.7062, 39.49084
533.1883, 39.67172
533.6704, 39.82396
534.1525, 39.94946
534.6346, 39.96971
535.1168, 39.52789
535.5989, 38.48291
536.0810, 37.64178
536.5631, 37.92805
537.0452, 39.41011
537.5273, 40.40324
538.0095, 40.59255
538.4916, 40.69551
538.9737, 41.19666
539.4558, 41.70730
539.9379, 41.44794
540.4200, 40.22737
540.9022, 38.87113
541.3843, 38.57005
541.8664, 39.51582
542.3485, 40.44399
542.8306, 41.74968
543.3127, 42.57501
543.7948, 42.27024
544.2769, 41.42153
544.7590, 40.91140
545.2411, 41.07452
545.7233, 41.55218
546.2054, 41.96638
546.6875, 42.31737
547.1696, 42.59510
547.6517, 42.82134
548.1339, 42.92931
548.6160, 42.60832
549.0981, 42.09044
549.5802, 42.10701
550.0623, 43.35368
550.5444, 44.57336
551.0266, 44.91560
551.5087, 44.62573
551.9908, 44.17000
552.4729, 43.67373
552.9550, 43.32981
553.4371, 43.36326
553.9193, 43.78325
554.4014, 44.58827
554.8835, 46.48146
555.3656, 47.92876
555.8477, 47.97155
556.3298, 47.35448
556.8120, 47.27642
557.2941, 48.15585
557.7762, 49.28283
558.2583, 49.48618
558.7404, 48.56674
559.2225, 48.42587
559.7047, 49.74152
560.1868, 51.02760
560.6689, 51.39096
561.1510, 51.30951
561.6331, 51.63864
562.1152, 52.74109
562.5974, 54.00382
563.0795, 54.80738
563.5616, 55.29150
564.0437, 56.00376
564.5258, 57.09994
565.0079, 58.21142
565.4901, 58.87243
565.9722, 59.15001
566.4543, 60.10024
566.9364, 62.40076
567.4185, 64.59259
567.9006, 66.12436
568.3828, 67.20753
568.8649, 67.95536
569.3470, 68.47718
569.8291, 69.33105
570.3112, 71.25294
570.7933, 74.33813
571.2755, 76.88669
571.7576, 78.22629
572.2397, 79.88266
572.7218, 82.35419
573.2039, 85.26099
573.6860, 88.20992
574.1682, 91.10946
574.6503, 93.98509
575.1324, 96.81173
575.6145, 99.62798
576.0966, 102.5805
576.5787, 105.6429
577.0609, 108.9902
577.5430, 112.9636
578.0251, 117.1939
578.5072, 120.7431
578.9893, 123.2295
579.4714, 125.8534
579.9536, 129.0101
580.4357, 132.5839
580.9178, 136.6919
581.3999, 141.2069
581.8820, 145.4042
582.3641, 148.6201
582.8463, 151.1415
583.3284, 154.6730
583.8105, 159.8216
584.2926, 165.1877
584.7747, 170.9637
585.2568, 176.7033
585.7390, 182.2244
586.2211, 187.4198
586.7032, 192.0600
587.1853, 195.7994
587.6674, 199.0017
588.1495, 202.8906
588.6317, 207.7710
589.1138, 211.4592
589.5959, 213.0728
590.0780, 213.3114
590.5601, 213.2048
591.0422, 212.7560
591.5244, 211.1618
592.0065, 208.0043
592.4886, 203.7348
592.9707, 198.5663
593.4528, 192.6485
593.9349, 186.2363
594.4171, 179.4247
594.8992, 172.4749
595.3813, 165.8101
595.8634, 159.4980
596.3455, 153.2508
596.8276, 147.0366
597.3098, 140.9147
597.7919, 134.6718
598.2740, 128.5781
598.7561, 123.0476
599.2382, 118.2439
599.7203, 113.9894
600.2025, 109.9375
600.6846, 106.0892
601.1667, 103.1415
601.6488, 101.5852
602.1309, 100.1098
602.6130, 97.55983
603.0952, 94.48787
603.5773, 92.09104
604.0594, 90.71700
604.5415, 89.64191
605.0236, 88.51775
605.5057, 87.43980
605.9879, 86.53038
606.4700, 85.81981
606.9521, 85.38670
607.4342, 85.37461
607.9163, 85.67496
608.3984, 85.44380
608.8806, 83.99063
609.3627, 82.95166
609.8448, 82.78246
610.3269, 82.82491
610.8090, 82.58910
611.2911, 82.04955
611.7733, 81.43800
612.2554, 80.90055
612.7375, 80.41237
613.2196, 79.80267
613.7017, 79.01393
614.1838, 78.75768
614.6660, 79.58169
615.1481, 80.62221
615.6302, 80.83122
616.1123, 80.27104
616.5944, 79.66335
617.0765, 79.24094
617.5587, 78.73714
618.0408, 77.61854
618.5229, 76.32619
619.0050, 75.98158
619.4871, 76.95609
619.9692, 78.30947
620.4514, 78.78551
620.9335, 78.29354
621.4156, 77.61954
621.8977, 76.61375
622.3798, 75.59325
622.8619, 74.57156
623.3441, 73.61449
623.8262, 72.82167
624.3083, 72.21595
624.7904, 71.66867
625.2725, 71.06152
625.7546, 70.43355
626.2367, 69.96140
626.7188, 69.68099
627.2009, 69.21056
627.6830, 68.28529
628.1652, 67.09554
628.6473, 66.06182
629.1294, 65.22416
629.6115, 64.38830
630.0936, 63.55091
630.5757, 62.68159
631.0579, 61.67836
631.5400, 60.62217
632.0221, 59.67779
632.5042, 58.92921
632.9863, 58.40355
633.4684, 58.20709
633.9506, 58.42072
634.4327, 58.57880
634.9148, 58.85797
635.3969, 58.80595
635.8790, 57.90242
636.3611, 56.62828
636.8433, 55.87456
637.3254, 56.01934
637.8075, 56.21142
638.2896, 55.77630
638.7717, 54.97811
639.2538, 54.24553
639.7360, 53.65181
640.2181, 53.32546
640.7002, 53.41331
641.1823, 53.79099
641.6644, 53.95291
642.1465, 53.90535
642.6287, 53.60688
643.1108, 52.59223
643.5929, 51.72679
644.0750, 51.78238
644.5571, 52.50183
645.0392, 53.05263
645.5214, 52.96051
646.0035, 52.50990
646.4856, 52.12869
646.9677, 51.81692
647.4498, 51.59417
647.9319, 51.50295
648.4141, 51.42323
648.8962, 51.26518
649.3783, 51.03683
649.8604, 50.77448
650.3425, 50.49005
650.8246, 50.15865
651.3068, 49.65828
651.7889, 49.16463
652.2710, 48.92276
652.7531, 48.94341
653.2352, 49.08841
653.7173, 49.29830
654.1995, 49.46606
654.6816, 49.05326
655.1637, 47.65090
655.6458, 46.65116
656.1279, 46.60656
656.6100, 46.75446
657.0922, 46.76652
657.5743, 46.61274
658.0564, 46.26344
658.5385, 45.52066
659.0206, 44.83908
659.5027, 44.85671
659.9849, 45.28239
660.4670, 45.19081
660.9491, 44.35511
661.4312, 43.45449
661.9133, 43.12095
662.3954, 43.30779
662.8776, 43.35217
663.3597, 43.32801
663.8418, 43.05580
664.3239, 42.19885
664.8060, 41.32469
665.2881, 41.00389
665.7703, 41.14327
666.2524, 41.15153
666.7345, 40.59750
667.2166, 39.78318
667.6987, 39.22697
668.1808, 38.92602
668.6630, 38.81327
669.1451, 38.95316
669.6272, 39.09242
670.1093, 39.01539
670.5914, 38.71453
671.0735, 38.24747
671.5557, 37.38380
672.0378, 36.63726
672.5199, 36.13433
673.0020, 35.86132
673.4841, 36.00634
673.9662, 36.44051
674.4484, 36.52149
674.9305, 35.65036
675.4126, 34.21503
675.8947, 33.57011
676.3768, 33.91315
676.8589, 34.16442
677.3411, 33.97627
677.8232, 33.78844
678.3053, 34.09829
678.7874, 34.72562
679.2695, 34.99719
679.7516, 34.59867
680.2338, 34.01251
680.7159, 33.35766
681.1980, 32.76201
681.6801, 32.48784
682.1622, 32.54510
682.6443, 32.63131
683.1265, 32.49381
683.6086, 32.18716
684.0907, 31.97659
684.5728, 31.89364
685.0549, 31.83807
685.5370, 31.83846
686.0192, 31.82598
686.5013, 31.68659
686.9834, 31.49867
687.4655, 31.52758
687.9476, 32.08926
688.4297, 32.50196
688.9119, 31.96529
689.3940, 30.85189
689.8761, 29.96810
690.3582, 29.45909
690.8403, 29.25519
691.3224, 29.30139
691.8046, 29.60316
692.2867, 30.20552
692.7688, 31.44232
693.2509, 32.44511
693.7330, 33.61967
694.2151, 34.16213
694.6973, 33.13324
695.1794, 31.11702
695.6615, 29.50807
696.1436, 28.90911
696.6257, 28.89338
