##NAMES=Pharmacosiderite
##RRUFFID=R050574
##IDEAL CHEMISTRY=KFe^3+^_4_(As^5+^O_4_)_3_(OH)_4_&#183;6-7H_2_O
##LOCALITY=Cornwall, England
##OWNER=RRUFF
##SOURCE=University of Arizona Mineral Museum
##DESCRIPTION=Druse of bluish-green cubes
##STATUS=The identification of this mineral is confirmed by single-crystal X-ray diffraction and chemical analysis.
##URL=rruff.info/R050574
##MEASURED CHEMISTRY=K_1.27_(Fe^3+^_3.73_Fe^2+^_0.27_)_Σ=4_(As_1.00_O_4_)_3_(OH)_4_·6H_2_O
124.1473, 1135.955
124.6294, 1199.553
125.1115, 1247.700
125.5937, 1293.036
126.0758, 1353.958
126.5579, 1429.481
127.0400, 1504.337
127.5221, 1565.541
128.0043, 1616.861
128.4864, 1668.682
128.9685, 1723.769
129.4506, 1782.041
129.9327, 1843.111
130.4148, 1906.884
130.8969, 1974.356
131.3791, 2049.833
131.8612, 2132.167
132.3433, 2208.864
132.8254, 2270.719
133.3075, 2319.355
133.7896, 2373.815
134.2718, 2435.153
134.7539, 2500.694
135.2360, 2567.427
135.7181, 2635.367
136.2002, 2697.544
136.6823, 2748.281
137.1645, 2786.551
137.6466, 2821.708
138.1287, 2853.730
138.6108, 2883.783
139.0929, 2918.622
139.5750, 2962.062
140.0572, 3002.959
140.5393, 3031.232
141.0214, 3042.779
141.5035, 3052.097
141.9856, 3060.115
142.4677, 3065.979
142.9499, 3080.448
143.4320, 3102.240
143.9141, 3133.363
144.3962, 3177.960
144.8783, 3251.759
145.3604, 3317.208
145.8425, 3362.135
146.3247, 3374.829
146.8068, 3394.396
147.2889, 3426.305
147.7710, 3464.503
148.2531, 3495.315
148.7352, 3503.642
149.2174, 3516.875
149.6995, 3546.047
150.1816, 3619.771
150.6637, 3676.153
151.1458, 3707.030
151.6279, 3715.410
152.1101, 3725.126
152.5922, 3739.067
153.0743, 3753.806
153.5564, 3767.085
154.0385, 3780.926
154.5206, 3791.212
155.0028, 3798.759
155.4849, 3803.893
155.9670, 3799.984
156.4491, 3777.154
156.9312, 3747.579
157.4133, 3723.997
157.8955, 3711.442
158.3776, 3703.814
158.8597, 3700.117
159.3418, 3701.820
159.8239, 3701.490
160.3060, 3698.672
160.7882, 3692.052
161.2703, 3679.363
161.7524, 3654.662
162.2345, 3626.909
162.7166, 3601.666
163.1987, 3581.137
163.6808, 3560.816
164.1630, 3534.490
164.6451, 3505.483
165.1272, 3484.287
165.6093, 3484.197
166.0914, 3490.758
166.5735, 3490.616
167.0557, 3475.166
167.5378, 3457.038
168.0199, 3445.382
168.5020, 3439.405
168.9841, 3433.174
169.4662, 3418.619
169.9484, 3402.411
170.4305, 3393.419
170.9126, 3399.420
171.3947, 3411.670
171.8768, 3421.965
172.3589, 3430.182
172.8411, 3439.200
173.3232, 3451.234
173.8053, 3465.869
174.2874, 3482.282
174.7695, 3498.529
175.2516, 3516.711
175.7338, 3540.240
176.2159, 3569.862
176.6980, 3602.092
177.1801, 3633.045
177.6622, 3663.684
178.1443, 3696.874
178.6264, 3733.348
179.1086, 3774.060
179.5907, 3820.625
180.0728, 3873.700
180.5549, 3931.624
181.0370, 3996.855
181.5191, 4067.658
182.0013, 4134.171
182.4834, 4180.827
182.9655, 4215.642
183.4476, 4267.813
183.9297, 4350.358
184.4118, 4446.714
184.8940, 4522.012
185.3761, 4576.495
185.8582, 4628.039
186.3403, 4698.911
186.8224, 4784.404
187.3046, 4856.925
187.7867, 4906.678
188.2688, 4938.718
188.7509, 4971.944
189.2330, 5007.857
189.7151, 5035.806
190.1973, 5040.994
190.6794, 5024.150
191.1615, 5004.076
191.6436, 4990.254
192.1257, 4980.270
192.6078, 4956.770
193.0900, 4918.792
193.5721, 4869.161
194.0542, 4807.863
194.5363, 4734.484
195.0184, 4662.344
195.5005, 4598.665
195.9826, 4543.337
196.4648, 4487.868
196.9469, 4431.583
197.4290, 4377.004
197.9111, 4330.231
198.3932, 4293.008
198.8753, 4254.938
199.3575, 4208.495
199.8396, 4152.748
200.3217, 4100.988
200.8038, 4053.553
201.2859, 4011.741
201.7680, 3981.074
202.2502, 3963.099
202.7323, 3949.951
203.2144, 3937.012
203.6965, 3924.352
204.1786, 3910.897
204.6607, 3894.892
205.1429, 3878.235
205.6250, 3870.532
206.1071, 3873.537
206.5892, 3881.416
207.0713, 3888.429
207.5534, 3892.513
208.0356, 3904.717
208.5177, 3928.984
208.9998, 3963.961
209.4819, 3997.431
209.9640, 4029.220
210.4461, 4059.923
210.9282, 4088.216
211.4104, 4111.291
211.8925, 4141.025
212.3746, 4180.015
212.8567, 4228.166
213.3388, 4285.747
213.8209, 4356.855
214.3031, 4432.807
214.7852, 4500.289
215.2673, 4549.554
215.7494, 4612.674
216.2315, 4702.055
216.7136, 4821.607
217.1958, 4937.387
217.6779, 5047.108
218.1600, 5155.901
218.6421, 5272.459
219.1242, 5394.989
219.6063, 5529.529
220.0885, 5680.843
220.5706, 5851.179
221.0527, 6026.962
221.5348, 6212.855
222.0169, 6402.429
222.4990, 6586.073
222.9812, 6755.240
223.4633, 6930.494
223.9454, 7117.622
224.4275, 7320.286
224.9096, 7531.209
225.3917, 7753.630
225.8739, 7985.949
226.3560, 8225.906
226.8381, 8478.478
227.3202, 8734.264
227.8023, 8990.669
228.2844, 9238.452
228.7665, 9504.686
229.2487, 9793.533
229.7308, 10097.82
230.2129, 10395.45
230.6950, 10690.49
231.1771, 10969.27
231.6592, 11224.46
232.1414, 11439.28
232.6235, 11663.25
233.1056, 11903.84
233.5877, 12158.01
234.0698, 12392.45
234.5519, 12614.39
235.0341, 12807.05
235.5162, 12960.75
235.9983, 13067.25
236.4804, 13149.09
236.9625, 13214.56
237.4446, 13260.04
237.9268, 13255.29
238.4089, 13192.55
238.8910, 13087.68
239.3731, 12951.90
239.8552, 12785.18
240.3373, 12586.36
240.8195, 12344.17
241.3016, 12062.73
241.7837, 11795.04
242.2658, 11550.57
242.7479, 11309.88
243.2300, 11054.02
243.7122, 10765.78
244.1943, 10495.01
244.6764, 10252.64
245.1585, 10041.08
245.6406, 9826.149
246.1227, 9595.374
246.6048, 9373.639
247.0870, 9186.700
247.5691, 9049.358
248.0512, 8919.061
248.5333, 8786.141
249.0154, 8650.460
249.4975, 8526.288
249.9797, 8410.904
250.4618, 8308.510
250.9439, 8225.298
251.4260, 8169.296
251.9081, 8116.715
252.3902, 8060.099
252.8724, 7997.529
253.3545, 7949.391
253.8366, 7920.299
254.3187, 7901.160
254.8008, 7881.783
255.2829, 7861.650
255.7651, 7842.346
256.2472, 7825.018
256.7293, 7810.371
257.2114, 7788.927
257.6935, 7750.738
258.1756, 7715.489
258.6577, 7714.805
259.1399, 7769.748
259.6220, 7812.073
260.1041, 7818.693
260.5862, 7783.283
261.0683, 7762.104
261.5504, 7765.565
262.0326, 7772.466
262.5147, 7748.518
262.9968, 7677.621
263.4789, 7616.941
263.9610, 7588.369
264.4431, 7596.920
264.9253, 7595.877
265.4074, 7584.306
265.8895, 7564.311
266.3716, 7537.724
266.8537, 7503.200
267.3358, 7466.518
267.8180, 7430.066
268.3001, 7394.947
268.7822, 7352.297
269.2643, 7299.958
269.7464, 7243.252
270.2285, 7187.055
270.7107, 7130.197
271.1928, 7079.008
271.6749, 7034.637
272.1570, 6996.240
272.6391, 6972.733
273.1212, 6969.156
273.6034, 6973.089
274.0855, 6962.727
274.5676, 6933.875
275.0497, 6910.621
275.5318, 6904.438
276.0139, 6916.197
276.4961, 6923.867
276.9782, 6925.937
277.4603, 6926.558
277.9424, 6931.873
278.4245, 6942.099
278.9066, 6955.419
279.3888, 6973.181
279.8709, 6995.472
280.3530, 7012.879
280.8351, 7026.521
281.3172, 7032.837
281.7993, 7028.644
282.2815, 7014.375
282.7636, 6983.355
283.2457, 6925.308
283.7278, 6842.804
284.2099, 6773.442
284.6920, 6721.361
285.1741, 6670.682
285.6563, 6594.588
286.1384, 6492.817
286.6205, 6397.005
287.1026, 6322.297
287.5847, 6265.469
288.0668, 6205.667
288.5490, 6140.797
289.0311, 6080.560
289.5132, 6039.765
289.9953, 6017.712
290.4774, 5999.951
290.9595, 5976.802
291.4417, 5952.559
291.9238, 5943.059
292.4059, 5949.232
292.8880, 5966.397
293.3701, 5992.769
293.8522, 6026.877
294.3344, 6061.094
294.8165, 6091.061
295.2986, 6119.194
295.7807, 6146.920
296.2628, 6172.982
296.7449, 6210.570
297.2271, 6289.249
297.7092, 6394.313
298.1913, 6479.994
298.6734, 6514.701
299.1555, 6520.412
299.6376, 6531.548
300.1198, 6548.719
300.6019, 6567.847
301.0840, 6591.432
301.5661, 6614.235
302.0482, 6624.064
302.5303, 6621.840
303.0125, 6601.345
303.4946, 6548.333
303.9767, 6462.634
304.4588, 6369.125
304.9409, 6290.482
305.4230, 6219.229
305.9052, 6139.977
306.3873, 6046.578
306.8694, 5943.339
307.3515, 5835.548
307.8336, 5723.629
308.3157, 5603.561
308.7979, 5466.173
309.2800, 5321.687
309.7621, 5183.695
310.2442, 5058.160
310.7263, 4940.501
311.2084, 4825.299
311.6906, 4713.475
312.1727, 4610.364
312.6548, 4523.529
313.1369, 4444.575
313.6190, 4366.995
314.1011, 4284.189
314.5833, 4205.256
315.0654, 4134.077
315.5475, 4069.960
316.0296, 4012.592
316.5117, 3969.186
316.9938, 3928.619
317.4760, 3881.691
317.9580, 3814.998
318.4402, 3753.622
318.9223, 3705.692
319.4044, 3669.556
319.8865, 3639.152
320.3686, 3614.998
320.8507, 3594.529
321.3329, 3576.099
321.8150, 3561.047
322.2971, 3546.356
322.7792, 3533.620
323.2613, 3521.458
323.7434, 3504.396
324.2256, 3475.881
324.7077, 3446.444
325.1898, 3420.616
325.6719, 3394.051
326.1540, 3377.873
326.6361, 3379.087
327.1183, 3392.074
327.6004, 3399.272
328.0825, 3395.682
328.5646, 3390.590
329.0467, 3387.976
329.5288, 3393.091
330.0110, 3390.638
330.4931, 3375.329
330.9752, 3353.466
331.4573, 3339.784
331.9394, 3341.486
332.4215, 3341.227
332.9037, 3330.444
333.3858, 3301.287
333.8679, 3289.244
334.3500, 3304.830
334.8321, 3329.813
335.3142, 3331.693
335.7964, 3297.662
336.2785, 3269.932
336.7606, 3264.802
337.2427, 3285.400
337.7248, 3298.757
338.2069, 3303.512
338.6891, 3303.128
339.1712, 3301.438
339.6533, 3298.150
340.1354, 3295.006
340.6175, 3291.082
341.0996, 3287.027
341.5818, 3292.870
342.0639, 3311.548
342.5460, 3330.079
343.0281, 3332.303
343.5102, 3318.461
343.9923, 3305.949
344.4745, 3298.990
344.9566, 3297.125
345.4387, 3301.096
345.9208, 3311.304
346.4029, 3320.764
346.8850, 3319.432
347.3672, 3310.650
347.8493, 3310.084
348.3314, 3324.643
348.8135, 3345.974
349.2956, 3358.358
349.7777, 3362.443
350.2599, 3366.604
350.7419, 3378.604
351.2241, 3394.841
351.7062, 3407.838
352.1883, 3414.810
352.6704, 3420.541
353.1525, 3427.674
353.6346, 3437.200
354.1168, 3453.108
354.5989, 3481.558
355.0810, 3516.060
355.5631, 3549.321
356.0452, 3580.242
356.5273, 3609.716
357.0095, 3635.743
357.4916, 3660.860
357.9737, 3690.034
358.4558, 3730.844
358.9379, 3773.124
359.4200, 3808.003
359.9022, 3832.248
360.3843, 3861.818
360.8664, 3906.519
361.3485, 3960.317
361.8306, 4014.251
362.3127, 4064.085
362.7949, 4115.410
363.2770, 4168.843
363.7591, 4224.013
364.2412, 4286.855
364.7233, 4366.137
365.2054, 4450.621
365.6876, 4529.039
366.1697, 4588.116
366.6518, 4654.522
367.1339, 4731.586
367.6160, 4819.623
368.0981, 4917.924
368.5803, 5028.745
369.0624, 5148.659
369.5445, 5275.643
370.0266, 5419.725
370.5087, 5554.161
370.9908, 5672.138
371.4730, 5777.783
371.9551, 5893.583
372.4372, 6021.270
372.9193, 6157.179
373.4014, 6298.872
373.8835, 6446.017
374.3657, 6599.317
374.8478, 6759.796
375.3299, 6924.632
375.8120, 7083.606
376.2941, 7236.677
376.7762, 7387.940
377.2584, 7534.686
377.7405, 7678.331
378.2226, 7835.473
378.7047, 8013.277
379.1868, 8191.697
379.6689, 8339.475
380.1511, 8456.390
380.6332, 8586.149
381.1153, 8752.574
381.5974, 8944.291
382.0795, 9112.954
382.5616, 9260.206
383.0438, 9393.142
383.5259, 9522.575
384.0080, 9645.104
384.4901, 9750.464
384.9722, 9830.398
385.4543, 9897.972
385.9364, 9976.260
386.4185, 10063.01
386.9007, 10143.14
387.3828, 10208.24
387.8649, 10260.44
388.3470, 10303.96
388.8291, 10342.46
389.3112, 10367.00
389.7934, 10362.82
390.2755, 10337.71
390.7576, 10312.26
391.2397, 10309.62
391.7218, 10301.34
392.2039, 10265.12
392.6861, 10192.27
393.1682, 10112.12
393.6503, 10032.59
394.1324, 9953.787
394.6145, 9875.849
395.0966, 9811.879
395.5788, 9736.797
396.0609, 9632.278
396.5430, 9491.209
397.0251, 9375.684
397.5072, 9318.824
397.9893, 9278.694
398.4715, 9217.738
398.9536, 9123.956
399.4357, 9022.163
399.9178, 8906.912
400.3999, 8781.557
400.8820, 8677.633
401.3642, 8605.358
401.8463, 8542.417
402.3284, 8475.597
402.8105, 8402.989
403.2926, 8332.174
403.7747, 8266.053
404.2569, 8200.600
404.7390, 8121.065
405.2211, 8018.974
405.7032, 7929.769
406.1853, 7877.841
406.6674, 7864.868
407.1496, 7820.925
407.6317, 7737.784
408.1138, 7644.143
408.5959, 7578.058
409.0780, 7538.162
409.5602, 7501.150
410.0423, 7458.304
410.5244, 7412.946
411.0065, 7374.005
411.4886, 7341.380
411.9707, 7314.293
412.4529, 7291.314
412.9350, 7272.907
413.4171, 7262.449
413.8992, 7268.104
414.3813, 7271.362
414.8634, 7244.333
415.3456, 7194.505
415.8277, 7154.108
416.3098, 7149.031
416.7919, 7158.389
417.2740, 7162.110
417.7561, 7154.487
418.2382, 7147.868
418.7203, 7153.214
419.2025, 7163.376
419.6846, 7166.029
420.1667, 7141.667
420.6488, 7122.271
421.1309, 7122.054
421.6130, 7143.540
422.0952, 7171.885
422.5773, 7217.597
423.0594, 7262.210
423.5415, 7289.763
424.0236, 7271.803
424.5057, 7267.375
424.9879, 7289.097
425.4700, 7332.460
425.9521, 7367.317
426.4342, 7383.530
426.9163, 7403.053
427.3984, 7438.021
427.8806, 7492.781
428.3627, 7553.963
428.8448, 7627.499
429.3269, 7702.129
429.8090, 7749.840
430.2911, 7763.575
430.7733, 7782.543
431.2554, 7824.027
431.7375, 7886.393
432.2196, 7950.313
432.7017, 8014.671
433.1838, 8084.260
433.6660, 8169.673
434.1481, 8267.388
434.6302, 8353.730
435.1123, 8415.581
435.5944, 8467.292
436.0765, 8530.598
436.5587, 8605.586
437.0408, 8693.426
437.5229, 8799.199
438.0050, 8916.173
438.4871, 9034.726
438.9692, 9153.404
439.4514, 9272.456
439.9335, 9390.494
440.4156, 9509.048
440.8977, 9631.872
441.3798, 9761.617
441.8619, 9893.864
442.3441, 10021.83
442.8262, 10142.87
443.3083, 10280.22
443.7904, 10448.03
444.2725, 10631.61
444.7546, 10817.23
445.2368, 11002.63
445.7189, 11187.88
446.2010, 11364.55
446.6831, 11536.64
447.1652, 11727.87
447.6473, 11938.31
448.1295, 12168.83
448.6116, 12418.55
449.0937, 12695.95
449.5758, 12977.98
450.0579, 13256.44
450.5400, 13544.74
451.0221, 13867.65
451.5042, 14225.52
451.9864, 14604.89
452.4685, 15001.06
452.9506, 15413.47
453.4327, 15851.65
453.9148, 16312.76
454.3969, 16805.83
454.8791, 17328.98
455.3612, 17885.32
455.8433, 18481.75
456.3254, 19107.86
456.8075, 19786.58
457.2896, 20533.48
457.7718, 21354.01
458.2539, 22222.51
458.7360, 23115.60
459.2181, 24061.18
459.7002, 25096.51
460.1823, 26238.32
460.6645, 27457.27
461.1466, 28730.14
461.6287, 30069.79
462.1108, 31489.56
462.5929, 33015.52
463.0750, 34622.76
463.5572, 36293.16
464.0393, 38040.98
464.5214, 39882.52
465.0035, 41840.32
465.4856, 43866.35
465.9677, 45906.89
466.4499, 47876.57
466.9320, 49959.84
467.4141, 52234.38
467.8962, 54624.03
468.3783, 56979.26
468.8604, 59306.45
469.3426, 61585.55
469.8247, 63852.29
470.3068, 66099.99
470.7889, 68300.29
471.2710, 70467.34
471.7531, 72558.87
472.2353, 74557.56
472.7174, 76476.36
473.1995, 78212.15
473.6816, 79825.87
474.1637, 81187.61
474.6458, 81851.36
475.1280, 81836.76
475.6101, 81604.51
476.0922, 81687.82
476.5743, 81738.95
477.0564, 80976.54
477.5385, 79265.09
478.0207, 77031.57
478.5028, 74525.63
478.9849, 71776.13
479.4670, 68835.59
479.9491, 65596.95
480.4312, 62265.66
480.9134, 58945.62
481.3955, 55640.55
481.8776, 52466.18
482.3597, 49470.52
482.8418, 46656.29
483.3239, 44038.78
483.8060, 41666.43
484.2881, 39398.30
484.7703, 37214.74
485.2524, 35153.36
485.7345, 33315.45
486.2166, 31799.42
486.6987, 30381.69
487.1808, 28991.67
487.6630, 27624.65
488.1451, 26367.11
488.6272, 25238.97
489.1093, 24205.92
489.5914, 23233.81
490.0735, 22333.05
490.5557, 21469.18
491.0378, 20639.39
491.5199, 19855.61
492.0020, 19159.09
492.4841, 18551.20
492.9662, 17979.59
493.4484, 17417.50
493.9305, 16868.79
494.4126, 16358.99
494.8947, 15885.28
495.3768, 15439.16
495.8589, 15004.83
496.3411, 14589.14
496.8232, 14201.11
497.3053, 13859.94
497.7874, 13528.58
498.2695, 13179.83
498.7516, 12824.20
499.2338, 12489.00
499.7159, 12191.98
500.1980, 11915.33
500.6801, 11656.59
501.1622, 11416.67
501.6443, 11186.42
502.1265, 10975.81
502.6086, 10771.12
503.0907, 10557.48
503.5728, 10314.23
504.0549, 10090.33
504.5370, 9896.170
505.0192, 9727.802
505.5013, 9563.879
505.9834, 9406.264
506.4655, 9248.301
506.9476, 9080.565
507.4297, 8900.587
507.9119, 8751.338
508.3940, 8639.914
508.8761, 8541.785
509.3582, 8417.965
509.8403, 8274.442
510.3224, 8144.179
510.8046, 8046.509
511.2867, 7962.919
511.7688, 7865.262
512.2509, 7755.943
512.7330, 7643.160
513.2151, 7526.127
513.6973, 7411.711
514.1794, 7308.498
514.6615, 7221.292
515.1436, 7133.687
515.6257, 7034.213
516.1078, 6929.612
516.5900, 6832.304
517.0721, 6744.248
517.5542, 6662.733
518.0363, 6587.255
518.5184, 6517.965
519.0005, 6455.420
519.4827, 6414.220
519.9648, 6364.053
520.4469, 6285.095
520.9290, 6155.809
521.4111, 6062.196
521.8932, 6016.924
522.3754, 5992.443
522.8575, 5942.664
523.3396, 5864.563
523.8217, 5796.328
524.3038, 5753.424
524.7859, 5727.677
525.2681, 5694.635
525.7502, 5654.182
526.2323, 5609.010
526.7144, 5555.670
527.1965, 5499.596
527.6786, 5452.969
528.1608, 5420.055
528.6429, 5386.338
529.1250, 5333.536
529.6071, 5273.513
530.0892, 5226.391
530.5714, 5212.858
531.0535, 5200.953
531.5356, 5176.132
532.0176, 5139.305
532.4998, 5101.842
532.9819, 5065.151
533.4640, 5028.934
533.9461, 4992.231
534.4282, 4953.408
534.9103, 4917.919
535.3925, 4882.222
535.8746, 4852.230
536.3567, 4841.086
536.8388, 4859.522
537.3209, 4856.882
537.8030, 4813.962
538.2852, 4743.411
538.7673, 4694.253
539.2494, 4668.022
539.7315, 4645.375
540.2136, 4608.595
540.6957, 4565.132
541.1779, 4541.787
541.6600, 4544.305
542.1421, 4542.762
542.6242, 4501.241
543.1063, 4436.200
543.5884, 4376.333
544.0706, 4328.865
544.5527, 4292.994
545.0348, 4276.586
545.5169, 4273.681
545.9990, 4261.293
546.4811, 4218.511
546.9633, 4175.083
547.4454, 4146.920
547.9275, 4141.435
548.4096, 4132.263
548.8917, 4124.120
549.3738, 4108.100
549.8560, 4072.580
550.3381, 4004.066
550.8202, 3951.208
551.3023, 3924.686
551.7844, 3915.531
552.2665, 3895.687
552.7487, 3863.385
553.2308, 3837.966
553.7129, 3838.122
554.1950, 3854.121
554.6771, 3844.611
555.1592, 3808.042
555.6414, 3768.774
556.1235, 3750.275
556.6056, 3743.299
557.0877, 3732.142
557.5698, 3709.286
558.0519, 3688.729
558.5341, 3685.147
559.0162, 3690.692
559.4983, 3688.883
559.9804, 3663.864
560.4625, 3639.896
560.9446, 3629.143
561.4268, 3633.168
561.9089, 3629.289
562.3910, 3613.236
562.8731, 3591.475
563.3552, 3565.243
563.8373, 3525.158
564.3195, 3508.693
564.8016, 3527.712
565.2837, 3557.023
565.7658, 3552.032
566.2479, 3510.229
566.7300, 3474.942
567.2122, 3460.882
567.6943, 3461.650
568.1764, 3463.326
568.6585, 3465.880
569.1406, 3468.810
569.6227, 3478.360
570.1049, 3485.461
570.5870, 3474.208
571.0691, 3440.687
571.5512, 3407.186
572.0333, 3384.706
572.5154, 3371.318
572.9976, 3365.208
573.4797, 3378.606
573.9618, 3384.852
574.4439, 3372.947
574.9260, 3348.205
575.4081, 3329.356
575.8903, 3317.152
576.3724, 3310.264
576.8545, 3309.676
577.3366, 3315.892
577.8187, 3320.009
578.3008, 3323.322
578.7830, 3321.302
579.2651, 3305.417
579.7472, 3276.958
580.2293, 3260.934
580.7114, 3263.121
581.1935, 3271.011
581.6757, 3265.009
582.1578, 3249.564
582.6399, 3238.706
583.1220, 3243.397
583.6041, 3252.039
584.0862, 3254.879
584.5684, 3252.480
585.0505, 3247.948
585.5326, 3239.695
586.0147, 3232.027
586.4968, 3229.173
586.9789, 3235.615
587.4611, 3233.855
587.9432, 3210.779
588.4253, 3185.084
588.9074, 3174.949
589.3895, 3192.444
589.8716, 3198.308
590.3538, 3183.420
590.8359, 3157.062
591.3180, 3143.419
591.8001, 3143.724
592.2822, 3144.446
592.7643, 3137.586
593.2465, 3126.684
593.7286, 3127.025
594.2107, 3138.496
594.6928, 3143.559
595.1749, 3120.400
595.6570, 3085.655
596.1392, 3063.137
596.6213, 3060.550
597.1034, 3058.804
597.5854, 3042.666
598.0676, 3021.853
598.5497, 3009.875
599.0318, 3024.405
599.5139, 3032.296
599.9960, 3022.037
600.4781, 2997.887
600.9603, 2978.489
601.4424, 2964.829
601.9245, 2954.271
602.4066, 2948.290
602.8887, 2947.356
603.3708, 2932.015
603.8530, 2898.013
604.3351, 2866.538
604.8172, 2864.843
605.2993, 2885.471
605.7814, 2891.303
606.2635, 2873.970
606.7457, 2848.421
607.2278, 2829.357
607.7099, 2815.141
608.1920, 2802.765
608.6741, 2788.923
609.1563, 2778.142
609.6384, 2776.393
610.1205, 2781.263
610.6026, 2780.694
611.0847, 2770.964
611.5668, 2755.403
612.0490, 2732.475
612.5311, 2697.783
613.0132, 2677.301
613.4953, 2676.569
613.9774, 2682.927
614.4595, 2687.802
614.9417, 2692.474
615.4238, 2684.167
615.9059, 2657.336
616.3880, 2625.484
616.8701, 2612.506
617.3522, 2615.388
617.8344, 2616.484
618.3165, 2607.808
618.7986, 2594.456
