##NAMES=Pharmacoalumite
##RRUFFID=R060411
##IDEAL CHEMISTRY=KAl_4_(As^5+^O_4_)_3_(OH)_4_&#183;6.5H_2_O
##LOCALITY=Maria Josefa, Rodalquilar, Almeria Province, Spain
##OWNER=RRUFF
##SOURCE=Bob Jenkins
##DESCRIPTION=Pale green, yellow and colorless transparent single cubes associated with quartz
##STATUS=The identification of this mineral is confirmed by single-crystal X-ray diffraction and chemical analysis.
##URL=rruff.info/R060411
##MEASURED CHEMISTRY=(K_0.75_Na_0.25_)_Σ=1_(Al_3.94_Fe^3+^_0.06_)_Σ=4_(As_1.00_O_4_)_3_(OH)_4_·6.5H_2_O ; H not measured but estimated by difference and stoichiometry
174.9236, 1241.288
175.4057, 1241.878
175.8878, 1242.272
176.3699, 1242.297
176.8520, 1241.152
177.3341, 1239.481
177.8163, 1238.719
178.2984, 1240.274
178.7805, 1242.775
179.2626, 1244.368
179.7447, 1245.000
180.2268, 1244.670
180.7090, 1242.912
181.1911, 1240.080
181.6732, 1237.274
182.1553, 1234.010
182.6374, 1231.240
183.1195, 1231.641
183.6017, 1235.660
184.0838, 1240.569
184.5659, 1242.950
185.0480, 1243.300
185.5301, 1244.273
186.0123, 1247.974
186.4944, 1253.352
186.9765, 1257.008
187.4586, 1258.764
187.9407, 1259.142
188.4228, 1258.109
188.9050, 1255.849
189.3871, 1254.458
189.8692, 1255.664
190.3513, 1258.863
190.8334, 1261.165
191.3155, 1262.469
191.7977, 1262.759
192.2798, 1261.423
192.7619, 1258.475
193.2440, 1256.078
193.7261, 1256.058
194.2082, 1258.110
194.6904, 1258.177
195.1725, 1255.564
195.6546, 1251.897
196.1367, 1250.445
196.6188, 1251.348
197.1009, 1252.399
197.5831, 1252.166
198.0652, 1250.652
198.5473, 1250.069
199.0294, 1250.758
199.5115, 1252.085
199.9937, 1252.789
200.4758, 1252.800
200.9579, 1252.530
201.4400, 1251.887
201.9221, 1250.752
202.4042, 1250.736
202.8864, 1252.102
203.3685, 1254.423
203.8506, 1256.865
204.3327, 1259.486
204.8148, 1261.872
205.2969, 1264.071
205.7791, 1266.279
206.2612, 1266.620
206.7433, 1264.229
207.2254, 1260.482
207.7075, 1259.225
208.1896, 1261.295
208.6718, 1263.409
209.1539, 1263.645
209.6360, 1261.584
210.1181, 1259.790
210.6002, 1258.341
211.0823, 1257.296
211.5645, 1256.957
212.0466, 1257.679
212.5287, 1258.337
213.0108, 1257.943
213.4929, 1255.727
213.9750, 1255.836
214.4572, 1259.789
214.9393, 1265.697
215.4214, 1267.692
215.9035, 1264.221
216.3856, 1259.975
216.8678, 1257.415
217.3499, 1256.736
217.8320, 1256.940
218.3141, 1258.234
218.7962, 1260.258
219.2783, 1261.934
219.7605, 1263.165
220.2426, 1264.124
220.7247, 1264.778
221.2068, 1264.828
221.6889, 1265.502
222.1710, 1267.477
222.6532, 1269.969
223.1353, 1270.066
223.6174, 1265.876
224.0995, 1262.490
224.5816, 1263.058
225.0637, 1270.417
225.5459, 1274.386
226.0280, 1273.362
226.5101, 1269.059
226.9922, 1266.914
227.4743, 1268.451
227.9564, 1269.717
228.4386, 1268.395
228.9207, 1262.388
229.4028, 1258.951
229.8849, 1258.787
230.3670, 1261.075
230.8492, 1263.878
231.3313, 1268.455
231.8134, 1271.608
232.2955, 1271.397
232.7776, 1265.161
233.2597, 1261.983
233.7419, 1263.401
234.2240, 1267.528
234.7061, 1269.257
235.1882, 1267.255
235.6703, 1264.953
236.1524, 1263.757
236.6346, 1263.957
237.1167, 1264.733
237.5988, 1266.479
238.0809, 1268.663
238.5630, 1270.007
239.0451, 1269.991
239.5273, 1269.872
240.0094, 1270.113
240.4915, 1270.706
240.9736, 1271.645
241.4557, 1273.202
241.9378, 1274.949
242.4200, 1275.969
242.9021, 1275.855
243.3842, 1275.628
243.8663, 1275.705
244.3484, 1276.301
244.8306, 1276.477
245.3127, 1275.803
245.7948, 1274.936
246.2769, 1275.228
246.7590, 1277.541
247.2411, 1279.567
247.7233, 1280.501
248.2054, 1280.141
248.6875, 1279.438
249.1696, 1278.137
249.6517, 1276.695
250.1338, 1275.926
250.6160, 1276.290
251.0981, 1276.499
251.5802, 1275.893
252.0623, 1274.021
252.5444, 1273.835
253.0265, 1276.335
253.5087, 1279.717
253.9908, 1281.320
254.4729, 1280.466
254.9550, 1279.249
255.4371, 1278.148
255.9192, 1277.152
256.4014, 1276.408
256.8835, 1275.776
257.3656, 1275.536
257.8477, 1276.074
258.3298, 1277.648
258.8120, 1279.478
259.2941, 1281.825
259.7762, 1284.846
260.2583, 1285.256
260.7404, 1281.561
261.2225, 1277.077
261.7047, 1275.399
262.1868, 1277.433
262.6689, 1279.879
263.1510, 1282.230
263.6331, 1284.447
264.1152, 1286.090
264.5974, 1286.962
265.0795, 1287.544
265.5616, 1288.330
266.0437, 1289.504
266.5258, 1290.357
267.0079, 1290.739
267.4901, 1290.707
267.9722, 1290.610
268.4543, 1290.471
268.9364, 1290.295
269.4185, 1290.055
269.9006, 1289.715
270.3828, 1289.503
270.8649, 1289.328
271.3470, 1289.309
271.8291, 1290.197
272.3112, 1292.330
272.7933, 1294.426
273.2755, 1295.455
273.7576, 1295.253
274.2397, 1294.936
274.7218, 1294.535
275.2039, 1294.121
275.6860, 1294.099
276.1682, 1294.649
276.6503, 1294.909
277.1324, 1294.086
277.6145, 1292.078
278.0966, 1290.783
278.5787, 1290.475
279.0609, 1290.893
279.5430, 1291.378
280.0251, 1291.887
280.5072, 1292.976
280.9893, 1295.555
281.4715, 1299.606
281.9536, 1301.873
282.4357, 1301.873
282.9178, 1300.718
283.3999, 1299.839
283.8820, 1299.159
284.3642, 1299.715
284.8463, 1302.981
285.3284, 1308.541
285.8105, 1311.223
286.2926, 1310.387
286.7747, 1308.561
287.2569, 1309.403
287.7390, 1312.800
288.2211, 1316.174
288.7032, 1318.550
289.1853, 1320.056
289.6674, 1321.221
290.1496, 1322.021
290.6317, 1322.760
291.1138, 1323.949
291.5959, 1325.499
292.0780, 1326.625
292.5602, 1326.716
293.0423, 1326.378
293.5244, 1327.146
294.0065, 1329.048
294.4886, 1331.620
294.9707, 1334.737
295.4529, 1338.270
295.9350, 1341.636
296.4171, 1344.560
296.8992, 1347.402
297.3813, 1351.062
297.8634, 1355.424
298.3456, 1359.351
298.8277, 1360.852
299.3098, 1361.291
299.7919, 1363.917
300.2740, 1370.041
300.7561, 1377.438
301.2383, 1383.091
301.7204, 1387.362
302.2025, 1391.500
302.6846, 1396.314
303.1667, 1401.525
303.6488, 1406.846
304.1310, 1412.217
304.6131, 1417.597
305.0952, 1422.814
305.5773, 1427.937
306.0594, 1433.125
306.5415, 1437.911
307.0237, 1443.103
307.5058, 1449.835
307.9879, 1458.316
308.4700, 1467.314
308.9521, 1476.223
309.4343, 1484.999
309.9164, 1493.765
310.3985, 1503.391
310.8806, 1512.548
311.3627, 1519.570
311.8448, 1524.416
312.3270, 1530.106
312.8091, 1539.479
313.2912, 1550.402
313.7733, 1560.360
314.2554, 1567.737
314.7375, 1574.553
315.2197, 1581.542
315.7018, 1588.807
316.1839, 1596.574
316.6660, 1606.396
317.1481, 1616.063
317.6302, 1623.647
318.1124, 1627.974
318.5945, 1631.138
319.0766, 1633.797
319.5587, 1635.857
320.0408, 1637.043
320.5229, 1636.426
321.0051, 1635.500
321.4872, 1635.236
321.9693, 1636.747
322.4514, 1637.104
322.9335, 1635.490
323.4156, 1632.350
323.8978, 1628.537
324.3799, 1624.135
324.8620, 1619.147
325.3441, 1613.565
325.8262, 1607.460
326.3083, 1600.710
326.7905, 1592.965
327.2726, 1584.651
327.7547, 1576.396
328.2368, 1568.019
328.7189, 1559.848
329.2010, 1552.236
329.6832, 1545.410
330.1653, 1537.382
330.6474, 1527.252
331.1295, 1516.581
331.6116, 1506.521
332.0938, 1497.404
332.5759, 1488.284
333.0580, 1478.704
333.5401, 1468.849
334.0222, 1460.937
334.5043, 1455.908
334.9865, 1451.423
335.4686, 1446.022
335.9507, 1439.318
336.4328, 1432.628
336.9149, 1425.758
337.3970, 1418.974
337.8792, 1413.275
338.3613, 1408.778
338.8434, 1404.810
339.3255, 1401.130
339.8076, 1397.777
340.2898, 1394.246
340.7719, 1390.195
341.2540, 1386.546
341.7361, 1385.053
342.2182, 1386.033
342.7003, 1386.475
343.1825, 1385.173
343.6646, 1382.385
344.1467, 1379.824
344.6288, 1377.461
345.1109, 1375.340
345.5930, 1373.194
346.0752, 1371.137
346.5573, 1370.205
347.0394, 1371.055
347.5215, 1372.792
348.0036, 1373.441
348.4857, 1373.005
348.9679, 1372.229
349.4500, 1371.490
349.9321, 1370.824
350.4142, 1370.385
350.8963, 1370.261
351.3784, 1370.202
351.8606, 1369.489
352.3427, 1368.442
352.8248, 1368.242
353.3069, 1371.056
353.7890, 1374.542
354.2711, 1374.972
354.7533, 1371.748
355.2354, 1368.444
355.7175, 1368.683
356.1996, 1370.902
356.6817, 1372.371
357.1638, 1371.039
357.6460, 1369.175
358.1281, 1368.656
358.6102, 1369.389
359.0923, 1369.941
359.5744, 1368.790
360.0565, 1367.373
360.5387, 1367.163
361.0208, 1369.841
361.5029, 1372.211
361.9850, 1372.042
362.4671, 1370.282
362.9492, 1369.848
363.4314, 1373.712
363.9135, 1377.759
364.3956, 1379.269
364.8777, 1375.958
365.3598, 1374.763
365.8419, 1378.936
366.3241, 1385.706
366.8062, 1390.892
367.2883, 1391.621
367.7704, 1392.917
368.2526, 1396.626
368.7347, 1403.488
369.2168, 1408.670
369.6989, 1410.390
370.1810, 1411.478
370.6631, 1414.320
371.1453, 1420.265
371.6274, 1425.986
372.1095, 1431.284
372.5916, 1436.138
373.0737, 1440.107
373.5558, 1442.375
374.0380, 1445.006
374.5201, 1449.394
375.0022, 1456.241
375.4843, 1462.190
375.9664, 1466.500
376.4485, 1470.410
376.9307, 1477.217
377.4128, 1487.912
377.8949, 1496.983
378.3770, 1501.138
378.8591, 1500.723
379.3412, 1503.619
379.8234, 1510.389
380.3055, 1518.383
380.7876, 1524.921
381.2697, 1530.073
381.7518, 1534.022
382.2339, 1536.863
382.7161, 1538.309
383.1982, 1538.784
383.6803, 1537.652
384.1624, 1535.433
384.6445, 1532.116
385.1266, 1527.904
385.6088, 1523.311
386.0909, 1518.466
386.5730, 1513.154
387.0551, 1507.256
387.5372, 1500.786
388.0193, 1493.639
388.5015, 1485.430
388.9836, 1476.753
389.4657, 1468.112
389.9478, 1459.519
390.4299, 1451.227
390.9120, 1443.318
391.3942, 1435.804
391.8763, 1428.829
392.3584, 1423.272
392.8405, 1417.458
393.3226, 1410.050
393.8047, 1401.472
394.2869, 1393.647
394.7690, 1387.361
395.2511, 1382.043
395.7332, 1377.227
396.2154, 1372.274
396.6975, 1369.041
397.1796, 1370.814
397.6617, 1374.077
398.1438, 1372.824
398.6259, 1359.559
399.1081, 1348.219
399.5902, 1343.577
400.0723, 1346.894
400.5544, 1348.132
401.0365, 1345.432
401.5186, 1341.997
402.0008, 1340.673
402.4829, 1343.542
402.9650, 1344.472
403.4471, 1342.319
403.9292, 1337.699
404.4113, 1333.198
404.8935, 1328.729
405.3756, 1324.512
405.8577, 1320.649
406.3398, 1317.191
406.8219, 1314.036
407.3040, 1311.191
407.7862, 1308.668
408.2683, 1306.476
408.7504, 1304.637
409.2325, 1302.998
409.7146, 1301.570
410.1967, 1300.333
410.6789, 1299.186
411.1610, 1298.152
411.6431, 1296.943
412.1252, 1295.281
412.6073, 1293.256
413.0894, 1290.900
413.5716, 1287.889
414.0537, 1285.389
414.5358, 1285.646
415.0179, 1287.820
415.5000, 1289.201
415.9821, 1287.365
416.4643, 1284.446
416.9464, 1282.654
417.4285, 1282.194
417.9106, 1282.042
418.3927, 1282.055
418.8748, 1281.798
419.3570, 1280.760
419.8391, 1277.720
420.3212, 1274.867
420.8033, 1272.462
421.2854, 1270.803
421.7675, 1271.138
422.2497, 1277.079
422.7318, 1282.737
423.2139, 1284.626
423.6960, 1280.167
424.1781, 1276.819
424.6602, 1276.038
425.1424, 1276.678
425.6245, 1277.110
426.1066, 1277.744
426.5887, 1277.606
427.0709, 1276.074
427.5530, 1273.142
428.0351, 1271.413
428.5172, 1271.366
428.9993, 1271.811
429.4814, 1271.869
429.9636, 1271.359
430.4457, 1271.170
430.9278, 1271.548
431.4099, 1272.102
431.8920, 1271.705
432.3741, 1270.157
432.8563, 1269.196
433.3384, 1269.734
433.8205, 1271.602
434.3026, 1274.032
434.7847, 1277.198
435.2668, 1279.652
435.7490, 1279.575
436.2311, 1277.482
436.7132, 1275.052
437.1953, 1272.210
437.6774, 1269.958
438.1595, 1270.231
438.6417, 1272.477
439.1238, 1274.405
439.6059, 1274.598
440.0880, 1273.800
440.5701, 1272.383
441.0522, 1270.170
441.5344, 1268.951
442.0165, 1271.477
442.4986, 1275.121
442.9807, 1276.649
443.4628, 1272.383
443.9449, 1268.355
444.4271, 1267.252
444.9092, 1268.597
445.3913, 1269.532
445.8734, 1268.866
446.3555, 1267.962
446.8376, 1267.523
447.3198, 1267.981
447.8019, 1268.118
448.2840, 1267.582
448.7661, 1266.845
449.2482, 1266.547
449.7303, 1266.725
450.2125, 1267.330
450.6946, 1268.624
451.1767, 1270.513
451.6588, 1271.389
452.1409, 1270.952
452.6230, 1270.232
453.1052, 1270.015
453.5873, 1270.357
454.0694, 1270.388
454.5515, 1269.975
455.0337, 1269.356
455.5158, 1268.842
455.9979, 1268.434
456.4800, 1268.274
456.9621, 1268.578
457.4442, 1269.120
457.9264, 1269.375
458.4085, 1269.355
458.8906, 1269.219
459.3727, 1268.896
459.8548, 1268.606
460.3369, 1268.757
460.8191, 1269.589
461.3012, 1270.554
461.7833, 1271.529
462.2654, 1272.316
462.7475, 1272.491
463.2296, 1270.754
463.7118, 1269.273
464.1939, 1269.664
464.6760, 1272.045
465.1581, 1273.729
465.6402, 1273.375
466.1223, 1272.281
466.6045, 1271.351
467.0866, 1269.743
467.5687, 1269.460
468.0508, 1271.426
468.5329, 1274.682
469.0150, 1277.244
469.4972, 1279.514
469.9793, 1280.376
470.4614, 1278.765
470.9435, 1274.437
471.4256, 1272.998
471.9077, 1275.412
472.3899, 1278.831
472.8720, 1280.512
473.3541, 1280.266
473.8362, 1281.290
474.3183, 1284.745
474.8004, 1288.577
475.2826, 1287.776
475.7647, 1282.707
476.2468, 1278.600
476.7289, 1278.414
477.2110, 1281.007
477.6931, 1284.752
478.1753, 1289.618
478.6574, 1293.043
479.1395, 1291.870
479.6216, 1288.198
480.1037, 1285.065
480.5858, 1283.234
481.0680, 1282.145
481.5501, 1281.723
482.0322, 1281.758
482.5143, 1281.807
482.9964, 1282.075
483.4786, 1282.022
483.9607, 1280.986
484.4428, 1278.819
484.9249, 1277.802
485.4070, 1279.762
485.8892, 1282.182
486.3713, 1283.259
486.8534, 1281.988
487.3355, 1280.772
487.8176, 1279.250
488.2997, 1277.948
488.7819, 1278.111
489.2640, 1280.360
489.7461, 1282.674
490.2282, 1284.518
490.7103, 1285.887
491.1924, 1286.503
491.6746, 1286.269
492.1567, 1285.639
492.6388, 1284.571
493.1209, 1283.215
493.6030, 1283.365
494.0851, 1285.711
494.5673, 1288.336
495.0494, 1287.557
495.5315, 1284.438
496.0136, 1282.847
496.4957, 1286.942
496.9778, 1292.107
497.4600, 1292.499
497.9421, 1288.575
498.4242, 1285.101
498.9063, 1285.246
499.3884, 1286.905
499.8705, 1288.431
500.3527, 1289.798
500.8348, 1290.249
501.3169, 1288.773
501.7990, 1286.416
502.2811, 1284.642
502.7632, 1284.632
503.2454, 1284.273
503.7275, 1282.638
504.2096, 1279.950
504.6917, 1278.662
505.1738, 1279.814
505.6559, 1280.998
506.1381, 1280.931
506.6202, 1279.338
507.1023, 1277.554
507.5844, 1275.379
508.0665, 1273.405
508.5486, 1272.595
509.0308, 1272.972
509.5129, 1273.459
509.9950, 1273.893
510.4771, 1274.112
510.9592, 1273.565
511.4413, 1272.318
511.9235, 1271.161
512.4056, 1270.465
512.8877, 1270.197
513.3698, 1270.540
513.8519, 1271.556
514.3340, 1272.232
514.8162, 1271.597
515.2983, 1270.282
515.7804, 1269.056
516.2625, 1268.372
516.7446, 1267.557
517.2267, 1266.179
517.7089, 1264.498
518.1910, 1263.145
518.6731, 1262.527
519.1552, 1262.040
519.6373, 1261.280
520.1194, 1260.104
520.6016, 1260.097
521.0837, 1262.055
521.5658, 1264.271
522.0479, 1265.384
522.5300, 1264.888
523.0121, 1265.167
523.4943, 1266.703
523.9764, 1268.627
524.4585, 1269.095
524.9406, 1268.055
525.4227, 1267.652
525.9048, 1269.216
526.3870, 1271.674
526.8691, 1272.097
527.3513, 1270.609
527.8334, 1269.012
528.3155, 1268.992
528.7976, 1269.529
529.2797, 1268.846
529.7618, 1266.465
530.2440, 1264.496
530.7261, 1264.984
531.2082, 1266.597
531.6903, 1267.624
532.1724, 1266.543
532.6545, 1265.808
533.1367, 1266.475
533.6188, 1268.169
534.1009, 1269.567
534.5830, 1270.921
535.0651, 1271.484
535.5472, 1270.652
536.0294, 1268.047
536.5115, 1266.858
536.9936, 1267.650
537.4757, 1269.080
537.9578, 1270.206
538.4399, 1271.107
538.9221, 1271.077
539.4042, 1269.660
539.8863, 1267.951
540.3684, 1268.451
540.8505, 1270.907
541.3326, 1272.207
541.8148, 1269.970
542.2969, 1266.466
542.7790, 1266.245
543.2611, 1268.910
543.7432, 1271.268
544.2253, 1270.304
544.7075, 1268.394
545.1896, 1268.286
545.6717, 1270.746
546.1538, 1272.774
546.6359, 1272.410
547.1180, 1271.060
547.6002, 1270.222
548.0823, 1270.180
548.5644, 1270.747
549.0465, 1272.385
549.5286, 1274.628
550.0107, 1276.112
550.4929, 1276.357
550.9750, 1276.518
551.4571, 1276.773
551.9392, 1277.115
552.4213, 1278.588
552.9034, 1281.534
553.3856, 1284.537
553.8677, 1286.377
554.3498, 1287.143
554.8319, 1288.065
555.3140, 1289.412
555.7961, 1290.392
556.2783, 1289.181
556.7604, 1286.688
557.2425, 1285.534
557.7246, 1287.381
558.2067, 1290.284
558.6888, 1292.636
559.1710, 1294.518
559.6531, 1296.141
560.1352, 1297.059
560.6173, 1298.188
561.0994, 1300.237
561.5815, 1303.413
562.0637, 1306.243
562.5458, 1307.810
563.0279, 1309.332
563.5100, 1311.735
563.9921, 1315.707
564.4742, 1319.301
564.9564, 1322.179
565.4385, 1324.848
565.9206, 1328.107
566.4027, 1331.910
566.8848, 1336.493
567.3669, 1342.599
567.8491, 1349.139
568.3312, 1351.364
568.8133, 1349.463
569.2954, 1348.712
569.7775, 1353.244
570.2596, 1361.039
570.7418, 1368.887
571.2239, 1376.710
571.7060, 1383.326
572.1881, 1386.462
572.6702, 1388.526
573.1523, 1392.311
573.6345, 1399.254
574.1166, 1406.589
574.5987, 1412.614
575.0808, 1418.429
575.5629, 1425.995
576.0450, 1437.066
576.5272, 1448.124
577.0093, 1458.209
577.4914, 1467.527
577.9735, 1477.938
578.4556, 1489.919
578.9377, 1501.847
579.4199, 1512.658
579.9020, 1522.178
580.3841, 1533.882
580.8662, 1547.867
581.3483, 1563.373
581.8304, 1580.015
582.3126, 1597.483
582.7947, 1614.451
583.2768, 1630.323
583.7589, 1646.726
584.2410, 1665.851
584.7231, 1686.731
585.2053, 1707.457
585.6874, 1726.051
586.1696, 1745.309
586.6517, 1767.780
587.1338, 1792.494
587.6159, 1815.236
588.0980, 1834.609
588.5801, 1851.957
589.0623, 1868.017
589.5444, 1883.104
590.0265, 1895.327
590.5086, 1905.524
590.9907, 1911.816
591.4728, 1912.757
591.9550, 1908.244
592.4371, 1899.268
592.9192, 1885.990
593.4013, 1868.469
593.8834, 1845.668
594.3655, 1818.235
594.8477, 1789.857
595.3298, 1761.658
595.8119, 1733.686
596.2940, 1705.811
596.7761, 1678.401
597.2582, 1651.824
597.7404, 1626.122
598.2225, 1601.460
598.7046, 1577.391
599.1867, 1554.021
599.6688, 1533.285
600.1509, 1516.850
600.6331, 1502.132
601.1152, 1487.833
601.5973, 1473.902
602.0794, 1459.850
602.5615, 1444.959
603.0436, 1430.753
603.5258, 1419.214
604.0079, 1410.643
604.4900, 1403.449
604.9721, 1397.712
605.4542, 1392.926
605.9363, 1388.258
606.4185, 1383.751
606.9006, 1379.212
607.3827, 1374.050
607.8648, 1369.239
608.3469, 1366.252
608.8290, 1364.986
609.3112, 1365.001
609.7933, 1368.574
610.2754, 1371.519
610.7575, 1369.834
611.2396, 1362.383
611.7217, 1356.150
612.2039, 1353.716
612.6860, 1352.851
613.1681, 1351.858
613.6502, 1350.610
614.1323, 1349.262
614.6144, 1347.530
615.0966, 1345.942
615.5787, 1345.358
616.0608, 1345.948
616.5429, 1346.615
617.0250, 1347.393
617.5071, 1347.801
617.9893, 1346.107
618.4714, 1342.643
618.9535, 1339.959
619.4356, 1339.926
619.9177, 1341.108
620.3998, 1342.155
620.8820, 1342.943
621.3641, 1342.616
621.8462, 1339.961
622.3283, 1336.493
622.8104, 1333.232
623.2925, 1330.241
623.7747, 1327.601
624.2568, 1325.326
624.7389, 1323.385
625.2210, 1321.825
625.7031, 1321.118
626.1852, 1319.711
626.6674, 1317.489
627.1495, 1314.586
627.6316, 1311.055
628.1137, 1306.865
628.5958, 1302.824
629.0779, 1299.133
629.5601, 1295.778
630.0422, 1292.758
630.5243, 1290.085
631.0064, 1287.642
631.4885, 1285.903
631.9706, 1284.028
632.4528, 1280.972
632.9349, 1276.855
633.4170, 1272.960
633.8991, 1269.590
634.3812, 1266.832
634.8633, 1264.859
635.3455, 1264.127
635.8276, 1262.815
636.3097, 1260.363
636.7918, 1257.786
637.2739, 1255.855
637.7560, 1254.564
638.2382, 1254.096
638.7203, 1254.759
639.2024, 1255.634
639.6845, 1255.064
640.1666, 1253.236
640.6487, 1251.834
641.1309, 1251.416
641.6130, 1251.532
642.0951, 1251.845
642.5772, 1252.206
643.0594, 1252.199
643.5415, 1252.141
644.0236, 1251.203
644.5057, 1248.030
644.9879, 1242.992
645.4700, 1239.617
645.9521, 1240.761
646.4342, 1241.907
646.9163, 1241.016
647.3984, 1237.764
647.8806, 1234.765
648.3627, 1231.984
648.8448, 1229.555
649.3269, 1227.407
649.8090, 1225.563
650.2911, 1225.214
650.7733, 1226.850
651.2554, 1228.204
651.7375, 1225.599
652.2196, 1220.629
652.7017, 1217.250
653.1838, 1216.985
653.6660, 1217.743
654.1481, 1218.590
654.6302, 1219.204
655.1123, 1219.032
655.5944, 1216.713
656.0765, 1214.773
656.5587, 1214.113
657.0408, 1214.499
657.5229, 1214.864
658.0050, 1215.579
658.4871, 1215.563
658.9692, 1214.297
659.4514, 1211.882
659.9335, 1209.401
660.4156, 1206.842
660.8977, 1204.377
661.3798, 1202.234
661.8619, 1200.312
662.3441, 1198.144
662.8262, 1195.698
663.3083, 1193.597
663.7904, 1193.571
664.2725, 1193.585
664.7546, 1190.819
665.2368, 1182.904
665.7189, 1177.218
666.2010, 1177.903
