##NAMES=Pharmacolite
##RRUFFID=R070517
##IDEAL CHEMISTRY=Ca(As^5+^O_3_OH)&#183;2H_2_O
##LOCALITY=Getchell mine, Adam Peak, Potosi District, Humboldt County, Nevada, USA
##OWNER=RRUFF
##SOURCE=James Shigley
##DESCRIPTION=Spherical aggregates of white acicular crystals
##STATUS=The identification of this mineral has been confirmed only by single crystal X-ray diffraction.
##URL=rruff.info/R070517
146.9522, 2188.331
147.4343, 2256.050
147.9164, 2324.001
148.3985, 2392.379
148.8806, 2457.316
149.3627, 2513.066
149.8449, 2555.816
150.3270, 2589.353
150.8091, 2626.663
151.2912, 2675.561
151.7733, 2715.734
152.2554, 2738.680
152.7376, 2751.658
153.2197, 2765.576
153.7018, 2788.111
154.1839, 2815.021
154.6660, 2825.530
155.1481, 2808.801
155.6303, 2787.440
156.1124, 2758.341
156.5945, 2729.743
157.0766, 2714.810
157.5587, 2724.250
158.0408, 2753.481
158.5230, 2766.668
159.0051, 2733.519
159.4872, 2716.141
159.9693, 2733.000
160.4514, 2762.303
160.9335, 2787.383
161.4157, 2803.322
161.8978, 2810.701
162.3799, 2815.260
162.8620, 2807.688
163.3441, 2807.335
163.8262, 2820.839
164.3084, 2844.397
164.7905, 2872.578
165.2726, 2903.237
165.7547, 2935.846
166.2368, 2951.196
166.7189, 2940.234
167.2011, 2923.505
167.6832, 2892.688
168.1653, 2860.044
168.6474, 2851.086
169.1295, 2888.226
169.6116, 2970.035
170.0938, 3013.029
170.5759, 2983.416
171.0580, 2955.092
171.5401, 2951.576
172.0222, 2967.243
172.5043, 2985.220
172.9865, 2993.216
173.4686, 2991.152
173.9507, 2992.830
174.4328, 2990.437
174.9149, 2998.293
175.3970, 3022.139
175.8792, 3060.287
176.3613, 3109.081
176.8434, 3167.854
177.3255, 3236.559
177.8076, 3291.981
178.2897, 3311.452
178.7719, 3343.080
179.2540, 3408.947
179.7361, 3502.776
180.2182, 3607.746
180.7003, 3715.317
181.1824, 3826.002
181.6646, 3897.740
182.1467, 3930.276
182.6288, 3935.634
183.1109, 3909.243
183.5930, 3858.495
184.0751, 3799.274
184.5573, 3742.475
185.0394, 3688.245
185.5215, 3630.939
186.0036, 3549.483
186.4857, 3485.712
186.9678, 3457.177
187.4500, 3460.089
187.9321, 3482.407
188.4142, 3517.356
188.8963, 3564.609
189.3784, 3617.302
189.8605, 3677.967
190.3427, 3739.749
190.8248, 3816.489
191.3069, 3894.688
191.7890, 3941.952
192.2711, 3936.943
192.7532, 3881.570
193.2354, 3795.406
193.7175, 3666.102
194.1996, 3527.028
194.6817, 3383.222
195.1638, 3239.230
195.6459, 3103.174
196.1281, 2979.787
196.6102, 2869.472
197.0923, 2776.656
197.5744, 2702.105
198.0565, 2639.776
198.5386, 2589.087
199.0207, 2548.733
199.5029, 2517.124
199.9850, 2493.762
200.4671, 2477.681
200.9492, 2462.845
201.4313, 2453.070
201.9134, 2440.229
202.3956, 2420.205
202.8777, 2395.330
203.3598, 2368.813
203.8419, 2341.099
204.3240, 2314.798
204.8061, 2302.389
205.2883, 2311.477
205.7704, 2322.329
206.2525, 2328.853
206.7346, 2333.697
207.2167, 2343.422
207.6988, 2362.144
208.1810, 2385.001
208.6631, 2395.031
209.1452, 2382.593
209.6273, 2371.600
210.1094, 2364.524
210.5915, 2362.251
211.0737, 2366.985
211.5558, 2379.990
212.0379, 2398.847
212.5200, 2417.852
213.0021, 2438.680
213.4842, 2457.047
213.9664, 2468.706
214.4485, 2478.525
214.9306, 2491.187
215.4127, 2507.894
215.8948, 2532.266
216.3769, 2572.565
216.8591, 2631.660
217.3412, 2701.312
217.8233, 2791.049
218.3054, 2886.797
218.7875, 2978.556
219.2696, 3063.828
219.7518, 3130.727
220.2339, 3158.667
220.7160, 3130.942
221.1981, 3093.400
221.6802, 3045.605
222.1623, 2989.264
222.6445, 2922.598
223.1266, 2845.831
223.6087, 2767.975
224.0908, 2700.585
224.5729, 2645.660
225.0550, 2599.324
225.5371, 2556.970
226.0193, 2525.701
226.5014, 2514.281
226.9835, 2522.735
227.4656, 2539.207
227.9477, 2550.431
228.4298, 2553.820
228.9120, 2562.758
229.3941, 2583.707
229.8762, 2604.622
230.3583, 2618.319
230.8404, 2624.306
231.3225, 2625.493
231.8047, 2624.104
232.2868, 2619.600
232.7689, 2616.169
233.2510, 2621.385
233.7331, 2620.670
234.2152, 2603.809
234.6974, 2573.734
235.1795, 2541.850
235.6616, 2517.106
236.1437, 2499.625
236.6258, 2477.399
237.1079, 2449.511
237.5901, 2418.592
238.0722, 2385.825
238.5543, 2350.695
239.0364, 2310.488
239.5185, 2262.124
240.0006, 2208.076
240.4828, 2167.247
240.9649, 2150.857
241.4470, 2135.337
241.9291, 2118.496
242.4112, 2099.400
242.8933, 2075.875
243.3755, 2046.145
243.8576, 2013.971
244.3397, 1992.070
244.8218, 1987.766
245.3039, 1985.846
245.7860, 1986.632
246.2682, 1988.483
246.7503, 1989.994
247.2324, 1990.594
247.7145, 1990.177
248.1966, 1988.456
248.6787, 1984.627
249.1608, 1980.672
249.6430, 1973.855
250.1251, 1968.611
250.6072, 1969.421
251.0893, 1977.006
251.5714, 1987.514
252.0535, 1995.909
252.5357, 2003.521
253.0178, 2005.363
253.4999, 1993.256
253.9820, 1982.320
254.4641, 1981.837
254.9462, 1992.333
255.4284, 2007.944
255.9105, 2022.275
256.3926, 2034.373
256.8747, 2050.491
257.3568, 2079.988
257.8390, 2105.261
258.3211, 2118.246
258.8032, 2120.641
259.2853, 2118.938
259.7674, 2116.272
260.2495, 2113.019
260.7316, 2117.823
261.2137, 2136.885
261.6959, 2157.173
262.1780, 2173.608
262.6601, 2187.911
263.1422, 2203.121
263.6243, 2220.446
264.1064, 2240.295
264.5886, 2265.072
265.0707, 2299.246
265.5528, 2329.596
266.0349, 2348.798
266.5170, 2363.057
266.9991, 2379.633
267.4813, 2401.313
267.9634, 2426.309
268.4455, 2450.973
268.9276, 2474.113
269.4097, 2501.707
269.8918, 2538.004
270.3740, 2578.934
270.8561, 2623.510
271.3382, 2672.539
271.8203, 2719.400
272.3024, 2757.400
272.7845, 2786.539
273.2667, 2813.182
273.7488, 2843.272
274.2309, 2866.251
274.7130, 2869.932
275.1951, 2853.460
275.6772, 2836.596
276.1594, 2833.747
276.6415, 2841.085
277.1236, 2843.133
277.6057, 2833.146
278.0878, 2825.655
278.5699, 2836.847
279.0521, 2863.801
279.5342, 2891.052
280.0163, 2909.657
280.4984, 2926.455
280.9805, 2952.974
281.4626, 2991.092
281.9448, 3032.633
282.4269, 3072.326
282.9090, 3110.153
283.3911, 3147.190
283.8732, 3181.843
284.3553, 3216.850
284.8375, 3256.274
285.3196, 3299.275
285.8017, 3340.567
286.2838, 3379.025
286.7659, 3412.157
287.2480, 3433.133
287.7302, 3444.437
288.2123, 3442.235
288.6944, 3417.671
289.1765, 3378.465
289.6586, 3343.128
290.1407, 3320.429
290.6229, 3302.402
291.1050, 3269.575
291.5871, 3209.536
292.0692, 3157.973
292.5513, 3125.591
293.0334, 3101.396
293.5156, 3072.496
293.9977, 3035.831
294.4798, 2997.205
294.9619, 2964.910
295.4440, 2941.043
295.9261, 2918.007
296.4083, 2885.295
296.8904, 2861.503
297.3725, 2863.799
297.8546, 2888.944
298.3367, 2918.828
298.8188, 2937.678
299.3010, 2945.107
299.7831, 2950.736
300.2652, 2950.155
300.7473, 2952.441
301.2294, 2961.101
301.7115, 2974.445
302.1937, 2988.495
302.6758, 3000.373
303.1579, 3012.562
303.6400, 3036.513
304.1221, 3090.588
304.6042, 3127.295
305.0864, 3126.572
305.5685, 3113.096
306.0506, 3113.469
306.5327, 3136.438
307.0148, 3164.764
307.4969, 3171.104
307.9791, 3149.859
308.4612, 3127.455
308.9433, 3107.911
309.4254, 3087.830
309.9075, 3064.794
310.3896, 3038.954
310.8717, 3012.616
311.3539, 2988.883
311.8360, 2967.277
312.3181, 2941.610
312.8002, 2908.915
313.2823, 2875.745
313.7644, 2843.276
314.2466, 2813.067
314.7287, 2789.521
315.2108, 2777.611
315.6929, 2772.246
316.1750, 2762.468
316.6571, 2746.321
317.1393, 2736.849
317.6214, 2748.116
318.1035, 2768.809
318.5856, 2777.603
319.0677, 2763.316
319.5498, 2749.751
320.0320, 2755.690
320.5141, 2778.083
320.9962, 2804.149
321.4783, 2831.195
321.9604, 2856.950
322.4425, 2875.150
322.9247, 2881.279
323.4068, 2897.038
323.8889, 2938.754
324.3710, 2989.816
324.8531, 3026.220
325.3352, 3043.051
325.8174, 3054.103
326.2995, 3073.532
326.7816, 3102.729
327.2637, 3135.684
327.7458, 3178.112
328.2279, 3219.164
328.7101, 3250.571
329.1922, 3274.331
329.6743, 3299.407
330.1564, 3332.183
330.6385, 3371.550
331.1206, 3407.400
331.6028, 3439.464
332.0849, 3468.826
332.5670, 3492.059
333.0491, 3514.100
333.5312, 3541.487
334.0133, 3576.596
334.4955, 3616.363
334.9776, 3654.942
335.4597, 3690.959
335.9418, 3728.634
336.4239, 3767.764
336.9060, 3808.912
337.3882, 3851.874
337.8703, 3896.910
338.3524, 3945.093
338.8345, 3999.646
339.3166, 4060.777
339.7987, 4114.294
340.2809, 4159.732
340.7630, 4197.291
341.2451, 4225.623
341.7272, 4247.273
342.2093, 4267.873
342.6914, 4295.452
343.1736, 4317.795
343.6557, 4306.877
344.1378, 4256.266
344.6199, 4210.901
345.1020, 4191.019
345.5841, 4185.536
346.0663, 4181.018
346.5484, 4176.055
347.0305, 4172.973
347.5126, 4173.497
347.9947, 4177.216
348.4768, 4180.315
348.9590, 4178.507
349.4411, 4184.798
349.9232, 4217.904
350.4053, 4276.753
350.8874, 4344.263
351.3695, 4425.747
351.8517, 4509.069
352.3338, 4591.053
352.8159, 4668.447
353.2980, 4727.566
353.7801, 4761.265
354.2622, 4768.372
354.7444, 4729.427
355.2265, 4621.995
355.7086, 4504.425
356.1907, 4391.696
356.6728, 4279.821
357.1549, 4156.580
357.6371, 4016.826
358.1192, 3879.579
358.6013, 3784.796
359.0834, 3762.350
359.5655, 3729.230
360.0476, 3674.854
360.5297, 3619.713
361.0118, 3577.687
361.4940, 3548.793
361.9761, 3524.249
362.4582, 3497.199
362.9403, 3467.684
363.4224, 3434.329
363.9045, 3389.456
364.3867, 3351.554
364.8688, 3328.186
365.3509, 3314.831
365.8330, 3305.913
366.3151, 3300.771
366.7972, 3295.394
367.2794, 3282.791
367.7615, 3262.142
368.2436, 3242.509
368.7257, 3229.882
369.2078, 3216.239
369.6899, 3191.802
370.1721, 3155.578
370.6542, 3120.574
371.1363, 3095.924
371.6184, 3077.041
372.1005, 3055.925
372.5826, 3031.948
373.0648, 3002.802
373.5469, 2964.346
374.0290, 2917.309
374.5111, 2873.379
374.9932, 2833.357
375.4753, 2796.345
375.9575, 2764.491
376.4396, 2735.239
376.9217, 2700.010
377.4038, 2653.705
377.8859, 2602.730
378.3680, 2563.950
378.8502, 2551.242
379.3323, 2532.310
379.8144, 2501.625
380.2965, 2467.816
380.7786, 2436.677
381.2607, 2409.820
381.7429, 2388.274
382.2250, 2375.169
382.7071, 2371.932
383.1892, 2357.621
383.6713, 2316.280
384.1534, 2280.297
384.6356, 2261.539
385.1177, 2253.749
385.5998, 2246.697
386.0819, 2235.867
386.5640, 2222.531
387.0461, 2208.794
387.5283, 2194.585
388.0104, 2180.243
388.4925, 2165.043
388.9746, 2150.403
389.4567, 2136.714
389.9388, 2124.039
390.4210, 2114.234
390.9031, 2110.820
391.3852, 2110.652
391.8673, 2105.779
392.3494, 2094.552
392.8315, 2083.556
393.3137, 2078.278
393.7958, 2077.877
394.2779, 2076.552
394.7600, 2069.974
395.2421, 2066.466
395.7242, 2074.927
396.2064, 2089.824
396.6885, 2097.734
397.1706, 2092.941
397.6527, 2080.905
398.1348, 2071.974
398.6169, 2068.722
399.0991, 2063.862
399.5812, 2053.874
400.0633, 2045.083
400.5454, 2045.122
401.0275, 2051.635
401.5096, 2053.426
401.9918, 2039.512
402.4739, 2012.532
402.9560, 1998.938
403.4381, 2008.781
403.9202, 2018.306
404.4023, 2023.942
404.8845, 2025.374
405.3666, 2021.618
405.8487, 2012.164
406.3308, 2000.312
406.8129, 1988.458
407.2950, 1976.697
407.7772, 1969.543
408.2592, 1968.999
408.7414, 1971.708
409.2235, 1976.423
409.7056, 1982.373
410.1877, 1985.748
410.6698, 1979.103
411.1519, 1973.094
411.6341, 1985.442
412.1162, 2013.813
412.5983, 2031.418
413.0804, 2021.737
413.5625, 1994.136
414.0446, 1977.138
414.5268, 1979.311
415.0089, 1974.804
415.4910, 1952.971
415.9731, 1925.193
416.4552, 1904.735
416.9373, 1893.134
417.4195, 1881.583
417.9016, 1860.615
418.3837, 1829.226
418.8658, 1801.078
419.3479, 1778.301
419.8300, 1756.546
420.3122, 1733.555
420.7943, 1711.285
421.2764, 1693.221
421.7585, 1680.981
422.2406, 1671.520
422.7227, 1660.146
423.2049, 1646.687
423.6870, 1632.323
424.1691, 1613.998
424.6512, 1598.211
425.1333, 1592.043
425.6154, 1593.587
426.0976, 1591.356
426.5797, 1575.039
427.0618, 1553.876
427.5439, 1542.310
428.0260, 1540.631
428.5081, 1540.810
428.9903, 1537.958
429.4724, 1534.444
429.9545, 1537.573
430.4366, 1552.679
430.9187, 1563.684
431.4008, 1562.373
431.8830, 1556.579
432.3651, 1554.753
432.8472, 1558.760
433.3293, 1567.329
433.8114, 1579.750
434.2935, 1596.460
434.7757, 1611.391
435.2578, 1627.770
435.7399, 1638.669
436.2220, 1636.322
436.7041, 1629.390
437.1862, 1629.568
437.6684, 1641.542
438.1505, 1660.786
438.6326, 1682.767
439.1147, 1708.545
439.5968, 1726.903
440.0789, 1730.884
440.5611, 1732.717
441.0432, 1738.911
441.5253, 1749.671
442.0074, 1765.442
442.4895, 1792.297
442.9716, 1820.758
443.4538, 1835.085
443.9359, 1836.801
444.4180, 1846.616
444.9001, 1877.232
445.3822, 1917.839
445.8643, 1943.632
446.3465, 1949.303
446.8286, 1956.842
447.3107, 1974.433
447.7928, 1992.417
448.2749, 2002.900
448.7570, 2004.817
449.2392, 1999.237
449.7213, 1985.941
450.2034, 1966.021
450.6855, 1950.704
451.1676, 1948.895
451.6497, 1939.599
452.1319, 1913.871
452.6140, 1882.540
453.0961, 1857.541
453.5782, 1841.391
454.0603, 1824.959
454.5424, 1796.391
455.0246, 1757.184
455.5067, 1725.058
455.9888, 1703.027
456.4709, 1684.306
456.9530, 1669.368
457.4351, 1654.007
457.9172, 1627.760
458.3994, 1576.259
458.8815, 1529.598
459.3636, 1514.912
459.8457, 1521.184
460.3278, 1519.367
460.8099, 1500.052
461.2921, 1474.844
461.7742, 1459.230
462.2563, 1456.245
462.7384, 1450.824
463.2205, 1443.720
463.7026, 1433.718
464.1848, 1415.393
464.6669, 1394.461
465.1490, 1382.621
465.6311, 1386.490
466.1132, 1397.908
466.5953, 1398.776
467.0775, 1385.540
467.5596, 1374.066
468.0417, 1367.943
468.5238, 1362.813
469.0059, 1357.168
469.4880, 1350.570
469.9702, 1341.868
470.4523, 1327.122
470.9344, 1311.631
471.4165, 1303.635
471.8986, 1303.068
472.3807, 1306.803
472.8629, 1315.809
473.3450, 1325.924
473.8271, 1327.756
474.3092, 1319.652
474.7913, 1310.848
475.2734, 1298.513
475.7556, 1289.207
476.2377, 1291.074
476.7198, 1302.559
477.2019, 1314.817
477.6840, 1321.827
478.1661, 1324.020
478.6483, 1323.227
479.1304, 1315.622
479.6125, 1311.302
480.0946, 1311.862
480.5767, 1315.606
481.0588, 1322.848
481.5410, 1332.773
482.0231, 1341.185
482.5052, 1342.651
482.9873, 1339.868
483.4694, 1343.004
483.9515, 1353.652
484.4337, 1363.386
484.9158, 1367.341
485.3979, 1367.629
485.8800, 1368.445
486.3621, 1367.672
486.8442, 1372.493
487.3264, 1391.937
487.8085, 1415.462
488.2906, 1429.065
488.7727, 1431.173
489.2548, 1429.548
489.7369, 1430.046
490.2191, 1432.832
490.7012, 1440.564
491.1833, 1467.904
491.6654, 1481.999
492.1475, 1470.202
492.6296, 1447.979
493.1118, 1428.421
493.5939, 1414.945
494.0760, 1407.262
494.5581, 1410.331
495.0402, 1421.021
495.5223, 1415.591
496.0045, 1387.137
496.4866, 1360.513
496.9687, 1353.490
497.4508, 1356.847
497.9329, 1353.655
498.4150, 1340.488
498.8972, 1325.013
499.3793, 1307.672
499.8614, 1291.602
500.3435, 1282.897
500.8256, 1282.216
501.3077, 1283.320
501.7899, 1280.526
502.2720, 1273.990
502.7541, 1269.129
503.2362, 1268.361
503.7183, 1266.367
504.2004, 1261.100
504.6826, 1254.846
505.1647, 1249.848
505.6468, 1246.630
506.1289, 1244.568
506.6110, 1244.120
507.0931, 1244.741
507.5752, 1241.350
508.0573, 1231.755
508.5395, 1223.989
509.0216, 1224.137
509.5037, 1228.525
509.9858, 1230.752
510.4679, 1230.227
510.9500, 1227.759
511.4322, 1221.381
511.9143, 1214.273
512.3964, 1211.562
512.8785, 1213.779
513.3607, 1217.282
513.8428, 1219.066
514.3249, 1219.280
514.8070, 1219.649
515.2891, 1222.697
515.7712, 1222.543
516.2534, 1214.814
516.7355, 1205.897
517.2176, 1203.083
517.6997, 1206.771
518.1818, 1209.390
518.6639, 1200.824
519.1461, 1185.299
519.6282, 1181.028
520.1103, 1190.415
520.5924, 1201.062
521.0745, 1207.932
521.5566, 1211.705
522.0388, 1213.818
522.5209, 1213.190
523.0030, 1214.048
523.4851, 1222.770
523.9672, 1230.553
524.4493, 1223.799
524.9315, 1204.691
525.4136, 1190.850
525.8957, 1195.413
526.3778, 1213.703
526.8599, 1225.516
527.3420, 1226.608
527.8242, 1228.632
528.3063, 1235.535
528.7884, 1241.598
529.2705, 1241.825
529.7526, 1236.906
530.2347, 1232.274
530.7169, 1231.077
531.1990, 1232.486
531.6810, 1236.640
532.1631, 1243.481
532.6453, 1245.443
533.1274, 1237.681
533.6095, 1226.255
534.0916, 1220.852
534.5737, 1221.712
535.0558, 1226.183
535.5380, 1238.366
536.0201, 1250.175
536.5022, 1255.707
536.9843, 1256.533
537.4664, 1257.660
537.9485, 1261.679
538.4307, 1265.763
538.9128, 1263.672
539.3949, 1253.654
539.8770, 1244.920
540.3591, 1237.378
540.8412, 1232.164
541.3234, 1230.257
541.8055, 1230.968
542.2876, 1232.709
542.7697, 1235.707
543.2518, 1238.463
543.7339, 1238.616
544.2161, 1237.449
544.6982, 1239.981
545.1803, 1247.851
545.6624, 1253.854
546.1445, 1249.034
546.6266, 1232.272
547.1088, 1223.809
547.5909, 1229.321
548.0730, 1235.398
548.5551, 1243.367
549.0372, 1247.839
549.5193, 1241.004
550.0015, 1221.819
550.4836, 1199.875
550.9657, 1180.220
551.4478, 1164.807
551.9299, 1169.680
552.4120, 1202.078
552.8942, 1228.654
553.3763, 1229.346
553.8584, 1215.069
554.3405, 1208.557
554.8226, 1213.072
555.3047, 1215.325
555.7869, 1210.592
556.2690, 1202.139
556.7511, 1190.660
557.2332, 1177.992
557.7153, 1169.944
558.1974, 1170.585
558.6796, 1176.605
559.1617, 1178.096
559.6438, 1173.515
560.1259, 1168.311
560.6080, 1159.078
561.0901, 1152.866
561.5723, 1156.432
562.0544, 1166.650
562.5365, 1173.212
563.0186, 1170.480
563.5007, 1163.782
563.9828, 1157.589
564.4650, 1152.161
564.9471, 1149.063
565.4292, 1149.073
565.9113, 1148.950
566.3934, 1144.042
566.8755, 1133.225
567.3577, 1130.415
567.8398, 1142.979
568.3219, 1153.682
568.8040, 1156.863
569.2861, 1156.072
569.7682, 1154.966
570.2504, 1154.697
570.7325, 1155.581
571.2146, 1160.757
571.6967, 1167.967
572.1788, 1163.070
572.6609, 1142.042
573.1431, 1128.154
573.6252, 1138.249
574.1073, 1158.195
574.5894, 1159.920
575.0715, 1138.459
575.5536, 1118.956
576.0358, 1104.094
576.5179, 1095.535
577.0000, 1096.734
577.4821, 1105.581
577.9642, 1117.934
578.4464, 1132.101
578.9285, 1143.537
579.4106, 1139.217
579.8927, 1112.653
580.3748, 1101.282
580.8569, 1118.379
581.3391, 1138.613
581.8212, 1148.807
582.3033, 1151.050
582.7854, 1149.801
583.2675, 1145.552
583.7496, 1139.214
584.2318, 1127.297
584.7139, 1114.910
585.1960, 1113.524
585.6781, 1124.377
586.1602, 1136.691
586.6423, 1141.224
587.1245, 1139.003
587.6066, 1138.210
588.0887, 1142.488
588.5708, 1142.314
589.0529, 1131.441
589.5350, 1120.065
590.0172, 1115.377
590.4993, 1117.620
590.9814, 1123.568
591.4635, 1133.794
591.9456, 1144.744
592.4277, 1152.075
592.9099, 1155.787
593.3920, 1155.580
593.8741, 1151.067
594.3562, 1143.415
594.8383, 1132.478
595.3204, 1116.336
595.8026, 1111.844
596.2847, 1128.948
596.7668, 1144.405
597.2489, 1148.918
597.7310, 1148.960
598.2131, 1154.529
598.6953, 1167.126
599.1774, 1176.493
599.6595, 1169.205
600.1416, 1150.754
600.6237, 1142.053
601.1058, 1144.182
601.5880, 1148.171
602.0701, 1150.772
602.5522, 1152.366
603.0343, 1153.119
603.5164, 1152.171
603.9985, 1154.012
604.4807, 1162.282
604.9628, 1170.414
605.4449, 1173.174
605.9270, 1173.121
606.4091, 1176.377
606.8912, 1185.362
607.3734, 1194.892
607.8555, 1196.147
608.3376, 1189.476
608.8197, 1188.860
609.3018, 1197.953
609.7839, 1205.303
610.2661, 1203.356
610.7482, 1195.859
611.2303, 1190.580
611.7124, 1187.918
612.1945, 1186.781
612.6766, 1188.949
613.1588, 1190.933
613.6409, 1186.784
614.1230, 1179.300
614.6051, 1178.900
615.0872, 1191.879
615.5693, 1210.171
616.0515, 1216.862
616.5336, 1209.881
617.0157, 1205.133
617.4978, 1203.919
617.9799, 1205.157
618.4620, 1211.005
618.9442, 1218.321
619.4263, 1220.284
619.9084, 1213.230
620.3905, 1206.223
620.8726, 1205.997
621.3547, 1206.695
621.8369, 1198.567
622.3190, 1182.937
622.8011, 1172.060
623.2832, 1174.966
623.7653, 1185.134
624.2474, 1182.682
624.7296, 1162.206
625.2117, 1147.781
625.6938, 1144.829
626.1759, 1145.688
626.6580, 1147.528
627.1401, 1149.272
627.6223, 1147.702
628.1044, 1138.657
628.5865, 1131.984
629.0686, 1139.194
629.5507, 1150.064
630.0328, 1146.225
630.5149, 1126.991
630.9970, 1108.188
631.4791, 1101.747
631.9612, 1104.917
632.4434, 1107.366
632.9255, 1108.796
633.4076, 1110.314
633.8897, 1113.743
634.3718, 1115.632
634.8539, 1112.837
635.3361, 1106.676
635.8182, 1101.356
636.3003, 1097.370
636.7824, 1095.588
637.2645, 1097.649
637.7466, 1101.970
638.2288, 1106.355
638.7109, 1110.221
639.1930, 1113.156
639.6751, 1114.919
640.1572, 1115.360
640.6393, 1113.078
641.1215, 1104.635
641.6036, 1101.882
642.0857, 1113.951
642.5678, 1125.545
643.0499, 1125.037
643.5320, 1115.774
