##NAMES=Pharmacolite
##RRUFFID=R070517
##IDEAL CHEMISTRY=Ca(As^5+^O_3_OH)&#183;2H_2_O
##LOCALITY=Getchell mine, Adam Peak, Potosi District, Humboldt County, Nevada, USA
##OWNER=RRUFF
##SOURCE=James Shigley
##DESCRIPTION=Spherical aggregates of white acicular crystals
##STATUS=The identification of this mineral has been confirmed only by single crystal X-ray diffraction.
##URL=rruff.info/R070517
151.6017, 15078.60
152.0838, 15192.51
152.5659, 15347.15
153.0481, 15553.87
153.5302, 15763.06
154.0123, 15981.06
154.4944, 16198.23
154.9765, 16401.29
155.4586, 16564.32
155.9408, 16733.24
156.4229, 16926.28
156.9050, 17095.21
157.3871, 17171.35
157.8692, 17207.66
158.3513, 17223.91
158.8335, 17243.62
159.3156, 17286.34
159.7977, 17326.59
160.2798, 17350.35
160.7619, 17340.40
161.2440, 17334.61
161.7262, 17363.42
162.2083, 17413.78
162.6904, 17426.62
163.1725, 17339.07
163.6546, 17225.36
164.1367, 17144.46
164.6189, 17135.19
165.1010, 17141.09
165.5831, 17136.56
166.0652, 17121.37
166.5473, 17106.71
167.0294, 17090.51
167.5116, 17079.46
167.9937, 17081.98
168.4758, 17109.06
168.9579, 17144.41
169.4400, 17172.81
169.9221, 17191.22
170.4043, 17221.07
170.8864, 17293.35
171.3685, 17386.35
171.8506, 17461.58
172.3327, 17485.46
172.8148, 17489.32
173.2970, 17502.55
173.7791, 17528.77
174.2612, 17563.76
174.7433, 17611.00
175.2254, 17665.57
175.7076, 17713.12
176.1897, 17730.39
176.6718, 17739.88
177.1539, 17781.54
177.6360, 17882.25
178.1181, 17981.65
178.6003, 17995.33
179.0824, 17935.70
179.5645, 17881.29
180.0466, 17901.06
180.5287, 17965.02
181.0108, 18005.07
181.4930, 17991.01
181.9751, 17959.25
182.4572, 17969.65
182.9393, 18021.28
183.4214, 18085.65
183.9035, 18148.83
184.3857, 18206.37
184.8678, 18243.83
185.3499, 18246.16
185.8320, 18228.01
186.3141, 18219.19
186.7962, 18218.81
187.2784, 18232.92
187.7605, 18281.30
188.2426, 18356.68
188.7247, 18415.43
189.2068, 18435.57
189.6889, 18424.12
190.1711, 18401.94
190.6532, 18364.73
191.1353, 18333.52
191.6174, 18354.21
192.0995, 18423.58
192.5816, 18468.34
193.0638, 18442.45
193.5459, 18354.72
194.0280, 18274.16
194.5101, 18201.21
194.9922, 18137.85
195.4743, 18090.88
195.9565, 18062.06
196.4386, 18032.92
196.9207, 17994.59
197.4028, 17947.50
197.8849, 17895.11
198.3671, 17833.89
198.8492, 17771.74
199.3313, 17725.02
199.8134, 17693.79
200.2955, 17676.59
200.7776, 17673.21
201.2598, 17683.71
201.7419, 17705.73
202.2240, 17747.29
202.7061, 17795.85
203.1882, 17801.23
203.6703, 17750.19
204.1525, 17697.79
204.6346, 17694.95
205.1167, 17753.30
205.5988, 17776.78
206.0809, 17733.62
206.5630, 17641.80
207.0452, 17614.19
207.5273, 17673.52
208.0094, 17745.29
208.4915, 17758.05
208.9736, 17695.85
209.4557, 17648.78
209.9379, 17641.98
210.4200, 17671.63
210.9021, 17675.90
211.3842, 17646.94
211.8663, 17606.58
212.3484, 17577.06
212.8306, 17559.79
213.3127, 17549.41
213.7948, 17543.33
214.2769, 17541.28
214.7590, 17557.36
215.2411, 17601.23
215.7233, 17650.81
216.2054, 17674.81
216.6875, 17661.71
217.1696, 17653.37
217.6517, 17664.51
218.1338, 17699.18
218.6160, 17718.04
219.0981, 17709.98
219.5802, 17696.12
220.0623, 17713.49
220.5444, 17781.60
221.0265, 17837.48
221.5087, 17853.79
221.9908, 17813.92
222.4729, 17809.53
222.9550, 17858.57
223.4371, 17931.54
223.9192, 17973.62
224.4014, 17970.42
224.8835, 17962.90
225.3656, 17966.63
225.8477, 17985.94
226.3298, 18003.56
226.8119, 18020.63
227.2941, 18035.20
227.7762, 18041.44
228.2583, 18029.69
228.7404, 18024.04
229.2225, 18035.00
229.7046, 18066.80
230.1868, 18104.54
230.6689, 18156.45
231.1510, 18211.42
231.6331, 18238.17
232.1152, 18223.85
232.5974, 18200.23
233.0795, 18182.05
233.5616, 18174.28
234.0437, 18162.32
234.5258, 18142.02
235.0079, 18118.70
235.4901, 18111.03
235.9722, 18132.25
236.4543, 18152.59
236.9364, 18152.71
237.4185, 18109.47
237.9006, 18100.29
238.3828, 18152.92
238.8649, 18244.34
239.3470, 18268.58
239.8291, 18172.19
240.3112, 18075.47
240.7933, 18054.02
241.2755, 18151.28
241.7576, 18227.64
242.2397, 18262.11
242.7218, 18264.65
243.2039, 18296.88
243.6860, 18395.29
244.1682, 18476.29
244.6503, 18475.90
245.1324, 18331.59
245.6145, 18242.99
246.0966, 18246.64
246.5787, 18327.44
247.0609, 18382.82
247.5430, 18406.50
248.0251, 18413.30
248.5072, 18409.20
248.9893, 18379.28
249.4714, 18371.72
249.9536, 18399.61
250.4357, 18457.89
250.9178, 18502.92
251.3999, 18533.31
251.8820, 18551.72
252.3641, 18557.59
252.8463, 18542.03
253.3284, 18534.75
253.8105, 18543.04
254.2926, 18564.85
254.7747, 18576.94
255.2568, 18568.44
255.7390, 18564.89
256.2211, 18589.90
256.7032, 18659.73
257.1853, 18718.58
257.6674, 18755.78
258.1495, 18773.50
258.6317, 18792.71
259.1138, 18815.05
259.5959, 18836.02
260.0780, 18849.80
260.5601, 18850.62
261.0422, 18859.37
261.5244, 18881.32
262.0065, 18915.21
262.4886, 18945.18
262.9707, 18971.60
263.4528, 18994.03
263.9349, 19007.21
264.4171, 18999.05
264.8992, 19019.56
265.3813, 19088.72
265.8634, 19199.12
266.3455, 19278.34
266.8276, 19321.71
267.3098, 19343.58
267.7919, 19349.01
268.2740, 19326.57
268.7561, 19331.02
269.2382, 19383.21
269.7203, 19473.85
270.2025, 19524.27
270.6846, 19515.16
271.1667, 19505.29
271.6488, 19557.13
272.1309, 19690.03
272.6130, 19791.32
273.0952, 19829.14
273.5773, 19816.55
274.0594, 19842.50
274.5415, 19920.58
275.0236, 20000.74
275.5057, 20027.47
275.9879, 19989.31
276.4700, 19981.55
276.9521, 20031.23
277.4342, 20125.36
277.9163, 20198.08
278.3984, 20246.04
278.8806, 20285.11
279.3627, 20322.22
279.8448, 20355.59
280.3269, 20412.99
280.8090, 20508.36
281.2911, 20628.20
281.7733, 20724.70
282.2554, 20795.19
282.7375, 20852.86
283.2196, 20908.25
283.7017, 20961.00
284.1838, 21002.53
284.6660, 21022.79
285.1481, 21035.20
285.6302, 21096.50
286.1123, 21214.41
286.5944, 21313.93
287.0765, 21320.39
287.5587, 21242.07
288.0408, 21172.03
288.5229, 21129.45
289.0050, 21104.11
289.4871, 21076.74
289.9692, 21047.88
290.4514, 21004.74
290.9335, 20919.38
291.4156, 20803.55
291.8977, 20728.86
292.3798, 20722.64
292.8619, 20743.79
293.3441, 20704.58
293.8262, 20607.07
294.3083, 20511.34
294.7904, 20457.49
295.2726, 20439.22
295.7547, 20438.28
296.2368, 20454.77
296.7189, 20481.84
297.2010, 20511.93
297.6831, 20544.35
298.1653, 20574.53
298.6474, 20595.72
299.1295, 20612.57
299.6116, 20639.95
300.0937, 20687.84
300.5758, 20729.92
301.0580, 20716.13
301.5401, 20659.94
302.0222, 20619.97
302.5043, 20648.72
302.9864, 20713.49
303.4685, 20764.41
303.9507, 20794.72
304.4328, 20810.07
304.9149, 20807.85
305.3970, 20793.87
305.8791, 20785.27
306.3612, 20796.11
306.8434, 20815.87
307.3255, 20833.04
307.8076, 20846.09
308.2897, 20856.32
308.7718, 20875.43
309.2539, 20892.64
309.7361, 20884.21
310.2182, 20808.58
310.7003, 20719.04
311.1824, 20662.38
311.6645, 20646.64
312.1466, 20645.16
312.6288, 20654.96
313.1109, 20666.21
313.5930, 20662.80
314.0751, 20619.93
314.5572, 20573.58
315.0393, 20547.13
315.5215, 20544.35
316.0036, 20548.26
316.4857, 20550.84
316.9678, 20555.98
317.4499, 20568.65
317.9320, 20614.52
318.4142, 20648.11
318.8963, 20635.44
319.3784, 20570.42
319.8605, 20533.02
320.3426, 20573.36
320.8247, 20644.97
321.3069, 20700.07
321.7890, 20729.75
322.2711, 20738.85
322.7532, 20709.05
323.2353, 20639.44
323.7174, 20611.49
324.1996, 20672.57
324.6817, 20763.95
325.1638, 20838.95
325.6459, 20901.74
326.1280, 20937.76
326.6101, 20931.87
327.0923, 20887.53
327.5744, 20857.52
328.0565, 20841.07
328.5386, 20842.52
329.0207, 20865.24
329.5028, 20940.42
329.9850, 20997.73
330.4671, 21029.66
330.9492, 21040.21
331.4313, 21047.98
331.9134, 21041.87
332.3955, 21045.21
332.8777, 21073.70
333.3598, 21153.75
333.8419, 21203.73
334.3240, 21206.09
334.8061, 21179.00
335.2882, 21176.30
335.7704, 21206.98
336.2525, 21245.18
336.7346, 21281.23
337.2167, 21316.12
337.6988, 21340.98
338.1809, 21349.88
338.6631, 21353.48
339.1452, 21376.68
339.6273, 21427.80
340.1094, 21469.67
340.5915, 21484.75
341.0736, 21471.41
341.5558, 21461.46
342.0379, 21454.96
342.5200, 21452.33
343.0021, 21459.67
343.4842, 21478.76
343.9663, 21482.97
344.4485, 21455.98
344.9306, 21404.13
345.4127, 21365.39
345.8948, 21339.73
346.3769, 21328.43
346.8590, 21343.78
347.3412, 21381.26
347.8233, 21402.89
348.3054, 21384.45
348.7875, 21349.06
349.2696, 21355.99
349.7517, 21404.59
350.2339, 21461.04
350.7160, 21498.54
351.1981, 21520.44
351.6802, 21533.88
352.1623, 21530.95
352.6444, 21530.95
353.1266, 21569.18
353.6087, 21638.44
354.0908, 21698.62
354.5729, 21719.91
355.0550, 21716.18
355.5371, 21704.48
356.0193, 21684.50
356.5014, 21666.00
356.9835, 21657.79
357.4656, 21658.51
357.9477, 21663.98
358.4298, 21685.29
358.9120, 21703.80
359.3941, 21700.71
359.8762, 21668.08
360.3583, 21639.56
360.8404, 21643.21
361.3225, 21661.58
361.8047, 21666.52
362.2868, 21620.32
362.7689, 21580.34
363.2510, 21580.86
363.7331, 21629.58
364.2152, 21668.20
364.6974, 21671.30
365.1795, 21657.60
365.6616, 21646.35
366.1437, 21643.24
366.6258, 21640.59
367.1079, 21641.20
367.5901, 21645.13
368.0722, 21635.01
368.5543, 21581.09
369.0364, 21530.99
369.5185, 21517.47
370.0006, 21590.46
370.4828, 21635.68
370.9649, 21631.83
371.4470, 21591.45
371.9291, 21574.40
372.4112, 21605.55
372.8933, 21630.10
373.3755, 21613.43
373.8576, 21519.06
374.3397, 21474.41
374.8218, 21499.21
375.3039, 21562.96
375.7861, 21598.91
376.2682, 21597.34
376.7503, 21591.80
377.2324, 21602.44
377.7145, 21632.75
378.1967, 21622.93
378.6788, 21563.47
379.1609, 21485.12
379.6430, 21422.69
380.1251, 21376.73
380.6072, 21357.94
381.0894, 21388.77
381.5715, 21450.78
382.0536, 21451.52
382.5357, 21384.96
383.0178, 21320.40
383.4999, 21334.23
383.9821, 21409.87
384.4642, 21474.99
384.9463, 21510.58
385.4284, 21527.19
385.9105, 21536.23
386.3926, 21538.75
386.8748, 21546.99
387.3569, 21570.28
387.8390, 21603.89
388.3211, 21644.74
388.8032, 21699.62
389.2853, 21742.22
389.7675, 21747.01
390.2496, 21721.83
390.7317, 21685.63
391.2138, 21633.68
391.6959, 21584.77
392.1780, 21551.74
392.6602, 21536.53
393.1423, 21538.58
393.6244, 21570.86
394.1065, 21616.54
394.5886, 21654.86
395.0707, 21679.84
395.5529, 21695.29
396.0350, 21697.26
396.5171, 21685.90
396.9992, 21681.59
397.4813, 21696.19
397.9634, 21714.57
398.4456, 21726.26
398.9277, 21728.49
399.4098, 21724.91
399.8919, 21696.60
400.3740, 21657.00
400.8561, 21667.64
401.3383, 21790.26
401.8204, 21897.82
402.3025, 21931.63
402.7846, 21849.84
403.2667, 21794.99
403.7488, 21776.59
404.2310, 21779.79
404.7131, 21776.85
405.1952, 21760.51
405.6773, 21759.72
406.1594, 21790.61
406.6415, 21853.06
407.1237, 21895.15
407.6058, 21911.86
408.0879, 21920.13
408.5700, 21943.01
409.0521, 21980.59
409.5342, 21995.45
410.0164, 21966.66
410.4985, 21917.16
410.9806, 21910.91
411.4627, 21947.89
411.9448, 21992.57
412.4269, 22022.29
412.9091, 22039.58
413.3912, 22051.97
413.8733, 22062.51
414.3554, 22063.95
414.8375, 22040.61
415.3196, 21999.82
415.8018, 21963.36
416.2839, 21950.02
416.7660, 21943.54
417.2481, 21925.26
417.7302, 21892.91
418.2123, 21863.95
418.6945, 21858.58
419.1766, 21861.11
419.6587, 21851.76
420.1408, 21814.47
420.6229, 21772.47
421.1050, 21726.22
421.5872, 21679.43
422.0693, 21658.22
422.5514, 21703.40
423.0335, 21755.44
423.5156, 21776.06
423.9977, 21718.81
424.4799, 21686.08
424.9620, 21708.72
425.4441, 21763.01
425.9262, 21790.52
426.4083, 21746.32
426.8904, 21724.96
427.3726, 21770.13
427.8547, 21911.17
428.3368, 21980.45
428.8189, 21948.48
429.3010, 21875.24
429.7831, 21827.28
430.2653, 21808.73
430.7474, 21804.07
431.2295, 21813.59
431.7116, 21835.39
432.1937, 21855.38
432.6758, 21872.18
433.1580, 21896.14
433.6401, 21943.21
434.1222, 22009.82
434.6043, 22051.73
435.0864, 22053.33
435.5685, 22048.64
436.0507, 22107.01
436.5328, 22216.53
437.0149, 22305.00
437.4970, 22314.01
437.9791, 22284.18
438.4612, 22286.37
438.9434, 22325.00
439.4255, 22365.79
439.9076, 22374.65
440.3897, 22368.15
440.8718, 22372.58
441.3539, 22409.06
441.8361, 22449.37
442.3182, 22474.94
442.8003, 22489.32
443.2824, 22506.83
443.7645, 22543.07
444.2466, 22579.42
444.7288, 22598.79
445.2109, 22576.18
445.6930, 22583.13
446.1751, 22663.97
446.6572, 22778.45
447.1393, 22857.93
447.6215, 22877.98
448.1036, 22877.78
448.5857, 22859.95
449.0678, 22821.13
449.5499, 22798.17
450.0320, 22802.27
450.5142, 22811.26
450.9963, 22806.58
451.4784, 22783.69
451.9605, 22760.86
452.4426, 22740.37
452.9247, 22721.73
453.4069, 22697.13
453.8890, 22663.68
454.3711, 22657.01
454.8532, 22645.24
455.3353, 22628.66
455.8174, 22592.80
456.2996, 22581.83
456.7817, 22560.88
457.2638, 22539.53
457.7459, 22532.05
458.2281, 22499.00
458.7102, 22491.30
459.1923, 22473.49
459.6744, 22460.30
460.1565, 22437.09
460.6386, 22416.97
461.1208, 22406.88
461.6029, 22391.24
462.0850, 22366.88
462.5671, 22353.98
463.0492, 22320.59
463.5313, 22261.57
464.0135, 22208.63
464.4956, 22180.03
464.9777, 22215.86
465.4598, 22249.39
465.9419, 22243.33
466.4240, 22188.17
466.9062, 22158.35
467.3883, 22181.24
467.8704, 22223.39
468.3525, 22258.28
468.8346, 22279.41
469.3167, 22298.33
469.7989, 22316.84
470.2810, 22332.35
470.7631, 22337.70
471.2452, 22331.44
471.7273, 22317.09
472.2094, 22290.89
472.6916, 22250.06
473.1737, 22238.64
473.6558, 22267.45
474.1379, 22302.13
474.6200, 22287.83
475.1021, 22227.90
475.5843, 22199.32
476.0664, 22238.85
476.5485, 22313.96
477.0306, 22350.62
477.5127, 22351.78
477.9948, 22345.17
478.4770, 22345.74
478.9591, 22351.90
479.4412, 22359.72
479.9233, 22366.36
480.4054, 22380.64
480.8875, 22404.89
481.3697, 22441.32
481.8518, 22494.12
482.3339, 22609.57
482.8160, 22702.29
483.2981, 22704.73
483.7802, 22620.95
484.2624, 22574.36
484.7445, 22633.52
485.2266, 22718.12
485.7087, 22778.73
486.1908, 22817.34
486.6729, 22820.03
487.1551, 22751.15
487.6372, 22655.69
488.1193, 22626.00
488.6014, 22706.82
489.0835, 22776.15
489.5656, 22791.66
490.0478, 22753.10
490.5299, 22741.68
491.0120, 22765.45
491.4941, 22797.79
491.9762, 22812.71
492.4583, 22810.49
492.9405, 22822.60
493.4226, 22862.49
493.9047, 22904.73
494.3868, 22897.30
494.8689, 22846.16
495.3510, 22792.44
495.8332, 22743.64
496.3153, 22711.47
496.7974, 22729.63
497.2795, 22800.10
497.7616, 22855.70
498.2437, 22822.37
498.7259, 22753.43
499.2080, 22715.60
499.6901, 22754.44
500.1722, 22794.99
500.6543, 22801.39
501.1364, 22782.83
501.6186, 22763.70
502.1007, 22751.59
502.5828, 22740.96
503.0649, 22729.43
503.5470, 22716.39
504.0291, 22707.24
504.5113, 22704.79
504.9934, 22705.08
505.4755, 22705.61
505.9576, 22710.96
506.4397, 22704.80
506.9218, 22675.57
507.4040, 22636.47
507.8861, 22633.06
508.3682, 22669.72
508.8503, 22718.86
509.3324, 22773.98
509.8145, 22831.88
510.2967, 22865.13
510.7788, 22870.53
511.2609, 22865.70
511.7430, 22860.50
512.2252, 22859.34
512.7073, 22877.57
513.1894, 22932.47
513.6715, 22991.13
514.1536, 23016.11
514.6357, 23014.32
515.1179, 23009.60
515.6000, 23020.71
516.0821, 23029.91
516.5642, 23019.38
517.0463, 22982.20
517.5284, 22959.12
518.0106, 22983.78
518.4927, 23020.13
518.9748, 23032.59
519.4569, 22964.40
519.9390, 22935.02
520.4211, 22976.63
520.9033, 23067.74
521.3854, 23130.58
521.8675, 23162.89
522.3496, 23170.53
522.8317, 23150.02
523.3138, 23097.56
523.7960, 23057.16
524.2781, 23029.12
524.7602, 23012.29
525.2423, 23003.18
525.7244, 23002.64
526.2065, 23023.05
526.6887, 23076.24
527.1708, 23138.20
527.6529, 23162.24
528.1350, 23155.32
528.6171, 23150.18
529.0992, 23164.03
529.5814, 23189.98
530.0635, 23222.20
530.5456, 23259.71
531.0277, 23298.47
531.5098, 23343.12
531.9919, 23382.84
532.4741, 23407.16
532.9562, 23399.99
533.4383, 23391.82
533.9204, 23385.89
534.4025, 23383.82
534.8846, 23390.73
535.3668, 23428.46
535.8489, 23452.22
536.3310, 23444.99
536.8131, 23403.58
537.2952, 23382.41
537.7773, 23393.99
538.2595, 23406.92
538.7416, 23388.77
539.2237, 23334.91
539.7058, 23306.02
540.1879, 23311.86
540.6700, 23339.79
541.1522, 23374.93
541.6343, 23415.48
542.1164, 23446.02
542.5985, 23455.14
543.0806, 23450.80
543.5627, 23442.37
544.0449, 23429.89
544.5270, 23419.77
545.0091, 23403.48
545.4912, 23397.50
545.9733, 23426.23
546.4554, 23516.64
546.9376, 23583.39
547.4197, 23565.82
547.9018, 23509.34
548.3839, 23480.11
548.8660, 23534.03
549.3481, 23570.46
549.8303, 23556.79
550.3124, 23500.69
550.7945, 23470.24
551.2766, 23483.71
551.7587, 23496.23
552.2408, 23482.50
552.7230, 23437.09
553.2051, 23396.28
553.6872, 23357.13
554.1693, 23329.60
554.6514, 23330.34
555.1335, 23357.08
555.6157, 23387.30
556.0978, 23416.12
556.5799, 23443.68
557.0620, 23477.92
557.5441, 23513.84
558.0262, 23529.75
558.5084, 23492.63
558.9905, 23441.76
559.4726, 23409.53
559.9547, 23398.59
560.4368, 23407.58
560.9189, 23466.30
561.4011, 23528.75
561.8832, 23555.52
562.3653, 23507.91
562.8474, 23463.31
563.3295, 23425.15
563.8116, 23397.61
564.2938, 23390.71
564.7759, 23407.32
565.2580, 23440.87
565.7401, 23498.38
566.2222, 23575.98
566.7043, 23624.32
567.1865, 23640.17
567.6686, 23636.93
568.1507, 23606.63
568.6328, 23558.65
569.1149, 23561.52
569.5970, 23630.29
570.0792, 23714.98
570.5613, 23770.40
571.0434, 23795.26
571.5255, 23785.18
572.0076, 23695.18
572.4897, 23611.68
572.9719, 23619.20
573.4540, 23695.51
573.9361, 23757.70
574.4182, 23760.42
574.9003, 23748.40
575.3824, 23743.90
575.8646, 23750.61
576.3467, 23756.32
576.8288, 23759.71
577.3109, 23762.20
577.7930, 23768.57
578.2751, 23795.56
578.7573, 23782.11
579.2394, 23706.31
579.7215, 23604.30
580.2036, 23550.97
580.6857, 23549.64
581.1678, 23562.47
581.6500, 23579.94
582.1321, 23599.69
582.6142, 23615.46
583.0963, 23627.32
583.5784, 23633.76
584.0605, 23622.50
584.5427, 23609.93
585.0248, 23625.04
585.5069, 23679.59
585.9890, 23721.24
586.4711, 23701.11
586.9532, 23656.77
587.4354, 23631.82
587.9175, 23645.83
588.3996, 23670.59
588.8817, 23707.93
589.3638, 23752.11
589.8459, 23783.65
590.3281, 23786.81
590.8102, 23799.75
591.2923, 23844.76
591.7744, 23921.64
592.2565, 23943.44
592.7386, 23896.72
593.2208, 23840.23
593.7029, 23827.23
594.1850, 23850.99
594.6671, 23866.80
595.1492, 23870.30
595.6313, 23862.89
596.1135, 23831.29
596.5956, 23790.96
597.0777, 23775.94
597.5598, 23830.39
598.0419, 23886.80
598.5240, 23882.49
599.0062, 23837.98
599.4883, 23826.15
599.9704, 23913.28
600.4525, 24004.31
600.9346, 24054.25
601.4167, 24052.74
601.8989, 24044.09
602.3810, 24007.13
602.8631, 23984.46
603.3452, 24016.67
603.8273, 24125.09
604.3094, 24197.89
604.7916, 24221.45
605.2737, 24215.53
605.7558, 24205.09
606.2379, 24191.40
606.7200, 24188.45
607.2021, 24204.23
607.6843, 24231.19
608.1664, 24269.81
608.6485, 24313.82
609.1306, 24333.09
609.6127, 24289.17
610.0948, 24226.51
610.5770, 24175.01
611.0591, 24136.14
611.5412, 24123.35
612.0233, 24169.21
612.5054, 24225.95
612.9875, 24256.66
613.4697, 24232.08
613.9518, 24218.79
614.4339, 24221.59
614.9160, 24232.23
615.3981, 24236.10
615.8802, 24229.75
616.3624, 24231.68
616.8445, 24250.28
617.3266, 24278.02
617.8087, 24294.80
618.2908, 24300.57
618.7729, 24295.13
619.2551, 24265.33
619.7372, 24229.19
620.2193, 24220.17
620.7014, 24239.63
621.1835, 24258.08
621.6656, 24246.65
622.1478, 24229.60
622.6299, 24231.26
623.1120, 24267.91
623.5941, 24299.82
624.0762, 24318.89
624.5583, 24327.24
625.0405, 24327.10
625.5226, 24308.62
626.0047, 24299.92
626.4868, 24312.21
626.9689, 24335.27
627.4510, 24328.49
627.9332, 24285.13
628.4153, 24247.53
628.8974, 24238.95
629.3795, 24251.69
629.8616, 24254.97
630.3438, 24248.66
630.8259, 24247.43
631.3080, 24264.99
631.7901, 24293.66
632.2722, 24328.43
632.7543, 24373.99
633.2365, 24400.54
633.7186, 24368.04
634.2007, 24318.62
634.6828, 24299.72
635.1649, 24391.16
635.6470, 24430.91
636.1292, 24356.76
636.6113, 24224.44
637.0934, 24163.76
637.5755, 24198.09
638.0576, 24249.92
638.5397, 24303.80
639.0219, 24355.87
639.5040, 24382.24
639.9861, 24381.17
640.4682, 24378.27
640.9503, 24390.49
641.4324, 24413.21
641.9146, 24436.60
642.3967, 24459.57
642.8788, 24485.22
643.3609, 24524.16
643.8430, 24562.83
644.3251, 24584.56
644.8073, 24576.15
645.2894, 24567.75
645.7715, 24569.98
646.2536, 24577.45
646.7357, 24581.80
647.2178, 24583.41
647.7000, 24580.44
648.1821, 24564.34
