##NAMES=Pharmacosiderite
##RRUFFID=R050574
##IDEAL CHEMISTRY=KFe^3+^_4_(As^5+^O_4_)_3_(OH)_4_&#183;6-7H_2_O
##LOCALITY=Cornwall, England
##OWNER=RRUFF
##SOURCE=University of Arizona Mineral Museum
##DESCRIPTION=Druse of bluish-green cubes
##STATUS=The identification of this mineral is confirmed by single-crystal X-ray diffraction and chemical analysis.
##URL=rruff.info/R050574
##MEASURED CHEMISTRY=K_1.27_(Fe^3+^_3.73_Fe^2+^_0.27_)_Σ=4_(As_1.00_O_4_)_3_(OH)_4_·6H_2_O
132.8808, 364.4677
133.3629, 380.3797
133.8450, 396.7289
134.3271, 412.4698
134.8093, 427.7861
135.2914, 442.2695
135.7735, 455.1683
136.2556, 466.9542
136.7377, 475.8237
137.2198, 477.7218
137.7020, 469.3329
138.1841, 464.4713
138.6662, 473.0766
139.1483, 492.7265
139.6304, 510.9909
140.1125, 522.3110
140.5947, 531.2297
141.0768, 543.8924
141.5589, 560.7673
142.0410, 579.7406
142.5231, 599.6418
143.0052, 620.4348
143.4874, 642.1541
143.9695, 665.2129
144.4516, 689.0056
144.9337, 712.1525
145.4158, 734.2870
145.8979, 758.1362
146.3801, 787.9400
146.8622, 824.3708
147.3443, 857.6439
147.8264, 881.5287
148.3085, 903.5217
148.7906, 928.6877
149.2728, 957.9073
149.7549, 988.3242
150.2370, 1018.747
150.7191, 1050.645
151.2012, 1075.067
151.6833, 1087.549
152.1655, 1093.990
152.6476, 1095.508
153.1297, 1092.850
153.6118, 1089.667
154.0939, 1091.368
154.5760, 1100.226
155.0582, 1106.705
155.5403, 1109.306
156.0224, 1109.926
156.5045, 1109.464
156.9866, 1108.156
157.4688, 1105.872
157.9509, 1101.786
158.4330, 1093.545
158.9151, 1089.491
159.3972, 1093.719
159.8793, 1098.797
160.3615, 1097.956
160.8436, 1090.939
161.3257, 1084.701
161.8078, 1090.302
162.2899, 1116.627
162.7720, 1135.162
163.2542, 1143.790
163.7363, 1147.827
164.2184, 1149.536
164.7005, 1149.894
165.1826, 1149.947
165.6647, 1151.093
166.1469, 1153.689
166.6290, 1156.708
167.1111, 1160.956
167.5932, 1165.018
168.0753, 1167.238
168.5574, 1167.682
169.0396, 1168.496
169.5217, 1172.631
170.0038, 1182.074
170.4859, 1189.310
170.9680, 1195.392
171.4501, 1198.831
171.9323, 1195.826
172.4144, 1186.973
172.8965, 1179.597
173.3786, 1182.401
173.8607, 1199.011
174.3428, 1214.151
174.8250, 1229.273
175.3071, 1242.070
175.7892, 1248.972
176.2713, 1250.305
176.7534, 1251.687
177.2355, 1258.938
177.7177, 1273.478
178.1998, 1287.766
178.6819, 1300.468
179.1640, 1313.825
179.6461, 1330.823
180.1282, 1351.248
180.6104, 1370.287
181.0925, 1382.533
181.5746, 1387.297
182.0567, 1398.030
182.5388, 1416.578
183.0209, 1439.734
183.5031, 1466.141
183.9852, 1495.456
184.4673, 1526.251
184.9494, 1558.729
185.4315, 1592.118
185.9136, 1620.000
186.3958, 1636.893
186.8779, 1652.284
187.3600, 1674.055
187.8421, 1702.001
188.3242, 1730.116
188.8063, 1755.374
189.2885, 1777.072
189.7706, 1794.862
190.2527, 1806.552
190.7348, 1816.137
191.2169, 1828.791
191.6990, 1843.764
192.1812, 1851.653
192.6633, 1845.196
193.1454, 1827.628
193.6275, 1811.109
194.1096, 1798.455
194.5917, 1783.840
195.0739, 1760.405
195.5560, 1729.407
196.0381, 1702.603
196.5202, 1688.204
197.0023, 1679.752
197.4844, 1663.200
197.9666, 1634.138
198.4487, 1605.410
198.9308, 1586.898
199.4129, 1577.225
199.8950, 1567.824
200.3771, 1555.331
200.8593, 1541.742
201.3414, 1531.001
201.8235, 1524.641
202.3056, 1515.132
202.7877, 1493.483
203.2698, 1462.739
203.7520, 1439.836
204.2341, 1432.636
204.7162, 1431.709
205.1983, 1425.506
205.6804, 1413.782
206.1625, 1401.434
206.6447, 1390.790
207.1268, 1381.767
207.6089, 1373.677
208.0910, 1365.516
208.5731, 1359.851
209.0552, 1358.631
209.5374, 1361.567
210.0195, 1367.560
210.5016, 1378.158
210.9837, 1391.548
211.4658, 1401.957
211.9479, 1407.568
212.4301, 1412.187
212.9122, 1417.463
213.3943, 1423.839
213.8764, 1433.234
214.3585, 1448.644
214.8406, 1467.492
215.3228, 1483.371
215.8049, 1494.626
216.2870, 1506.407
216.7691, 1520.358
217.2512, 1537.177
217.7333, 1559.262
218.2155, 1589.806
218.6976, 1625.033
219.1797, 1657.685
219.6618, 1686.431
220.1439, 1717.181
220.6260, 1753.009
221.1082, 1793.109
221.5903, 1837.916
222.0724, 1890.833
222.5545, 1944.404
223.0366, 1986.448
223.5187, 2014.584
224.0009, 2045.655
224.4830, 2084.218
224.9651, 2131.045
225.4472, 2188.668
225.9293, 2260.187
226.4114, 2336.231
226.8936, 2407.391
227.3757, 2473.742
227.8578, 2539.887
228.3399, 2608.244
228.8220, 2676.196
229.3041, 2739.843
229.7863, 2798.332
230.2684, 2857.855
230.7505, 2922.380
231.2326, 2991.879
231.7147, 3066.849
232.1968, 3153.096
232.6790, 3238.624
233.1611, 3313.511
233.6432, 3378.047
234.1253, 3439.166
234.6074, 3498.573
235.0895, 3557.228
235.5717, 3621.009
236.0538, 3697.365
236.5359, 3766.747
237.0180, 3814.039
237.5001, 3843.584
237.9822, 3867.915
238.4644, 3899.400
238.9465, 3929.600
239.4286, 3936.469
239.9107, 3915.931
240.3928, 3880.859
240.8749, 3833.525
241.3571, 3778.295
241.8392, 3721.821
242.3213, 3667.282
242.8034, 3611.609
243.2855, 3549.552
243.7676, 3480.370
244.2498, 3408.829
244.7319, 3337.295
245.2140, 3264.574
245.6961, 3188.094
246.1782, 3104.786
246.6603, 3022.856
247.1425, 2950.458
247.6246, 2887.535
248.1067, 2831.184
248.5888, 2783.395
249.0709, 2740.623
249.5530, 2698.328
250.0352, 2656.060
250.5173, 2616.519
250.9994, 2582.147
251.4815, 2552.636
251.9636, 2525.939
252.4457, 2501.546
252.9279, 2480.460
253.4100, 2464.728
253.8921, 2453.935
254.3742, 2442.325
254.8563, 2424.847
255.3384, 2404.852
255.8206, 2389.684
256.3027, 2380.376
256.7848, 2375.655
257.2669, 2376.211
257.7490, 2380.706
258.2311, 2385.966
258.7133, 2391.242
259.1954, 2396.721
259.6775, 2403.409
260.1596, 2411.637
260.6417, 2417.786
261.1238, 2417.727
261.6060, 2414.113
262.0881, 2413.600
262.5702, 2419.961
263.0523, 2426.264
263.5344, 2428.303
264.0165, 2425.943
264.4987, 2416.503
264.9808, 2392.886
265.4629, 2366.443
265.9450, 2360.119
266.4271, 2380.653
266.9092, 2402.324
267.3914, 2414.425
267.8735, 2418.220
268.3556, 2415.990
268.8377, 2407.366
269.3198, 2395.508
269.8019, 2383.702
270.2841, 2371.306
270.7662, 2363.256
271.2483, 2364.938
271.7304, 2369.899
272.2125, 2368.091
272.6946, 2357.576
273.1768, 2347.894
273.6589, 2349.355
274.1410, 2362.234
274.6231, 2371.104
275.1052, 2372.310
275.5873, 2371.435
276.0695, 2370.212
276.5516, 2369.698
277.0337, 2374.640
277.5158, 2389.048
277.9979, 2411.613
278.4800, 2433.295
278.9622, 2453.741
279.4443, 2473.779
279.9264, 2493.213
280.4085, 2512.535
280.8906, 2534.265
281.3727, 2560.433
281.8549, 2586.153
282.3370, 2599.312
282.8191, 2591.125
283.3012, 2586.909
283.7833, 2593.064
284.2654, 2602.765
284.7476, 2611.035
285.2297, 2616.175
285.7118, 2614.527
286.1939, 2601.174
286.6760, 2573.205
287.1581, 2541.253
287.6403, 2500.796
288.1224, 2460.498
288.6045, 2425.745
289.0866, 2396.445
289.5687, 2369.344
290.0508, 2341.300
290.5330, 2312.597
291.0151, 2293.631
291.4972, 2287.159
291.9793, 2286.633
292.4614, 2293.613
292.9435, 2304.878
293.4257, 2316.294
293.9078, 2325.863
294.3899, 2333.673
294.8720, 2339.462
295.3541, 2335.729
295.8362, 2341.828
296.3184, 2364.136
296.8005, 2392.681
297.2826, 2419.041
297.7647, 2441.442
298.2468, 2463.475
298.7289, 2491.758
299.2111, 2530.880
299.6932, 2559.295
300.1753, 2568.373
300.6574, 2574.935
301.1395, 2586.008
301.6216, 2600.971
302.1038, 2616.431
302.5859, 2631.835
303.0680, 2645.747
303.5501, 2644.655
304.0322, 2619.382
304.5143, 2590.644
304.9965, 2563.819
305.4786, 2537.811
305.9607, 2513.410
306.4428, 2492.296
306.9249, 2466.253
307.4070, 2415.902
307.8892, 2332.122
308.3713, 2256.193
308.8534, 2206.132
309.3355, 2162.093
309.8176, 2109.825
310.2997, 2047.714
310.7819, 1986.671
311.2640, 1938.017
311.7461, 1900.603
312.2282, 1858.883
312.7103, 1809.632
313.1924, 1758.169
313.6746, 1704.466
314.1567, 1651.096
314.6388, 1605.605
315.1209, 1576.186
315.6030, 1555.327
316.0851, 1530.549
316.5673, 1501.737
317.0494, 1469.378
317.5315, 1427.347
318.0136, 1384.047
318.4957, 1354.209
318.9778, 1344.699
319.4600, 1339.308
319.9421, 1324.794
320.4242, 1303.817
320.9063, 1288.781
321.3884, 1286.309
321.8705, 1287.170
322.3527, 1275.574
322.8348, 1250.478
323.3169, 1228.442
323.7990, 1216.078
324.2811, 1208.494
324.7632, 1198.875
325.2454, 1186.340
325.7275, 1176.020
326.2096, 1173.547
326.6917, 1179.016
327.1738, 1179.989
327.6559, 1171.615
328.1381, 1163.630
328.6202, 1163.791
329.1023, 1168.581
329.5844, 1167.662
330.0665, 1154.967
330.5486, 1135.342
331.0308, 1123.191
331.5129, 1125.820
331.9950, 1126.406
332.4771, 1121.295
332.9592, 1115.137
333.4413, 1113.507
333.9235, 1117.127
334.4056, 1120.992
334.8877, 1118.386
335.3698, 1106.814
335.8519, 1100.332
336.3340, 1104.029
336.8162, 1107.237
337.2983, 1104.465
337.7804, 1097.627
338.2625, 1091.541
338.7446, 1089.320
339.2267, 1090.336
339.7089, 1092.443
340.1910, 1099.974
340.6731, 1101.115
341.1552, 1089.960
341.6373, 1074.519
342.1194, 1061.687
342.6016, 1053.477
343.0837, 1048.013
343.5658, 1043.079
344.0479, 1038.566
344.5300, 1035.692
345.0121, 1036.733
345.4943, 1037.259
345.9764, 1033.899
346.4585, 1027.799
346.9406, 1022.938
347.4227, 1022.652
347.9048, 1024.884
348.3870, 1023.555
348.8691, 1016.986
349.3512, 1013.302
349.8333, 1020.262
350.3154, 1031.302
350.7975, 1037.696
351.2797, 1037.229
351.7618, 1034.351
352.2439, 1031.310
352.7260, 1028.445
353.2081, 1027.506
353.6902, 1029.741
354.1724, 1032.473
354.6545, 1031.524
355.1366, 1027.069
355.6187, 1023.671
356.1008, 1022.253
356.5829, 1022.386
357.0651, 1023.523
357.5472, 1025.691
358.0293, 1029.837
358.5114, 1037.575
358.9935, 1047.839
359.4756, 1052.851
359.9578, 1046.671
360.4399, 1043.238
360.9220, 1046.647
361.4041, 1055.057
361.8862, 1067.788
362.3683, 1084.286
362.8505, 1099.401
363.3326, 1103.523
363.8147, 1086.681
364.2968, 1085.432
364.7789, 1113.344
365.2610, 1142.533
365.7432, 1156.691
366.2253, 1158.070
366.7074, 1157.673
367.1895, 1162.884
367.6716, 1173.552
368.1537, 1189.780
368.6359, 1217.562
369.1180, 1241.615
369.6001, 1255.046
370.0822, 1265.596
370.5643, 1281.046
371.0464, 1303.527
371.5286, 1329.413
372.0107, 1355.355
372.4928, 1381.485
372.9749, 1404.599
373.4570, 1419.746
373.9391, 1437.555
374.4213, 1466.628
374.9034, 1503.735
375.3855, 1538.758
375.8676, 1566.313
376.3497, 1589.496
376.8318, 1612.215
377.3140, 1634.099
377.7961, 1660.468
378.2782, 1696.590
378.7603, 1737.337
379.2424, 1771.976
379.7245, 1797.697
380.2067, 1825.699
380.6888, 1863.651
381.1709, 1907.064
381.6530, 1948.799
382.1351, 1987.552
382.6172, 2021.222
383.0994, 2045.547
383.5815, 2059.292
384.0636, 2080.465
384.5457, 2116.187
385.0278, 2152.228
385.5099, 2181.220
385.9921, 2204.782
386.4742, 2227.343
386.9563, 2251.210
387.4384, 2275.102
387.9205, 2295.601
388.4026, 2312.497
388.8848, 2325.906
389.3669, 2332.496
389.8490, 2338.260
390.3311, 2347.909
390.8132, 2361.410
391.2953, 2375.710
391.7775, 2388.792
392.2596, 2400.480
392.7417, 2406.744
393.2238, 2403.230
393.7059, 2400.426
394.1880, 2405.085
394.6702, 2410.684
395.1523, 2408.509
395.6344, 2395.226
396.1165, 2377.628
396.5986, 2363.151
397.0807, 2351.733
397.5629, 2342.911
398.0450, 2341.728
398.5271, 2336.112
399.0092, 2309.959
399.4913, 2268.561
399.9734, 2238.495
400.4556, 2241.891
400.9377, 2254.333
401.4198, 2243.191
401.9019, 2209.467
402.3840, 2178.143
402.8661, 2162.471
403.3483, 2157.191
403.8304, 2148.069
404.3125, 2133.116
404.7946, 2119.452
405.2767, 2110.303
405.7589, 2102.634
406.2410, 2092.834
406.7231, 2080.364
407.2052, 2067.288
407.6873, 2055.935
408.1694, 2046.706
408.6516, 2031.620
409.1337, 1999.800
409.6158, 1974.994
410.0979, 1967.326
410.5800, 1969.106
411.0621, 1970.208
411.5443, 1966.578
412.0264, 1959.628
412.5085, 1950.864
412.9906, 1938.948
413.4727, 1929.969
413.9548, 1924.597
414.4370, 1922.196
414.9191, 1924.098
415.4012, 1928.957
415.8833, 1933.425
416.3654, 1936.303
416.8475, 1937.102
417.3297, 1933.749
417.8118, 1925.491
418.2939, 1918.648
418.7760, 1913.978
419.2581, 1913.567
419.7402, 1921.177
420.2224, 1938.483
420.7045, 1953.198
421.1866, 1960.461
421.6687, 1961.318
422.1508, 1953.066
422.6329, 1935.663
423.1151, 1925.279
423.5972, 1937.212
424.0793, 1968.464
424.5614, 1988.538
425.0435, 1990.001
425.5256, 1990.548
426.0078, 1994.406
426.4899, 2000.663
426.9720, 2008.342
427.4541, 2017.056
427.9362, 2025.887
428.4183, 2033.239
428.9005, 2037.936
429.3826, 2046.819
429.8647, 2062.865
430.3468, 2079.985
430.8289, 2097.813
431.3110, 2115.016
431.7932, 2128.771
432.2753, 2137.020
432.7574, 2144.666
433.2395, 2161.877
433.7216, 2190.756
434.2037, 2215.992
434.6859, 2230.131
435.1680, 2244.244
435.6501, 2268.450
436.1322, 2301.230
436.6143, 2331.541
437.0964, 2352.310
437.5786, 2368.679
438.0607, 2386.822
438.5428, 2406.916
439.0249, 2428.729
439.5070, 2451.302
439.9891, 2476.140
440.4713, 2508.296
440.9534, 2551.216
441.4355, 2591.207
441.9176, 2621.712
442.3997, 2650.002
442.8818, 2682.267
443.3640, 2719.632
443.8461, 2762.258
444.3282, 2811.732
444.8103, 2866.768
445.2924, 2912.956
445.7745, 2935.596
446.2567, 2967.133
446.7388, 3014.877
447.2209, 3071.716
447.7030, 3130.501
448.1851, 3189.785
448.6672, 3251.829
449.1494, 3319.838
449.6315, 3393.730
450.1136, 3469.945
450.5957, 3549.977
451.0778, 3629.309
451.5599, 3702.388
452.0421, 3774.420
452.5242, 3851.093
453.0063, 3930.846
453.4884, 4022.771
453.9705, 4139.443
454.4526, 4274.776
454.9348, 4409.029
455.4169, 4536.108
455.8990, 4665.901
456.3811, 4807.363
456.8632, 4961.689
457.3453, 5128.779
457.8275, 5310.345
458.3096, 5503.339
458.7917, 5698.522
459.2738, 5904.943
459.7559, 6140.812
460.2380, 6412.561
460.7202, 6705.837
461.2023, 6991.150
461.6844, 7252.632
462.1665, 7550.431
462.6486, 7895.261
463.1307, 8262.000
463.6129, 8649.573
464.0950, 9050.658
464.5771, 9455.031
465.0592, 9852.717
465.5413, 10258.68
466.0234, 10702.83
466.5056, 11187.84
466.9877, 11678.83
467.4698, 12164.94
467.9519, 12662.33
468.4340, 13180.69
468.9161, 13720.45
469.3983, 14282.91
469.8804, 14867.15
470.3625, 15475.24
470.8446, 16127.66
471.3267, 16810.87
471.8088, 17474.74
472.2910, 18091.53
472.7731, 18676.04
473.2552, 19251.27
473.7373, 19860.29
474.2194, 20364.18
474.7015, 20744.83
475.1837, 21033.30
475.6658, 21266.72
476.1479, 21425.94
476.6300, 21455.91
477.1121, 21321.33
477.5942, 21035.60
478.0764, 20628.57
478.5585, 20085.13
479.0406, 19461.80
479.5227, 18729.64
480.0048, 17946.32
480.4869, 17127.49
480.9691, 16282.38
481.4512, 15442.27
481.9333, 14615.88
482.4154, 13813.29
482.8975, 13055.43
483.3796, 12341.05
483.8618, 11657.55
484.3439, 10989.55
484.8260, 10355.29
485.3081, 9789.711
485.7902, 9293.156
486.2723, 8836.105
486.7545, 8422.872
487.2366, 8039.706
487.7187, 7680.447
488.2008, 7339.775
488.6829, 7013.200
489.1650, 6697.566
489.6472, 6397.400
490.1293, 6132.425
490.6114, 5925.107
491.0935, 5711.769
491.5756, 5463.500
492.0577, 5228.064
492.5399, 5041.857
493.0220, 4898.875
493.5041, 4763.461
493.9862, 4610.709
494.4683, 4451.671
494.9504, 4310.429
495.4326, 4188.982
495.9147, 4068.128
496.3968, 3934.496
496.8789, 3805.024
497.3610, 3707.151
497.8431, 3644.673
498.3253, 3571.003
498.8074, 3457.211
499.2895, 3338.876
499.7716, 3251.171
500.2537, 3189.581
500.7358, 3127.524
501.2180, 3049.673
501.7001, 2964.934
502.1822, 2896.118
502.6643, 2854.188
503.1464, 2809.090
503.6285, 2762.168
504.1107, 2710.802
504.5928, 2648.077
505.0749, 2579.429
505.5570, 2519.960
506.0391, 2479.502
506.5212, 2449.308
507.0034, 2410.310
507.4855, 2361.356
507.9676, 2318.923
508.4497, 2290.908
508.9318, 2265.987
509.4139, 2231.468
509.8961, 2188.650
510.3782, 2148.797
510.8603, 2112.703
511.3424, 2082.368
511.8245, 2063.454
512.3066, 2051.957
512.7888, 2036.994
513.2709, 2014.261
513.7530, 1986.336
514.2351, 1957.094
514.7172, 1927.245
515.1993, 1894.190
515.6815, 1852.149
516.1636, 1813.330
516.6457, 1782.055
517.1278, 1757.255
517.6099, 1737.466
518.0920, 1722.618
518.5742, 1707.957
519.0563, 1684.885
519.5384, 1653.745
520.0205, 1629.426
520.5026, 1616.449
520.9847, 1605.240
521.4669, 1587.879
521.9490, 1566.577
522.4311, 1547.218
522.9132, 1532.085
523.3953, 1517.128
523.8774, 1498.226
524.3596, 1478.591
524.8417, 1466.674
525.3238, 1463.521
525.8059, 1456.846
526.2880, 1432.156
526.7701, 1389.656
527.2523, 1362.699
527.7344, 1367.708
528.2165, 1369.117
528.6986, 1356.804
529.1807, 1340.883
529.6628, 1333.000
530.1450, 1334.560
530.6271, 1335.343
531.1092, 1324.056
531.5913, 1304.680
532.0734, 1292.426
532.5555, 1289.004
533.0377, 1283.798
533.5198, 1269.705
534.0019, 1252.030
534.4840, 1241.251
534.9661, 1238.787
535.4482, 1237.169
535.9304, 1237.865
536.4125, 1236.055
536.8946, 1225.486
537.3767, 1207.848
537.8588, 1189.969
538.3409, 1175.662
538.8231, 1164.802
539.3052, 1157.813
539.7873, 1157.770
540.2694, 1154.200
540.7515, 1143.171
541.2336, 1131.439
541.7158, 1122.068
542.1979, 1114.767
542.6800, 1108.325
543.1621, 1102.675
543.6442, 1096.873
544.1263, 1088.695
544.6085, 1078.949
545.0906, 1073.534
545.5727, 1075.641
546.0548, 1075.618
546.5369, 1061.161
547.0190, 1031.815
547.5012, 1013.816
547.9833, 1014.468
548.4654, 1017.782
548.9475, 1021.758
549.4296, 1023.672
549.9117, 1018.689
550.3939, 1006.574
550.8760, 994.3687
551.3581, 990.1743
551.8402, 993.1935
552.3223, 992.2573
552.8044, 985.7240
553.2866, 978.7288
553.7687, 972.2271
554.2508, 966.7535
554.7329, 963.3599
555.2150, 962.2786
555.6971, 960.8282
556.1793, 959.0284
556.6614, 955.3765
557.1435, 946.0931
557.6256, 932.3757
558.1077, 921.3261
558.5898, 916.6722
559.0720, 916.3630
559.5541, 916.2825
560.0362, 917.7613
560.5183, 916.2847
561.0004, 909.5595
561.4825, 902.5773
561.9647, 896.3406
562.4468, 891.8600
562.9289, 891.3632
563.4110, 896.4627
563.8931, 901.8008
564.3752, 900.3859
564.8574, 892.8686
565.3395, 883.8541
565.8216, 873.2429
566.3037, 863.3733
566.7858, 855.6580
567.2679, 850.2059
567.7501, 846.8235
568.2322, 848.1101
568.7143, 847.6835
569.1964, 840.6013
569.6785, 832.8986
570.1606, 832.1970
570.6428, 838.0844
571.1249, 843.5515
571.6070, 843.2050
572.0891, 838.5713
572.5712, 835.0150
573.0533, 832.3798
573.5355, 831.3849
574.0176, 834.6014
574.4997, 837.3257
574.9818, 834.7263
575.4639, 828.2050
575.9460, 824.6044
576.4282, 831.0471
576.9103, 837.1274
577.3924, 830.4197
577.8745, 816.4229
578.3566, 811.0308
578.8387, 818.8308
579.3209, 828.3726
579.8030, 826.4186
580.2851, 812.3596
580.7672, 801.9006
581.2493, 793.6652
581.7314, 791.0798
582.2136, 801.3924
582.6957, 813.5179
583.1778, 815.4226
583.6599, 806.1409
584.1420, 796.0883
584.6241, 793.7889
585.1063, 795.9630
585.5884, 795.4384
586.0705, 792.2097
586.5526, 788.9931
587.0347, 786.9918
587.5168, 785.1507
587.9990, 781.0213
588.4811, 772.8024
588.9632, 770.8661
589.4453, 783.7531
589.9274, 794.2142
590.4095, 791.9651
590.8917, 782.5842
591.3738, 774.5217
591.8559, 770.7485
592.3380, 770.1207
592.8201, 772.6976
593.3022, 778.0220
593.7844, 780.2342
594.2665, 779.2567
594.7486, 774.9893
595.2307, 764.1015
595.7128, 751.7637
596.1949, 747.3169
596.6771, 752.9742
597.1592, 755.9578
597.6413, 750.2585
598.1234, 742.3628
598.6055, 737.1839
599.0876, 734.4874
599.5698, 732.2360
600.0519, 729.4836
600.5340, 727.0020
601.0161, 726.5201
601.4982, 728.7451
601.9803, 728.8859
602.4625, 724.3584
602.9446, 721.4208
603.4267, 726.5043
603.9088, 733.4116
604.3909, 731.9567
604.8730, 718.3939
605.3552, 706.3314
605.8373, 704.7006
606.3194, 708.1471
606.8015, 710.8168
607.2836, 711.7754
607.7657, 709.5721
608.2479, 703.0241
608.7300, 694.4443
609.2121, 689.3904
609.6942, 690.5984
610.1763, 688.6110
610.6584, 678.1039
611.1406, 669.8751
611.6227, 669.8526
612.1048, 674.4910
612.5869, 677.6641
613.0690, 677.4793
613.5511, 675.8862
614.0333, 675.1437
614.5154, 673.9757
614.9975, 669.1833
615.4796, 660.5457
615.9617, 650.5032
616.4438, 639.6769
616.9260, 629.7969
617.4081, 625.9658
617.8902, 632.7750
618.3723, 637.3140
618.8544, 640.1343
619.3365, 640.3389
619.8187, 635.3872
620.3008, 627.8741
620.7829, 622.8626
621.2650, 622.5445
621.7471, 623.3246
622.2292, 621.2445
622.7114, 617.1334
623.1935, 613.7957
623.6756, 611.5764
624.1577, 609.5040
624.6398, 607.0051
625.1219, 604.1801
625.6041, 601.2440
626.0862, 596.4717
626.5683, 594.6869
627.0504, 600.0298
627.5325, 604.5192
