##NAMES=Phenakite
##RRUFFID=R040046
##IDEAL CHEMISTRY=Be_2_SiO_4_
##LOCALITY=San Miguel de Piracicaba, Minas Gerais, Brazil
##OWNER=RRUFF
##SOURCE=University of Arizona Mineral Museum
##DESCRIPTION=Colorless crystal fragments
##STATUS=The identification of this mineral has been confirmed by X-ray diffraction and chemical analysis
##URL=rruff.info/R040046
##MEASURED CHEMISTRY=Be_2.02_Si_0.99_O_4_
105.1362, 140.2122
105.6183, 138.7954
106.1004, 130.5553
106.5825, 123.1268
107.0646, 121.0300
107.5468, 123.0950
108.0289, 124.2229
108.5110, 121.8163
108.9931, 118.3872
109.4752, 118.0581
109.9573, 122.2322
110.4395, 125.9067
110.9216, 123.9642
111.4037, 116.2198
111.8858, 109.6374
112.3679, 106.9050
112.8500, 107.0022
113.3322, 109.5665
113.8143, 115.5285
114.2964, 122.0419
114.7785, 125.3762
115.2606, 125.1809
115.7427, 122.9119
116.2249, 115.9970
116.7070, 108.4552
117.1891, 105.0447
117.6712, 108.7823
118.1533, 116.2733
118.6354, 119.2325
119.1175, 115.0066
119.5997, 110.8567
120.0818, 109.2209
120.5639, 109.1279
121.0460, 109.1868
121.5281, 108.3903
122.0102, 107.1742
122.4924, 108.0892
122.9745, 114.2307
123.4566, 118.8087
123.9387, 118.8573
124.4208, 116.1117
124.9029, 113.6390
125.3851, 113.5888
125.8672, 115.9535
126.3493, 118.9997
126.8314, 123.4012
127.3135, 127.9189
127.7956, 132.3729
128.2778, 136.6876
128.7599, 140.8431
129.2420, 144.7091
129.7241, 148.1403
130.2062, 152.3311
130.6884, 159.3583
131.1705, 165.2889
131.6526, 167.5586
132.1347, 166.6999
132.6168, 165.6106
133.0989, 167.8911
133.5811, 176.2185
134.0632, 177.7141
134.5453, 167.6089
135.0274, 155.6783
135.5095, 147.1445
135.9916, 142.9005
136.4738, 141.2831
136.9559, 140.4605
137.4380, 141.0963
137.9201, 140.7878
138.4022, 137.8011
138.8843, 134.9819
139.3665, 134.7370
139.8486, 137.5511
140.3307, 142.0130
140.8128, 146.0320
141.2949, 148.6347
141.7770, 153.0886
142.2592, 162.0121
142.7413, 171.6552
143.2234, 177.6204
143.7055, 178.5477
144.1876, 177.5439
144.6697, 179.9741
145.1519, 187.4832
145.6340, 194.2577
146.1161, 199.1483
146.5982, 202.9921
147.0803, 206.8831
147.5624, 211.1988
148.0446, 215.6810
148.5267, 219.9875
149.0088, 224.5333
149.4909, 227.9771
149.9730, 229.1079
150.4551, 228.9970
150.9372, 229.7431
151.4194, 232.2234
151.9015, 235.5927
152.3836, 238.1518
152.8657, 239.5882
153.3478, 241.2691
153.8299, 244.0393
154.3121, 247.4783
154.7942, 250.6331
155.2763, 253.3754
155.7584, 255.2779
156.2405, 254.7836
156.7226, 249.5506
157.2048, 247.8622
157.6869, 255.3660
158.1690, 270.3932
158.6511, 286.7811
159.1332, 303.5304
159.6153, 318.8465
160.0975, 331.5277
160.5796, 344.2029
161.0617, 348.5602
161.5438, 334.4629
162.0259, 304.5158
162.5080, 277.0194
162.9902, 258.5320
163.4723, 247.1505
163.9544, 238.8085
164.4365, 234.2692
164.9186, 230.8711
165.4007, 225.9201
165.8829, 219.6075
166.3650, 215.7828
166.8471, 216.4695
167.3292, 220.4217
167.8113, 226.5109
168.2934, 236.0866
168.7756, 244.2681
169.2577, 245.6206
169.7398, 240.0346
170.2219, 234.6330
170.7040, 232.5232
171.1861, 231.7454
171.6683, 229.8810
172.1504, 226.1048
172.6325, 222.5361
173.1146, 221.6689
173.5967, 223.7279
174.0788, 225.6590
174.5610, 225.7970
175.0431, 225.5592
175.5252, 226.4536
176.0073, 228.9963
176.4894, 232.0057
176.9715, 234.7036
177.4537, 237.2850
177.9358, 237.9902
178.4179, 233.7538
178.9000, 228.4576
179.3821, 225.6093
179.8642, 226.2680
180.3464, 228.4344
180.8285, 230.1515
181.3106, 231.5370
181.7927, 231.7426
182.2748, 229.9860
182.7569, 227.0570
183.2391, 222.9298
183.7212, 217.2009
184.2033, 211.9763
184.6854, 210.0549
185.1675, 211.8657
185.6496, 214.7278
186.1318, 219.1022
186.6139, 223.5317
187.0960, 226.9707
187.5781, 229.1752
188.0602, 230.2981
188.5423, 230.6953
189.0245, 230.5332
189.5066, 228.8116
189.9887, 222.2435
190.4708, 215.5907
190.9529, 212.6274
191.4350, 214.5198
191.9172, 218.6866
192.3993, 222.5611
192.8814, 226.4624
193.3635, 228.4632
193.8456, 224.9855
194.3277, 221.0875
194.8099, 220.8797
195.2920, 225.5148
195.7741, 231.4843
196.2562, 234.3977
196.7383, 233.7042
197.2204, 232.8194
197.7026, 231.9218
198.1847, 231.5152
198.6668, 232.6075
199.1489, 235.4753
199.6310, 237.8158
200.1131, 236.0140
200.5953, 229.0204
201.0774, 224.1268
201.5595, 224.5506
202.0416, 226.7452
202.5237, 229.2551
203.0058, 231.7814
203.4880, 233.5135
203.9701, 232.9197
204.4522, 229.4892
204.9343, 227.5285
205.4164, 229.0681
205.8985, 231.5993
206.3807, 234.2177
206.8628, 236.7118
207.3449, 238.1560
207.8270, 236.4074
208.3091, 230.8864
208.7912, 228.7264
209.2734, 233.4795
209.7555, 240.2757
210.2376, 245.0861
210.7197, 247.9831
211.2018, 253.7822
211.6839, 268.1828
212.1661, 291.4455
212.6482, 313.8216
213.1303, 330.8815
213.6124, 349.7176
214.0945, 373.9981
214.5766, 403.7155
215.0588, 437.5805
215.5409, 475.4566
216.0230, 517.1326
216.5051, 558.2096
216.9872, 595.2928
217.4693, 634.9477
217.9515, 670.8556
218.4336, 708.3154
218.9157, 770.5960
219.3978, 894.9666
219.8799, 1071.227
220.3620, 1213.700
220.8442, 1351.066
221.3263, 1402.572
221.8084, 1298.918
222.2905, 1074.011
222.7726, 843.3696
223.2547, 663.4621
223.7369, 532.4892
224.2190, 444.1022
224.7011, 412.0020
225.1832, 403.5013
225.6653, 401.9830
226.1474, 406.4386
226.6296, 414.6548
227.1117, 422.2928
227.5938, 432.9335
228.0759, 460.4186
228.5580, 514.4703
229.0401, 564.7134
229.5223, 607.1261
230.0044, 633.7697
230.4865, 624.9839
230.9686, 554.4414
231.4507, 452.3107
231.9328, 374.2258
232.4150, 323.2917
232.8971, 288.0082
233.3792, 269.2071
233.8613, 260.2881
234.3434, 253.3323
234.8255, 246.2379
235.3077, 239.7932
235.7898, 234.9629
236.2719, 231.7715
236.7540, 230.0684
237.2361, 231.3058
237.7182, 233.5021
238.2004, 233.8558
238.6825, 230.8983
239.1646, 227.4736
239.6467, 226.3976
240.1288, 227.6828
240.6109, 229.9894
241.0931, 233.6713
241.5752, 237.5887
242.0573, 240.4798
242.5394, 242.7367
243.0215, 242.8310
243.5036, 237.5687
243.9858, 228.0044
244.4679, 221.8082
244.9500, 222.5304
245.4321, 227.1207
245.9142, 231.1134
246.3963, 234.7929
246.8785, 236.7823
247.3606, 233.8624
247.8427, 228.3703
248.3248, 227.8148
248.8069, 235.5823
249.2890, 246.6779
249.7712, 255.0464
250.2533, 260.9313
250.7354, 264.0923
251.2175, 261.5739
251.6996, 256.8215
252.1817, 255.8837
252.6639, 260.1979
253.1460, 267.6170
253.6281, 278.2706
254.1102, 292.5123
254.5923, 299.2302
255.0744, 291.9599
255.5566, 278.3369
256.0387, 266.3123
256.5208, 256.9920
257.0029, 248.9702
257.4850, 241.0421
257.9671, 233.2564
258.4492, 226.4733
258.9314, 219.3543
259.4135, 214.2956
259.8956, 214.2769
260.3777, 218.7736
260.8598, 223.3967
261.3419, 225.0106
261.8241, 223.7085
262.3062, 222.7062
262.7883, 222.3613
263.2704, 221.9397
263.7525, 221.1932
264.2346, 220.1044
264.7168, 218.3561
265.1989, 215.4487
265.6810, 212.0612
266.1631, 211.9144
266.6452, 217.7285
267.1273, 223.0805
267.6095, 225.7660
268.0916, 227.2789
268.5737, 230.0233
269.0558, 235.0570
269.5379, 241.5399
270.0201, 247.3251
270.5022, 250.3426
270.9843, 255.2946
271.4664, 263.0804
271.9485, 272.3752
272.4306, 282.2632
272.9128, 292.3480
273.3949, 302.3036
273.8770, 311.3561
274.3591, 318.1661
274.8412, 327.2274
275.3233, 341.7656
275.8055, 355.7914
276.2876, 363.4687
276.7697, 365.5784
277.2518, 369.4485
277.7339, 385.7363
278.2160, 420.0763
278.6982, 431.9683
279.1803, 405.3843
279.6624, 371.9809
280.1445, 338.3546
280.6266, 307.1325
281.1087, 280.5896
281.5909, 260.5446
282.0730, 246.7202
282.5551, 236.6995
283.0372, 233.4203
283.5193, 230.4081
284.0014, 224.9908
284.4836, 218.9316
284.9657, 214.6828
285.4478, 213.4028
285.9299, 214.8444
286.4120, 219.2214
286.8941, 228.8792
287.3763, 235.8848
287.8584, 236.4195
288.3405, 234.3900
288.8226, 232.7687
289.3047, 232.3127
289.7868, 233.2739
290.2690, 236.1739
290.7511, 241.1253
291.2332, 246.8591
291.7153, 253.5744
292.1974, 260.6361
292.6795, 267.7509
293.1617, 274.8698
293.6438, 281.5337
294.1259, 287.1048
294.6080, 291.7925
295.0901, 297.3338
295.5722, 305.7454
296.0544, 311.9380
296.5365, 311.9972
297.0186, 306.5122
297.5007, 297.1782
297.9828, 279.8939
298.4649, 260.7503
298.9471, 250.6285
299.4292, 251.1782
299.9113, 253.4631
300.3934, 250.8736
300.8755, 244.6546
301.3576, 239.7844
301.8398, 237.5991
302.3219, 236.3024
302.8040, 233.1867
303.2861, 229.0957
303.7682, 229.5475
304.2503, 239.3063
304.7325, 254.3519
305.2146, 261.2586
305.6967, 256.1015
306.1788, 249.8282
306.6609, 245.1849
307.1430, 241.8307
307.6252, 239.1096
308.1073, 236.7834
308.5894, 235.1923
309.0715, 235.0285
309.5536, 237.2211
310.0357, 239.0947
310.5179, 241.3219
311.0000, 242.7507
311.4821, 242.0061
311.9642, 239.1092
312.4463, 235.5423
312.9284, 232.8601
313.4106, 231.1834
313.8927, 229.7569
314.3748, 229.9543
314.8569, 229.0515
315.3390, 224.9092
315.8211, 218.6489
316.3033, 213.0499
316.7854, 210.0272
317.2675, 209.2120
317.7496, 208.1462
318.2317, 205.9616
318.7138, 204.7124
319.1960, 205.1811
319.6781, 206.5685
320.1602, 208.2756
320.6423, 210.1106
321.1244, 211.3832
321.6065, 210.3738
322.0887, 205.9370
322.5708, 202.9796
323.0529, 201.7889
323.5350, 202.7672
324.0171, 208.4207
324.4992, 218.3361
324.9814, 225.8484
325.4635, 222.4243
325.9456, 209.3849
326.4277, 202.6599
326.9098, 206.6316
327.3919, 212.9132
327.8741, 216.1385
328.3562, 216.9039
328.8383, 216.9778
329.3204, 217.3410
329.8025, 217.3881
330.2846, 215.3437
330.7668, 210.7832
331.2489, 207.8692
331.7310, 210.7164
332.2131, 216.6397
332.6952, 218.8054
333.1773, 213.2473
333.6595, 208.4257
334.1416, 211.7990
334.6237, 220.6358
335.1058, 225.6512
335.5879, 222.6683
336.0700, 215.6646
336.5522, 212.3415
337.0343, 213.3949
337.5164, 215.4125
337.9985, 217.5239
338.4806, 220.4666
338.9627, 224.9817
339.4449, 231.2102
339.9270, 239.1047
340.4091, 248.9609
340.8912, 261.4290
341.3733, 271.7739
341.8554, 279.4627
342.3376, 285.9153
342.8197, 290.0160
343.3018, 293.3601
343.7839, 298.5651
344.2660, 306.8620
344.7481, 319.1395
345.2303, 340.5238
345.7124, 385.0076
346.1945, 418.7956
346.6766, 442.2073
347.1587, 451.4656
347.6408, 439.7331
348.1230, 405.4886
348.6051, 360.8400
349.0872, 321.0335
349.5693, 285.5819
350.0514, 256.6725
350.5335, 235.5137
351.0157, 220.8048
351.4978, 214.2221
351.9799, 214.3420
352.4620, 215.5638
352.9441, 214.6119
353.4262, 211.8140
353.9084, 207.6241
354.3905, 200.7863
354.8726, 195.9195
355.3547, 197.6181
355.8368, 202.9828
356.3189, 207.8933
356.8011, 212.8899
357.2832, 215.4081
357.7653, 210.7622
358.2474, 200.4359
358.7295, 193.8201
359.2116, 195.2270
359.6938, 201.2092
360.1759, 205.7174
360.6580, 208.9406
361.1401, 210.6312
361.6222, 210.3556
362.1043, 208.6687
362.5865, 205.6093
363.0686, 201.3134
363.5507, 197.4086
364.0328, 195.4310
364.5149, 195.4468
364.9970, 197.3710
365.4792, 202.8768
365.9613, 208.3377
366.4434, 212.4442
366.9255, 215.2650
367.4076, 217.1430
367.8897, 218.2637
368.3719, 218.6672
368.8540, 218.4909
369.3361, 217.7610
369.8182, 216.3165
370.3003, 212.2575
370.7824, 208.7417
371.2646, 209.0874
371.7467, 213.6544
372.2288, 219.0539
372.7109, 220.9930
373.1930, 219.1974
373.6751, 219.3710
374.1573, 220.8860
374.6394, 225.7858
375.1215, 235.5704
375.6036, 249.1937
376.0857, 264.4005
376.5678, 282.4711
377.0500, 299.8943
377.5321, 309.0800
378.0142, 309.2246
378.4963, 310.8553
378.9784, 317.1712
379.4605, 329.1750
379.9427, 347.5077
380.4248, 373.8011
380.9069, 402.3646
381.3890, 435.6176
381.8711, 468.5233
382.3532, 494.5802
382.8354, 513.1207
383.3175, 516.0055
383.7996, 491.4562
384.2817, 432.3661
384.7638, 378.1899
385.2459, 324.1555
385.7281, 279.1501
386.2102, 250.5574
386.6923, 235.5147
387.1744, 226.4754
387.6565, 219.0525
388.1386, 213.4033
388.6208, 210.3660
389.1029, 213.6745
389.5850, 214.3261
390.0671, 208.7147
390.5492, 201.9029
391.0313, 198.6010
391.5135, 199.7156
391.9956, 202.3733
392.4777, 203.1509
392.9598, 201.8148
393.4419, 201.7801
393.9240, 203.9782
394.4062, 206.4979
394.8883, 208.6431
395.3704, 210.3417
395.8525, 211.4880
396.3346, 212.0904
396.8167, 212.0634
397.2989, 210.7315
397.7810, 208.0167
398.2631, 206.6115
398.7452, 208.6454
399.2273, 211.7502
399.7094, 211.6991
400.1916, 207.5200
400.6737, 203.8026
401.1558, 203.3561
401.6379, 204.0099
402.1200, 201.8212
402.6021, 196.1946
403.0843, 191.3099
403.5664, 191.4908
404.0485, 197.2002
404.5306, 201.2116
405.0127, 202.8190
405.4948, 203.7750
405.9770, 204.9430
406.4591, 205.8970
406.9412, 205.5854
407.4233, 203.5036
407.9054, 200.6189
408.3875, 199.0085
408.8697, 198.6720
409.3518, 199.7052
409.8339, 203.0889
410.3160, 206.9415
410.7981, 211.3421
411.2802, 215.5094
411.7624, 216.8356
412.2445, 211.2967
412.7266, 201.1538
413.2087, 196.5518
413.6908, 199.6588
414.1729, 202.8049
414.6551, 200.8405
415.1372, 196.9606
415.6193, 195.3830
416.1014, 197.4262
416.5835, 200.5254
417.0656, 203.2903
417.5478, 205.6746
418.0299, 207.1615
418.5120, 207.3068
418.9941, 207.9382
419.4762, 211.9691
419.9583, 220.4304
420.4405, 225.2937
420.9226, 224.0822
421.4047, 221.1636
421.8868, 218.1374
422.3689, 215.6733
422.8510, 215.1380
423.3332, 217.5076
423.8153, 221.6575
424.2974, 223.6140
424.7795, 220.2694
425.2616, 219.7492
425.7437, 226.1796
426.2259, 232.8756
426.7080, 233.8294
427.1901, 228.9053
427.6722, 223.4765
428.1543, 222.8143
428.6364, 226.3689
429.1186, 228.8937
429.6007, 231.0143
430.0828, 230.8252
430.5649, 224.6100
431.0470, 216.3281
431.5291, 211.7935
432.0113, 212.9635
432.4934, 216.9921
432.9755, 222.2081
433.4576, 228.4417
433.9397, 234.4278
434.4218, 239.1375
434.9040, 245.8727
435.3861, 259.2127
435.8682, 280.1466
436.3503, 301.6861
436.8324, 323.6880
437.3145, 346.0537
437.7967, 367.8688
438.2788, 389.9145
438.7609, 414.0433
439.2430, 441.6781
439.7251, 471.7917
440.2072, 500.7870
440.6894, 521.6029
441.1715, 554.2047
441.6536, 602.4293
442.1357, 659.4787
442.6178, 733.2029
443.0999, 816.2347
443.5821, 877.5378
444.0642, 893.9537
444.5463, 867.2593
445.0284, 798.8706
445.5105, 671.7349
445.9926, 546.6663
446.4748, 449.1656
446.9569, 373.7515
447.4390, 316.4285
447.9211, 278.7623
448.4032, 253.4904
448.8853, 239.2565
449.3675, 233.5089
449.8496, 231.7129
450.3317, 233.3002
450.8138, 234.7133
451.2959, 231.9185
451.7780, 224.3566
452.2602, 218.7610
452.7423, 215.7930
453.2244, 213.9922
453.7065, 213.2095
454.1886, 213.0632
454.6707, 212.6944
455.1529, 211.7265
455.6350, 211.2924
456.1171, 214.2983
456.5992, 223.2886
457.0813, 227.9650
457.5634, 221.8224
458.0455, 216.3860
458.5276, 218.0984
459.0098, 225.3464
459.4919, 232.3647
459.9740, 235.9929
460.4561, 237.5559
460.9382, 238.9427
461.4203, 240.1072
461.9025, 242.2531
462.3846, 246.1324
462.8667, 251.0090
463.3488, 256.5887
463.8309, 263.9907
464.3130, 266.8721
464.7952, 262.2998
465.2773, 253.0638
465.7594, 239.6774
466.2415, 223.4831
466.7236, 209.8979
467.2057, 202.8851
467.6879, 201.6867
468.1700, 201.7410
468.6521, 204.7747
469.1342, 206.8688
469.6163, 206.5595
470.0984, 205.8987
470.5806, 207.2310
471.0627, 210.6391
471.5448, 213.6293
472.0269, 212.6658
472.5090, 208.4863
472.9911, 208.3387
473.4733, 213.5184
473.9554, 219.9343
474.4375, 226.0805
474.9196, 232.0011
475.4017, 237.9710
475.8839, 244.8720
476.3660, 249.8242
476.8481, 247.8115
477.3302, 243.1080
477.8123, 245.7803
478.2944, 258.0949
478.7766, 272.7346
479.2587, 283.3563
479.7408, 290.0852
480.2229, 289.4553
480.7050, 274.3212
481.1871, 261.1019
481.6693, 256.2993
482.1514, 256.2073
482.6335, 256.1425
483.1156, 254.3445
483.5977, 250.7343
484.0798, 244.0202
484.5620, 233.2349
485.0441, 227.2273
485.5262, 231.1701
486.0083, 233.6716
486.4904, 227.3522
486.9725, 215.6722
487.4547, 205.5021
487.9368, 197.8994
488.4189, 194.4148
488.9010, 200.4176
489.3831, 212.8053
489.8652, 217.7803
490.3474, 210.2086
490.8295, 199.0503
491.3116, 195.1704
491.7937, 200.4330
492.2758, 203.5697
492.7579, 203.1910
493.2401, 202.1088
493.7222, 201.4791
494.2043, 201.2024
494.6864, 200.6219
495.1685, 199.4323
495.6506, 198.6211
496.1328, 200.4302
496.6149, 205.9983
497.0970, 209.6235
497.5791, 208.3198
498.0612, 207.6822
498.5433, 213.4001
499.0255, 222.1256
499.5076, 224.6558
499.9897, 213.7635
500.4718, 199.2269
500.9539, 191.8736
501.4360, 190.9315
501.9182, 192.3927
502.4003, 195.7157
502.8824, 199.0534
503.3645, 199.4529
503.8466, 195.7876
504.3287, 194.8381
504.8109, 198.2858
505.2930, 203.0309
505.7751, 209.2687
506.2572, 215.2395
506.7393, 217.3474
507.2214, 213.7576
507.7036, 207.5447
508.1857, 204.7888
508.6678, 206.5240
509.1499, 207.5987
509.6320, 207.0703
510.1141, 206.3467
510.5963, 205.6355
511.0784, 205.3013
511.5605, 206.3897
512.0426, 210.6860
512.5247, 214.9548
513.0068, 213.8556
513.4890, 208.9871
513.9711, 208.6074
514.4532, 215.7983
514.9353, 226.4533
515.4174, 234.9949
515.8995, 240.4501
516.3817, 248.8025
516.8638, 260.5369
517.3459, 274.5699
517.8280, 292.5260
518.3101, 311.8964
518.7922, 327.0376
519.2744, 335.6158
519.7565, 343.6638
520.2386, 362.6591
520.7207, 394.7584
521.2028, 421.5248
521.6849, 434.1640
522.1671, 450.8580
522.6492, 485.9408
523.1313, 532.2753
523.6134, 574.8754
524.0955, 619.6144
524.5776, 644.4117
525.0598, 624.1642
525.5419, 569.8159
526.0240, 508.0186
526.5061, 444.7374
526.9882, 385.4273
527.4703, 336.2212
527.9525, 297.0450
528.4346, 266.4128
528.9167, 246.6067
529.3988, 231.5705
529.8809, 220.5878
530.3630, 212.9369
530.8452, 208.4346
531.3273, 206.8961
531.8094, 206.4807
532.2915, 205.8307
532.7736, 204.8055
533.2557, 200.2275
533.7379, 189.3012
534.2200, 181.0081
534.7021, 183.3484
535.1842, 191.4471
535.6663, 195.5577
536.1484, 192.1392
536.6306, 189.9543
537.1127, 194.3177
537.5948, 201.7715
538.0769, 208.2986
538.5590, 212.9912
539.0411, 215.2269
539.5233, 214.1309
540.0054, 210.1888
540.4875, 207.8471
540.9696, 208.7986
541.4517, 208.8882
541.9338, 206.1843
542.4160, 203.3683
542.8981, 202.8859
543.3802, 204.8664
543.8623, 207.2562
544.3444, 210.0156
544.8265, 211.7639
545.3087, 208.2622
545.7908, 199.2693
546.2729, 191.3427
546.7550, 187.0388
547.2371, 185.8831
547.7192, 187.6309
548.2014, 193.6839
548.6835, 197.9327
549.1656, 199.2798
549.6477, 198.9458
550.1298, 196.9117
550.6119, 193.9169
551.0941, 191.4389
551.5762, 190.2976
552.0583, 190.0926
552.5404, 190.1515
553.0225, 190.6088
553.5046, 190.5163
553.9868, 188.3991
554.4689, 187.3349
554.9510, 190.5429
555.4331, 196.4409
555.9152, 200.0373
556.3973, 197.8544
556.8795, 195.2494
557.3616, 197.1435
557.8437, 201.5945
558.3258, 203.9676
558.8079, 203.0223
559.2900, 200.9989
559.7722, 200.5484
560.2543, 201.9095
560.7364, 200.9165
561.2185, 192.3379
561.7006, 187.5328
562.1827, 192.6706
562.6649, 200.6357
563.1470, 203.0680
563.6291, 198.4209
564.1112, 192.9179
564.5933, 192.6241
565.0754, 195.5999
565.5576, 195.5087
566.0397, 191.7366
566.5218, 189.5256
567.0039, 192.8285
567.4860, 198.5700
567.9681, 198.0432
568.4503, 185.5783
568.9324, 181.5412
569.4145, 197.9400
569.8966, 215.9926
570.3787, 219.3534
570.8608, 211.9953
571.3430, 209.0964
571.8251, 220.0241
572.3072, 236.9281
572.7893, 241.7258
573.2714, 231.8726
573.7535, 227.4780
574.2357, 233.6284
574.7178, 243.1184
575.1999, 252.5261
575.6820, 261.0034
576.1641, 265.7021
576.6462, 265.3846
577.1284, 261.7222
577.6105, 253.6217
578.0926, 243.4562
578.5747, 235.5059
579.0568, 230.6418
579.5389, 226.7145
580.0211, 221.5058
580.5032, 215.0988
580.9853, 209.6692
581.4674, 204.1952
581.9495, 201.4075
582.4316, 204.3480
582.9138, 208.2824
583.3959, 208.7399
583.8780, 205.3370
584.3601, 201.3718
584.8422, 197.9762
585.3243, 195.6447
585.8065, 196.0500
586.2886, 198.7106
586.7707, 199.4729
587.2528, 196.0368
587.7349, 191.4528
588.2170, 191.0887
588.6992, 196.2006
589.1813, 201.9357
589.6634, 207.5321
590.1455, 214.4556
590.6276, 223.3680
591.1097, 233.9908
591.5919, 246.3088
592.0740, 260.3738
592.5561, 274.5052
593.0382, 285.7812
593.5203, 295.2520
594.0024, 308.4122
594.4846, 326.3262
594.9667, 344.8589
595.4488, 359.7733
595.9309, 373.8828
596.4130, 397.9262
596.8951, 436.3386
597.3773, 475.5778
597.8594, 521.9040
598.3415, 561.7178
598.8236, 590.4677
599.3057, 603.3739
599.7878, 588.9356
600.2700, 537.4386
600.7521, 464.2426
601.2342, 396.5935
601.7163, 334.0913
