##NAMES=Phenakite
##RRUFFID=R040046
##IDEAL CHEMISTRY=Be_2_SiO_4_
##LOCALITY=San Miguel de Piracicaba, Minas Gerais, Brazil
##OWNER=RRUFF
##SOURCE=University of Arizona Mineral Museum
##DESCRIPTION=Colorless crystal fragments
##STATUS=The identification of this mineral has been confirmed by X-ray diffraction and chemical analysis
##URL=rruff.info/R040046
##MEASURED CHEMISTRY=Be_2.02_Si_0.99_O_4_
127.7896, 378.0603
128.2718, 389.0006
128.7539, 399.5545
129.2360, 406.4577
129.7181, 409.2822
130.2002, 410.1150
130.6823, 411.0233
131.1645, 412.0266
131.6466, 413.3505
132.1287, 415.0409
132.6108, 417.1246
133.0929, 419.8260
133.5750, 423.3419
134.0572, 427.2610
134.5393, 430.1253
135.0214, 431.6443
135.5035, 434.2484
135.9856, 439.5359
136.4677, 447.5809
136.9498, 458.4215
137.4320, 474.3097
137.9141, 493.5212
138.3962, 503.0019
138.8783, 500.5495
139.3604, 493.6256
139.8425, 489.2116
140.3247, 487.0122
140.8068, 488.3630
141.2889, 495.0180
141.7710, 508.2208
142.2531, 516.4144
142.7352, 517.5665
143.2174, 515.4300
143.6995, 516.2423
144.1816, 521.3864
144.6637, 527.1989
145.1458, 532.4525
145.6279, 537.3872
146.1101, 541.3248
146.5922, 544.6258
147.0743, 546.9153
147.5564, 546.7755
148.0385, 540.2089
148.5206, 534.7909
149.0028, 534.4254
149.4849, 544.6632
149.9670, 553.0797
150.4491, 556.9188
150.9312, 556.6970
151.4133, 561.2590
151.8955, 576.1895
152.3776, 592.8499
152.8597, 605.4423
153.3418, 608.8257
153.8239, 612.8308
154.3060, 619.8140
154.7882, 630.2587
155.2703, 639.8741
155.7524, 646.2489
156.2345, 652.0795
156.7166, 660.3474
157.1987, 671.4776
157.6808, 685.2716
158.1630, 700.2952
158.6451, 713.5417
159.1272, 736.3054
159.6093, 793.7095
160.0914, 861.9982
160.5735, 895.9453
161.0557, 855.1808
161.5378, 791.8049
162.0199, 734.2007
162.5020, 686.7404
162.9841, 648.6921
163.4662, 621.2645
163.9484, 603.5279
164.4305, 592.2720
164.9126, 590.9210
165.3947, 593.2040
165.8768, 593.8130
166.3589, 590.5774
166.8411, 585.9231
167.3232, 578.7700
167.8053, 569.8105
168.2874, 565.7929
168.7695, 576.3332
169.2516, 592.8978
169.7338, 604.4589
170.2159, 603.6392
170.6980, 597.9921
171.1801, 593.0767
171.6622, 588.9750
172.1443, 585.9067
172.6265, 583.6698
173.1086, 582.5728
173.5907, 583.2520
174.0728, 588.2328
174.5549, 594.2673
175.0370, 596.9307
175.5192, 595.3402
176.0013, 592.7903
176.4834, 591.6325
176.9655, 591.9660
177.4476, 594.1076
177.9297, 601.1329
178.4118, 609.6914
178.8940, 612.8311
179.3761, 608.1221
179.8582, 601.0405
180.3403, 599.3936
180.8224, 602.4564
181.3046, 605.2239
181.7867, 602.6167
182.2688, 596.8258
182.7509, 594.2251
183.2330, 597.1193
183.7151, 602.8366
184.1973, 607.9503
184.6794, 612.3958
185.1615, 614.1693
185.6436, 609.5714
186.1257, 599.9757
186.6078, 592.0999
187.0900, 587.7742
187.5721, 586.4269
188.0542, 586.2445
188.5363, 587.1548
189.0184, 589.8035
189.5005, 596.8622
189.9827, 607.7197
190.4648, 615.3132
190.9469, 615.7912
191.4290, 610.6137
191.9111, 607.0767
192.3932, 605.2469
192.8754, 604.7272
193.3575, 605.0724
193.8396, 606.2927
194.3217, 608.2629
194.8038, 612.2543
195.2859, 617.9657
195.7681, 618.5626
196.2502, 612.0890
196.7323, 604.0791
197.2144, 606.1263
197.6965, 619.6085
198.1786, 631.0889
198.6607, 631.8573
199.1429, 621.3559
199.6250, 613.6826
200.1071, 609.9388
200.5892, 608.9882
201.0713, 607.9672
201.5534, 606.5059
202.0356, 606.5053
202.5177, 609.8729
202.9998, 617.1728
203.4819, 623.3326
203.9640, 627.8159
204.4461, 630.7131
204.9283, 631.8572
205.4104, 630.5983
205.8925, 629.3373
206.3746, 630.0207
206.8567, 633.0801
207.3388, 635.6234
207.8210, 635.3983
208.3031, 633.9635
208.7852, 641.6729
209.2673, 660.0027
209.7494, 684.5297
210.2315, 710.6190
210.7137, 736.4268
211.1958, 771.4327
211.6779, 821.1786
212.1600, 884.7359
212.6421, 933.4516
213.1242, 963.1171
213.6064, 984.2270
214.0885, 1007.230
214.5706, 1032.665
215.0527, 1058.622
215.5348, 1083.573
216.0169, 1106.593
216.4991, 1136.432
216.9812, 1172.336
217.4633, 1215.844
217.9454, 1265.302
218.4275, 1308.666
218.9096, 1385.955
219.3917, 1518.391
219.8739, 1717.273
220.3560, 1913.428
220.8381, 2167.405
221.3202, 2371.367
221.8023, 2333.100
222.2844, 1922.209
222.7666, 1515.148
223.2487, 1231.512
223.7308, 1095.617
224.2129, 1003.608
224.6950, 965.8229
225.1771, 965.9075
225.6593, 974.2657
226.1414, 993.5530
226.6235, 1016.673
227.1056, 1038.000
227.5877, 1045.739
228.0698, 1085.244
228.5520, 1174.546
229.0341, 1289.721
229.5162, 1381.783
229.9983, 1478.239
230.4804, 1508.926
230.9625, 1427.918
231.4447, 1155.521
231.9268, 947.4584
232.4089, 816.2970
232.8910, 749.1342
233.3731, 704.1533
233.8552, 690.3250
234.3374, 686.0804
234.8195, 681.1699
235.3016, 675.0373
235.7837, 669.3582
236.2658, 663.7600
236.7479, 658.6384
237.2301, 655.7273
237.7122, 655.5051
238.1943, 656.8753
238.6764, 659.7012
239.1585, 666.2656
239.6406, 669.5248
240.1227, 667.4792
240.6049, 661.3383
241.0870, 658.0079
241.5691, 658.8809
242.0512, 660.8477
242.5333, 661.5182
243.0154, 658.4314
243.4976, 658.9790
243.9797, 664.4729
244.4618, 674.4294
244.9439, 686.0706
245.4260, 702.5957
245.9081, 716.9202
246.3903, 723.0421
246.8724, 715.1651
247.3545, 710.8773
247.8366, 713.6758
248.3187, 722.7415
248.8008, 728.8419
249.2830, 730.3557
249.7651, 730.8779
250.2472, 733.0150
250.7293, 736.7236
251.2114, 742.2621
251.6935, 750.0031
252.1757, 759.8186
252.6578, 770.5539
253.1399, 783.3030
253.6220, 795.5623
254.1041, 806.3604
254.5862, 819.9277
255.0684, 822.5147
255.5505, 808.8081
256.0326, 779.0548
256.5147, 754.0945
256.9968, 734.2128
257.4789, 718.0684
257.9611, 704.3740
258.4432, 692.0542
258.9253, 684.6556
259.4074, 684.3590
259.8895, 690.9498
260.3716, 694.5285
260.8538, 693.5327
261.3359, 691.6024
261.8180, 692.8266
262.3001, 699.3525
262.7822, 703.1121
263.2643, 701.0157
263.7465, 693.3633
264.2286, 690.8402
264.7107, 694.2732
265.1928, 701.6606
265.6749, 712.0571
266.1570, 727.5767
266.6392, 739.5836
267.1213, 744.5694
267.6034, 742.9497
268.0855, 748.1519
268.5676, 762.9532
269.0497, 779.7405
269.5318, 790.4730
270.0139, 793.5182
270.4961, 796.3761
270.9782, 800.1642
271.4603, 804.9932
271.9424, 812.9074
272.4245, 824.2988
272.9066, 837.9937
273.3888, 852.8620
273.8709, 868.8079
274.3530, 886.4583
274.8351, 907.6950
275.3172, 931.5237
275.7993, 945.5266
276.2815, 946.1399
276.7636, 945.7855
277.2457, 961.1673
277.7278, 995.3019
278.2099, 1021.453
278.6920, 1037.216
279.1742, 1040.273
279.6563, 1008.241
280.1384, 932.4050
280.6205, 847.4647
281.1026, 785.1543
281.5847, 745.9030
282.0669, 721.5417
282.5490, 713.2477
283.0311, 718.2316
283.5132, 724.2742
283.9953, 731.9988
284.4774, 737.9691
284.9596, 737.6860
285.4417, 731.3684
285.9238, 724.9196
286.4059, 718.8005
286.8880, 713.9422
287.3701, 715.0153
287.8523, 722.6879
288.3344, 731.0792
288.8165, 733.4704
289.2986, 730.7281
289.7807, 729.8605
290.2628, 733.6563
290.7450, 740.0673
291.2271, 743.7092
291.7092, 744.5594
292.1913, 743.7376
292.6734, 739.1636
293.1555, 732.7269
293.6377, 733.4965
294.1198, 746.2472
294.6019, 765.6685
295.0840, 783.3817
295.5661, 799.4185
296.0482, 809.1565
296.5304, 807.0296
297.0125, 795.3190
297.4946, 779.6871
297.9767, 758.9568
298.4588, 737.9067
298.9409, 723.9064
299.4231, 716.8074
299.9052, 713.6398
300.3873, 712.8788
300.8694, 714.4109
301.3515, 718.3829
301.8336, 725.7813
302.3158, 734.2907
302.7979, 742.1699
303.2800, 749.1230
303.7621, 753.0861
304.2442, 750.5587
304.7263, 744.7237
305.2085, 739.8439
305.6906, 736.1502
306.1727, 735.0303
306.6548, 740.4045
307.1369, 750.3578
307.6190, 757.6717
308.1012, 754.6519
308.5833, 748.0137
309.0654, 745.7135
309.5475, 752.4009
310.0296, 757.8042
310.5117, 751.7448
310.9938, 737.9573
311.4760, 727.3768
311.9581, 728.1904
312.4402, 733.1088
312.9223, 735.7911
313.4044, 734.1671
313.8865, 732.7743
314.3687, 735.6169
314.8508, 740.5206
315.3329, 742.7793
315.8150, 737.4172
316.2971, 730.8401
316.7792, 727.1724
317.2614, 727.6282
317.7435, 728.9722
318.2256, 729.8911
318.7077, 730.9241
319.1898, 732.9828
319.6719, 735.9753
320.1541, 740.3954
320.6362, 747.5833
321.1183, 759.5021
321.6004, 767.2849
322.0825, 767.0881
322.5646, 761.9560
323.0468, 756.0956
323.5289, 743.5724
324.0110, 736.5648
324.4931, 742.1088
324.9752, 765.0297
325.4573, 779.1810
325.9395, 773.1432
326.4216, 760.2954
326.9037, 755.2408
327.3858, 771.6845
327.8679, 782.7841
328.3500, 780.5408
328.8322, 762.7182
329.3143, 751.7652
329.7964, 749.5492
330.2785, 753.0923
330.7606, 760.5301
331.2427, 779.8444
331.7249, 791.3879
332.2070, 788.6357
332.6891, 772.0431
333.1712, 763.7679
333.6533, 767.0723
334.1354, 774.9586
334.6176, 782.6142
335.0997, 790.6806
335.5818, 796.4561
336.0639, 796.4029
336.5460, 793.3021
337.0281, 805.1543
337.5103, 838.4632
337.9924, 873.3453
338.4745, 895.9335
338.9566, 904.4350
339.4387, 909.6792
339.9208, 911.1157
340.4030, 911.0306
340.8851, 916.3307
341.3672, 927.8760
341.8493, 941.0348
342.3314, 952.5458
342.8135, 962.3151
343.2957, 976.2368
343.7778, 995.4644
344.2599, 1017.589
344.7420, 1033.677
345.2241, 1043.398
345.7062, 1067.606
346.1884, 1137.181
346.6705, 1236.588
347.1526, 1289.434
347.6347, 1291.070
348.1168, 1252.059
348.5989, 1164.071
349.0811, 1039.154
349.5632, 930.4247
350.0453, 866.7629
350.5274, 836.3503
351.0095, 820.3253
351.4916, 819.4480
351.9737, 821.4763
352.4558, 812.9752
352.9380, 798.5275
353.4201, 788.2841
353.9022, 787.8812
354.3843, 792.6187
354.8664, 799.7658
355.3485, 808.9301
355.8307, 814.6500
356.3128, 809.9367
356.7949, 800.3651
357.2770, 792.8479
357.7591, 788.1717
358.2412, 787.6214
358.7234, 795.6981
359.2055, 810.1224
359.6876, 820.2427
360.1697, 816.8083
360.6518, 809.1306
361.1339, 804.6513
361.6161, 807.9236
362.0982, 810.0401
362.5803, 806.0170
363.0624, 798.1265
363.5445, 792.2366
364.0266, 790.0457
364.5088, 790.3122
364.9909, 792.7007
365.4730, 797.9631
365.9551, 803.4963
366.4372, 808.8434
366.9193, 814.2449
367.4015, 820.1130
367.8836, 829.9007
368.3657, 836.9008
368.8478, 837.7791
369.3299, 829.9174
369.8120, 826.8698
370.2942, 829.0344
370.7763, 835.7829
371.2584, 847.0767
371.7405, 868.3723
372.2226, 885.4615
372.7047, 893.3203
373.1869, 892.1326
373.6690, 899.3043
374.1511, 918.0098
374.6332, 940.3359
375.1153, 961.2026
375.5974, 982.0054
376.0796, 994.7184
376.5617, 994.6375
377.0438, 986.5755
377.5259, 989.1661
378.0080, 1003.732
378.4901, 1023.492
378.9723, 1043.721
379.4544, 1064.531
379.9365, 1089.296
380.4186, 1117.638
380.9007, 1151.160
381.3828, 1195.142
381.8650, 1249.612
382.3471, 1300.209
382.8292, 1357.813
383.3113, 1407.267
383.7934, 1388.275
384.2755, 1290.588
384.7577, 1165.500
385.2398, 1056.930
385.7219, 966.5253
386.2040, 899.5454
386.6861, 867.0361
387.1682, 854.5272
387.6504, 845.0036
388.1325, 838.2615
388.6146, 833.6968
389.0967, 832.7976
389.5788, 833.1671
390.0609, 831.3743
390.5431, 823.1348
391.0252, 815.9363
391.5073, 816.3149
391.9894, 822.6646
392.4715, 827.5769
392.9536, 826.1529
393.4357, 822.7648
393.9178, 820.3912
394.4000, 819.7013
394.8821, 819.9693
395.3642, 822.0962
395.8463, 824.9799
396.3284, 826.3194
396.8105, 823.3047
397.2927, 820.5727
397.7748, 819.9825
398.2569, 822.3010
398.7390, 824.5880
399.2211, 828.1913
399.7032, 831.0483
400.1854, 830.5933
400.6675, 822.1348
401.1496, 816.5084
401.6317, 816.8527
402.1138, 823.1559
402.5959, 826.0481
403.0781, 822.3194
403.5602, 819.3051
404.0423, 824.3550
404.5244, 842.1827
405.0065, 852.2581
405.4886, 849.5546
405.9708, 838.6484
406.4529, 835.1282
406.9350, 840.5233
407.4171, 846.5243
407.8992, 848.7287
408.3813, 847.1590
408.8635, 841.9223
409.3456, 831.4883
409.8277, 821.5435
410.3098, 823.2841
410.7919, 835.3674
411.2740, 844.7579
411.7562, 844.5225
412.2383, 837.5718
412.7204, 828.9119
413.2025, 818.2812
413.6846, 811.4682
414.1667, 817.9498
414.6489, 831.7209
415.1310, 841.1994
415.6131, 840.6889
416.0952, 836.1348
416.5773, 831.8024
417.0594, 827.8296
417.5416, 825.2203
418.0237, 824.0814
418.5058, 824.7624
418.9879, 827.8710
419.4700, 834.5974
419.9521, 841.4339
420.4343, 849.2034
420.9164, 855.8948
421.3985, 857.8534
421.8806, 846.2868
422.3627, 836.6898
422.8448, 836.5993
423.3270, 849.1332
423.8091, 858.2128
424.2912, 855.3297
424.7733, 851.1875
425.2554, 856.6544
425.7375, 887.2028
426.2197, 906.6826
426.7018, 905.0026
427.1839, 885.0912
427.6660, 877.1066
428.1481, 886.0071
428.6302, 899.6636
429.1124, 911.0867
429.5945, 919.6848
430.0766, 927.0593
430.5587, 930.0921
431.0408, 935.1080
431.5229, 959.0881
432.0051, 1004.943
432.4872, 1047.635
432.9693, 1072.393
433.4514, 1082.396
433.9335, 1102.120
434.4156, 1132.729
434.8977, 1166.427
435.3799, 1196.018
435.8620, 1221.743
436.3441, 1243.870
436.8262, 1257.548
437.3083, 1271.978
437.7904, 1300.835
438.2726, 1342.975
438.7547, 1390.885
439.2368, 1440.371
439.7189, 1492.413
440.2010, 1547.936
440.6831, 1605.707
441.1653, 1669.126
441.6474, 1729.325
442.1295, 1797.260
442.6116, 1893.942
443.0937, 2103.998
443.5758, 2281.233
444.0580, 2361.566
444.5401, 2337.956
445.0222, 2226.443
445.5043, 1946.642
445.9864, 1623.550
446.4685, 1364.486
446.9507, 1202.033
447.4328, 1080.557
447.9149, 1001.620
448.3970, 960.4963
448.8791, 931.9332
449.3612, 920.6760
449.8434, 916.0452
450.3255, 914.1603
450.8076, 916.7263
451.2897, 916.0797
451.7718, 910.9958
452.2539, 904.0820
452.7361, 899.0721
453.2182, 895.9037
453.7003, 894.8615
454.1824, 896.8395
454.6645, 901.0259
455.1466, 903.7946
455.6288, 905.1345
456.1109, 905.2562
456.5930, 902.2552
457.0751, 897.9077
457.5572, 898.8699
458.0393, 908.5162
458.5215, 920.0399
459.0036, 923.9695
459.4857, 922.0806
459.9678, 920.4614
460.4499, 921.3512
460.9320, 924.8518
461.4142, 931.6642
461.8963, 942.1755
462.3784, 953.3040
462.8605, 965.7348
463.3426, 977.0085
463.8247, 984.0716
464.3069, 989.3484
464.7890, 986.8778
465.2711, 969.8629
465.7532, 941.0037
466.2353, 917.8575
466.7174, 903.7908
467.1996, 896.0436
467.6817, 893.9116
468.1638, 902.5098
468.6459, 906.7637
469.1280, 904.3098
469.6101, 898.7745
470.0923, 896.1715
470.5744, 898.1244
471.0565, 899.2804
471.5386, 897.6144
472.0207, 893.4257
472.5028, 891.4852
472.9850, 892.0260
473.4671, 893.9233
473.9492, 895.7258
474.4313, 897.6376
474.9134, 903.2651
475.3955, 915.0784
475.8776, 927.3563
476.3597, 927.7127
476.8419, 918.4252
477.3240, 911.6516
477.8061, 915.7672
478.2882, 925.7601
478.7703, 935.3170
479.2524, 944.2187
479.7346, 951.1821
480.2167, 956.6592
480.6988, 959.1859
481.1809, 956.7003
481.6630, 942.2637
482.1451, 929.3893
482.6273, 926.0969
483.1094, 929.8373
483.5915, 931.6832
484.0736, 928.4232
484.5557, 923.0757
485.0378, 916.6557
485.5200, 908.3855
486.0021, 901.3372
486.4842, 896.5145
486.9663, 892.4584
487.4484, 887.4655
487.9305, 881.0704
488.4127, 874.4595
488.8948, 865.8899
489.3769, 856.9514
489.8590, 859.2749
490.3411, 877.2255
490.8232, 893.2980
491.3054, 893.6505
491.7875, 878.6864
492.2696, 870.5880
492.7517, 871.1395
493.2338, 877.3738
493.7159, 890.3625
494.1981, 907.3214
494.6802, 914.7272
495.1623, 898.5197
495.6444, 874.5275
496.1265, 867.6489
496.6086, 876.1306
497.0908, 885.0298
497.5729, 883.7924
498.0550, 878.0580
498.5371, 873.1251
499.0192, 869.0024
499.5013, 868.5610
499.9835, 877.1718
500.4656, 889.7515
500.9477, 898.0026
501.4298, 894.9752
501.9119, 891.7219
502.3940, 893.1896
502.8762, 900.0927
503.3583, 901.0704
503.8404, 887.9923
504.3225, 875.8400
504.8046, 874.6635
505.2867, 890.5603
505.7689, 902.7259
506.2510, 909.0536
506.7331, 911.9691
507.2152, 916.0746
507.6973, 921.4003
508.1794, 927.9182
508.6616, 936.8867
509.1437, 947.2236
509.6258, 952.2200
510.1079, 951.5030
510.5900, 950.6220
511.0721, 951.0647
511.5543, 955.1966
512.0364, 971.5546
512.5185, 1007.457
513.0006, 1043.030
513.4827, 1052.548
513.9648, 1045.437
514.4470, 1044.445
514.9291, 1064.268
515.4112, 1090.936
515.8933, 1113.033
516.3754, 1129.914
516.8575, 1157.910
517.3397, 1194.263
517.8218, 1248.889
518.3039, 1329.340
518.7860, 1506.321
519.2681, 1621.315
519.7502, 1644.418
520.2324, 1606.254
520.7145, 1565.719
521.1966, 1508.885
521.6787, 1474.724
522.1608, 1476.727
522.6429, 1514.625
523.1251, 1570.000
523.6072, 1650.098
524.0893, 1723.531
524.5714, 1777.663
525.0535, 1809.124
525.5356, 1768.968
526.0178, 1635.203
526.4999, 1463.171
526.9820, 1321.253
527.4641, 1210.672
527.9462, 1125.935
528.4283, 1073.760
528.9105, 1041.334
529.3926, 1016.811
529.8747, 999.8516
530.3568, 986.8893
530.8389, 977.4075
531.3210, 970.2803
531.8032, 964.5500
532.2853, 961.5135
532.7674, 957.3142
533.2495, 949.6804
533.7316, 940.4802
534.2137, 933.1869
534.6959, 927.1001
535.1780, 924.1387
535.6601, 926.1765
536.1422, 932.9796
536.6243, 935.0686
537.1064, 929.2948
537.5885, 924.6518
538.0706, 929.1748
538.5527, 944.2527
539.0349, 952.4426
539.5170, 951.4598
539.9991, 945.9240
540.4812, 941.1834
540.9633, 937.4156
541.4454, 936.3237
541.9276, 940.7475
542.4097, 946.6284
542.8918, 946.4500
543.3739, 941.2117
543.8560, 937.4504
544.3381, 943.4818
544.8203, 950.6605
545.3024, 949.4167
545.7845, 935.6969
546.2666, 924.1259
546.7487, 920.9590
547.2308, 923.3284
547.7130, 927.7380
548.1951, 937.8046
548.6772, 945.0604
549.1593, 946.9847
549.6414, 944.6289
550.1235, 942.6320
550.6057, 940.3442
551.0878, 939.4510
551.5699, 940.8527
552.0520, 944.7397
552.5341, 950.0548
553.0162, 958.1960
553.4984, 963.9105
553.9805, 958.1232
554.4626, 942.4911
554.9447, 933.4703
555.4268, 937.0638
555.9089, 945.0978
556.3911, 943.3168
556.8732, 934.6272
557.3553, 930.2712
557.8374, 941.3647
558.3195, 956.2913
558.8016, 964.2178
559.2838, 964.7069
559.7659, 963.2722
560.2480, 960.7883
560.7301, 958.5059
561.2122, 957.2245
561.6943, 954.6752
562.1765, 956.7634
562.6586, 970.3773
563.1407, 987.5109
563.6228, 994.4593
564.1049, 984.8738
564.5870, 975.9071
565.0692, 970.9024
565.5513, 969.8925
566.0334, 974.2343
566.5155, 985.6213
566.9976, 995.9067
567.4797, 998.0428
567.9619, 993.6005
568.4440, 992.4758
568.9261, 995.1961
569.4082, 1002.162
569.8903, 1017.177
570.3724, 1036.596
570.8546, 1052.951
571.3367, 1063.114
571.8188, 1069.700
572.3009, 1073.433
572.7830, 1074.985
573.2651, 1076.321
573.7473, 1074.736
574.2294, 1076.108
574.7115, 1085.144
575.1936, 1104.100
575.6757, 1118.737
576.1578, 1131.783
576.6400, 1137.158
577.1221, 1128.443
577.6042, 1095.732
578.0863, 1074.011
578.5684, 1070.075
579.0505, 1073.926
579.5327, 1065.867
580.0148, 1044.872
580.4969, 1024.582
580.9790, 1009.296
581.4611, 998.4097
581.9432, 991.3413
582.4254, 988.0053
582.9075, 986.5355
583.3896, 983.0732
583.8717, 981.7376
584.3538, 990.4817
584.8359, 1012.361
585.3181, 1031.282
585.8002, 1036.369
586.2823, 1033.548
586.7644, 1029.665
587.2465, 1022.399
587.7286, 1018.882
588.2108, 1022.031
588.6929, 1030.253
589.1750, 1038.314
589.6571, 1046.479
590.1392, 1054.104
590.6213, 1060.983
591.1035, 1067.126
591.5856, 1072.546
592.0677, 1076.515
592.5498, 1082.308
593.0319, 1093.925
593.5140, 1110.408
593.9962, 1124.561
594.4783, 1134.955
594.9604, 1144.982
595.4425, 1157.382
595.9246, 1172.433
596.4067, 1190.963
596.8889, 1211.501
597.3710, 1237.506
597.8531, 1280.140
598.3352, 1331.944
598.8173, 1367.774
599.2994, 1379.381
599.7816, 1372.161
600.2637, 1345.610
600.7458, 1296.416
601.2279, 1243.274
601.7100, 1176.966
602.1921, 1117.852
602.6743, 1082.667
603.1564, 1077.499
603.6385, 1074.347
604.1206, 1071.312
604.6027, 1069.575
605.0848, 1071.985
605.5670, 1078.247
606.0491, 1083.695
606.5312, 1086.487
607.0133, 1087.816
607.4954, 1087.663
607.9775, 1087.046
608.4597, 1091.109
608.9418, 1109.368
609.4239, 1129.420
609.9060, 1138.803
610.3881, 1135.381
610.8702, 1135.581
611.3524, 1149.576
611.8345, 1167.154
612.3166, 1180.187
612.7987, 1174.623
613.2808, 1183.913
613.7629, 1217.303
614.2451, 1259.939
614.7272, 1287.978
615.2093, 1301.200
615.6914, 1300.154
616.1735, 1282.284
616.6556, 1251.537
617.1378, 1218.094
617.6199, 1182.095
618.1020, 1148.546
618.5840, 1120.012
619.0662, 1096.231
619.5483, 1075.887
620.0304, 1058.986
620.5125, 1047.880
620.9946, 1050.406
621.4767, 1056.464
621.9589, 1055.646
622.4410, 1040.208
622.9231, 1028.306
623.4052, 1025.627
623.8873, 1029.091
624.3694, 1034.146
