##NAMES=Phenakite
##RRUFFID=R050137
##IDEAL CHEMISTRY=Be_2_SiO_4_
##LOCALITY=Mount Antero area, Chaffee County, Colorado, USA
##OWNER=RRUFF
##SOURCE=Dave Bunk Minerals
##DESCRIPTION=Colorless tabular hexagonal crystal
##STATUS=The identification of this mineral has been confirmed by X-ray diffraction and chemical analysis
##URL=rruff.info/R050137
##MEASURED CHEMISTRY=Be_2.00_Si_1.00_O_4_
93.08527, 0.0000000E+00
93.56738, 83.84395
94.04950, 84.43722
94.53162, 85.31575
95.01373, 85.49062
95.49585, 85.42077
95.97797, 85.19908
96.46008, 84.81843
96.94220, 84.43274
97.42432, 83.96877
97.90643, 83.42007
98.38855, 82.80721
98.87067, 82.14253
99.35278, 81.44598
99.83490, 80.74944
100.3170, 80.09274
100.7991, 79.40897
101.2813, 78.63258
101.7634, 77.56825
102.2455, 76.47102
102.7276, 75.62268
103.2097, 75.16887
103.6918, 75.06847
104.1740, 75.18362
104.6561, 75.87693
105.1382, 76.35416
105.6203, 76.33004
106.1024, 75.82762
106.5845, 74.96329
107.0667, 73.59014
107.5488, 71.88906
108.0309, 70.66695
108.5130, 70.06559
108.9951, 69.91584
109.4772, 70.18110
109.9594, 71.03772
110.4415, 71.72367
110.9236, 71.60367
111.4057, 70.93835
111.8878, 70.17290
112.3699, 69.43350
112.8521, 68.73888
113.3342, 68.27933
113.8163, 68.15025
114.2984, 68.19154
114.7805, 68.45059
115.2626, 68.84799
115.7448, 69.16911
116.2269, 69.16148
116.7090, 68.69180
117.1911, 68.35625
117.6732, 68.31461
118.1553, 68.26882
118.6375, 67.97549
119.1196, 67.42295
119.6017, 66.84792
120.0838, 66.64793
120.5659, 67.19465
121.0480, 67.57630
121.5302, 67.75225
122.0123, 67.78111
122.4944, 67.72770
122.9765, 67.61907
123.4586, 67.43299
123.9407, 67.04300
124.4228, 66.18754
124.9050, 65.63994
125.3871, 65.97261
125.8692, 66.90418
126.3513, 67.47172
126.8334, 67.01303
127.3155, 66.03598
127.7977, 65.64134
128.2798, 66.15034
128.7619, 66.77538
129.2440, 66.68639
129.7261, 65.75697
130.2083, 64.92603
130.6904, 64.64116
131.1725, 64.69153
131.6546, 64.99208
132.1367, 65.63900
132.6188, 66.37249
133.1010, 66.49688
133.5831, 65.51393
134.0652, 64.71245
134.5473, 64.47894
135.0294, 64.62392
135.5115, 64.86699
135.9937, 65.00595
136.4758, 65.06832
136.9579, 65.50371
137.4400, 66.55647
137.9221, 67.77245
138.4042, 69.15266
138.8864, 70.61917
139.3685, 72.08958
139.8506, 73.53117
140.3327, 75.00267
140.8148, 75.85192
141.2969, 76.03082
141.7791, 75.77141
142.2612, 74.94174
142.7433, 73.63204
143.2254, 72.40379
143.7075, 71.91496
144.1896, 72.32088
144.6718, 72.63817
145.1539, 72.71732
145.6360, 72.72500
146.1181, 72.86605
146.6002, 73.19907
147.0823, 73.58442
147.5645, 73.80125
148.0466, 73.87354
148.5287, 74.07138
149.0108, 74.48747
149.4929, 75.10936
149.9750, 75.93391
150.4572, 77.10469
150.9393, 78.29182
151.4214, 79.24570
151.9035, 79.97069
152.3856, 80.56156
152.8677, 80.92010
153.3499, 80.99612
153.8320, 81.58797
154.3141, 83.16028
154.7962, 85.10258
155.2783, 87.01529
155.7604, 88.89436
156.2425, 91.15141
156.7247, 93.94051
157.2068, 96.19796
157.6889, 102.0460
158.1710, 108.4936
158.6531, 119.7541
159.1352, 142.0775
159.6174, 176.2639
160.0995, 214.6297
160.5816, 241.9228
161.0637, 261.5539
161.5458, 262.0921
162.0279, 231.4758
162.5101, 187.4613
162.9922, 146.6984
163.4743, 116.1578
163.9564, 94.66743
164.4385, 79.24930
164.9206, 72.29984
165.4028, 67.66315
165.8849, 65.39776
166.3670, 64.74179
166.8491, 64.34438
167.3312, 63.61219
167.8133, 62.66614
168.2955, 61.87939
168.7776, 61.25518
169.2597, 60.75130
169.7418, 60.28716
170.2239, 59.89827
170.7060, 59.81907
171.1882, 60.42362
171.6703, 61.27195
172.1524, 61.48065
172.6345, 60.67302
173.1166, 59.71669
173.5987, 59.46783
174.0809, 59.99903
174.5630, 60.55052
175.0451, 60.77177
175.5272, 60.81392
176.0093, 60.81002
176.4914, 60.81367
176.9736, 60.75347
177.4557, 60.45161
177.9378, 59.73978
178.4199, 59.21127
178.9020, 59.08383
179.3841, 59.20094
179.8663, 59.42597
180.3484, 59.70533
180.8305, 60.03527
181.3126, 60.42513
181.7947, 61.08680
182.2768, 61.47962
182.7590, 61.33775
183.2411, 60.93562
183.7232, 60.60899
184.2053, 60.55163
184.6874, 60.72142
185.1695, 60.86009
185.6517, 60.84635
186.1338, 60.93036
186.6159, 61.24958
187.0980, 61.68559
187.5801, 62.03836
188.0622, 62.17069
188.5444, 62.10191
189.0265, 62.10220
189.5086, 62.22071
189.9907, 62.34502
190.4728, 62.46895
190.9549, 62.57478
191.4371, 62.59578
191.9192, 62.44142
192.4013, 62.15564
192.8834, 62.24443
193.3655, 63.04744
193.8476, 63.85707
194.3298, 64.25166
194.8119, 64.28540
195.2940, 64.31406
195.7761, 64.54334
196.2582, 65.00352
196.7403, 65.63884
197.2225, 66.13103
197.7046, 67.02284
198.1867, 68.34229
198.6688, 70.08601
199.1509, 73.43181
199.6330, 79.85458
200.1152, 88.49184
200.5973, 97.48540
201.0794, 108.2487
201.5615, 118.1310
202.0436, 123.6787
202.5257, 124.4158
203.0079, 122.7905
203.4900, 117.9747
203.9721, 112.1453
204.4542, 108.1620
204.9363, 107.3593
205.4184, 108.7155
205.9006, 110.3569
206.3827, 112.1841
206.8648, 114.5587
207.3469, 117.3644
207.8290, 120.7885
208.3111, 125.1963
208.7933, 130.9021
209.2754, 137.5459
209.7575, 144.3354
210.2396, 152.2543
210.7217, 158.5234
211.2038, 161.9436
211.6860, 163.6514
212.1681, 164.9070
212.6502, 166.2664
213.1323, 167.8706
213.6144, 170.3050
214.0965, 173.5029
214.5787, 177.8160
215.0608, 182.7630
215.5429, 188.9171
216.0250, 196.2545
216.5071, 204.4810
216.9892, 214.6340
217.4714, 233.0153
217.9535, 252.9422
218.4356, 290.0130
218.9177, 340.3476
219.3998, 410.5350
219.8819, 521.6613
220.3641, 691.6558
220.8462, 901.4472
221.3283, 1020.067
221.8104, 1030.670
222.2925, 975.9320
222.7746, 816.4337
223.2568, 600.1750
223.7389, 406.2783
224.2210, 278.5994
224.7031, 209.9408
225.1852, 166.0636
225.6673, 153.6023
226.1495, 152.1447
226.6316, 156.8260
227.1137, 168.4287
227.5958, 188.5459
228.0779, 217.2201
228.5600, 256.1719
229.0422, 311.6979
229.5243, 416.4646
230.0064, 495.2910
230.4885, 517.2037
230.9706, 490.3041
231.4527, 432.8041
231.9349, 342.0909
232.4170, 236.5214
232.8991, 161.2470
233.3812, 121.6982
233.8633, 97.62082
234.3454, 83.35482
234.8276, 77.49252
235.3097, 74.37481
235.7918, 72.46126
236.2739, 71.62225
236.7560, 71.59950
237.2381, 72.82022
237.7203, 73.57871
238.2024, 72.26067
238.6845, 69.21562
239.1666, 66.85571
239.6487, 66.16167
240.1308, 66.41326
240.6130, 66.71329
241.0951, 67.06151
241.5772, 67.32107
242.0593, 67.31185
242.5414, 67.05819
243.0235, 66.95158
243.5057, 67.26913
243.9878, 67.60275
244.4699, 67.52479
244.9520, 67.02048
245.4341, 66.57584
245.9162, 66.68653
246.3984, 67.34863
246.8805, 67.84429
247.3626, 67.77141
247.8447, 67.76802
248.3268, 68.25225
248.8089, 69.21296
249.2911, 70.35947
249.7732, 71.25089
250.2553, 71.84464
250.7374, 73.23825
251.2195, 75.44089
251.7016, 78.65588
252.1838, 82.65849
252.6659, 87.62761
253.1480, 94.30396
253.6301, 104.6711
254.1122, 119.3086
254.5943, 129.3692
255.0765, 135.2429
255.5586, 135.4379
256.0407, 126.2742
256.5228, 110.3340
257.0049, 94.06786
257.4870, 82.46690
257.9691, 75.58183
258.4513, 70.90487
258.9334, 70.17711
259.4155, 70.25808
259.8976, 70.88796
260.3797, 71.68896
260.8618, 72.10874
261.3440, 71.67497
261.8261, 70.42583
262.3082, 69.47604
262.7903, 69.03178
263.2724, 68.71575
263.7545, 68.28135
264.2367, 67.93564
264.7188, 68.13628
265.2009, 69.26073
265.6830, 71.12299
266.1651, 72.15742
266.6472, 71.23356
267.1294, 70.65383
267.6115, 70.88222
268.0936, 71.67385
268.5757, 72.65989
269.0578, 73.64375
269.5399, 74.62634
270.0221, 75.60410
270.5042, 76.41631
270.9863, 77.41311
271.4684, 78.52562
271.9505, 79.87553
272.4326, 81.50181
272.9148, 83.42256
273.3969, 85.83504
273.8790, 89.27052
274.3611, 93.58902
274.8432, 99.28429
275.3253, 106.2529
275.8075, 114.6718
276.2896, 124.4315
276.7717, 135.5426
277.2538, 148.8664
277.7359, 166.5175
278.2180, 198.3515
278.7002, 218.5785
279.1823, 226.6768
279.6644, 223.2521
280.1465, 204.7473
280.6286, 171.2644
281.1107, 133.0889
281.5929, 104.7033
282.0750, 89.47204
282.5571, 77.88298
283.0392, 71.03064
283.5213, 67.01425
284.0034, 64.85623
284.4856, 64.20333
284.9677, 64.21524
285.4498, 64.02715
285.9319, 63.57434
286.4140, 63.25994
286.8961, 63.07086
287.3783, 63.02163
287.8604, 63.20842
288.3425, 63.59352
288.8246, 63.94441
289.3067, 64.04601
289.7888, 63.88921
290.2710, 63.82533
290.7531, 63.68537
291.2352, 63.77376
291.7173, 64.24071
292.1994, 65.08511
292.6815, 66.20466
293.1637, 67.43053
293.6458, 68.92871
294.1279, 71.53210
294.6100, 75.85693
295.0921, 80.47006
295.5742, 85.93395
296.0564, 91.35482
296.5385, 94.33269
297.0206, 93.56906
297.5027, 89.70993
297.9848, 84.43456
298.4669, 76.27711
298.9491, 69.44884
299.4312, 65.60007
299.9133, 63.91888
300.3954, 62.93354
300.8775, 62.18006
301.3596, 61.70748
301.8418, 61.61421
302.3239, 61.78383
302.8060, 62.52708
303.2881, 64.68067
303.7702, 67.20667
304.2523, 68.61122
304.7345, 68.51915
305.2166, 67.50612
305.6987, 65.97240
306.1808, 63.81841
306.6629, 62.40779
307.1451, 62.48377
307.6272, 63.08988
308.1093, 63.23867
308.5914, 62.80444
309.0735, 62.20086
309.5556, 61.69230
310.0378, 61.31610
310.5199, 61.30233
311.0020, 61.99054
311.4841, 62.80229
311.9662, 63.19453
312.4483, 63.21144
312.9305, 63.43988
313.4126, 64.38146
313.8947, 65.83186
314.3768, 66.81635
314.8589, 67.07935
315.3410, 67.16184
315.8232, 67.34911
316.3053, 67.59106
316.7874, 67.66373
317.2695, 67.37303
317.7516, 66.96445
318.2337, 67.04057
318.7159, 67.69329
319.1980, 68.50398
319.6801, 69.39226
320.1622, 70.32307
320.6443, 71.28943
321.1264, 72.34017
321.6086, 73.25099
322.0907, 73.46470
322.5728, 72.85173
323.0549, 72.67753
323.5370, 73.49944
324.0191, 74.79395
324.5013, 75.82597
324.9834, 76.45403
325.4655, 77.14260
325.9476, 78.31235
326.4297, 79.98396
326.9118, 82.14966
327.3940, 85.43520
327.8761, 88.77584
328.3582, 91.39123
328.8403, 93.22475
329.3224, 94.34579
329.8045, 94.67126
330.2867, 94.26213
330.7688, 93.82922
331.2509, 93.14572
331.7330, 92.65745
332.2151, 92.69379
332.6972, 93.13110
333.1794, 93.54517
333.6615, 93.68713
334.1436, 93.74055
334.6257, 94.29887
335.1078, 95.81843
335.5899, 96.84853
336.0721, 96.56197
336.5542, 95.59846
337.0363, 94.99867
337.5184, 95.07951
338.0005, 95.56303
338.4826, 96.07378
338.9648, 96.60448
339.4469, 97.18700
339.9290, 97.60973
340.4111, 98.20765
340.8932, 99.20710
341.3753, 100.6625
341.8575, 102.6757
342.3396, 105.0858
342.8217, 107.9732
343.3038, 113.2703
343.7859, 120.2940
344.2680, 130.1747
344.7502, 143.4155
345.2323, 160.0652
345.7144, 181.1101
346.1965, 208.5671
346.6786, 240.2352
347.1607, 262.6778
347.6429, 284.8976
348.1250, 290.1799
348.6071, 264.6959
349.0892, 220.9182
349.5713, 177.7420
350.0534, 142.0030
350.5356, 113.9290
351.0177, 94.01262
351.4998, 85.84868
351.9819, 79.77149
352.4640, 76.15829
352.9461, 73.90820
353.4283, 72.13109
353.9104, 70.60725
354.3925, 69.40187
354.8746, 68.62560
355.3567, 68.39326
355.8388, 68.03296
356.3210, 67.32607
356.8031, 66.70035
357.2852, 66.36848
357.7673, 66.31950
358.2494, 66.50362
358.7315, 66.93589
359.2137, 67.55284
359.6958, 67.66710
360.1779, 66.66099
360.6600, 65.90143
361.1421, 65.58403
361.6242, 65.69855
362.1064, 66.13869
362.5885, 66.85719
363.0706, 68.04168
363.5527, 70.14827
364.0348, 74.34391
364.5169, 77.71455
364.9991, 80.48893
365.4812, 82.34289
365.9633, 82.78597
366.4454, 81.88293
366.9275, 80.33835
367.4096, 78.81882
367.8918, 77.18324
368.3739, 76.39915
368.8560, 77.16744
369.3381, 78.02258
369.8202, 78.21536
370.3023, 78.04507
370.7845, 78.31068
371.2666, 79.59724
371.7487, 81.69814
372.2308, 83.42595
372.7129, 84.48349
373.1950, 85.53861
373.6772, 86.72119
374.1593, 87.94382
374.6414, 88.97898
375.1235, 89.76541
375.6056, 90.68645
376.0877, 92.38855
376.5699, 95.00689
377.0520, 98.07745
377.5341, 100.9287
378.0162, 104.6965
378.4983, 109.3114
378.9804, 115.2297
379.4626, 123.8527
379.9447, 136.2437
380.4268, 152.3657
380.9089, 172.4732
381.3910, 198.0952
381.8731, 226.1410
382.3553, 263.3255
382.8374, 300.3514
383.3195, 322.9713
383.8016, 324.2544
384.2837, 307.0204
384.7658, 272.6442
385.2480, 214.2033
385.7301, 162.3697
386.2122, 128.3099
386.6943, 104.7444
387.1764, 88.46443
387.6585, 78.85479
388.1407, 72.98809
388.6228, 68.92759
389.1049, 66.57411
389.5870, 64.80669
390.0691, 63.62743
390.5512, 62.83488
391.0334, 62.32082
391.5155, 62.03278
391.9976, 61.77424
392.4797, 61.45447
392.9618, 61.10563
393.4439, 60.80912
393.9261, 60.58535
394.4082, 60.29575
394.8903, 59.78469
395.3724, 59.17915
395.8545, 58.67602
396.3366, 58.26165
396.8188, 58.01693
397.3009, 58.06427
397.7830, 58.35118
398.2651, 58.67997
398.7472, 59.05582
399.2293, 59.33091
399.7115, 59.16908
400.1936, 58.54286
400.6757, 58.15868
401.1578, 58.39431
401.6399, 58.90277
402.1220, 59.37444
402.6042, 59.76563
403.0863, 59.78345
403.5684, 59.06005
404.0505, 57.66837
404.5326, 56.65678
405.0147, 56.04310
405.4969, 55.77886
405.9790, 56.02644
406.4611, 56.60942
406.9432, 57.10457
407.4253, 57.32045
407.9074, 57.38069
408.3896, 57.56291
408.8717, 57.92400
409.3538, 58.30259
409.8359, 58.63145
410.3180, 59.00894
410.8001, 59.61749
411.2823, 60.43170
411.7644, 61.17389
412.2465, 61.58638
412.7286, 61.67488
413.2107, 61.34462
413.6928, 60.22589
414.1750, 59.14433
414.6571, 58.32952
415.1392, 57.75332
415.6213, 57.31435
416.1034, 56.95576
416.5855, 56.74865
417.0677, 56.92135
417.5498, 57.85798
418.0319, 58.50688
418.5140, 58.60878
418.9961, 58.57977
419.4782, 58.65790
419.9604, 58.90837
420.4425, 59.32552
420.9246, 59.83172
421.4067, 60.40611
421.8888, 61.60443
422.3709, 63.89083
422.8531, 66.29638
423.3352, 68.06699
423.8173, 69.82996
424.2994, 72.63667
424.7815, 77.03329
425.2636, 82.52464
425.7458, 88.50613
426.2279, 95.38934
426.7100, 101.0861
427.1921, 105.3204
427.6742, 107.8379
428.1563, 107.7600
428.6385, 105.1706
429.1206, 102.4019
429.6027, 101.0414
430.0848, 100.8445
430.5669, 100.8542
431.0490, 100.8557
431.5312, 101.4258
432.0133, 103.1282
432.4954, 105.6951
432.9775, 108.7891
433.4596, 112.6901
433.9417, 116.7152
434.4239, 120.0910
434.9060, 122.9631
435.3881, 126.1146
435.8702, 129.7931
436.3523, 133.9584
436.8344, 138.2311
437.3166, 142.1718
437.7987, 148.1389
438.2808, 155.9955
438.7629, 166.5823
439.2450, 179.6879
439.7271, 195.6099
440.2093, 217.3855
440.6914, 247.1412
441.1735, 285.0713
441.6556, 332.3701
442.1377, 391.7658
442.6198, 455.7143
443.1020, 536.4568
443.5841, 616.8361
444.0662, 674.0785
444.5483, 699.8425
445.0304, 689.3755
445.5125, 630.6160
445.9947, 491.9416
446.4768, 376.6587
446.9589, 282.5607
447.4410, 208.9859
447.9231, 159.9045
448.4052, 131.2528
448.8874, 114.2877
449.3695, 103.5946
449.8516, 98.19176
450.3337, 92.41969
450.8158, 85.31438
451.2979, 79.41921
451.7801, 75.17612
452.2622, 72.20837
452.7443, 70.43111
453.2264, 69.75658
453.7085, 69.56106
454.1906, 69.10904
454.6728, 68.38258
455.1549, 68.01050
455.6370, 68.21147
456.1191, 68.56538
456.6012, 68.88728
457.0833, 69.16676
457.5655, 69.36408
458.0476, 69.35361
458.5297, 69.37057
459.0118, 69.66240
459.4939, 70.22060
459.9760, 71.26991
460.4582, 72.79874
460.9403, 75.01216
461.4224, 78.09750
461.9045, 82.08608
462.3866, 86.55563
462.8687, 91.99291
463.3508, 97.56860
463.8329, 102.6872
464.3151, 107.2790
464.7972, 109.3255
465.2793, 106.9211
465.7614, 100.3547
466.2435, 93.38123
466.7256, 84.72787
467.2078, 77.16813
467.6899, 71.70877
468.1720, 68.00125
468.6541, 65.72678
469.1362, 64.77416
469.6183, 64.50978
470.1005, 64.02554
470.5826, 63.20674
471.0647, 62.55584
471.5468, 62.07651
472.0289, 61.73450
472.5110, 61.54197
472.9932, 61.47156
473.4753, 61.44320
473.9574, 61.39365
474.4395, 61.41884
474.9216, 61.83057
475.4037, 62.75698
475.8859, 63.83051
476.3680, 64.45875
476.8501, 65.59792
477.3322, 68.26390
477.8143, 72.33517
478.2964, 76.52412
478.7786, 80.02518
479.2607, 82.78633
479.7428, 84.29002
480.2249, 84.47095
480.7070, 83.51353
481.1891, 81.02331
481.6713, 77.63990
482.1534, 73.92614
482.6355, 69.74550
483.1176, 66.06227
483.5997, 63.85741
484.0818, 62.86253
484.5640, 62.03955
485.0461, 61.19869
485.5282, 60.42350
486.0103, 59.82658
486.4924, 59.39068
486.9745, 58.97057
487.4567, 58.40145
487.9388, 57.97323
488.4209, 58.05286
488.9030, 58.46283
489.3851, 58.63798
489.8672, 58.29790
490.3494, 57.67484
490.8315, 57.22622
491.3136, 56.95564
491.7957, 56.89388
492.2778, 57.26624
492.7599, 57.66899
493.2421, 57.76989
493.7242, 57.62195
494.2063, 57.53028
494.6884, 57.73731
495.1705, 58.15264
495.6526, 58.26482
496.1348, 57.64552
496.6169, 57.42232
497.0990, 58.11385
497.5811, 58.98420
498.0632, 59.40258
498.5453, 59.28300
499.0275, 58.99421
499.5096, 58.83310
499.9917, 58.79546
500.4738, 58.85493
500.9559, 59.04635
501.4380, 59.26554
501.9202, 59.49183
502.4023, 59.70227
502.8844, 59.77889
503.3665, 59.53969
503.8486, 59.62540
504.3307, 60.57472
504.8129, 62.28143
505.2950, 64.36332
505.7771, 66.71098
506.2592, 69.52444
506.7413, 73.40825
507.2234, 78.23611
507.7056, 81.97020
508.1877, 84.17872
508.6698, 85.51669
509.1519, 86.08870
509.6340, 86.09846
510.1161, 85.87664
510.5983, 85.53922
511.0804, 85.23759
511.5625, 85.20565
512.0446, 85.34806
512.5267, 86.07423
513.0089, 87.60201
513.4910, 89.43417
513.9731, 91.43448
514.4552, 93.51538
514.9373, 95.58355
515.4194, 97.56896
515.9016, 99.51427
516.3837, 101.4488
516.8658, 103.1565
517.3479, 105.4340
517.8300, 108.1366
518.3121, 111.7005
518.7943, 116.0494
519.2764, 121.4127
519.7585, 128.6453
520.2406, 137.4658
520.7227, 148.7731
521.2048, 164.6675
521.6870, 185.2242
522.1691, 209.7243
522.6512, 239.1285
523.1333, 271.5524
523.6154, 306.6063
524.0975, 347.3617
524.5797, 376.3506
525.0618, 390.5370
525.5439, 387.7417
526.0260, 359.5379
526.5081, 307.1381
526.9902, 249.7623
527.4724, 199.2712
527.9545, 156.0142
528.4366, 123.9177
528.9187, 107.7530
529.4008, 95.50879
529.8829, 87.27843
530.3651, 81.43368
530.8472, 76.73270
531.3293, 72.82311
531.8114, 69.79480
532.2935, 67.82162
532.7756, 66.85830
533.2578, 65.96097
533.7399, 65.09386
534.2220, 64.35773
534.7041, 63.75054
535.1862, 63.28940
535.6683, 63.09204
536.1505, 63.17577
536.6326, 63.15219
537.1147, 62.48294
537.5968, 61.35687
538.0789, 60.68924
538.5610, 60.61007
539.0432, 60.79955
539.5253, 61.24703
540.0074, 61.78121
540.4895, 61.97462
540.9716, 61.51218
541.4537, 61.19945
541.9359, 61.74885
542.4180, 62.64803
542.9001, 62.89919
543.3822, 62.30060
543.8643, 61.58538
544.3464, 61.51255
544.8286, 62.11199
545.3107, 62.27803
545.7928, 61.69977
546.2749, 61.12565
546.7570, 60.82396
547.2391, 60.59121
547.7213, 60.04222
548.2034, 59.12573
548.6855, 58.34027
549.1676, 58.38864
549.6497, 59.34434
550.1318, 59.94245
550.6140, 60.19407
551.0961, 60.03658
551.5782, 58.99594
552.0603, 57.76061
552.5424, 57.32560
553.0245, 58.03967
553.5067, 59.07635
553.9888, 59.83703
554.4709, 60.31578
554.9530, 60.43090
555.4351, 60.10073
555.9172, 59.67976
556.3994, 59.39800
556.8815, 59.26456
557.3636, 59.26028
557.8457, 59.28840
558.3278, 59.56033
558.8099, 60.30209
559.2921, 61.28696
559.7742, 62.23307
560.2563, 63.06046
560.7384, 63.77281
561.2205, 64.39133
561.7026, 64.61211
562.1848, 65.12244
562.6669, 64.60751
563.1490, 64.16467
563.6311, 63.74159
564.1132, 63.56469
564.5953, 64.06116
565.0775, 65.26722
565.5596, 66.44060
566.0417, 66.52458
566.5238, 65.68784
567.0059, 65.83804
567.4880, 67.43184
567.9702, 69.03104
568.4523, 69.68495
568.9344, 69.92537
569.4165, 70.42829
569.8986, 71.26615
570.3807, 72.40784
570.8629, 73.89642
571.3450, 75.65261
571.8271, 77.39095
572.3092, 79.10259
572.7913, 81.31430
573.2734, 84.41859
573.7556, 88.39526
574.2377, 93.19984
574.7198, 99.72301
575.2019, 105.8302
575.6840, 112.2493
576.1661, 117.4946
576.6483, 120.4357
577.1304, 120.8335
577.6125, 118.7660
578.0946, 114.1007
578.5767, 107.1090
579.0588, 99.00455
579.5410, 88.39656
580.0231, 79.86980
580.5052, 75.71868
580.9873, 73.47469
581.4694, 71.59296
581.9515, 69.89738
582.4337, 68.45789
582.9158, 67.37023
583.3979, 66.54379
583.8800, 65.85046
584.3621, 65.28651
584.8442, 64.94321
585.3264, 64.91962
585.8085, 65.06015
586.2906, 65.04887
586.7727, 64.84295
587.2548, 64.62837
587.7369, 64.19990
588.2191, 63.95905
588.7012, 64.29223
589.1833, 65.04884
589.6654, 65.81706
