##NAMES=Phenakite
##RRUFFID=R040132
##IDEAL CHEMISTRY=Be_2_SiO_4_
##LOCALITY=Krager√∏, Telemark, Norway
##OWNER=RRUFF
##SOURCE=University of Arizona Mineral Museum
##DESCRIPTION=Colorless fragments
##STATUS=The identification of this mineral has been confirmed by X-ray diffraction and chemical analysis
##URL=rruff.info/R040132
##MEASURED CHEMISTRY=Be_2.02_Si_0.99_O_4_
131.8235, 265.8907
132.3056, 277.8628
132.7877, 289.8517
133.2699, 301.4994
133.7520, 312.8869
134.2341, 323.0369
134.7162, 331.1414
135.1983, 337.2359
135.6804, 343.6202
136.1626, 350.2518
136.6447, 357.1276
137.1268, 364.1826
137.6089, 371.3022
138.0910, 378.8252
138.5731, 387.7684
139.0553, 399.5684
139.5374, 406.2496
140.0195, 405.8759
140.5016, 400.2492
140.9837, 395.5866
141.4658, 389.9359
141.9480, 388.2476
142.4301, 394.4430
142.9122, 411.6830
143.3943, 430.0306
143.8764, 448.3798
144.3585, 466.6065
144.8407, 486.9818
145.3228, 511.5868
145.8049, 536.6229
146.2870, 558.2692
146.7691, 573.9025
147.2512, 589.2896
147.7334, 606.5361
148.2155, 627.7437
148.6976, 641.9139
149.1797, 640.4962
149.6618, 634.5178
150.1439, 638.5038
150.6261, 654.1415
151.1082, 678.1866
151.5903, 711.5885
152.0724, 760.5799
152.5545, 804.5907
153.0366, 833.0107
153.5188, 855.5955
154.0009, 891.3622
154.4830, 945.9741
154.9651, 1012.480
155.4472, 1088.943
155.9293, 1180.733
156.4115, 1273.669
156.8936, 1346.969
157.3757, 1414.839
157.8578, 1526.921
158.3399, 1649.988
158.8221, 1849.092
159.3042, 2169.109
159.7863, 2884.983
160.2684, 3464.629
160.7505, 3764.794
161.2326, 3791.512
161.7148, 3564.301
162.1969, 2836.734
162.6790, 1954.547
163.1611, 1260.445
163.6432, 940.2453
164.1253, 770.2007
164.6075, 660.7697
165.0896, 609.7789
165.5717, 582.6428
166.0538, 570.9928
166.5359, 569.2582
167.0180, 569.3454
167.5002, 570.0032
167.9823, 569.8902
168.4644, 567.3541
168.9465, 561.8723
169.4286, 556.7643
169.9107, 554.0226
170.3929, 553.4392
170.8750, 554.5115
171.3571, 559.7372
171.8392, 565.2962
172.3213, 566.2855
172.8034, 560.9113
173.2856, 554.8354
173.7677, 553.3423
174.2498, 555.5874
174.7319, 558.6723
175.2140, 561.1277
175.6961, 563.2464
176.1783, 565.7715
176.6604, 569.5170
177.1425, 572.4301
177.6246, 569.8059
178.1067, 562.7545
178.5888, 558.3343
179.0710, 566.4885
179.5531, 581.0800
180.0352, 587.5774
180.5173, 578.9424
180.9994, 564.2073
181.4815, 558.0379
181.9637, 560.2129
182.4458, 565.4614
182.9279, 570.1824
183.4100, 574.4667
183.8921, 578.8964
184.3742, 584.6879
184.8564, 590.2815
185.3385, 590.5376
185.8206, 585.0147
186.3027, 579.5439
186.7848, 582.3401
187.2669, 591.9477
187.7491, 597.2515
188.2312, 591.3566
188.7133, 578.0389
189.1954, 571.3813
189.6775, 572.0670
190.1596, 576.6163
190.6418, 582.6711
191.1239, 590.0911
191.6060, 594.6544
192.0881, 593.3035
192.5702, 586.8160
193.0524, 581.6257
193.5345, 577.5110
194.0166, 575.2733
194.4987, 576.7018
194.9808, 581.9664
195.4629, 588.3638
195.9451, 596.2933
196.4272, 605.7356
196.9093, 608.5218
197.3914, 602.4505
197.8735, 592.7817
198.3556, 589.6724
198.8378, 593.8735
199.3199, 599.8283
199.8020, 605.6734
200.2841, 611.5842
200.7662, 613.2281
201.2483, 608.4116
201.7305, 600.9673
202.2126, 600.1570
202.6947, 606.5120
203.1768, 617.5219
203.6589, 631.1237
204.1410, 646.5676
204.6232, 670.0121
205.1053, 705.1416
205.5874, 747.2530
206.0695, 780.8825
206.5516, 805.0986
207.0337, 823.2747
207.5159, 835.4623
207.9980, 838.8940
208.4801, 848.6923
208.9622, 868.1470
209.4443, 895.3410
209.9264, 920.0409
210.4086, 939.7319
210.8907, 962.1027
211.3728, 992.8699
211.8549, 1033.484
212.3370, 1078.204
212.8191, 1125.475
213.3013, 1175.710
213.7834, 1234.783
214.2655, 1299.426
214.7476, 1378.586
215.2297, 1482.745
215.7118, 1623.773
216.1940, 1757.982
216.6761, 1866.644
217.1582, 1953.266
217.6403, 2078.428
218.1224, 2210.136
218.6045, 2420.595
219.0867, 2765.179
219.5688, 3206.188
220.0509, 3906.135
220.5330, 5135.607
221.0151, 6945.037
221.4972, 7588.315
221.9794, 6633.806
222.4615, 5003.750
222.9436, 3612.626
223.4257, 2427.302
223.9078, 1548.131
224.3899, 1057.511
224.8721, 976.9418
225.3542, 917.6292
225.8363, 880.8517
226.3184, 863.5424
226.8005, 861.5396
227.2827, 873.7405
227.7648, 903.9521
228.2469, 956.1097
228.7290, 1032.646
229.2111, 1116.967
229.6932, 1242.176
230.1754, 1347.445
230.6575, 1344.373
231.1396, 1172.641
231.6217, 998.1640
232.1038, 861.4294
232.5859, 764.1342
233.0681, 697.5472
233.5502, 672.3198
234.0323, 670.2124
234.5144, 664.9235
234.9965, 652.6106
235.4786, 643.7533
235.9608, 642.4485
236.4429, 650.8374
236.9250, 656.8514
237.4071, 659.9564
237.8892, 660.9625
238.3713, 660.5549
238.8535, 655.9954
239.3356, 654.7280
239.8177, 660.9008
240.2998, 678.7596
240.7819, 687.1098
241.2640, 681.2402
241.7462, 668.7399
242.2283, 662.5654
242.7104, 664.7006
243.1925, 669.9987
243.6746, 678.1917
244.1567, 692.3501
244.6389, 698.0153
245.1210, 689.6452
245.6031, 676.0844
246.0852, 673.3425
246.5673, 685.7477
247.0494, 701.6573
247.5316, 717.7401
248.0137, 734.8475
248.4958, 749.0056
248.9779, 758.3915
249.4600, 765.7824
249.9421, 775.9661
250.4243, 789.3033
250.9064, 804.8591
251.3885, 821.8948
251.8706, 839.4356
252.3527, 861.6166
252.8348, 886.3749
253.3170, 916.9010
253.7991, 967.0101
254.2812, 1064.574
254.7633, 1127.196
255.2454, 1115.129
255.7275, 1003.391
256.2097, 908.9787
256.6918, 833.0626
257.1739, 774.6881
257.6560, 732.8234
258.1381, 711.5536
258.6202, 698.3331
259.1024, 688.4692
259.5845, 681.5370
260.0666, 680.4913
260.5487, 687.1937
261.0308, 698.3830
261.5129, 708.9049
261.9951, 719.2294
262.4772, 727.5196
262.9593, 732.2197
263.4414, 732.1221
263.9235, 734.5687
264.4056, 740.4634
264.8878, 748.0992
265.3699, 754.3771
265.8520, 758.6053
266.3341, 763.5883
266.8162, 770.1593
267.2983, 778.0778
267.7805, 788.6805
268.2626, 801.7794
268.7447, 817.7107
269.2268, 837.6396
269.7089, 862.4550
270.1910, 887.9533
270.6732, 912.0200
271.1553, 933.9659
271.6374, 959.4412
272.1195, 986.8274
272.6016, 1020.202
273.0837, 1062.418
273.5659, 1111.632
274.0480, 1179.999
274.5301, 1288.705
275.0122, 1440.377
275.4943, 1532.607
275.9764, 1551.153
276.4586, 1537.042
276.9407, 1547.365
277.4228, 1583.009
277.9049, 1635.115
278.3870, 1738.682
278.8691, 1885.377
279.3513, 1858.677
279.8334, 1622.146
280.3155, 1305.894
280.7976, 1070.709
281.2798, 920.0238
281.7619, 816.5976
282.2440, 757.8544
282.7261, 739.0655
283.2082, 726.0971
283.6903, 719.5413
284.1725, 716.6295
284.6546, 714.7704
285.1367, 713.9352
285.6188, 712.9147
286.1009, 710.9268
286.5830, 708.3752
287.0652, 707.3394
287.5473, 708.0673
288.0294, 708.8858
288.5115, 707.1543
288.9936, 703.3209
289.4757, 701.2181
289.9579, 703.3193
290.4400, 707.7645
290.9221, 708.8812
291.4042, 706.4176
291.8863, 703.7725
292.3684, 705.6506
292.8506, 710.7195
293.3327, 713.0195
293.8148, 708.5318
294.2969, 701.3679
294.7790, 700.0535
295.2611, 704.6050
295.7433, 710.4658
296.2254, 714.5329
296.7075, 716.9055
297.1896, 717.6621
297.6717, 716.1410
298.1538, 713.6556
298.6360, 712.0684
299.1181, 711.3305
299.6002, 711.0347
300.0823, 711.0245
300.5644, 711.2111
301.0465, 711.4860
301.5287, 712.0932
302.0108, 712.4355
302.4929, 711.3014
302.9750, 708.9987
303.4571, 707.3564
303.9392, 707.9728
304.4214, 709.8685
304.9035, 711.6799
305.3856, 712.7259
305.8677, 714.1255
306.3498, 718.5783
306.8319, 724.7081
307.3141, 727.7054
307.7962, 719.1063
308.2783, 708.5762
308.7604, 706.7863
309.2425, 720.0154
309.7246, 733.2236
310.2068, 736.2670
310.6889, 731.7269
311.1710, 726.3997
311.6531, 721.9178
312.1352, 718.9025
312.6173, 718.4577
313.0995, 721.9655
313.5816, 724.4997
314.0637, 721.5094
314.5458, 716.0788
315.0279, 713.9803
315.5100, 718.8069
315.9922, 726.5068
316.4743, 736.9631
316.9564, 752.5565
317.4385, 760.9074
317.9206, 750.7375
318.4027, 732.5087
318.8849, 720.8417
319.3670, 724.9634
319.8491, 731.6450
320.3312, 735.9753
320.8133, 737.0522
321.2954, 739.1218
321.7776, 745.4893
322.2597, 752.3240
322.7418, 755.5432
323.2239, 749.5961
323.7060, 744.9352
324.1881, 744.5856
324.6703, 749.0300
325.1524, 752.7424
325.6345, 755.0078
326.1166, 756.5406
326.5987, 757.9498
327.0808, 760.4733
327.5630, 761.3972
328.0451, 759.3936
328.5272, 754.6835
329.0093, 752.1037
329.4914, 752.5450
329.9735, 754.3499
330.4557, 756.3678
330.9378, 757.5453
331.4199, 760.8680
331.9020, 767.2890
332.3841, 776.1635
332.8662, 784.5814
333.3484, 793.1222
333.8305, 800.2018
334.3126, 804.9520
334.7947, 806.9920
335.2768, 807.5449
335.7589, 805.9157
336.2411, 803.2469
336.7232, 801.9098
337.2053, 801.3445
337.6874, 803.8005
338.1695, 810.3580
338.6516, 821.0319
339.1338, 835.9626
339.6159, 856.5087
340.0980, 878.9671
340.5801, 897.2818
341.0622, 911.6363
341.5443, 921.8522
342.0265, 925.3784
342.5086, 923.4432
342.9907, 927.0125
343.4728, 935.5783
343.9549, 951.5609
344.4370, 975.0117
344.9192, 1006.570
345.4013, 1055.979
345.8834, 1138.305
346.3655, 1237.171
346.8476, 1318.612
347.3297, 1383.566
347.8119, 1402.209
348.2940, 1315.007
348.7761, 1153.765
349.2582, 1014.944
349.7403, 922.5619
350.2225, 865.0054
350.7046, 833.7607
351.1867, 826.2059
351.6688, 824.3107
352.1509, 816.9692
352.6331, 806.4479
353.1152, 795.3895
353.5973, 782.3420
354.0794, 772.7498
354.5615, 774.0737
355.0436, 783.4115
355.5258, 791.9288
356.0079, 794.5962
356.4900, 794.4165
356.9721, 793.8796
357.4542, 793.3911
357.9363, 792.4652
358.4185, 789.3363
358.9006, 785.7416
359.3827, 784.6869
359.8648, 790.4354
360.3469, 796.5757
360.8290, 798.8934
361.3112, 796.2253
361.7933, 795.8051
362.2754, 801.3765
362.7575, 809.8289
363.2396, 817.8154
363.7217, 827.2090
364.2039, 833.3340
364.6860, 830.5638
365.1681, 818.7724
365.6502, 818.3780
366.1323, 836.6492
366.6144, 863.9540
367.0966, 893.8181
367.5787, 922.9878
368.0608, 958.1733
368.5429, 1004.543
369.0250, 1058.954
369.5071, 1104.191
369.9893, 1137.120
370.4714, 1164.406
370.9535, 1186.941
371.4356, 1194.084
371.9177, 1220.701
372.3998, 1271.647
372.8820, 1340.320
373.3641, 1408.480
373.8462, 1467.628
374.3283, 1547.850
374.8104, 1664.870
375.2925, 1823.180
375.7747, 1980.664
376.2568, 2142.955
376.7389, 2295.942
377.2210, 2406.957
377.7031, 2471.460
378.1852, 2557.293
378.6674, 2676.118
379.1495, 2833.250
379.6316, 3033.862
380.1137, 3267.623
380.5958, 3623.398
381.0779, 4202.423
381.5601, 4987.016
382.0422, 5918.423
382.5243, 7238.380
383.0064, 8395.505
383.4885, 8346.104
383.9706, 7199.236
384.4528, 5766.117
384.9349, 4319.118
385.4170, 3008.730
385.8991, 2075.220
386.3812, 1591.109
386.8633, 1337.751
387.3455, 1181.473
387.8276, 1101.277
388.3097, 1047.092
388.7918, 1006.622
389.2739, 974.9011
389.7560, 948.6535
390.2382, 927.7358
390.7203, 910.9529
391.2024, 898.4730
391.6845, 889.5383
392.1666, 883.1466
392.6487, 881.8210
393.1309, 880.4075
393.6130, 874.9581
394.0951, 866.1699
394.5772, 862.5317
395.0593, 874.4399
395.5414, 886.9673
396.0236, 890.6368
396.5057, 870.4688
396.9878, 857.6235
397.4699, 859.6575
397.9520, 871.7578
398.4341, 878.8959
398.9163, 881.7535
399.3984, 878.8397
399.8805, 867.5546
400.3626, 841.2803
400.8447, 826.7810
401.3268, 828.6975
401.8090, 838.9866
402.2911, 846.6794
402.7732, 850.9984
403.2553, 854.6253
403.7374, 858.6774
404.2195, 862.9799
404.7017, 863.5415
405.1838, 859.0035
405.6659, 854.3936
406.1480, 854.8753
406.6301, 860.5274
407.1122, 865.7681
407.5944, 869.9966
408.0765, 872.8320
408.5586, 871.8533
409.0407, 867.1597
409.5228, 864.3981
410.0049, 868.3751
410.4871, 877.1915
410.9692, 886.7252
411.4513, 897.4900
411.9334, 905.2495
412.4155, 903.4310
412.8976, 894.4387
413.3798, 885.3904
413.8619, 879.4029
414.3440, 874.9418
414.8261, 869.5098
415.3082, 863.0782
415.7903, 859.4077
416.2725, 862.7790
416.7546, 869.5385
417.2367, 875.6628
417.7188, 879.5049
418.2009, 882.7347
418.6830, 885.6562
419.1652, 888.4563
419.6473, 891.7068
420.1294, 895.5103
420.6115, 899.9045
421.0937, 905.1453
421.5758, 911.9070
422.0579, 917.9063
422.5400, 922.3353
423.0221, 925.9446
423.5042, 929.9980
423.9864, 931.2962
424.4685, 936.6377
424.9506, 948.6676
425.4327, 967.8125
425.9148, 985.6537
426.3969, 998.6943
426.8791, 1014.392
427.3612, 1041.376
427.8433, 1086.236
428.3254, 1120.719
428.8075, 1137.498
429.2896, 1142.421
429.7718, 1155.492
430.2539, 1178.047
430.7360, 1201.629
431.2181, 1218.296
431.7002, 1229.146
432.1823, 1250.144
432.6645, 1282.291
433.1466, 1324.075
433.6287, 1366.968
434.1108, 1414.490
434.5929, 1486.263
435.0750, 1602.373
435.5572, 1742.081
436.0393, 1871.416
436.5214, 1990.620
437.0035, 2105.301
437.4856, 2216.664
437.9677, 2326.060
438.4499, 2431.742
438.9320, 2520.608
439.4141, 2627.266
439.8962, 2752.910
440.3783, 2912.751
440.8604, 3149.832
441.3426, 3412.958
441.8247, 3808.825
442.3068, 4472.773
442.7889, 5510.864
443.2710, 6372.019
443.7531, 7148.017
444.2353, 7576.930
444.7174, 7382.003
445.1995, 5852.921
445.6816, 4429.816
446.1637, 3316.743
446.6458, 2511.435
447.1280, 1910.788
447.6101, 1581.615
448.0922, 1382.844
448.5743, 1250.723
449.0564, 1207.289
449.5385, 1169.783
450.0207, 1137.110
450.5028, 1108.466
450.9849, 1081.468
451.4670, 1055.184
451.9491, 1036.619
452.4312, 1030.662
452.9134, 1035.686
453.3955, 1038.075
453.8776, 1037.258
454.3597, 1037.784
454.8418, 1047.461
455.3239, 1063.239
455.8061, 1070.744
456.2882, 1062.592
456.7703, 1051.376
457.2524, 1056.397
457.7345, 1074.595
458.2166, 1093.705
458.6988, 1103.339
459.1809, 1111.504
459.6630, 1126.055
460.1451, 1147.944
460.6272, 1176.314
461.1093, 1205.769
461.5915, 1242.702
462.0736, 1294.641
462.5557, 1371.744
463.0378, 1456.765
463.5199, 1575.101
464.0020, 1712.060
464.4842, 1764.873
464.9663, 1650.993
465.4484, 1491.565
465.9305, 1347.087
466.4126, 1208.375
466.8947, 1102.592
467.3769, 1036.786
467.8590, 1000.957
468.3411, 980.5726
468.8232, 983.2308
469.3053, 986.4830
469.7874, 983.7786
470.2696, 975.6404
470.7517, 972.7749
471.2338, 976.9922
471.7159, 980.9359
472.1980, 975.9717
472.6801, 962.4254
473.1623, 955.7072
473.6444, 959.2151
474.1265, 967.9249
474.6086, 972.7916
475.0907, 974.6595
475.5728, 978.9875
476.0550, 992.8824
476.5371, 1009.649
477.0192, 1016.684
477.5013, 1013.494
477.9834, 1010.047
478.4655, 1012.384
478.9477, 1019.626
479.4298, 1030.751
479.9119, 1048.046
480.3940, 1066.032
480.8761, 1081.973
481.3582, 1096.303
481.8404, 1110.063
482.3225, 1130.559
482.8046, 1144.791
483.2867, 1147.004
483.7688, 1135.676
484.2509, 1115.875
484.7331, 1076.271
485.2152, 1034.528
485.6973, 1006.913
486.1794, 1002.502
486.6615, 996.5723
487.1436, 984.3636
487.6258, 967.8926
488.1079, 957.0315
488.5900, 953.1706
489.0721, 951.2899
489.5542, 948.9247
490.0363, 946.0605
490.5185, 943.2712
491.0006, 940.5381
491.4827, 938.0693
491.9648, 935.5571
492.4470, 933.3154
492.9291, 933.3288
493.4112, 937.4148
493.8933, 943.1338
494.3754, 946.7026
494.8575, 948.3851
495.3397, 949.6293
495.8218, 950.3717
496.3039, 951.7023
496.7860, 955.5895
497.2681, 963.5570
497.7502, 969.3730
498.2324, 967.6528
498.7145, 962.4097
499.1966, 959.0671
499.6787, 960.3473
500.1608, 962.6589
500.6429, 965.7507
501.1251, 969.4331
501.6072, 971.2701
502.0893, 967.7280
502.5714, 965.3167
503.0535, 967.8463
503.5356, 980.1542
504.0178, 985.1300
504.4999, 978.6633
504.9820, 968.5637
505.4641, 966.8384
505.9462, 974.6457
506.4283, 984.8063
506.9105, 995.6097
507.3926, 1007.080
507.8747, 1018.623
508.3568, 1030.159
508.8389, 1044.258
509.3210, 1065.509
509.8032, 1091.011
510.2853, 1110.393
510.7674, 1119.689
511.2495, 1134.345
511.7316, 1173.693
512.2137, 1230.130
512.6959, 1287.424
513.1780, 1336.637
513.6601, 1386.797
514.1422, 1441.582
514.6243, 1501.594
515.1064, 1570.277
515.5886, 1654.785
516.0707, 1744.659
516.5528, 1833.366
517.0349, 1922.880
517.5170, 2006.974
517.9991, 2076.151
518.4813, 2142.480
518.9634, 2219.681
519.4455, 2301.812
519.9276, 2403.378
520.4097, 2517.863
520.8918, 2650.695
521.3740, 2846.805
521.8561, 3100.262
522.3382, 3436.711
522.8203, 3926.504
523.3024, 4551.284
523.7845, 5117.697
524.2667, 5663.376
524.7488, 5969.434
525.2309, 5672.811
525.7130, 4897.515
526.1951, 4075.422
526.6772, 3274.893
527.1594, 2567.825
527.6415, 2058.185
528.1236, 1729.138
528.6057, 1496.790
529.0878, 1360.630
529.5699, 1275.775
530.0521, 1215.647
530.5342, 1179.474
531.0163, 1152.256
531.4984, 1134.791
531.9805, 1121.139
532.4626, 1104.895
532.9448, 1076.738
533.4269, 1056.362
533.9090, 1049.580
534.3911, 1052.570
534.8732, 1050.349
535.3553, 1039.738
535.8375, 1029.845
536.3196, 1025.874
536.8017, 1028.293
537.2838, 1024.290
537.7659, 1011.944
538.2480, 999.3904
538.7302, 995.6443
539.2123, 999.7808
539.6944, 1006.575
540.1765, 1017.050
540.6586, 1025.728
541.1407, 1022.463
541.6229, 1010.246
542.1050, 999.8151
542.5871, 998.8264
543.0692, 1000.957
543.5513, 999.8206
544.0334, 995.1451
544.5156, 993.0137
544.9977, 1000.927
545.4798, 1009.884
545.9619, 1012.488
546.4440, 1002.147
546.9261, 993.1683
547.4083, 985.5811
547.8904, 980.9813
548.3725, 983.1458
548.8546, 1000.613
549.3367, 1010.430
549.8188, 1003.487
550.3010, 981.9795
550.7831, 973.0942
551.2652, 980.0247
551.7473, 988.9388
552.2294, 988.6234
552.7115, 980.3163
553.1937, 976.8651
553.6758, 979.8983
554.1579, 985.2482
554.6400, 988.2886
555.1221, 989.5200
555.6042, 990.3267
556.0864, 991.2291
556.5685, 991.9152
557.0506, 991.8558
557.5327, 991.2578
558.0148, 990.8907
558.4969, 991.4080
558.9791, 992.0632
559.4612, 992.0088
559.9433, 990.6806
560.4254, 991.1464
560.9075, 995.5190
561.3896, 1001.063
561.8718, 1005.446
562.3539, 1008.487
562.8360, 1010.435
563.3181, 1009.906
563.8002, 1008.936
564.2823, 1013.740
564.7645, 1026.128
565.2466, 1035.833
565.7287, 1037.202
566.2108, 1032.404
566.6929, 1032.113
567.1750, 1036.442
567.6572, 1042.800
568.1393, 1051.188
568.6214, 1059.619
569.1035, 1062.976
569.5856, 1059.360
570.0677, 1055.319
570.5499, 1055.487
571.0320, 1058.965
571.5141, 1064.306
571.9962, 1071.403
572.4783, 1079.833
572.9604, 1088.474
573.4426, 1097.868
573.9247, 1111.114
574.4068, 1133.195
574.8889, 1155.085
575.3710, 1174.316
575.8531, 1191.631
576.3353, 1201.510
576.8174, 1203.807
577.2995, 1198.735
577.7816, 1185.462
578.2637, 1163.541
578.7458, 1137.071
579.2280, 1103.895
579.7101, 1071.456
580.1922, 1055.493
580.6743, 1053.512
581.1564, 1051.419
581.6385, 1039.791
582.1207, 1025.898
582.6028, 1018.855
583.0849, 1018.414
583.5670, 1022.066
584.0491, 1033.952
584.5313, 1045.770
585.0134, 1050.133
585.4955, 1043.208
585.9776, 1037.787
586.4597, 1038.487
586.9418, 1041.788
587.4240, 1043.618
587.9061, 1041.359
588.3882, 1041.644
588.8703, 1046.705
589.3524, 1054.349
589.8345, 1057.095
590.3167, 1052.998
590.7988, 1051.686
591.2809, 1059.818
591.7630, 1074.543
592.2451, 1078.179
592.7272, 1070.189
593.2094, 1064.216
593.6915, 1075.880
594.1736, 1096.771
594.6557, 1109.060
595.1378, 1107.031
595.6199, 1107.561
596.1021, 1125.123
596.5842, 1152.707
597.0663, 1180.430
597.5485, 1201.834
598.0306, 1225.803
598.5127, 1268.473
598.9948, 1319.582
599.4769, 1334.750
599.9590, 1285.256
600.4412, 1231.923
600.9233, 1192.664
601.4054, 1167.567
601.8875, 1152.454
602.3696, 1148.957
602.8517, 1151.770
603.3339, 1158.177
603.8160, 1167.853
604.2981, 1174.760
604.7802, 1176.873
605.2623, 1180.708
605.7444, 1195.300
606.2266, 1218.495
606.7087, 1243.912
607.1908, 1272.863
607.6729, 1299.848
608.1550, 1317.354
608.6371, 1328.793
609.1193, 1345.863
609.6014, 1378.089
610.0835, 1412.823
610.5656, 1439.605
611.0477, 1454.466
611.5298, 1489.352
612.0120, 1553.251
612.4941, 1628.734
612.9762, 1704.629
613.4583, 1780.584
613.9404, 1863.135
614.4225, 1965.142
614.9047, 2050.500
615.3868, 2068.665
615.8689, 2021.778
616.3510, 1932.366
616.8331, 1790.983
617.3152, 1631.966
617.7974, 1499.094
618.2795, 1392.414
618.7616, 1304.662
619.2437, 1233.093
619.7258, 1178.560
620.2079, 1144.897
620.6901, 1132.257
621.1722, 1124.165
621.6543, 1117.701
622.1364, 1111.945
622.6185, 1106.713
623.1006, 1103.843
623.5828, 1096.711
624.0649, 1080.770
624.5470, 1064.739
625.0291, 1060.666
625.5112, 1071.385
625.9933, 1078.710
626.4755, 1078.681
626.9576, 1074.363
627.4397, 1071.247
627.9218, 1069.325
628.4039, 1068.529
628.8860, 1071.993
629.3682, 1074.895
