##NAMES=Phillipsite-Na
##RRUFFID=R070271
##IDEAL CHEMISTRY=Na_6_(Si_10_Al_6_)O_32_&#183;12H_2_O
##LOCALITY=Etsumi, Ogi, Sado Island, Niigata Prefecture, Chubu Region, Honshu Island, Japan
##OWNER=RRUFF
##SOURCE=Michael Scott
##DESCRIPTION=Spherical radiating aggregates of clear colorless prismatic crystals with pyramidal terminations; sample is from the Tiba et al (1995) study, co-type specimen
##STATUS=The identification of this mineral is confirmed by single-crystal X-ray diffraction and chemical analysis.
##URL=rruff.info/R070271
##MEASURED CHEMISTRY=(Na_2.97_K_1.64_[box]_1.23_Ca_0.16_)_Σ=6_(Si_11.07_Al_4.93_)O_32_·6.23H_2_O
134.7162, 2313.896
135.1983, 2374.764
135.6804, 2427.924
136.1626, 2472.268
136.6447, 2509.599
137.1268, 2542.928
137.6089, 2572.125
138.0910, 2596.850
138.5731, 2618.012
139.0553, 2637.952
139.5374, 2643.692
140.0195, 2630.076
140.5016, 2602.320
140.9837, 2580.638
141.4658, 2565.061
141.9480, 2555.172
142.4301, 2551.957
142.9122, 2560.187
143.3943, 2564.624
143.8764, 2560.605
144.3585, 2548.505
144.8407, 2546.180
145.3228, 2559.325
145.8049, 2577.957
146.2870, 2592.428
146.7691, 2595.631
147.2512, 2603.793
147.7334, 2621.852
148.2155, 2653.622
148.6976, 2678.848
149.1797, 2691.736
149.6618, 2699.780
150.1439, 2712.752
150.6261, 2734.888
151.1082, 2758.000
151.5903, 2780.588
152.0724, 2804.376
152.5545, 2823.489
153.0366, 2836.537
153.5188, 2844.541
154.0009, 2849.481
154.4830, 2853.306
154.9651, 2852.934
155.4472, 2846.557
155.9293, 2828.625
156.4115, 2812.629
156.8936, 2803.312
157.3757, 2798.509
157.8578, 2790.572
158.3399, 2771.362
158.8221, 2751.750
159.3042, 2738.670
159.7863, 2742.642
160.2684, 2744.725
160.7505, 2735.855
161.2326, 2717.657
161.7148, 2703.344
162.1969, 2701.010
162.6790, 2704.241
163.1611, 2706.854
163.6432, 2706.381
164.1253, 2705.121
164.6075, 2704.120
165.0896, 2703.409
165.5717, 2702.871
166.0538, 2701.205
166.5359, 2699.894
167.0180, 2701.027
167.5002, 2707.717
167.9823, 2715.766
168.4644, 2723.845
168.9465, 2732.725
169.4286, 2735.585
169.9107, 2717.144
170.3929, 2688.582
170.8750, 2672.996
171.3571, 2697.380
171.8392, 2734.343
172.3213, 2753.045
172.8034, 2746.018
173.2856, 2732.045
173.7677, 2727.850
174.2498, 2731.127
174.7319, 2734.026
175.2140, 2732.118
175.6961, 2726.777
176.1783, 2719.822
176.6604, 2711.230
177.1425, 2701.904
177.6246, 2690.770
178.1067, 2678.740
178.5888, 2671.032
179.0710, 2676.451
179.5531, 2689.079
180.0352, 2695.262
180.5173, 2689.318
180.9994, 2677.841
181.4815, 2669.697
181.9637, 2664.878
182.4458, 2665.268
182.9279, 2677.377
183.4100, 2697.376
183.8921, 2710.568
184.3742, 2708.833
184.8564, 2699.344
185.3385, 2700.405
185.8206, 2712.813
186.3027, 2726.187
186.7848, 2728.798
187.2669, 2722.002
187.7491, 2716.454
188.2312, 2718.419
188.7133, 2724.635
189.1954, 2720.884
189.6775, 2705.313
190.1596, 2688.171
190.6418, 2682.146
191.1239, 2687.084
191.6060, 2694.585
192.0881, 2704.221
192.5702, 2714.978
193.0524, 2716.215
193.5345, 2705.717
194.0166, 2691.475
194.4987, 2685.070
194.9808, 2686.702
195.4629, 2693.194
195.9451, 2707.559
196.4272, 2729.621
196.9093, 2737.067
197.3914, 2725.305
197.8735, 2705.045
198.3556, 2696.770
198.8378, 2701.898
199.3199, 2710.001
199.8020, 2716.969
200.2841, 2722.951
200.7662, 2724.201
201.2483, 2719.293
201.7305, 2710.635
202.2126, 2703.177
202.6947, 2696.279
203.1768, 2692.969
203.6589, 2697.308
204.1410, 2711.134
204.6232, 2719.214
205.1053, 2719.636
205.5874, 2713.703
206.0695, 2704.530
206.5516, 2690.443
207.0337, 2677.516
207.5159, 2669.475
207.9980, 2666.527
208.4801, 2669.069
208.9622, 2680.755
209.4443, 2697.914
209.9264, 2700.723
210.4086, 2683.842
210.8907, 2663.269
211.3728, 2652.642
211.8549, 2656.049
212.3370, 2654.431
212.8191, 2641.583
213.3013, 2620.101
213.7834, 2612.779
214.2655, 2625.997
214.7476, 2643.154
215.2297, 2649.003
215.7118, 2638.865
216.1940, 2630.695
216.6761, 2628.763
217.1582, 2632.620
217.6403, 2631.722
218.1224, 2623.378
218.6045, 2613.892
219.0867, 2610.105
219.5688, 2615.642
220.0509, 2618.143
220.5330, 2613.434
221.0151, 2601.181
221.4972, 2595.304
221.9794, 2598.717
222.4615, 2605.184
222.9436, 2607.548
223.4257, 2602.471
223.9078, 2600.279
224.3899, 2604.113
224.8721, 2614.619
225.3542, 2623.911
225.8363, 2634.597
226.3184, 2641.696
226.8005, 2637.101
227.2827, 2609.960
227.7648, 2592.345
228.2469, 2596.479
228.7290, 2627.069
229.2111, 2641.696
229.6932, 2632.145
230.1754, 2613.127
230.6575, 2603.759
231.1396, 2608.058
231.6217, 2615.165
232.1038, 2622.868
232.5859, 2631.642
233.0681, 2638.867
233.5502, 2646.616
234.0323, 2651.343
234.5144, 2646.390
234.9965, 2623.214
235.4786, 2604.934
235.9608, 2599.797
236.4429, 2611.315
236.9250, 2619.839
237.4071, 2624.617
237.8892, 2626.792
238.3713, 2627.944
238.8535, 2627.292
239.3356, 2626.970
239.8177, 2628.264
240.2998, 2632.578
240.7819, 2632.679
241.2640, 2625.826
241.7462, 2616.356
242.2283, 2612.042
242.7104, 2616.009
243.1925, 2619.971
243.6746, 2620.807
244.1567, 2616.875
244.6389, 2615.574
245.1210, 2618.031
245.6031, 2622.436
246.0852, 2625.571
246.5673, 2626.805
247.0494, 2627.868
247.5316, 2629.826
248.0137, 2633.963
248.4958, 2634.289
248.9779, 2628.705
249.4600, 2620.482
249.9421, 2615.527
250.4243, 2613.663
250.9064, 2615.356
251.3885, 2622.324
251.8706, 2638.485
252.3527, 2646.409
252.8348, 2643.227
253.3170, 2633.624
253.7991, 2625.915
254.2812, 2619.617
254.7633, 2616.281
255.2454, 2616.741
255.7275, 2621.599
256.2097, 2628.561
256.6918, 2639.846
257.1739, 2651.638
257.6560, 2656.696
258.1381, 2653.187
258.6202, 2646.625
259.1024, 2637.362
259.5845, 2622.870
260.0666, 2617.449
260.5487, 2625.406
261.0308, 2639.178
261.5129, 2643.398
261.9951, 2632.005
262.4772, 2625.611
262.9593, 2636.754
263.4414, 2673.635
263.9235, 2687.134
264.4056, 2668.362
264.8878, 2634.584
265.3699, 2615.452
265.8520, 2613.606
266.3341, 2618.519
266.8162, 2628.979
267.2983, 2647.246
267.7805, 2654.809
268.2626, 2647.744
268.7447, 2634.238
269.2268, 2628.886
269.7089, 2633.851
270.1910, 2639.195
270.6732, 2640.354
271.1553, 2636.523
271.6374, 2636.806
272.1195, 2642.278
272.6016, 2650.300
273.0837, 2656.252
273.5659, 2659.651
274.0480, 2663.653
274.5301, 2671.151
275.0122, 2682.449
275.4943, 2685.685
275.9764, 2678.361
276.4586, 2667.676
276.9407, 2664.808
277.4228, 2670.573
277.9049, 2677.252
278.3870, 2681.606
278.8691, 2683.806
279.3513, 2688.647
279.8334, 2697.319
280.3155, 2705.573
280.7976, 2706.329
281.2798, 2699.215
281.7619, 2693.190
282.2440, 2692.182
282.7261, 2695.471
283.2082, 2697.588
283.6903, 2698.397
284.1725, 2698.538
284.6546, 2698.067
285.1367, 2697.077
285.6188, 2697.903
286.1009, 2702.132
286.5830, 2708.920
287.0652, 2714.956
287.5473, 2720.246
288.0294, 2724.413
288.5115, 2726.214
288.9936, 2726.007
289.4757, 2726.753
289.9579, 2730.478
290.4400, 2735.615
290.9221, 2737.791
291.4042, 2736.888
291.8863, 2734.508
292.3684, 2730.583
292.8506, 2726.016
293.3327, 2724.858
293.8148, 2730.571
294.2969, 2739.203
294.7790, 2741.882
295.2611, 2738.605
295.7433, 2736.054
296.2254, 2743.839
296.7075, 2757.433
297.1896, 2763.548
297.6717, 2755.196
298.1538, 2740.339
298.6360, 2728.326
299.1181, 2719.342
299.6002, 2716.821
300.0823, 2727.007
300.5644, 2745.089
301.0465, 2762.571
301.5287, 2779.235
302.0108, 2791.871
302.4929, 2794.379
302.9750, 2788.193
303.4571, 2781.396
303.9392, 2779.181
304.4214, 2779.695
304.9035, 2780.443
305.3856, 2780.820
305.8677, 2781.295
306.3498, 2779.879
306.8319, 2778.171
307.3141, 2781.889
307.7962, 2801.476
308.2783, 2824.786
308.7604, 2839.808
309.2425, 2841.958
309.7246, 2839.580
310.2068, 2835.925
310.6889, 2831.630
311.1710, 2828.302
311.6531, 2825.681
312.1352, 2824.946
312.6173, 2827.992
313.0995, 2837.083
313.5816, 2844.066
314.0637, 2844.379
314.5458, 2839.987
315.0279, 2834.626
315.5100, 2823.927
315.9922, 2817.007
316.4743, 2820.420
316.9564, 2837.678
317.4385, 2853.785
317.9206, 2865.228
318.4027, 2872.238
318.8849, 2875.134
319.3670, 2868.789
319.8491, 2862.931
320.3312, 2861.459
320.8133, 2865.307
321.2954, 2869.600
321.7776, 2873.579
322.2597, 2877.487
322.7418, 2881.585
323.2239, 2890.078
323.7060, 2894.605
324.1881, 2890.739
324.6703, 2877.324
325.1524, 2869.151
325.6345, 2868.223
326.1166, 2872.498
326.5987, 2880.414
327.0808, 2898.907
327.5630, 2912.834
328.0451, 2919.397
328.5272, 2918.900
329.0093, 2918.010
329.4914, 2918.121
329.9735, 2916.617
330.4557, 2911.628
330.9378, 2901.146
331.4199, 2890.183
331.9020, 2875.638
332.3841, 2860.274
332.8662, 2859.181
333.3484, 2880.901
333.8305, 2903.955
334.3126, 2915.839
334.7947, 2911.630
335.2768, 2911.455
335.7589, 2918.164
336.2411, 2928.420
336.7232, 2933.753
337.2053, 2932.990
337.6874, 2930.606
338.1695, 2927.142
338.6516, 2921.770
339.1338, 2924.083
339.6159, 2936.913
340.0980, 2953.196
340.5801, 2960.126
341.0622, 2956.883
341.5443, 2952.399
342.0265, 2948.930
342.5086, 2946.816
342.9907, 2950.476
343.4728, 2961.165
343.9549, 2972.576
344.4370, 2974.602
344.9192, 2968.489
345.4013, 2966.650
345.8834, 2977.323
346.3655, 2994.329
346.8476, 2999.258
347.3297, 2991.750
347.8119, 2982.492
348.2940, 2981.031
348.7761, 2985.839
349.2582, 2992.870
349.7403, 3003.960
350.2225, 3013.834
350.7046, 3010.752
351.1867, 2996.746
351.6688, 2987.703
352.1509, 3003.714
352.6331, 3029.772
353.1152, 3041.239
353.5973, 3025.108
354.0794, 3007.353
354.5615, 3015.017
355.0436, 3040.964
355.5258, 3063.472
356.0079, 3067.623
356.4900, 3064.768
356.9721, 3064.729
357.4542, 3069.731
357.9363, 3075.110
358.4185, 3079.014
358.9006, 3081.443
359.3827, 3082.400
359.8648, 3078.058
360.3469, 3075.276
360.8290, 3078.999
361.3112, 3090.812
361.7933, 3100.523
362.2754, 3102.213
362.7575, 3101.203
363.2396, 3103.291
363.7217, 3109.532
364.2039, 3119.214
364.6860, 3135.298
365.1681, 3157.895
365.6502, 3173.267
366.1323, 3175.729
366.6144, 3173.139
367.0966, 3170.854
367.5787, 3168.678
368.0608, 3167.303
368.5429, 3166.440
369.0250, 3166.313
369.5071, 3167.989
369.9893, 3171.094
370.4714, 3176.391
370.9535, 3185.082
371.4356, 3201.109
371.9177, 3210.697
372.3998, 3209.768
372.8820, 3204.312
373.3641, 3208.903
373.8462, 3228.057
374.3283, 3245.460
374.8104, 3253.468
375.2925, 3251.103
375.7747, 3251.512
376.2568, 3254.842
376.7389, 3260.655
377.2210, 3268.550
377.7031, 3278.578
378.1852, 3290.205
378.6674, 3305.487
379.1495, 3322.148
379.6316, 3329.012
380.1137, 3325.034
380.5958, 3320.203
381.0779, 3325.839
381.5601, 3339.519
382.0422, 3347.896
382.5243, 3344.864
383.0064, 3339.374
383.4885, 3346.644
383.9706, 3365.706
384.4528, 3388.874
384.9349, 3418.155
385.4170, 3446.453
385.8991, 3459.976
386.3812, 3452.610
386.8633, 3444.063
387.3455, 3454.506
387.8276, 3477.894
388.3097, 3500.641
388.7918, 3514.539
389.2739, 3525.701
389.7560, 3540.904
390.2382, 3561.476
390.7203, 3576.177
391.2024, 3570.583
391.6845, 3558.595
392.1666, 3556.191
392.6487, 3580.179
393.1309, 3604.005
393.6130, 3615.207
394.0951, 3614.924
394.5772, 3617.685
395.0593, 3627.108
395.5414, 3640.791
396.0236, 3657.196
396.5057, 3687.659
396.9878, 3707.186
397.4699, 3706.771
397.9520, 3692.733
398.4341, 3684.889
398.9163, 3685.055
399.3984, 3689.533
399.8805, 3696.541
400.3626, 3704.265
400.8447, 3720.784
401.3268, 3752.316
401.8090, 3788.028
402.2911, 3812.695
402.7732, 3822.708
403.2553, 3830.128
403.7374, 3835.885
404.2195, 3840.531
404.7017, 3854.360
405.1838, 3878.205
405.6659, 3909.344
406.1480, 3951.915
406.6301, 4006.586
407.1122, 4040.245
407.5944, 4039.917
408.0765, 4022.471
408.5586, 4029.141
409.0407, 4059.533
409.5228, 4094.129
410.0049, 4121.006
410.4871, 4141.849
410.9692, 4160.659
411.4513, 4177.019
411.9334, 4194.915
412.4155, 4220.891
412.8976, 4252.835
413.3798, 4283.548
413.8619, 4311.053
414.3440, 4335.506
414.8261, 4355.968
415.3082, 4372.573
415.7903, 4390.381
416.2725, 4414.341
416.7546, 4440.867
417.2367, 4466.649
417.7188, 4494.823
418.2009, 4516.726
418.6830, 4524.772
419.1652, 4522.186
419.6473, 4520.467
420.1294, 4521.754
420.6115, 4526.188
421.0937, 4535.469
421.5758, 4556.442
422.0579, 4567.477
422.5400, 4559.209
423.0221, 4540.744
423.5042, 4526.806
423.9864, 4521.476
424.4685, 4516.820
424.9506, 4511.055
425.4327, 4504.135
425.9148, 4498.239
426.3969, 4496.819
426.8791, 4492.507
427.3612, 4475.797
427.8433, 4438.079
428.3254, 4416.672
428.8075, 4423.352
429.2896, 4447.419
429.7718, 4451.457
430.2539, 4432.916
430.7360, 4408.414
431.2181, 4386.993
431.7002, 4368.400
432.1823, 4346.814
432.6645, 4319.680
433.1466, 4297.072
433.6287, 4299.333
434.1108, 4321.198
434.5929, 4336.176
435.0750, 4324.536
435.5572, 4302.905
436.0393, 4304.496
436.5214, 4328.179
437.0035, 4350.063
437.4856, 4344.549
437.9677, 4327.502
438.4499, 4322.151
438.9320, 4341.088
439.4141, 4361.655
439.8962, 4364.256
440.3783, 4355.550
440.8604, 4352.785
441.3426, 4367.466
441.8247, 4387.318
442.3068, 4405.594
442.7889, 4421.041
443.2710, 4437.386
443.7531, 4457.369
444.2353, 4478.030
444.7174, 4496.443
445.1995, 4503.860
445.6816, 4517.864
446.1637, 4542.231
446.6458, 4576.146
447.1280, 4614.727
447.6101, 4663.758
448.0922, 4711.247
448.5743, 4749.046
449.0564, 4771.558
449.5385, 4800.510
450.0207, 4837.829
450.5028, 4880.435
450.9849, 4922.664
451.4670, 4963.948
451.9491, 5005.854
452.4312, 5049.875
452.9134, 5095.275
453.3955, 5136.576
453.8776, 5172.896
454.3597, 5210.324
454.8418, 5252.330
455.3239, 5299.786
455.8061, 5355.355
456.2882, 5422.899
456.7703, 5494.857
457.2524, 5563.010
457.7345, 5626.904
458.2166, 5686.266
458.6988, 5736.623
459.1809, 5783.924
459.6630, 5832.735
460.1451, 5883.658
460.6272, 5938.947
461.1093, 6007.803
461.5915, 6079.269
462.0736, 6138.287
462.5557, 6161.904
463.0378, 6189.972
463.5199, 6240.205
464.0020, 6309.620
464.4842, 6376.479
464.9663, 6436.138
465.4484, 6491.589
465.9305, 6544.530
466.4126, 6594.867
466.8947, 6643.942
467.3769, 6689.032
467.8590, 6733.834
468.3411, 6786.473
468.8232, 6854.001
469.3053, 6914.372
469.7874, 6958.658
470.2696, 6988.304
470.7517, 7031.064
471.2338, 7089.182
471.7159, 7153.036
472.1980, 7218.319
472.6801, 7284.893
473.1623, 7334.513
473.6444, 7359.999
474.1265, 7377.355
474.6086, 7415.554
475.0907, 7471.828
475.5728, 7528.275
476.0550, 7576.109
476.5371, 7618.030
477.0192, 7658.973
477.5013, 7699.390
477.9834, 7733.230
478.4655, 7752.497
478.9477, 7763.481
479.4298, 7774.588
479.9119, 7794.404
480.3940, 7807.461
480.8761, 7800.501
481.3582, 7779.657
481.8404, 7762.598
482.3225, 7776.531
482.8046, 7777.842
483.2867, 7741.782
483.7688, 7652.922
484.2509, 7573.113
484.7331, 7510.720
485.2152, 7458.339
485.6973, 7409.204
486.1794, 7372.773
486.6615, 7323.133
487.1436, 7255.290
487.6258, 7171.209
488.1079, 7076.603
488.5900, 6966.321
489.0721, 6861.290
489.5542, 6777.540
490.0363, 6714.965
490.5185, 6641.626
491.0006, 6556.573
491.4827, 6463.239
491.9648, 6363.344
492.4470, 6258.466
492.9291, 6159.069
493.4112, 6072.801
493.8933, 5992.611
494.3754, 5910.459
494.8575, 5826.110
495.3397, 5743.072
495.8218, 5660.371
496.3039, 5580.330
496.7860, 5505.941
497.2681, 5436.123
497.7502, 5373.252
498.2324, 5325.000
498.7145, 5282.215
499.1966, 5231.510
499.6787, 5155.090
500.1608, 5084.685
500.6429, 5031.298
501.1251, 4994.280
501.6072, 4959.976
502.0893, 4927.021
502.5714, 4896.457
503.0535, 4869.990
503.5356, 4854.342
504.0178, 4825.602
504.4999, 4776.482
504.9820, 4721.144
505.4641, 4681.496
505.9462, 4660.583
506.4283, 4639.712
506.9105, 4611.727
507.3926, 4580.317
507.8747, 4561.776
508.3568, 4556.594
508.8389, 4554.366
509.3210, 4548.082
509.8032, 4538.658
510.2853, 4528.525
510.7674, 4517.990
511.2495, 4506.728
511.7316, 4494.708
512.2137, 4481.644
512.6959, 4467.178
513.1780, 4444.582
513.6601, 4425.842
514.1422, 4422.248
514.6243, 4431.510
515.1064, 4437.662
515.5886, 4431.351
516.0707, 4422.163
516.5528, 4416.378
517.0349, 4418.171
517.5170, 4416.188
517.9991, 4404.410
518.4813, 4390.224
518.9634, 4383.792
519.4455, 4393.408
519.9276, 4395.935
520.4097, 4382.205
520.8918, 4356.529
521.3740, 4347.645
521.8561, 4359.432
522.3382, 4375.149
522.8203, 4385.269
523.3024, 4389.846
523.7845, 4391.193
524.2667, 4389.397
524.7488, 4384.396
525.2309, 4373.793
525.7130, 4359.365
526.1951, 4347.494
526.6772, 4340.736
527.1594, 4337.115
527.6415, 4334.538
528.1236, 4333.164
528.6057, 4333.658
529.0878, 4339.531
529.5699, 4345.374
530.0521, 4346.195
530.5342, 4339.909
531.0163, 4335.298
531.4984, 4340.404
531.9805, 4346.333
532.4626, 4343.669
532.9448, 4319.527
533.4269, 4300.643
533.9090, 4290.622
534.3911, 4288.088
534.8732, 4289.225
535.3553, 4298.654
535.8375, 4302.880
536.3196, 4292.294
536.8017, 4265.355
537.2838, 4256.454
537.7659, 4270.087
538.2480, 4286.651
538.7302, 4279.732
539.2123, 4253.863
539.6944, 4242.042
540.1765, 4255.211
540.6586, 4278.518
541.1407, 4296.239
541.6229, 4307.592
542.1050, 4310.204
542.5871, 4294.392
543.0692, 4274.778
543.5513, 4265.160
544.0334, 4266.293
544.5156, 4268.626
544.9977, 4269.085
545.4798, 4268.110
545.9619, 4265.711
546.4440, 4257.023
546.9261, 4254.162
547.4083, 4264.102
547.8904, 4279.898
548.3725, 4288.578
548.8546, 4284.764
549.3367, 4282.897
549.8188, 4287.668
550.3010, 4298.196
550.7831, 4304.251
551.2652, 4305.539
551.7473, 4303.313
552.2294, 4297.168
552.7115, 4287.578
553.1937, 4279.239
553.6758, 4272.345
554.1579, 4267.440
554.6400, 4266.458
555.1221, 4268.143
555.6042, 4268.735
556.0864, 4264.342
556.5685, 4260.865
557.0506, 4263.434
557.5327, 4271.596
558.0148, 4283.740
558.4969, 4306.578
558.9791, 4327.554
559.4612, 4337.193
559.9433, 4331.854
560.4254, 4329.120
560.9075, 4335.464
561.3896, 4343.905
561.8718, 4348.710
562.3539, 4351.946
562.8360, 4346.996
563.3181, 4327.473
563.8002, 4302.330
564.2823, 4295.127
564.7645, 4310.004
565.2466, 4324.282
565.7287, 4326.577
566.2108, 4320.710
566.6929, 4328.020
567.1750, 4349.043
567.6572, 4369.747
568.1393, 4375.563
568.6214, 4372.816
569.1035, 4374.734
569.5856, 4384.756
570.0677, 4394.007
570.5499, 4397.086
571.0320, 4394.194
571.5141, 4385.733
571.9962, 4364.663
572.4783, 4345.205
572.9604, 4329.413
573.4426, 4318.913
573.9247, 4321.241
574.4068, 4354.999
574.8889, 4385.959
575.3710, 4400.013
575.8531, 4393.453
576.3353, 4388.515
576.8174, 4385.043
577.2995, 4383.497
577.7816, 4385.110
578.2637, 4390.317
578.7458, 4393.207
579.2280, 4391.375
579.7101, 4389.705
580.1922, 4401.045
580.6743, 4422.374
581.1564, 4436.619
581.6385, 4430.226
582.1207, 4415.321
582.6028, 4405.858
583.0849, 4401.834
583.5670, 4402.485
584.0491, 4413.239
584.5313, 4424.757
585.0134, 4427.300
585.4955, 4413.390
585.9776, 4410.303
586.4597, 4439.513
586.9418, 4477.023
587.4240, 4494.864
587.9061, 4477.579
588.3882, 4463.879
588.8703, 4458.427
589.3524, 4459.054
589.8345, 4458.525
590.3167, 4455.155
590.7988, 4457.526
591.2809, 4473.889
591.7630, 4499.692
592.2451, 4506.423
592.7272, 4493.211
593.2094, 4482.174
593.6915, 4502.970
594.1736, 4536.751
594.6557, 4543.532
595.1378, 4511.036
595.6199, 4475.954
596.1021, 4464.036
596.5842, 4467.355
597.0663, 4474.641
597.5485, 4480.104
598.0306, 4490.987
598.5127, 4517.877
598.9948, 4554.336
599.4769, 4572.457
599.9590, 4554.668
600.4412, 4538.269
600.9233, 4537.397
601.4054, 4553.656
601.8875, 4557.263
602.3696, 4541.781
602.8517, 4529.430
603.3339, 4546.303
603.8160, 4589.202
604.2981, 4612.071
604.7802, 4606.773
605.2623, 4590.571
605.7444, 4581.361
606.2266, 4578.778
606.7087, 4582.549
607.1908, 4599.959
607.6729, 4615.933
608.1550, 4613.583
608.6371, 4599.035
609.1193, 4592.127
609.6014, 4611.622
610.0835, 4631.396
610.5656, 4636.311
611.0477, 4622.499
611.5298, 4617.808
612.0120, 4631.021
612.4941, 4645.729
612.9762, 4648.841
613.4583, 4633.211
613.9404, 4634.688
614.4225, 4662.075
614.9047, 4693.822
615.3868, 4693.093
615.8689, 4662.964
616.3510, 4645.386
616.8331, 4658.338
617.3152, 4682.555
617.7974, 4688.802
618.2795, 4680.413
618.7616, 4670.803
619.2437, 4661.125
619.7258, 4657.672
620.2079, 4668.364
620.6901, 4693.356
621.1722, 4716.133
621.6543, 4736.174
622.1364, 4748.522
622.6185, 4747.833
623.1006, 4722.275
623.5828, 4710.662
624.0649, 4721.590
624.5470, 4738.578
625.0291, 4740.050
625.5112, 4722.054
