##NAMES=Phillipsite-Ca
##RRUFFID=R050078
##IDEAL CHEMISTRY=Ca_3_(Si_10_Al_6_)O_32_&#183;12H_2_O
##LOCALITY=Grant County, Oregon, USA
##OWNER=RRUFF
##SOURCE=Rock Currier
##DESCRIPTION=White tabular hexagonal
##STATUS=The identification of this mineral has been confirmed by X-ray diffraction and chemical analysis
##URL=rruff.info/R050078
##MEASURED CHEMISTRY=(Ca_0.90_K_0.75_[box]_0.25_Na_0.10_)_Σ=2_(Si_5.35_Al_2.65_)_Σ=8_O_16_·6H_2_O
145.1252, 2548.890
145.6074, 2638.676
146.0895, 2743.842
146.5716, 2857.227
147.0537, 2977.284
147.5358, 3102.818
148.0179, 3209.657
148.5001, 3281.299
148.9822, 3346.713
149.4643, 3434.815
149.9464, 3545.781
150.4285, 3644.489
150.9106, 3702.621
151.3928, 3719.667
151.8749, 3723.821
152.3570, 3715.713
152.8391, 3695.726
153.3212, 3658.841
153.8033, 3604.175
154.2855, 3550.077
154.7676, 3510.745
155.2497, 3484.236
155.7318, 3462.536
156.2139, 3456.666
156.6960, 3449.018
157.1782, 3412.961
157.6603, 3342.963
158.1424, 3274.100
158.6245, 3234.106
159.1066, 3216.383
159.5887, 3208.743
160.0709, 3213.439
160.5530, 3224.662
161.0351, 3235.641
161.5172, 3247.208
161.9993, 3254.599
162.4814, 3251.077
162.9636, 3241.016
163.4457, 3231.737
163.9278, 3221.860
164.4099, 3215.413
164.8920, 3222.800
165.3741, 3249.650
165.8563, 3274.438
166.3384, 3281.432
166.8205, 3277.585
167.3026, 3273.719
167.7847, 3272.386
168.2668, 3274.366
168.7490, 3282.941
169.2311, 3302.181
169.7132, 3318.746
170.1953, 3324.208
170.6774, 3322.880
171.1595, 3321.230
171.6417, 3323.124
172.1238, 3326.211
172.6059, 3325.314
173.0880, 3321.886
173.5701, 3310.749
174.0522, 3279.863
174.5344, 3242.410
175.0165, 3219.429
175.4986, 3226.758
175.9807, 3251.573
176.4628, 3257.264
176.9449, 3233.742
177.4271, 3208.867
177.9092, 3193.136
178.3913, 3182.880
178.8734, 3173.265
179.3555, 3161.664
179.8376, 3149.281
180.3197, 3139.469
180.8019, 3132.544
181.2840, 3127.990
181.7661, 3124.460
182.2482, 3123.008
182.7303, 3126.323
183.2124, 3137.459
183.6946, 3151.383
184.1767, 3152.081
184.6588, 3128.849
185.1409, 3110.997
185.6230, 3106.675
186.1051, 3110.920
186.5873, 3119.603
187.0694, 3131.945
187.5515, 3144.425
188.0336, 3146.535
188.5157, 3129.009
188.9978, 3117.075
189.4800, 3121.872
189.9621, 3131.820
190.4442, 3134.139
190.9263, 3122.734
191.4084, 3103.549
191.8905, 3090.617
192.3727, 3084.930
192.8548, 3084.560
193.3369, 3091.243
193.8190, 3101.054
194.3011, 3112.552
194.7832, 3125.339
195.2654, 3134.521
195.7475, 3126.578
196.2296, 3082.442
196.7117, 3057.657
197.1938, 3074.717
197.6759, 3102.421
198.1581, 3112.378
198.6402, 3095.280
199.1223, 3064.826
199.6044, 3046.602
200.0865, 3047.450
200.5686, 3047.473
201.0508, 3045.074
201.5329, 3041.205
202.0150, 3037.488
202.4971, 3034.088
202.9792, 3028.547
203.4613, 3016.425
203.9435, 2994.731
204.4256, 2972.942
204.9077, 2952.830
205.3898, 2931.900
205.8719, 2907.438
206.3540, 2879.349
206.8362, 2850.824
207.3183, 2825.747
207.8004, 2804.363
208.2825, 2786.705
208.7646, 2779.563
209.2467, 2770.492
209.7289, 2750.752
210.2110, 2720.331
210.6931, 2686.359
211.1752, 2656.662
211.6573, 2631.825
212.1395, 2609.968
212.6216, 2594.184
213.1037, 2578.640
213.5858, 2559.997
214.0679, 2538.684
214.5500, 2517.614
215.0322, 2499.959
215.5143, 2486.493
215.9964, 2471.603
216.4785, 2452.205
216.9606, 2434.180
217.4427, 2422.322
217.9249, 2414.241
218.4070, 2402.853
218.8891, 2381.168
219.3712, 2348.744
219.8533, 2322.213
220.3354, 2303.774
220.8176, 2289.561
221.2997, 2281.164
221.7818, 2276.286
222.2639, 2271.124
222.7460, 2263.274
223.2281, 2252.711
223.7103, 2239.944
224.1924, 2225.337
224.6745, 2207.628
225.1566, 2181.168
225.6387, 2152.442
226.1208, 2131.652
226.6030, 2125.513
227.0851, 2129.977
227.5672, 2127.793
228.0493, 2111.635
228.5314, 2098.454
229.0135, 2093.662
229.4957, 2092.291
229.9778, 2089.176
230.4599, 2082.062
230.9420, 2071.140
231.4241, 2056.202
231.9062, 2033.471
232.3884, 2013.304
232.8705, 1997.260
233.3526, 1983.834
233.8347, 1970.297
234.3168, 1956.036
234.7989, 1944.815
235.2811, 1946.646
235.7632, 1975.753
236.2453, 1983.149
236.7274, 1945.234
237.2095, 1900.656
237.6916, 1876.009
238.1738, 1875.821
238.6559, 1884.855
239.1380, 1884.112
239.6201, 1870.242
240.1022, 1858.931
240.5843, 1849.060
241.0665, 1843.209
241.5486, 1845.158
242.0307, 1853.558
242.5128, 1862.195
242.9949, 1865.725
243.4770, 1864.056
243.9592, 1858.198
244.4413, 1844.193
244.9234, 1829.360
245.4055, 1814.918
245.8876, 1801.706
246.3697, 1791.279
246.8519, 1785.356
247.3340, 1783.362
247.8161, 1780.393
248.2982, 1775.407
248.7803, 1770.808
249.2624, 1768.579
249.7446, 1767.063
250.2267, 1763.310
250.7088, 1754.998
251.1909, 1744.199
251.6730, 1738.103
252.1551, 1742.149
252.6373, 1739.427
253.1194, 1717.585
253.6015, 1689.825
254.0836, 1670.686
254.5657, 1666.074
255.0478, 1669.331
255.5300, 1670.907
256.0121, 1671.067
256.4942, 1668.447
256.9763, 1660.584
257.4584, 1650.909
257.9406, 1641.823
258.4227, 1633.860
258.9048, 1625.562
259.3869, 1613.540
259.8690, 1597.372
260.3511, 1587.354
260.8333, 1590.314
261.3154, 1595.893
261.7975, 1597.793
262.2796, 1595.574
262.7617, 1589.556
263.2438, 1577.100
263.7260, 1559.862
264.2081, 1547.677
264.6902, 1542.197
265.1723, 1541.279
265.6544, 1546.016
266.1365, 1554.259
266.6187, 1558.559
267.1008, 1553.027
267.5829, 1541.610
268.0650, 1532.339
268.5471, 1525.548
269.0292, 1520.461
269.5114, 1518.742
269.9935, 1518.251
270.4756, 1514.961
270.9577, 1506.003
271.4398, 1495.329
271.9219, 1486.409
272.4041, 1479.190
272.8862, 1475.639
273.3683, 1478.873
273.8504, 1485.559
274.3325, 1489.725
274.8146, 1492.466
275.2968, 1490.150
275.7789, 1475.386
276.2610, 1452.041
276.7431, 1436.494
277.2252, 1436.142
277.7073, 1444.170
278.1895, 1448.813
278.6716, 1448.898
279.1537, 1451.473
279.6358, 1464.589
280.1179, 1480.606
280.6000, 1485.315
281.0822, 1474.844
281.5643, 1457.464
282.0464, 1439.306
282.5285, 1419.356
283.0106, 1412.842
283.4927, 1434.539
283.9749, 1462.184
284.4570, 1476.411
284.9391, 1475.676
285.4212, 1467.259
285.9033, 1455.100
286.3854, 1439.547
286.8676, 1430.307
287.3497, 1430.991
287.8318, 1433.823
288.3139, 1437.904
288.7960, 1441.360
289.2781, 1438.761
289.7603, 1426.004
290.2424, 1406.745
290.7245, 1396.817
291.2066, 1406.899
291.6887, 1412.440
292.1708, 1404.400
292.6530, 1391.742
293.1351, 1387.393
293.6172, 1395.698
294.0993, 1408.144
294.5814, 1408.986
295.0635, 1386.325
295.5457, 1374.693
296.0278, 1382.300
296.5099, 1394.181
296.9920, 1401.280
297.4741, 1401.859
297.9562, 1397.410
298.4384, 1388.315
298.9205, 1372.879
299.4026, 1364.758
299.8847, 1368.777
300.3668, 1375.029
300.8489, 1382.203
301.3311, 1388.959
301.8131, 1393.242
302.2953, 1393.398
302.7774, 1390.328
303.2595, 1388.855
303.7416, 1391.766
304.2237, 1392.013
304.7058, 1384.244
305.1880, 1375.050
305.6701, 1372.569
306.1522, 1380.006
306.6343, 1391.125
307.1164, 1394.061
307.5985, 1384.710
308.0807, 1382.488
308.5628, 1401.602
309.0449, 1421.405
309.5270, 1429.534
310.0091, 1424.963
310.4912, 1414.529
310.9734, 1402.185
311.4555, 1388.236
311.9376, 1375.803
312.4197, 1362.691
312.9018, 1355.174
313.3839, 1359.019
313.8661, 1370.938
314.3482, 1382.545
314.8303, 1392.497
315.3124, 1398.777
315.7945, 1395.562
316.2766, 1380.952
316.7588, 1367.960
317.2409, 1363.327
317.7230, 1365.152
318.2051, 1370.814
318.6872, 1382.228
319.1693, 1393.519
319.6515, 1400.692
320.1336, 1404.061
320.6157, 1404.776
321.0978, 1402.430
321.5799, 1398.795
322.0620, 1397.460
322.5442, 1399.398
323.0263, 1397.951
323.5084, 1386.265
323.9905, 1372.239
324.4726, 1366.976
324.9547, 1372.293
325.4369, 1381.263
325.9190, 1388.309
326.4011, 1393.275
326.8832, 1393.627
327.3653, 1387.878
327.8474, 1379.114
328.3296, 1365.134
328.8117, 1349.030
329.2938, 1339.647
329.7759, 1342.775
330.2580, 1355.439
330.7401, 1364.063
331.2223, 1368.779
331.7044, 1369.252
332.1865, 1361.389
332.6686, 1351.100
333.1507, 1345.325
333.6328, 1345.964
334.1150, 1348.852
334.5971, 1347.774
335.0792, 1341.412
335.5613, 1334.496
336.0434, 1323.032
336.5255, 1314.554
337.0077, 1314.449
337.4898, 1321.227
337.9719, 1329.758
338.4540, 1337.193
338.9361, 1342.915
339.4182, 1340.689
339.9004, 1324.275
340.3825, 1308.927
340.8646, 1296.835
341.3467, 1288.975
341.8288, 1287.793
342.3109, 1295.132
342.7931, 1304.875
343.2752, 1308.253
343.7573, 1304.831
344.2394, 1297.791
344.7215, 1283.705
345.2036, 1269.532
345.6858, 1261.706
346.1679, 1260.334
346.6500, 1258.623
347.1321, 1249.488
347.6142, 1236.776
348.0963, 1232.376
348.5785, 1239.674
349.0606, 1248.308
349.5427, 1247.812
350.0248, 1241.821
350.5069, 1241.460
350.9890, 1253.737
351.4712, 1268.343
351.9533, 1279.007
352.4354, 1285.354
352.9175, 1284.592
353.3996, 1273.252
353.8817, 1256.472
354.3639, 1248.258
354.8460, 1251.497
355.3281, 1255.031
355.8102, 1256.832
356.2923, 1257.453
356.7744, 1257.279
357.2566, 1256.455
357.7387, 1255.322
358.2208, 1253.902
358.7029, 1251.505
359.1850, 1253.128
359.6671, 1263.755
360.1493, 1272.851
360.6314, 1271.924
361.1135, 1265.895
361.5956, 1267.381
362.0777, 1284.972
362.5598, 1311.645
363.0420, 1320.766
363.5241, 1296.299
364.0062, 1279.719
364.4883, 1279.688
364.9704, 1286.255
365.4525, 1291.295
365.9347, 1293.017
366.4168, 1294.784
366.8989, 1301.045
367.3810, 1312.241
367.8631, 1321.500
368.3452, 1329.529
368.8274, 1334.138
369.3095, 1331.945
369.7916, 1325.783
370.2737, 1322.410
370.7558, 1325.830
371.2379, 1333.145
371.7201, 1339.137
372.2022, 1343.441
372.6843, 1350.210
373.1664, 1364.733
373.6485, 1380.395
374.1306, 1386.486
374.6128, 1379.864
375.0949, 1373.846
375.5770, 1373.057
376.0591, 1378.127
376.5412, 1392.410
377.0233, 1417.528
377.5055, 1444.773
377.9876, 1466.355
378.4697, 1481.599
378.9518, 1491.021
379.4339, 1486.543
379.9160, 1483.454
380.3982, 1494.989
380.8803, 1515.884
381.3624, 1529.554
381.8445, 1526.197
382.3266, 1512.458
382.8087, 1508.485
383.2909, 1522.545
383.7730, 1536.369
384.2551, 1551.071
384.7372, 1564.374
385.2193, 1573.807
385.7014, 1579.380
386.1836, 1583.646
386.6657, 1588.482
387.1478, 1593.633
387.6299, 1604.179
388.1120, 1628.835
388.5941, 1648.775
389.0763, 1654.749
389.5584, 1652.907
390.0405, 1652.055
390.5226, 1655.083
391.0047, 1663.327
391.4868, 1681.816
391.9690, 1712.108
392.4511, 1737.205
392.9332, 1752.423
393.4153, 1760.314
393.8974, 1759.035
394.3795, 1749.015
394.8617, 1749.078
395.3438, 1777.254
395.8259, 1818.336
396.3080, 1846.186
396.7901, 1857.949
397.2722, 1867.031
397.7544, 1883.261
398.2365, 1904.509
398.7186, 1919.766
399.2007, 1923.301
399.6828, 1927.264
400.1649, 1935.253
400.6471, 1946.984
401.1292, 1962.658
401.6113, 1982.458
402.0934, 2004.476
402.5755, 2026.787
403.0576, 2051.760
403.5398, 2068.774
404.0219, 2069.615
404.5040, 2071.411
404.9861, 2084.191
405.4682, 2105.447
405.9503, 2126.530
406.4325, 2141.390
406.9146, 2153.338
407.3967, 2174.699
407.8788, 2211.048
408.3609, 2245.397
408.8430, 2277.841
409.3252, 2305.198
409.8073, 2321.825
410.2894, 2327.838
410.7715, 2334.687
411.2536, 2351.169
411.7357, 2376.667
412.2179, 2409.694
412.7000, 2454.289
413.1821, 2496.163
413.6642, 2519.555
414.1463, 2533.501
414.6284, 2555.388
415.1106, 2590.750
415.5927, 2632.259
416.0748, 2684.421
416.5569, 2739.645
417.0390, 2769.195
417.5211, 2758.872
418.0033, 2735.477
418.4854, 2740.218
418.9675, 2784.493
419.4496, 2818.990
419.9317, 2836.045
420.4138, 2847.617
420.8960, 2862.720
421.3781, 2879.892
421.8602, 2891.760
422.3423, 2893.155
422.8244, 2886.542
423.3065, 2882.378
423.7887, 2879.706
424.2708, 2881.387
424.7529, 2896.209
425.2350, 2909.438
425.7171, 2906.925
426.1992, 2887.889
426.6814, 2864.928
427.1635, 2849.332
427.6456, 2840.501
428.1277, 2832.750
428.6098, 2825.943
429.0919, 2820.541
429.5741, 2820.634
430.0562, 2821.229
430.5383, 2813.725
431.0204, 2793.121
431.5025, 2770.508
431.9846, 2751.735
432.4668, 2738.008
432.9489, 2735.120
433.4310, 2746.215
433.9131, 2762.921
434.3952, 2776.141
434.8773, 2785.499
435.3595, 2793.899
435.8416, 2801.981
436.3237, 2808.645
436.8058, 2809.547
437.2879, 2808.424
437.7701, 2814.019
438.2522, 2830.786
438.7343, 2857.181
439.2164, 2890.579
439.6985, 2944.545
440.1806, 2980.406
440.6628, 2980.176
441.1449, 2978.395
441.6270, 2994.995
442.1091, 3030.994
442.5912, 3079.444
443.0733, 3138.356
443.5555, 3204.226
444.0376, 3261.583
444.5197, 3305.124
445.0018, 3355.158
445.4839, 3426.614
445.9660, 3505.374
446.4482, 3578.669
446.9303, 3644.463
447.4124, 3706.281
447.8945, 3761.558
448.3766, 3815.342
448.8587, 3879.457
449.3409, 3956.372
449.8230, 4034.115
450.3051, 4101.240
450.7872, 4160.393
451.2693, 4234.953
451.7514, 4334.665
452.2336, 4437.021
452.7157, 4533.899
453.1978, 4629.057
453.6799, 4730.407
454.1620, 4839.302
454.6441, 4943.950
455.1263, 5026.748
455.6084, 5081.510
456.0905, 5148.947
456.5726, 5221.479
457.0547, 5315.313
457.5368, 5455.930
458.0190, 5616.555
458.5011, 5754.506
458.9832, 5850.525
459.4653, 5924.760
459.9474, 6003.384
460.4295, 6086.101
460.9117, 6173.432
461.3938, 6266.466
461.8759, 6362.969
462.3580, 6469.414
462.8401, 6581.322
463.3222, 6672.979
463.8044, 6722.104
464.2865, 6760.595
464.7686, 6814.667
465.2507, 6882.417
465.7328, 6954.193
466.2149, 7025.929
466.6971, 7099.206
467.1792, 7177.831
467.6613, 7279.464
468.1434, 7346.540
468.6255, 7350.988
469.1076, 7346.055
469.5898, 7364.107
470.0719, 7402.049
470.5540, 7441.736
471.0361, 7472.505
471.5182, 7495.661
472.0003, 7514.145
472.4825, 7524.124
472.9646, 7539.610
473.4467, 7574.043
473.9288, 7607.269
474.4109, 7625.771
474.8930, 7629.385
475.3752, 7627.066
475.8573, 7619.493
476.3394, 7611.005
476.8215, 7613.970
477.3036, 7628.784
477.7857, 7630.319
478.2679, 7602.172
478.7500, 7555.980
479.2321, 7520.160
479.7142, 7500.698
480.1963, 7475.668
480.6784, 7434.935
481.1606, 7390.884
481.6427, 7359.986
482.1248, 7339.292
482.6069, 7308.648
483.0890, 7251.919
483.5711, 7173.493
484.0533, 7096.862
484.5354, 7028.954
485.0175, 6950.636
485.4996, 6850.807
485.9817, 6746.763
486.4638, 6658.027
486.9460, 6583.439
487.4281, 6499.577
487.9102, 6378.772
488.3923, 6234.942
488.8744, 6115.372
489.3565, 6026.436
489.8387, 5927.477
490.3208, 5794.466
490.8029, 5640.176
491.2850, 5493.658
491.7671, 5357.345
492.2492, 5220.965
492.7314, 5074.643
493.2135, 4931.280
493.6956, 4813.072
494.1777, 4718.165
494.6598, 4615.966
495.1419, 4481.246
495.6241, 4320.852
496.1062, 4175.575
496.5883, 4056.073
497.0704, 3938.596
497.5525, 3812.122
498.0346, 3691.935
498.5168, 3597.314
498.9989, 3526.393
499.4810, 3454.024
499.9631, 3356.046
500.4452, 3240.006
500.9273, 3134.490
501.4095, 3038.965
501.8916, 2956.261
502.3737, 2892.931
502.8558, 2840.139
503.3379, 2784.128
503.8200, 2724.356
504.3022, 2663.559
504.7843, 2600.146
505.2664, 2537.905
505.7485, 2482.945
506.2306, 2434.857
506.7127, 2388.815
507.1949, 2341.261
507.6770, 2293.071
508.1591, 2248.549
508.6412, 2207.785
509.1233, 2170.676
509.6054, 2141.732
510.0876, 2112.774
510.5697, 2074.876
511.0518, 2030.191
511.5339, 1990.637
512.0161, 1966.221
512.4982, 1952.189
512.9803, 1935.681
513.4624, 1916.453
513.9445, 1896.688
514.4266, 1876.025
514.9088, 1856.230
515.3909, 1840.574
515.8730, 1829.611
516.3551, 1815.430
516.8372, 1790.664
517.3193, 1765.275
517.8015, 1751.308
518.2836, 1745.941
518.7657, 1734.620
519.2478, 1708.945
519.7299, 1676.098
520.2120, 1653.505
520.6942, 1647.618
521.1763, 1639.768
521.6584, 1626.466
522.1405, 1614.676
522.6226, 1612.664
523.1047, 1615.207
523.5869, 1607.835
524.0690, 1579.422
524.5511, 1545.122
525.0332, 1534.461
525.5153, 1547.214
525.9974, 1545.523
526.4796, 1513.993
526.9617, 1475.769
527.4438, 1455.960
527.9259, 1452.360
528.4080, 1449.761
528.8901, 1449.632
529.3723, 1446.419
529.8544, 1435.218
530.3365, 1418.857
530.8186, 1403.076
531.3007, 1389.742
531.7828, 1376.423
532.2650, 1358.530
532.7471, 1333.663
533.2292, 1319.053
533.7113, 1328.521
534.1934, 1332.367
534.6755, 1317.312
535.1577, 1293.054
535.6398, 1272.555
536.1219, 1259.498
536.6040, 1249.921
537.0861, 1242.077
537.5682, 1234.834
538.0504, 1223.413
538.5325, 1206.612
539.0146, 1191.421
539.4967, 1184.647
539.9788, 1183.539
540.4609, 1174.581
540.9431, 1150.241
541.4252, 1129.174
541.9073, 1112.026
542.3894, 1101.809
542.8715, 1108.219
543.3536, 1127.186
543.8358, 1137.081
544.3179, 1117.741
544.8000, 1078.326
545.2821, 1061.383
545.7642, 1077.273
546.2463, 1087.227
546.7285, 1076.221
547.2106, 1059.467
547.6927, 1047.992
548.1748, 1041.991
548.6569, 1036.623
549.1390, 1031.987
549.6211, 1025.461
550.1032, 1011.216
550.5853, 991.6978
551.0674, 977.8989
551.5496, 974.3510
552.0317, 977.1916
552.5138, 980.4377
552.9959, 984.3472
553.4780, 987.8174
553.9601, 992.2278
554.4423, 994.8245
554.9244, 995.4681
555.4065, 993.2750
555.8886, 986.3722
556.3707, 973.9457
556.8528, 959.4930
557.3350, 945.6671
557.8171, 932.9279
558.2992, 926.4435
558.7813, 929.1836
559.2634, 930.1830
559.7455, 920.8641
560.2277, 904.3018
560.7098, 890.4692
561.1919, 875.3923
561.6740, 870.0480
562.1561, 889.4265
562.6382, 913.2078
563.1204, 917.6359
563.6025, 902.6926
564.0846, 884.6497
564.5667, 874.5353
565.0488, 871.8514
565.5309, 876.4052
566.0131, 895.3594
566.4952, 903.4097
566.9773, 885.5863
567.4594, 863.8677
567.9415, 850.6221
568.4236, 845.6072
568.9058, 844.1407
569.3879, 846.3224
569.8700, 849.3220
570.3521, 851.1895
570.8342, 851.5701
571.3163, 848.3759
571.7985, 840.6398
572.2806, 832.5571
572.7627, 829.6611
573.2448, 832.8616
573.7269, 832.5004
574.2090, 823.5718
574.6912, 817.2308
575.1733, 817.2026
575.6554, 820.7115
576.1375, 826.9443
576.6196, 834.7908
577.1017, 837.5482
577.5839, 821.9860
578.0660, 796.5441
578.5481, 794.6775
579.0302, 820.3652
579.5123, 837.5736
579.9944, 825.9743
580.4766, 799.7745
580.9587, 785.8295
581.4408, 785.0281
581.9229, 788.9221
582.4050, 799.5989
582.8871, 811.7485
583.3693, 826.5208
583.8514, 839.3398
584.3335, 839.0510
584.8156, 820.3536
585.2977, 796.5646
585.7798, 790.2167
586.2620, 803.1208
586.7441, 812.3385
587.2262, 815.0236
587.7083, 816.9572
588.1904, 826.3555
588.6725, 835.9072
589.1547, 831.1465
589.6368, 803.3676
590.1189, 779.2836
590.6010, 771.8321
591.0831, 775.2330
591.5652, 786.0310
592.0474, 801.5638
592.5295, 813.1888
593.0116, 814.7332
593.4937, 809.4707
593.9758, 808.0193
594.4579, 814.0106
594.9401, 815.1837
595.4222, 802.9454
595.9043, 792.6109
596.3864, 794.3225
596.8685, 804.0402
597.3506, 810.9709
597.8328, 810.8240
598.3149, 807.2383
598.7970, 802.0319
599.2791, 796.0665
599.7612, 791.5703
600.2433, 788.9569
600.7255, 787.2532
601.2076, 785.2737
601.6897, 783.4826
602.1718, 785.7733
602.6539, 799.9772
603.1360, 807.4126
603.6182, 800.7917
604.1003, 791.6696
604.5824, 789.5552
605.0645, 793.4633
605.5466, 795.5636
606.0287, 790.5002
606.5109, 782.3760
606.9930, 776.3590
607.4751, 772.5489
607.9572, 772.8952
608.4393, 779.1594
608.9214, 784.4313
609.4036, 780.1644
609.8857, 766.3193
610.3678, 761.4816
610.8499, 772.9237
611.3320, 783.2494
611.8141, 787.8581
612.2963, 789.8248
612.7784, 792.4257
613.2605, 795.8981
613.7426, 797.8887
614.2247, 795.0963
614.7068, 790.8240
615.1890, 796.9022
615.6711, 814.2958
616.1532, 818.1647
616.6353, 795.2106
617.1174, 767.2977
617.5995, 760.8740
618.0817, 776.4686
618.5638, 785.0472
619.0459, 779.1910
619.5280, 773.4522
620.0101, 776.2905
620.4922, 780.9784
620.9744, 775.8409
621.4565, 760.6517
621.9386, 749.6847
622.4207, 758.5939
622.9028, 780.7914
623.3849, 789.1818
623.8671, 781.3822
624.3492, 773.5148
624.8313, 769.9465
625.3134, 768.8796
625.7955, 769.0315
626.2776, 770.3137
626.7598, 770.2931
627.2419, 766.3848
627.7240, 763.5317
628.2061, 763.5414
628.6882, 766.4780
629.1703, 774.3654
629.6525, 786.5341
630.1346, 796.2043
630.6167, 795.5057
631.0988, 786.7695
631.5809, 783.3410
632.0630, 786.3745
632.5452, 790.5941
633.0273, 797.9802
633.5094, 802.3704
633.9915, 794.0416
634.4736, 773.8957
634.9557, 760.0491
635.4379, 758.9442
635.9200, 762.1092
636.4021, 768.6357
636.8842, 774.9109
637.3663, 773.3676
637.8484, 763.4336
638.3306, 755.3248
638.8127, 760.8188
639.2948, 776.7265
639.7769, 782.4667
640.2590, 774.9960
640.7411, 768.2037
