##NAMES=Philipsbornite
##RRUFFID=R150127
##IDEAL CHEMISTRY=Pb^2+^Al_3_(As^5+^O_4_)(As^5+^O_3_OH)(OH)_6_
##LOCALITY=Tsumeb mine, Tsumeb, Namibia
##OWNER=RRUFF
##SOURCE=Shields Flynn
##DESCRIPTION=Aggregates of colorless cubic crystals with brown coating, associated with cuprian adamite
##STATUS=The identification of this mineral is confirmed by single-crystal X-ray diffraction and chemical analysis.
##URL=rruff.info/R150127
##MEASURED CHEMISTRY=Pb_1.00_(Al_2.81_Fe_0.26_)_Î£=3.07_(As_0.96_O_4_)(AsO_3_OH)(OH)_6_
93.97052, 3598.514
94.45264, 3595.327
94.93475, 3583.195
95.41687, 3569.600
95.89898, 3556.794
96.38110, 3545.736
96.86321, 3538.030
97.34533, 3532.010
97.82745, 3519.312
98.30956, 3504.411
98.79168, 3486.937
99.27380, 3470.244
99.75591, 3453.761
100.2380, 3437.557
100.7201, 3422.775
101.2023, 3409.378
101.6844, 3398.177
102.1665, 3390.426
102.6486, 3388.089
103.1307, 3387.276
103.6128, 3384.018
104.0950, 3377.586
104.5771, 3371.509
105.0592, 3369.066
105.5413, 3367.505
106.0234, 3362.463
106.5055, 3349.184
106.9877, 3330.273
107.4698, 3316.903
107.9519, 3311.802
108.4340, 3309.098
108.9161, 3309.057
109.3982, 3309.554
109.8804, 3306.123
110.3625, 3293.761
110.8446, 3270.414
111.3267, 3248.785
111.8088, 3228.447
112.2909, 3209.831
112.7731, 3193.263
113.2552, 3178.783
113.7373, 3165.954
114.2194, 3154.281
114.7015, 3143.246
115.1836, 3134.605
115.6658, 3130.192
116.1479, 3127.169
116.6300, 3122.443
117.1121, 3114.801
117.5942, 3105.907
118.0763, 3100.084
118.5584, 3098.890
119.0406, 3096.761
119.5227, 3090.345
120.0048, 3081.460
120.4869, 3075.289
120.9690, 3074.962
121.4511, 3078.340
121.9333, 3080.249
122.4154, 3079.929
122.8975, 3079.380
123.3796, 3080.565
123.8617, 3083.700
124.3438, 3086.576
124.8260, 3087.010
125.3081, 3086.999
125.7902, 3088.598
126.2723, 3092.948
126.7544, 3098.724
127.2365, 3102.919
127.7187, 3104.976
128.2008, 3106.218
128.6829, 3107.235
129.1650, 3107.845
129.6471, 3107.560
130.1292, 3105.774
130.6114, 3102.745
131.0935, 3102.180
131.5756, 3106.670
132.0577, 3111.345
132.5398, 3115.108
133.0219, 3118.090
133.5041, 3120.931
133.9862, 3124.219
134.4683, 3128.094
134.9504, 3131.593
135.4325, 3134.737
135.9146, 3137.584
136.3968, 3139.495
136.8789, 3140.659
137.3610, 3142.735
137.8431, 3148.113
138.3252, 3157.884
138.8073, 3165.121
139.2895, 3167.612
139.7716, 3168.101
140.2537, 3169.946
140.7358, 3174.081
141.2179, 3178.731
141.7000, 3181.021
142.1821, 3181.132
142.6643, 3182.339
143.1464, 3186.797
143.6285, 3193.623
144.1106, 3199.622
144.5927, 3203.782
145.0748, 3207.209
145.5570, 3210.696
146.0391, 3214.270
146.5212, 3218.441
147.0033, 3224.222
147.4854, 3231.922
147.9675, 3238.238
148.4497, 3240.692
148.9318, 3242.752
149.4139, 3246.528
149.8960, 3252.390
150.3781, 3258.925
150.8602, 3263.870
151.3424, 3266.278
151.8245, 3269.217
152.3066, 3273.898
152.7887, 3278.650
153.2708, 3282.715
153.7529, 3285.706
154.2351, 3286.999
154.7172, 3284.918
155.1993, 3275.500
155.6814, 3267.171
156.1635, 3262.880
156.6456, 3259.156
157.1278, 3251.573
157.6099, 3237.792
158.0920, 3219.208
158.5741, 3201.603
159.0562, 3186.951
159.5383, 3170.919
160.0205, 3151.215
160.5026, 3129.259
160.9847, 3108.085
161.4668, 3089.258
161.9489, 3072.927
162.4310, 3059.115
162.9131, 3049.652
163.3953, 3040.765
163.8774, 3030.290
164.3595, 3018.362
164.8416, 3006.396
165.3237, 2994.624
165.8058, 2983.690
166.2880, 2974.823
166.7701, 2968.993
167.2522, 2964.585
167.7343, 2959.876
168.2164, 2954.780
168.6985, 2949.853
169.1807, 2944.873
169.6628, 2940.386
170.1449, 2937.292
170.6270, 2936.350
171.1091, 2936.778
171.5912, 2936.657
172.0734, 2935.235
172.5555, 2934.732
173.0376, 2936.361
173.5197, 2939.218
174.0018, 2942.070
174.4839, 2944.223
174.9661, 2945.781
175.4482, 2947.328
175.9303, 2949.136
176.4124, 2950.622
176.8945, 2951.071
177.3766, 2951.129
177.8588, 2951.849
178.3409, 2954.002
178.8230, 2957.601
179.3051, 2961.911
179.7872, 2966.101
180.2693, 2971.781
180.7515, 2980.336
181.2336, 2990.967
181.7157, 3001.758
182.1978, 3011.215
182.6799, 3019.330
183.1620, 3025.597
183.6441, 3027.282
184.1263, 3029.899
184.6084, 3037.057
185.0905, 3048.235
185.5726, 3059.690
186.0547, 3067.752
186.5368, 3071.779
187.0190, 3077.644
187.5011, 3086.131
187.9832, 3095.755
188.4653, 3105.328
188.9474, 3114.713
189.4296, 3124.892
189.9117, 3137.284
190.3938, 3151.786
190.8759, 3165.438
191.3580, 3176.927
191.8401, 3187.820
192.3223, 3199.938
192.8044, 3213.599
193.2865, 3228.026
193.7686, 3242.494
194.2507, 3257.107
194.7328, 3272.414
195.2150, 3289.616
195.6971, 3307.497
196.1792, 3323.830
196.6613, 3338.449
197.1434, 3351.313
197.6255, 3361.625
198.1077, 3370.251
198.5898, 3379.162
199.0719, 3390.215
199.5540, 3402.647
200.0361, 3413.163
200.5182, 3421.741
201.0004, 3428.027
201.4825, 3432.444
201.9646, 3434.850
202.4467, 3434.866
202.9288, 3432.580
203.4109, 3427.930
203.8930, 3419.384
204.3752, 3404.197
204.8573, 3387.621
205.3394, 3371.618
205.8215, 3355.997
206.3036, 3339.796
206.7857, 3322.277
207.2679, 3303.398
207.7500, 3284.126
208.2321, 3263.215
208.7142, 3243.015
209.1963, 3224.078
209.6784, 3206.530
210.1606, 3190.433
210.6427, 3175.904
211.1248, 3163.145
211.6069, 3150.897
212.0890, 3138.375
212.5711, 3127.021
213.0533, 3117.548
213.5354, 3109.818
214.0175, 3103.127
214.4996, 3096.894
214.9817, 3091.121
215.4638, 3085.851
215.9460, 3081.394
216.4281, 3077.041
216.9102, 3071.798
217.3923, 3066.072
217.8744, 3061.520
218.3565, 3059.882
218.8387, 3061.621
219.3208, 3062.505
219.8029, 3061.242
220.2850, 3060.266
220.7671, 3061.278
221.2492, 3064.212
221.7314, 3067.641
222.2135, 3070.365
222.6956, 3072.318
223.1777, 3074.626
223.6598, 3077.759
224.1419, 3080.900
224.6240, 3083.481
225.1062, 3085.476
225.5883, 3087.025
226.0704, 3087.993
226.5525, 3088.527
227.0346, 3089.707
227.5167, 3091.957
227.9989, 3094.665
228.4810, 3097.456
228.9631, 3100.328
229.4452, 3102.887
229.9273, 3105.341
230.4094, 3107.184
230.8916, 3107.023
231.3737, 3102.747
231.8558, 3097.388
232.3379, 3094.806
232.8200, 3095.446
233.3021, 3095.730
233.7843, 3092.407
234.2664, 3087.403
234.7485, 3083.651
235.2306, 3082.261
235.7127, 3082.114
236.1948, 3081.725
236.6770, 3080.994
237.1591, 3080.423
237.6412, 3080.776
238.1233, 3081.281
238.6054, 3080.954
239.0875, 3079.197
239.5697, 3076.907
240.0518, 3075.085
240.5339, 3073.196
241.0160, 3073.587
241.4981, 3079.604
241.9802, 3087.217
242.4624, 3092.397
242.9445, 3093.415
243.4266, 3092.518
243.9087, 3093.282
244.3908, 3095.677
244.8729, 3099.923
245.3550, 3107.485
245.8372, 3116.002
246.3193, 3123.409
246.8014, 3128.985
247.2835, 3133.644
247.7656, 3139.015
248.2477, 3145.263
248.7299, 3151.833
249.2120, 3158.345
249.6941, 3165.220
250.1762, 3173.282
250.6583, 3182.720
251.1404, 3192.078
251.6226, 3198.789
252.1047, 3201.476
252.5868, 3204.506
253.0689, 3207.716
253.5510, 3211.720
254.0331, 3217.453
254.5153, 3224.967
254.9974, 3232.978
255.4795, 3239.271
255.9616, 3241.940
256.4437, 3247.127
256.9258, 3257.010
257.4080, 3267.472
257.8901, 3276.181
258.3722, 3282.554
258.8543, 3287.207
259.3364, 3291.008
259.8185, 3294.346
260.3007, 3295.583
260.7828, 3294.745
261.2649, 3292.300
261.7470, 3288.427
262.2291, 3283.192
262.7112, 3276.695
263.1934, 3268.948
263.6755, 3259.709
264.1576, 3249.899
264.6397, 3239.697
265.1218, 3228.927
265.6039, 3217.645
266.0861, 3205.804
266.5682, 3193.059
267.0503, 3178.867
267.5324, 3162.799
268.0145, 3148.375
268.4966, 3136.763
268.9788, 3125.374
269.4609, 3112.953
269.9430, 3099.613
270.4251, 3086.026
270.9072, 3072.480
271.3893, 3058.983
271.8715, 3048.285
272.3536, 3042.838
272.8357, 3037.167
273.3178, 3028.383
273.7999, 3017.362
274.2820, 3006.892
274.7642, 2998.908
275.2463, 2993.178
275.7284, 2987.088
276.2105, 2979.561
276.6926, 2972.866
277.1747, 2968.215
277.6568, 2964.951
278.1389, 2961.658
278.6211, 2957.575
279.1032, 2952.871
279.5853, 2948.188
280.0674, 2943.664
280.5495, 2938.996
281.0316, 2933.783
281.5138, 2928.421
281.9959, 2923.417
282.4780, 2918.881
282.9601, 2915.203
283.4422, 2913.761
283.9243, 2915.769
284.4065, 2917.348
284.8886, 2917.525
285.3707, 2916.865
285.8528, 2916.024
286.3349, 2915.154
286.8170, 2914.562
287.2992, 2914.855
287.7813, 2916.201
288.2634, 2917.743
288.7455, 2919.942
289.2276, 2922.024
289.7097, 2922.823
290.1919, 2922.038
290.6740, 2920.735
291.1561, 2920.238
291.6382, 2920.688
292.1203, 2920.811
292.6024, 2917.972
293.0846, 2916.165
293.5667, 2920.917
294.0488, 2932.788
294.5309, 2944.602
295.0130, 2949.292
295.4951, 2946.632
295.9773, 2945.690
296.4594, 2947.460
296.9415, 2950.537
297.4236, 2953.815
297.9057, 2957.270
298.3878, 2961.708
298.8700, 2968.316
299.3521, 2976.419
299.8342, 2982.093
300.3163, 2982.641
300.7984, 2983.206
301.2805, 2986.930
301.7627, 2993.356
302.2448, 3000.397
302.7269, 3007.175
303.2090, 3013.727
303.6911, 3020.181
304.1732, 3026.207
304.6554, 3032.728
305.1375, 3040.486
305.6196, 3049.099
306.1017, 3057.536
306.5838, 3065.341
307.0659, 3072.939
307.5481, 3081.302
308.0302, 3090.854
308.5123, 3099.567
308.9944, 3105.801
309.4765, 3110.964
309.9586, 3117.497
310.4408, 3126.099
310.9229, 3135.668
311.4050, 3144.786
311.8871, 3153.469
312.3692, 3162.100
312.8513, 3171.581
313.3335, 3180.637
313.8156, 3187.157
314.2977, 3190.703
314.7798, 3194.424
315.2619, 3202.365
315.7440, 3213.969
316.2262, 3221.206
316.7083, 3219.802
317.1904, 3216.343
317.6725, 3216.936
318.1546, 3221.431
318.6367, 3224.709
319.1188, 3222.934
319.6010, 3217.073
320.0831, 3212.769
320.5652, 3213.629
321.0473, 3212.445
321.5294, 3204.019
322.0115, 3189.958
322.4937, 3175.783
322.9758, 3164.227
323.4579, 3154.006
323.9400, 3141.960
324.4221, 3127.031
324.9042, 3112.839
325.3864, 3101.917
325.8685, 3092.422
326.3506, 3080.433
326.8327, 3064.406
327.3148, 3046.699
327.7969, 3031.121
328.2791, 3018.174
328.7612, 3004.146
329.2433, 2987.197
329.7254, 2969.406
330.2075, 2953.103
330.6896, 2938.688
331.1718, 2925.434
331.6539, 2912.459
332.1360, 2899.825
332.6181, 2888.767
333.1002, 2880.706
333.5823, 2873.258
334.0645, 2864.002
334.5466, 2853.295
335.0287, 2844.041
335.5108, 2838.809
335.9929, 2836.832
336.4750, 2832.425
336.9572, 2823.745
337.4393, 2814.809
337.9214, 2807.423
338.4035, 2801.042
338.8856, 2794.343
339.3677, 2786.651
339.8499, 2778.418
340.3320, 2770.966
340.8141, 2764.894
341.2962, 2758.412
341.7783, 2750.041
342.2604, 2741.469
342.7426, 2735.290
343.2247, 2732.272
343.7068, 2730.510
344.1889, 2727.450
344.6710, 2722.636
345.1531, 2717.617
345.6353, 2711.349
346.1174, 2705.662
346.5995, 2702.898
347.0816, 2702.760
347.5637, 2701.965
348.0458, 2697.335
348.5280, 2688.586
349.0101, 2681.837
349.4922, 2678.558
349.9743, 2675.450
350.4564, 2670.529
350.9385, 2664.697
351.4207, 2660.212
351.9028, 2658.495
352.3849, 2658.958
352.8670, 2659.097
353.3491, 2658.833
353.8312, 2658.355
354.3134, 2657.699
354.7955, 2656.844
355.2776, 2655.802
355.7597, 2654.570
356.2418, 2653.031
356.7239, 2650.907
357.2061, 2647.487
357.6882, 2644.965
358.1703, 2643.460
358.6524, 2642.647
359.1345, 2642.780
359.6166, 2643.574
360.0987, 2643.965
360.5808, 2642.773
361.0630, 2639.728
361.5451, 2637.643
362.0272, 2637.346
362.5093, 2637.070
362.9914, 2636.393
363.4735, 2635.288
363.9557, 2633.658
364.4378, 2631.346
364.9199, 2628.754
365.4020, 2627.701
365.8841, 2630.398
366.3662, 2631.594
366.8484, 2628.974
367.3305, 2625.519
367.8126, 2624.472
368.2947, 2626.772
368.7768, 2630.396
369.2589, 2632.142
369.7411, 2631.186
370.2232, 2630.557
370.7053, 2630.953
371.1874, 2631.177
371.6695, 2630.467
372.1516, 2628.909
372.6338, 2627.128
373.1159, 2625.569
373.5980, 2624.234
374.0801, 2623.444
374.5622, 2624.056
375.0443, 2624.118
375.5265, 2622.647
376.0086, 2620.313
376.4907, 2618.049
376.9728, 2616.168
377.4549, 2614.905
377.9370, 2615.103
378.4192, 2617.591
378.9013, 2619.174
379.3834, 2617.794
379.8655, 2615.901
380.3476, 2615.571
380.8297, 2617.206
381.3119, 2619.222
381.7940, 2620.221
382.2761, 2620.218
382.7582, 2619.306
383.2403, 2616.426
383.7224, 2613.952
384.2046, 2613.794
384.6867, 2615.420
385.1688, 2616.856
385.6509, 2616.793
386.1330, 2615.839
386.6151, 2615.284
387.0973, 2615.093
387.5794, 2615.421
388.0615, 2617.659
388.5436, 2620.091
389.0257, 2619.711
389.5078, 2614.209
389.9900, 2608.944
390.4721, 2609.302
390.9542, 2614.614
391.4363, 2619.823
391.9184, 2623.683
392.4005, 2626.186
392.8827, 2627.172
393.3648, 2626.570
393.8469, 2625.942
394.3290, 2626.026
394.8111, 2626.439
395.2932, 2626.569
395.7754, 2626.331
396.2575, 2625.967
396.7396, 2625.669
397.2217, 2625.449
397.7038, 2625.261
398.1859, 2624.072
398.6681, 2623.828
399.1501, 2626.387
399.6323, 2631.122
400.1144, 2635.865
400.5965, 2639.680
401.0786, 2642.557
401.5607, 2644.171
402.0428, 2642.876
402.5250, 2643.337
403.0071, 2647.586
403.4892, 2653.431
403.9713, 2658.654
404.4534, 2662.652
404.9355, 2665.530
405.4177, 2667.211
405.8998, 2667.241
406.3819, 2668.349
406.8640, 2670.845
407.3461, 2673.965
407.8282, 2677.810
408.3104, 2681.998
408.7925, 2685.736
409.2746, 2688.534
409.7567, 2690.582
410.2388, 2692.801
410.7209, 2695.501
411.2031, 2697.965
411.6852, 2699.936
412.1673, 2701.754
412.6494, 2703.790
413.1315, 2706.121
413.6136, 2708.495
414.0958, 2710.733
414.5779, 2713.108
415.0600, 2714.281
415.5421, 2713.023
416.0242, 2711.680
416.5063, 2710.954
416.9885, 2710.883
417.4706, 2711.334
417.9527, 2712.256
418.4348, 2713.620
418.9169, 2715.529
419.3990, 2718.638
419.8812, 2720.794
420.3633, 2721.450
420.8454, 2720.857
421.3275, 2718.703
421.8096, 2714.853
422.2917, 2711.050
422.7739, 2709.233
423.2560, 2709.305
423.7381, 2709.384
424.2202, 2709.359
424.7023, 2709.005
425.1844, 2708.462
425.6666, 2707.560
426.1487, 2705.635
426.6308, 2701.508
427.1129, 2696.592
427.5950, 2692.945
428.0771, 2690.586
428.5593, 2689.089
429.0414, 2688.991
429.5235, 2689.246
430.0056, 2687.570
430.4877, 2683.155
430.9698, 2678.683
431.4520, 2676.379
431.9341, 2674.852
432.4162, 2670.724
432.8983, 2662.892
433.3804, 2654.545
433.8625, 2649.840
434.3447, 2649.504
434.8268, 2646.622
435.3089, 2638.739
435.7910, 2630.126
436.2731, 2623.678
436.7552, 2619.023
437.2374, 2614.160
437.7195, 2607.792
438.2016, 2600.613
438.6837, 2595.412
439.1658, 2594.754
439.6479, 2592.791
440.1301, 2588.021
440.6122, 2582.434
441.0943, 2577.914
441.5764, 2574.855
442.0585, 2572.495
442.5406, 2570.220
443.0227, 2568.300
443.5049, 2564.527
443.9870, 2556.282
444.4691, 2548.914
444.9512, 2544.319
445.4333, 2541.706
445.9154, 2539.645
446.3976, 2537.476
446.8797, 2535.263
447.3618, 2533.093
447.8439, 2530.843
448.3260, 2528.987
448.8081, 2527.868
449.2903, 2526.964
449.7724, 2526.234
450.2545, 2525.535
450.7366, 2524.209
451.2187, 2520.969
451.7008, 2516.522
452.1830, 2514.427
452.6651, 2515.888
453.1472, 2516.840
453.6293, 2513.340
454.1114, 2508.171
454.5935, 2505.516
455.0757, 2507.121
455.5578, 2509.713
456.0399, 2511.063
456.5220, 2511.205
457.0041, 2509.959
457.4862, 2506.636
457.9684, 2503.266
458.4505, 2503.176
458.9326, 2506.357
459.4147, 2508.206
459.8968, 2507.010
460.3789, 2504.813
460.8611, 2502.954
461.3432, 2501.653
461.8253, 2501.448
462.3074, 2503.003
462.7895, 2505.577
463.2716, 2506.036
463.7538, 2502.243
464.2359, 2499.296
464.7180, 2497.438
465.2001, 2496.845
465.6822, 2498.434
466.1643, 2502.005
466.6465, 2505.358
467.1286, 2505.882
467.6107, 2503.138
468.0928, 2501.729
468.5749, 2503.329
469.0570, 2504.457
469.5392, 2503.996
470.0213, 2502.506
470.5034, 2500.449
470.9855, 2497.943
471.4676, 2496.235
471.9497, 2498.042
472.4319, 2504.357
472.9140, 2509.878
473.3961, 2515.094
473.8782, 2518.114
474.3603, 2516.564
474.8424, 2511.472
475.3246, 2506.949
475.8067, 2506.054
476.2888, 2507.177
476.7709, 2506.365
477.2530, 2503.140
477.7351, 2501.080
478.2173, 2502.451
478.6994, 2505.733
479.1815, 2508.226
479.6636, 2509.352
480.1457, 2511.409
480.6278, 2517.116
481.1100, 2524.126
481.5920, 2527.362
482.0742, 2525.761
482.5563, 2524.231
483.0384, 2527.567
483.5205, 2535.677
484.0026, 2541.398
484.4847, 2543.046
484.9669, 2544.263
485.4490, 2546.262
485.9311, 2548.898
486.4132, 2551.874
486.8953, 2555.082
487.3774, 2558.440
487.8596, 2561.841
488.3417, 2565.567
488.8238, 2568.589
489.3059, 2570.319
489.7880, 2572.034
490.2701, 2573.272
490.7523, 2575.031
491.2344, 2579.688
491.7165, 2589.126
492.1986, 2601.075
492.6807, 2608.910
493.1628, 2610.811
493.6450, 2613.604
494.1271, 2619.095
494.6092, 2625.669
495.0913, 2632.493
495.5734, 2639.435
496.0555, 2646.570
496.5377, 2653.804
497.0198, 2661.227
497.5019, 2669.253
497.9840, 2678.126
498.4661, 2686.489
498.9482, 2693.283
499.4304, 2699.274
499.9125, 2705.785
500.3946, 2712.698
500.8767, 2720.641
501.3588, 2730.567
501.8409, 2741.617
502.3231, 2752.553
502.8052, 2763.106
503.2873, 2773.242
503.7694, 2783.052
504.2515, 2792.597
504.7336, 2800.478
505.2158, 2803.920
505.6979, 2808.974
506.1800, 2818.207
506.6621, 2830.316
507.1442, 2843.720
507.6263, 2857.740
508.1085, 2871.473
508.5906, 2883.503
509.0727, 2893.763
509.5548, 2902.552
510.0369, 2907.534
510.5190, 2913.335
511.0012, 2922.918
511.4833, 2934.472
511.9654, 2944.436
512.4475, 2950.955
512.9296, 2955.364
513.4117, 2960.094
513.8939, 2965.317
514.3760, 2969.731
514.8581, 2973.216
515.3402, 2975.586
515.8223, 2976.643
516.3044, 2976.498
516.7866, 2975.843
517.2687, 2975.656
517.7508, 2974.727
518.2329, 2971.498
518.7150, 2966.002
519.1971, 2958.858
519.6793, 2950.048
520.1614, 2940.113
520.6435, 2930.723
521.1256, 2923.021
521.6077, 2912.473
522.0898, 2896.633
522.5720, 2878.858
523.0541, 2862.025
523.5362, 2846.329
524.0183, 2830.300
524.5004, 2812.806
524.9825, 2794.436
525.4647, 2777.902
525.9468, 2765.640
526.4289, 2751.934
526.9110, 2734.861
527.3931, 2717.163
527.8752, 2701.325
528.3574, 2687.475
528.8395, 2673.853
529.3216, 2658.742
529.8037, 2642.518
530.2858, 2627.460
530.7679, 2614.380
531.2501, 2600.672
531.7322, 2583.346
532.2143, 2565.742
532.6964, 2551.368
533.1785, 2541.021
533.6606, 2532.087
534.1428, 2523.864
534.6249, 2515.603
535.1070, 2504.687
535.5891, 2490.478
536.0712, 2477.792
536.5533, 2471.036
537.0355, 2469.055
537.5176, 2464.418
537.9997, 2455.726
538.4818, 2446.346
538.9639, 2435.977
539.4460, 2425.977
539.9282, 2418.173
540.4103, 2412.867
540.8924, 2408.925
541.3745, 2405.455
541.8566, 2402.517
542.3387, 2397.938
542.8209, 2388.531
543.3029, 2381.358
543.7850, 2379.729
544.2672, 2380.155
544.7493, 2378.498
545.2314, 2373.716
545.7135, 2368.316
546.1956, 2365.352
546.6777, 2364.551
547.1599, 2362.798
547.6420, 2359.849
548.1241, 2356.142
548.6062, 2350.636
549.0883, 2344.840
549.5704, 2341.424
550.0526, 2341.553
550.5347, 2342.599
551.0168, 2343.820
551.4989, 2344.612
551.9810, 2343.234
552.4631, 2339.269
552.9453, 2335.128
553.4274, 2333.202
553.9095, 2333.496
554.3916, 2332.726
554.8737, 2330.194
555.3558, 2327.593
555.8380, 2324.968
556.3201, 2322.700
556.8022, 2321.546
557.2843, 2321.552
557.7664, 2321.640
558.2485, 2320.347
558.7307, 2317.586
559.2128, 2316.101
559.6949, 2316.766
560.1770, 2317.517
560.6591, 2318.122
561.1412, 2318.217
561.6234, 2317.121
562.1055, 2314.568
562.5876, 2311.949
563.0697, 2311.028
563.5518, 2311.059
564.0339, 2309.115
564.5161, 2304.414
564.9982, 2299.972
565.4803, 2297.813
565.9624, 2297.775
566.4445, 2298.567
566.9266, 2301.274
567.4088, 2303.259
567.8909, 2303.426
568.3730, 2302.465
568.8551, 2300.867
569.3372, 2298.909
569.8193, 2297.341
570.3015, 2296.964
570.7836, 2297.695
571.2657, 2298.068
571.7478, 2298.551
572.2299, 2297.954
572.7120, 2294.441
573.1942, 2290.834
573.6763, 2290.283
574.1584, 2292.972
574.6405, 2295.819
575.1226, 2295.672
575.6047, 2293.388
576.0869, 2292.880
576.5690, 2294.729
577.0511, 2295.838
577.5332, 2293.983
578.0153, 2290.957
578.4974, 2289.817
578.9796, 2291.075
579.4617, 2292.125
579.9438, 2292.072
580.4259, 2291.257
580.9080, 2289.902
581.3901, 2288.120
581.8723, 2286.175
582.3544, 2284.170
582.8365, 2282.259
583.3186, 2280.907
583.8007, 2279.644
584.2828, 2279.797
584.7650, 2283.485
585.2471, 2286.772
585.7292, 2286.720
586.2113, 2283.866
586.6934, 2280.565
587.1755, 2278.165
587.6577, 2276.480
