##NAMES=Phillipsite-Na
##RRUFFID=R070271
##IDEAL CHEMISTRY=Na_6_(Si_10_Al_6_)O_32_&#183;12H_2_O
##LOCALITY=Etsumi, Ogi, Sado Island, Niigata Prefecture, Chubu Region, Honshu Island, Japan
##OWNER=RRUFF
##SOURCE=Michael Scott
##DESCRIPTION=Spherical radiating aggregates of clear colorless prismatic crystals with pyramidal terminations; sample is from the Tiba et al (1995) study, co-type specimen
##STATUS=The identification of this mineral is confirmed by single-crystal X-ray diffraction and chemical analysis.
##URL=rruff.info/R070271
##MEASURED CHEMISTRY=(Na_2.97_K_1.64_[box]_1.23_Ca_0.16_)_Σ=6_(Si_11.07_Al_4.93_)O_32_·6.23H_2_O
146.5716, 914.3633
147.0537, 952.2615
147.5358, 992.8082
148.0179, 1030.792
148.5001, 1067.770
148.9822, 1101.121
149.4643, 1127.699
149.9464, 1147.790
150.4285, 1166.480
150.9106, 1188.804
151.3928, 1213.896
151.8749, 1234.238
152.3570, 1248.610
152.8391, 1258.504
153.3212, 1265.587
153.8033, 1269.985
154.2855, 1270.256
154.7676, 1264.340
155.2497, 1252.867
155.7318, 1238.726
156.2139, 1219.401
156.6960, 1199.043
157.1782, 1181.981
157.6603, 1168.434
158.1424, 1158.201
158.6245, 1154.166
159.1066, 1153.702
159.5887, 1150.287
160.0709, 1139.217
160.5530, 1125.428
161.0351, 1116.224
161.5172, 1112.473
161.9993, 1110.826
162.4814, 1108.507
162.9636, 1106.546
163.4457, 1107.310
163.9278, 1111.157
164.4099, 1118.371
164.8920, 1131.585
165.3741, 1154.333
165.8563, 1172.930
166.3384, 1173.843
166.8205, 1165.376
167.3026, 1161.555
167.7847, 1171.340
168.2668, 1188.310
168.7490, 1198.287
169.2311, 1199.249
169.7132, 1197.608
170.1953, 1195.157
170.6774, 1192.787
171.1595, 1192.069
171.6417, 1194.249
172.1238, 1198.326
172.6059, 1202.463
173.0880, 1208.420
173.5701, 1210.563
174.0522, 1204.649
174.5344, 1194.191
175.0165, 1184.000
175.4986, 1175.870
175.9807, 1169.789
176.4628, 1165.930
176.9449, 1165.489
177.4271, 1165.149
177.9092, 1164.503
178.3913, 1162.986
178.8734, 1159.510
179.3555, 1152.826
179.8376, 1144.453
180.3197, 1139.109
180.8019, 1138.920
181.2840, 1138.063
181.7661, 1132.495
182.2482, 1125.899
182.7303, 1123.563
183.2124, 1129.060
183.6946, 1138.804
184.1767, 1142.030
184.6588, 1134.306
185.1409, 1127.560
185.6230, 1125.855
186.1051, 1126.438
186.5873, 1125.496
187.0694, 1120.717
187.5515, 1114.958
188.0336, 1117.294
188.5157, 1137.755
188.9978, 1148.380
189.4800, 1136.680
189.9621, 1116.476
190.4442, 1101.294
190.9263, 1097.130
191.4084, 1101.489
191.8905, 1109.024
192.3727, 1122.535
192.8548, 1134.311
193.3369, 1145.033
193.8190, 1152.891
194.3011, 1155.340
194.7832, 1151.297
195.2654, 1143.594
195.7475, 1138.579
196.2296, 1138.773
196.7117, 1136.804
197.1938, 1127.561
197.6759, 1118.300
198.1581, 1116.914
198.6402, 1125.815
199.1223, 1138.576
199.6044, 1142.468
200.0865, 1130.639
200.5686, 1123.557
201.0508, 1125.533
201.5329, 1130.455
202.0150, 1133.786
202.4971, 1134.255
202.9792, 1133.516
203.4613, 1134.500
203.9435, 1138.963
204.4256, 1141.088
204.9077, 1140.047
205.3898, 1137.402
205.8719, 1134.974
206.3540, 1132.773
206.8362, 1128.485
207.3183, 1116.931
207.8004, 1090.820
208.2825, 1076.856
208.7646, 1084.770
209.2467, 1095.839
209.7289, 1099.218
210.2110, 1093.807
210.6931, 1085.698
211.1752, 1083.009
211.6573, 1089.547
212.1395, 1087.228
212.6216, 1066.109
213.1037, 1045.267
213.5858, 1033.932
214.0679, 1032.132
214.5500, 1034.784
215.0322, 1037.971
215.5143, 1042.560
215.9964, 1041.600
216.4785, 1029.297
216.9606, 1016.896
217.4427, 1007.855
217.9249, 1002.328
218.4070, 999.2913
218.8891, 998.3385
219.3712, 999.5707
219.8533, 999.1975
220.3354, 993.1658
220.8176, 989.4711
221.2997, 993.3779
221.7818, 1001.313
222.2639, 1005.841
222.7460, 1001.168
223.2281, 988.3591
223.7103, 979.3575
224.1924, 979.2803
224.6745, 977.5776
225.1566, 970.6565
225.6387, 961.0015
226.1208, 952.3644
226.6030, 946.9440
227.0851, 944.1399
227.5672, 941.5539
228.0493, 940.2686
228.5314, 937.6062
229.0135, 930.8922
229.4957, 923.4693
229.9778, 919.9416
230.4599, 922.5419
230.9420, 927.9839
231.4241, 927.4124
231.9062, 913.9310
232.3884, 906.5161
232.8705, 912.3699
233.3526, 921.7806
233.8347, 926.3381
234.3168, 923.2703
234.7989, 915.7853
235.2811, 908.8549
235.7632, 901.5404
236.2453, 897.1802
236.7274, 898.5106
237.2095, 900.7501
237.6916, 899.9746
238.1738, 895.7779
238.6559, 891.5798
239.1380, 892.8836
239.6201, 902.7139
240.1022, 906.6884
240.5843, 898.1456
241.0665, 888.6954
241.5486, 883.5430
242.0307, 882.9551
242.5128, 884.4818
242.9949, 886.6276
243.4770, 889.6754
243.9592, 889.8323
244.4413, 882.9271
244.9234, 876.9813
245.4055, 875.8264
245.8876, 878.2090
246.3697, 880.6948
246.8519, 881.6689
247.3340, 880.8151
247.8161, 874.5410
248.2982, 854.8226
248.7803, 840.6450
249.2624, 842.0750
249.7446, 852.2140
250.2267, 859.9130
250.7088, 859.0458
251.1909, 852.0870
251.6730, 845.6771
252.1551, 838.8218
252.6373, 834.7077
253.1194, 836.3457
253.6015, 840.0957
254.0836, 841.3812
254.5657, 837.8936
255.0478, 833.9087
255.5300, 838.6796
256.0121, 856.5561
256.4942, 866.4820
256.9763, 854.1793
257.4584, 836.2300
257.9406, 823.5435
258.4227, 818.4053
258.9048, 818.1248
259.3869, 821.2348
259.8690, 827.9371
260.3511, 833.6118
260.8333, 838.6499
261.3154, 841.0588
261.7975, 838.8246
262.2796, 832.1403
262.7617, 824.4756
263.2438, 817.5405
263.7260, 811.4514
264.2081, 806.9357
264.6902, 804.0389
265.1723, 802.9404
265.6544, 805.2016
266.1365, 809.5563
266.6187, 811.6230
267.1008, 807.1855
267.5829, 799.4520
268.0650, 795.1505
268.5471, 794.8154
269.0292, 796.6807
269.5114, 804.0216
269.9935, 812.4202
270.4756, 813.0314
270.9577, 796.2701
271.4398, 776.7792
271.9219, 773.4100
272.4041, 786.6796
272.8862, 798.3763
273.3683, 799.3209
273.8504, 792.7985
274.3325, 785.6552
274.8146, 776.9973
275.2968, 769.8845
275.7789, 766.0699
276.2610, 765.4325
276.7431, 768.0021
277.2252, 775.0288
277.7073, 783.6439
278.1895, 789.6381
278.6716, 793.4929
279.1537, 793.8910
279.6358, 786.4542
280.1179, 776.0977
280.6000, 772.2256
281.0822, 777.5247
281.5643, 785.4677
282.0464, 787.9960
282.5285, 784.5186
283.0106, 783.0554
283.4927, 786.6771
283.9749, 791.3070
284.4570, 793.5275
284.9391, 793.0228
285.4212, 790.5650
285.9033, 785.9189
286.3854, 779.3222
286.8676, 777.0825
287.3497, 782.4145
287.8318, 788.5458
288.3139, 794.2136
288.7960, 798.2278
289.2781, 796.7062
289.7603, 786.3558
290.2424, 770.7437
290.7245, 765.3478
291.2066, 780.5476
291.6887, 792.3782
292.1708, 797.9584
292.6530, 797.9899
293.1351, 791.0524
293.6172, 776.8934
294.0993, 761.6072
294.5814, 756.4438
295.0635, 769.4794
295.5457, 777.7407
296.0278, 779.1241
296.5099, 777.6172
296.9920, 774.8903
297.4741, 771.7615
297.9562, 769.6216
298.4384, 770.3965
298.9205, 775.0333
299.4026, 775.8672
299.8847, 769.6365
300.3668, 762.9915
300.8489, 755.6024
301.3311, 749.6109
301.8131, 749.7870
302.2953, 760.6240
302.7774, 778.6854
303.2595, 785.6248
303.7416, 771.0612
304.2237, 760.3979
304.7058, 760.7145
305.1880, 766.3608
305.6701, 772.0695
306.1522, 775.9882
306.6343, 777.5081
307.1164, 774.4290
307.5985, 764.6390
308.0807, 758.1943
308.5628, 760.1111
309.0449, 763.7358
309.5270, 764.5880
310.0091, 762.5373
310.4912, 761.6530
310.9734, 767.6261
311.4555, 779.4177
311.9376, 784.6716
312.4197, 778.2371
312.9018, 771.2736
313.3839, 772.5399
313.8661, 778.9399
314.3482, 782.3268
314.8303, 777.6339
315.3124, 768.3046
315.7945, 759.7372
316.2766, 751.7845
316.7588, 745.4918
317.2409, 741.5126
317.7230, 739.7285
318.2051, 740.1130
318.6872, 743.5162
319.1693, 747.6028
319.6515, 750.1052
320.1336, 751.6096
320.6157, 755.5396
321.0978, 764.5995
321.5799, 774.0757
322.0620, 775.5329
322.5442, 768.0433
323.0263, 760.9841
323.5084, 758.1988
323.9905, 756.7836
324.4726, 752.1096
324.9547, 743.4076
325.4369, 735.0549
325.9190, 730.7617
326.4011, 730.9478
326.8832, 735.3077
327.3653, 750.5546
327.8474, 763.7104
328.3296, 764.8259
328.8117, 757.2973
329.2938, 752.4623
329.7759, 757.4952
330.2580, 769.4007
330.7401, 774.4224
331.2223, 766.2647
331.7044, 758.9891
332.1865, 752.7158
332.6686, 748.6072
333.1507, 749.4619
333.6328, 755.6307
334.1150, 762.2577
334.5971, 761.4039
335.0792, 748.5593
335.5613, 740.5007
336.0434, 738.5162
336.5255, 739.5323
337.0077, 744.0118
337.4898, 750.4623
337.9719, 755.2506
338.4540, 754.6913
338.9361, 749.7540
339.4182, 749.8903
339.9004, 762.0976
340.3825, 768.7750
340.8646, 760.3963
341.3467, 745.8087
341.8288, 736.4459
342.3109, 736.9832
342.7931, 742.1016
343.2752, 743.6610
343.7573, 740.9224
344.2394, 739.8610
344.7215, 741.5871
345.2036, 745.9634
345.6858, 755.1762
346.1679, 768.9625
346.6500, 778.4799
347.1321, 774.1436
347.6142, 761.3438
348.0963, 756.2706
348.5785, 762.9158
349.0606, 769.7077
349.5427, 765.3080
350.0248, 753.4547
350.5069, 745.1988
350.9890, 744.7371
351.4712, 746.7389
351.9533, 746.2623
352.4354, 744.0732
352.9175, 744.5697
353.3996, 750.4062
353.8817, 759.5286
354.3639, 766.8151
354.8460, 772.8239
355.3281, 776.4456
355.8102, 775.5135
356.2923, 772.9108
356.7744, 773.0117
357.2566, 776.4749
357.7387, 778.6923
358.2208, 773.5581
358.7029, 758.2883
359.1850, 751.6644
359.6671, 760.7034
360.1493, 770.0670
360.6314, 772.7808
361.1135, 770.4282
361.5956, 767.0441
362.0777, 764.7179
362.5598, 764.0709
363.0420, 768.1070
363.5241, 784.8896
364.0062, 792.9484
364.4883, 782.0923
364.9704, 767.2929
365.4525, 762.1476
365.9347, 769.0561
366.4168, 778.8680
366.8989, 780.2752
367.3810, 772.5210
367.8631, 769.3891
368.3452, 774.3031
368.8274, 780.6335
369.3095, 785.6093
369.7916, 789.2993
370.2737, 791.9645
370.7558, 793.3627
371.2379, 794.1120
371.7201, 795.5868
372.2022, 797.9937
372.6843, 798.7804
373.1664, 793.6370
373.6485, 788.4246
374.1306, 793.2921
374.6128, 812.3260
375.0949, 827.7726
375.5770, 827.0488
376.0591, 816.7327
376.5412, 809.6802
377.0233, 808.5858
377.5055, 809.9946
377.9876, 809.7084
378.4697, 807.4006
378.9518, 811.2525
379.4339, 828.6783
379.9160, 845.7035
380.3982, 854.2657
380.8803, 855.4464
381.3624, 852.7866
381.8445, 847.8311
382.3266, 841.7029
382.8087, 837.7070
383.2909, 835.0708
383.7730, 836.0797
384.2551, 842.8472
384.7372, 851.8497
385.2193, 861.2028
385.7014, 870.0628
386.1836, 877.2802
386.6657, 881.0079
387.1478, 880.9122
387.6299, 883.5823
388.1120, 892.4899
388.5941, 900.2136
389.0763, 902.2322
389.5584, 902.0095
390.0405, 905.8284
390.5226, 917.6141
391.0047, 930.9907
391.4868, 934.6416
391.9690, 927.3291
392.4511, 921.7704
392.9332, 920.0372
393.4153, 922.7704
393.8974, 931.2335
394.3795, 945.3532
394.8617, 959.6616
395.3438, 971.9843
395.8259, 982.6135
396.3080, 992.9258
396.7901, 1003.196
397.2722, 1009.333
397.7544, 1006.114
398.2365, 996.1985
398.7186, 993.7472
399.2007, 1005.558
399.6828, 1017.044
400.1649, 1021.410
400.6471, 1022.005
401.1292, 1025.058
401.6113, 1032.654
402.0934, 1040.892
402.5755, 1043.611
403.0576, 1037.402
403.5398, 1036.147
404.0219, 1041.450
404.5040, 1049.455
404.9861, 1058.588
405.4682, 1068.765
405.9503, 1080.873
406.4325, 1096.005
406.9146, 1112.300
407.3967, 1121.681
407.8788, 1117.202
408.3609, 1120.279
408.8430, 1142.547
409.3252, 1168.436
409.8073, 1185.930
410.2894, 1193.213
410.7715, 1196.337
411.2536, 1198.134
411.7357, 1199.534
412.2179, 1206.461
412.7000, 1222.000
413.1821, 1236.476
413.6642, 1238.267
414.1463, 1234.525
414.6284, 1240.357
415.1106, 1266.058
415.5927, 1292.940
416.0748, 1305.664
416.5569, 1308.225
417.0390, 1313.778
417.5211, 1327.614
418.0033, 1342.758
418.4854, 1347.615
418.9675, 1336.834
419.4496, 1334.278
419.9317, 1349.693
420.4138, 1366.222
420.8960, 1372.466
421.3781, 1369.526
421.8602, 1364.115
422.3423, 1360.433
422.8244, 1357.894
423.3065, 1354.036
423.7887, 1348.989
424.2708, 1342.218
424.7529, 1333.966
425.2350, 1323.967
425.7171, 1310.087
426.1992, 1292.998
426.6814, 1278.422
427.1635, 1273.985
427.6456, 1278.477
428.1277, 1276.856
428.6098, 1264.793
429.0919, 1254.982
429.5741, 1256.417
430.0562, 1263.521
430.5383, 1268.898
431.0204, 1272.299
431.5025, 1270.423
431.9846, 1231.411
432.4668, 1245.746
432.9489, 1251.248
433.4310, 1248.390
433.9131, 1212.132
434.3952, 1219.003
434.8773, 1208.590
435.3595, 1197.467
435.8416, 1210.408
436.3237, 1205.009
436.8058, 1205.229
437.2879, 1205.744
437.7701, 1206.895
438.2522, 1208.859
438.7343, 1211.537
439.2164, 1214.466
439.6985, 1215.684
440.1806, 1220.894
440.6628, 1233.585
441.1449, 1247.038
441.6270, 1254.828
442.1091, 1258.682
442.5912, 1259.944
443.0733, 1283.708
443.5555, 1301.584
444.0376, 1313.884
444.5197, 1303.917
445.0018, 1322.703
445.4839, 1329.966
445.9660, 1336.758
446.4482, 1359.593
446.9303, 1368.424
447.4124, 1391.232
447.8945, 1406.187
448.3766, 1417.491
448.8587, 1433.598
449.3409, 1455.761
449.8230, 1481.772
450.3051, 1510.498
450.7872, 1541.958
451.2693, 1574.711
451.7514, 1614.033
452.2336, 1648.439
452.7157, 1670.405
453.1978, 1686.447
453.6799, 1704.384
454.1620, 1726.795
454.6441, 1753.550
455.1263, 1785.107
455.6084, 1822.515
456.0905, 1858.535
456.5726, 1892.382
457.0547, 1925.245
457.5368, 1956.362
458.0190, 1986.965
458.5011, 2017.597
458.9832, 2047.599
459.4653, 2082.335
459.9474, 2135.479
460.4295, 2207.309
460.9117, 2263.970
461.3938, 2292.834
461.8759, 2312.889
462.3580, 2339.978
462.8401, 2373.104
463.3222, 2408.005
463.8044, 2444.833
464.2865, 2482.122
464.7686, 2517.698
465.2507, 2552.284
465.7328, 2589.844
466.2149, 2632.928
466.6971, 2676.788
467.1792, 2711.101
467.6613, 2728.739
468.1434, 2751.808
468.6255, 2778.175
469.1076, 2811.673
469.5898, 2859.509
470.0719, 2916.828
470.5540, 2970.449
471.0361, 3012.269
471.5182, 3045.032
472.0003, 3077.339
472.4825, 3109.069
472.9646, 3140.110
473.4467, 3172.584
473.9288, 3202.548
474.4109, 3227.037
474.8930, 3246.045
475.3752, 3262.026
475.8573, 3272.265
476.3394, 3281.962
476.8215, 3302.674
477.3036, 3334.713
477.7857, 3363.888
478.2679, 3383.374
478.7500, 3395.257
479.2321, 3404.862
479.7142, 3414.505
480.1963, 3416.926
480.6784, 3407.777
481.1606, 3392.803
481.6427, 3375.031
482.1248, 3356.030
482.6069, 3340.342
483.0890, 3332.798
483.5711, 3329.685
484.0533, 3309.106
484.5354, 3257.497
485.0175, 3210.214
485.4996, 3177.495
485.9817, 3146.943
486.4638, 3110.204
486.9460, 3065.698
487.4281, 3015.097
487.9102, 2954.612
488.3923, 2889.209
488.8744, 2837.811
489.3565, 2804.458
489.8387, 2762.338
490.3208, 2693.053
490.8029, 2608.864
491.2850, 2537.046
491.7671, 2482.259
492.2492, 2425.806
492.7314, 2357.358
493.2135, 2286.775
493.6956, 2228.615
494.1777, 2182.426
494.6598, 2131.670
495.1419, 2062.084
495.6241, 1978.407
496.1062, 1909.751
496.5883, 1868.023
497.0704, 1825.804
497.5525, 1779.166
498.0346, 1731.594
498.5168, 1686.237
498.9989, 1643.363
499.4810, 1601.130
499.9631, 1557.261
500.4452, 1512.771
500.9273, 1471.756
501.4095, 1433.814
501.8916, 1400.958
502.3737, 1375.175
502.8558, 1354.473
503.3379, 1336.322
503.8200, 1321.953
504.3022, 1304.994
504.7843, 1280.102
505.2664, 1253.106
505.7485, 1230.841
506.2306, 1213.649
506.7127, 1199.318
507.1949, 1186.672
507.6770, 1175.078
508.1591, 1161.909
508.6412, 1146.123
509.1233, 1130.084
509.6054, 1111.855
510.0876, 1095.003
510.5697, 1083.178
511.0518, 1075.714
511.5339, 1068.377
512.0161, 1057.449
512.4982, 1044.909
512.9803, 1036.914
513.4624, 1034.516
513.9445, 1030.469
514.4266, 1021.250
514.9088, 1010.008
515.3909, 1001.083
515.8730, 994.6804
516.3551, 987.6778
516.8372, 976.2168
517.3193, 965.8647
517.8015, 965.0234
518.2836, 970.8382
518.7657, 970.0635
519.2478, 954.8817
519.7299, 932.5634
520.2120, 920.6573
520.6942, 925.0913
521.1763, 928.8612
521.6584, 933.6848
522.1405, 936.3369
522.6226, 934.7224
523.1047, 929.4859
523.5869, 922.1221
524.0690, 912.5347
524.5511, 903.1110
525.0332, 898.5804
525.5153, 898.9054
525.9974, 898.0590
526.4796, 894.5560
526.9617, 889.5320
527.4438, 882.3696
527.9259, 873.6165
528.4080, 870.1062
528.8901, 877.3651
529.3723, 885.6124
529.8544, 890.4896
530.3365, 891.9153
530.8186, 889.4119
531.3007, 882.9122
531.7828, 874.6715
532.2650, 867.7775
532.7471, 862.4717
533.2292, 856.8688
533.7113, 851.3135
534.1934, 844.9718
534.6755, 836.0084
535.1577, 826.7383
535.6398, 819.6965
536.1219, 815.4145
536.6040, 815.0553
537.0861, 825.2907
537.5682, 840.5234
538.0504, 839.8016
538.5325, 818.8298
539.0146, 796.1062
539.4967, 783.6849
539.9788, 780.5004
540.4609, 780.9338
540.9431, 790.2872
541.4252, 795.6155
541.9073, 790.3847
542.3894, 782.5070
542.8715, 780.9504
543.3536, 785.3901
543.8358, 787.7308
544.3179, 780.8336
544.8000, 767.3102
545.2821, 758.7686
545.7642, 756.6713
546.2463, 755.5390
546.7285, 752.7064
547.2106, 751.4525
547.6927, 757.2763
548.1748, 769.0793
548.6569, 774.4614
549.1390, 763.5493
549.6211, 746.6288
550.1032, 732.9333
550.5853, 722.8550
551.0674, 717.6934
551.5496, 718.3776
552.0317, 721.8196
552.5138, 723.0150
552.9959, 721.0873
553.4780, 719.8572
553.9601, 719.5518
554.4423, 719.5864
554.9244, 720.7026
555.4065, 721.7021
555.8886, 720.3405
556.3707, 715.7171
556.8528, 710.6434
557.3350, 709.4842
557.8171, 711.4703
558.2992, 709.5911
558.7813, 701.8098
559.2634, 694.6393
559.7455, 693.0616
560.2277, 695.3397
560.7098, 695.5449
561.1919, 692.2000
561.6740, 689.2915
562.1561, 686.7615
562.6382, 686.0751
563.1204, 690.8570
563.6025, 699.8977
564.0846, 706.5195
564.5667, 705.7266
565.0488, 699.0125
565.5309, 691.5026
566.0131, 680.9037
566.4952, 675.3482
566.9773, 684.1763
567.4594, 692.0352
567.9415, 685.6501
568.4236, 668.3931
568.9058, 657.3762
569.3879, 665.3840
569.8700, 677.7156
570.3521, 678.3610
570.8342, 670.6086
571.3163, 665.8253
571.7985, 667.6429
572.2806, 671.6206
572.7627, 672.1340
573.2448, 668.4498
573.7269, 668.3294
574.2090, 678.3170
574.6912, 683.8785
575.1733, 677.9049
575.6554, 667.4471
576.1375, 659.8493
576.6196, 656.9091
577.1017, 656.7850
577.5839, 658.9733
578.0660, 662.6223
578.5481, 663.9974
579.0302, 662.4867
579.5123, 664.4346
579.9944, 676.1706
580.4766, 690.0167
580.9587, 688.7286
581.4408, 667.7330
581.9229, 653.7177
582.4050, 654.4564
582.8871, 659.5940
583.3693, 664.5072
583.8514, 668.0576
584.3335, 669.3345
584.8156, 667.8900
585.2977, 664.3753
585.7798, 659.1163
586.2620, 651.8149
586.7441, 646.2242
587.2262, 641.6505
587.7083, 640.2112
588.1904, 646.8500
588.6725, 656.4097
589.1547, 659.7684
589.6368, 653.2839
590.1189, 647.0869
590.6010, 646.9232
591.0831, 649.3111
591.5652, 649.3265
592.0474, 647.0408
592.5295, 646.4680
593.0116, 650.6470
593.4937, 657.3112
593.9758, 658.7191
594.4579, 650.2469
594.9401, 647.5105
595.4222, 660.1738
595.9043, 671.2051
596.3864, 669.8073
596.8685, 659.9937
597.3506, 652.7104
597.8328, 652.6406
598.3149, 655.1119
598.7970, 657.4500
599.2791, 658.9058
599.7612, 656.5783
600.2433, 649.8835
600.7255, 643.6301
601.2076, 642.0737
601.6897, 644.5747
602.1718, 645.9087
602.6539, 645.2476
603.1360, 644.4924
603.6182, 641.4227
604.1003, 640.1606
604.5824, 646.8742
605.0645, 658.9952
605.5466, 665.6769
606.0287, 658.2206
606.5109, 645.3843
606.9930, 640.4449
607.4751, 642.5279
607.9572, 644.7081
608.4393, 645.2189
608.9214, 645.7288
609.4036, 648.1774
609.8857, 652.5764
610.3678, 655.4058
610.8499, 656.0193
611.3320, 656.0406
611.8141, 657.0334
612.2963, 656.8641
612.7784, 652.1464
613.2605, 643.4281
613.7426, 635.4690
614.2247, 631.6770
614.7068, 631.3417
615.1890, 633.2966
615.6711, 637.6455
616.1532, 642.3773
616.6353, 648.0728
617.1174, 651.7628
617.5995, 647.9857
618.0817, 636.5493
618.5638, 632.2875
619.0459, 642.5743
619.5280, 652.2493
620.0101, 654.7449
620.4922, 653.6991
620.9744, 654.7140
621.4565, 658.3118
621.9386, 659.4930
622.4207, 652.7064
622.9028, 640.3533
623.3849, 631.7760
623.8671, 627.2453
624.3492, 624.8904
624.8313, 623.9731
625.3134, 625.2173
625.7955, 631.2760
626.2776, 641.8138
626.7598, 648.2310
627.2419, 648.8721
627.7240, 645.6268
628.2061, 634.4207
628.6882, 621.9312
629.1703, 619.3138
629.6525, 628.1657
630.1346, 639.0247
630.6167, 642.2549
631.0988, 639.5862
631.5809, 641.5056
632.0630, 649.8348
632.5452, 655.6500
633.0273, 655.8279
633.5094, 652.7203
633.9915, 648.3537
634.4736, 642.8248
634.9557, 637.8979
635.4379, 632.7708
635.9200, 629.5889
636.4021, 630.8932
636.8842, 634.4460
637.3663, 636.6829
