##NAMES=Phillipsite-Na
##RRUFFID=R061094
##IDEAL CHEMISTRY=Na_6_(Si_10_Al_6_)O_32_&#183;12H_2_O
##LOCALITY=Faraglione dei Ciccopi, Aci Castello, Catania Province, Sicily, Italy
##OWNER=RRUFF
##SOURCE=Michael Scott
##DESCRIPTION=Spherical aggregates of translucent white blocky, pseudotetragonal crystals, associated with chabazite-Na, R070440
##STATUS=The identification of this mineral is confirmed by single-crystal X-ray diffraction and chemical analysis.
##URL=rruff.info/R061094
##MEASURED CHEMISTRY=(Na_2.76_K_1.26_[box]_1.14_Ca_0.84_)_Σ=6_(Si_10.30_Al_5.70_)O_32_·7.58H_2_O
127.3502, 6116.946
127.8323, 6101.985
128.3144, 6067.129
128.7965, 6038.001
129.2787, 6015.548
129.7608, 5998.505
130.2429, 5987.769
130.7250, 5982.032
131.2071, 5972.868
131.6892, 5950.738
132.1714, 5917.150
132.6535, 5888.103
133.1356, 5864.657
133.6177, 5845.292
134.0998, 5826.849
134.5819, 5807.882
135.0640, 5792.235
135.5462, 5784.775
136.0283, 5785.641
136.5104, 5785.044
136.9925, 5777.944
137.4746, 5764.863
137.9567, 5766.249
138.4389, 5790.026
138.9210, 5814.593
139.4031, 5806.341
139.8852, 5755.603
140.3673, 5705.671
140.8494, 5673.294
141.3316, 5664.803
141.8137, 5651.705
142.2958, 5636.241
142.7779, 5616.660
143.2600, 5585.059
143.7421, 5532.970
144.2243, 5483.168
144.7064, 5448.454
145.1885, 5438.250
145.6706, 5424.960
146.1527, 5406.030
146.6348, 5382.190
147.1170, 5359.099
147.5991, 5333.814
148.0812, 5311.032
148.5633, 5294.572
149.0454, 5293.687
149.5275, 5287.590
150.0097, 5272.155
150.4918, 5245.689
150.9739, 5218.717
151.4560, 5183.803
151.9381, 5150.636
152.4202, 5129.583
152.9024, 5136.409
153.3845, 5141.650
153.8666, 5136.320
154.3487, 5114.996
154.8308, 5094.830
155.3129, 5077.322
155.7950, 5062.275
156.2772, 5049.762
156.7593, 5047.478
157.2414, 5042.357
157.7235, 5027.507
158.2056, 4993.259
158.6877, 4961.940
159.1699, 4939.908
159.6520, 4925.947
160.1341, 4914.913
160.6162, 4905.204
161.0983, 4897.895
161.5804, 4893.785
162.0626, 4901.891
162.5447, 4905.702
163.0268, 4896.354
163.5089, 4874.504
163.9910, 4852.319
164.4731, 4830.534
164.9553, 4812.863
165.4374, 4803.651
165.9195, 4821.826
166.4016, 4836.731
166.8837, 4822.791
167.3658, 4774.354
167.8480, 4729.706
168.3301, 4717.093
168.8122, 4725.058
169.2943, 4732.364
169.7764, 4727.292
170.2585, 4717.230
170.7407, 4710.595
171.2228, 4710.758
171.7049, 4707.191
172.1870, 4686.265
172.6691, 4652.744
173.1512, 4623.016
173.6334, 4609.426
174.1155, 4604.558
174.5976, 4597.970
175.0797, 4586.232
175.5618, 4573.899
176.0439, 4568.649
176.5260, 4569.249
177.0082, 4566.149
177.4903, 4546.632
177.9724, 4518.200
178.4545, 4498.317
178.9366, 4498.776
179.4187, 4505.837
179.9009, 4495.507
180.3830, 4467.655
180.8651, 4438.168
181.3472, 4422.925
181.8293, 4418.554
182.3114, 4413.273
182.7936, 4396.103
183.2757, 4375.463
183.7578, 4374.927
184.2399, 4397.285
184.7220, 4423.025
185.2041, 4426.614
185.6863, 4410.458
186.1684, 4392.741
186.6505, 4381.031
187.1326, 4374.460
187.6147, 4369.999
188.0968, 4368.021
188.5790, 4366.129
189.0611, 4360.565
189.5432, 4351.301
190.0253, 4340.184
190.5074, 4324.415
190.9895, 4305.828
191.4717, 4299.151
191.9538, 4310.224
192.4359, 4328.675
192.9180, 4329.953
193.4001, 4312.913
193.8822, 4292.960
194.3644, 4281.873
194.8465, 4279.545
195.3286, 4275.170
195.8107, 4266.410
196.2928, 4254.825
196.7749, 4245.418
197.2570, 4238.302
197.7392, 4232.782
198.2213, 4231.041
198.7034, 4233.958
199.1855, 4227.018
199.6676, 4200.225
200.1497, 4159.013
200.6319, 4146.064
201.1140, 4168.611
201.5961, 4199.968
202.0782, 4208.229
202.5603, 4188.991
203.0424, 4171.699
203.5246, 4166.276
204.0067, 4172.503
204.4888, 4174.653
204.9709, 4173.305
205.4530, 4167.012
205.9352, 4149.883
206.4173, 4116.379
206.8994, 4092.471
207.3815, 4091.927
207.8636, 4118.466
208.3457, 4133.396
208.8279, 4133.930
209.3100, 4125.860
209.7921, 4119.180
210.2742, 4114.129
210.7563, 4109.879
211.2384, 4107.904
211.7206, 4110.933
212.2027, 4102.959
212.6848, 4077.331
213.1669, 4044.170
213.6490, 4031.682
214.1311, 4049.083
214.6133, 4067.195
215.0954, 4068.854
215.5775, 4046.280
216.0596, 4032.879
216.5417, 4033.481
217.0238, 4043.966
217.5059, 4050.275
217.9881, 4053.056
218.4702, 4050.645
218.9523, 4039.114
219.4344, 4009.743
219.9165, 3996.204
220.3986, 4009.818
220.8808, 4043.720
221.3629, 4053.646
221.8450, 4027.019
222.3271, 3993.759
222.8092, 3975.587
223.2913, 3979.188
223.7735, 3983.107
224.2556, 3984.042
224.7377, 3982.241
225.2198, 3982.872
225.7019, 3986.383
226.1840, 3991.494
226.6662, 3997.356
227.1483, 4004.485
227.6304, 4010.901
228.1125, 4016.172
228.5946, 4020.184
229.0767, 4024.445
229.5589, 4030.719
230.0410, 4035.467
230.5231, 4035.006
231.0052, 4027.909
231.4873, 4018.121
231.9694, 4003.947
232.4516, 3984.013
232.9337, 3976.325
233.4158, 3989.883
233.8979, 4008.404
234.3800, 4010.361
234.8621, 3983.250
235.3443, 3961.614
235.8264, 3955.929
236.3085, 3969.932
236.7906, 3978.560
237.2727, 3978.471
237.7548, 3975.301
238.2369, 3978.300
238.7191, 3995.923
239.2012, 4005.766
239.6833, 3997.609
240.1654, 3962.892
240.6475, 3945.160
241.1296, 3953.929
241.6118, 3974.167
242.0939, 3979.596
242.5760, 3959.009
243.0581, 3941.460
243.5402, 3937.555
244.0223, 3952.154
244.5045, 3964.998
244.9866, 3975.564
245.4687, 3984.697
245.9508, 3994.228
246.4329, 4005.576
246.9150, 4015.258
247.3972, 4022.709
247.8793, 4030.010
248.3614, 4028.490
248.8435, 4011.896
249.3256, 3988.655
249.8077, 3978.786
250.2899, 3985.938
250.7720, 4000.391
251.2541, 4020.085
251.7362, 4051.544
252.2183, 4071.176
252.7004, 4075.101
253.1826, 4068.081
253.6647, 4061.179
254.1468, 4050.343
254.6289, 4045.942
255.1110, 4054.010
255.5931, 4080.563
256.0753, 4105.244
256.5574, 4130.684
257.0395, 4153.401
257.5216, 4161.436
258.0037, 4148.866
258.4858, 4132.130
258.9680, 4118.694
259.4501, 4107.249
259.9322, 4103.598
260.4143, 4112.380
260.8964, 4128.051
261.3785, 4130.196
261.8607, 4109.775
262.3428, 4093.426
262.8249, 4099.029
263.3070, 4102.176
263.7891, 4147.750
264.2712, 4173.781
264.7534, 4181.317
265.2355, 4114.971
265.7176, 4144.029
266.1997, 4134.853
266.6818, 4124.110
267.1639, 4166.596
267.6461, 4110.995
268.1282, 4152.638
268.6103, 4155.462
269.0924, 4176.052
269.5745, 4158.172
270.0566, 4152.175
270.5387, 4153.948
271.0208, 4161.400
271.5030, 4165.949
271.9851, 4166.461
272.4672, 4163.799
272.9493, 4158.732
273.4314, 4148.484
273.9135, 4144.565
274.3957, 4160.948
274.8778, 4202.803
275.3599, 4223.921
275.8420, 4211.899
276.3241, 4180.416
276.8062, 4175.081
277.2884, 4201.792
277.7705, 4230.702
278.2526, 4239.094
278.7347, 4225.385
279.2168, 4218.460
279.6989, 4223.551
280.1811, 4236.097
280.6632, 4243.573
281.1453, 4245.330
281.6274, 4245.405
282.1095, 4245.137
282.5916, 4244.482
283.0738, 4248.448
283.5559, 4259.589
284.0380, 4273.631
284.5201, 4279.862
285.0022, 4277.987
285.4843, 4272.033
285.9665, 4259.207
286.4486, 4241.292
286.9307, 4240.418
287.4128, 4265.273
287.8949, 4301.439
288.3770, 4317.835
288.8592, 4314.636
289.3413, 4304.563
289.8234, 4295.069
290.3055, 4285.908
290.7876, 4274.521
291.2697, 4258.246
291.7519, 4243.390
292.2340, 4244.675
292.7161, 4261.245
293.1982, 4277.009
293.6803, 4278.736
294.1624, 4270.774
294.6446, 4266.961
295.1267, 4268.917
295.6088, 4275.814
296.0909, 4289.103
296.5730, 4307.523
297.0551, 4324.410
297.5373, 4336.631
298.0194, 4343.949
298.5015, 4344.215
298.9836, 4334.800
299.4657, 4323.987
299.9478, 4326.080
300.4300, 4337.423
300.9121, 4343.320
301.3942, 4322.066
301.8763, 4293.004
302.3584, 4292.149
302.8405, 4332.421
303.3227, 4375.536
303.8048, 4377.558
304.2869, 4349.657
304.7690, 4325.536
305.2511, 4325.882
305.7332, 4339.470
306.2154, 4355.410
306.6975, 4373.484
307.1796, 4388.943
307.6617, 4395.665
308.1438, 4396.430
308.6259, 4397.701
309.1081, 4401.169
309.5901, 4407.309
310.0723, 4416.606
310.5544, 4429.110
311.0365, 4444.497
311.5186, 4467.169
312.0007, 4492.453
312.4828, 4511.747
312.9650, 4514.263
313.4471, 4514.901
313.9292, 4526.433
314.4113, 4553.244
314.8934, 4571.803
315.3755, 4561.133
315.8577, 4537.314
316.3398, 4523.567
316.8219, 4535.196
317.3040, 4552.682
317.7861, 4566.689
318.2682, 4575.748
318.7504, 4587.421
319.2325, 4609.691
319.7146, 4634.218
320.1967, 4651.123
320.6788, 4651.582
321.1609, 4650.082
321.6431, 4650.729
322.1252, 4653.807
322.6073, 4658.051
323.0894, 4660.655
323.5715, 4665.395
324.0536, 4675.809
324.5358, 4703.021
325.0179, 4724.782
325.5000, 4737.544
325.9821, 4741.011
326.4642, 4736.053
326.9464, 4710.355
327.4285, 4683.195
327.9106, 4668.875
328.3927, 4678.487
328.8748, 4687.698
329.3569, 4693.104
329.8391, 4695.308
330.3212, 4702.007
330.8033, 4721.633
331.2854, 4738.443
331.7675, 4741.054
332.2496, 4717.438
332.7318, 4701.184
333.2139, 4692.738
333.6960, 4655.453
334.1781, 4697.371
334.6602, 4719.746
335.1423, 4723.627
335.6245, 4653.625
336.1066, 4679.028
336.5887, 4666.197
337.0708, 4651.799
337.5529, 4690.630
338.0350, 4631.375
338.5172, 4669.361
338.9993, 4681.593
339.4814, 4686.011
339.9635, 4677.209
340.4456, 4677.777
340.9277, 4692.851
341.4099, 4711.741
341.8920, 4710.081
342.3741, 4685.112
342.8562, 4664.368
343.3383, 4668.203
343.8204, 4693.283
344.3026, 4698.028
344.7847, 4677.769
345.2668, 4648.403
345.7489, 4630.086
346.2310, 4622.353
346.7131, 4621.546
347.1953, 4631.437
347.6774, 4647.318
348.1595, 4654.041
348.6416, 4651.304
349.1237, 4642.552
349.6058, 4624.880
350.0880, 4603.072
350.5700, 4591.979
351.0522, 4608.180
351.5343, 4633.442
352.0164, 4637.629
352.4985, 4621.361
352.9806, 4602.425
353.4627, 4592.707
353.9449, 4590.253
354.4270, 4592.013
354.9091, 4598.559
355.3912, 4607.180
355.8733, 4581.811
356.3554, 4626.186
356.8376, 4651.018
357.3197, 4657.355
357.8018, 4589.810
358.2839, 4617.670
358.7660, 4607.295
359.2481, 4595.354
359.7303, 4636.642
360.2124, 4579.842
360.6945, 4620.286
361.1766, 4621.912
361.6587, 4641.304
362.1408, 4608.322
362.6230, 4606.416
363.1051, 4606.007
363.5872, 4609.140
364.0693, 4613.830
364.5514, 4616.042
365.0335, 4611.471
365.5157, 4607.362
365.9978, 4606.787
366.4799, 4611.353
366.9620, 4614.663
367.4441, 4610.563
367.9262, 4606.228
368.4084, 4611.417
368.8905, 4644.646
369.3726, 4666.180
369.8547, 4661.022
370.3368, 4623.936
370.8189, 4609.150
371.3011, 4633.976
371.7832, 4666.391
372.2653, 4676.041
372.7474, 4649.538
373.2295, 4628.631
373.7116, 4622.118
374.1938, 4627.926
374.6759, 4628.625
375.1580, 4622.711
375.6401, 4615.427
376.1222, 4610.006
376.6043, 4606.495
377.0865, 4605.976
377.5686, 4608.291
378.0507, 4614.107
378.5328, 4628.473
379.0149, 4653.313
379.4970, 4672.030
379.9792, 4669.971
380.4613, 4649.490
380.9434, 4635.130
381.4255, 4627.812
381.9076, 4628.107
382.3897, 4641.971
382.8719, 4667.154
383.3540, 4686.761
383.8361, 4687.776
384.3182, 4678.052
384.8003, 4675.191
385.2824, 4679.957
385.7646, 4687.979
386.2467, 4698.282
386.7288, 4708.788
387.2109, 4714.963
387.6930, 4704.779
388.1751, 4696.115
388.6573, 4714.584
389.1394, 4757.360
389.6215, 4790.937
390.1036, 4779.241
390.5857, 4752.813
391.0678, 4745.544
391.5499, 4788.033
392.0320, 4825.735
392.5142, 4824.102
392.9963, 4793.007
393.4784, 4764.359
393.9605, 4739.363
394.4426, 4728.508
394.9247, 4741.688
395.4069, 4761.516
395.8890, 4814.202
396.3711, 4847.344
396.8532, 4861.993
397.3353, 4802.758
397.8174, 4838.928
398.2996, 4836.865
398.7817, 4833.234
399.2638, 4882.832
399.7459, 4834.343
400.2280, 4883.097
400.7101, 4893.033
401.1923, 4920.736
401.6744, 4909.968
402.1565, 4953.543
402.6386, 4981.689
403.1207, 4988.915
403.6028, 5001.534
404.0850, 5023.835
404.5671, 5043.926
405.0492, 5051.462
405.5313, 5043.817
406.0134, 5038.176
406.4955, 5035.735
406.9777, 5037.272
407.4598, 5048.543
407.9419, 5071.313
408.4240, 5088.186
408.9061, 5083.614
409.3882, 5061.983
409.8704, 5051.511
410.3525, 5055.658
410.8346, 5064.832
411.3167, 5068.408
411.7988, 5066.545
412.2809, 5060.334
412.7631, 5042.877
413.2452, 5023.863
413.7273, 5023.937
414.2094, 5043.140
414.6915, 5059.247
415.1736, 5048.081
415.6558, 5023.233
416.1379, 5006.225
416.6200, 5010.094
417.1021, 5016.528
417.5842, 5010.253
418.0663, 4994.523
418.5485, 4983.795
419.0306, 4991.456
419.5127, 5002.595
419.9948, 5005.723
420.4769, 4993.174
420.9590, 4984.243
421.4412, 4988.586
421.9233, 4999.717
422.4054, 5005.692
422.8875, 4993.670
423.3696, 4985.725
423.8517, 4992.202
424.3339, 5019.246
424.8160, 5034.855
425.2981, 5032.545
425.7802, 5022.644
426.2623, 5013.727
426.7444, 5001.070
427.2266, 4997.608
427.7087, 5003.962
428.1908, 5020.784
428.6729, 5058.337
429.1550, 5130.379
429.6371, 5193.488
430.1193, 5213.073
430.6014, 5182.687
431.0835, 5160.359
431.5656, 5150.707
432.0477, 5150.448
432.5298, 5152.553
433.0119, 5156.866
433.4940, 5169.245
433.9762, 5201.235
434.4583, 5244.517
434.9404, 5265.408
435.4225, 5261.486
435.9046, 5252.077
436.3867, 5249.587
436.8689, 5256.852
437.3510, 5282.847
437.8331, 5349.104
438.3152, 5418.358
438.7973, 5443.213
439.2794, 5430.520
439.7616, 5419.770
440.2437, 5435.472
440.7258, 5464.742
441.2079, 5497.115
441.6900, 5533.729
442.1721, 5565.927
442.6543, 5589.949
443.1364, 5606.788
443.6185, 5618.365
444.1006, 5613.720
444.5827, 5614.108
445.0648, 5630.407
445.5470, 5666.833
446.0291, 5698.640
446.5112, 5716.347
446.9933, 5731.928
447.4754, 5756.648
447.9576, 5800.333
448.4397, 5838.269
448.9218, 5864.048
449.4039, 5880.793
449.8860, 5906.735
450.3681, 5946.953
450.8503, 5986.148
451.3324, 6013.814
451.8145, 6026.497
452.2966, 6048.171
452.7787, 6083.169
453.2608, 6121.512
453.7430, 6146.794
454.2251, 6158.706
454.7072, 6169.060
455.1893, 6179.731
455.6714, 6192.801
456.1535, 6216.556
456.6357, 6251.214
457.1178, 6289.790
457.5999, 6327.591
458.0820, 6364.455
458.5641, 6398.503
459.0462, 6428.125
459.5284, 6457.485
460.0105, 6491.447
460.4926, 6528.741
460.9747, 6564.147
461.4568, 6598.458
461.9389, 6627.581
462.4211, 6643.274
462.9032, 6639.459
463.3853, 6649.209
463.8674, 6703.621
464.3495, 6772.670
464.8316, 6821.042
465.3138, 6806.693
465.7959, 6806.375
466.2780, 6850.553
466.7601, 6936.162
467.2422, 6996.180
467.7243, 7009.082
468.2065, 7015.386
468.6886, 7035.961
469.1707, 7075.433
469.6528, 7120.783
470.1349, 7177.570
470.6170, 7236.229
471.0992, 7276.119
471.5813, 7292.468
472.0634, 7308.999
472.5455, 7334.404
473.0276, 7367.656
473.5097, 7396.889
473.9918, 7420.235
474.4739, 7451.469
474.9561, 7514.020
475.4382, 7599.701
475.9203, 7665.975
476.4024, 7698.600
476.8845, 7717.527
477.3666, 7748.319
477.8488, 7789.313
478.3309, 7833.809
478.8130, 7883.966
479.2951, 7932.468
479.7772, 7972.569
480.2593, 8003.999
480.7415, 8026.144
481.2236, 8024.916
481.7057, 8018.855
482.1878, 8029.821
482.6699, 8095.098
483.1520, 8147.330
483.6342, 8152.102
484.1163, 8118.785
484.5984, 8105.851
485.0805, 8149.136
485.5626, 8192.317
486.0447, 8209.011
486.5269, 8184.601
487.0090, 8166.107
487.4911, 8157.744
487.9732, 8152.714
488.4553, 8142.386
488.9374, 8128.974
489.4196, 8103.499
489.9017, 8058.320
490.3838, 7998.608
490.8659, 7955.160
491.3480, 7929.851
491.8301, 7912.175
492.3123, 7897.690
492.7944, 7884.969
493.2765, 7865.939
493.7586, 7840.270
494.2407, 7806.257
494.7228, 7759.844
495.2050, 7703.083
495.6871, 7642.780
496.1692, 7575.865
496.6513, 7510.523
497.1334, 7456.600
497.6155, 7414.198
498.0977, 7369.760
498.5798, 7309.568
499.0619, 7246.871
499.5440, 7196.025
500.0261, 7171.911
500.5082, 7141.806
500.9904, 7094.993
501.4725, 7036.145
501.9546, 6974.741
502.4367, 6908.533
502.9188, 6843.604
503.4009, 6780.975
503.8831, 6720.182
504.3652, 6663.986
504.8473, 6613.401
505.3294, 6565.735
505.8115, 6520.799
506.2936, 6480.784
506.7758, 6432.812
507.2579, 6372.444
507.7400, 6305.890
508.2221, 6248.553
508.7042, 6200.763
509.1863, 6155.024
509.6685, 6108.453
510.1506, 6061.188
510.6327, 6011.106
511.1148, 5957.872
511.5969, 5910.157
512.0790, 5887.236
512.5612, 5873.660
513.0433, 5839.592
513.5254, 5758.788
514.0075, 5679.977
514.4896, 5644.345
514.9717, 5640.506
515.4539, 5635.081
515.9360, 5620.076
516.4181, 5594.774
516.9002, 5552.118
517.3823, 5485.133
517.8644, 5437.124
518.3466, 5426.239
518.8287, 5431.311
519.3108, 5434.002
519.7929, 5442.237
520.2750, 5433.978
520.7571, 5396.884
521.2393, 5343.852
521.7214, 5318.450
522.2035, 5331.438
522.6856, 5341.276
523.1677, 5324.847
523.6498, 5283.567
524.1320, 5254.885
524.6141, 5239.893
525.0962, 5232.251
525.5783, 5228.190
526.0604, 5226.322
526.5425, 5221.448
527.0247, 5213.264
527.5068, 5200.113
527.9889, 5175.646
528.4710, 5143.618
528.9531, 5115.585
529.4352, 5098.890
529.9174, 5088.397
530.3995, 5080.786
530.8816, 5076.010
531.3637, 5073.174
531.8458, 5077.211
532.3279, 5080.455
532.8101, 5076.202
533.2922, 5047.490
533.7743, 5030.154
534.2564, 5036.270
534.7385, 5056.028
535.2206, 5064.138
535.7027, 5053.331
536.1848, 5042.755
536.6669, 5041.291
537.1490, 5049.681
537.6312, 5040.573
538.1133, 5006.719
538.5954, 4975.964
539.0775, 4982.830
539.5596, 5023.045
540.0417, 5045.558
540.5239, 5038.111
541.0060, 5017.919
541.4881, 5011.301
541.9702, 5014.939
542.4523, 5016.130
542.9344, 5003.359
543.4166, 4988.173
543.8987, 4982.590
544.3808, 4986.646
544.8629, 4993.787
545.3450, 5008.996
545.8271, 5020.918
546.3093, 5018.686
546.7914, 4986.217
547.2735, 4963.440
547.7556, 4962.296
548.2377, 4975.440
548.7198, 4990.269
549.2020, 5017.741
549.6841, 5030.595
550.1662, 5014.711
550.6483, 4973.433
551.1304, 4958.729
551.6125, 4977.819
552.0947, 5004.972
552.5768, 5025.147
553.0589, 5038.226
553.5410, 5041.805
554.0231, 5033.004
554.5052, 5023.347
554.9874, 5033.152
555.4695, 5056.405
555.9516, 5071.483
556.4337, 5068.706
556.9158, 5055.644
557.3979, 5035.095
557.8801, 5009.756
558.3622, 4992.112
558.8443, 4992.133
559.3264, 4999.997
559.8085, 5011.255
560.2906, 5027.931
560.7728, 5036.936
561.2549, 5023.824
561.7370, 5006.713
562.2191, 5004.789
562.7012, 5037.504
563.1833, 5058.430
563.6655, 5061.513
564.1476, 5050.456
564.6297, 5034.601
565.1118, 5011.745
565.5939, 4990.965
566.0760, 4976.841
566.5582, 4968.857
567.0403, 4958.398
567.5224, 4945.055
568.0045, 4932.937
568.4866, 4925.653
568.9688, 4922.701
569.4509, 4923.581
569.9330, 4929.403
570.4151, 4935.727
570.8972, 4935.482
571.3793, 4932.600
571.8615, 4934.986
572.3436, 4950.874
572.8257, 4968.579
573.3078, 4981.359
573.7899, 4989.663
574.2720, 4999.383
574.7542, 5018.801
575.2363, 5034.541
575.7184, 5038.037
576.2005, 5020.884
576.6826, 5014.279
577.1647, 5025.769
577.6469, 5040.470
578.1290, 5037.338
578.6111, 5011.999
579.0932, 4993.712
579.5753, 4989.127
580.0574, 4994.703
580.5396, 5004.993
581.0217, 5019.609
581.5038, 5029.448
581.9859, 5024.974
582.4680, 5013.820
582.9501, 5008.306
583.4323, 5008.760
583.9144, 5012.697
584.3965, 5026.504
584.8786, 5038.892
585.3607, 5036.090
585.8428, 5003.371
586.3250, 4977.700
586.8071, 4978.760
587.2892, 4993.225
587.7713, 4998.510
588.2534, 4975.821
588.7355, 4963.129
589.2177, 4972.564
589.6998, 5000.143
590.1819, 5013.284
590.6640, 5006.893
591.1461, 4998.700
591.6282, 4998.981
592.1104, 5007.597
592.5925, 5015.300
593.0746, 5021.872
593.5567, 5027.218
594.0388, 5031.804
594.5209, 5034.941
595.0031, 5034.734
595.4852, 5030.234
595.9673, 5022.780
596.4494, 5008.538
596.9315, 4992.109
597.4136, 4984.792
597.8958, 5000.042
598.3779, 5017.988
598.8600, 5030.156
599.3421, 5036.281
599.8242, 5039.376
600.3063, 5034.074
600.7885, 5031.091
601.2706, 5037.458
601.7527, 5061.260
602.2348, 5071.030
602.7169, 5061.249
603.1990, 5044.932
603.6812, 5038.101
604.1633, 5041.037
604.6454, 5047.593
605.1275, 5058.776
605.6096, 5069.058
606.0917, 5063.052
606.5739, 5044.455
607.0560, 5032.913
607.5381, 5048.012
608.0202, 5070.643
608.5023, 5080.848
608.9844, 5078.224
609.4666, 5069.703
609.9487, 5053.701
610.4308, 5036.707
610.9129, 5023.507
611.3950, 5015.316
611.8771, 5010.212
612.3593, 5006.803
612.8414, 5007.291
613.3235, 5015.746
613.8056, 5040.176
614.2877, 5053.868
614.7698, 5048.709
615.2520, 5032.022
615.7341, 5027.598
616.2162, 5036.258
616.6983, 5043.164
617.1804, 5033.797
617.6625, 5017.780
618.1446, 5029.646
618.6267, 5067.715
619.1088, 5093.794
619.5909, 5057.585
