##NAMES=Philipsbornite
##RRUFFID=R150127
##IDEAL CHEMISTRY=Pb^2+^Al_3_(As^5+^O_4_)(As^5+^O_3_OH)(OH)_6_
##LOCALITY=Tsumeb mine, Tsumeb, Namibia
##OWNER=RRUFF
##SOURCE=Shields Flynn
##DESCRIPTION=Aggregates of colorless cubic crystals with brown coating, associated with cuprian adamite
##STATUS=The identification of this mineral is confirmed by single-crystal X-ray diffraction and chemical analysis.
##URL=rruff.info/R150127
##MEASURED CHEMISTRY=Pb_1.00_(Al_2.81_Fe_0.26_)_Î£=3.07_(As_0.96_O_4_)(AsO_3_OH)(OH)_6_
89.78320, 969.2858
90.26532, 963.6321
90.74744, 963.5839
91.22955, 970.8619
91.71167, 982.5149
92.19379, 996.5714
92.67590, 1012.803
93.15802, 1025.152
93.64014, 1027.063
94.12225, 1021.541
94.60437, 1016.332
95.08649, 1013.397
95.56860, 1011.703
96.05072, 1010.355
96.53284, 1010.407
97.01495, 1009.738
97.49707, 1004.804
97.97919, 995.6979
98.46130, 988.5348
98.94342, 985.2156
99.42554, 985.4597
99.90765, 986.8506
100.3898, 989.6285
100.8719, 992.9997
101.3540, 996.1251
101.8361, 999.3539
102.3182, 1001.316
102.8004, 1000.970
103.2825, 997.2081
103.7646, 996.2015
104.2467, 998.5509
104.7288, 1003.264
105.2109, 1007.876
105.6931, 1011.316
106.1752, 1016.276
106.6573, 1024.103
107.1394, 1036.248
107.6215, 1048.741
108.1036, 1063.486
108.5858, 1079.340
109.0679, 1089.473
109.5500, 1090.590
110.0321, 1088.781
110.5142, 1087.304
110.9963, 1084.848
111.4785, 1084.201
111.9606, 1086.769
112.4427, 1092.379
112.9248, 1096.327
113.4069, 1096.271
113.8890, 1095.183
114.3712, 1095.450
114.8533, 1098.539
115.3354, 1102.122
115.8175, 1105.772
116.2996, 1109.582
116.7817, 1112.537
117.2639, 1113.496
117.7460, 1113.633
118.2281, 1114.434
118.7102, 1117.700
119.1923, 1120.906
119.6744, 1122.316
120.1566, 1121.439
120.6387, 1120.144
121.1208, 1118.855
121.6029, 1117.928
122.0850, 1118.135
122.5671, 1119.334
123.0493, 1122.040
123.5314, 1127.329
124.0135, 1136.310
124.4956, 1145.473
124.9777, 1151.564
125.4598, 1154.930
125.9420, 1156.809
126.4241, 1156.681
126.9062, 1155.732
127.3883, 1156.209
127.8704, 1158.824
128.3525, 1162.708
128.8347, 1166.513
129.3168, 1170.295
129.7989, 1174.703
130.2810, 1181.063
130.7631, 1188.737
131.2452, 1195.220
131.7274, 1199.195
132.2095, 1201.906
132.6916, 1207.235
133.1737, 1215.609
133.6558, 1223.999
134.1379, 1228.938
134.6201, 1230.501
135.1022, 1233.115
135.5843, 1238.135
136.0664, 1245.352
136.5485, 1253.108
137.0306, 1261.467
137.5128, 1270.328
137.9949, 1279.955
138.4770, 1290.531
138.9591, 1301.140
139.4412, 1311.750
139.9233, 1322.311
140.4055, 1332.078
140.8876, 1340.979
141.3697, 1349.138
141.8518, 1356.809
142.3339, 1363.920
142.8160, 1370.581
143.2982, 1376.510
143.7803, 1380.816
144.2624, 1387.197
144.7445, 1396.474
145.2266, 1407.598
145.7087, 1417.699
146.1909, 1426.290
146.6730, 1434.718
147.1551, 1443.589
147.6372, 1452.755
148.1193, 1462.549
148.6014, 1473.774
149.0836, 1485.748
149.5657, 1496.535
150.0478, 1505.015
150.5299, 1512.982
151.0120, 1521.269
151.4941, 1529.969
151.9763, 1538.743
152.4584, 1548.992
152.9405, 1559.854
153.4226, 1567.314
153.9047, 1569.912
154.3868, 1569.766
154.8690, 1568.027
155.3511, 1565.789
155.8332, 1560.936
156.3153, 1553.329
156.7974, 1542.927
157.2795, 1529.414
157.7617, 1510.693
158.2438, 1489.935
158.7259, 1469.433
159.2080, 1449.235
159.6901, 1429.841
160.1722, 1411.715
160.6544, 1394.803
161.1365, 1377.913
161.6186, 1358.968
162.1007, 1340.643
162.5828, 1324.947
163.0649, 1313.233
163.5471, 1303.900
164.0292, 1296.868
164.5113, 1292.117
164.9934, 1287.592
165.4755, 1281.838
165.9576, 1275.792
166.4398, 1270.689
166.9219, 1267.337
167.4040, 1264.755
167.8861, 1262.179
168.3682, 1259.511
168.8503, 1257.691
169.3325, 1257.406
169.8146, 1258.372
170.2967, 1260.113
170.7788, 1262.542
171.2609, 1265.626
171.7430, 1269.386
172.2252, 1273.877
172.7073, 1278.758
173.1894, 1283.872
173.6715, 1289.225
174.1536, 1294.627
174.6357, 1299.097
175.1179, 1304.032
175.6000, 1311.533
176.0821, 1322.008
176.5642, 1333.299
177.0463, 1342.883
177.5284, 1351.470
178.0106, 1361.068
178.4927, 1372.841
178.9748, 1386.357
179.4569, 1400.583
179.9390, 1415.510
180.4211, 1431.355
180.9033, 1448.766
181.3854, 1467.691
181.8675, 1487.306
182.3496, 1507.354
182.8317, 1527.737
183.3138, 1549.279
183.7960, 1571.867
184.2781, 1595.599
184.7602, 1620.303
185.2423, 1646.137
185.7244, 1672.447
186.2065, 1698.352
186.6887, 1724.440
187.1708, 1753.944
187.6529, 1787.966
188.1350, 1823.725
188.6171, 1854.901
189.0992, 1881.890
189.5814, 1909.688
190.0635, 1941.282
190.5456, 1976.837
191.0277, 2014.319
191.5098, 2053.823
191.9919, 2095.040
192.4741, 2136.482
192.9562, 2177.953
193.4383, 2220.287
193.9204, 2263.075
194.4025, 2306.429
194.8846, 2352.768
195.3668, 2403.272
195.8489, 2455.895
196.3310, 2506.282
196.8131, 2554.474
197.2952, 2599.834
197.7773, 2642.834
198.2595, 2683.309
198.7416, 2719.995
199.2237, 2752.996
199.7058, 2781.528
200.1879, 2803.100
200.6700, 2817.934
201.1522, 2825.755
201.6343, 2826.668
202.1164, 2820.783
202.5985, 2806.558
203.0806, 2782.978
203.5627, 2751.541
204.0449, 2717.318
204.5270, 2680.691
205.0091, 2639.940
205.4912, 2592.931
205.9733, 2538.669
206.4554, 2483.975
206.9376, 2429.191
207.4197, 2374.815
207.9018, 2320.200
208.3839, 2264.450
208.8660, 2210.572
209.3481, 2161.397
209.8303, 2117.241
210.3124, 2075.227
210.7945, 2034.824
211.2766, 1996.544
211.7587, 1960.701
212.2408, 1926.847
212.7230, 1896.257
213.2051, 1869.800
213.6872, 1848.283
214.1693, 1827.843
214.6514, 1807.710
215.1335, 1788.322
215.6157, 1773.088
216.0978, 1763.138
216.5799, 1754.917
217.0620, 1745.702
217.5441, 1734.225
218.0262, 1725.388
218.5084, 1719.945
218.9905, 1717.451
219.4726, 1715.826
219.9547, 1714.857
220.4368, 1715.103
220.9189, 1717.155
221.4011, 1721.859
221.8832, 1726.234
222.3653, 1729.804
222.8474, 1732.889
223.3295, 1737.172
223.8116, 1743.069
224.2938, 1749.375
224.7759, 1755.389
225.2580, 1760.980
225.7401, 1766.484
226.2222, 1772.136
226.7043, 1777.701
227.1865, 1782.567
227.6686, 1786.941
228.1507, 1790.134
228.6328, 1791.610
229.1149, 1790.873
229.5970, 1789.480
230.0792, 1786.998
230.5613, 1783.937
231.0434, 1782.705
231.5255, 1785.183
232.0076, 1786.820
232.4897, 1784.840
232.9719, 1777.068
233.4540, 1770.706
233.9361, 1766.369
234.4182, 1763.611
234.9003, 1760.812
235.3824, 1758.019
235.8646, 1755.117
236.3467, 1751.824
236.8288, 1747.084
237.3109, 1744.269
237.7930, 1743.722
238.2751, 1745.070
238.7573, 1747.293
239.2394, 1750.592
239.7215, 1754.406
240.2036, 1758.362
240.6857, 1761.745
241.1678, 1766.905
241.6500, 1774.486
242.1321, 1783.605
242.6142, 1792.078
243.0963, 1798.939
243.5784, 1806.529
244.0605, 1815.861
244.5427, 1827.700
245.0248, 1839.447
245.5069, 1850.918
245.9890, 1862.445
246.4711, 1874.470
246.9532, 1886.855
247.4354, 1900.211
247.9175, 1914.853
248.3996, 1931.476
248.8817, 1947.420
249.3638, 1962.226
249.8459, 1976.662
250.3281, 1992.080
250.8102, 2008.588
251.2923, 2026.027
251.7744, 2044.803
252.2565, 2065.231
252.7386, 2084.955
253.2208, 2103.732
253.7029, 2121.978
254.1850, 2140.740
254.6671, 2160.430
255.1492, 2179.878
255.6313, 2198.667
256.1135, 2216.720
256.5956, 2234.100
257.0777, 2250.977
257.5598, 2266.721
258.0419, 2280.519
258.5240, 2292.314
259.0062, 2301.943
259.4883, 2309.855
259.9704, 2316.123
260.4525, 2317.256
260.9346, 2312.005
261.4167, 2303.191
261.8989, 2294.320
262.3810, 2286.764
262.8631, 2275.702
263.3452, 2259.580
263.8273, 2238.229
264.3094, 2217.060
264.7916, 2196.253
265.2737, 2174.931
265.7558, 2151.853
266.2379, 2126.937
266.7200, 2100.973
267.2021, 2073.243
267.6843, 2044.199
268.1664, 2017.191
268.6485, 1992.536
269.1306, 1969.303
269.6127, 1947.108
270.0948, 1926.105
270.5770, 1905.511
271.0591, 1884.977
271.5412, 1864.917
272.0233, 1847.032
272.5054, 1831.984
272.9875, 1818.007
273.4697, 1803.795
273.9518, 1788.983
274.4339, 1775.483
274.9160, 1763.595
275.3981, 1753.167
275.8802, 1743.657
276.3624, 1735.359
276.8445, 1727.451
277.3266, 1719.128
277.8087, 1710.269
278.2908, 1703.178
278.7729, 1698.492
279.2551, 1695.175
279.7372, 1690.986
280.2193, 1685.801
280.7014, 1680.520
281.1835, 1675.231
281.6656, 1669.955
282.1478, 1666.106
282.6299, 1663.906
283.1120, 1662.816
283.5941, 1661.963
284.0762, 1661.333
284.5583, 1661.214
285.0405, 1661.583
285.5226, 1662.493
286.0047, 1664.594
286.4868, 1668.042
286.9689, 1672.158
287.4510, 1675.921
287.9332, 1679.369
288.4153, 1683.392
288.8974, 1688.210
289.3795, 1693.818
289.8616, 1700.176
290.3438, 1707.318
290.8259, 1714.938
291.3080, 1722.647
291.7901, 1730.455
292.2722, 1738.942
292.7543, 1748.490
293.2365, 1758.654
293.7186, 1768.034
294.2007, 1776.529
294.6828, 1785.552
295.1649, 1796.502
295.6470, 1808.963
296.1292, 1821.995
296.6113, 1835.371
297.0934, 1848.979
297.5755, 1862.732
298.0576, 1876.715
298.5397, 1891.022
299.0219, 1905.112
299.5040, 1919.830
299.9861, 1937.128
300.4682, 1958.176
300.9503, 1980.275
301.4324, 1999.994
301.9146, 2017.844
302.3967, 2036.788
302.8788, 2058.697
303.3609, 2082.705
303.8430, 2107.366
304.3251, 2132.617
304.8073, 2157.960
305.2894, 2182.814
305.7715, 2207.417
306.2536, 2233.092
306.7357, 2259.521
307.2178, 2287.608
307.7000, 2318.585
308.1821, 2352.804
308.6642, 2387.070
309.1463, 2418.737
309.6284, 2448.775
310.1105, 2479.188
310.5927, 2511.215
311.0748, 2543.127
311.5569, 2574.214
312.0390, 2604.427
312.5211, 2633.575
313.0032, 2662.141
313.4854, 2689.785
313.9675, 2715.764
314.4496, 2741.247
314.9317, 2763.759
315.4138, 2782.361
315.8959, 2797.105
316.3781, 2808.845
316.8602, 2817.831
317.3423, 2823.948
317.8244, 2827.116
318.3065, 2827.748
318.7886, 2824.853
319.2708, 2817.720
319.7529, 2806.735
320.2350, 2792.933
320.7171, 2778.253
321.1992, 2759.710
321.6813, 2735.207
322.1635, 2701.913
322.6456, 2668.439
323.1277, 2637.900
323.6098, 2607.927
324.0919, 2574.430
324.5740, 2534.760
325.0562, 2493.711
325.5383, 2452.604
326.0204, 2411.505
326.5025, 2370.411
326.9846, 2328.090
327.4667, 2286.426
327.9489, 2246.887
328.4310, 2210.453
328.9131, 2175.037
329.3952, 2139.927
329.8773, 2105.101
330.3594, 2071.967
330.8416, 2041.502
331.3237, 2012.273
331.8058, 1983.323
332.2879, 1953.816
332.7700, 1925.787
333.2521, 1898.876
333.7343, 1873.238
334.2164, 1849.789
334.6985, 1829.777
335.1806, 1810.362
335.6627, 1789.598
336.1448, 1766.245
336.6270, 1746.032
337.1091, 1730.050
337.5912, 1716.794
338.0733, 1703.016
338.5554, 1688.673
339.0375, 1674.407
339.5197, 1660.454
340.0018, 1646.950
340.4839, 1633.180
340.9660, 1618.969
341.4481, 1605.428
341.9302, 1595.042
342.4124, 1588.022
342.8945, 1579.880
343.3766, 1568.564
343.8587, 1555.058
344.3408, 1543.274
344.8229, 1533.334
345.3051, 1524.708
345.7872, 1517.522
346.2693, 1511.537
346.7514, 1504.784
347.2335, 1496.602
347.7156, 1487.901
348.1978, 1480.729
348.6799, 1475.005
349.1620, 1469.563
349.6441, 1463.563
350.1262, 1457.287
350.6083, 1451.383
351.0905, 1445.875
351.5726, 1440.756
352.0547, 1435.742
352.5368, 1431.033
353.0189, 1427.237
353.5010, 1425.858
353.9832, 1424.983
354.4653, 1421.674
354.9474, 1415.663
355.4295, 1410.279
355.9116, 1408.800
356.3937, 1409.473
356.8759, 1409.687
357.3580, 1408.181
357.8401, 1406.148
358.3222, 1404.094
358.8043, 1402.084
359.2864, 1400.617
359.7686, 1400.271
360.2507, 1400.413
360.7328, 1400.491
361.2149, 1400.223
361.6970, 1400.131
362.1791, 1400.526
362.6613, 1401.233
363.1434, 1401.865
363.6255, 1402.312
364.1076, 1402.617
364.5897, 1402.739
365.0718, 1402.567
365.5540, 1402.553
366.0361, 1402.792
366.5182, 1403.228
367.0003, 1403.794
367.4824, 1405.043
367.9645, 1405.875
368.4467, 1405.847
368.9288, 1404.920
369.4109, 1404.462
369.8930, 1404.636
370.3751, 1405.200
370.8572, 1406.027
371.3394, 1407.325
371.8215, 1408.565
372.3036, 1409.772
372.7857, 1410.893
373.2678, 1411.673
373.7499, 1411.756
374.2321, 1412.109
374.7142, 1413.312
375.1963, 1415.690
375.6784, 1417.396
376.1605, 1418.092
376.6426, 1418.503
377.1248, 1419.991
377.6069, 1422.872
378.0890, 1424.929
378.5711, 1424.961
379.0532, 1423.395
379.5353, 1423.596
380.0175, 1425.869
380.4996, 1428.419
380.9817, 1429.311
381.4638, 1428.770
381.9459, 1428.714
382.4280, 1429.606
382.9102, 1431.071
383.3923, 1432.262
383.8744, 1433.244
384.3565, 1434.667
384.8386, 1437.682
385.3207, 1441.311
385.8029, 1443.328
386.2850, 1443.375
386.7671, 1442.634
387.2492, 1441.915
387.7313, 1441.324
388.2134, 1441.122
388.6956, 1441.584
389.1777, 1442.399
389.6598, 1443.410
390.1419, 1444.605
390.6240, 1445.746
391.1061, 1446.860
391.5883, 1447.809
392.0704, 1448.364
392.5525, 1447.620
393.0346, 1447.671
393.5167, 1450.193
393.9988, 1454.358
394.4810, 1457.853
394.9631, 1458.846
395.4452, 1459.771
395.9273, 1461.776
396.4094, 1465.041
396.8915, 1469.232
397.3737, 1475.143
397.8558, 1481.649
398.3379, 1487.363
398.8200, 1490.675
399.3021, 1494.704
399.7842, 1500.022
400.2664, 1506.607
400.7485, 1513.932
401.2306, 1522.426
401.7127, 1531.111
402.1948, 1539.399
402.6769, 1547.395
403.1591, 1554.581
403.6412, 1560.206
404.1233, 1565.303
404.6054, 1573.073
405.0875, 1584.543
405.5696, 1595.441
406.0518, 1603.744
406.5339, 1609.377
407.0160, 1615.677
407.4981, 1622.761
407.9802, 1630.092
408.4623, 1636.888
408.9445, 1643.213
409.4266, 1650.114
409.9087, 1658.298
410.3908, 1666.909
410.8729, 1673.485
411.3550, 1678.130
411.8372, 1682.694
412.3193, 1688.921
412.8014, 1696.076
413.2835, 1702.471
413.7656, 1707.880
414.2477, 1712.670
414.7299, 1717.042
415.2120, 1721.040
415.6941, 1724.669
416.1762, 1728.178
416.6583, 1731.145
417.1404, 1733.113
417.6226, 1734.080
418.1047, 1734.466
418.5868, 1733.286
419.0689, 1732.191
419.5510, 1732.948
420.0331, 1738.658
420.5153, 1742.719
420.9974, 1741.552
421.4795, 1736.757
421.9616, 1732.389
422.4437, 1729.553
422.9258, 1727.309
423.4080, 1725.553
423.8901, 1724.703
424.3722, 1722.832
424.8543, 1718.983
425.3364, 1714.491
425.8185, 1710.710
426.3007, 1708.654
426.7828, 1705.738
427.2649, 1700.905
427.7470, 1694.692
428.2291, 1690.892
428.7112, 1691.258
429.1934, 1690.987
429.6755, 1686.763
430.1576, 1677.380
430.6397, 1670.488
431.1218, 1667.087
431.6039, 1664.926
432.0861, 1660.281
432.5682, 1652.999
433.0503, 1645.411
433.5324, 1638.104
434.0145, 1631.111
434.4966, 1624.826
434.9788, 1619.300
435.4609, 1613.456
435.9430, 1605.992
436.4251, 1597.424
436.9072, 1589.196
437.3893, 1581.501
437.8715, 1574.254
438.3536, 1567.430
438.8357, 1560.979
439.3178, 1554.768
439.7999, 1548.425
440.2820, 1542.427
440.7642, 1537.651
441.2463, 1534.081
441.7284, 1529.991
442.2105, 1523.603
442.6926, 1516.537
443.1747, 1510.365
443.6569, 1506.132
444.1390, 1502.040
444.6211, 1497.771
445.1032, 1493.247
445.5853, 1488.383
446.0674, 1482.360
446.5496, 1476.692
447.0317, 1471.884
447.5138, 1467.928
447.9959, 1465.080
448.4780, 1464.105
448.9601, 1463.755
449.4423, 1462.817
449.9244, 1461.166
450.4065, 1459.252
450.8886, 1457.000
451.3707, 1454.560
451.8528, 1452.261
452.3350, 1449.774
452.8171, 1448.370
453.2992, 1449.198
453.7813, 1452.282
454.2634, 1454.171
454.7455, 1454.512
455.2277, 1454.495
455.7098, 1456.096
456.1919, 1458.959
456.6740, 1460.738
457.1561, 1459.919
457.6382, 1458.167
458.1204, 1458.515
458.6025, 1460.753
459.0846, 1463.284
459.5667, 1465.166
460.0488, 1466.692
460.5309, 1468.090
461.0131, 1469.255
461.4952, 1470.989
461.9773, 1474.499
462.4594, 1478.771
462.9415, 1482.370
463.4236, 1483.460
463.9058, 1484.916
464.3879, 1488.553
464.8700, 1494.049
465.3521, 1498.630
465.8342, 1500.642
466.3163, 1502.296
466.7985, 1504.806
467.2806, 1508.556
467.7627, 1512.631
468.2448, 1517.147
468.7269, 1521.875
469.2090, 1526.472
469.6912, 1530.488
470.1733, 1535.330
470.6554, 1541.688
471.1375, 1549.315
471.6196, 1555.849
472.1017, 1561.186
472.5839, 1565.726
473.0660, 1569.266
473.5481, 1571.774
474.0302, 1576.217
474.5123, 1583.169
474.9944, 1591.218
475.4766, 1598.487
475.9587, 1605.058
476.4408, 1611.333
476.9229, 1616.837
477.4050, 1622.493
477.8871, 1629.926
478.3693, 1639.040
478.8514, 1648.827
479.3335, 1659.007
479.8156, 1669.331
480.2977, 1679.192
480.7798, 1688.087
481.2620, 1697.744
481.7441, 1709.394
482.2262, 1722.347
482.7083, 1735.589
483.1904, 1748.455
483.6725, 1761.880
484.1547, 1776.122
484.6368, 1791.094
485.1189, 1806.572
485.6010, 1822.978
486.0831, 1839.555
486.5652, 1855.605
487.0474, 1869.994
487.5295, 1886.605
488.0116, 1906.258
488.4937, 1927.331
488.9758, 1947.492
489.4579, 1965.979
489.9401, 1986.195
490.4222, 2009.790
490.9043, 2035.689
491.3864, 2059.177
491.8685, 2079.795
492.3506, 2101.890
492.8328, 2130.114
493.3149, 2162.702
493.7970, 2191.522
494.2791, 2215.445
494.7612, 2238.753
495.2433, 2266.947
495.7255, 2298.708
496.2076, 2330.959
496.6897, 2362.660
497.1718, 2394.340
497.6539, 2425.175
498.1360, 2455.667
498.6182, 2488.529
499.1003, 2525.777
499.5824, 2565.342
500.0645, 2605.229
500.5466, 2646.062
501.0287, 2686.077
501.5109, 2723.285
501.9930, 2760.194
502.4751, 2798.846
502.9572, 2840.823
503.4393, 2882.923
503.9214, 2924.405
504.4036, 2965.324
504.8857, 3007.319
505.3678, 3052.102
505.8499, 3095.741
506.3320, 3136.155
506.8141, 3173.004
507.2963, 3211.994
507.7784, 3254.226
508.2605, 3297.016
508.7426, 3338.789
509.2247, 3379.500
509.7068, 3418.535
510.1890, 3455.673
510.6711, 3491.125
511.1532, 3524.651
511.6353, 3556.323
512.1174, 3585.702
512.5995, 3612.339
513.0817, 3636.990
513.5638, 3661.317
514.0459, 3685.188
514.5280, 3705.564
515.0101, 3722.005
515.4922, 3733.352
515.9744, 3738.270
516.4565, 3735.834
516.9386, 3728.562
517.4207, 3717.079
517.9028, 3701.365
518.3849, 3681.367
518.8671, 3657.655
519.3492, 3628.884
519.8313, 3594.037
520.3134, 3553.610
520.7955, 3510.352
521.2776, 3464.698
521.7598, 3415.281
522.2419, 3360.980
522.7240, 3300.292
523.2061, 3241.560
523.6882, 3185.412
524.1703, 3129.607
524.6525, 3070.813
525.1346, 3009.002
525.6167, 2946.967
526.0988, 2885.993
526.5809, 2825.644
527.0630, 2764.708
527.5452, 2703.813
528.0273, 2645.189
528.5094, 2590.688
528.9915, 2538.483
529.4736, 2485.358
529.9557, 2430.788
530.4379, 2378.022
530.9200, 2327.477
531.4021, 2279.708
531.8842, 2235.094
532.3663, 2194.735
532.8484, 2156.081
533.3306, 2119.810
533.8127, 2084.805
534.2948, 2049.653
534.7769, 2011.141
535.2590, 1975.526
535.7411, 1944.854
536.2233, 1919.104
536.7054, 1892.642
537.1875, 1864.353
537.6696, 1838.017
538.1517, 1816.593
538.6339, 1800.725
539.1160, 1783.536
539.5981, 1764.366
540.0802, 1744.970
540.5623, 1726.539
541.0444, 1709.303
541.5266, 1694.290
542.0087, 1682.843
542.4908, 1672.566
542.9729, 1659.463
543.4550, 1644.505
543.9371, 1631.177
544.4193, 1621.266
544.9014, 1613.811
545.3835, 1608.881
545.8656, 1606.638
546.3477, 1603.221
546.8298, 1595.800
547.3120, 1587.152
547.7941, 1579.624
548.2762, 1574.286
548.7583, 1569.027
549.2404, 1563.469
549.7225, 1557.943
550.2047, 1553.029
550.6868, 1548.891
551.1689, 1545.079
551.6510, 1541.752
552.1331, 1538.730
552.6152, 1534.715
553.0974, 1529.523
553.5795, 1524.342
554.0616, 1519.952
554.5437, 1516.287
555.0258, 1512.787
555.5079, 1509.379
555.9901, 1506.531
556.4722, 1504.850
556.9543, 1504.053
557.4364, 1503.665
557.9185, 1504.111
558.4006, 1503.989
558.8828, 1501.086
559.3649, 1496.729
559.8470, 1493.944
560.3291, 1495.462
560.8112, 1497.383
561.2933, 1497.693
561.7755, 1496.270
562.2576, 1495.653
562.7397, 1497.105
563.2218, 1498.671
563.7039, 1499.448
564.1860, 1499.346
564.6682, 1498.607
565.1503, 1496.919
565.6324, 1495.018
566.1145, 1493.968
566.5966, 1493.894
567.0787, 1493.661
567.5609, 1492.990
568.0430, 1492.135
568.5251, 1491.657
569.0072, 1491.527
569.4893, 1491.442
569.9714, 1490.921
570.4536, 1490.493
570.9357, 1491.052
571.4178, 1492.552
571.8999, 1494.198
572.3820, 1495.491
572.8641, 1496.658
573.3463, 1497.941
573.8284, 1499.583
574.3105, 1500.776
574.7926, 1501.058
575.2747, 1500.820
575.7568, 1500.528
576.2390, 1499.129
576.7211, 1499.186
577.2032, 1501.896
577.6853, 1506.194
578.1674, 1508.039
578.6495, 1506.468
579.1317, 1505.300
579.6138, 1506.334
580.0959, 1509.275
580.5780, 1511.732
581.0601, 1513.743
581.5422, 1515.190
582.0244, 1515.887
582.5065, 1515.970
582.9886, 1515.558
583.4707, 1514.521
