##NAMES=Phlogopite
##RRUFFID=R070330
##IDEAL CHEMISTRY=KMg_3_(Si_3_Al)O_10_(OH)_2_
##LOCALITY=Little Chief mine, Whitehorse, Yukon Territory, Canada
##OWNER=RRUFF
##SOURCE=Mark Mauthner
##DESCRIPTION=Green micaceous
##STATUS=The identification of this mineral has been confirmed by X-ray diffraction and chemical analysis
##URL=rruff.info/R070330
##MEASURED CHEMISTRY=K_1.00_(Mg_2.65_Fe^2+^_0.34_Ti_0.01_)_Σ=3_(Si_2.98_Al_1.02_)O_10_((OH)_1.77_F_0.23_)_Σ=2_; (gray area) trace amounts of Mn; OH by charge balance; light phase is diopside: Ca_1.00_(Mg_0.96_Fe_0.04_)_Σ=1_Si_2.00_O_6_; dark phase: Mg-rich chlorite
164.6075, 3875.572
165.0896, 3879.974
165.5717, 3885.734
166.0538, 3896.037
166.5359, 3909.591
167.0180, 3924.521
167.5002, 3939.988
167.9823, 3956.691
168.4644, 3975.448
168.9465, 3996.506
169.4286, 4018.327
169.9107, 4041.954
170.3929, 4065.512
170.8750, 4085.671
171.3571, 4093.861
171.8392, 4100.503
172.3213, 4116.700
172.8034, 4144.184
173.2856, 4179.522
173.7677, 4225.518
174.2498, 4278.698
174.7319, 4326.320
175.2140, 4356.435
175.6961, 4377.206
176.1783, 4399.363
176.6604, 4421.621
177.1425, 4451.144
177.6246, 4501.773
178.1067, 4570.383
178.5888, 4640.181
179.0710, 4697.079
179.5531, 4745.271
180.0352, 4792.553
180.5173, 4838.951
180.9994, 4886.696
181.4815, 4934.273
181.9637, 4982.459
182.4458, 5042.231
182.9279, 5131.669
183.4100, 5243.286
183.8921, 5349.535
184.3742, 5436.526
184.8564, 5515.985
185.3385, 5612.583
185.8206, 5727.711
186.3027, 5853.139
186.7848, 5985.517
187.2669, 6123.645
187.7491, 6262.604
188.2312, 6400.594
188.7133, 6537.485
189.1954, 6680.057
189.6775, 6830.407
190.1596, 6972.899
190.6418, 7092.847
191.1239, 7189.634
191.6060, 7264.632
192.0881, 7326.044
192.5702, 7370.347
193.0524, 7364.418
193.5345, 7305.120
194.0166, 7204.355
194.4987, 7075.063
194.9808, 6916.246
195.4629, 6743.161
195.9451, 6556.175
196.4272, 6353.543
196.9093, 6175.616
197.3914, 6028.443
197.8735, 5898.419
198.3556, 5757.531
198.8378, 5603.288
199.3199, 5457.003
199.8020, 5331.466
200.2841, 5228.537
200.7662, 5135.489
201.2483, 5053.090
201.7305, 4978.868
202.2126, 4905.770
202.6947, 4832.232
203.1768, 4765.653
203.6589, 4711.065
204.1410, 4669.955
204.6232, 4634.125
205.1053, 4603.908
205.5874, 4578.082
206.0695, 4552.967
206.5516, 4528.877
207.0337, 4504.673
207.5159, 4479.524
207.9980, 4453.958
208.4801, 4427.021
208.9622, 4397.943
209.4443, 4367.436
209.9264, 4337.817
210.4086, 4306.736
210.8907, 4281.196
211.3728, 4269.594
211.8549, 4277.911
212.3370, 4278.360
212.8191, 4261.785
213.3013, 4232.035
213.7834, 4223.167
214.2655, 4244.760
214.7476, 4271.893
215.2297, 4282.162
215.7118, 4269.791
216.1940, 4256.720
216.6761, 4246.692
217.1582, 4239.514
217.6403, 4231.670
218.1224, 4222.412
218.6045, 4213.606
219.0867, 4206.852
219.5688, 4201.914
220.0509, 4199.807
220.5330, 4201.350
221.0151, 4206.641
221.4972, 4212.531
221.9794, 4222.391
222.4615, 4229.163
222.9436, 4222.652
223.4257, 4190.862
223.9078, 4171.036
224.3899, 4176.618
224.8721, 4210.833
225.3542, 4228.253
225.8363, 4222.575
226.3184, 4206.256
226.8005, 4192.403
227.2827, 4177.525
227.7648, 4172.354
228.2469, 4182.379
228.7290, 4210.340
229.2111, 4232.368
229.6932, 4249.641
230.1754, 4259.785
230.6575, 4258.069
231.1396, 4235.925
231.6217, 4216.947
232.1038, 4206.490
232.5859, 4204.261
233.0681, 4213.985
233.5502, 4245.820
234.0323, 4282.265
234.5144, 4296.418
234.9965, 4274.054
235.4786, 4253.307
235.9608, 4247.475
236.4429, 4261.917
236.9250, 4265.809
237.4071, 4252.274
237.8892, 4232.423
238.3713, 4224.772
238.8535, 4237.391
239.3356, 4248.593
239.8177, 4249.537
240.2998, 4234.592
240.7819, 4232.046
241.2640, 4248.986
241.7462, 4274.157
242.2283, 4287.810
242.7104, 4283.991
243.1925, 4278.436
243.6746, 4276.402
244.1567, 4279.369
244.6389, 4280.862
245.1210, 4280.908
245.6031, 4279.479
246.0852, 4276.268
246.5673, 4270.155
247.0494, 4264.144
247.5316, 4258.929
248.0137, 4253.893
248.4958, 4251.808
248.9779, 4253.126
249.4600, 4257.171
249.9421, 4262.458
250.4243, 4268.124
250.9064, 4276.635
251.3885, 4289.522
251.8706, 4308.650
252.3527, 4327.030
252.8348, 4348.317
253.3170, 4366.618
253.7991, 4367.741
254.2812, 4340.124
254.7633, 4317.498
255.2454, 4314.079
255.7275, 4336.017
256.2097, 4354.948
256.6918, 4371.616
257.1739, 4384.568
257.6560, 4389.587
258.1381, 4381.129
258.6202, 4376.230
259.1024, 4382.426
259.5845, 4402.866
260.0666, 4421.042
260.5487, 4436.342
261.0308, 4449.801
261.5129, 4463.472
261.9951, 4476.289
262.4772, 4491.661
262.9593, 4512.760
263.4414, 4543.019
263.9235, 4561.790
264.4056, 4563.162
264.8878, 4558.777
265.3699, 4571.340
265.8520, 4607.625
266.3341, 4641.770
266.8162, 4661.735
267.2983, 4663.679
267.7805, 4675.689
268.2626, 4700.552
268.7447, 4732.321
269.2268, 4761.525
269.7089, 4788.187
270.1910, 4812.077
270.6732, 4832.649
271.1553, 4849.384
271.6374, 4865.991
272.1195, 4880.610
272.6016, 4897.879
273.0837, 4927.082
273.5659, 4971.155
274.0480, 5012.744
274.5301, 5045.315
275.0122, 5068.458
275.4943, 5089.233
275.9764, 5107.392
276.4586, 5123.649
276.9407, 5138.214
277.4228, 5150.491
277.9049, 5164.753
278.3870, 5185.732
278.8691, 5212.664
279.3513, 5227.123
279.8334, 5227.569
280.3155, 5219.505
280.7976, 5208.963
281.2798, 5195.967
281.7619, 5182.179
282.2440, 5168.837
282.7261, 5155.522
283.2082, 5139.820
283.6903, 5122.323
284.1725, 5100.260
284.6546, 5067.411
285.1367, 5024.506
285.6188, 4983.220
286.1009, 4947.180
286.5830, 4916.085
287.0652, 4888.250
287.5473, 4863.706
288.0294, 4843.726
288.5115, 4832.857
288.9936, 4829.738
289.4757, 4823.150
289.9579, 4803.959
290.4400, 4779.873
290.9221, 4776.024
291.4042, 4793.961
291.8863, 4812.820
292.3684, 4810.788
292.8506, 4791.274
293.3327, 4768.669
293.8148, 4743.288
294.2969, 4719.879
294.7790, 4709.187
295.2611, 4711.214
295.7433, 4716.460
296.2254, 4716.446
296.7075, 4713.053
297.1896, 4711.673
297.6717, 4714.794
298.1538, 4719.875
298.6360, 4722.629
299.1181, 4723.321
299.6002, 4724.791
300.0823, 4726.141
300.5644, 4730.176
301.0465, 4743.555
301.5287, 4774.759
302.0108, 4807.511
302.4929, 4822.167
302.9750, 4820.884
303.4571, 4815.204
303.9392, 4804.815
304.4214, 4797.155
304.9035, 4804.643
305.3856, 4839.985
305.8677, 4875.200
306.3498, 4880.219
306.8319, 4862.507
307.3141, 4848.477
307.7962, 4857.929
308.2783, 4876.748
308.7604, 4890.731
309.2425, 4894.250
309.7246, 4898.115
310.2068, 4911.450
310.6889, 4930.837
311.1710, 4947.532
311.6531, 4948.804
312.1352, 4950.978
312.6173, 4967.753
313.0995, 5005.621
313.5816, 5044.883
314.0637, 5081.007
314.5458, 5112.004
315.0279, 5134.521
315.5100, 5143.851
315.9922, 5146.938
316.4743, 5143.615
316.9564, 5129.282
317.4385, 5127.667
317.9206, 5154.196
318.4027, 5196.408
318.8849, 5236.888
319.3670, 5279.480
319.8491, 5312.065
320.3312, 5324.826
320.8133, 5312.194
321.2954, 5310.194
321.7776, 5334.648
322.2597, 5369.720
322.7418, 5398.534
323.2239, 5414.455
323.7060, 5428.103
324.1881, 5442.393
324.6703, 5457.752
325.1524, 5469.420
325.6345, 5464.418
326.1166, 5462.184
326.5987, 5478.558
327.0808, 5540.844
327.5630, 5589.556
328.0451, 5611.882
328.5272, 5609.386
329.0093, 5616.380
329.4914, 5638.587
329.9735, 5664.865
330.4557, 5687.564
330.9378, 5701.351
331.4199, 5721.563
331.9020, 5754.919
332.3841, 5796.625
332.8662, 5821.211
333.3484, 5816.447
333.8305, 5812.745
334.3126, 5829.206
334.7947, 5875.305
335.2768, 5910.855
335.7589, 5929.280
336.2411, 5938.541
336.7232, 5961.010
337.2053, 6001.433
337.6874, 6040.744
338.1695, 6069.847
338.6516, 6087.430
339.1338, 6102.334
339.6159, 6111.372
340.0980, 6122.858
340.5801, 6153.237
341.0622, 6204.906
341.5443, 6257.174
342.0265, 6305.803
342.5086, 6349.569
342.9907, 6377.161
343.4728, 6384.902
343.9549, 6389.977
344.4370, 6416.368
344.9192, 6461.621
345.4013, 6503.626
345.8834, 6530.535
346.3655, 6549.281
346.8476, 6577.200
347.3297, 6614.317
347.8119, 6655.748
348.2940, 6702.910
348.7761, 6751.366
349.2582, 6785.906
349.7403, 6796.592
350.2225, 6798.159
350.7046, 6812.708
351.1867, 6838.780
351.6688, 6864.105
352.1509, 6884.793
352.6331, 6897.891
353.1152, 6896.950
353.5973, 6874.348
354.0794, 6849.073
354.5615, 6841.898
355.0436, 6846.817
355.5258, 6845.550
356.0079, 6828.412
356.4900, 6800.492
356.9721, 6765.629
357.4542, 6723.871
357.9363, 6677.012
358.4185, 6615.575
358.9006, 6550.813
359.3827, 6502.195
359.8648, 6499.255
360.3469, 6497.022
360.8290, 6469.680
361.3112, 6411.511
361.7933, 6353.076
362.2754, 6292.340
362.7575, 6240.277
363.2396, 6208.691
363.7217, 6241.280
364.2039, 6254.045
364.6860, 6212.517
365.1681, 6115.436
365.6502, 6038.639
366.1323, 6003.855
366.6144, 5983.462
367.0966, 5958.485
367.5787, 5930.982
368.0608, 5895.578
368.5429, 5843.156
369.0250, 5779.593
369.5071, 5736.508
369.9893, 5723.726
370.4714, 5720.015
370.9535, 5716.934
371.4356, 5719.795
371.9177, 5710.038
372.3998, 5680.232
372.8820, 5641.255
373.3641, 5618.603
373.8462, 5617.455
374.3283, 5619.460
374.8104, 5620.773
375.2925, 5622.667
375.7747, 5603.943
376.2568, 5555.477
376.7389, 5504.146
377.2210, 5493.135
377.7031, 5525.823
378.1852, 5549.300
378.6674, 5540.779
379.1495, 5510.459
379.6316, 5505.505
380.1137, 5528.350
380.5958, 5554.904
381.0779, 5560.938
381.5601, 5550.406
382.0422, 5542.790
382.5243, 5543.626
383.0064, 5547.813
383.4885, 5545.269
383.9706, 5537.109
384.4528, 5531.738
384.9349, 5534.608
385.4170, 5544.045
385.8991, 5559.098
386.3812, 5582.162
386.8633, 5602.979
387.3455, 5609.892
387.8276, 5607.165
388.3097, 5604.630
388.7918, 5603.900
389.2739, 5607.507
389.7560, 5617.961
390.2382, 5635.688
390.7203, 5657.417
391.2024, 5686.035
391.6845, 5716.017
392.1666, 5741.349
392.6487, 5761.875
393.1309, 5775.393
393.6130, 5781.760
394.0951, 5780.820
394.5772, 5770.140
395.0593, 5736.103
395.5414, 5700.338
396.0236, 5676.743
396.5057, 5689.946
396.9878, 5688.322
397.4699, 5657.345
397.9520, 5606.790
398.4341, 5567.654
398.9163, 5544.740
399.3984, 5528.376
399.8805, 5516.180
400.3626, 5510.569
400.8447, 5501.650
401.3268, 5486.908
401.8090, 5470.730
402.2911, 5458.059
402.7732, 5447.192
403.2553, 5445.056
403.7374, 5456.823
404.2195, 5481.306
404.7017, 5496.243
405.1838, 5499.821
405.6659, 5498.771
406.1480, 5497.885
406.6301, 5497.111
407.1122, 5499.720
407.5944, 5507.939
408.0765, 5518.200
408.5586, 5520.541
409.0407, 5515.136
409.5228, 5510.158
410.0049, 5509.350
410.4871, 5513.112
410.9692, 5523.519
411.4513, 5541.681
411.9334, 5563.048
412.4155, 5588.327
412.8976, 5613.813
413.3798, 5628.186
413.8619, 5616.213
414.3440, 5596.785
414.8261, 5587.569
415.3082, 5589.080
415.7903, 5599.794
416.2725, 5625.552
416.7546, 5657.375
417.2367, 5686.002
417.7188, 5714.198
418.2009, 5731.560
418.6830, 5723.179
419.1652, 5697.092
419.6473, 5683.111
420.1294, 5698.050
420.6115, 5722.517
421.0937, 5747.790
421.5758, 5776.624
422.0579, 5796.705
422.5400, 5803.275
423.0221, 5800.877
423.5042, 5796.852
423.9864, 5782.891
424.4685, 5777.247
424.9506, 5790.427
425.4327, 5825.492
425.9148, 5835.009
426.3969, 5800.984
426.8791, 5761.928
427.3612, 5753.788
427.8433, 5787.912
428.3254, 5818.294
428.8075, 5841.703
429.2896, 5855.751
429.7718, 5846.663
430.2539, 5809.361
430.7360, 5775.766
431.2181, 5769.998
431.7002, 5789.557
432.1823, 5796.230
432.6645, 5785.829
433.1466, 5770.185
433.6287, 5768.354
434.1108, 5777.002
434.5929, 5779.099
435.0750, 5759.838
435.5572, 5733.004
436.0393, 5723.817
436.5214, 5731.705
437.0035, 5744.542
437.4856, 5759.893
437.9677, 5772.160
438.4499, 5772.322
438.9320, 5752.778
439.4141, 5729.664
439.8962, 5713.954
440.3783, 5703.648
440.8604, 5693.136
441.3426, 5674.526
441.8247, 5659.274
442.3068, 5655.263
442.7889, 5665.578
443.2710, 5676.324
443.7531, 5688.960
444.2353, 5698.106
444.7174, 5698.022
445.1995, 5667.741
445.6816, 5650.269
446.1637, 5662.557
446.6458, 5700.254
447.1280, 5716.354
447.6101, 5692.285
448.0922, 5667.067
448.5743, 5664.448
449.0564, 5698.270
449.5385, 5717.062
450.0207, 5715.313
450.5028, 5701.792
450.9849, 5691.747
451.4670, 5685.277
451.9491, 5682.053
452.4312, 5680.363
452.9134, 5681.268
453.3955, 5697.789
453.8776, 5732.621
454.3597, 5763.511
454.8418, 5753.831
455.3239, 5717.323
455.8061, 5716.464
456.2882, 5781.942
456.7703, 5863.313
457.2524, 5888.363
457.7345, 5865.948
458.2166, 5832.266
458.6988, 5802.262
459.1809, 5775.632
459.6630, 5753.684
460.1451, 5737.002
460.6272, 5719.839
461.1093, 5692.294
461.5915, 5664.120
462.0736, 5648.070
462.5557, 5665.529
463.0378, 5678.951
463.5199, 5672.459
464.0020, 5648.202
464.4842, 5623.377
464.9663, 5596.500
465.4484, 5573.874
465.9305, 5558.618
466.4126, 5550.915
466.8947, 5550.353
467.3769, 5560.974
467.8590, 5576.929
468.3411, 5590.021
468.8232, 5603.904
469.3053, 5606.684
469.7874, 5590.742
470.2696, 5557.717
470.7517, 5539.098
471.2338, 5537.646
471.7159, 5542.146
472.1980, 5544.724
472.6801, 5545.340
473.1623, 5541.109
473.6444, 5528.856
474.1265, 5516.959
474.6086, 5523.837
475.0907, 5546.504
475.5728, 5565.636
476.0550, 5567.752
476.5371, 5560.962
477.0192, 5558.728
477.5013, 5561.556
477.9834, 5563.607
478.4655, 5557.105
478.9477, 5548.127
479.4298, 5544.809
479.9119, 5552.184
480.3940, 5562.393
480.8761, 5572.789
481.3582, 5582.966
481.8404, 5591.614
482.3225, 5601.247
482.8046, 5606.813
483.2867, 5601.881
483.7688, 5577.160
484.2509, 5572.475
484.7331, 5609.878
485.2152, 5659.177
485.6973, 5693.378
486.1794, 5707.845
486.6615, 5714.235
487.1436, 5708.846
487.6258, 5696.396
488.1079, 5701.401
488.5900, 5729.488
489.0721, 5759.461
489.5542, 5778.948
490.0363, 5787.944
490.5185, 5798.873
491.0006, 5811.936
491.4827, 5827.013
491.9648, 5847.888
492.4470, 5872.263
492.9291, 5886.011
493.4112, 5876.799
493.8933, 5860.589
494.3754, 5863.970
494.8575, 5884.366
495.3397, 5905.350
495.8218, 5916.362
496.3039, 5922.435
496.7860, 5927.785
497.2681, 5931.916
497.7502, 5940.204
498.2324, 5959.362
498.7145, 5983.341
499.1966, 6004.290
499.6787, 6024.596
500.1608, 6036.545
500.6429, 6032.658
501.1251, 6014.361
501.6072, 6004.187
502.0893, 6003.030
502.5714, 6010.761
503.0535, 6029.228
503.5356, 6067.828
504.0178, 6094.337
504.4999, 6105.856
504.9820, 6107.611
505.4641, 6105.364
505.9462, 6097.236
506.4283, 6095.246
506.9105, 6105.043
507.3926, 6123.136
507.8747, 6135.438
508.3568, 6141.747
508.8389, 6146.606
509.3210, 6156.286
509.8032, 6167.228
510.2853, 6166.581
510.7674, 6149.455
511.2495, 6134.864
511.7316, 6151.941
512.2137, 6185.532
512.6959, 6204.616
513.1780, 6180.297
513.6601, 6150.663
514.1422, 6140.687
514.6243, 6148.349
515.1064, 6157.811
515.5886, 6162.330
516.0707, 6167.153
516.5528, 6174.863
517.0349, 6183.730
517.5170, 6199.942
517.9991, 6237.297
518.4813, 6277.074
518.9634, 6294.425
519.4455, 6276.741
519.9276, 6257.978
520.4097, 6243.482
520.8918, 6233.374
521.3740, 6225.743
521.8561, 6218.939
522.3382, 6220.086
522.8203, 6240.488
523.3024, 6278.039
523.7845, 6297.767
524.2667, 6295.773
524.7488, 6283.579
525.2309, 6272.254
525.7130, 6262.025
526.1951, 6253.366
526.6772, 6241.381
527.1594, 6235.751
527.6415, 6259.382
528.1236, 6303.621
528.6057, 6330.785
529.0878, 6307.907
529.5699, 6266.908
530.0521, 6227.099
530.5342, 6186.794
531.0163, 6165.406
531.4984, 6183.626
531.9805, 6217.467
532.4626, 6241.456
532.9448, 6247.257
533.4269, 6248.779
533.9090, 6245.613
534.3911, 6239.080
534.8732, 6233.881
535.3553, 6228.212
535.8375, 6227.341
536.3196, 6235.913
536.8017, 6254.866
537.2838, 6263.284
537.7659, 6257.932
538.2480, 6252.994
538.7302, 6266.372
539.2123, 6295.468
539.6944, 6320.804
540.1765, 6336.178
540.6586, 6349.637
541.1407, 6377.571
541.6229, 6414.924
542.1050, 6444.001
542.5871, 6446.583
543.0692, 6442.379
543.5513, 6449.880
544.0334, 6469.921
544.5156, 6489.471
544.9977, 6498.358
545.4798, 6506.590
545.9619, 6522.402
546.4440, 6556.056
546.9261, 6584.360
547.4083, 6602.509
547.8904, 6613.672
548.3725, 6623.928
548.8546, 6638.800
549.3367, 6643.425
549.8188, 6630.727
550.3010, 6602.692
550.7831, 6584.187
551.2652, 6578.448
551.7473, 6571.375
552.2294, 6551.910
552.7115, 6521.174
553.1937, 6490.607
553.6758, 6460.943
554.1579, 6432.159
554.6400, 6402.184
555.1221, 6372.747
555.6042, 6349.576
556.0864, 6338.476
556.5685, 6330.299
557.0506, 6320.492
557.5327, 6307.364
558.0148, 6284.591
558.4969, 6231.750
558.9791, 6181.259
559.4612, 6155.494
559.9433, 6161.425
560.4254, 6167.882
560.9075, 6169.259
561.3896, 6168.784
561.8718, 6169.894
562.3539, 6179.425
562.8360, 6177.883
563.3181, 6157.439
563.8002, 6128.148
564.2823, 6116.697
564.7645, 6128.095
565.2466, 6135.074
565.7287, 6124.719
566.2108, 6100.976
566.6929, 6083.791
567.1750, 6073.580
567.6572, 6063.690
568.1393, 6045.699
568.6214, 6024.693
569.1035, 6010.861
569.5856, 6005.398
570.0677, 6008.278
570.5499, 6033.944
571.0320, 6064.935
571.5141, 6073.890
571.9962, 6017.135
572.4783, 5969.943
572.9604, 5972.916
573.4426, 6015.748
573.9247, 6043.607
574.4068, 6034.323
574.8889, 6020.398
575.3710, 6014.309
575.8531, 6018.293
576.3353, 6018.834
576.8174, 6015.683
577.2995, 6009.447
577.7816, 5996.372
578.2637, 5974.402
578.7458, 5971.440
579.2280, 5996.910
579.7101, 6033.215
580.1922, 6049.054
580.6743, 6047.071
581.1564, 6042.211
581.6385, 6040.191
582.1207, 6039.846
582.6028, 6039.927
583.0849, 6040.420
583.5670, 6041.194
584.0491, 6050.319
584.5313, 6054.480
585.0134, 6038.099
585.4955, 5986.879
585.9776, 5954.750
586.4597, 5973.243
586.9418, 6010.626
587.4240, 6030.391
587.9061, 6015.868
588.3882, 6007.998
588.8703, 6011.523
589.3524, 6024.388
589.8345, 6042.895
590.3167, 6070.043
590.7988, 6091.318
591.2809, 6098.850
591.7630, 6094.955
592.2451, 6086.724
592.7272, 6073.612
593.2094, 6069.507
593.6915, 6100.187
594.1736, 6145.217
594.6557, 6161.617
595.1378, 6136.309
595.6199, 6107.350
596.1021, 6102.745
596.5842, 6112.576
597.0663, 6122.744
597.5485, 6134.036
598.0306, 6138.971
598.5127, 6128.227
598.9948, 6107.239
599.4769, 6099.598
599.9590, 6115.594
600.4412, 6134.141
600.9233, 6149.813
601.4054, 6162.935
601.8875, 6167.846
602.3696, 6161.029
602.8517, 6154.569
603.3339, 6159.726
603.8160, 6175.657
604.2981, 6191.859
604.7802, 6207.429
605.2623, 6221.649
605.7444, 6237.466
606.2266, 6251.354
606.7087, 6252.596
607.1908, 6222.922
607.6729, 6194.207
608.1550, 6199.680
608.6371, 6228.445
609.1193, 6245.269
609.6014, 6213.930
610.0835, 6186.245
610.5656, 6195.086
611.0477, 6250.374
611.5298, 6277.192
612.0120, 6250.502
612.4941, 6217.274
612.9762, 6209.976
613.4583, 6237.439
613.9404, 6258.073
614.4225, 6267.652
614.9047, 6274.521
615.3868, 6297.914
615.8689, 6335.383
616.3510, 6348.817
616.8331, 6313.493
617.3152, 6266.353
617.7974, 6271.246
618.2795, 6316.154
618.7616, 6354.393
619.2437, 6351.460
619.7258, 6338.555
620.2079, 6338.941
620.6901, 6353.863
621.1722, 6369.542
621.6543, 6380.419
622.1364, 6391.099
622.6185, 6404.957
623.1006, 6426.049
623.5828, 6441.431
624.0649, 6446.781
624.5470, 6450.387
625.0291, 6463.545
625.5112, 6488.761
625.9933, 6510.237
626.4755, 6524.960
626.9576, 6534.358
627.4397, 6536.929
627.9218, 6534.372
628.4039, 6539.659
628.8860, 6563.369
629.3682, 6596.509
629.8503, 6629.744
630.3324, 6662.457
630.8145, 6689.688
631.2966, 6702.027
631.7787, 6712.067
632.2609, 6730.864
632.7430, 6764.461
633.2251, 6788.408
633.7072, 6782.725
634.1893, 6774.680
634.6714, 6788.168
635.1536, 6837.199
635.6357, 6875.836
636.1178, 6895.240
636.5999, 6908.151
637.0820, 6942.085
637.5641, 6998.122
638.0463, 7043.749
638.5284, 7063.169
639.0105, 7070.703
639.4926, 7098.416
639.9747, 7142.802
640.4568, 7182.658
640.9390, 7205.935
641.4211, 7218.723
641.9032, 7218.726
642.3853, 7205.894
642.8674, 7212.503
643.3495, 7276.843
643.8317, 7348.124
644.3138, 7389.772
644.7959, 7369.772
645.2780, 7374.938
645.7601, 7422.280
646.2422, 7479.774
646.7244, 7508.513
647.2065, 7502.703
647.6886, 7495.476
648.1707, 7489.536
648.6528, 7489.324
649.1349, 7506.851
649.6171, 7540.114
650.0992, 7575.278
650.5813, 7610.452
651.0634, 7641.167
651.5455, 7655.098
652.0276, 7656.673
652.5098, 7669.070
652.9919, 7729.511
653.4740, 7785.382
653.9561, 7795.019
654.4382, 7742.809
654.9203, 7716.151
655.4025, 7732.113
655.8846, 7771.554
