##NAMES=Phlogopite
##RRUFFID=R050485
##IDEAL CHEMISTRY=KMg_3_(Si_3_Al)O_10_(OH)_2_
##LOCALITY=Libby, Montana, USA
##OWNER=RRUFF
##SOURCE=California Institute of Technology
##DESCRIPTION=Green micaceous fragment
##STATUS=The identification of this mineral has been confirmed by X-ray diffraction and chemical analysis
##URL=rruff.info/R050485
##MEASURED CHEMISTRY=(K_0.92_Na_0.06_Ca_0.02_)(Mg_0.80_Fe^2+^_0.17_Ti_0.02_Cr_0.01_)_3_(Si_2.83_Al_1.17_)O_10_(OH)_2_
93.78320, 263.1283
94.26532, 264.9407
94.74744, 266.1039
95.22955, 265.9421
95.71167, 265.1355
96.19379, 263.1507
96.67590, 260.2841
97.15802, 257.4488
97.64014, 254.7739
98.12225, 252.1966
98.60437, 249.6722
99.08649, 247.3605
99.56860, 245.0187
100.0507, 242.2811
100.5328, 238.7400
101.0150, 234.8926
101.4971, 231.0789
101.9792, 227.2792
102.4613, 223.6350
102.9434, 219.8196
103.4255, 216.2885
103.9077, 213.4769
104.3898, 211.5595
104.8719, 210.2191
105.3540, 208.8032
105.8361, 207.0567
106.3182, 205.6552
106.8004, 204.9439
107.2825, 204.5301
107.7646, 203.9146
108.2467, 202.7661
108.7288, 201.1313
109.2109, 199.7121
109.6931, 198.3658
110.1752, 197.3418
110.6573, 196.8476
111.1394, 196.7609
111.6215, 196.7642
112.1036, 196.5628
112.5858, 196.1000
113.0679, 195.9437
113.5500, 196.3708
114.0321, 196.8788
114.5142, 197.0639
114.9964, 196.8623
115.4785, 196.5834
115.9606, 196.6779
116.4427, 197.1220
116.9248, 197.2910
117.4069, 196.7462
117.8891, 195.8444
118.3712, 195.3638
118.8533, 195.6277
119.3354, 196.0874
119.8175, 196.2047
120.2996, 196.0071
120.7818, 195.7572
121.2639, 195.5945
121.7460, 195.5160
122.2281, 195.5969
122.7102, 195.9822
123.1923, 196.4557
123.6745, 196.9616
124.1566, 197.4768
124.6387, 197.9267
125.1208, 198.2388
125.6029, 198.5106
126.0850, 198.3805
126.5672, 197.4772
127.0493, 196.4296
127.5314, 195.8047
128.0135, 195.8170
128.4956, 196.2072
128.9777, 196.2444
129.4599, 195.2450
129.9420, 194.6452
130.4241, 194.9352
130.9062, 195.6303
131.3883, 195.9589
131.8705, 195.4450
132.3526, 194.2971
132.8347, 193.7048
133.3168, 193.9635
133.7989, 194.3383
134.2810, 194.6064
134.7632, 194.7579
135.2453, 194.7635
135.7274, 194.5596
136.2095, 194.1872
136.6916, 193.8363
137.1737, 193.3050
137.6559, 192.9246
138.1380, 193.2098
138.6201, 194.3370
139.1022, 195.2925
139.5843, 195.2706
140.0664, 194.6747
140.5486, 193.9845
141.0307, 193.1663
141.5128, 192.4207
141.9949, 192.4891
142.4770, 194.1831
142.9591, 195.4709
143.4413, 195.3096
143.9234, 194.1861
144.4055, 192.9875
144.8876, 192.3316
145.3697, 192.2215
145.8518, 192.1690
146.3340, 192.3141
146.8161, 192.3945
147.2982, 192.3554
147.7803, 192.1828
148.2624, 191.8559
148.7445, 191.3005
149.2267, 190.3608
149.7088, 189.8996
150.1909, 190.1501
150.6730, 190.5726
151.1551, 190.9441
151.6372, 191.2009
152.1194, 191.3237
152.6015, 191.2876
153.0836, 191.0485
153.5657, 190.7047
154.0478, 189.9880
154.5299, 189.2914
155.0121, 189.0785
155.4942, 189.4873
155.9763, 190.1484
156.4584, 190.5141
156.9405, 190.5750
157.4227, 190.6137
157.9048, 190.8539
158.3869, 191.1181
158.8690, 190.9624
159.3511, 190.0927
159.8332, 189.0401
160.3154, 188.4258
160.7975, 188.2421
161.2796, 188.2581
161.7617, 188.4999
162.2438, 188.9295
162.7259, 189.0067
163.2081, 188.1928
163.6902, 187.3135
164.1723, 187.0059
164.6544, 187.3276
165.1365, 187.8991
165.6186, 188.3704
166.1008, 188.7512
166.5829, 188.9757
167.0650, 188.8250
167.5471, 188.6536
168.0292, 188.7648
168.5113, 189.2142
168.9935, 189.7068
169.4756, 189.6928
169.9577, 188.7187
170.4398, 188.1096
170.9219, 188.0713
171.4040, 188.3140
171.8862, 188.6334
172.3683, 188.9472
172.8504, 189.2598
173.3325, 189.5901
173.8146, 190.1975
174.2967, 190.4789
174.7789, 190.1456
175.2610, 189.5683
175.7431, 189.1372
176.2252, 189.0191
176.7073, 189.1995
177.1894, 189.6599
177.6716, 190.7981
178.1537, 191.7022
178.6358, 192.1307
179.1179, 192.2123
179.6000, 192.1696
180.0821, 192.0736
180.5643, 191.9724
181.0464, 192.0072
181.5285, 192.1929
182.0106, 192.4606
182.4927, 192.8879
182.9749, 193.4138
183.4570, 193.7375
183.9391, 193.6036
184.4212, 193.2377
184.9033, 193.1465
185.3854, 193.4582
185.8676, 193.8453
186.3497, 194.0623
186.8318, 194.1070
187.3139, 194.0626
187.7960, 193.8331
188.2781, 193.5954
188.7603, 193.5754
189.2424, 193.8786
189.7245, 194.2692
190.2066, 194.4984
190.6887, 194.6035
191.1708, 194.3898
191.6530, 193.4770
192.1351, 192.3688
192.6172, 191.4856
193.0993, 190.9855
193.5814, 190.7475
194.0635, 190.5952
194.5457, 190.7227
195.0278, 190.5190
195.5099, 189.7462
195.9920, 188.6961
196.4741, 187.6103
196.9562, 186.5899
197.4384, 185.6552
197.9205, 184.8542
198.4026, 184.1729
198.8847, 183.6842
199.3668, 183.5810
199.8489, 183.5973
200.3311, 183.4332
200.8132, 182.9353
201.2953, 182.1754
201.7774, 181.4432
202.2595, 180.6909
202.7416, 180.0238
203.2238, 179.4876
203.7059, 179.0333
204.1880, 178.5389
204.6701, 177.9238
205.1522, 177.2880
205.6344, 177.1089
206.1165, 177.8443
206.5986, 178.4570
207.0807, 178.7122
207.5628, 178.6940
208.0449, 178.5735
208.5271, 178.4458
209.0092, 178.2693
209.4913, 177.8607
209.9734, 176.8634
210.4555, 176.1011
210.9376, 176.0611
211.4198, 176.5153
211.9019, 176.8365
212.3840, 176.7071
212.8661, 176.2289
213.3482, 175.7146
213.8303, 175.0430
214.3125, 174.5240
214.7946, 174.4071
215.2767, 174.6321
215.7588, 174.8935
216.2409, 175.1307
216.7230, 175.2611
217.2052, 175.1838
217.6873, 174.8509
218.1694, 174.4080
218.6515, 173.8564
219.1336, 173.2066
219.6157, 172.8100
220.0979, 173.0116
220.5800, 173.4065
221.0621, 173.5432
221.5442, 173.3411
222.0263, 173.0144
222.5084, 172.7005
222.9906, 172.3816
223.4727, 172.2636
223.9548, 172.7164
224.4369, 173.2141
224.9190, 173.3377
225.4011, 172.9991
225.8833, 172.4825
226.3654, 172.1026
226.8475, 171.8804
227.3296, 171.7005
227.8117, 171.4510
228.2938, 171.2940
228.7760, 171.4267
229.2581, 171.8699
229.7402, 172.3392
230.2223, 172.3849
230.7044, 171.7858
231.1866, 171.4763
231.6687, 171.9359
232.1508, 172.4270
232.6329, 172.4503
233.1150, 171.9334
233.5971, 171.2051
234.0793, 170.6876
234.5614, 170.3668
235.0435, 170.3274
235.5256, 170.8111
236.0077, 171.3551
236.4898, 171.6895
236.9720, 171.7606
237.4541, 171.6739
237.9362, 171.5545
238.4183, 171.3570
238.9004, 171.2452
239.3825, 171.2472
239.8647, 171.2956
240.3468, 171.4068
240.8289, 171.5521
241.3110, 171.6113
241.7931, 171.4051
242.2752, 170.7473
242.7574, 170.3796
243.2395, 170.5283
243.7216, 170.7507
244.2037, 170.7068
244.6858, 170.3884
245.1679, 170.0904
245.6501, 170.1677
246.1322, 170.7733
246.6143, 171.1313
247.0964, 171.1554
247.5785, 171.0288
248.0606, 170.7463
248.5428, 170.3669
249.0249, 170.1696
249.5070, 170.5095
249.9891, 171.5230
250.4712, 171.9467
250.9533, 171.3538
251.4355, 170.5460
251.9176, 169.9560
252.3997, 169.6396
252.8818, 169.5950
253.3639, 169.8944
253.8460, 170.5442
254.3282, 170.9705
254.8103, 171.1030
255.2924, 171.0773
255.7745, 170.9001
256.2566, 170.5999
256.7387, 170.3703
257.2209, 170.3729
257.7030, 170.5783
258.1851, 170.7121
258.6672, 170.9288
259.1493, 170.9487
259.6314, 170.3284
260.1136, 169.1648
260.5957, 168.3655
261.0778, 168.6174
261.5599, 169.6119
262.0420, 170.2482
262.5241, 170.4063
263.0063, 170.3371
263.4884, 170.1381
263.9705, 169.8258
264.4526, 169.5390
264.9347, 169.3174
265.4168, 169.1885
265.8990, 169.2068
266.3811, 169.4763
266.8632, 169.6698
267.3453, 169.4029
267.8275, 168.7593
268.3096, 168.4262
268.7917, 168.8293
269.2738, 169.5162
269.7559, 169.8818
270.2380, 169.8889
270.7202, 169.7364
271.2023, 169.4946
271.6844, 169.1831
272.1665, 168.9238
272.6486, 168.7233
273.1307, 168.6279
273.6129, 168.7235
274.0950, 169.0072
274.5771, 169.2087
275.0592, 169.0287
275.5413, 168.5612
276.0234, 168.3816
276.5056, 168.7408
276.9877, 169.1950
277.4698, 169.3911
277.9519, 169.3670
278.4340, 169.3196
278.9161, 169.4140
279.3983, 169.5956
279.8804, 169.5938
280.3625, 169.2585
280.8446, 168.9487
281.3267, 168.9279
281.8088, 169.0964
282.2910, 169.2204
282.7731, 169.1522
283.2552, 168.9436
283.7373, 168.7702
284.2194, 168.6598
284.7015, 168.5305
285.1837, 168.3131
285.6658, 168.0584
286.1479, 167.8515
286.6300, 167.7614
287.1121, 167.7130
287.5942, 167.5227
288.0764, 167.1314
288.5585, 166.7344
289.0406, 166.3200
289.5227, 165.9699
290.0048, 165.7717
290.4869, 165.7509
290.9691, 165.9068
291.4512, 166.3435
291.9333, 167.2640
292.4154, 167.8094
292.8975, 167.4808
293.3796, 166.8629
293.8618, 166.3237
294.3439, 165.9585
294.8260, 165.7703
295.3081, 165.7905
295.7902, 166.0517
296.2723, 166.3662
296.7545, 166.7915
297.2366, 167.2000
297.7187, 167.5620
298.2008, 167.8545
298.6829, 167.9984
299.1650, 167.7708
299.6472, 167.0846
300.1293, 166.8449
300.6114, 167.8435
301.0935, 168.6385
301.5756, 168.3580
302.0577, 167.2406
302.5399, 166.1991
303.0220, 166.0610
303.5041, 166.7748
303.9862, 167.1633
304.4683, 166.9977
304.9504, 166.7449
305.4326, 166.4897
305.9147, 166.2831
306.3968, 166.1989
306.8789, 166.2877
307.3610, 166.5307
307.8431, 166.8625
308.3253, 167.4074
308.8074, 167.8418
309.2895, 168.0805
309.7716, 168.1771
310.2537, 168.1948
310.7358, 168.1637
311.2180, 168.0591
311.7001, 167.8039
312.1822, 167.2944
312.6643, 166.8559
313.1464, 166.4119
313.6285, 166.1279
314.1107, 166.2334
314.5928, 166.7736
315.0749, 167.4220
315.5570, 167.6778
316.0392, 167.4081
316.5213, 167.2268
317.0034, 167.3716
317.4855, 167.4854
317.9676, 167.2988
318.4497, 166.8337
318.9319, 166.3761
319.4140, 166.1750
319.8961, 166.2304
320.3782, 166.5483
320.8603, 167.5303
321.3424, 168.4040
321.8246, 168.8519
322.3067, 168.9485
322.7888, 168.9294
323.2709, 168.9688
323.7530, 169.0404
324.2351, 168.9096
324.7173, 168.2110
325.1994, 167.8423
325.6815, 168.4488
326.1636, 169.4204
326.6457, 169.8446
327.1278, 169.1889
327.6100, 167.9546
328.0921, 167.3690
328.5742, 167.6800
329.0563, 168.1330
329.5384, 168.7696
330.0205, 169.3341
330.5027, 169.5560
330.9848, 169.3606
331.4669, 168.9883
331.9490, 168.7529
332.4311, 168.6695
332.9132, 168.6600
333.3954, 168.7583
333.8775, 168.8997
334.3596, 169.0516
334.8417, 169.2129
335.3238, 169.4045
335.8059, 169.6959
336.2881, 170.0921
336.7702, 170.3044
337.2523, 170.1425
337.7344, 169.9971
338.2165, 170.0636
338.6986, 170.2843
339.1808, 170.5065
339.6629, 170.6095
340.1450, 170.6492
340.6271, 170.8543
341.1092, 171.3141
341.5913, 171.7671
342.0735, 172.2250
342.5556, 172.5838
343.0377, 172.6714
343.5198, 172.3757
344.0019, 171.9314
344.4840, 171.7512
344.9662, 171.9170
345.4483, 171.9812
345.9304, 171.5179
346.4125, 171.0769
346.8946, 171.1477
347.3767, 171.8025
347.8589, 172.5192
348.3410, 172.7264
348.8231, 172.4420
349.3052, 172.3861
349.7873, 172.9879
350.2694, 173.4498
350.7516, 173.0517
351.2337, 171.9900
351.7158, 171.1216
352.1979, 171.1790
352.6800, 171.8374
353.1621, 171.9558
353.6443, 171.2666
354.1264, 170.6103
354.6085, 170.5735
355.0906, 170.8747
355.5727, 171.0877
356.0548, 171.0317
356.5370, 170.8787
357.0191, 170.9120
357.5012, 171.1636
357.9833, 171.2500
358.4654, 170.8961
358.9475, 170.3567
359.4297, 169.9657
359.9118, 169.7927
360.3939, 169.5679
360.8760, 168.9174
361.3581, 167.9791
361.8402, 167.5222
362.3224, 167.9722
362.8045, 168.5645
363.2866, 168.3521
363.7687, 167.4333
364.2508, 166.7815
364.7329, 167.1121
365.2151, 167.8461
365.6972, 167.9264
366.1793, 167.1723
366.6614, 166.3290
367.1436, 165.9615
367.6257, 165.9531
368.1078, 165.9394
368.5899, 165.8890
369.0720, 165.8067
369.5541, 165.6117
370.0363, 165.3437
370.5184, 165.3143
371.0005, 165.7979
371.4826, 166.4926
371.9647, 166.7114
372.4468, 166.3311
372.9290, 165.8589
373.4111, 165.4206
373.8932, 165.0339
374.3753, 164.7096
374.8574, 164.4352
375.3395, 164.3239
375.8217, 164.6588
376.3038, 165.5406
376.7859, 165.9042
377.2680, 165.1067
377.7501, 164.1179
378.2322, 163.8237
378.7144, 164.2267
379.1965, 164.7428
379.6786, 164.9778
380.1607, 164.9347
380.6428, 164.7436
381.1249, 164.1452
381.6071, 163.7061
382.0892, 163.7308
382.5713, 164.0437
383.0534, 164.3511
383.5355, 164.5413
384.0176, 164.5668
384.4998, 164.3027
384.9819, 163.2980
385.4640, 162.7576
385.9461, 163.0712
386.4282, 163.6356
386.9103, 164.0466
387.3925, 164.1914
387.8746, 163.9889
388.3567, 163.2484
388.8388, 161.7804
389.3209, 161.1935
389.8030, 162.1328
390.2852, 163.1385
390.7673, 163.8093
391.2494, 164.1096
391.7315, 164.0213
392.2136, 163.5055
392.6957, 162.7106
393.1779, 162.2223
393.6600, 162.2796
394.1421, 162.3256
394.6242, 162.3193
395.1063, 162.2737
395.5884, 162.1358
396.0706, 161.9195
396.5527, 161.7953
397.0348, 162.0920
397.5169, 163.0363
397.9990, 163.4846
398.4811, 162.8484
398.9633, 162.2352
399.4454, 162.1547
399.9275, 162.4723
400.4096, 162.7686
400.8917, 162.7746
401.3738, 162.5267
401.8560, 162.1427
402.3381, 161.4738
402.8202, 160.9613
403.3023, 160.7045
403.7844, 160.6632
404.2665, 160.8716
404.7487, 161.3592
405.2308, 161.8653
405.7129, 162.0285
406.1950, 161.8287
406.6771, 161.7042
407.1592, 161.8714
407.6414, 161.9844
408.1235, 161.6911
408.6056, 161.0759
409.0877, 160.6112
409.5698, 160.7503
410.0519, 161.2056
410.5341, 161.1883
411.0162, 160.5083
411.4983, 160.0278
411.9804, 160.6931
412.4625, 161.8022
412.9446, 162.1045
413.4268, 160.9961
413.9089, 159.7316
414.3910, 159.3879
414.8731, 159.7899
415.3553, 160.0705
415.8374, 159.8910
416.3195, 159.5820
416.8016, 159.7022
417.2837, 160.2777
417.7658, 160.6904
418.2480, 160.7879
418.7301, 160.6327
419.2122, 160.1421
419.6943, 159.3401
420.1764, 158.7456
420.6585, 158.8678
421.1407, 159.6117
421.6228, 159.8557
422.1049, 159.0525
422.5870, 158.4006
423.0691, 158.5391
423.5512, 159.1274
424.0334, 159.5700
424.5155, 159.6328
424.9976, 159.3948
425.4797, 158.9874
425.9618, 158.2822
426.4439, 157.6604
426.9261, 157.0210
427.4082, 156.5368
427.8903, 156.3397
428.3724, 156.4243
428.8545, 156.7411
429.3366, 157.3095
429.8188, 158.1000
430.3009, 158.3822
430.7830, 157.6837
431.2651, 156.9646
431.7472, 156.1812
432.2293, 155.5321
432.7115, 155.2786
433.1936, 155.5099
433.6757, 156.0396
434.1578, 156.6775
434.6399, 157.6133
435.1220, 157.9730
435.6042, 156.9734
436.0863, 155.9773
436.5684, 155.7154
437.0505, 156.0563
437.5326, 156.3997
438.0147, 156.3184
438.4969, 155.9297
438.9790, 155.6545
439.4611, 155.5386
439.9432, 155.4213
440.4253, 155.2013
440.9074, 154.9612
441.3896, 154.7915
441.8717, 154.7167
442.3538, 154.6823
442.8359, 154.6674
443.3180, 154.6625
443.8001, 154.6167
444.2823, 154.5450
444.7644, 154.3847
445.2465, 153.9702
445.7286, 153.3733
446.2107, 152.9613
446.6928, 152.9491
447.1750, 153.0887
447.6571, 153.1731
448.1392, 153.1922
448.6213, 153.1213
449.1034, 152.9315
449.5855, 152.6555
450.0677, 152.3668
450.5498, 151.9870
451.0319, 151.7514
451.5140, 151.6651
451.9961, 151.7812
452.4782, 152.3899
452.9604, 153.4768
453.4425, 154.2859
453.9246, 153.9376
454.4067, 152.2573
454.8888, 151.2798
455.3709, 151.3629
455.8531, 151.6269
456.3352, 151.9011
456.8173, 152.1097
457.2994, 152.1456
457.7815, 151.9570
458.2636, 151.6629
458.7458, 151.5339
459.2279, 151.7480
459.7100, 151.7489
460.1921, 151.3249
460.6742, 150.8773
461.1563, 150.6371
461.6385, 150.5950
462.1206, 150.6088
462.6027, 150.5416
463.0848, 150.4436
463.5669, 150.6374
464.0491, 151.3797
464.5312, 151.8792
465.0133, 151.7636
465.4954, 151.3419
465.9775, 150.8490
466.4597, 150.3209
466.9418, 149.9057
467.4239, 149.8315
467.9060, 150.0334
468.3881, 150.0006
468.8702, 149.4495
469.3524, 149.0671
469.8345, 149.8047
470.3166, 151.2343
470.7987, 152.0638
471.2808, 151.5378
471.7629, 150.6230
472.2451, 150.0336
472.7272, 149.7719
473.2093, 149.9413
473.6914, 150.7488
474.1735, 151.7142
474.6556, 151.7577
475.1378, 150.4886
475.6199, 149.7665
476.1020, 150.3255
476.5841, 151.2306
477.0662, 151.7343
477.5483, 151.7560
478.0305, 151.4729
478.5126, 150.9639
478.9947, 150.2847
479.4768, 149.9551
479.9589, 150.3253
480.4410, 150.6168
480.9232, 150.6810
481.4053, 150.6442
481.8874, 150.6394
482.3695, 150.6986
482.8516, 150.7646
483.3337, 150.7626
483.8159, 150.6816
484.2980, 150.6275
484.7801, 150.6605
485.2622, 150.6504
485.7443, 150.3774
486.2264, 150.0739
486.7086, 150.1784
487.1907, 150.9592
487.6728, 151.9054
488.1549, 152.2605
488.6370, 151.9925
489.1191, 151.6137
489.6013, 151.0922
490.0834, 150.6602
490.5655, 150.5219
491.0476, 150.6502
491.5297, 150.8626
492.0118, 151.1871
492.4940, 151.5005
492.9761, 151.6142
493.4582, 151.5349
493.9403, 151.4324
494.4224, 151.3587
494.9045, 151.3492
495.3867, 151.5144
495.8688, 151.9206
496.3509, 152.3003
496.8330, 152.6405
497.3151, 152.8958
497.7972, 152.9853
498.2794, 152.9172
498.7615, 152.8127
499.2436, 152.7907
499.7257, 152.8364
500.2078, 152.6772
500.6899, 151.9433
501.1721, 151.4517
501.6542, 151.4754
502.1363, 151.7363
502.6184, 151.9724
503.1005, 152.0984
503.5826, 152.1215
504.0648, 151.9960
504.5469, 151.6866
505.0290, 151.5967
505.5111, 151.8678
505.9932, 152.1961
506.4753, 152.5599
506.9575, 152.8741
507.4396, 152.9869
507.9217, 152.8084
508.4038, 152.5284
508.8859, 152.3588
509.3680, 152.2965
509.8502, 152.2966
510.3323, 152.3687
510.8144, 152.4685
511.2965, 152.4595
511.7786, 151.8507
512.2607, 152.4948
512.7429, 152.8443
513.2250, 152.9149
513.7071, 151.8715
514.1892, 152.2666
514.6713, 152.0852
515.1534, 151.8802
515.6356, 152.4778
516.1177, 151.2085
516.5998, 151.8960
517.0819, 152.2889
517.5640, 152.4029
518.0461, 151.4030
518.5283, 151.8415
519.0104, 151.7036
519.4925, 151.5420
519.9746, 152.1830
520.4567, 151.3450
520.9388, 151.9733
521.4210, 152.0163
521.9031, 152.3272
522.3852, 152.0580
522.8673, 151.9680
523.3494, 151.7843
523.8315, 151.4016
524.3137, 151.1083
524.7958, 151.3536
525.2779, 151.9567
525.7600, 152.3188
526.2421, 152.4558
526.7242, 152.2796
527.2064, 151.4584
527.6885, 150.4547
528.1706, 149.8366
528.6527, 149.6731
529.1348, 149.7441
529.6169, 150.1118
530.0991, 150.5815
530.5812, 150.8638
531.0633, 150.9221
531.5454, 150.7386
532.0275, 150.2137
532.5096, 149.4344
532.9918, 149.0201
533.4739, 149.2753
533.9560, 149.4450
534.4381, 149.2954
534.9202, 149.0266
535.4023, 148.8349
535.8845, 148.7674
536.3666, 148.7892
536.8487, 148.8777
537.3308, 149.0325
537.8129, 149.1486
538.2951, 149.1881
538.7772, 149.2366
539.2593, 149.3074
539.7415, 149.3994
540.2236, 149.5512
540.7057, 149.7656
541.1878, 149.8965
541.6699, 149.7649
542.1520, 149.4036
542.6342, 149.0038
543.1163, 148.5059
543.5984, 148.1497
544.0805, 148.1890
544.5626, 148.4619
545.0447, 148.7031
545.5269, 148.9744
546.0090, 149.0242
546.4911, 148.4925
546.9732, 147.6842
547.4553, 147.2406
547.9374, 147.2984
548.4196, 147.4653
548.9017, 147.3819
549.3838, 147.0449
549.8659, 146.5992
550.3480, 145.6308
550.8301, 145.0600
551.3123, 145.4967
551.7944, 146.3131
552.2765, 146.7537
552.7586, 146.6150
553.2407, 146.1857
553.7228, 145.7923
554.2050, 145.4401
554.6871, 145.0094
555.1692, 144.3333
555.6513, 143.8239
556.1334, 143.7766
556.6155, 143.9034
557.0977, 143.8116
557.5798, 143.3775
558.0619, 142.8763
558.5440, 142.6006
559.0261, 142.4703
559.5082, 142.0835
559.9904, 141.2817
560.4725, 140.7215
560.9546, 141.1413
561.4367, 142.2652
561.9188, 142.6655
562.4009, 141.6857
562.8831, 140.7899
563.3652, 140.6260
563.8473, 140.8258
564.3294, 140.9326
564.8115, 140.8314
565.2936, 140.5430
565.7758, 140.0375
566.2579, 139.3114
566.7400, 138.9645
567.2221, 139.4411
567.7042, 139.7746
568.1863, 139.8253
568.6685, 139.6460
569.1506, 139.2387
569.6327, 138.6290
570.1148, 137.9675
570.5969, 137.3833
571.0790, 136.8716
571.5612, 136.4158
572.0433, 136.0231
572.5254, 135.6521
573.0075, 135.0906
573.4896, 134.6323
573.9717, 134.8501
574.4539, 136.0746
574.9360, 136.9381
575.4181, 136.5079
575.9002, 135.4642
576.3823, 134.6855
576.8644, 134.2819
577.3466, 134.1139
577.8287, 134.1109
578.3108, 134.2395
578.7929, 134.3333
579.2750, 134.3653
579.7571, 134.3967
580.2393, 134.6381
580.7214, 134.7264
581.2035, 134.1207
581.6856, 133.0029
582.1677, 132.2286
582.6498, 132.5402
583.1320, 133.5827
583.6141, 134.1229
584.0962, 134.0550
584.5783, 133.8436
585.0604, 133.4203
585.5425, 133.0565
586.0247, 133.1055
586.5068, 133.5230
586.9889, 133.7009
587.4710, 133.2237
587.9531, 132.4714
588.4352, 131.7147
588.9174, 131.0299
