##NAMES=Phlogopite
##RRUFFID=R050485
##IDEAL CHEMISTRY=KMg_3_(Si_3_Al)O_10_(OH)_2_
##LOCALITY=Libby, Montana, USA
##OWNER=RRUFF
##SOURCE=California Institute of Technology
##DESCRIPTION=Green micaceous fragment
##STATUS=The identification of this mineral has been confirmed by X-ray diffraction and chemical analysis
##URL=rruff.info/R050485
##MEASURED CHEMISTRY=(K_0.92_Na_0.06_Ca_0.02_)(Mg_0.80_Fe^2+^_0.17_Ti_0.02_Cr_0.01_)_3_(Si_2.83_Al_1.17_)O_10_(OH)_2_
156.090, 2558.846
156.572, 2538.623
157.054, 2518.975
157.536, 2517.057
158.018, 2532.176
158.501, 2555.759
158.983, 2584.040
159.465, 2616.286
159.947, 2641.480
160.429, 2656.923
160.911, 2667.640
161.393, 2674.375
161.875, 2677.829
162.358, 2684.237
162.840, 2700.607
163.322, 2726.080
163.804, 2743.182
164.286, 2743.251
164.768, 2740.106
165.250, 2747.216
165.732, 2765.250
166.214, 2782.556
166.697, 2789.489
167.179, 2786.482
167.661, 2780.826
168.143, 2768.768
168.625, 2756.749
169.107, 2751.347
169.589, 2753.206
170.071, 2759.038
170.553, 2768.220
171.036, 2779.828
171.518, 2788.483
172.000, 2793.368
172.482, 2794.841
172.964, 2790.069
173.446, 2777.492
173.928, 2769.777
174.411, 2784.116
174.893, 2814.659
175.375, 2836.317
175.857, 2835.631
176.339, 2826.733
176.821, 2828.275
177.303, 2843.016
177.785, 2860.870
178.267, 2871.081
178.749, 2876.727
179.232, 2889.570
179.714, 2920.747
180.196, 2957.938
180.678, 2981.054
181.160, 2985.568
181.642, 2989.415
182.124, 3010.908
182.607, 3044.580
183.089, 3075.451
183.571, 3094.148
184.053, 3109.216
184.535, 3136.594
185.017, 3180.943
185.499, 3223.775
185.981, 3245.670
186.463, 3253.222
186.945, 3261.635
187.428, 3275.199
187.910, 3292.498
188.392, 3312.898
188.874, 3338.133
189.356, 3360.502
189.838, 3371.565
190.320, 3374.867
190.802, 3378.250
191.285, 3395.222
191.767, 3410.473
192.249, 3392.636
192.731, 3331.037
193.213, 3268.234
193.695, 3244.704
194.177, 3245.208
194.659, 3235.592
195.141, 3195.130
195.624, 3141.175
196.106, 3103.804
196.588, 3088.323
197.070, 3073.129
197.552, 3037.763
198.034, 2990.774
198.516, 2949.365
198.998, 2923.769
199.480, 2905.081
199.963, 2879.003
200.445, 2843.868
200.927, 2807.502
201.409, 2772.844
201.891, 2740.819
202.373, 2715.372
202.855, 2702.321
203.337, 2694.509
203.820, 2681.164
204.302, 2661.021
204.784, 2641.503
205.266, 2627.319
205.748, 2617.286
206.230, 2610.040
206.712, 2609.487
207.194, 2609.246
207.676, 2598.209
208.159, 2574.052
208.641, 2553.916
209.123, 2554.201
209.605, 2565.200
210.087, 2569.047
210.569, 2558.248
211.051, 2541.524
211.533, 2527.993
212.016, 2517.830
212.498, 2508.994
212.980, 2500.610
213.462, 2492.809
213.944, 2485.550
214.426, 2476.974
214.908, 2470.758
215.390, 2472.687
215.872, 2482.982
216.355, 2491.585
216.837, 2492.234
217.319, 2487.997
217.801, 2485.195
218.283, 2485.889
218.765, 2486.333
219.247, 2483.675
219.730, 2477.964
220.212, 2469.697
220.694, 2456.820
221.176, 2442.644
221.658, 2433.438
222.140, 2431.348
222.622, 2431.209
223.104, 2429.852
223.586, 2427.422
224.068, 2424.681
224.551, 2421.212
225.033, 2418.274
225.515, 2418.442
225.997, 2423.880
226.479, 2427.730
226.961, 2423.738
227.443, 2414.266
227.925, 2408.797
228.408, 2412.089
228.890, 2419.530
229.372, 2422.635
229.854, 2420.446
230.336, 2417.559
230.818, 2416.553
231.300, 2416.365
231.782, 2413.151
232.264, 2403.838
232.747, 2394.783
233.229, 2400.208
233.711, 2424.708
234.193, 2439.218
234.675, 2424.511
235.157, 2395.587
235.639, 2378.836
236.121, 2382.133
236.604, 2394.640
237.086, 2401.782
237.568, 2403.035
238.050, 2404.076
238.532, 2408.009
239.014, 2411.510
239.496, 2408.123
239.978, 2396.059
240.460, 2385.218
240.943, 2389.547
241.425, 2412.993
241.907, 2425.873
242.389, 2418.637
242.871, 2404.253
243.353, 2392.693
243.835, 2385.585
244.317, 2383.501
244.799, 2388.708
245.282, 2403.022
245.764, 2408.657
246.246, 2396.405
246.728, 2382.998
247.210, 2380.266
247.692, 2387.774
248.174, 2397.896
248.656, 2405.158
249.139, 2409.449
249.621, 2410.225
250.103, 2402.843
250.585, 2396.955
251.067, 2398.016
251.549, 2404.474
252.031, 2411.698
252.513, 2417.098
252.995, 2420.519
253.478, 2420.266
253.960, 2410.602
254.442, 2404.104
254.924, 2404.955
255.406, 2411.111
255.888, 2418.831
256.370, 2426.166
256.852, 2433.858
257.335, 2444.785
257.817, 2471.521
258.299, 2486.526
258.781, 2477.415
259.263, 2458.900
259.745, 2446.875
260.227, 2447.738
260.709, 2458.554
261.191, 2474.308
261.674, 2508.725
262.156, 2525.746
262.638, 2512.019
263.120, 2489.691
263.602, 2476.081
264.084, 2475.685
264.566, 2482.358
265.048, 2487.306
265.530, 2488.997
266.013, 2492.756
266.495, 2501.989
266.977, 2510.382
267.459, 2512.463
267.941, 2508.978
268.423, 2506.283
268.905, 2511.680
269.388, 2526.588
269.870, 2539.484
270.352, 2550.613
270.834, 2559.261
271.316, 2563.765
271.798, 2565.280
272.280, 2566.633
272.762, 2570.113
273.244, 2575.420
273.727, 2579.161
274.209, 2577.441
274.691, 2579.831
275.173, 2594.799
275.655, 2615.137
276.137, 2628.658
276.619, 2628.353
277.101, 2618.104
277.583, 2605.074
278.066, 2584.912
278.548, 2573.329
279.030, 2583.886
279.512, 2603.027
279.994, 2616.532
280.476, 2619.429
280.958, 2617.053
281.440, 2616.783
281.922, 2619.193
282.405, 2617.086
282.887, 2605.138
283.369, 2589.078
283.851, 2574.035
284.333, 2559.919
284.815, 2549.332
285.297, 2546.719
285.779, 2550.282
286.262, 2549.900
286.744, 2541.335
287.226, 2530.500
287.708, 2525.702
288.190, 2527.122
288.672, 2525.112
289.154, 2512.655
289.636, 2494.914
290.118, 2481.245
290.601, 2473.472
291.083, 2467.851
291.565, 2459.624
292.047, 2449.140
292.529, 2444.592
293.011, 2456.849
293.493, 2469.110
293.975, 2461.635
294.458, 2435.283
294.940, 2411.483
295.422, 2406.198
295.904, 2418.484
296.386, 2429.375
296.868, 2439.294
297.350, 2447.472
297.832, 2452.229
298.315, 2454.881
298.797, 2459.172
299.279, 2467.635
299.761, 2477.935
300.243, 2481.288
300.725, 2468.970
301.207, 2460.784
301.689, 2460.876
302.171, 2465.471
302.654, 2471.315
303.136, 2477.120
303.618, 2481.085
304.100, 2479.288
304.582, 2463.474
305.064, 2458.122
305.546, 2472.444
306.028, 2489.003
306.510, 2495.575
306.993, 2491.441
307.475, 2484.638
307.957, 2483.963
308.439, 2490.711
308.921, 2493.437
309.403, 2485.606
309.885, 2479.781
310.367, 2481.966
310.849, 2489.549
311.332, 2496.711
311.814, 2500.624
312.296, 2500.642
312.778, 2492.262
313.260, 2467.695
313.742, 2448.516
314.224, 2441.692
314.707, 2443.204
315.189, 2449.398
315.671, 2459.759
316.153, 2471.747
316.635, 2483.050
317.117, 2494.282
317.599, 2499.735
318.081, 2490.133
318.563, 2479.175
319.046, 2481.603
319.528, 2499.970
320.010, 2516.679
320.492, 2516.504
320.974, 2503.769
321.456, 2494.661
321.938, 2491.009
322.420, 2493.924
322.902, 2508.653
323.385, 2533.325
323.867, 2553.531
324.349, 2564.028
324.831, 2568.400
325.313, 2570.134
325.795, 2569.546
326.277, 2567.219
326.759, 2562.399
327.241, 2555.875
327.724, 2554.059
328.206, 2561.563
328.688, 2569.017
329.170, 2571.028
329.652, 2569.325
330.134, 2568.789
330.616, 2572.029
331.098, 2577.213
331.581, 2578.896
332.063, 2570.206
332.545, 2566.973
333.027, 2574.844
333.509, 2586.329
333.991, 2593.975
334.473, 2595.930
334.955, 2595.000
335.438, 2594.671
335.920, 2594.688
336.402, 2596.235
336.884, 2601.052
337.366, 2605.643
337.848, 2607.498
338.330, 2607.477
338.812, 2607.899
339.294, 2609.333
339.777, 2612.699
340.259, 2627.139
340.741, 2665.210
341.223, 2695.902
341.705, 2706.549
342.187, 2706.912
342.669, 2709.472
343.151, 2719.230
343.634, 2732.473
344.116, 2743.806
344.598, 2753.169
345.080, 2761.563
345.562, 2768.177
346.044, 2774.755
346.526, 2782.065
347.008, 2790.080
347.490, 2801.245
347.973, 2821.498
348.455, 2846.363
348.937, 2861.115
349.419, 2861.344
349.901, 2857.982
350.383, 2862.382
350.865, 2872.894
351.347, 2879.218
351.829, 2878.065
352.312, 2873.119
352.794, 2865.725
353.276, 2856.701
353.758, 2849.828
354.240, 2847.402
354.722, 2848.897
355.204, 2851.978
355.686, 2864.958
356.168, 2869.313
356.651, 2854.949
357.133, 2831.393
357.615, 2809.342
358.097, 2792.470
358.579, 2783.091
359.061, 2786.635
359.543, 2816.048
360.026, 2827.100
360.508, 2807.628
360.990, 2782.890
361.472, 2764.698
361.954, 2754.550
362.436, 2750.403
362.918, 2751.869
363.400, 2758.186
363.882, 2760.292
364.365, 2757.041
364.847, 2750.760
365.329, 2738.135
365.811, 2724.578
366.293, 2717.986
366.775, 2722.502
367.257, 2730.365
367.739, 2729.178
368.221, 2717.786
368.704, 2710.263
369.186, 2715.327
369.668, 2720.933
370.150, 2714.423
370.632, 2695.337
371.114, 2677.363
371.596, 2669.683
372.078, 2667.610
372.560, 2660.864
373.043, 2647.600
373.525, 2634.568
374.007, 2626.467
374.489, 2623.586
374.971, 2624.991
375.453, 2640.035
375.935, 2650.652
376.417, 2641.073
376.900, 2618.196
377.382, 2601.116
377.864, 2599.232
378.346, 2607.024
378.828, 2611.016
379.310, 2607.684
379.792, 2605.154
380.274, 2600.094
380.757, 2598.059
381.239, 2609.216
381.721, 2631.811
382.203, 2648.473
382.685, 2637.814
383.167, 2596.138
383.649, 2572.594
384.131, 2581.510
384.613, 2594.827
385.095, 2609.068
385.578, 2621.385
386.060, 2627.123
386.542, 2622.593
387.024, 2614.137
387.506, 2614.893
387.988, 2627.093
388.470, 2637.478
388.953, 2643.829
389.435, 2645.533
389.917, 2639.472
390.399, 2625.008
390.881, 2614.168
391.363, 2619.598
391.845, 2633.196
392.327, 2633.407
392.809, 2614.801
393.292, 2598.546
393.774, 2605.301
394.256, 2632.620
394.738, 2651.346
395.220, 2654.998
395.702, 2654.638
396.184, 2656.113
396.666, 2658.488
397.148, 2657.959
397.631, 2652.291
398.113, 2645.342
398.595, 2646.267
399.077, 2667.359
399.559, 2677.250
400.041, 2668.447
400.523, 2654.140
401.005, 2641.571
401.487, 2632.777
401.970, 2629.104
402.452, 2633.771
402.934, 2646.183
403.416, 2647.078
403.898, 2620.109
404.380, 2604.472
404.862, 2621.034
405.344, 2652.027
405.827, 2673.578
406.309, 2676.174
406.791, 2670.553
407.273, 2669.922
407.755, 2674.218
408.237, 2676.402
408.719, 2673.473
409.201, 2669.560
409.684, 2670.409
410.166, 2675.691
410.648, 2676.986
411.130, 2665.813
411.612, 2652.266
412.094, 2649.489
412.576, 2657.531
413.058, 2667.050
413.540, 2672.115
414.022, 2673.530
414.505, 2675.757
414.987, 2678.040
415.469, 2681.875
415.951, 2693.171
416.433, 2703.723
416.915, 2700.446
417.397, 2681.012
417.879, 2659.363
418.362, 2655.553
418.844, 2676.492
419.326, 2683.558
419.808, 2656.169
420.290, 2634.871
420.772, 2639.053
421.254, 2659.623
421.736, 2676.698
422.219, 2678.832
422.701, 2673.457
423.183, 2676.431
423.665, 2690.056
424.147, 2698.471
424.629, 2693.409
425.111, 2683.674
425.593, 2679.771
426.075, 2682.591
426.558, 2681.418
427.040, 2666.263
427.522, 2645.523
428.004, 2631.138
428.486, 2624.466
428.968, 2626.871
429.450, 2642.961
429.932, 2670.260
430.414, 2683.825
430.897, 2674.956
431.379, 2664.219
431.861, 2657.341
432.343, 2652.644
432.825, 2646.734
433.307, 2638.703
433.789, 2631.891
434.271, 2631.738
434.754, 2640.696
435.236, 2647.668
435.718, 2651.026
436.200, 2653.967
436.682, 2658.521
437.164, 2663.624
437.646, 2666.939
438.128, 2667.402
438.611, 2665.071
439.093, 2659.871
439.575, 2651.588
440.057, 2641.155
440.539, 2625.011
441.021, 2610.145
441.503, 2605.631
441.985, 2612.588
442.467, 2617.817
442.949, 2615.102
443.432, 2607.563
443.914, 2598.268
444.396, 2587.702
444.878, 2578.667
445.360, 2573.541
445.842, 2571.703
446.324, 2568.247
446.806, 2556.679
447.289, 2551.644
447.771, 2564.536
448.253, 2581.662
448.735, 2586.453
449.217, 2575.198
449.699, 2557.179
450.181, 2542.744
450.663, 2531.658
451.146, 2526.664
451.628, 2539.802
452.110, 2544.927
452.592, 2519.513
453.074, 2482.479
453.556, 2469.595
454.038, 2503.019
454.520, 2545.996
455.002, 2544.293
455.485, 2501.532
455.967, 2476.418
456.449, 2488.815
456.931, 2516.810
457.413, 2539.037
457.895, 2556.130
458.377, 2560.039
458.859, 2533.475
459.341, 2505.419
459.824, 2501.805
460.306, 2518.521
460.788, 2536.363
461.270, 2545.318
461.752, 2546.021
462.234, 2539.656
462.716, 2512.890
463.198, 2499.546
463.681, 2510.807
464.163, 2526.984
464.645, 2534.736
465.127, 2533.341
465.609, 2529.549
466.091, 2529.238
466.573, 2530.924
467.055, 2526.391
467.538, 2511.778
468.020, 2501.678
468.502, 2507.940
468.984, 2519.382
469.466, 2521.963
469.948, 2511.696
470.430, 2504.068
470.912, 2513.309
471.394, 2529.712
471.876, 2532.918
472.359, 2519.794
472.841, 2507.329
473.323, 2511.322
473.805, 2530.749
474.287, 2536.536
474.769, 2512.454
475.251, 2496.550
475.733, 2506.980
476.216, 2527.266
476.698, 2535.282
477.180, 2525.493
477.662, 2511.400
478.144, 2510.368
478.626, 2523.875
479.108, 2536.198
479.590, 2547.557
480.073, 2557.293
480.555, 2566.688
481.037, 2574.139
481.519, 2575.699
482.001, 2566.773
482.483, 2559.110
482.965, 2566.128
483.447, 2584.615
483.929, 2602.592
484.412, 2618.097
484.894, 2628.240
485.376, 2627.257
485.858, 2613.034
486.340, 2608.250
486.822, 2616.953
487.304, 2631.430
487.786, 2654.943
488.268, 2680.224
488.751, 2691.400
489.233, 2681.629
489.715, 2665.049
490.197, 2670.131
490.679, 2708.491
491.161, 2729.761
491.643, 2715.265
492.125, 2698.488
492.608, 2693.991
493.090, 2698.963
493.572, 2704.736
494.054, 2707.250
494.536, 2708.821
495.018, 2712.885
495.500, 2719.163
495.982, 2723.751
496.465, 2723.875
496.947, 2724.986
497.429, 2737.297
497.911, 2763.565
498.393, 2778.849
498.875, 2768.015
499.357, 2756.941
499.839, 2762.966
500.321, 2782.587
500.803, 2806.703
501.286, 2831.208
501.768, 2852.055
502.250, 2857.886
502.732, 2839.698
503.214, 2830.440
503.696, 2841.681
504.178, 2854.226
504.660, 2855.601
505.143, 2849.717
505.625, 2850.738
506.107, 2871.365
506.589, 2896.933
507.071, 2903.383
507.553, 2892.260
508.035, 2884.449
508.517, 2886.468
509.000, 2895.787
509.482, 2911.560
509.964, 2936.511
510.446, 2952.100
510.928, 2947.962
511.410, 2941.824
511.892, 2946.464
512.374, 2958.406
512.856, 2967.633
513.339, 2969.038
513.821, 2964.784
514.303, 2958.626
514.785, 2948.832
515.267, 2942.618
515.749, 2943.776
516.231, 2945.902
516.713, 2944.028
517.195, 2940.161
517.678, 2941.221
518.160, 2955.340
518.642, 2970.463
519.124, 2968.958
519.606, 2953.979
520.088, 2944.469
520.570, 2947.297
521.052, 2956.073
521.534, 2963.355
522.017, 2969.946
522.499, 2969.978
522.981, 2954.720
523.463, 2941.544
523.945, 2941.271
524.427, 2949.155
524.909, 2956.408
525.391, 2959.110
525.874, 2957.654
526.356, 2950.316
526.838, 2934.999
527.320, 2929.277
527.802, 2944.126
528.284, 2956.594
528.766, 2947.675
529.248, 2926.267
529.731, 2915.268
530.213, 2931.105
530.695, 2945.623
531.177, 2927.909
531.659, 2891.956
532.141, 2875.726
532.623, 2889.908
533.105, 2913.079
533.588, 2921.342
534.070, 2913.087
534.552, 2905.346
535.034, 2895.785
535.516, 2889.313
535.998, 2891.195
536.480, 2895.277
536.962, 2892.272
537.444, 2879.793
537.927, 2867.198
538.409, 2866.176
538.891, 2875.217
539.373, 2882.457
539.855, 2887.559
540.337, 2889.813
540.819, 2886.630
541.301, 2880.667
541.783, 2878.857
542.266, 2885.799
542.748, 2888.818
543.230, 2880.322
543.712, 2866.777
544.194, 2853.963
544.676, 2843.697
545.158, 2839.197
545.640, 2844.218
546.122, 2856.602
546.605, 2861.193
547.087, 2851.489
547.569, 2845.546
548.051, 2850.576
548.533, 2857.372
549.015, 2856.511
549.497, 2848.440
549.979, 2845.066
550.461, 2861.688
550.944, 2883.622
551.426, 2883.679
551.908, 2863.198
552.390, 2845.912
552.872, 2842.835
553.354, 2847.406
553.836, 2847.654
554.318, 2841.740
554.801, 2835.507
555.283, 2829.151
555.765, 2822.292
556.247, 2814.447
556.729, 2806.009
557.211, 2798.453
557.693, 2792.768
558.175, 2785.922
558.657, 2770.609
559.140, 2746.138
559.622, 2728.632
560.104, 2722.961
560.586, 2720.140
561.068, 2715.030
561.550, 2707.408
562.032, 2695.796
562.515, 2673.357
562.997, 2654.662
563.479, 2651.924
563.961, 2655.900
564.443, 2651.546
564.925, 2635.936
565.407, 2616.784
565.889, 2601.936
566.371, 2591.100
566.854, 2577.659
567.336, 2557.971
567.818, 2541.561
568.300, 2533.756
568.782, 2527.891
569.264, 2516.794
569.746, 2499.764
570.228, 2484.502
570.710, 2476.983
571.193, 2473.622
571.675, 2469.163
572.157, 2463.422
572.639, 2456.930
573.121, 2449.496
573.603, 2442.427
574.085, 2438.635
574.567, 2441.596
575.049, 2440.068
575.532, 2435.634
576.014, 2425.483
576.496, 2401.411
576.978, 2371.533
577.460, 2351.687
577.942, 2349.528
578.424, 2356.892
578.906, 2367.254
579.388, 2379.416
579.871, 2377.039
580.353, 2352.739
580.835, 2328.368
581.317, 2322.560
581.799, 2332.177
582.281, 2334.983
582.763, 2326.386
583.245, 2316.725
583.728, 2307.193
584.210, 2299.092
584.692, 2295.656
585.174, 2296.039
585.656, 2294.117
586.138, 2283.985
586.620, 2268.074
587.102, 2257.160
587.585, 2252.177
588.067, 2249.113
588.549, 2248.421
589.031, 2247.986
589.513, 2245.464
589.995, 2240.976
590.477, 2237.244
590.959, 2234.893
591.442, 2233.765
591.924, 2233.936
592.406, 2235.234
592.888, 2238.557
593.370, 2244.129
593.852, 2247.290
594.334, 2239.702
594.816, 2218.659
595.299, 2210.695
595.781, 2227.790
596.263, 2241.620
596.745, 2243.504
597.227, 2237.141
597.709, 2223.330
598.191, 2200.835
598.673, 2187.408
599.155, 2202.916
599.638, 2230.045
600.120, 2240.950
600.602, 2235.420
601.084, 2229.219
601.566, 2231.138
602.048, 2237.205
602.530, 2237.691
603.012, 2229.918
603.494, 2221.962
603.977, 2211.330
604.459, 2203.030
604.941, 2201.027
605.423, 2202.894
605.905, 2203.525
606.387, 2200.642
606.869, 2197.229
607.351, 2194.842
607.833, 2194.400
608.316, 2201.900
608.798, 2219.090
609.280, 2230.221
609.762, 2221.498
610.244, 2197.450
610.726, 2182.693
611.208, 2185.714
611.690, 2186.779
612.172, 2181.640
612.655, 2176.760
613.137, 2177.085
613.619, 2182.196
614.101, 2188.892
614.583, 2195.894
615.065, 2202.652
615.547, 2209.076
616.029, 2214.869
616.512, 2217.349
616.994, 2215.805
617.476, 2210.781
617.958, 2200.218
618.440, 2184.575
618.922, 2181.213
619.404, 2205.667
619.886, 2221.674
620.369, 2215.356
620.851, 2200.138
621.333, 2186.506
621.815, 2177.553
622.297, 2175.714
622.779, 2186.106
623.261, 2202.292
623.743, 2207.333
624.226, 2200.879
624.708, 2195.885
625.190, 2196.399
625.672, 2199.491
626.154, 2202.389
626.636, 2205.151
627.118, 2205.942
627.600, 2203.973
628.082, 2200.892
628.565, 2196.235
629.047, 2191.358
629.529, 2186.026
630.011, 2181.170
630.493, 2181.992
630.975, 2197.739
631.457, 2222.264
631.939, 2232.037
632.421, 2225.774
632.904, 2215.024
633.386, 2200.707
633.868, 2187.800
634.350, 2183.940
634.832, 2189.911
635.314, 2196.910
635.796, 2205.309
636.278, 2213.601
636.760, 2221.250
637.243, 2228.247
637.725, 2234.948
638.207, 2241.310
638.689, 2246.015
639.171, 2245.712
639.653, 2242.316
640.135, 2247.104
640.617, 2261.927
641.099, 2272.548
641.582, 2270.614
642.064, 2264.429
642.546, 2268.401
643.028, 2285.176
643.510, 2295.211
643.992, 2292.784
644.474, 2287.602
644.956, 2280.445
645.439, 2275.224
645.921, 2279.946
646.403, 2296.073
646.885, 2311.422
647.367, 2311.069
647.849, 2298.267
648.331, 2288.872
648.813, 2282.905
649.295, 2280.798
649.778, 2283.059
650.260, 2288.903
650.742, 2296.865
651.224, 2306.503
651.706, 2320.425
652.188, 2347.073
652.670, 2369.333
653.153, 2375.257
653.635, 2372.730
654.117, 2375.010
654.599, 2385.586
655.081, 2394.956
655.563, 2390.871
656.045, 2377.567
656.527, 2371.014
657.009, 2371.875
657.492, 2373.651
657.974, 2373.575
658.456, 2373.046
658.938, 2374.073
659.420, 2376.458
659.902, 2381.583
660.384, 2389.805
660.866, 2400.306
661.348, 2417.201
661.831, 2434.181
662.313, 2440.665
662.795, 2434.831
663.277, 2430.188
663.759, 2440.983
664.241, 2461.080
664.723, 2474.854
665.205, 2482.392
665.688, 2492.489
666.170, 2509.052
666.652, 2528.910
667.134, 2548.308
667.616, 2568.781
668.098, 2581.250
668.580, 2576.202
669.062, 2575.046
669.544, 2586.157
670.027, 2602.978
670.509, 2619.382
670.991, 2633.708
671.473, 2644.428
671.955, 2651.199
672.437, 2653.271
672.919, 2642.742
673.401, 2624.145
673.883, 2624.552
674.366, 2654.932
674.848, 2692.219
675.330, 2707.341
675.812, 2698.692
676.294, 2692.374
676.776, 2690.503
677.258, 2687.967
677.740, 2682.540
678.222, 2676.785
678.705, 2673.361
