##NAMES=Phlogopite
##RRUFFID=R050068
##IDEAL CHEMISTRY=KMg_3_(Si_3_Al)O_10_(OH)_2_
##LOCALITY=S.W. Jasper County, Georgia, USA
##OWNER=RRUFF
##SOURCE=Rock Currier
##DESCRIPTION=Dark brown micaceous single crystal
##STATUS=The identification of this mineral has been confirmed by X-ray diffraction and chemical analysis
##URL=rruff.info/R050068
##MEASURED CHEMISTRY=(K_0.94_Na_0.05_[box]_0.01_)(Mg_0.94_Fe_0.06_)_3_(Si_3.00_Al_1.00_)O_10_((OH)_0.53_F_0.47_)_2_
154.4830, 1183.130
154.9651, 1185.140
155.4472, 1188.963
155.9293, 1196.224
156.4115, 1203.532
156.8936, 1210.481
157.3757, 1217.041
157.8578, 1223.218
158.3399, 1229.338
158.8221, 1234.878
159.3042, 1239.541
159.7863, 1240.925
160.2684, 1243.699
160.7505, 1249.731
161.2326, 1258.788
161.7148, 1268.675
162.1969, 1280.974
162.6790, 1292.748
163.1611, 1301.027
163.6432, 1301.140
164.1253, 1300.562
164.6075, 1303.376
165.0896, 1309.734
165.5717, 1316.695
166.0538, 1323.625
166.5359, 1329.954
167.0180, 1334.900
167.5002, 1333.041
167.9823, 1332.892
168.4644, 1342.879
168.9465, 1365.026
169.4286, 1387.501
169.9107, 1400.460
170.3929, 1407.246
170.8750, 1415.243
171.3571, 1431.456
171.8392, 1449.285
172.3213, 1460.019
172.8034, 1460.148
173.2856, 1460.825
173.7677, 1474.680
174.2498, 1498.566
174.7319, 1521.396
175.2140, 1536.729
175.6961, 1546.762
176.1783, 1553.254
176.6604, 1553.281
177.1425, 1555.557
177.6246, 1572.267
178.1067, 1601.871
178.5888, 1635.586
179.0710, 1668.315
179.5531, 1700.035
180.0352, 1729.808
180.5173, 1755.822
180.9994, 1781.112
181.4815, 1810.202
181.9637, 1843.263
182.4458, 1877.620
182.9279, 1909.920
183.4100, 1941.511
183.8921, 1978.180
184.3742, 2023.289
184.8564, 2073.874
185.3385, 2121.979
185.8206, 2167.905
186.3027, 2212.720
186.7848, 2257.219
187.2669, 2301.551
187.7491, 2348.134
188.2312, 2396.326
188.7133, 2447.119
189.1954, 2510.315
189.6775, 2589.094
190.1596, 2664.181
190.6418, 2708.194
191.1239, 2721.649
191.6060, 2735.154
192.0881, 2766.211
192.5702, 2811.292
193.0524, 2839.698
193.5345, 2850.750
194.0166, 2846.913
194.4987, 2831.887
194.9808, 2805.822
195.4629, 2766.075
195.9451, 2708.182
196.4272, 2631.785
196.9093, 2553.683
197.3914, 2470.224
197.8735, 2391.615
198.3556, 2347.526
198.8378, 2345.958
199.3199, 2329.363
199.8020, 2254.793
200.2841, 2117.273
200.7662, 2007.236
201.2483, 1934.328
201.7305, 1887.627
202.2126, 1841.022
202.6947, 1793.324
203.1768, 1750.161
203.6589, 1716.108
204.1410, 1692.787
204.6232, 1669.115
205.1053, 1643.608
205.5874, 1617.365
206.0695, 1593.927
206.5516, 1573.388
207.0337, 1555.408
207.5159, 1539.730
207.9980, 1526.699
208.4801, 1515.908
208.9622, 1508.143
209.4443, 1502.578
209.9264, 1495.332
210.4086, 1486.473
210.8907, 1475.743
211.3728, 1461.509
211.8549, 1440.694
212.3370, 1427.112
212.8191, 1425.729
213.3013, 1434.371
213.7834, 1433.498
214.2655, 1418.887
214.7476, 1401.503
215.2297, 1390.658
215.7118, 1387.328
216.1940, 1387.801
216.6761, 1392.539
217.1582, 1401.294
217.6403, 1409.052
218.1224, 1418.527
218.6045, 1423.295
219.0867, 1414.520
219.5688, 1383.195
220.0509, 1359.984
220.5330, 1353.370
221.0151, 1363.649
221.4972, 1372.192
221.9794, 1379.684
222.4615, 1384.772
222.9436, 1385.347
223.4257, 1378.257
223.9078, 1373.246
224.3899, 1373.594
224.8721, 1380.005
225.3542, 1382.266
225.8363, 1378.346
226.3184, 1372.222
226.8005, 1368.507
227.2827, 1367.983
227.7648, 1368.470
228.2469, 1369.652
228.7290, 1371.647
229.2111, 1373.482
229.6932, 1375.651
230.1754, 1377.241
230.6575, 1377.226
231.1396, 1376.138
231.6217, 1372.307
232.1038, 1363.522
232.5859, 1347.350
233.0681, 1339.705
233.5502, 1343.629
234.0323, 1353.869
234.5144, 1363.362
234.9965, 1372.734
235.4786, 1380.148
235.9608, 1384.751
236.4429, 1385.884
236.9250, 1387.218
237.4071, 1389.880
237.8892, 1392.023
238.3713, 1390.111
238.8535, 1380.529
239.3356, 1372.997
239.8177, 1371.540
240.2998, 1378.814
240.7819, 1381.680
241.2640, 1377.962
241.7462, 1371.146
242.2283, 1367.189
242.7104, 1367.052
243.1925, 1368.176
243.6746, 1369.429
244.1567, 1369.922
244.6389, 1374.204
245.1210, 1385.287
245.6031, 1398.356
246.0852, 1404.354
246.5673, 1399.612
247.0494, 1394.016
247.5316, 1390.650
248.0137, 1389.426
248.4958, 1391.047
248.9779, 1397.049
249.4600, 1405.028
249.9421, 1410.135
250.4243, 1410.595
250.9064, 1411.440
251.3885, 1414.887
251.8706, 1422.355
252.3527, 1427.594
252.8348, 1429.633
253.3170, 1430.044
253.7991, 1431.482
254.2812, 1433.258
254.7633, 1437.384
255.2454, 1445.890
255.7275, 1461.501
256.2097, 1470.603
256.6918, 1470.400
257.1739, 1465.509
257.6560, 1463.674
258.1381, 1463.613
258.6202, 1469.406
259.1024, 1485.218
259.5845, 1515.771
260.0666, 1535.221
260.5487, 1538.992
261.0308, 1535.086
261.5129, 1538.751
261.9951, 1552.679
262.4772, 1567.669
262.9593, 1579.489
263.4414, 1586.862
263.9235, 1598.015
264.4056, 1614.610
264.8878, 1633.579
265.3699, 1649.863
265.8520, 1662.963
266.3341, 1675.160
266.8162, 1686.565
267.2983, 1696.259
267.7805, 1711.385
268.2626, 1734.673
268.7447, 1760.216
269.2268, 1775.899
269.7089, 1777.922
270.1910, 1783.731
270.6732, 1802.793
271.1553, 1837.234
271.6374, 1861.730
272.1195, 1872.469
272.6016, 1878.895
273.0837, 1898.124
273.5659, 1933.575
274.0480, 1964.735
274.5301, 1982.639
275.0122, 1986.693
275.4943, 1991.760
275.9764, 1998.398
276.4586, 2005.004
276.9407, 2010.814
277.4228, 2016.490
277.9049, 2015.335
278.3870, 2002.661
278.8691, 1979.019
279.3513, 1957.425
279.8334, 1938.563
280.3155, 1919.988
280.7976, 1897.514
281.2798, 1871.116
281.7619, 1845.929
282.2440, 1824.277
282.7261, 1805.721
283.2082, 1787.171
283.6903, 1768.755
284.1725, 1749.876
284.6546, 1727.623
285.1367, 1702.494
285.6188, 1682.718
286.1009, 1672.760
286.5830, 1670.687
287.0652, 1668.793
287.5473, 1667.197
288.0294, 1665.170
288.5115, 1662.058
288.9936, 1657.838
289.4757, 1652.406
289.9579, 1644.219
290.4400, 1635.136
290.9221, 1630.803
291.4042, 1631.507
291.8863, 1633.378
292.3684, 1633.469
292.8506, 1631.681
293.3327, 1627.167
293.8148, 1615.750
294.2969, 1603.650
294.7790, 1605.598
295.2611, 1621.647
295.7433, 1638.455
296.2254, 1642.148
296.7075, 1637.249
297.1896, 1636.485
297.6717, 1645.328
298.1538, 1658.617
298.6360, 1670.038
299.1181, 1679.556
299.6002, 1685.543
300.0823, 1682.550
300.5644, 1675.677
301.0465, 1674.715
301.5287, 1683.594
302.0108, 1697.678
302.4929, 1713.078
302.9750, 1729.660
303.4571, 1745.779
303.9392, 1761.160
304.4214, 1775.290
304.9035, 1787.292
305.3856, 1794.721
305.8677, 1803.144
306.3498, 1819.625
306.8319, 1841.730
307.3141, 1861.231
307.7962, 1867.471
308.2783, 1871.185
308.7604, 1885.425
309.2425, 1919.631
309.7246, 1948.959
310.2068, 1949.867
310.6889, 1932.564
311.1710, 1923.594
311.6531, 1944.808
312.1352, 1973.736
312.6173, 1993.331
313.0995, 1998.119
313.5816, 2000.947
314.0637, 2007.849
314.5458, 2016.989
315.0279, 2024.959
315.5100, 2030.588
315.9922, 2034.600
316.4743, 2036.316
316.9564, 2034.322
317.4385, 2035.602
317.9206, 2045.657
318.4027, 2059.641
318.8849, 2070.781
319.3670, 2075.247
319.8491, 2078.333
320.3312, 2082.735
320.8133, 2089.492
321.2954, 2092.413
321.7776, 2089.594
322.2597, 2082.676
322.7418, 2073.406
323.2239, 2056.130
323.7060, 2042.414
324.1881, 2037.040
324.6703, 2041.096
325.1524, 2040.996
325.6345, 2033.646
326.1166, 2022.938
326.5987, 2011.915
327.0808, 1999.763
327.5630, 1988.316
328.0451, 1978.515
328.5272, 1970.204
329.0093, 1959.899
329.4914, 1948.467
329.9735, 1934.533
330.4557, 1916.053
330.9378, 1882.861
331.4199, 1863.756
331.9020, 1869.113
332.3841, 1891.559
332.8662, 1893.390
333.3484, 1863.333
333.8305, 1829.725
334.3126, 1807.716
334.7947, 1800.492
335.2768, 1796.481
335.7589, 1797.993
336.2411, 1800.830
336.7232, 1792.489
337.2053, 1768.723
337.6874, 1746.352
338.1695, 1732.991
338.6516, 1729.338
339.1338, 1731.002
339.6159, 1740.503
340.0980, 1751.179
340.5801, 1749.942
341.0622, 1735.406
341.5443, 1721.483
342.0265, 1714.341
342.5086, 1713.230
342.9907, 1709.582
343.4728, 1702.467
343.9549, 1696.593
344.4370, 1700.744
344.9192, 1713.525
345.4013, 1721.457
345.8834, 1716.831
346.3655, 1704.705
346.8476, 1699.095
347.3297, 1700.202
347.8119, 1702.337
348.2940, 1699.176
348.7761, 1692.625
349.2582, 1689.102
349.7403, 1694.073
350.2225, 1699.076
350.7046, 1686.541
351.1867, 1659.164
351.6688, 1638.632
352.1509, 1646.992
352.6331, 1670.476
353.1152, 1689.022
353.5973, 1698.758
354.0794, 1701.416
354.5615, 1693.493
355.0436, 1678.677
355.5258, 1668.184
356.0079, 1672.607
356.4900, 1681.594
356.9721, 1685.436
357.4542, 1680.831
357.9363, 1677.240
358.4185, 1681.788
358.9006, 1690.751
359.3827, 1697.682
359.8648, 1700.942
360.3469, 1700.831
360.8290, 1695.169
361.3112, 1682.292
361.7933, 1675.001
362.2754, 1682.455
362.7575, 1695.606
363.2396, 1704.657
363.7217, 1701.824
364.2039, 1700.136
364.6860, 1705.818
365.1681, 1719.063
365.6502, 1724.257
366.1323, 1709.799
366.6144, 1692.739
367.0966, 1684.867
367.5787, 1698.843
368.0608, 1706.970
368.5429, 1704.533
369.0250, 1693.923
369.5071, 1687.614
369.9893, 1688.874
370.4714, 1690.641
370.9535, 1689.241
371.4356, 1682.308
371.9177, 1677.785
372.3998, 1676.869
372.8820, 1677.849
373.3641, 1676.584
373.8462, 1671.823
374.3283, 1668.096
374.8104, 1667.801
375.2925, 1671.379
375.7747, 1672.946
376.2568, 1671.974
376.7389, 1670.069
377.2210, 1669.704
377.7031, 1671.053
378.1852, 1671.314
378.6674, 1668.568
379.1495, 1664.101
379.6316, 1664.193
380.1137, 1669.298
380.5958, 1674.858
381.0779, 1676.384
381.5601, 1674.560
382.0422, 1672.691
382.5243, 1671.570
383.0064, 1670.656
383.4885, 1668.733
383.9706, 1665.964
384.4528, 1663.690
384.9349, 1664.372
385.4170, 1665.738
385.8991, 1663.101
386.3812, 1654.304
386.8633, 1646.153
387.3455, 1646.541
387.8276, 1652.497
388.3097, 1657.240
388.7918, 1654.148
389.2739, 1650.492
389.7560, 1654.041
390.2382, 1666.259
390.7203, 1675.100
391.2024, 1670.353
391.6845, 1659.922
392.1666, 1652.851
392.6487, 1653.458
393.1309, 1656.794
393.6130, 1662.980
394.0951, 1671.449
394.5772, 1676.243
395.0593, 1672.640
395.5414, 1666.921
396.0236, 1663.040
396.5057, 1663.792
396.9878, 1663.720
397.4699, 1662.110
397.9520, 1659.291
398.4341, 1656.212
398.9163, 1649.779
399.3984, 1646.317
399.8805, 1648.573
400.3626, 1658.690
400.8447, 1668.472
401.3268, 1679.478
401.8090, 1688.981
402.2911, 1692.886
402.7732, 1689.541
403.2553, 1684.617
403.7374, 1678.340
404.2195, 1671.041
404.7017, 1669.935
405.1838, 1677.075
405.6659, 1684.869
406.1480, 1685.523
406.6301, 1678.922
407.1122, 1673.760
407.5944, 1671.824
408.0765, 1671.983
408.5586, 1670.464
409.0407, 1667.343
409.5228, 1667.590
410.0049, 1678.648
410.4871, 1695.683
410.9692, 1705.251
411.4513, 1705.657
411.9334, 1699.919
412.4155, 1687.354
412.8976, 1670.721
413.3798, 1658.403
413.8619, 1655.513
414.3440, 1657.824
414.8261, 1662.196
415.3082, 1668.507
415.7903, 1673.788
416.2725, 1675.401
416.7546, 1675.216
417.2367, 1675.306
417.7188, 1675.028
418.2009, 1676.576
418.6830, 1684.804
419.1652, 1696.768
419.6473, 1701.338
420.1294, 1683.316
420.6115, 1665.436
421.0937, 1661.412
421.5758, 1682.634
422.0579, 1697.175
422.5400, 1695.973
423.0221, 1686.695
423.5042, 1681.845
423.9864, 1683.635
424.4685, 1687.944
424.9506, 1695.161
425.4327, 1705.680
425.9148, 1712.793
426.3969, 1716.015
426.8791, 1716.396
427.3612, 1714.045
427.8433, 1707.288
428.3254, 1702.869
428.8075, 1701.138
429.2896, 1702.651
429.7718, 1710.914
430.2539, 1727.439
430.7360, 1742.753
431.2181, 1751.078
431.7002, 1752.729
432.1823, 1751.967
432.6645, 1748.734
433.1466, 1743.968
433.6287, 1737.108
434.1108, 1729.125
434.5929, 1725.075
435.0750, 1729.844
435.5572, 1738.692
436.0393, 1743.435
436.5214, 1744.193
437.0035, 1743.531
437.4856, 1742.749
437.9677, 1742.002
438.4499, 1741.611
438.9320, 1742.083
439.4141, 1742.197
439.8962, 1739.019
440.3783, 1734.613
440.8604, 1734.207
441.3426, 1743.798
441.8247, 1755.262
442.3068, 1764.572
442.7889, 1771.445
443.2710, 1775.358
443.7531, 1775.502
444.2353, 1772.862
444.7174, 1768.527
445.1995, 1754.751
445.6816, 1748.015
446.1637, 1755.856
446.6458, 1776.191
447.1280, 1787.214
447.6101, 1784.239
448.0922, 1777.094
448.5743, 1770.895
449.0564, 1765.771
449.5385, 1761.249
450.0207, 1757.855
450.5028, 1754.585
450.9849, 1749.437
451.4670, 1742.208
451.9491, 1734.294
452.4312, 1725.258
452.9134, 1715.669
453.3955, 1709.782
453.8776, 1707.770
454.3597, 1708.266
454.8418, 1710.626
455.3239, 1714.570
455.8061, 1719.408
456.2882, 1726.654
456.7703, 1732.189
457.2524, 1729.064
457.7345, 1718.738
458.2166, 1707.015
458.6988, 1695.674
459.1809, 1685.663
459.6630, 1679.139
460.1451, 1676.861
460.6272, 1673.475
461.1093, 1662.539
461.5915, 1649.472
462.0736, 1641.248
462.5557, 1638.167
463.0378, 1642.246
463.5199, 1662.827
464.0020, 1695.819
464.4842, 1711.985
464.9663, 1691.452
465.4484, 1662.508
465.9305, 1639.777
466.4126, 1626.308
466.8947, 1614.292
467.3769, 1603.557
467.8590, 1594.382
468.3411, 1587.196
468.8232, 1582.512
469.3053, 1578.823
469.7874, 1575.203
470.2696, 1571.835
470.7517, 1572.733
471.2338, 1578.897
471.7159, 1586.213
472.1980, 1590.927
472.6801, 1593.129
473.1623, 1596.182
473.6444, 1601.067
474.1265, 1606.068
474.6086, 1607.482
475.0907, 1605.890
475.5728, 1605.057
476.0550, 1606.371
476.5371, 1609.938
477.0192, 1616.909
477.5013, 1627.396
477.9834, 1637.379
478.4655, 1645.721
478.9477, 1651.099
479.4298, 1651.297
479.9119, 1640.149
480.3940, 1630.668
480.8761, 1629.726
481.3582, 1635.827
481.8404, 1644.773
482.3225, 1662.108
482.8046, 1676.276
483.2867, 1680.029
483.7688, 1667.653
484.2509, 1662.633
484.7331, 1672.124
485.2152, 1687.199
485.6973, 1700.038
486.1794, 1710.519
486.6615, 1718.661
487.1436, 1722.417
487.6258, 1723.770
488.1079, 1734.298
488.5900, 1758.724
489.0721, 1779.057
489.5542, 1782.307
490.0363, 1768.305
490.5185, 1762.132
491.0006, 1765.754
491.4827, 1772.940
491.9648, 1773.720
492.4470, 1769.981
492.9291, 1772.594
493.4112, 1788.588
493.8933, 1809.980
494.3754, 1825.548
494.8575, 1835.612
495.3397, 1841.252
495.8218, 1838.464
496.3039, 1834.021
496.7860, 1835.621
497.2681, 1845.388
497.7502, 1857.299
498.2324, 1873.093
498.7145, 1887.770
499.1966, 1894.827
499.6787, 1881.050
500.1608, 1870.619
500.6429, 1874.159
501.1251, 1890.584
501.6072, 1900.262
502.0893, 1895.121
502.5714, 1889.020
503.0535, 1888.924
503.5356, 1899.391
504.0178, 1904.794
504.4999, 1903.584
504.9820, 1898.642
505.4641, 1893.624
505.9462, 1888.140
506.4283, 1884.829
506.9105, 1885.388
507.3926, 1888.517
507.8747, 1888.636
508.3568, 1885.584
508.8389, 1882.443
509.3210, 1882.084
509.8032, 1883.372
510.2853, 1883.655
510.7674, 1882.996
511.2495, 1879.638
511.7316, 1869.167
512.2137, 1854.753
512.6959, 1843.013
513.1780, 1838.029
513.6601, 1835.401
514.1422, 1833.119
514.6243, 1830.994
515.1064, 1828.050
515.5886, 1821.852
516.0707, 1816.140
516.5528, 1813.655
517.0349, 1817.440
517.5170, 1818.749
517.9991, 1815.619
518.4813, 1810.005
518.9634, 1791.270
519.4455, 1804.567
519.9276, 1810.948
520.4097, 1810.785
520.8918, 1784.477
521.3740, 1791.929
521.8561, 1785.852
522.3382, 1779.220
522.8203, 1791.425
523.3024, 1768.919
523.7845, 1780.825
524.2667, 1778.994
524.7488, 1783.451
525.2309, 1774.293
525.7130, 1770.653
526.1951, 1772.265
526.6772, 1772.054
527.1594, 1771.881
527.6415, 1774.899
528.1236, 1780.230
528.6057, 1784.074
529.0878, 1785.271
529.5699, 1783.440
530.0521, 1776.641
530.5342, 1762.506
531.0163, 1752.919
531.4984, 1755.165
531.9805, 1762.300
532.4626, 1766.930
532.9448, 1767.359
533.4269, 1765.952
533.9090, 1760.751
534.3911, 1753.662
534.8732, 1752.549
535.3553, 1759.615
535.8375, 1768.645
536.3196, 1777.865
536.8017, 1787.597
537.2838, 1792.745
537.7659, 1792.606
538.2480, 1790.355
538.7302, 1789.080
539.2123, 1788.661
539.6944, 1788.369
540.1765, 1788.076
540.6586, 1787.786
541.1407, 1787.908
541.6229, 1788.136
542.1050, 1787.384
542.5871, 1780.984
543.0692, 1776.008
543.5513, 1779.992
544.0334, 1793.231
544.5156, 1807.757
544.9977, 1823.435
545.4798, 1836.799
545.9619, 1844.818
546.4440, 1844.370
546.9261, 1842.378
547.4083, 1838.536
547.8904, 1833.946
548.3725, 1830.347
548.8546, 1825.664
549.3367, 1825.706
549.8188, 1834.848
550.3010, 1851.538
550.7831, 1856.409
551.2652, 1846.970
551.7473, 1833.975
552.2294, 1824.013
552.7115, 1816.994
553.1937, 1811.900
553.6758, 1808.041
554.1579, 1808.649
554.6400, 1822.641
555.1221, 1844.921
555.6042, 1860.654
556.0864, 1863.189
556.5685, 1858.514
557.0506, 1848.886
557.5327, 1835.984
558.0148, 1826.229
558.4969, 1825.780
558.9791, 1827.150
559.4612, 1825.372
559.9433, 1819.007
560.4254, 1814.370
560.9075, 1811.353
561.3896, 1811.353
561.8718, 1815.971
562.3539, 1832.700
562.8360, 1840.654
563.3181, 1833.789
563.8002, 1819.324
564.2823, 1815.898
564.7645, 1826.320
565.2466, 1835.041
565.7287, 1833.188
566.2108, 1824.365
566.6929, 1831.012
567.1750, 1853.998
567.6572, 1871.468
568.1393, 1858.912
568.6214, 1828.483
569.1035, 1803.727
569.5856, 1787.727
570.0677, 1779.222
570.5499, 1780.982
571.0320, 1788.609
571.5141, 1795.136
571.9962, 1799.226
572.4783, 1800.528
572.9604, 1796.390
573.4426, 1788.386
573.9247, 1784.418
574.4068, 1791.388
574.8889, 1797.472
575.3710, 1797.203
575.8531, 1788.461
576.3353, 1784.628
576.8174, 1786.889
577.2995, 1792.354
577.7816, 1800.228
578.2637, 1811.291
578.7458, 1814.678
579.2280, 1806.532
579.7101, 1794.240
580.1922, 1790.853
580.6743, 1795.309
581.1564, 1801.605
581.6385, 1808.129
582.1207, 1814.307
582.6028, 1819.423
583.0849, 1823.434
583.5670, 1826.363
584.0491, 1827.893
584.5313, 1828.543
585.0134, 1827.668
585.4955, 1823.067
585.9776, 1823.889
586.4597, 1837.775
586.9418, 1856.090
587.4240, 1868.964
587.9061, 1874.928
588.3882, 1877.427
588.8703, 1876.052
589.3524, 1871.658
589.8345, 1865.437
590.3167, 1855.639
590.7988, 1850.856
591.2809, 1856.323
591.7630, 1870.110
592.2451, 1883.506
592.7272, 1896.618
593.2094, 1906.765
593.6915, 1910.495
594.1736, 1909.920
594.6557, 1908.704
595.1378, 1907.198
595.6199, 1906.195
596.1021, 1905.352
596.5842, 1905.645
597.0663, 1908.475
597.5485, 1921.216
598.0306, 1929.229
598.5127, 1922.882
598.9948, 1906.576
599.4769, 1899.639
599.9590, 1911.202
600.4412, 1922.450
600.9233, 1927.047
601.4054, 1924.565
601.8875, 1921.390
602.3696, 1915.263
602.8517, 1914.104
603.3339, 1929.623
603.8160, 1959.938
604.2981, 1977.086
604.7802, 1975.990
605.2623, 1967.649
605.7444, 1964.727
606.2266, 1965.800
606.7087, 1967.139
607.1908, 1966.735
607.6729, 1966.713
608.1550, 1969.642
608.6371, 1974.507
609.1193, 1978.114
609.6014, 1974.359
610.0835, 1973.185
610.5656, 1980.338
611.0477, 1997.323
611.5298, 2013.812
612.0120, 2033.873
612.4941, 2048.831
612.9762, 2050.488
613.4583, 2032.324
613.9404, 2025.408
614.4225, 2033.936
614.9047, 2048.836
615.3868, 2056.684
615.8689, 2058.194
616.3510, 2062.481
616.8331, 2074.686
617.3152, 2087.778
617.7974, 2088.453
618.2795, 2079.835
618.7616, 2074.114
619.2437, 2081.137
619.7258, 2091.268
620.2079, 2096.458
620.6901, 2096.336
621.1722, 2099.073
621.6543, 2109.113
622.1364, 2121.850
622.6185, 2134.378
623.1006, 2146.851
623.5828, 2158.561
624.0649, 2169.621
624.5470, 2179.815
625.0291, 2188.473
625.5112, 2195.088
625.9933, 2203.424
626.4755, 2215.362
626.9576, 2227.619
627.4397, 2231.800
627.9218, 2228.952
628.4039, 2227.050
628.8860, 2232.118
629.3682, 2239.305
629.8503, 2240.120
630.3324, 2235.729
630.8145, 2235.064
631.2966, 2245.243
631.7787, 2259.663
632.2609, 2273.840
632.7430, 2286.942
633.2251, 2300.838
633.7072, 2324.466
634.1893, 2343.444
634.6714, 2344.197
635.1536, 2312.582
635.6357, 2294.277
636.1178, 2295.166
636.5999, 2308.229
637.0820, 2324.561
637.5641, 2344.555
638.0463, 2354.425
638.5284, 2343.369
639.0105, 2325.076
639.4926, 2331.195
639.9747, 2357.490
640.4568, 2379.178
640.9390, 2377.179
641.4211, 2366.499
641.9032, 2360.141
642.3853, 2359.061
642.8674, 2359.899
643.3495, 2363.570
643.8317, 2367.192
644.3138, 2368.433
644.7959, 2363.231
645.2780, 2363.402
645.7601, 2372.538
646.2422, 2383.882
646.7244, 2388.071
647.2065, 2382.474
647.6886, 2384.437
648.1707, 2400.311
648.6528, 2420.486
649.1349, 2422.878
649.6171, 2410.077
