##NAMES=Phlogopite
##RRUFFID=R040144
##IDEAL CHEMISTRY=KMg_3_(Si_3_Al)O_10_(OH)_2_
##LOCALITY=Brinton's Quarry, Chester County, Pennsylvania, USA
##OWNER=RRUFF
##SOURCE=University of Arizona Mineral Museum
##DESCRIPTION=Dark green mica book
##STATUS=The identification of this mineral has been confirmed by X-ray diffraction and chemical analysis
##URL=rruff.info/R040144
##MEASURED CHEMISTRY=(K_0.94_Na_0.04_)(Mg_0.82_Al_0.13_Fe_0.08_)_3_(Si_0.67_Al_0.33_)_4_O_10_((OH)_0.90_F_0.10_)_2_
155.7318, 1330.190
156.2139, 1330.255
156.6960, 1334.369
157.1782, 1348.271
157.6603, 1373.537
158.1424, 1399.530
158.6245, 1416.948
159.1066, 1428.603
159.5887, 1440.862
160.0709, 1454.434
160.5530, 1469.782
161.0351, 1487.507
161.5172, 1507.619
161.9993, 1529.840
162.4814, 1554.765
162.9636, 1581.515
163.4457, 1609.353
163.9278, 1638.310
164.4099, 1667.974
164.8920, 1697.706
165.3741, 1727.958
165.8563, 1756.779
166.3384, 1779.742
166.8205, 1800.688
167.3026, 1826.711
167.7847, 1863.551
168.2668, 1906.488
168.7490, 1945.201
169.2311, 1978.463
169.7132, 2010.541
170.1953, 2044.762
170.6774, 2079.351
171.1595, 2111.019
171.6417, 2135.776
172.1238, 2157.677
172.6059, 2185.021
173.0880, 2213.441
173.5701, 2257.713
174.0522, 2331.656
174.5344, 2422.420
175.0165, 2510.913
175.4986, 2587.388
175.9807, 2656.376
176.4628, 2731.450
176.9449, 2814.890
177.4271, 2900.786
177.9092, 2982.001
178.3913, 3064.686
178.8734, 3156.752
179.3555, 3262.747
179.8376, 3381.335
180.3197, 3510.730
180.8019, 3655.853
181.2840, 3803.779
181.7661, 3942.440
182.2482, 4083.323
182.7303, 4241.090
183.2124, 4424.958
183.6946, 4627.088
184.1767, 4824.043
184.6588, 5003.533
185.1409, 5198.488
185.6230, 5413.920
186.1051, 5646.583
186.5873, 5895.562
187.0694, 6161.866
187.5515, 6439.988
188.0336, 6719.632
188.5157, 6986.028
188.9978, 7278.817
189.4800, 7608.050
189.9621, 7959.789
190.4442, 8326.629
190.9263, 8703.744
191.4084, 9086.639
191.8905, 9462.736
192.3727, 9825.521
192.8548, 10196.07
193.3369, 10607.24
193.8190, 11014.64
194.3011, 11377.35
194.7832, 11679.14
195.2654, 11932.21
195.7475, 12166.09
196.2296, 12417.88
196.7117, 12574.01
197.1938, 12613.94
197.6759, 12575.31
198.1581, 12489.30
198.6402, 12366.64
199.1223, 12198.58
199.6044, 11966.65
200.0865, 11655.08
200.5686, 11302.45
201.0508, 10911.78
201.5329, 10490.27
202.0150, 10038.19
202.4971, 9556.161
202.9792, 9065.411
203.4613, 8596.270
203.9435, 8147.675
204.4256, 7728.534
204.9077, 7340.314
205.3898, 6974.209
205.8719, 6622.833
206.3540, 6285.198
206.8362, 5967.309
207.3183, 5677.349
207.8004, 5427.274
208.2825, 5181.739
208.7646, 4934.424
209.2467, 4694.960
209.7289, 4465.795
210.2110, 4250.227
210.6931, 4053.283
211.1752, 3882.567
211.6573, 3743.723
212.1395, 3614.930
212.6216, 3503.073
213.1037, 3395.242
213.5858, 3282.528
214.0679, 3167.248
214.5500, 3060.114
215.0322, 2974.501
215.5143, 2915.582
215.9964, 2845.162
216.4785, 2740.152
216.9606, 2644.804
217.4427, 2579.776
217.9249, 2539.966
218.4070, 2506.602
218.8891, 2464.179
219.3712, 2412.345
219.8533, 2364.271
220.3354, 2322.602
220.8176, 2282.327
221.2997, 2241.501
221.7818, 2201.075
222.2639, 2163.508
222.7460, 2131.429
223.2281, 2103.745
223.7103, 2071.456
224.1924, 2026.131
224.6745, 1985.227
225.1566, 1952.577
225.6387, 1926.442
226.1208, 1904.693
226.6030, 1886.718
227.0851, 1871.062
227.5672, 1851.452
228.0493, 1823.752
228.5314, 1797.370
229.0135, 1771.015
229.4957, 1747.834
229.9778, 1732.029
230.4599, 1725.641
230.9420, 1725.628
231.4241, 1725.370
231.9062, 1729.430
232.3884, 1724.471
232.8705, 1704.404
233.3526, 1678.553
233.8347, 1653.933
234.3168, 1633.076
234.7989, 1615.215
235.2811, 1598.532
235.7632, 1580.409
236.2453, 1570.135
236.7274, 1577.716
237.2095, 1585.936
237.6916, 1580.926
238.1738, 1561.136
238.6559, 1538.156
239.1380, 1528.023
239.6201, 1536.276
240.1022, 1536.673
240.5843, 1515.911
241.0665, 1497.256
241.5486, 1495.816
242.0307, 1509.522
242.5128, 1522.818
242.9949, 1518.415
243.4770, 1494.102
243.9592, 1478.748
244.4413, 1483.407
244.9234, 1486.871
245.4055, 1479.239
245.8876, 1463.607
246.3697, 1449.281
246.8519, 1443.765
247.3340, 1445.773
247.8161, 1443.757
248.2982, 1433.871
248.7803, 1424.977
249.2624, 1418.740
249.7446, 1415.610
250.2267, 1417.002
250.7088, 1425.364
251.1909, 1436.886
251.6730, 1440.201
252.1551, 1432.217
252.6373, 1421.947
253.1194, 1408.370
253.6015, 1395.856
254.0836, 1389.438
254.5657, 1391.224
255.0478, 1398.578
255.5300, 1409.391
256.0121, 1426.108
256.4942, 1436.764
256.9763, 1429.072
257.4584, 1419.030
257.9406, 1418.948
258.4227, 1431.598
258.9048, 1448.878
259.3869, 1463.643
259.8690, 1475.917
260.3511, 1485.268
260.8333, 1488.847
261.3154, 1491.917
261.7975, 1498.271
262.2796, 1507.957
262.7617, 1518.821
263.2438, 1530.190
263.7260, 1541.781
264.2081, 1551.276
264.6902, 1556.214
265.1723, 1562.571
265.6544, 1575.464
266.1365, 1593.372
266.6187, 1611.242
267.1008, 1624.108
267.5829, 1635.800
268.0650, 1656.199
268.5471, 1688.423
269.0292, 1719.788
269.5114, 1739.443
269.9935, 1752.280
270.4756, 1766.350
270.9577, 1785.186
271.4398, 1804.882
271.9219, 1820.088
272.4041, 1830.660
272.8862, 1842.683
273.3683, 1858.933
273.8504, 1878.900
274.3325, 1901.094
274.8146, 1926.603
275.2968, 1952.339
275.7789, 1980.393
276.2610, 2008.171
276.7431, 2024.332
277.2252, 2022.705
277.7073, 2010.207
278.1895, 1997.850
278.6716, 1985.651
279.1537, 1973.563
279.6358, 1965.089
280.1179, 1955.940
280.6000, 1936.291
281.0822, 1902.478
281.5643, 1867.244
282.0464, 1848.720
282.5285, 1849.241
283.0106, 1837.697
283.4927, 1800.994
283.9749, 1756.849
284.4570, 1718.345
284.9391, 1687.270
285.4212, 1664.604
285.9033, 1653.327
286.3854, 1653.216
286.8676, 1646.416
287.3497, 1629.426
287.8318, 1609.830
288.3139, 1591.364
288.7960, 1573.246
289.2781, 1551.836
289.7603, 1523.979
290.2424, 1493.148
290.7245, 1474.908
291.2066, 1482.257
291.6887, 1485.190
292.1708, 1475.461
292.6530, 1460.234
293.1351, 1448.816
293.6172, 1444.429
294.0993, 1443.169
294.5814, 1438.083
295.0635, 1426.081
295.5457, 1415.928
296.0278, 1407.428
296.5099, 1400.801
296.9920, 1397.680
297.4741, 1397.358
297.9562, 1396.010
298.4384, 1388.582
298.9205, 1372.936
299.4026, 1366.359
299.8847, 1376.196
300.3668, 1387.454
300.8489, 1396.834
301.3310, 1403.613
301.8131, 1407.230
302.2953, 1406.927
302.7774, 1403.606
303.2595, 1401.845
303.7416, 1402.110
304.2237, 1403.440
304.7058, 1406.099
305.1880, 1409.379
305.6701, 1412.619
306.1522, 1415.584
306.6343, 1418.273
307.1164, 1420.367
307.5985, 1421.318
308.0807, 1423.703
308.5628, 1433.187
309.0449, 1440.517
309.5270, 1435.780
310.0091, 1419.731
310.4912, 1407.906
310.9734, 1419.093
311.4555, 1450.383
311.9376, 1468.150
312.4197, 1461.783
312.9018, 1453.345
313.3839, 1458.388
313.8661, 1472.492
314.3482, 1484.002
314.8303, 1483.182
315.3124, 1478.533
315.7945, 1487.900
316.2766, 1514.274
316.7588, 1536.910
317.2409, 1540.843
317.7230, 1534.913
318.2051, 1533.711
318.6872, 1540.080
319.1693, 1549.344
319.6515, 1558.212
320.1336, 1567.020
320.6157, 1578.057
321.0978, 1593.312
321.5799, 1609.077
322.0620, 1618.431
322.5442, 1620.129
323.0263, 1624.319
323.5084, 1635.223
323.9905, 1649.660
324.4726, 1664.443
324.9547, 1679.068
325.4369, 1691.562
325.9190, 1698.336
326.4011, 1698.532
326.8832, 1708.946
327.3653, 1743.431
327.8474, 1775.125
328.3296, 1783.979
328.8117, 1776.573
329.2938, 1774.689
329.7759, 1791.878
330.2580, 1823.093
330.7401, 1844.904
331.2223, 1848.181
331.7044, 1853.415
332.1865, 1865.972
332.6686, 1880.043
333.1507, 1887.284
333.6328, 1885.792
334.1150, 1883.534
334.5971, 1893.144
335.0792, 1920.120
335.5613, 1944.195
336.0434, 1968.459
336.5255, 1987.526
337.0077, 1992.877
337.4898, 1989.271
337.9719, 1991.357
338.4540, 2012.442
338.9361, 2049.849
339.4182, 2079.725
339.9004, 2100.957
340.3825, 2115.126
340.8646, 2119.455
341.3467, 2119.205
341.8288, 2120.198
342.3109, 2124.250
342.7931, 2132.044
343.2752, 2146.252
343.7573, 2168.180
344.2394, 2187.267
344.7215, 2198.390
345.2036, 2207.871
345.6858, 2219.241
346.1679, 2232.919
346.6500, 2251.748
347.1321, 2282.929
347.6142, 2320.538
348.0963, 2346.840
348.5785, 2357.346
349.0606, 2365.324
349.5427, 2385.194
350.0248, 2411.425
350.5069, 2426.549
350.9890, 2414.322
351.4712, 2400.386
351.9533, 2408.080
352.4354, 2433.898
352.9175, 2458.607
353.3996, 2472.192
353.8817, 2480.210
354.3639, 2498.675
354.8460, 2534.598
355.3281, 2563.894
355.8102, 2578.639
356.2923, 2585.091
356.7744, 2590.176
357.2566, 2595.437
357.7387, 2598.261
358.2208, 2594.908
358.7029, 2583.170
359.1850, 2577.876
359.6671, 2584.272
360.1493, 2590.896
360.6314, 2594.183
361.1135, 2593.611
361.5956, 2589.223
362.0777, 2580.985
362.5598, 2569.053
363.0420, 2553.824
363.5241, 2533.774
364.0062, 2512.609
364.4883, 2490.014
364.9704, 2467.122
365.4525, 2444.463
365.9347, 2422.385
366.4168, 2401.406
366.8989, 2383.727
367.3810, 2369.699
367.8631, 2350.800
368.3452, 2326.053
368.8274, 2296.541
369.3095, 2259.879
369.7916, 2219.159
370.2737, 2181.537
370.7558, 2148.925
371.2379, 2122.424
371.7201, 2108.162
372.2022, 2108.143
372.6843, 2101.110
373.1664, 2075.271
373.6485, 2038.606
374.1306, 2002.638
374.6128, 1966.280
375.0949, 1935.803
375.5770, 1917.685
376.0591, 1907.440
376.5412, 1896.091
377.0233, 1881.631
377.5055, 1867.637
377.9876, 1858.651
378.4697, 1855.414
378.9518, 1847.750
379.4339, 1833.981
379.9160, 1817.186
380.3982, 1796.856
380.8803, 1774.859
381.3624, 1756.685
381.8445, 1745.805
382.3266, 1738.985
382.8087, 1726.054
383.2909, 1697.328
383.7730, 1675.317
384.2551, 1665.505
384.7372, 1659.272
385.2193, 1649.160
385.7014, 1634.299
386.1836, 1619.064
386.6657, 1608.000
387.1478, 1601.322
387.6299, 1595.696
388.1120, 1594.618
388.5941, 1590.287
389.0763, 1576.557
389.5584, 1558.895
390.0405, 1546.279
390.5226, 1543.063
391.0047, 1544.563
391.4868, 1543.192
391.9690, 1538.514
392.4511, 1535.319
392.9332, 1536.585
393.4153, 1538.240
393.8974, 1535.723
394.3795, 1529.051
394.8617, 1523.549
395.3438, 1523.530
395.8259, 1525.762
396.3080, 1523.770
396.7901, 1516.692
397.2722, 1511.462
397.7544, 1515.029
398.2365, 1524.528
398.7186, 1525.209
399.2007, 1507.278
399.6828, 1491.698
400.1649, 1488.190
400.6471, 1491.995
401.1292, 1496.063
401.6113, 1498.105
402.0934, 1497.615
402.5755, 1493.354
403.0576, 1482.833
403.5398, 1476.326
404.0219, 1474.295
404.5040, 1475.163
404.9861, 1479.506
405.4682, 1486.085
405.9503, 1492.700
406.4325, 1498.209
406.9146, 1502.180
407.3967, 1503.079
407.8788, 1500.973
408.3609, 1495.431
408.8430, 1484.345
409.3252, 1471.411
409.8073, 1456.937
410.2894, 1441.760
410.7715, 1432.738
411.2536, 1440.365
411.7357, 1460.648
412.2179, 1471.985
412.7000, 1470.158
413.1821, 1466.100
413.6642, 1466.077
414.1463, 1469.286
414.6284, 1474.816
415.1106, 1484.111
415.5927, 1493.750
416.0748, 1501.656
416.5569, 1507.929
417.0390, 1513.062
417.5211, 1517.405
418.0033, 1519.873
418.4854, 1518.471
418.9675, 1511.818
419.4496, 1505.773
419.9317, 1499.598
420.4138, 1494.885
420.8960, 1492.016
421.3781, 1491.458
421.8602, 1494.385
422.3423, 1501.770
422.8244, 1512.833
423.3065, 1524.310
423.7887, 1537.847
424.2708, 1549.143
424.7529, 1559.620
425.2350, 1566.721
425.7171, 1566.434
426.1992, 1559.210
426.6814, 1551.590
427.1635, 1550.144
427.6456, 1554.332
428.1277, 1558.322
428.6098, 1563.558
429.0919, 1565.726
429.5741, 1557.167
430.0562, 1545.626
430.5383, 1544.527
431.0204, 1562.478
431.5025, 1579.632
431.9846, 1576.866
432.4668, 1559.187
432.9489, 1543.205
433.4310, 1532.011
433.9131, 1527.751
434.3952, 1536.513
434.8773, 1560.401
435.3595, 1572.939
435.8416, 1562.698
436.3237, 1549.702
436.8058, 1545.373
437.2879, 1548.428
437.7701, 1555.318
438.2522, 1564.868
438.7343, 1572.857
439.2164, 1567.035
439.6985, 1529.448
440.1806, 1510.617
440.6628, 1525.928
441.1449, 1545.895
441.6270, 1550.882
442.1091, 1541.971
442.5912, 1532.258
443.0733, 1531.556
443.5555, 1537.741
444.0376, 1543.536
444.5197, 1550.447
445.0018, 1552.691
445.4839, 1541.244
445.9660, 1527.528
446.4482, 1525.277
446.9303, 1538.102
447.4124, 1546.955
447.8945, 1535.731
448.3766, 1513.126
448.8587, 1497.097
449.3409, 1490.121
449.8230, 1487.097
450.3051, 1484.071
450.7872, 1481.496
451.2693, 1482.719
451.7514, 1496.075
452.2336, 1503.297
452.7157, 1491.996
453.1978, 1473.244
453.6799, 1463.653
454.1620, 1467.618
454.6441, 1475.640
455.1263, 1475.074
455.6084, 1463.849
456.0905, 1455.794
456.5726, 1451.131
457.0547, 1449.747
457.5368, 1456.248
458.0190, 1464.961
458.5011, 1465.737
458.9832, 1453.040
459.4653, 1437.084
459.9474, 1433.789
460.4295, 1443.389
460.9117, 1450.270
461.3938, 1450.341
461.8759, 1448.386
462.3580, 1447.551
462.8401, 1448.026
463.3222, 1451.395
463.8044, 1463.510
464.2865, 1474.467
464.7686, 1473.532
465.2507, 1463.188
465.7328, 1454.337
466.2149, 1452.282
466.6971, 1452.122
467.1792, 1444.166
467.6613, 1423.199
468.1434, 1405.019
468.6255, 1386.095
469.1076, 1372.873
469.5898, 1372.533
470.0719, 1381.772
470.5540, 1391.855
471.0361, 1397.851
471.5182, 1399.498
472.0003, 1394.749
472.4825, 1379.814
472.9646, 1368.927
473.4467, 1368.817
473.9288, 1371.188
474.4109, 1372.033
474.8930, 1370.728
475.3752, 1366.414
475.8573, 1354.272
476.3394, 1340.524
476.8215, 1337.316
477.3036, 1345.005
477.7857, 1353.103
478.2679, 1356.938
478.7500, 1357.414
479.2321, 1356.210
479.7142, 1352.003
480.1963, 1349.644
480.6784, 1349.167
481.1606, 1351.528
481.6427, 1361.380
482.1248, 1376.359
482.6069, 1384.912
483.0890, 1377.206
483.5711, 1357.221
484.0533, 1347.287
484.5354, 1354.262
485.0175, 1360.346
485.4996, 1362.664
485.9817, 1363.417
486.4638, 1364.132
486.9460, 1365.065
487.4281, 1365.887
487.9102, 1367.202
488.3923, 1368.174
488.8744, 1365.650
489.3565, 1358.997
489.8387, 1352.286
490.3208, 1346.599
490.8029, 1342.772
491.2850, 1342.298
491.7671, 1346.150
492.2492, 1350.451
492.7314, 1352.944
493.2135, 1355.720
493.6956, 1363.935
494.1777, 1376.456
494.6598, 1382.836
495.1419, 1373.537
495.6241, 1352.313
496.1062, 1343.577
496.5883, 1358.457
497.0704, 1370.751
497.5525, 1376.924
498.0346, 1380.308
498.5168, 1383.225
498.9989, 1386.180
499.4810, 1389.036
499.9631, 1393.118
500.4452, 1396.965
500.9273, 1394.033
501.4095, 1382.778
501.8916, 1371.030
502.3737, 1360.401
502.8558, 1352.392
503.3379, 1349.480
503.8200, 1352.822
504.3022, 1356.594
504.7843, 1356.795
505.2664, 1357.329
505.7485, 1363.759
506.2306, 1375.776
506.7127, 1387.867
507.1949, 1396.250
507.6770, 1402.019
508.1591, 1410.139
508.6412, 1429.025
509.1233, 1437.479
509.6054, 1424.938
510.0876, 1409.384
510.5697, 1405.209
511.0518, 1411.645
511.5339, 1417.180
512.0161, 1411.035
512.4982, 1399.656
512.9803, 1403.462
513.4624, 1425.771
513.9445, 1442.580
514.4266, 1441.624
514.9088, 1434.449
515.3909, 1439.087
515.8730, 1457.276
516.3551, 1465.100
516.8372, 1443.431
517.3193, 1417.047
517.8015, 1410.280
518.2836, 1420.594
518.7657, 1431.929
519.2478, 1435.876
519.7299, 1435.225
520.2120, 1436.695
520.6942, 1442.454
521.1763, 1446.175
521.6584, 1448.447
522.1405, 1448.422
522.6226, 1443.284
523.1047, 1435.482
523.5869, 1431.435
524.0690, 1435.856
524.5511, 1442.648
525.0332, 1441.000
525.5153, 1430.970
525.9974, 1421.584
526.4796, 1413.956
526.9617, 1409.258
527.4438, 1409.807
527.9259, 1415.003
528.4080, 1420.715
528.8901, 1428.181
529.3723, 1434.237
529.8544, 1435.428
530.3365, 1434.167
530.8186, 1436.066
531.3007, 1442.906
531.7828, 1449.799
532.2650, 1449.819
532.7471, 1441.955
533.2292, 1433.413
533.7113, 1421.822
534.1934, 1412.322
534.6755, 1406.873
535.1577, 1404.248
535.6398, 1403.546
536.1219, 1404.859
536.6040, 1404.650
537.0861, 1395.619
537.5682, 1382.271
538.0504, 1383.027
538.5325, 1402.441
539.0146, 1416.597
539.4967, 1404.259
539.9788, 1372.882
540.4609, 1360.006
540.9431, 1381.181
541.4252, 1397.199
541.9073, 1397.381
542.3894, 1390.702
542.8715, 1383.793
543.3536, 1378.506
543.8358, 1376.089
544.3179, 1378.224
544.8000, 1383.345
545.2821, 1384.922
545.7642, 1383.342
546.2463, 1377.025
546.7285, 1356.979
547.2106, 1338.567
547.6926, 1337.200
548.1747, 1351.510
548.6569, 1361.053
549.1390, 1348.781
549.6211, 1333.035
550.1032, 1338.347
550.5853, 1359.519
551.0674, 1371.399
551.5496, 1363.057
552.0317, 1345.982
552.5138, 1339.062
552.9959, 1346.781
553.4780, 1349.451
553.9601, 1345.381
554.4423, 1338.869
554.9244, 1327.358
555.4065, 1315.868
555.8886, 1312.900
556.3707, 1321.755
556.8528, 1334.112
557.3350, 1340.360
557.8171, 1341.075
558.2992, 1340.771
558.7813, 1339.651
559.2634, 1338.232
559.7455, 1337.720
560.2277, 1336.955
560.7098, 1332.254
561.1919, 1318.666
561.6740, 1309.749
562.1561, 1314.955
562.6382, 1323.754
563.1204, 1324.042
563.6025, 1315.662
564.0846, 1306.593
564.5667, 1302.461
565.0488, 1302.398
565.5309, 1303.187
566.0131, 1305.574
566.4952, 1306.940
566.9773, 1307.793
567.4594, 1306.609
567.9415, 1299.556
568.4236, 1288.708
568.9058, 1283.221
569.3879, 1289.503
569.8700, 1300.517
570.3521, 1311.974
570.8342, 1322.498
571.3163, 1326.262
571.7985, 1321.030
572.2806, 1313.010
572.7627, 1309.342
573.2448, 1310.221
573.7269, 1313.632
574.2090, 1326.776
574.6912, 1333.783
575.1733, 1324.695
575.6554, 1310.550
576.1375, 1304.548
576.6196, 1309.165
577.1017, 1315.328
577.5839, 1312.116
578.0660, 1303.885
578.5481, 1307.788
579.0302, 1325.801
579.5123, 1339.995
579.9944, 1340.178
580.4766, 1333.550
580.9587, 1335.542
581.4408, 1350.128
581.9229, 1355.658
582.4050, 1337.901
582.8871, 1320.368
583.3693, 1320.643
583.8514, 1333.375
584.3335, 1345.101
584.8156, 1349.636
585.2977, 1350.122
585.7798, 1351.627
586.2620, 1354.423
586.7441, 1354.502
587.2262, 1348.955
587.7083, 1345.175
588.1904, 1348.872
588.6725, 1356.692
589.1547, 1363.702
589.6368, 1369.952
590.1189, 1373.562
590.6010, 1371.497
591.0831, 1367.442
591.5652, 1365.594
592.0474, 1366.466
592.5295, 1369.333
593.0116, 1373.707
593.4937, 1379.772
593.9758, 1389.294
594.4579, 1407.560
594.9401, 1416.581
595.4222, 1402.574
595.9043, 1390.126
596.3864, 1392.930
596.8685, 1407.107
597.3506, 1421.707
597.8328, 1432.954
598.3149, 1442.779
598.7970, 1456.682
599.2791, 1470.244
599.7612, 1468.053
600.2433, 1447.063
600.7255, 1428.474
601.2076, 1431.461
601.6897, 1452.781
602.1718, 1465.851
602.6539, 1459.557
603.1360, 1460.161
603.6182, 1480.074
604.1003, 1499.242
604.5824, 1497.482
605.0645, 1479.435
605.5466, 1469.303
606.0287, 1485.272
606.5109, 1510.761
606.9930, 1520.001
607.4751, 1514.965
607.9572, 1511.142
608.4393, 1512.338
608.9214, 1515.636
609.4036, 1517.945
609.8857, 1519.276
610.3678, 1523.418
610.8499, 1532.278
611.3320, 1541.219
611.8141, 1549.822
612.2963, 1557.607
612.7784, 1563.868
613.2605, 1568.688
613.7426, 1572.772
614.2247, 1576.179
614.7068, 1579.622
615.1890, 1585.452
615.6711, 1593.833
616.1532, 1601.127
616.6353, 1606.762
617.1174, 1609.959
617.5995, 1607.797
618.0817, 1600.142
618.5638, 1599.549
619.0459, 1610.863
619.5280, 1624.245
620.0101, 1636.009
620.4922, 1647.673
620.9744, 1662.959
621.4565, 1681.565
621.9386, 1697.375
622.4207, 1704.230
622.9028, 1704.183
623.3849, 1703.736
623.8671, 1701.808
624.3492, 1706.276
624.8313, 1722.263
625.3134, 1742.554
625.7955, 1758.436
626.2776, 1770.224
626.7598, 1782.802
627.2419, 1795.160
627.7240, 1810.198
628.2061, 1831.493
628.6882, 1855.445
629.1703, 1876.077
629.6525, 1892.367
630.1346, 1908.857
630.6167, 1930.857
631.0988, 1956.714
631.5809, 1975.403
632.0630, 1983.130
632.5452, 1999.366
633.0273, 2035.895
633.5094, 2077.950
633.9915, 2107.159
634.4736, 2124.353
634.9557, 2148.133
635.4379, 2185.399
635.9200, 2226.464
636.4021, 2271.596
636.8842, 2314.835
637.3663, 2342.792
637.8484, 2354.693
638.3306, 2369.484
638.8127, 2406.811
639.2948, 2463.259
639.7769, 2517.503
640.2590, 2569.504
640.7411, 2619.920
641.2233, 2668.170
641.7054, 2715.271
642.1875, 2761.823
642.6696, 2808.066
643.1517, 2856.354
643.6339, 2912.972
644.1160, 2965.584
644.5981, 3001.245
645.0802, 3031.004
645.5623, 3073.203
646.0444, 3130.572
646.5266, 3189.935
647.0087, 3239.028
647.4908, 3279.521
647.9729, 3320.057
648.4550, 3361.980
648.9371, 3396.783
649.4193, 3416.136
649.9014, 3434.215
