##NAMES=Phlogopite
##RRUFFID=R040144
##IDEAL CHEMISTRY=KMg_3_(Si_3_Al)O_10_(OH)_2_
##LOCALITY=Brinton's Quarry, Chester County, Pennsylvania, USA
##OWNER=RRUFF
##SOURCE=University of Arizona Mineral Museum
##DESCRIPTION=Dark green mica book
##STATUS=The identification of this mineral has been confirmed by X-ray diffraction and chemical analysis
##URL=rruff.info/R040144
##MEASURED CHEMISTRY=(K_0.94_Na_0.04_)(Mg_0.82_Al_0.13_Fe_0.08_)_3_(Si_0.67_Al_0.33_)_4_O_10_((OH)_0.90_F_0.10_)_2_
165.5717, 1577.236
166.0538, 1595.954
166.5359, 1622.691
167.0180, 1652.697
167.5002, 1691.057
167.9823, 1727.797
168.4644, 1752.620
168.9465, 1762.884
169.4286, 1774.375
169.9107, 1800.198
170.3929, 1835.728
170.8750, 1871.922
171.3571, 1903.767
171.8392, 1933.696
172.3213, 1963.282
172.8034, 1991.377
173.2856, 2022.545
173.7677, 2061.880
174.2498, 2108.257
174.7319, 2157.002
175.2140, 2204.498
175.6961, 2252.777
176.1783, 2303.716
176.6604, 2354.675
177.1425, 2412.656
177.6246, 2489.645
178.1067, 2582.990
178.5888, 2680.821
179.0710, 2770.203
179.5531, 2856.329
180.0352, 2949.310
180.5173, 3050.581
180.9994, 3159.915
181.4815, 3273.939
181.9637, 3393.724
182.4458, 3520.971
182.9279, 3656.057
183.4100, 3800.297
183.8921, 3960.814
184.3742, 4141.253
184.8564, 4338.952
185.3385, 4540.321
185.8206, 4746.321
186.3027, 4965.339
186.7848, 5207.850
187.2669, 5472.881
187.7491, 5760.222
188.2312, 6074.198
188.7133, 6409.179
189.1954, 6750.109
189.6775, 7093.470
190.1596, 7449.428
190.6418, 7841.136
191.1239, 8266.281
191.6060, 8696.048
192.0881, 9122.286
192.5702, 9544.545
193.0524, 9960.750
193.5345, 10371.15
194.0166, 10772.19
194.4987, 11157.23
194.9808, 11527.43
195.4629, 11865.19
195.9451, 12171.37
196.4272, 12449.12
196.9093, 12640.45
197.3914, 12741.07
197.8735, 12759.19
198.3556, 12706.89
198.8378, 12583.66
199.3199, 12397.23
199.8020, 12146.42
200.2841, 11831.95
200.7662, 11472.25
201.2483, 11058.91
201.7305, 10609.58
202.2126, 10168.06
202.6947, 9738.082
203.1768, 9301.879
203.6589, 8838.113
204.1410, 8343.068
204.6232, 7875.745
205.1053, 7439.836
205.5874, 7035.794
206.0695, 6668.975
206.5516, 6345.886
207.0337, 6042.941
207.5159, 5739.141
207.9980, 5434.463
208.4801, 5156.095
208.9622, 4909.814
209.4443, 4692.583
209.9264, 4490.663
210.4086, 4305.571
210.8907, 4132.039
211.3728, 3968.977
211.8549, 3816.233
212.3370, 3669.200
212.8191, 3523.285
213.3013, 3381.375
213.7834, 3258.600
214.2655, 3160.409
214.7476, 3072.212
215.2297, 2982.469
215.7118, 2887.932
216.1940, 2798.262
216.6761, 2714.945
217.1582, 2637.636
217.6403, 2567.612
218.1224, 2507.362
218.6045, 2452.131
219.0867, 2398.273
219.5688, 2348.046
220.0509, 2294.159
220.5330, 2232.695
221.0151, 2162.360
221.4972, 2109.122
221.9794, 2079.832
222.4615, 2059.450
222.9436, 2030.808
223.4257, 1987.898
223.9078, 1948.928
224.3899, 1920.558
224.8721, 1903.815
225.3542, 1878.428
225.8363, 1838.840
226.3184, 1795.677
226.8005, 1760.977
227.2827, 1737.830
227.7648, 1717.828
228.2469, 1699.435
228.7290, 1682.946
229.2111, 1666.569
229.6932, 1651.680
230.1754, 1635.990
230.6575, 1615.290
231.1396, 1584.516
231.6217, 1558.064
232.1038, 1541.223
232.5859, 1536.516
233.0681, 1527.457
233.5502, 1510.958
234.0323, 1492.375
234.5144, 1479.671
234.9965, 1476.471
235.4786, 1473.230
235.9608, 1467.286
236.4429, 1458.536
236.9250, 1447.786
237.4071, 1433.717
237.8892, 1418.540
238.3713, 1405.858
238.8535, 1396.871
239.3356, 1388.353
239.8177, 1378.931
240.2998, 1367.615
240.7819, 1359.535
241.2640, 1357.105
241.7462, 1356.378
242.2283, 1350.313
242.7104, 1336.513
243.1925, 1321.259
243.6746, 1305.781
244.1567, 1288.500
244.6389, 1276.600
245.1210, 1272.269
245.6031, 1272.013
246.0852, 1269.531
246.5673, 1262.902
247.0494, 1257.380
247.5316, 1255.892
248.0137, 1261.559
248.4958, 1259.907
248.9779, 1246.293
249.4600, 1227.975
249.9421, 1218.995
250.4243, 1222.809
250.9064, 1229.679
251.3885, 1237.117
251.8706, 1246.934
252.3527, 1250.919
252.8348, 1247.047
253.3170, 1238.629
253.7991, 1231.663
254.2812, 1226.230
254.7633, 1222.172
255.2454, 1218.228
255.7275, 1211.856
256.2097, 1216.801
256.6918, 1240.547
257.1739, 1270.416
257.6560, 1280.490
258.1381, 1259.292
258.6202, 1242.050
259.1024, 1244.236
259.5845, 1272.415
260.0666, 1292.199
260.5487, 1300.441
261.0308, 1302.625
261.5129, 1308.938
261.9951, 1319.999
262.4772, 1333.625
262.9593, 1349.679
263.4414, 1369.431
263.9235, 1386.058
264.4056, 1399.050
264.8878, 1409.574
265.3699, 1419.221
265.8520, 1426.867
266.3341, 1437.065
266.8162, 1451.337
267.2983, 1469.410
267.7805, 1493.305
268.2626, 1525.040
268.7447, 1560.157
269.2268, 1590.859
269.7089, 1616.182
270.1910, 1640.438
270.6732, 1665.598
271.1553, 1691.734
271.6374, 1716.056
272.1195, 1736.696
272.6016, 1758.320
273.0837, 1790.503
273.5659, 1836.583
274.0480, 1876.866
274.5301, 1902.151
275.0122, 1911.699
275.4943, 1924.399
275.9764, 1941.877
276.4586, 1959.444
276.9407, 1969.900
277.4228, 1972.659
277.9049, 1972.593
278.3870, 1972.540
278.8691, 1972.204
279.3513, 1964.221
279.8334, 1947.654
280.3155, 1925.849
280.7976, 1903.676
281.2798, 1881.511
281.7619, 1854.681
282.2440, 1819.322
282.7261, 1776.870
283.2082, 1737.595
283.6903, 1701.253
284.1725, 1668.994
284.6546, 1644.226
285.1367, 1626.831
285.6188, 1608.052
286.1009, 1584.173
286.5830, 1556.369
287.0652, 1528.993
287.5473, 1502.086
288.0294, 1476.839
288.5115, 1455.100
288.9936, 1436.522
289.4757, 1418.923
289.9579, 1399.524
290.4400, 1380.969
290.9221, 1372.479
291.4042, 1374.832
291.8863, 1377.543
292.3684, 1369.245
292.8506, 1351.936
293.3327, 1334.103
293.8148, 1317.395
294.2969, 1302.282
294.7790, 1288.868
295.2611, 1277.110
295.7433, 1268.450
296.2254, 1267.082
296.7075, 1270.024
297.1896, 1268.553
297.6717, 1256.676
298.1538, 1242.074
298.6360, 1237.718
299.1181, 1242.828
299.6002, 1248.630
300.0823, 1247.139
300.5644, 1241.732
301.0465, 1239.164
301.5287, 1243.254
302.0108, 1248.315
302.4929, 1246.375
302.9750, 1238.717
303.4571, 1232.800
303.9392, 1236.529
304.4214, 1244.135
304.9035, 1247.229
305.3856, 1240.721
305.8677, 1234.100
306.3498, 1236.070
306.8319, 1245.069
307.3141, 1255.706
307.7962, 1267.043
308.2783, 1277.310
308.7604, 1284.659
309.2425, 1287.768
309.7246, 1289.639
310.2068, 1290.467
310.6889, 1291.349
311.1710, 1295.106
311.6531, 1307.978
312.1352, 1321.281
312.6173, 1326.928
313.0995, 1319.803
313.5816, 1316.077
314.0637, 1326.362
314.5458, 1345.145
315.0279, 1362.093
315.5100, 1373.259
315.9922, 1381.538
316.4743, 1387.671
316.9564, 1390.883
317.4385, 1395.539
317.9206, 1402.982
318.4027, 1412.753
318.8849, 1424.205
319.3670, 1442.331
319.8491, 1457.569
320.3312, 1464.466
320.8133, 1460.670
321.2954, 1460.767
321.7776, 1468.090
322.2597, 1480.470
322.7418, 1495.597
323.2239, 1519.532
323.7060, 1539.805
324.1881, 1551.168
324.6703, 1552.415
325.1524, 1558.681
325.6345, 1577.138
326.1166, 1597.676
326.5987, 1612.249
327.0808, 1611.221
327.5630, 1615.497
328.0451, 1628.240
328.5272, 1649.173
329.0093, 1672.886
329.4914, 1704.391
329.9735, 1733.598
330.4557, 1753.297
330.9378, 1757.040
331.4199, 1762.427
331.9020, 1770.665
332.3841, 1781.595
332.8662, 1794.821
333.3484, 1811.696
333.8305, 1828.624
334.3126, 1843.022
334.7947, 1852.338
335.2768, 1867.330
335.7589, 1891.865
336.2411, 1920.493
336.7232, 1938.440
337.2053, 1941.448
337.6874, 1945.844
338.1695, 1960.478
338.6516, 1986.592
339.1338, 2011.046
339.6159, 2033.155
340.0980, 2053.972
340.5801, 2074.763
341.0622, 2095.845
341.5443, 2116.272
342.0265, 2136.426
342.5086, 2155.988
342.9907, 2172.826
343.4728, 2186.014
343.9549, 2199.548
344.4370, 2219.267
344.9192, 2244.395
345.4013, 2268.678
345.8834, 2289.740
346.3655, 2308.135
346.8476, 2323.651
347.3297, 2336.136
347.8119, 2348.445
348.2940, 2361.007
348.7761, 2375.193
349.2582, 2394.840
349.7403, 2422.611
350.2225, 2455.201
350.7046, 2492.648
351.1867, 2533.715
351.6688, 2566.233
352.1509, 2573.128
352.6331, 2568.106
353.1152, 2572.458
353.5973, 2594.227
354.0794, 2620.207
354.5615, 2638.639
355.0436, 2651.590
355.5258, 2665.346
356.0079, 2683.107
356.4900, 2703.328
356.9721, 2726.766
357.4542, 2756.670
357.9363, 2779.171
358.4185, 2780.417
358.9006, 2769.630
359.3827, 2762.772
359.8648, 2771.562
360.3469, 2781.523
360.8290, 2784.798
361.3112, 2779.923
361.7933, 2774.133
362.2754, 2771.482
362.7575, 2768.435
363.2396, 2761.116
363.7217, 2750.560
364.2039, 2733.837
364.6860, 2707.790
365.1681, 2672.222
365.6502, 2638.580
366.1323, 2610.795
366.6144, 2583.507
367.0966, 2552.848
367.5787, 2510.531
368.0608, 2475.389
368.5429, 2453.123
369.0250, 2440.307
369.5071, 2419.961
369.9893, 2389.042
370.4714, 2354.307
370.9535, 2318.725
371.4356, 2282.755
371.9177, 2245.134
372.3998, 2202.819
372.8820, 2160.245
373.3641, 2128.425
373.8462, 2110.197
374.3283, 2095.595
374.8104, 2082.480
375.2925, 2071.311
375.7747, 2053.884
376.2568, 2028.203
376.7389, 1999.929
377.2210, 1977.010
377.7031, 1959.750
378.1852, 1943.759
378.6674, 1928.725
379.1495, 1913.809
379.6316, 1894.067
380.1137, 1869.329
380.5958, 1842.803
381.0779, 1816.423
381.5601, 1790.390
382.0422, 1767.873
382.5243, 1749.893
383.0064, 1734.624
383.4885, 1719.551
383.9706, 1704.489
384.4528, 1689.142
384.9349, 1669.295
385.4170, 1649.914
385.8991, 1641.551
386.3812, 1649.804
386.8633, 1655.705
387.3455, 1636.464
387.8276, 1601.143
388.3097, 1570.115
388.7918, 1556.015
389.2739, 1549.155
389.7560, 1541.984
390.2382, 1533.733
390.7203, 1527.453
391.2024, 1524.988
391.6845, 1525.332
392.1666, 1527.316
392.6487, 1537.314
393.1309, 1542.541
393.6130, 1535.579
394.0951, 1517.427
394.5772, 1500.321
395.0593, 1486.341
395.5414, 1475.013
396.0236, 1466.183
396.5057, 1457.386
396.9878, 1453.967
397.4699, 1463.228
397.9520, 1479.175
398.4341, 1482.704
398.9163, 1459.954
399.3984, 1439.149
399.8805, 1431.090
400.3626, 1440.775
400.8447, 1448.866
401.3268, 1457.515
401.8090, 1462.956
402.2911, 1458.310
402.7732, 1438.477
403.2553, 1421.924
403.7374, 1413.374
404.2195, 1412.611
404.7017, 1417.132
405.1838, 1429.036
405.6659, 1440.599
406.1480, 1443.277
406.6301, 1436.918
407.1122, 1433.811
407.5944, 1437.638
408.0765, 1444.456
408.5586, 1443.650
409.0407, 1435.373
409.5228, 1427.556
410.0049, 1425.883
410.4871, 1428.777
410.9692, 1431.644
411.4513, 1433.781
411.9334, 1436.923
412.4155, 1445.820
412.8976, 1457.855
413.3798, 1465.235
413.8619, 1461.552
414.3440, 1453.272
414.8261, 1445.786
415.3082, 1439.265
415.7903, 1435.711
416.2725, 1437.736
416.7546, 1442.905
417.2367, 1448.492
417.7188, 1451.872
418.2009, 1457.326
418.6830, 1471.521
419.1652, 1490.722
419.6473, 1500.654
420.1294, 1485.107
420.6115, 1467.588
421.0937, 1461.229
421.5758, 1473.036
422.0579, 1484.920
422.5400, 1494.127
423.0221, 1502.119
423.5042, 1511.578
423.9864, 1528.077
424.4685, 1539.696
424.9506, 1541.363
425.4327, 1531.712
425.9148, 1530.004
426.3969, 1540.730
426.8791, 1554.271
427.3612, 1562.191
427.8433, 1562.983
428.3254, 1562.456
428.8075, 1559.989
429.2896, 1557.285
429.7718, 1561.575
430.2539, 1574.384
430.7360, 1586.141
431.2181, 1589.848
431.7002, 1586.180
432.1823, 1584.765
432.6645, 1585.978
433.1466, 1589.797
433.6287, 1596.142
434.1108, 1604.981
434.5929, 1616.676
435.0750, 1639.004
435.5572, 1660.864
436.0393, 1657.404
436.5214, 1629.799
437.0035, 1602.868
437.4856, 1599.475
437.9677, 1607.993
438.4499, 1611.948
438.9320, 1604.300
439.4141, 1596.000
439.8962, 1594.346
440.3783, 1598.083
440.8604, 1603.935
441.3426, 1614.145
441.8247, 1623.206
442.3068, 1627.963
442.7889, 1627.714
443.2710, 1624.870
443.7531, 1618.198
444.2353, 1609.991
444.7174, 1602.662
445.1995, 1595.551
445.6816, 1590.546
446.1637, 1588.527
446.6458, 1589.254
447.1280, 1590.364
447.6101, 1593.606
448.0922, 1595.296
448.5743, 1593.565
449.0564, 1588.416
449.5385, 1578.733
450.0207, 1560.985
450.5028, 1541.921
450.9849, 1536.693
451.4670, 1548.560
451.9491, 1557.861
452.4312, 1555.502
452.9134, 1543.340
453.3955, 1535.379
453.8776, 1531.671
454.3597, 1531.820
454.8418, 1537.936
455.3239, 1548.312
455.8061, 1555.368
456.2882, 1556.520
456.7703, 1555.092
457.2524, 1555.892
457.7345, 1558.326
458.2166, 1559.991
458.6988, 1561.410
459.1809, 1560.303
459.6630, 1551.547
460.1451, 1532.891
460.6272, 1519.014
461.1093, 1525.769
461.5915, 1540.728
462.0736, 1548.315
462.5557, 1538.921
463.0378, 1525.671
463.5199, 1510.749
464.0020, 1495.036
464.4842, 1483.701
464.9663, 1481.359
465.4484, 1481.197
465.9305, 1479.521
466.4126, 1474.023
466.8947, 1470.827
467.3769, 1471.252
467.8590, 1473.402
468.3411, 1475.046
468.8232, 1479.448
469.3053, 1476.220
469.7874, 1459.219
470.2696, 1429.699
470.7517, 1412.326
471.2338, 1410.113
471.7159, 1410.864
472.1980, 1403.298
472.6801, 1387.630
473.1623, 1374.969
473.6444, 1366.955
474.1265, 1362.261
474.6086, 1360.313
475.0907, 1360.473
475.5728, 1358.615
476.0550, 1350.401
476.5371, 1339.499
477.0192, 1332.783
477.5013, 1330.514
477.9834, 1327.446
478.4655, 1314.788
478.9477, 1300.352
479.4298, 1295.100
479.9119, 1311.331
480.3940, 1325.944
480.8761, 1323.546
481.3582, 1309.534
481.8404, 1299.413
482.3225, 1302.315
482.8046, 1306.891
483.2867, 1307.001
483.7688, 1299.321
484.2509, 1296.949
484.7331, 1310.355
485.2152, 1324.683
485.6973, 1325.226
486.1794, 1299.374
486.6615, 1281.488
487.1436, 1278.424
487.6258, 1287.003
488.1079, 1292.407
488.5900, 1294.011
489.0721, 1294.048
489.5542, 1292.818
490.0363, 1290.279
490.5185, 1291.088
491.0006, 1296.129
491.4827, 1301.943
491.9648, 1303.900
492.4470, 1302.522
492.9291, 1300.552
493.4112, 1299.031
493.8933, 1297.366
494.3754, 1293.828
494.8575, 1288.854
495.3397, 1285.411
495.8218, 1286.204
496.3039, 1289.151
496.7860, 1291.937
497.2681, 1294.077
497.7502, 1296.737
498.2324, 1302.395
498.7145, 1308.444
499.1966, 1311.451
499.6787, 1310.111
500.1608, 1305.808
500.6429, 1295.111
501.1251, 1279.028
501.6072, 1272.691
502.0893, 1286.405
502.5714, 1301.783
503.0535, 1310.217
503.5356, 1308.764
504.0178, 1307.126
504.4999, 1304.494
504.9820, 1302.445
505.4641, 1303.635
505.9462, 1308.543
506.4283, 1314.230
506.9105, 1320.306
507.3926, 1326.385
507.8747, 1331.222
508.3568, 1334.861
508.8389, 1336.567
509.3210, 1332.771
509.8032, 1326.660
510.2853, 1328.360
510.7674, 1340.685
511.2495, 1354.159
511.7316, 1358.393
512.2137, 1356.637
512.6959, 1355.457
513.1780, 1356.976
513.6601, 1360.512
514.1422, 1366.776
514.6243, 1375.246
515.1064, 1382.488
515.5886, 1384.939
516.0707, 1387.323
516.5528, 1392.909
517.0349, 1405.081
517.5170, 1414.322
517.9991, 1416.888
518.4813, 1417.088
518.9634, 1420.568
519.4455, 1430.622
519.9276, 1438.181
520.4097, 1440.486
520.8918, 1438.521
521.3740, 1439.177
521.8561, 1442.985
522.3382, 1447.654
522.8203, 1450.758
523.3024, 1452.587
523.7845, 1459.960
524.2667, 1474.695
524.7488, 1489.637
525.2309, 1495.348
525.7130, 1493.972
526.1951, 1492.966
526.6772, 1496.256
527.1594, 1499.919
527.6415, 1498.004
528.1236, 1491.892
528.6057, 1487.605
529.0878, 1490.369
529.5699, 1495.139
530.0521, 1497.921
530.5342, 1497.646
531.0163, 1498.030
531.4984, 1501.674
531.9805, 1505.982
532.4626, 1508.210
532.9448, 1504.848
533.4269, 1503.354
533.9090, 1508.489
534.3911, 1516.528
534.8732, 1510.685
535.3553, 1479.890
535.8375, 1456.010
536.3196, 1457.493
536.8017, 1486.300
537.2838, 1497.261
537.7659, 1487.115
538.2480, 1470.173
538.7302, 1461.701
539.2123, 1460.407
539.6944, 1458.250
540.1765, 1454.158
540.6586, 1447.214
541.1407, 1431.679
541.6229, 1410.946
542.1050, 1396.913
542.5871, 1400.267
543.0692, 1410.345
543.5513, 1418.705
544.0334, 1424.795
544.5156, 1429.377
544.9977, 1435.981
545.4798, 1439.392
545.9619, 1434.957
546.4440, 1413.850
546.9261, 1396.726
547.4083, 1385.330
547.8904, 1379.937
548.3725, 1381.561
548.8546, 1395.125
549.3367, 1407.719
549.8188, 1416.661
550.3010, 1422.011
550.7831, 1424.135
551.2652, 1422.563
551.7473, 1419.313
552.2294, 1415.007
552.7115, 1409.880
553.1937, 1407.008
553.6758, 1407.120
554.1579, 1407.473
554.6400, 1403.732
555.1221, 1397.361
555.6042, 1392.531
556.0864, 1390.084
556.5685, 1390.408
557.0506, 1396.347
557.5327, 1406.068
558.0148, 1412.642
558.4969, 1411.335
558.9791, 1406.849
559.4612, 1401.485
559.9433, 1395.187
560.4254, 1389.749
560.9075, 1386.824
561.3896, 1384.161
561.8718, 1379.419
562.3539, 1367.970
562.8360, 1362.815
563.3181, 1368.275
563.8002, 1379.033
564.2823, 1382.085
564.7645, 1376.249
565.2466, 1367.570
565.7287, 1355.447
566.2108, 1342.226
566.6929, 1342.242
567.1750, 1356.008
567.6572, 1371.443
568.1393, 1377.657
568.6214, 1378.231
569.1035, 1379.722
569.5856, 1382.994
570.0677, 1388.016
570.5499, 1399.093
571.0320, 1411.057
571.5141, 1415.834
571.9962, 1399.896
572.4783, 1386.735
572.9604, 1389.717
573.4426, 1405.182
573.9247, 1413.804
574.4068, 1405.897
574.8889, 1396.484
575.3710, 1391.247
575.8531, 1391.106
576.3353, 1390.382
576.8174, 1388.065
577.2995, 1386.674
577.7816, 1388.714
578.2637, 1394.366
578.7458, 1402.117
579.2280, 1412.845
579.7101, 1423.568
580.1922, 1428.263
580.6743, 1427.772
581.1564, 1426.858
581.6385, 1425.101
582.1207, 1425.569
582.6028, 1434.970
583.0849, 1451.925
583.5670, 1466.279
584.0491, 1470.342
584.5313, 1470.465
585.0134, 1470.538
585.4955, 1469.591
585.9776, 1473.734
586.4597, 1491.689
586.9418, 1512.523
587.4240, 1523.383
587.9061, 1516.231
588.3882, 1511.252
588.8703, 1510.448
589.3524, 1513.233
589.8345, 1518.774
590.3167, 1528.254
590.7988, 1535.869
591.2809, 1537.546
591.7630, 1534.999
592.2451, 1537.602
592.7272, 1545.526
593.2094, 1554.416
593.6915, 1559.767
594.1736, 1563.688
594.6557, 1571.065
595.1378, 1583.586
595.6199, 1595.084
596.1021, 1600.004
596.5842, 1601.178
597.0663, 1602.652
597.5485, 1600.602
598.0306, 1604.516
598.5127, 1624.055
598.9948, 1653.875
599.4769, 1670.702
599.9590, 1660.441
600.4412, 1652.841
600.9233, 1659.081
601.4054, 1680.444
601.8875, 1694.967
602.3696, 1700.297
602.8517, 1704.313
603.3339, 1715.737
603.8160, 1733.608
604.2981, 1743.006
604.7802, 1741.194
605.2623, 1734.157
605.7444, 1726.923
606.2266, 1720.434
606.7087, 1717.370
607.1908, 1716.954
607.6729, 1722.017
608.1550, 1740.545
608.6371, 1767.413
609.1193, 1786.607
609.6014, 1781.765
610.0835, 1776.119
610.5656, 1780.623
611.0477, 1796.963
611.5298, 1816.548
612.0120, 1848.353
612.4941, 1873.881
612.9762, 1877.798
613.4583, 1851.065
613.9404, 1835.950
614.4225, 1836.290
614.9047, 1844.944
615.3868, 1851.656
615.8689, 1856.871
616.3510, 1866.404
616.8331, 1884.870
617.3152, 1904.666
617.7974, 1911.203
618.2795, 1908.004
618.7616, 1909.095
619.2437, 1928.332
619.7258, 1950.178
620.2079, 1960.314
620.6901, 1958.163
621.1722, 1962.879
621.6543, 1988.985
622.1364, 2018.676
622.6185, 2039.599
623.1006, 2045.167
623.5828, 2055.549
624.0649, 2072.460
624.5470, 2092.611
625.0291, 2113.339
625.5112, 2135.778
625.9933, 2151.207
626.4755, 2153.999
626.9576, 2154.194
627.4397, 2175.505
627.9218, 2215.456
628.4039, 2255.141
628.8860, 2285.347
629.3682, 2309.987
629.8503, 2332.344
630.3324, 2352.967
630.8145, 2375.079
631.2966, 2400.997
631.7787, 2428.494
632.2609, 2455.193
632.7430, 2479.405
633.2251, 2508.493
633.7072, 2545.181
634.1893, 2586.292
634.6714, 2629.729
635.1536, 2676.873
635.6357, 2723.846
636.1178, 2771.154
636.5999, 2816.750
637.0820, 2852.714
637.5641, 2878.101
638.0463, 2914.385
638.5284, 2971.708
639.0105, 3041.732
639.4926, 3112.152
639.9747, 3182.663
640.4568, 3249.379
640.9390, 3308.969
641.4211, 3365.309
641.9032, 3420.031
642.3853, 3473.052
642.8674, 3532.183
643.3495, 3603.632
643.8317, 3680.056
644.3138, 3757.803
644.7959, 3839.047
645.2780, 3915.816
645.7601, 3988.227
646.2422, 4055.799
646.7244, 4117.492
647.2065, 4171.149
647.6886, 4227.522
648.1707, 4288.388
648.6528, 4352.064
649.1349, 4421.008
649.6171, 4492.839
650.0992, 4553.014
650.5813, 4589.380
651.0634, 4613.719
651.5455, 4636.940
652.0276, 4659.948
652.5098, 4686.500
652.9919, 4734.241
653.4740, 4774.092
653.9561, 4785.425
654.4382, 4762.087
654.9203, 4735.494
655.4025, 4701.871
655.8846, 4672.356
656.3667, 4657.664
656.8488, 4669.165
657.3309, 4659.611
657.8130, 4622.967
658.2952, 4572.936
658.7773, 4527.012
659.2594, 4484.605
659.7415, 4443.375
