##NAMES=Phlogopite
##RRUFFID=R050068
##IDEAL CHEMISTRY=KMg_3_(Si_3_Al)O_10_(OH)_2_
##LOCALITY=S.W. Jasper County, Georgia, USA
##OWNER=RRUFF
##SOURCE=Rock Currier
##DESCRIPTION=Dark brown micaceous single crystal
##STATUS=The identification of this mineral has been confirmed by X-ray diffraction and chemical analysis
##URL=rruff.info/R050068
##MEASURED CHEMISTRY=(K_0.94_Na_0.05_[box]_0.01_)(Mg_0.94_Fe_0.06_)_3_(Si_3.00_Al_1.00_)O_10_((OH)_0.53_F_0.47_)_2_
131.6260, 1793.708
132.1081, 1895.441
132.5902, 1984.792
133.0723, 2056.522
133.5544, 2120.139
134.0366, 2174.155
134.5187, 2221.070
135.0008, 2265.488
135.4829, 2310.913
135.9650, 2356.779
136.4471, 2388.880
136.9293, 2399.734
137.4114, 2405.993
137.8935, 2412.332
138.3756, 2418.056
138.8577, 2420.548
139.3398, 2417.852
139.8220, 2409.890
140.3041, 2398.695
140.7862, 2383.209
141.2683, 2366.352
141.7504, 2339.673
142.2325, 2309.869
142.7147, 2297.748
143.1968, 2319.670
143.6789, 2377.596
144.1610, 2450.090
144.6431, 2547.031
145.1252, 2648.017
145.6074, 2737.436
146.0895, 2817.310
146.5716, 2905.343
147.0537, 3018.127
147.5358, 3156.378
148.0179, 3284.626
148.5001, 3405.749
148.9822, 3515.044
149.4643, 3602.267
149.9464, 3668.931
150.4285, 3739.828
150.9106, 3847.039
151.3928, 3982.417
151.8749, 4071.375
152.3570, 4102.560
152.8391, 4089.672
153.3212, 4036.738
153.8033, 3943.210
154.2855, 3833.392
154.7676, 3724.365
155.2497, 3613.617
155.7318, 3491.987
156.2139, 3345.880
156.6960, 3194.077
157.1782, 3055.037
157.6603, 2929.220
158.1424, 2819.821
158.6245, 2733.073
159.1066, 2665.663
159.5887, 2614.089
160.0709, 2575.178
160.5530, 2552.695
161.0351, 2558.963
161.5172, 2601.393
161.9993, 2645.627
162.4814, 2659.115
162.9636, 2656.755
163.4457, 2666.593
163.9278, 2707.075
164.4099, 2763.171
164.8920, 2808.629
165.3741, 2842.831
165.8563, 2867.470
166.3384, 2875.493
166.8205, 2875.690
167.3026, 2883.439
167.7847, 2909.708
168.2668, 2946.004
168.7490, 2973.725
169.2311, 2990.572
169.7132, 3003.961
170.1953, 3018.361
170.6774, 3032.245
171.1595, 3042.756
171.6417, 3047.043
172.1238, 3047.759
172.6059, 3052.862
173.0880, 3067.234
173.5701, 3075.767
174.0522, 3069.612
174.5344, 3054.610
175.0165, 3038.491
175.4986, 3023.699
175.9807, 3010.933
176.4628, 3001.734
176.9449, 2995.589
177.4271, 2994.590
177.9092, 2995.748
178.3913, 3002.370
178.8734, 3019.551
179.3555, 3051.116
179.8376, 3093.876
180.3197, 3141.031
180.8019, 3202.195
181.2840, 3249.503
181.7661, 3262.424
182.2482, 3262.439
182.7303, 3276.772
183.2124, 3320.380
183.6946, 3383.812
184.1767, 3438.933
184.6588, 3474.489
185.1409, 3521.550
185.6230, 3594.240
186.1051, 3678.462
186.5873, 3758.502
187.0694, 3826.817
187.5515, 3887.416
188.0336, 3951.721
188.5157, 4017.235
188.9978, 4091.065
189.4800, 4176.938
189.9621, 4268.779
190.4442, 4362.665
190.9263, 4456.623
191.4084, 4548.725
191.8905, 4634.878
192.3727, 4718.355
192.8548, 4788.992
193.3369, 4852.305
193.8190, 4901.645
194.3011, 4930.390
194.7832, 4935.861
195.2654, 4921.261
195.7475, 4895.420
196.2296, 4868.854
196.7117, 4806.864
197.1938, 4692.025
197.6759, 4553.825
198.1581, 4415.547
198.6402, 4285.022
199.1223, 4159.771
199.6044, 4035.280
200.0865, 3910.687
200.5686, 3788.416
201.0508, 3669.050
201.5329, 3551.028
202.0150, 3430.527
202.4971, 3307.053
202.9792, 3190.911
203.4613, 3100.473
203.9435, 3049.105
204.4256, 2994.698
204.9077, 2927.594
205.3898, 2862.238
205.8719, 2809.241
206.3540, 2770.262
206.8362, 2738.577
207.3183, 2704.655
207.8004, 2666.367
208.2825, 2632.129
208.7646, 2606.285
209.2467, 2580.632
209.7289, 2549.410
210.2110, 2512.731
210.6931, 2475.460
211.1752, 2443.515
211.6573, 2418.689
212.1395, 2393.334
212.6216, 2366.552
213.1037, 2340.174
213.5858, 2312.245
214.0679, 2284.722
214.5500, 2263.831
215.0322, 2258.342
215.5143, 2272.499
215.9964, 2273.611
216.4785, 2248.335
216.9606, 2222.586
217.4427, 2205.086
217.9249, 2195.561
218.4070, 2189.590
218.8891, 2183.216
219.3712, 2176.271
219.8533, 2175.081
220.3354, 2192.001
220.8176, 2202.737
221.2997, 2196.476
221.7818, 2178.863
222.2639, 2161.106
222.7460, 2150.444
223.2281, 2146.767
223.7103, 2150.023
224.1924, 2176.601
224.6745, 2191.907
225.1566, 2178.875
225.6387, 2152.055
226.1208, 2134.208
226.6030, 2139.535
227.0851, 2161.238
227.5672, 2170.573
228.0493, 2158.509
228.5314, 2145.206
229.0135, 2130.815
229.4957, 2118.348
229.9778, 2111.735
230.4599, 2112.895
230.9420, 2118.868
231.4241, 2122.408
231.9062, 2122.094
232.3884, 2121.589
232.8705, 2123.217
233.3526, 2123.941
233.8347, 2119.143
234.3168, 2107.664
234.7989, 2095.697
235.2811, 2095.569
235.7632, 2115.626
236.2453, 2127.576
236.7274, 2122.318
237.2095, 2113.974
237.6916, 2113.163
238.1738, 2121.319
238.6559, 2130.727
239.1380, 2130.125
239.6201, 2114.785
240.1022, 2107.100
240.5843, 2114.796
241.0665, 2124.605
241.5486, 2130.698
242.0307, 2132.730
242.5128, 2133.415
242.9949, 2136.197
243.4770, 2141.668
243.9592, 2141.987
244.4413, 2132.781
244.9234, 2122.125
245.4055, 2112.922
245.8876, 2104.728
246.3697, 2095.509
246.8519, 2081.959
247.3340, 2065.379
247.8161, 2058.787
248.2982, 2070.373
248.7803, 2081.458
249.2624, 2085.632
249.7446, 2085.039
250.2267, 2083.129
250.7088, 2081.374
251.1909, 2079.912
251.6730, 2078.948
252.1551, 2077.844
252.6373, 2078.685
253.1194, 2079.997
253.6015, 2084.126
254.0836, 2095.557
254.5657, 2117.440
255.0478, 2141.260
255.5300, 2152.004
256.0121, 2145.757
256.4942, 2141.158
256.9763, 2141.028
257.4584, 2146.098
257.9406, 2157.938
258.4227, 2176.981
258.9048, 2200.795
259.3869, 2230.642
259.8690, 2267.228
260.3511, 2293.529
260.8333, 2296.773
261.3154, 2297.147
261.7975, 2309.357
262.2796, 2333.570
262.7617, 2361.096
263.2438, 2386.853
263.7260, 2411.063
264.2081, 2434.234
264.6902, 2454.659
265.1723, 2476.912
265.6544, 2504.960
266.1365, 2537.561
266.6187, 2570.405
267.1008, 2601.512
267.5829, 2631.502
268.0650, 2661.358
268.5471, 2690.687
269.0292, 2721.095
269.5114, 2754.479
269.9935, 2789.491
270.4756, 2824.046
270.9577, 2854.127
271.4398, 2886.367
271.9219, 2931.256
272.4041, 2989.339
272.8862, 3043.714
273.3683, 3081.125
273.8504, 3111.964
274.3325, 3157.279
274.8146, 3227.720
275.2968, 3295.185
275.7789, 3339.432
276.2610, 3364.368
276.7431, 3387.566
277.2252, 3418.189
277.7073, 3445.228
278.1895, 3448.560
278.6716, 3424.898
279.1537, 3399.834
279.6358, 3391.303
280.1179, 3385.348
280.6000, 3355.454
281.0822, 3293.901
281.5643, 3219.451
282.0464, 3152.741
282.5285, 3094.908
283.0106, 3034.710
283.4927, 2973.900
283.9749, 2908.345
284.4570, 2824.675
284.9391, 2724.984
285.4212, 2640.168
285.9033, 2599.808
286.3854, 2603.564
286.8676, 2590.601
287.3497, 2547.974
287.8318, 2502.832
288.3139, 2466.623
288.7960, 2438.338
289.2781, 2414.234
289.7603, 2392.484
290.2424, 2372.875
290.7245, 2355.052
291.2066, 2342.688
291.6887, 2327.456
292.1708, 2301.952
292.6530, 2275.082
293.1351, 2259.501
293.6172, 2259.472
294.0993, 2266.978
294.5814, 2267.804
295.0635, 2257.021
295.5457, 2248.530
296.0278, 2242.105
296.5099, 2237.969
296.9920, 2237.097
297.4741, 2239.116
297.9562, 2241.838
298.4384, 2242.271
298.9205, 2239.031
299.4026, 2243.542
299.8847, 2263.045
300.3668, 2282.801
300.8489, 2296.939
301.3310, 2307.435
301.8131, 2319.326
302.2953, 2336.134
302.7774, 2356.816
303.2595, 2375.745
303.7416, 2389.319
304.2237, 2406.696
304.7058, 2435.094
305.1880, 2465.519
305.6701, 2485.884
306.1522, 2491.310
306.6343, 2493.537
307.1164, 2515.082
307.5985, 2563.778
308.0807, 2602.207
308.5628, 2608.753
309.0449, 2613.395
309.5270, 2636.672
310.0091, 2679.282
310.4912, 2722.432
310.9734, 2747.093
311.4555, 2755.471
311.9376, 2772.662
312.4197, 2808.149
312.9018, 2841.086
313.3839, 2854.535
313.8661, 2855.317
314.3482, 2861.071
314.8303, 2881.413
315.3124, 2910.847
315.7945, 2941.348
316.2766, 2973.558
316.7588, 3002.612
317.2409, 3021.110
317.7230, 3036.162
318.2051, 3061.236
318.6872, 3106.267
319.1693, 3146.522
319.6515, 3158.970
320.1336, 3149.119
320.6157, 3142.102
321.0978, 3147.081
321.5799, 3157.390
322.0620, 3163.657
322.5442, 3166.708
323.0263, 3163.855
323.5084, 3149.620
323.9905, 3131.039
324.4726, 3117.911
324.9547, 3111.801
325.4369, 3107.054
325.9190, 3099.579
326.4011, 3089.201
326.8832, 3069.916
327.3653, 3033.280
327.8474, 2995.759
328.3296, 2967.133
328.8117, 2945.470
329.2938, 2923.742
329.7759, 2897.677
330.2580, 2868.365
330.7401, 2841.595
331.2223, 2821.544
331.7044, 2798.695
332.1865, 2770.651
332.6686, 2739.899
333.1507, 2707.197
333.6328, 2673.420
334.1150, 2642.750
334.5971, 2623.285
335.0792, 2624.917
335.5613, 2610.576
336.0434, 2565.707
336.5255, 2519.758
337.0077, 2487.483
337.4898, 2468.092
337.9719, 2453.083
338.4540, 2435.993
338.9361, 2417.401
339.4182, 2402.740
339.9004, 2394.525
340.3825, 2386.870
340.8646, 2380.135
341.3467, 2372.125
341.8288, 2359.000
342.3109, 2338.391
342.7931, 2316.455
343.2752, 2302.507
343.7573, 2297.321
344.2394, 2294.726
344.7215, 2295.595
345.2036, 2296.751
345.6858, 2294.693
346.1679, 2289.421
346.6500, 2285.980
347.1321, 2290.307
347.6142, 2298.859
348.0963, 2301.566
348.5785, 2296.647
349.0606, 2288.289
349.5427, 2277.246
350.0248, 2265.049
350.5069, 2256.699
350.9890, 2254.789
351.4712, 2255.653
351.9533, 2256.862
352.4354, 2258.373
352.9175, 2260.435
353.3996, 2263.853
353.8817, 2267.108
354.3639, 2265.341
354.8460, 2255.122
355.3281, 2248.146
355.8102, 2250.692
356.2923, 2256.187
356.7744, 2256.007
357.2566, 2248.574
357.7387, 2239.630
358.2208, 2235.686
358.7029, 2237.842
359.1850, 2239.056
359.6671, 2238.813
360.1493, 2238.292
360.6314, 2237.179
361.1135, 2236.234
361.5956, 2237.452
362.0777, 2242.369
362.5598, 2249.106
363.0420, 2250.212
363.5241, 2238.100
364.0062, 2232.790
364.4883, 2243.269
364.9704, 2256.594
365.4525, 2260.341
365.9347, 2252.563
366.4168, 2243.085
366.8989, 2244.636
367.3810, 2258.242
367.8631, 2265.611
368.3452, 2262.019
368.8274, 2256.688
369.3095, 2254.223
369.7916, 2253.791
370.2737, 2253.506
370.7558, 2254.461
371.2379, 2253.445
371.7201, 2241.407
372.2022, 2216.418
372.6843, 2199.736
373.1664, 2206.815
373.6485, 2223.630
374.1306, 2227.928
374.6128, 2215.833
375.0949, 2202.879
375.5770, 2196.959
376.0591, 2195.927
376.5412, 2195.594
377.0233, 2195.075
377.5055, 2195.638
377.9876, 2199.177
378.4697, 2206.100
378.9518, 2210.757
379.4339, 2213.650
379.9160, 2213.739
380.3982, 2208.990
380.8803, 2200.763
381.3624, 2192.167
381.8445, 2184.591
382.3266, 2178.797
382.8087, 2177.126
383.2909, 2185.644
383.7730, 2190.398
384.2551, 2190.194
384.7372, 2186.769
385.2193, 2180.466
385.7014, 2171.962
386.1836, 2163.290
386.6657, 2156.408
387.1478, 2151.361
387.6299, 2147.889
388.1120, 2148.500
388.5941, 2147.723
389.0763, 2142.181
389.5584, 2134.519
390.0405, 2129.135
390.5226, 2128.204
391.0047, 2129.302
391.4868, 2128.200
391.9690, 2124.509
392.4511, 2122.486
392.9332, 2124.583
393.4153, 2127.611
393.8974, 2128.005
394.3795, 2125.777
394.8617, 2124.690
395.3438, 2130.401
395.8259, 2137.137
396.3080, 2131.662
396.7901, 2111.924
397.2722, 2097.073
397.7544, 2102.790
398.2365, 2125.030
398.7186, 2139.707
399.2007, 2146.891
399.6828, 2146.621
400.1649, 2133.360
400.6471, 2113.912
401.1292, 2100.104
401.6113, 2095.788
402.0934, 2095.272
402.5755, 2089.308
403.0576, 2072.653
403.5398, 2067.353
404.0219, 2086.359
404.5040, 2103.053
404.9861, 2099.776
405.4682, 2082.519
405.9503, 2068.812
406.4325, 2070.385
406.9146, 2082.234
407.3967, 2086.407
407.8788, 2079.298
408.3609, 2071.748
408.8430, 2060.405
409.3252, 2052.961
409.8073, 2059.179
410.2894, 2079.380
410.7715, 2098.426
411.2536, 2100.980
411.7357, 2090.447
412.2179, 2084.940
412.7000, 2087.973
413.1821, 2090.385
413.6642, 2081.691
414.1463, 2068.116
414.6284, 2062.980
415.1106, 2074.284
415.5927, 2087.865
416.0748, 2093.235
416.5569, 2092.415
417.0390, 2091.303
417.5211, 2091.689
418.0033, 2093.242
418.4854, 2095.384
418.9675, 2097.821
419.4496, 2102.154
419.9317, 2115.455
420.4138, 2124.856
420.8960, 2116.190
421.3781, 2094.950
421.8602, 2080.582
422.3423, 2086.662
422.8244, 2107.059
423.3065, 2114.681
423.7887, 2096.571
424.2708, 2085.797
424.7529, 2090.924
425.2350, 2100.579
425.7171, 2107.035
426.1992, 2108.473
426.6814, 2105.433
427.1635, 2095.704
427.6456, 2080.231
428.1277, 2071.490
428.6098, 2071.207
429.0919, 2074.495
429.5741, 2078.939
430.0562, 2085.181
430.5383, 2095.456
431.0204, 2113.405
431.5025, 2128.738
431.9846, 2132.320
432.4668, 2126.100
432.9489, 2115.783
433.4310, 2101.561
433.9131, 2087.927
434.3952, 2080.586
434.8773, 2080.243
435.3595, 2079.957
435.8416, 2078.315
436.3237, 2077.613
436.8058, 2079.372
437.2879, 2083.232
437.7701, 2089.178
438.2522, 2097.585
438.7343, 2105.502
439.2164, 2104.664
439.6985, 2085.575
440.1806, 2074.781
440.6628, 2076.235
441.1449, 2082.129
441.6270, 2090.506
442.1091, 2099.165
442.5912, 2103.357
443.0733, 2098.092
443.5555, 2086.096
444.0376, 2076.971
444.5197, 2069.399
445.0018, 2068.497
445.4839, 2086.530
445.9660, 2106.905
446.4482, 2110.892
446.9303, 2094.136
447.4124, 2077.407
447.8945, 2077.766
448.3766, 2086.287
448.8587, 2082.120
449.3409, 2061.607
449.8230, 2041.140
450.3051, 2034.260
450.7872, 2039.479
451.2693, 2039.794
451.7514, 2031.498
452.2336, 2023.030
452.7157, 2015.777
453.1978, 2010.516
453.6799, 2009.494
454.1620, 2012.977
454.6441, 2017.075
455.1263, 2017.381
455.6084, 2014.475
456.0905, 2004.521
456.5726, 1974.298
457.0547, 1950.644
457.5368, 1948.091
458.0190, 1956.026
458.5011, 1956.191
458.9832, 1939.838
459.4653, 1918.202
459.9474, 1908.110
460.4295, 1909.796
460.9117, 1909.478
461.3938, 1904.111
461.8759, 1896.564
462.3580, 1888.998
462.8401, 1881.432
463.3222, 1873.878
463.8044, 1863.722
464.2865, 1855.589
464.7686, 1857.350
465.2507, 1865.699
465.7328, 1865.761
466.2149, 1849.441
466.6971, 1827.436
467.1792, 1821.684
467.6613, 1847.189
468.1434, 1857.038
468.6255, 1838.021
469.1076, 1815.146
469.5898, 1801.987
470.0719, 1798.708
470.5540, 1801.750
471.0361, 1809.875
471.5182, 1820.000
472.0003, 1822.999
472.4825, 1817.184
472.9646, 1808.753
473.4467, 1794.517
473.9288, 1781.326
474.4109, 1773.965
474.8930, 1772.434
475.3752, 1773.173
475.8573, 1773.448
476.3394, 1774.966
476.8215, 1783.259
477.3036, 1798.500
477.7857, 1807.600
478.2679, 1800.763
478.7500, 1786.320
479.2321, 1785.861
479.7142, 1806.174
480.1963, 1821.148
480.6784, 1818.935
481.1606, 1813.897
481.6427, 1820.236
482.1248, 1837.752
482.6069, 1857.150
483.0890, 1872.091
483.5711, 1882.550
484.0533, 1888.345
484.5354, 1885.832
485.0175, 1884.548
485.4996, 1888.716
485.9817, 1892.526
486.4638, 1887.555
486.9460, 1874.931
487.4281, 1868.837
487.9102, 1885.230
488.3923, 1916.443
488.8744, 1938.954
489.3565, 1951.491
489.8387, 1961.482
490.3208, 1972.454
490.8029, 1983.089
491.2850, 1989.767
491.7671, 1989.067
492.2492, 1994.259
492.7314, 2017.742
493.2135, 2044.965
493.6956, 2057.448
494.1777, 2054.759
494.6598, 2050.380
495.1419, 2054.413
495.6241, 2065.652
496.1062, 2076.543
496.5883, 2089.421
497.0704, 2098.336
497.5525, 2100.074
498.0346, 2099.681
498.5168, 2101.902
498.9989, 2106.843
499.4810, 2110.456
499.9631, 2108.466
500.4452, 2102.512
500.9273, 2098.122
501.4095, 2094.707
501.8916, 2095.478
502.3737, 2103.157
502.8558, 2115.311
503.3379, 2130.227
503.8200, 2151.198
504.3022, 2160.470
504.7843, 2138.707
505.2664, 2108.971
505.7485, 2097.817
506.2306, 2106.559
506.7127, 2124.975
507.1949, 2148.100
507.6770, 2172.931
508.1591, 2186.013
508.6412, 2178.589
509.1233, 2171.691
509.6054, 2163.473
510.0876, 2158.420
510.5697, 2163.407
511.0518, 2175.917
511.5339, 2184.486
512.0161, 2180.349
512.4982, 2166.725
512.9803, 2150.328
513.4624, 2129.957
513.9445, 2115.310
514.4266, 2114.309
514.9088, 2116.808
515.3909, 2106.274
515.8730, 2080.793
516.3551, 2066.627
516.8372, 2085.238
517.3193, 2108.613
517.8015, 2109.464
518.2836, 2090.464
518.7657, 2067.471
519.2478, 2047.974
519.7299, 2033.952
520.2120, 2031.303
520.6942, 2052.032
521.1763, 2061.027
521.6584, 2050.355
522.1405, 2036.845
522.6226, 2029.409
523.1047, 2026.636
523.5869, 2022.895
524.0690, 2014.775
524.5511, 2005.157
525.0332, 1998.355
525.5153, 1994.368
525.9974, 1993.057
526.4796, 1996.048
526.9617, 1999.013
527.4438, 1996.045
527.9259, 1988.007
528.4080, 1982.612
528.8901, 1981.947
529.3723, 1983.205
529.8544, 1986.584
530.3365, 1990.332
530.8186, 1991.383
531.3007, 1988.679
531.7828, 1982.721
532.2650, 1972.806
532.7471, 1956.653
533.2292, 1950.688
533.7113, 1963.585
534.1934, 1977.125
534.6755, 1987.408
535.1577, 1994.408
535.6398, 1998.510
536.1219, 1999.846
536.6040, 1998.171
537.0861, 1991.543
537.5682, 1981.669
538.0504, 1975.037
538.5325, 1973.084
539.0146, 1968.551
539.4967, 1952.188
539.9788, 1929.377
540.4609, 1926.804
540.9431, 1965.888
541.4252, 1993.518
541.9073, 1991.638
542.3894, 1978.317
542.8715, 1969.602
543.3536, 1967.534
543.8358, 1966.372
544.3179, 1961.244
544.8000, 1953.605
545.2821, 1949.603
545.7642, 1949.127
546.2463, 1952.703
546.7285, 1967.122
547.2106, 1980.634
547.6926, 1981.790
548.1747, 1971.513
548.6569, 1964.183
549.1390, 1970.612
549.6211, 1979.911
550.1032, 1977.740
550.5853, 1967.025
551.0674, 1963.072
551.5496, 1973.205
552.0317, 1986.100
552.5138, 1981.785
552.9959, 1949.966
553.4780, 1936.085
553.9601, 1957.370
554.4423, 1975.432
554.9244, 1971.825
555.4065, 1955.769
555.8886, 1942.169
556.3707, 1936.400
556.8528, 1935.395
557.3350, 1938.462
557.8171, 1944.341
558.2992, 1941.129
558.7813, 1924.757
559.2634, 1908.732
559.7455, 1902.126
560.2277, 1902.797
560.7098, 1903.297
561.1919, 1905.908
561.6740, 1904.245
562.1561, 1891.694
562.6382, 1876.693
563.1204, 1870.020
563.6025, 1871.090
564.0846, 1869.651
564.5667, 1857.441
565.0488, 1838.171
565.5309, 1826.525
566.0131, 1824.924
566.4952, 1824.852
566.9773, 1827.487
567.4594, 1829.084
567.9415, 1826.451
568.4236, 1820.359
568.9058, 1814.770
569.3879, 1812.020
569.8700, 1809.867
570.3521, 1805.847
570.8342, 1800.459
571.3163, 1795.342
571.7985, 1790.988
572.2806, 1787.301
572.7627, 1784.922
573.2448, 1784.656
573.7269, 1777.798
574.2090, 1751.918
574.6912, 1734.520
575.1733, 1740.533
575.6554, 1754.371
576.1375, 1757.650
576.6196, 1746.774
577.1017, 1733.337
577.5839, 1728.098
578.0660, 1728.704
578.5481, 1727.126
579.0302, 1722.995
579.5123, 1718.905
579.9944, 1715.735
580.4766, 1713.565
580.9587, 1712.872
581.4408, 1714.039
581.9229, 1714.752
582.4050, 1711.809
582.8871, 1710.927
583.3693, 1718.224
583.8514, 1730.316
584.3335, 1739.721
584.8156, 1742.954
585.2977, 1742.673
585.7798, 1741.943
586.2620, 1740.365
586.7441, 1744.004
587.2262, 1758.125
587.7083, 1769.304
588.1904, 1767.260
588.6725, 1757.984
589.1547, 1750.529
589.6368, 1745.520
590.1189, 1743.827
590.6010, 1747.007
591.0831, 1753.125
591.5652, 1759.799
592.0474, 1766.836
592.5295, 1775.920
593.0116, 1788.836
593.4937, 1802.534
593.9758, 1807.294
594.4579, 1799.706
594.9401, 1791.238
595.4222, 1777.353
595.9043, 1767.904
596.3864, 1768.772
596.8685, 1778.126
597.3506, 1791.601
597.8328, 1810.129
598.3149, 1827.206
598.7970, 1837.643
599.2791, 1842.027
599.7612, 1839.737
600.2433, 1830.611
600.7255, 1823.432
601.2076, 1825.993
601.6897, 1837.104
602.1718, 1847.048
602.6539, 1854.670
603.1360, 1862.664
603.6182, 1871.223
604.1003, 1880.215
604.5824, 1891.049
605.0645, 1902.536
605.5466, 1910.178
606.0287, 1909.505
606.5109, 1906.244
606.9930, 1908.810
607.4751, 1916.790
607.9572, 1927.885
608.4393, 1942.779
608.9214, 1955.982
609.4036, 1961.933
609.8857, 1960.572
610.3678, 1957.101
610.8499, 1940.926
611.3320, 1936.172
611.8141, 1960.072
612.2963, 1990.757
612.7784, 2004.658
613.2605, 2000.653
613.7426, 1994.635
614.2247, 1996.965
614.7068, 2007.132
615.1890, 2027.569
615.6711, 2059.090
616.1532, 2081.350
616.6353, 2084.839
617.1174, 2083.473
617.5995, 2094.536
618.0817, 2118.367
618.5638, 2133.345
619.0459, 2129.362
619.5280, 2127.116
620.0101, 2134.566
620.4922, 2148.266
620.9744, 2165.353
621.4565, 2184.241
621.9386, 2201.407
622.4207, 2212.404
622.9028, 2219.702
623.3849, 2232.549
623.8671, 2251.136
624.3492, 2274.732
624.8313, 2306.174
625.3134, 2339.111
625.7955, 2366.664
626.2776, 2389.184
626.7598, 2405.939
