##NAMES=Phoenicochroite
##RRUFFID=R050587
##IDEAL CHEMISTRY=Pb^2+^_2_O(Cr^6+^O_4_)
##LOCALITY=Potter Cramer mine, Maricopa County, Arizona, USA
##OWNER=RRUFF
##SOURCE=Marcus Origlieri
##DESCRIPTION=Thin coating that includes red gemmy crystalline fragments in some places
##STATUS=The identification of this mineral is confirmed by single-crystal X-ray diffraction and chemical analysis.
##URL=rruff.info/R050587
##MEASURED CHEMISTRY=Pb_2.05_O(Cr_0.98_O_4_)
97.61400, 71.95900
98.09600, 72.61400
98.57800, 75.96700
99.06000, 83.39400
99.54300, 94.65500
100.0250, 106.7420
100.5070, 120.3790
100.9890, 133.4230
101.4710, 141.3460
101.9530, 142.7030
102.4350, 143.8940
102.9170, 147.7930
103.3990, 155.2690
103.8820, 161.7630
104.3640, 165.7400
104.8460, 169.6100
105.3280, 179.4350
105.8100, 198.7240
106.2920, 219.0100
106.7740, 236.8670
107.2570, 252.2240
107.7390, 265.5260
108.2210, 275.7220
108.7030, 283.8470
109.1850, 293.6070
109.6670, 308.0220
110.1490, 321.4960
110.6310, 331.8900
111.1130, 337.7750
111.5950, 342.2900
112.0780, 343.7500
112.5600, 343.4850
113.0420, 346.1690
113.5240, 357.4230
114.0060, 368.4370
114.4880, 374.3040
114.9700, 365.5820
115.4520, 361.9220
115.9350, 374.5110
116.4170, 398.1130
116.8990, 412.5140
117.3810, 402.1070
117.8630, 384.1990
118.3450, 371.7190
118.8270, 373.1630
119.3090, 375.5120
119.7910, 373.2900
120.2740, 366.8220
120.7560, 357.8660
121.2380, 344.5200
121.7200, 330.1820
122.2020, 318.4790
122.6840, 310.7920
123.1660, 305.9570
123.6480, 304.3920
124.1310, 305.7120
124.6130, 306.4180
125.0950, 303.6640
125.5770, 298.6510
126.0590, 293.3540
126.5410, 288.2460
127.0230, 283.3290
127.5050, 279.1080
127.9880, 275.5700
128.4700, 271.1090
128.9520, 262.5830
129.4340, 251.6430
129.9160, 243.5330
130.3980, 241.6700
130.8800, 243.2700
131.3620, 241.2470
131.8440, 235.3060
132.3270, 228.8130
132.8090, 225.6680
133.2910, 225.5120
133.7730, 224.4530
134.2550, 219.3340
134.7370, 212.0570
135.2190, 212.8460
135.7010, 223.0030
136.1840, 236.7400
136.6660, 247.5030
137.1480, 255.1280
137.6300, 262.2780
138.1120, 268.7530
138.5940, 274.7720
139.0760, 285.3650
139.5580, 301.2240
140.0400, 320.2660
140.5230, 340.0290
141.0050, 360.7620
141.4870, 381.1880
141.9690, 400.8920
142.4510, 420.0300
142.9330, 437.7580
143.4150, 453.4950
143.8970, 468.2320
144.3800, 482.8100
144.8620, 496.4710
145.3440, 511.2040
145.8260, 526.8860
146.3080, 542.3930
146.7900, 564.9700
147.2720, 603.9770
147.7540, 644.9390
148.2360, 668.2420
148.7190, 670.2460
149.2010, 658.8130
149.6830, 633.8060
150.1650, 591.0840
150.6470, 548.2250
151.1290, 505.2120
151.6110, 461.9550
152.0930, 418.7300
152.5750, 367.3450
153.0580, 324.2390
153.5400, 295.0590
154.0220, 283.3350
154.5040, 273.2070
154.9860, 257.2720
155.4680, 244.0510
155.9500, 244.1920
156.4320, 240.2840
156.9150, 264.6110
157.3970, 276.6500
157.8790, 277.0610
158.3610, 231.0160
158.8430, 244.9590
159.3250, 234.8620
159.8070, 223.7790
160.2890, 246.1650
160.7710, 206.8770
161.2540, 196.5790
161.7360, 201.4600
162.2180, 207.6460
162.7000, 203.0550
163.1820, 193.3290
163.6640, 186.2990
164.1460, 188.6290
164.6280, 191.7140
165.1110, 189.4530
165.5930, 180.3030
166.0750, 173.1950
166.5570, 175.2860
167.0390, 182.0310
167.5210, 186.6390
168.0030, 184.3840
168.4850, 180.0460
168.9670, 176.9450
169.4490, 175.3100
169.9320, 174.6820
170.4140, 174.9220
170.8960, 175.9460
171.3780, 177.6040
171.8600, 181.5150
172.3420, 185.1420
172.8240, 185.2370
173.3070, 181.3830
173.7890, 177.4560
174.2710, 176.0370
174.7530, 176.8650
175.2350, 179.3790
175.7170, 186.7670
176.1990, 194.2550
176.6810, 194.8620
177.1630, 187.9060
177.6450, 179.1460
178.1280, 172.3660
178.6100, 167.8300
179.0920, 166.0240
179.5740, 170.2780
180.0560, 176.5320
180.5380, 177.1080
181.0200, 171.4490
181.5030, 164.9360
181.9850, 163.3980
182.4670, 165.6490
182.9490, 167.6420
183.4310, 167.9000
183.9130, 166.6710
184.3950, 163.1910
184.8770, 157.0720
185.3590, 152.6720
185.8420, 156.8900
186.3240, 168.0380
186.8060, 177.5400
187.2880, 181.5330
187.7700, 181.6000
188.2520, 182.6420
188.7340, 184.9280
189.2160, 186.1150
189.6980, 183.0710
190.1810, 176.1890
190.6630, 168.6220
191.1450, 158.8850
191.6270, 149.4110
192.1090, 151.7230
192.5910, 167.5310
193.0730, 184.9860
193.5550, 191.1510
194.0380, 186.3540
194.5200, 179.5700
195.0020, 172.3700
195.4840, 165.2570
195.9660, 160.3860
196.4480, 157.9960
196.9300, 156.9220
197.4120, 155.8770
197.8940, 154.8170
198.3760, 155.2340
198.8590, 157.9230
199.3410, 162.3210
199.8230, 166.0170
200.3050, 169.1010
200.7870, 171.1270
201.2690, 171.5000
201.7510, 170.0830
202.2340, 168.1570
202.7160, 165.5680
203.1980, 162.7080
203.6800, 161.8120
204.1620, 163.5210
204.6440, 165.2190
205.1260, 163.9480
205.6080, 158.7340
206.0900, 156.8880
206.5720, 160.6800
207.0550, 168.3030
207.5370, 171.7420
208.0190, 169.4770
208.5010, 167.0480
208.9830, 169.6990
209.4650, 179.9100
209.9470, 183.3760
210.4300, 176.2750
210.9120, 162.4450
211.3940, 155.7190
211.8760, 158.6720
212.3580, 162.6820
212.8400, 161.6260
213.3220, 152.8390
213.8040, 149.9100
214.2860, 156.3110
214.7680, 167.8960
215.2510, 172.0500
215.7330, 165.7250
216.2150, 158.7650
216.6970, 156.0190
217.1790, 158.4320
217.6610, 162.3620
218.1430, 169.0030
218.6250, 176.3650
219.1080, 180.1280
219.5900, 179.8990
220.0720, 176.8140
220.5540, 170.7150
221.0360, 160.2430
221.5180, 151.0870
222.0000, 142.2400
222.4820, 135.4440
222.9640, 134.8260
223.4470, 144.6800
223.9290, 152.0550
224.4110, 150.8570
224.8930, 137.6280
225.3750, 133.1170
225.8570, 141.2570
226.3390, 155.0300
226.8210, 164.5220
227.3030, 168.5340
227.7860, 170.6070
228.2680, 171.6280
228.7500, 171.6670
229.2320, 169.8020
229.7140, 164.4000
230.1960, 158.5810
230.6780, 156.0160
231.1610, 158.6180
231.6430, 160.7630
232.1250, 161.2540
232.6070, 160.0470
233.0890, 158.3010
233.5710, 155.3160
234.0530, 152.5220
234.5350, 151.2470
235.0170, 151.5770
235.4990, 153.3780
235.9820, 157.8680
236.4640, 164.6550
236.9460, 167.0920
237.4280, 162.7850
237.9100, 156.9400
238.3920, 152.9750
238.8740, 150.1300
239.3570, 151.1440
239.8390, 159.2530
240.3210, 172.0860
240.8030, 175.8290
241.2850, 164.0630
241.7670, 151.7050
242.2490, 148.0100
242.7310, 159.0460
243.2130, 165.2190
243.6950, 163.0300
244.1780, 155.7060
244.6600, 154.4740
245.1420, 165.4770
245.6240, 173.5610
246.1060, 169.8860
246.5880, 144.6940
247.0700, 132.9350
247.5520, 140.6730
248.0350, 159.1180
248.5170, 170.0290
248.9990, 170.1270
249.4810, 168.1840
249.9630, 167.1880
250.4450, 167.4940
250.9270, 167.2900
251.4090, 166.3920
251.8910, 165.1230
252.3740, 164.0940
252.8560, 164.0320
253.3380, 162.6600
253.8200, 157.9410
254.3020, 148.8720
254.7840, 147.2510
255.2660, 156.9710
255.7480, 169.9410
256.2310, 177.4710
256.7130, 178.8160
257.1950, 176.2940
257.6770, 168.8620
258.1590, 156.7390
258.6410, 148.4670
259.1230, 144.3620
259.6050, 143.6330
260.0870, 146.3760
260.5700, 154.4370
261.0520, 160.9650
261.5340, 165.0830
262.0160, 166.9170
262.4980, 166.9900
262.9800, 165.3820
263.4620, 161.8860
263.9440, 155.1370
264.4270, 142.2270
264.9090, 135.9170
265.3910, 138.7390
265.8730, 147.9480
266.3550, 156.3880
266.8370, 164.4940
267.3190, 170.3990
267.8010, 172.8820
268.2840, 171.4530
268.7660, 168.4560
269.2480, 162.8510
269.7300, 156.7710
270.2120, 155.0430
270.6940, 159.2940
271.1760, 162.2340
271.6580, 160.0730
272.1400, 152.3250
272.6220, 148.9540
273.1050, 151.2980
273.5870, 155.7980
274.0690, 157.3310
274.5510, 154.8670
275.0330, 154.6590
275.5150, 159.0890
275.9970, 167.5730
276.4790, 175.2670
276.9620, 182.6930
277.4440, 187.7220
277.9260, 187.3170
278.4080, 180.8180
278.8900, 175.0670
279.3720, 171.2670
279.8540, 169.1170
280.3360, 167.5060
280.8190, 166.4820
281.3010, 165.7670
281.7830, 165.2930
282.2650, 165.0640
282.7470, 164.3680
283.2290, 162.6970
283.7110, 161.1040
284.1930, 163.4420
284.6750, 170.2100
285.1580, 173.9410
285.6400, 166.2910
286.1220, 149.0490
286.6040, 144.4460
287.0860, 156.2320
287.5680, 173.1180
288.0500, 177.2700
288.5320, 169.1710
289.0140, 161.3550
289.4970, 160.2730
289.9790, 157.3340
290.4610, 160.6160
290.9430, 158.7110
291.4250, 163.9180
291.9070, 166.8400
292.3890, 167.5990
292.8710, 159.7150
293.3530, 162.9910
293.8360, 161.7950
294.3180, 160.4150
294.8000, 165.2620
295.2820, 158.6350
295.7640, 163.3830
296.2460, 163.5900
296.7280, 165.8760
297.2110, 163.6620
297.6930, 164.6290
298.1750, 168.3000
298.6570, 163.0370
299.1390, 171.8240
299.6210, 169.1090
300.1030, 160.3120
300.5850, 156.7500
301.0670, 160.6200
301.5490, 166.4100
302.0320, 169.0030
302.5140, 168.6650
302.9960, 166.2860
303.4780, 159.2340
303.9600, 151.7000
304.4420, 149.6660
304.9240, 153.6050
305.4060, 159.3890
305.8890, 165.5590
306.3710, 170.9900
306.8530, 173.7010
307.3350, 170.5370
307.8170, 166.1260
308.2990, 164.3150
308.7810, 165.0080
309.2630, 167.5320
309.7460, 173.7210
310.2280, 180.6310
310.7100, 184.7810
311.1920, 184.2540
311.6740, 182.4290
312.1560, 179.5280
312.6380, 176.7820
313.1200, 177.6890
313.6020, 188.1680
314.0850, 200.4370
314.5670, 207.8620
315.0490, 207.7640
315.5310, 208.5240
316.0130, 215.8330
316.4950, 226.3840
316.9770, 234.9830
317.4590, 237.5740
317.9410, 239.5230
318.4240, 243.4860
318.9060, 249.7210
319.3880, 256.3090
319.8700, 262.6110
320.3520, 268.9420
320.8340, 275.5870
321.3160, 282.3060
321.7980, 289.6680
322.2800, 298.8100
322.7630, 309.2590
323.2450, 317.6780
323.7270, 318.8500
324.2090, 321.0120
324.6910, 329.3630
325.1730, 355.3270
325.6550, 371.6820
326.1380, 368.8790
326.6200, 354.4190
327.1020, 345.5510
327.5840, 348.2410
328.0660, 352.3900
328.5480, 355.2260
329.0300, 357.1420
329.5120, 356.3740
329.9940, 346.8500
330.4770, 337.4410
330.9590, 336.3530
331.4410, 349.9820
331.9230, 358.6780
332.4050, 363.4430
332.8870, 364.4890
333.3690, 350.6720
333.8510, 356.0470
334.3330, 353.7300
334.8160, 351.0990
335.2980, 359.1740
335.7800, 374.2700
336.2620, 373.1200
336.7440, 383.4980
337.2260, 385.4180
337.7080, 374.8380
338.1900, 364.7670
338.6720, 362.7990
339.1550, 371.6120
339.6370, 373.2050
340.1190, 365.4950
340.6010, 353.7340
341.0830, 346.1230
341.5650, 343.6000
342.0470, 339.4220
342.5290, 330.3350
343.0120, 317.3070
343.4940, 309.0820
343.9760, 306.2180
344.4580, 304.7850
344.9400, 301.6280
345.4220, 296.7800
345.9040, 289.9980
346.3860, 280.6140
346.8680, 270.0960
347.3510, 260.5570
347.8330, 252.1220
348.3150, 246.9390
348.7970, 249.6900
349.2790, 257.0450
349.7610, 257.4350
350.2430, 248.3730
350.7250, 238.7420
351.2080, 241.6650
351.6900, 253.6100
352.1720, 262.8580
352.6540, 260.6810
353.1360, 254.1050
353.6180, 254.1940
354.1000, 260.8030
354.5820, 267.6080
355.0650, 270.1540
355.5470, 269.4960
356.0290, 266.9020
356.5110, 261.8200
356.9930, 256.2280
357.4750, 251.2290
357.9570, 246.9640
358.4390, 243.8940
358.9210, 246.4620
359.4040, 247.8050
359.8860, 240.8490
360.3680, 222.2470
360.8500, 204.9950
361.3320, 195.5660
361.8140, 191.6110
362.2960, 189.7570
362.7780, 193.1430
363.2600, 194.5250
363.7430, 188.4240
364.2250, 174.8860
364.7070, 166.0680
365.1890, 166.7930
365.6710, 172.6940
366.1530, 180.5900
366.6350, 198.6840
367.1170, 208.7080
367.5990, 203.0760
368.0820, 186.8810
368.5640, 176.0620
369.0460, 173.6010
369.5280, 175.1160
370.0100, 180.3990
370.4920, 193.4290
370.9740, 198.8830
371.4570, 191.2230
371.9390, 179.1580
372.4210, 173.1750
372.9030, 176.3770
373.3850, 180.4520
373.8670, 184.3590
374.3490, 188.0190
374.8310, 189.0970
375.3130, 185.3130
375.7960, 182.9580
376.2780, 191.1270
376.7600, 183.8860
377.2420, 187.0910
377.7240, 179.5950
378.2060, 187.9680
378.6880, 192.5720
379.1700, 193.6090
379.6520, 180.3990
380.1350, 185.5870
380.6170, 183.4010
381.0990, 180.9140
381.5810, 188.6910
382.0630, 177.5530
382.5450, 185.1680
383.0270, 185.2970
383.5090, 188.8520
383.9910, 184.9880
384.4740, 183.4160
384.9560, 189.2650
385.4380, 191.0040
385.9200, 186.2860
386.4020, 190.0590
386.8840, 178.6620
387.3660, 180.5760
387.8480, 188.2350
388.3310, 183.8900
388.8130, 187.7980
389.2950, 188.5630
389.7770, 187.6650
390.2590, 186.3670
390.7410, 186.9460
391.2230, 183.0500
391.7050, 180.4640
392.1880, 181.0400
392.6700, 177.2540
393.1520, 173.2480
393.6340, 173.1620
394.1160, 181.4590
394.5980, 188.5770
395.0800, 191.2920
395.5620, 190.0260
396.0440, 185.6600
396.5260, 171.0200
397.0090, 159.7280
397.4910, 158.9840
397.9730, 172.3450
398.4550, 182.7300
398.9370, 187.1020
399.4190, 187.7900
399.9010, 186.9110
400.3840, 185.1510
400.8660, 180.9110
401.3480, 169.8840
401.8300, 154.6360
402.3120, 152.4270
402.7940, 173.8320
403.2760, 194.4770
403.7580, 201.9030
404.2400, 190.8600
404.7230, 182.8540
405.2050, 177.9300
405.6870, 175.8920
406.1690, 177.2150
406.6510, 182.8470
407.1330, 187.5540
407.6150, 189.4020
408.0970, 189.0550
408.5790, 190.6980
409.0620, 194.6730
409.5440, 198.5540
410.0260, 201.2840
410.5080, 202.5520
410.9900, 199.5580
411.4720, 191.0110
411.9540, 180.3710
412.4360, 170.1810
412.9180, 161.5340
413.4010, 160.1510
413.8830, 177.7560
414.3650, 201.4500
414.8470, 207.1840
415.3290, 194.6890
415.8110, 180.6860
416.2930, 180.4110
416.7750, 186.5450
417.2580, 188.5900
417.7400, 181.2620
418.2220, 172.4800
418.7040, 166.0530
419.1860, 162.4470
419.6680, 163.1840
420.1500, 173.6060
420.6320, 185.0000
421.1150, 192.1780
421.5970, 193.9960
422.0790, 194.9480
422.5610, 197.5530
423.0430, 199.4210
423.5250, 198.2120
424.0070, 188.1540
424.4890, 180.9840
424.9710, 180.1140
425.4530, 184.4110
425.9360, 187.5870
426.4180, 189.7690
426.9000, 190.5900
427.3820, 189.3820
427.8640, 184.5360
428.3460, 182.8990
428.8280, 186.0620
429.3100, 191.0000
429.7930, 193.7820
430.2750, 193.9110
430.7570, 193.5790
431.2390, 193.4750
431.7210, 193.2790
432.2030, 191.2980
432.6850, 187.3090
433.1670, 182.5940
433.6500, 176.0220
434.1320, 168.3480
434.6140, 168.6860
435.0960, 179.2550
435.5780, 192.3660
436.0600, 197.8030
436.5420, 196.7730
437.0240, 194.3390
437.5060, 191.3490
437.9890, 188.8510
438.4710, 189.4630
438.9530, 192.7440
439.4350, 195.0100
439.9170, 193.3660
440.3990, 189.3930
440.8810, 184.6210
441.3630, 178.8440
441.8450, 173.8520
442.3280, 170.4170
442.8100, 168.6390
443.2920, 168.5410
443.7740, 170.7270
444.2560, 174.0650
444.7380, 179.8340
445.2200, 187.6840
445.7020, 191.1100
446.1850, 180.6730
446.6670, 170.6320
447.1490, 170.0860
447.6310, 193.8780
448.1130, 205.9610
448.5950, 196.6050
449.0770, 177.7690
449.5590, 170.8160
450.0420, 185.7860
450.5240, 196.2710
451.0060, 192.7890
451.4880, 175.9530
451.9700, 171.4310
452.4520, 184.0220
452.9340, 198.1720
453.4160, 200.6430
453.8980, 190.3220
454.3800, 183.2450
454.8630, 181.4400
455.3450, 182.6380
455.8270, 182.8790
456.3090, 182.3290
456.7910, 183.5010
457.2730, 189.7390
457.7550, 197.6930
458.2370, 197.7010
458.7200, 190.1500
459.2020, 184.3720
459.6840, 191.0880
460.1660, 203.5900
460.6480, 211.3240
461.1300, 211.8920
461.6120, 208.4550
462.0940, 200.0040
462.5770, 189.6520
463.0590, 183.1530
463.5410, 187.1440
464.0230, 191.9000
464.5050, 190.5020
464.9870, 183.2890
465.4690, 180.3960
465.9510, 190.9410
466.4340, 202.7980
466.9160, 208.1520
467.3980, 201.9340
467.8800, 195.7520
468.3620, 188.5770
468.8440, 182.3480
469.3260, 180.3170
469.8080, 184.7390
470.2900, 189.8580
470.7720, 194.4590
471.2550, 198.5780
471.7370, 202.7900
472.2190, 207.8000
472.7010, 211.2490
473.1830, 210.9720
473.6650, 206.6850
474.1470, 202.5180
474.6290, 198.4160
475.1120, 195.4490
475.5940, 196.9350
476.0760, 202.1180
476.5580, 204.1070
477.0400, 198.1500
477.5220, 188.7860
478.0040, 183.5670
478.4860, 182.5180
478.9690, 185.4360
479.4510, 197.1830
479.9330, 210.7850
480.4150, 216.7360
480.8970, 212.5310
481.3790, 205.7280
481.8610, 198.7890
482.3430, 193.1580
482.8250, 190.7260
483.3080, 194.8670
483.7900, 199.6200
484.2720, 203.5160
484.7540, 206.3970
485.2360, 207.5440
485.7180, 204.8680
486.2000, 202.0640
486.6820, 200.6540
487.1640, 200.5530
487.6470, 202.3610
488.1290, 208.8000
488.6110, 215.0410
489.0930, 214.8570
489.5750, 204.3980
490.0570, 198.2750
490.5390, 200.5630
491.0210, 208.0450
491.5040, 210.0190
491.9860, 205.7380
492.4680, 200.8220
492.9500, 197.9440
493.4320, 196.9450
493.9140, 196.7020
494.3960, 197.0950
494.8780, 199.3380
495.3610, 209.1840
495.8430, 221.8420
496.3250, 224.0720
496.8070, 208.9270
497.2890, 189.4470
497.7710, 176.3740
498.2530, 169.3340
498.7350, 166.6540
499.2170, 171.3860
499.6990, 177.2920
500.1820, 180.2670
500.6640, 180.0980
501.1460, 179.9230
501.6280, 180.1400
502.1100, 181.2170
502.5920, 183.6710
503.0740, 190.6330
503.5560, 194.2680
504.0390, 191.4910
504.5210, 185.8770
505.0030, 183.0270
505.4850, 184.3350
505.9670, 185.9500
506.4490, 186.5860
506.9310, 186.6050
507.4130, 190.1050
507.8960, 198.9560
508.3780, 205.6130
508.8600, 202.3110
509.3420, 189.6660
509.8240, 186.6610
510.3060, 195.9300
510.7880, 207.7480
511.2700, 210.1620
511.7520, 204.9590
512.2350, 199.0610
512.7170, 194.6480
513.1990, 190.5160
513.6810, 182.4050
514.1630, 172.5660
514.6450, 169.0700
515.1270, 184.7800
515.6090, 202.9080
516.0910, 209.4240
516.5740, 202.4310
517.0560, 194.2370
517.5380, 189.4690
518.0200, 185.8920
518.5020, 181.5330
518.9840, 170.5030
519.4660, 165.6430
519.9480, 174.8380
520.4300, 190.0340
520.9130, 194.9690
521.3950, 180.0230
521.8770, 170.4620
522.3590, 175.6710
522.8410, 194.1390
523.3230, 202.5040
523.8050, 198.6960
524.2870, 191.0150
524.7700, 184.0290
525.2520, 177.8830
525.7340, 175.0410
526.2160, 176.2470
526.6980, 178.6480
527.1800, 177.9290
527.6620, 175.2580
528.1440, 174.8050
528.6270, 179.1950
529.1090, 185.0680
529.5910, 189.7700
530.0730, 192.8830
530.5550, 192.7510
531.0370, 183.7940
531.5190, 174.6280
532.0010, 172.4570
532.4840, 178.4670
532.9660, 183.5400
533.4480, 184.5480
533.9300, 183.4440
534.4120, 181.6950
534.8940, 177.3420
535.3760, 175.2230
535.8580, 176.9270
536.3400, 180.4110
536.8230, 181.6600
537.3050, 179.0240
537.7870, 177.8880
538.2690, 180.5650
538.7510, 186.0660
539.2330, 187.3800
539.7150, 183.8140
540.1970, 179.9540
540.6790, 180.0000
541.1620, 182.7830
541.6440, 180.4740
542.1260, 171.7610
542.6080, 164.8290
543.0900, 172.7100
543.5720, 188.4690
544.0540, 197.1050
544.5360, 190.5190
545.0180, 181.1850
545.5010, 180.0060
545.9830, 183.9960
546.4650, 186.1550
546.9470, 179.7000
547.4290, 174.2230
547.9110, 175.1210
548.3930, 182.7990
548.8750, 189.6610
549.3570, 196.0080
549.8400, 199.9250
550.3220, 200.3590
550.8040, 196.7650
551.2860, 190.4010
551.7680, 178.7940
552.2500, 166.9960
552.7320, 162.5630
553.2140, 166.6520
553.6970, 170.8970
554.1790, 173.6040
554.6610, 175.2050
555.1430, 176.9780
555.6250, 178.8470
556.1070, 179.6620
556.5890, 177.3370
557.0710, 174.0070
557.5540, 173.7940
558.0360, 176.7220
558.5180, 180.0830
559.0000, 183.4920
559.4820, 185.4990
559.9640, 183.7370
560.4460, 175.2470
560.9280, 169.2940
561.4110, 171.0910
561.8930, 177.1800
562.3750, 182.9590
562.8570, 188.7070
563.3390, 192.8160
563.8210, 195.6240
564.3030, 196.7680
564.7850, 193.9690
565.2670, 184.3760
565.7500, 176.3110
566.2320, 172.7360
566.7140, 173.6730
567.1960, 180.8850
567.6780, 196.0350
568.1600, 209.9190
568.6420, 214.3700
569.1240, 210.2140
569.6060, 199.8710
570.0890, 181.9730
570.5710, 164.9830
571.0530, 160.1990
571.5350, 163.7620
572.0170, 167.6520
572.4990, 169.8370
572.9810, 170.1550
573.4630, 164.8850
573.9450, 156.9300
574.4280, 156.0690
574.9100, 178.3670
575.3920, 197.6280
575.8740, 198.6160
576.3560, 176.2610
576.8380, 164.2730
577.3200, 168.1700
577.8020, 177.9550
578.2840, 188.5990
578.7670, 202.5640
579.2490, 208.2530
579.7310, 202.5830
580.2130, 192.7480
580.6950, 190.9980
581.1770, 196.9990
581.6590, 199.0540
582.1410, 191.9900
582.6240, 181.4470
583.1060, 178.1140
583.5880, 180.7460
584.0700, 183.7300
584.5520, 183.6700
585.0340, 182.4710
585.5160, 182.0590
585.9980, 182.4590
586.4810, 182.4480
586.9630, 180.8290
587.4450, 178.9850
587.9270, 177.7970
588.4090, 177.3130
588.8910, 177.7480
589.3730, 177.7460
589.8550, 179.4130
590.3380, 186.0210
590.8200, 203.4270
591.3020, 212.6150
591.7840, 208.9330
592.2660, 196.9410
592.7480, 187.0710
