##NAMES=Phoenicochroite
##RRUFFID=R050164
##IDEAL CHEMISTRY=Pb^2+^_2_O(Cr^6+^O_4_)
##LOCALITY=Chapacase mine, Sierra Cerrillias District, Tocopilla, Chile
##OWNER=RRUFF
##SOURCE=Jim McGlasson
##DESCRIPTION=Dark-red massive with orange wulfenite
##STATUS=The identification of this mineral has been confirmed by single-crystal X-ray diffraction.
##URL=rruff.info/R050164
93.46680, 7931.676
93.94891, 7775.304
94.43103, 7797.567
94.91315, 7945.191
95.39526, 8095.518
95.87738, 8221.162
96.35950, 8336.215
96.84161, 8438.138
97.32373, 8530.576
97.80585, 8613.561
98.28796, 8696.548
98.77008, 8788.102
99.25220, 8872.097
99.73431, 8925.412
100.2164, 8945.237
100.6985, 8925.057
101.1807, 8893.003
101.6628, 8852.338
102.1449, 8799.780
102.6270, 8730.415
103.1091, 8646.688
103.5912, 8572.116
104.0734, 8501.045
104.5555, 8442.938
105.0376, 8403.369
105.5197, 8377.443
106.0018, 8356.943
106.4839, 8335.469
106.9661, 8312.719
107.4482, 8285.913
107.9303, 8262.058
108.4124, 8227.589
108.8945, 8174.542
109.3766, 8102.128
109.8588, 8014.130
110.3409, 7912.833
110.8230, 7796.529
111.3051, 7676.129
111.7872, 7552.320
112.2693, 7425.383
112.7515, 7294.284
113.2336, 7159.144
113.7157, 7021.142
114.1978, 6878.813
114.6799, 6732.658
115.1620, 6592.408
115.6442, 6465.404
116.1263, 6350.868
116.6084, 6244.547
117.0905, 6143.452
117.5726, 6052.631
118.0547, 5972.384
118.5369, 5903.347
119.0190, 5849.800
119.5011, 5818.319
119.9832, 5813.116
120.4653, 5822.790
120.9474, 5841.367
121.4296, 5872.510
121.9117, 5922.259
122.3938, 5993.276
122.8759, 6079.357
123.3580, 6161.245
123.8401, 6260.030
124.3223, 6328.459
124.8044, 6352.251
125.2865, 6343.921
125.7686, 6320.891
126.2507, 6292.961
126.7328, 6260.178
127.2150, 6223.524
127.6971, 6162.151
128.1792, 6116.845
128.6613, 6108.320
129.1434, 6133.951
129.6255, 6174.765
130.1077, 6216.285
130.5898, 6261.484
131.0719, 6324.042
131.5540, 6403.784
132.0361, 6502.029
132.5182, 6625.894
133.0004, 6780.229
133.4825, 6940.143
133.9646, 7084.118
134.4467, 7218.641
134.9288, 7353.806
135.4109, 7489.599
135.8931, 7628.436
136.3752, 7780.779
136.8573, 7947.063
137.3394, 8129.498
137.8215, 8321.525
138.3036, 8526.349
138.7858, 8751.165
139.2679, 8999.582
139.7500, 9270.082
140.2321, 9577.403
140.7142, 9921.589
141.1963, 10304.83
141.6785, 10751.57
142.1606, 11250.84
142.6427, 11766.79
143.1248, 12278.22
143.6069, 12897.64
144.0890, 13218.75
144.5712, 13281.46
145.0533, 13089.70
145.5354, 12595.51
146.0175, 11800.94
146.4996, 10807.32
146.9817, 9783.922
147.4639, 8644.183
147.9460, 7622.083
148.4281, 6721.439
148.9102, 5941.364
149.3923, 5287.146
149.8744, 4765.432
150.3566, 4354.074
150.8387, 4012.286
151.3208, 3737.040
151.8029, 3501.582
152.2850, 3305.552
152.7671, 3143.576
153.2493, 3002.278
153.7314, 2878.002
154.2135, 2772.110
154.6956, 2680.459
155.1777, 2605.960
155.6598, 2539.836
156.1420, 2475.331
156.6241, 2412.425
157.1062, 2355.582
157.5883, 2310.891
158.0704, 2272.219
158.5525, 2235.063
159.0347, 2198.502
159.5168, 2162.743
159.9989, 2127.341
160.4810, 2091.121
160.9631, 2058.806
161.4452, 2033.722
161.9274, 2011.767
162.4095, 1988.474
162.8916, 1961.557
163.3737, 1933.204
163.8558, 1910.992
164.3379, 1900.002
164.8201, 1888.985
165.3022, 1876.767
165.7843, 1863.185
166.2664, 1847.818
166.7485, 1830.095
167.2306, 1810.671
167.7128, 1794.632
168.1949, 1785.570
168.6770, 1776.031
169.1591, 1763.742
169.6412, 1749.661
170.1233, 1735.891
170.6055, 1723.920
171.0876, 1713.655
171.5697, 1703.820
172.0518, 1695.444
172.5339, 1686.475
173.0160, 1675.255
173.4982, 1662.255
173.9803, 1649.674
174.4624, 1639.193
174.9445, 1630.999
175.4266, 1623.388
175.9087, 1617.634
176.3909, 1611.574
176.8730, 1603.432
177.3551, 1593.063
177.8372, 1581.372
178.3193, 1567.404
178.8014, 1552.480
179.2836, 1541.173
179.7657, 1536.815
180.2478, 1535.792
180.7299, 1532.695
181.2120, 1526.938
181.6941, 1520.364
182.1763, 1513.198
182.6584, 1506.130
183.1405, 1500.749
183.6226, 1498.698
184.1047, 1498.913
184.5868, 1497.881
185.0690, 1495.238
185.5511, 1491.706
186.0332, 1487.736
186.5153, 1483.297
186.9974, 1478.153
187.4795, 1471.435
187.9617, 1463.437
188.4438, 1458.669
188.9259, 1461.335
189.4080, 1463.066
189.8901, 1460.569
190.3722, 1454.975
190.8544, 1449.211
191.3365, 1446.046
191.8186, 1445.857
192.3007, 1442.562
192.7828, 1431.673
193.2649, 1421.913
193.7471, 1416.625
194.2292, 1415.286
194.7113, 1415.558
195.1934, 1415.486
195.6755, 1415.179
196.1576, 1413.696
196.6398, 1409.573
197.1219, 1405.818
197.6040, 1404.376
198.0861, 1404.970
198.5682, 1405.709
199.0503, 1404.738
199.5325, 1401.689
200.0146, 1398.584
200.4967, 1395.280
200.9788, 1392.006
201.4609, 1388.845
201.9430, 1385.815
202.4252, 1382.952
202.9073, 1380.017
203.3894, 1376.982
203.8715, 1375.808
204.3536, 1379.454
204.8357, 1383.393
205.3179, 1382.461
205.8000, 1375.805
206.2821, 1368.471
206.7642, 1365.876
207.2463, 1367.213
207.7284, 1367.454
208.2106, 1365.363
208.6927, 1361.743
209.1748, 1356.836
209.6569, 1349.830
210.1390, 1344.562
210.6211, 1347.301
211.1033, 1354.787
211.5854, 1358.657
212.0675, 1353.025
212.5496, 1341.969
213.0317, 1334.603
213.5138, 1332.019
213.9960, 1331.793
214.4781, 1333.648
214.9602, 1336.506
215.4423, 1338.056
215.9244, 1336.281
216.4065, 1332.154
216.8886, 1329.707
217.3708, 1330.541
217.8529, 1330.584
218.3350, 1327.539
218.8171, 1322.516
219.2992, 1317.608
219.7813, 1314.204
220.2635, 1312.046
220.7456, 1309.337
221.2277, 1305.023
221.7098, 1301.501
222.1919, 1300.986
222.6740, 1301.674
223.1562, 1300.177
223.6383, 1293.511
224.1204, 1282.356
224.6025, 1275.119
225.0846, 1275.532
225.5667, 1276.451
226.0489, 1276.355
226.5310, 1275.588
227.0131, 1275.156
227.4952, 1275.894
227.9773, 1277.641
228.4594, 1277.707
228.9416, 1273.436
229.4237, 1270.171
229.9058, 1270.409
230.3879, 1272.504
230.8700, 1273.176
231.3521, 1270.029
231.8343, 1263.397
232.3164, 1258.892
232.7985, 1258.281
233.2806, 1257.689
233.7627, 1256.378
234.2448, 1254.315
234.7270, 1251.425
235.2091, 1247.493
235.6912, 1242.770
236.1733, 1239.786
236.6554, 1238.457
237.1375, 1238.512
237.6197, 1241.031
238.1018, 1244.934
238.5839, 1247.977
239.0660, 1248.875
239.5481, 1247.831
240.0302, 1245.975
240.5124, 1242.032
240.9945, 1238.818
241.4766, 1237.932
241.9587, 1238.612
242.4408, 1238.589
242.9229, 1236.122
243.4051, 1232.745
243.8872, 1233.680
244.3693, 1242.241
244.8514, 1249.691
245.3335, 1251.312
245.8156, 1248.625
246.2978, 1246.083
246.7799, 1245.249
247.2620, 1246.196
247.7441, 1248.879
248.2262, 1253.657
248.7083, 1259.062
249.1905, 1264.623
249.6726, 1270.262
250.1547, 1275.781
250.6368, 1281.157
251.1189, 1286.352
251.6010, 1291.417
252.0832, 1296.466
252.5653, 1301.029
253.0474, 1303.941
253.5295, 1305.853
254.0116, 1309.891
254.4937, 1317.482
254.9759, 1326.972
255.4580, 1336.891
255.9401, 1347.363
256.4222, 1356.163
256.9043, 1360.521
257.3864, 1361.473
257.8686, 1364.519
258.3507, 1371.509
258.8328, 1379.943
259.3149, 1387.599
259.7970, 1394.532
260.2791, 1401.249
260.7613, 1407.248
261.2434, 1412.955
261.7255, 1421.147
262.2076, 1433.494
262.6897, 1446.664
263.1718, 1459.645
263.6540, 1471.883
264.1361, 1481.506
264.6182, 1484.937
265.1003, 1483.725
265.5824, 1487.992
266.0645, 1502.192
266.5467, 1515.917
267.0288, 1522.715
267.5109, 1525.099
267.9930, 1528.550
268.4751, 1536.604
268.9572, 1548.391
269.4394, 1560.288
269.9215, 1573.458
270.4036, 1584.846
270.8857, 1592.854
271.3678, 1598.699
271.8499, 1604.437
272.3321, 1611.567
272.8142, 1619.057
273.2963, 1622.685
273.7784, 1618.845
274.2605, 1617.161
274.7426, 1622.430
275.2248, 1630.365
275.7069, 1635.921
276.1890, 1636.779
276.6711, 1634.005
277.1532, 1630.091
277.6353, 1624.154
278.1175, 1618.681
278.5996, 1616.427
279.0817, 1613.732
279.5638, 1606.563
280.0459, 1593.391
280.5280, 1577.068
281.0102, 1562.824
281.4923, 1551.306
281.9744, 1540.843
282.4565, 1532.171
282.9386, 1523.730
283.4207, 1513.952
283.9029, 1502.578
284.3850, 1491.189
284.8671, 1482.497
285.3492, 1478.192
285.8313, 1472.410
286.3134, 1460.133
286.7956, 1450.040
287.2777, 1448.517
287.7598, 1455.719
288.2419, 1466.408
288.7240, 1474.776
289.2061, 1480.313
289.6883, 1485.037
290.1704, 1486.719
290.6525, 1489.547
291.1346, 1494.617
291.6167, 1502.510
292.0988, 1513.885
292.5810, 1529.397
293.0631, 1549.081
293.5452, 1572.201
294.0273, 1598.195
294.5094, 1628.150
294.9915, 1664.315
295.4737, 1704.910
295.9558, 1745.799
296.4379, 1783.386
296.9200, 1818.444
297.4021, 1861.050
297.8842, 1912.294
298.3664, 1970.771
298.8485, 2036.499
299.3306, 2109.306
299.8127, 2188.733
300.2948, 2274.264
300.7769, 2365.718
301.2591, 2461.927
301.7412, 2562.202
302.2233, 2668.495
302.7054, 2780.700
303.1875, 2898.139
303.6696, 3022.409
304.1518, 3153.564
304.6339, 3287.311
305.1160, 3416.292
305.5981, 3535.144
306.0802, 3655.628
306.5623, 3773.966
307.0445, 3895.906
307.5266, 4027.322
308.0087, 4169.045
308.4908, 4317.550
308.9729, 4467.083
309.4550, 4612.538
309.9372, 4773.190
310.4193, 4955.252
310.9014, 5145.665
311.3835, 5334.088
311.8656, 5521.428
312.3477, 5716.410
312.8299, 5926.888
313.3120, 6156.789
313.7941, 6388.161
314.2762, 6610.302
314.7583, 6844.763
315.2404, 7102.348
315.7226, 7380.581
316.2047, 7670.971
316.6868, 7965.391
317.1689, 8265.049
317.6510, 8589.609
318.1331, 8958.658
318.6153, 9333.255
319.0974, 9703.237
319.5795, 10073.05
320.0616, 10454.03
320.5437, 10852.92
321.0258, 11258.96
321.5080, 11641.73
321.9901, 12014.59
322.4722, 12336.27
322.9543, 12623.91
323.4364, 12851.18
323.9185, 12987.95
324.4007, 13024.45
324.8828, 12984.51
325.3649, 12905.60
325.8470, 12765.42
326.3291, 12625.53
326.8112, 12473.30
327.2934, 12329.47
327.7755, 12203.99
328.2576, 12100.16
328.7397, 12018.45
329.2218, 11959.35
329.7039, 11923.64
330.1861, 11908.74
330.6682, 11912.76
331.1503, 11935.85
331.6324, 11982.40
332.1145, 12048.80
332.5966, 12126.87
333.0788, 12210.88
333.5609, 12300.81
334.0430, 12396.49
334.5251, 12482.15
335.0072, 12592.74
335.4893, 12733.79
335.9715, 12904.24
336.4536, 13099.88
336.9357, 13316.77
337.4178, 13561.91
337.8999, 13851.50
338.3820, 14214.47
338.8642, 14584.77
339.3463, 14995.43
339.8284, 15390.98
340.3105, 15755.72
340.7926, 16074.45
341.2747, 16279.48
341.7568, 16278.90
342.2390, 16088.40
342.7211, 15631.18
343.2032, 14822.62
343.6853, 13860.88
344.1674, 12774.84
344.6495, 11617.00
345.1317, 10495.42
345.6138, 9502.298
346.0959, 8637.672
346.5780, 7900.479
347.0601, 7338.231
347.5422, 6870.760
348.0244, 6497.162
348.5065, 6203.738
348.9886, 5973.964
349.4707, 5801.746
349.9528, 5681.056
350.4349, 5592.370
350.9171, 5545.758
351.3992, 5517.960
351.8813, 5502.044
352.3634, 5500.809
352.8455, 5521.711
353.3276, 5567.015
353.8098, 5622.583
354.2919, 5672.033
354.7740, 5728.935
355.2561, 5736.339
355.7382, 5687.486
356.2203, 5589.778
356.7025, 5436.718
357.1846, 5232.525
357.6667, 4996.872
358.1488, 4735.544
358.6309, 4448.062
359.1130, 4186.709
359.5952, 3939.848
360.0773, 3738.688
360.5594, 3602.035
361.0415, 3518.145
361.5236, 3466.153
362.0057, 3440.882
362.4879, 3434.246
362.9700, 3420.697
363.4521, 3396.073
363.9342, 3373.907
364.4163, 3355.689
364.8984, 3343.454
365.3806, 3338.755
365.8627, 3341.581
366.3448, 3354.760
366.8269, 3380.992
367.3090, 3420.167
367.7911, 3474.955
368.2733, 3555.982
368.7554, 3645.771
369.2375, 3729.841
369.7196, 3808.595
370.2017, 3893.343
370.6838, 3993.052
371.1660, 4105.842
371.6481, 4220.918
372.1302, 4333.668
372.6123, 4456.275
373.0944, 4594.339
373.5765, 4746.948
374.0587, 4915.905
374.5408, 5099.337
375.0229, 5300.177
375.5050, 5523.948
375.9871, 5770.564
376.4692, 6034.725
376.9514, 6328.479
377.4335, 6629.955
377.9156, 6917.719
378.3977, 7205.763
378.8798, 7437.763
379.3619, 7592.472
379.8441, 7662.591
380.3262, 7617.249
380.8083, 7447.792
381.2904, 7154.376
381.7725, 6707.456
382.2546, 6117.305
382.7368, 5511.914
383.2189, 4889.403
383.7010, 4289.591
384.1831, 3767.261
384.6652, 3326.483
385.1473, 2958.931
385.6295, 2664.826
386.1116, 2445.048
386.5937, 2253.659
387.0758, 2095.596
387.5579, 1961.232
388.0400, 1850.033
388.5222, 1759.222
389.0043, 1677.997
389.4864, 1601.482
389.9685, 1532.232
390.4506, 1479.050
390.9327, 1446.520
391.4149, 1415.241
391.8970, 1379.769
392.3791, 1344.118
392.8612, 1313.331
393.3433, 1288.496
393.8254, 1266.767
394.3076, 1244.902
394.7897, 1222.290
395.2718, 1203.933
395.7539, 1193.038
396.2360, 1182.990
396.7181, 1169.314
397.2003, 1153.278
397.6824, 1139.626
398.1645, 1131.558
398.6466, 1127.815
399.1287, 1121.706
399.6108, 1111.645
400.0930, 1101.110
400.5751, 1089.434
401.0572, 1077.904
401.5393, 1067.992
402.0214, 1060.102
402.5035, 1053.159
402.9857, 1045.625
403.4678, 1037.386
403.9499, 1028.878
404.4320, 1019.005
404.9141, 1009.830
405.3962, 1002.267
405.8784, 996.2959
406.3605, 991.6079
406.8426, 988.1866
407.3247, 985.7903
407.8068, 982.7798
408.2889, 978.3760
408.7711, 974.5143
409.2532, 973.3958
409.7353, 972.2005
410.2174, 967.0493
410.6995, 956.5886
411.1816, 944.8527
411.6638, 937.7879
412.1459, 936.1751
412.6280, 935.1688
413.1101, 935.6092
413.5922, 935.2281
414.0743, 932.2885
414.5565, 927.2156
415.0386, 922.0222
415.5207, 918.4531
416.0028, 915.8768
416.4849, 911.7866
416.9670, 905.5342
417.4492, 899.3981
417.9313, 894.5856
418.4134, 890.5905
418.8955, 886.8192
419.3776, 883.0464
419.8597, 879.6644
420.3419, 877.1712
420.8240, 875.4890
421.3061, 873.9743
421.7882, 872.7770
422.2703, 871.2278
422.7524, 868.7004
423.2346, 865.2377
423.7167, 860.7554
424.1988, 853.3798
424.6809, 845.8011
425.1630, 842.6213
425.6451, 844.3202
426.1273, 845.5534
426.6094, 842.2286
427.0915, 835.0383
427.5736, 828.8709
428.0557, 823.2850
428.5378, 819.1395
429.0200, 817.9034
429.5021, 818.2946
429.9842, 817.4171
430.4663, 814.0999
430.9484, 810.0999
431.4305, 808.4291
431.9127, 810.6252
432.3948, 811.4603
432.8769, 810.7771
433.3590, 808.8118
433.8411, 804.6804
434.3232, 799.1079
434.8054, 794.5998
435.2875, 793.2100
435.7696, 794.6395
436.2517, 795.7729
436.7338, 797.6057
437.2159, 797.9075
437.6981, 795.0089
438.1802, 790.9990
438.6623, 788.2524
439.1444, 787.5280
439.6265, 787.7269
440.1086, 787.1081
440.5908, 785.1680
441.0729, 784.0811
441.5550, 786.3622
442.0371, 787.1792
442.5192, 782.7256
443.0013, 774.9631
443.4835, 769.0390
443.9656, 768.6956
444.4477, 772.1319
444.9298, 773.6655
445.4119, 772.6576
445.8940, 771.3859
446.3762, 769.9374
446.8583, 768.9260
447.3404, 769.2040
447.8225, 770.9566
448.3046, 772.8245
448.7867, 773.1893
449.2689, 772.4791
449.7510, 773.3475
450.2331, 776.9703
450.7152, 780.5078
451.1973, 781.1521
451.6794, 779.8781
452.1616, 779.1454
452.6437, 779.8715
453.1258, 781.1817
453.6079, 782.4979
454.0900, 783.7594
454.5721, 784.3305
455.0543, 783.4459
455.5364, 782.3754
456.0185, 784.1661
456.5006, 789.6070
456.9827, 794.1047
457.4648, 796.2888
457.9470, 797.2070
458.4291, 797.5657
458.9112, 797.6146
459.3933, 798.1081
459.8754, 799.6758
460.3575, 802.3091
460.8397, 805.4552
461.3218, 811.6786
461.8039, 815.3732
462.2860, 812.3029
462.7681, 806.8125
463.2502, 805.2008
463.7324, 809.5535
464.2145, 816.3870
464.6966, 820.0056
465.1787, 818.6276
465.6608, 819.3743
466.1429, 824.9161
466.6251, 829.8851
467.1072, 831.2080
467.5893, 830.0114
468.0714, 829.3436
468.5535, 831.2214
469.0356, 834.6377
469.5178, 836.4523
469.9999, 835.7209
470.4820, 835.9088
470.9641, 839.9450
471.4462, 843.9050
471.9283, 844.0139
472.4105, 840.0585
472.8926, 836.4476
473.3747, 836.7868
473.8568, 840.2371
474.3389, 844.1486
474.8210, 849.0134
475.3032, 852.3724
475.7853, 851.2061
476.2674, 847.5620
476.7495, 845.4680
477.2316, 846.5492
477.7137, 847.7601
478.1959, 846.8364
478.6780, 844.3619
479.1601, 842.1666
479.6422, 840.9767
480.1243, 839.5309
480.6064, 836.0962
481.0886, 830.3597
481.5707, 824.4012
482.0528, 817.9573
482.5349, 811.6478
483.0170, 806.0807
483.4991, 801.0450
483.9813, 795.9073
484.4634, 790.2995
484.9455, 784.3005
485.4276, 778.0914
485.9097, 771.0832
486.3918, 764.7784
486.8740, 760.0434
487.3561, 755.3381
487.8382, 749.2419
488.3203, 741.8771
488.8024, 734.6560
489.2845, 728.8271
489.7667, 724.1971
490.2488, 718.8169
490.7309, 712.5624
491.2130, 705.6759
491.6951, 696.7501
492.1772, 688.0527
492.6594, 682.4548
493.1415, 680.6866
493.6236, 679.7071
494.1057, 676.1271
494.5878, 670.3480
495.0699, 665.9984
495.5521, 663.8162
496.0342, 662.4161
496.5163, 661.7222
496.9984, 661.0381
497.4805, 658.5216
497.9626, 652.4716
498.4448, 645.8947
498.9269, 641.1686
499.4090, 637.9928
499.8911, 635.5803
500.3732, 633.9664
500.8553, 632.0793
501.3375, 627.9022
501.8196, 620.5994
502.3017, 615.4818
502.7838, 614.7264
503.2659, 614.6713
503.7480, 612.7211
504.2302, 609.3068
504.7123, 606.3849
505.1944, 605.1658
505.6765, 604.7418
506.1586, 602.3361
506.6407, 595.7894
507.1228, 590.7286
507.6049, 587.8379
508.0871, 585.8893
508.5692, 583.9887
509.0513, 582.1720
509.5334, 581.2315
510.0155, 582.3126
510.4977, 584.5648
510.9798, 583.3915
511.4619, 576.8724
511.9440, 571.2677
512.4261, 569.2881
512.9083, 568.6866
513.3904, 567.9243
513.8725, 566.7474
514.3546, 564.5741
514.8367, 559.4830
515.3188, 553.1136
515.8010, 550.8948
516.2831, 554.2081
516.7652, 557.1376
517.2473, 555.0872
517.7294, 549.5317
518.2115, 545.6730
518.6937, 544.3735
519.1758, 543.7555
519.6579, 543.5352
520.1400, 543.2844
520.6221, 542.2604
521.1042, 540.2872
521.5864, 537.7430
522.0685, 534.8873
522.5506, 531.5946
523.0327, 529.3398
523.5148, 529.7266
523.9969, 529.1458
524.4791, 524.9805
524.9612, 519.6783
525.4433, 517.0758
525.9254, 518.4406
526.4075, 521.1334
526.8896, 520.9974
527.3718, 517.2921
527.8539, 514.6591
528.3360, 514.0650
528.8181, 513.6034
529.3002, 512.7001
529.7823, 511.3262
530.2645, 509.2809
530.7466, 506.1025
531.2287, 503.2025
531.7108, 503.1942
532.1929, 505.7917
532.6750, 506.4428
533.1572, 503.4797
533.6393, 499.2522
534.1214, 496.0042
534.6035, 493.6259
535.0856, 491.5461
535.5677, 489.2940
536.0499, 487.6165
536.5320, 487.7441
537.0141, 488.9752
537.4962, 489.0408
537.9783, 486.9113
538.4604, 483.6840
538.9426, 481.2103
539.4247, 479.3664
539.9068, 478.7347
540.3889, 480.7831
540.8710, 482.5583
541.3531, 482.4795
541.8353, 480.8634
542.3174, 478.6032
542.7995, 476.1286
543.2816, 473.6782
543.7637, 471.5838
544.2458, 469.4337
544.7280, 469.0228
545.2101, 473.2393
545.6922, 476.9412
546.1743, 476.6329
546.6564, 473.2247
547.1385, 470.3183
547.6207, 470.3140
548.1028, 471.2388
548.5849, 469.4096
549.0670, 464.9872
549.5491, 462.9051
550.0313, 466.2856
550.5134, 470.8625
550.9955, 468.9784
551.4776, 460.2719
551.9597, 454.8160
552.4418, 456.6118
552.9240, 460.6365
553.4061, 464.3515
553.8882, 466.9853
554.3703, 466.6891
554.8524, 462.2704
555.3345, 455.9016
555.8167, 452.5887
556.2988, 453.8974
556.7809, 455.3304
557.2630, 457.9854
557.7451, 459.7466
558.2272, 459.0815
558.7094, 456.5570
559.1915, 453.5755
559.6736, 450.7215
560.1557, 448.4313
560.6378, 447.8467
561.1199, 449.2404
561.6021, 450.6950
562.0842, 452.5606
562.5663, 453.5032
563.0484, 451.7628
563.5305, 447.9484
564.0126, 445.3043
564.4948, 445.9433
564.9769, 447.6148
565.4590, 448.2897
565.9411, 448.0285
566.4232, 447.0866
566.9053, 445.4679
567.3875, 443.5370
567.8696, 441.8352
568.3517, 440.4520
568.8338, 439.0399
569.3159, 437.2160
569.7980, 435.7470
570.2802, 435.1837
570.7623, 435.2568
571.2444, 435.5617
571.7265, 435.9163
572.2086, 435.9306
572.6907, 434.5691
573.1729, 431.0966
573.6550, 429.2031
574.1371, 430.6391
574.6192, 432.0253
575.1013, 431.3024
575.5834, 429.4834
576.0656, 428.7885
576.5477, 430.3790
577.0298, 432.5946
577.5119, 433.6280
577.9940, 433.6697
578.4761, 433.9089
578.9583, 434.8645
579.4404, 435.1842
579.9225, 433.1104
580.4046, 428.8028
580.8867, 425.7666
581.3688, 424.4486
581.8510, 424.0374
582.3331, 424.8669
582.8152, 426.1361
583.2973, 426.5390
583.7794, 425.7685
584.2615, 424.7578
584.7437, 424.6363
585.2258, 425.4684
585.7079, 426.0393
586.1900, 426.3277
586.6721, 426.3582
587.1542, 425.9217
587.6363, 425.3522
588.1184, 425.3240
588.6005, 425.9356
589.0826, 425.8316
589.5648, 422.4352
590.0469, 417.2007
590.5290, 416.3282
591.0111, 421.1315
