##NAMES=Phoenicochroite
##RRUFFID=R050164
##IDEAL CHEMISTRY=Pb^2+^_2_O(Cr^6+^O_4_)
##LOCALITY=Chapacase mine, Sierra Cerrillias District, Tocopilla, Chile
##OWNER=RRUFF
##SOURCE=Jim McGlasson
##DESCRIPTION=Dark-red massive with orange wulfenite
##STATUS=The identification of this mineral has been confirmed by single-crystal X-ray diffraction.
##URL=rruff.info/R050164
93.74609, 0.7372557
94.22821, 0.7244433
94.71033, 0.7258924
95.19244, 0.7419056
95.67456, 0.7737250
96.15668, 0.8267075
96.63879, 0.8963400
97.12091, 0.9658442
97.60303, 1.033452
98.08514, 1.109314
98.56726, 1.207663
99.04938, 1.329160
99.53149, 1.462319
100.0136, 1.605583
100.4957, 1.758602
100.9778, 1.899999
101.4600, 2.017696
101.9421, 2.132971
102.4242, 2.303870
102.9063, 2.553866
103.3884, 2.799289
103.8705, 2.983247
104.3527, 3.086645
104.8348, 3.191355
105.3169, 3.301270
105.7990, 3.417421
106.2811, 3.560182
106.7632, 3.757061
107.2454, 3.950712
107.7275, 4.092928
108.2096, 4.144750
108.6917, 4.201703
109.1738, 4.268790
109.6559, 4.343582
110.1381, 4.457550
110.6202, 4.644768
111.1023, 4.858453
111.5844, 5.053205
112.0665, 5.207606
112.5486, 5.364910
113.0308, 5.529686
113.5129, 5.697203
113.9950, 5.897413
114.4771, 6.153687
114.9592, 6.440407
115.4413, 6.724476
115.9235, 7.005927
116.4056, 7.275954
116.8877, 7.528295
117.3698, 7.769917
117.8519, 7.987088
118.3340, 8.167319
118.8162, 8.319011
119.2983, 8.461612
119.7804, 8.564719
120.2625, 8.684194
120.7446, 8.868478
121.2267, 9.172676
121.7089, 9.483691
122.1910, 9.732888
122.6731, 9.928321
123.1552, 10.10762
123.6373, 10.27752
124.1194, 10.44812
124.6016, 10.63648
125.0837, 10.86252
125.5658, 11.09351
126.0479, 11.28298
126.5300, 11.43320
127.0121, 11.59503
127.4943, 11.82014
127.9764, 12.08906
128.4585, 12.36276
128.9406, 12.57406
129.4227, 12.78939
129.9048, 13.16465
130.3869, 13.71704
130.8691, 14.29221
131.3512, 14.69946
131.8333, 14.91249
132.3154, 15.04404
132.7975, 15.19906
133.2796, 15.39934
133.7618, 15.64881
134.2439, 15.94893
134.7260, 16.29590
135.2081, 16.68354
135.6902, 17.11368
136.1723, 17.57158
136.6545, 18.01919
137.1366, 18.45443
137.6187, 19.04814
138.1008, 19.84941
138.5829, 20.77201
139.0650, 21.62957
139.5472, 22.40572
140.0293, 23.18723
140.5114, 24.09998
140.9935, 25.24337
141.4756, 26.07125
141.9577, 26.51561
142.4399, 26.62405
142.9220, 26.63023
143.4041, 26.61329
143.8862, 26.37107
144.3683, 25.72815
144.8504, 24.55740
145.3326, 23.28763
145.8147, 21.95442
146.2968, 20.54882
146.7789, 19.25210
147.2610, 18.03700
147.7431, 16.94105
148.2253, 15.98052
148.7074, 15.19496
149.1895, 14.49472
149.6716, 13.87942
150.1537, 13.34830
150.6358, 12.88348
151.1180, 12.49139
151.6001, 12.16266
152.0822, 11.89350
152.5643, 11.72410
153.0464, 11.57141
153.5285, 11.42316
154.0107, 11.28222
154.4928, 11.13799
154.9749, 10.98290
155.4570, 10.82503
155.9391, 10.67448
156.4212, 10.50755
156.9034, 10.36758
157.3855, 10.27683
157.8676, 10.25987
158.3497, 10.22736
158.8318, 10.14557
159.3139, 10.04010
159.7961, 9.953936
160.2782, 9.915732
160.7603, 9.886287
161.2424, 9.848392
161.7245, 9.800120
162.2066, 9.742212
162.6888, 9.667524
163.1709, 9.582943
163.6530, 9.503737
164.1351, 9.429486
164.6172, 9.365937
165.0993, 9.317915
165.5815, 9.291510
166.0636, 9.270765
166.5457, 9.256233
167.0278, 9.242618
167.5099, 9.213821
167.9920, 9.144138
168.4742, 9.063755
168.9563, 8.997637
169.4384, 8.942717
169.9205, 8.915911
170.4026, 8.947277
170.8847, 9.024021
171.3669, 9.091480
171.8490, 9.141666
172.3311, 9.156841
172.8132, 9.110033
173.2953, 8.943292
173.7774, 8.763914
174.2596, 8.677630
174.7417, 8.674315
175.2238, 8.685635
175.7059, 8.661679
176.1880, 8.619864
176.6701, 8.589031
177.1523, 8.592296
177.6344, 8.601139
178.1165, 8.571386
178.5986, 8.504861
179.0807, 8.444595
179.5628, 8.427888
180.0450, 8.443832
180.5271, 8.467525
181.0092, 8.495205
181.4913, 8.523098
181.9734, 8.545247
182.4555, 8.561556
182.9377, 8.571896
183.4198, 8.579896
183.9019, 8.582829
184.3840, 8.570931
184.8661, 8.527018
185.3482, 8.468143
185.8304, 8.441010
186.3125, 8.449663
186.7946, 8.457370
187.2767, 8.417125
187.7588, 8.336131
188.2409, 8.258126
188.7231, 8.184971
189.2052, 8.126705
189.6873, 8.135036
190.1694, 8.222233
190.6515, 8.317957
191.1336, 8.321966
191.6158, 8.240810
192.0979, 8.165599
192.5800, 8.141953
193.0621, 8.160915
193.5442, 8.159861
194.0263, 8.134487
194.5085, 8.102223
194.9906, 8.089029
195.4727, 8.094815
195.9548, 8.103213
196.4369, 8.115001
196.9190, 8.128430
197.4012, 8.110389
197.8833, 8.054654
198.3654, 7.981283
198.8475, 7.918534
199.3296, 7.865289
199.8117, 7.829571
200.2939, 7.820722
200.7760, 7.839117
201.2581, 7.851687
201.7402, 7.855905
202.2223, 7.857860
202.7044, 7.873810
203.1866, 7.908746
203.6687, 7.929490
204.1508, 7.914406
204.6329, 7.859205
205.1150, 7.815911
205.5971, 7.784087
206.0793, 7.765636
206.5614, 7.771157
207.0435, 7.809129
207.5256, 7.837966
208.0077, 7.834045
208.4898, 7.790452
208.9720, 7.756783
209.4541, 7.732087
209.9362, 7.718715
210.4183, 7.728712
210.9004, 7.774496
211.3825, 7.806802
211.8647, 7.801899
212.3468, 7.753335
212.8289, 7.693355
213.3110, 7.612727
213.7931, 7.527281
214.2752, 7.473330
214.7574, 7.453003
215.2395, 7.457726
215.7216, 7.493450
216.2037, 7.577999
216.6858, 7.623209
217.1679, 7.614624
217.6500, 7.574593
218.1322, 7.555610
218.6143, 7.563710
219.0964, 7.580090
219.5785, 7.602797
220.0606, 7.647182
220.5427, 7.646724
221.0249, 7.581911
221.5070, 7.481317
221.9891, 7.415844
222.4712, 7.399042
222.9533, 7.390717
223.4354, 7.374565
223.9176, 7.348779
224.3997, 7.317461
224.8818, 7.269796
225.3639, 7.221251
225.8460, 7.210233
226.3281, 7.255903
226.8103, 7.306538
227.2924, 7.340970
227.7745, 7.359515
228.2566, 7.362523
228.7387, 7.348576
229.2208, 7.319831
229.7030, 7.280321
230.1851, 7.223589
230.6672, 7.165872
231.1493, 7.108424
231.6314, 7.034719
232.1135, 7.009754
232.5957, 7.056781
233.0778, 7.142466
233.5599, 7.192499
234.0420, 7.191143
234.5241, 7.179509
235.0062, 7.172851
235.4884, 7.173492
235.9705, 7.173167
236.4526, 7.176481
236.9347, 7.176628
237.4168, 7.155740
237.8989, 7.091781
238.3811, 7.042079
238.8632, 7.034512
239.3453, 7.092792
239.8274, 7.119240
240.3095, 7.096355
240.7916, 7.050934
241.2738, 7.034279
241.7559, 7.059498
242.2380, 7.092513
242.7201, 7.127758
243.2022, 7.178587
243.6843, 7.181951
244.1665, 7.107131
244.6486, 7.003113
245.1307, 6.957450
245.6128, 7.000320
246.0949, 7.051421
246.5770, 7.089714
247.0592, 7.118947
247.5413, 7.116887
248.0234, 7.063909
248.5055, 6.992843
248.9876, 6.958212
249.4697, 6.982123
249.9519, 7.001256
250.4340, 6.994210
250.9161, 6.953874
251.3982, 6.923567
251.8803, 6.901109
252.3624, 6.890811
252.8446, 6.902204
253.3267, 6.949980
253.8088, 6.990435
254.2909, 7.009493
254.7730, 7.003789
255.2551, 7.005249
255.7373, 7.020656
256.2194, 7.036399
256.7015, 7.032400
257.1836, 6.993841
257.6657, 6.968972
258.1478, 6.978203
258.6299, 7.025422
259.1121, 7.034130
259.5942, 6.984885
260.0763, 6.919211
260.5584, 6.879225
261.0405, 6.869184
261.5226, 6.876027
262.0048, 6.905336
262.4869, 6.956032
262.9690, 6.980437
263.4511, 6.973125
263.9332, 6.947327
264.4153, 6.902477
264.8975, 6.811058
265.3796, 6.789949
265.8617, 6.897904
266.3438, 7.112733
266.8259, 7.189461
267.3080, 7.074407
267.7902, 6.918221
268.2723, 6.855220
268.7544, 6.909403
269.2365, 6.961205
269.7186, 6.993353
270.2007, 7.008724
270.6829, 7.024468
271.1650, 7.046622
271.6471, 7.054538
272.1292, 7.017506
272.6113, 6.918115
273.0934, 6.874999
273.5756, 6.922694
274.0577, 7.029274
274.5398, 7.082147
275.0219, 7.070316
275.5040, 7.037341
275.9861, 7.001349
276.4683, 6.958231
276.9504, 6.951774
277.4325, 6.998462
277.9146, 7.072877
278.3967, 7.112229
278.8788, 7.113740
279.3610, 7.095079
279.8431, 7.054326
280.3252, 6.990141
280.8073, 6.960836
281.2894, 6.977669
281.7715, 7.018906
282.2537, 7.047492
282.7358, 7.063753
283.2179, 7.065578
283.7000, 7.041352
284.1821, 6.993120
284.6642, 6.974438
285.1464, 6.993572
285.6285, 7.024247
286.1106, 7.019189
286.5927, 6.978013
287.0748, 6.949143
287.5569, 6.961387
288.0391, 7.007762
288.5212, 7.044506
289.0033, 7.073258
289.4854, 7.086140
289.9675, 7.066515
290.4496, 7.016771
290.9318, 6.966265
291.4139, 6.922389
291.8960, 6.728412
292.3781, 6.936509
292.8602, 7.058674
293.3423, 7.099528
293.8245, 6.815532
294.3066, 6.951013
294.7887, 6.918386
295.2708, 6.878865
295.7529, 7.073385
296.2350, 6.836636
296.7172, 7.027447
297.1993, 7.047584
297.6814, 7.145832
298.1635, 7.074934
298.6456, 7.056280
299.1277, 7.206827
299.6099, 7.263689
300.0920, 7.173320
300.5741, 7.276534
301.0562, 7.033876
301.5383, 7.094726
302.0204, 7.286525
302.5026, 7.204663
302.9847, 7.139710
303.4668, 7.106703
303.9489, 7.121778
304.4310, 7.174237
304.9131, 7.225521
305.3953, 7.241292
305.8774, 7.246108
306.3595, 7.279599
306.8416, 7.356915
307.3237, 7.423299
307.8058, 7.395630
308.2880, 7.317874
308.7701, 7.289014
309.2522, 7.417809
309.7343, 7.583203
310.2164, 7.665158
310.6985, 7.647500
311.1807, 7.618927
311.6628, 7.641202
312.1449, 7.691954
312.6270, 7.736373
313.1091, 7.736048
313.5912, 7.743983
314.0734, 7.800403
314.5555, 7.906228
315.0376, 8.018023
315.5197, 8.111181
316.0018, 8.200232
316.4839, 8.297819
316.9661, 8.431481
317.4482, 8.553704
317.9303, 8.624685
318.4124, 8.655493
318.8945, 8.719970
319.3766, 8.862148
319.8588, 9.039401
320.3409, 9.219372
320.8230, 9.393514
321.3051, 9.573586
321.7872, 9.775533
322.2693, 9.987997
322.7515, 10.17634
323.2336, 10.26808
323.7157, 10.38209
324.1978, 10.58693
324.6799, 10.95736
325.1620, 11.28216
325.6442, 11.49940
326.1263, 11.65772
326.6084, 11.84328
327.0905, 12.11045
327.5726, 12.36423
328.0547, 12.57044
328.5369, 12.70502
329.0190, 12.86232
329.5011, 13.07220
329.9832, 13.29185
330.4653, 13.47294
330.9474, 13.61017
331.4296, 13.71498
331.9117, 13.77378
332.3938, 13.78238
332.8759, 13.83521
333.3580, 13.97866
333.8401, 14.12355
334.3223, 14.18712
334.8044, 14.09515
335.2865, 14.07614
335.7686, 14.18572
336.2507, 14.39599
336.7328, 14.54124
337.2150, 14.58787
337.6971, 14.63142
338.1792, 14.73283
338.6613, 14.90518
339.1434, 15.08360
339.6255, 15.28084
340.1077, 15.46863
340.5898, 15.59780
341.0719, 15.67345
341.5540, 15.66088
342.0361, 15.54210
342.5182, 15.31648
343.0003, 14.98608
343.4825, 14.52448
343.9646, 14.02732
344.4467, 13.64078
344.9288, 13.37016
345.4109, 13.11201
345.8930, 12.81942
346.3752, 12.51160
346.8573, 12.28405
347.3394, 12.13849
347.8215, 12.04079
348.3036, 11.94862
348.7857, 11.87098
349.2679, 11.85822
349.7500, 11.94680
350.2321, 12.08179
350.7142, 12.13918
351.1963, 12.12988
351.6784, 12.16540
352.1606, 12.35971
352.6427, 12.65063
353.1248, 12.91478
353.6069, 13.12365
354.0890, 13.33445
354.5711, 13.64348
355.0533, 14.01110
355.5354, 14.32992
356.0175, 14.57713
356.4996, 14.72348
356.9817, 14.72790
357.4638, 14.58056
357.9460, 14.35533
358.4281, 14.11644
358.9102, 13.82974
359.3923, 13.44911
359.8744, 12.86269
360.3565, 12.24876
360.8387, 11.71570
361.3208, 11.25979
361.8029, 10.83747
362.2850, 10.40574
362.7671, 10.01082
363.2492, 9.691399
363.7314, 9.477888
364.2135, 9.315263
364.6956, 9.203320
365.1777, 9.132644
365.6598, 9.076117
366.1419, 9.013262
366.6241, 8.973652
367.1062, 8.976834
367.5883, 9.048606
368.0704, 9.108887
368.5525, 9.139597
369.0346, 9.155834
369.5168, 9.181522
369.9989, 9.223754
370.4810, 9.268451
370.9631, 9.298347
371.4452, 9.302090
371.9273, 9.380956
372.4095, 9.557001
372.8916, 9.788092
373.3737, 10.04173
373.8558, 10.32070
374.3379, 10.62128
374.8200, 10.96597
375.3022, 11.33806
375.7843, 11.63354
376.2664, 11.84433
376.7485, 12.00221
377.2306, 12.12176
377.7127, 12.20113
378.1949, 12.26703
378.6770, 12.33664
379.1591, 12.37201
379.6412, 12.31189
380.1233, 12.15804
380.6054, 11.88741
381.0876, 11.44657
381.5697, 10.86597
382.0518, 10.32792
382.5339, 9.837384
383.0160, 9.385739
383.4981, 8.968178
383.9803, 8.583700
384.4624, 8.248411
384.9445, 7.967285
385.4266, 7.737327
385.9087, 7.553174
386.3908, 7.415004
386.8730, 7.315471
387.3551, 7.271213
387.8372, 7.256373
388.3193, 7.225091
388.8014, 7.166708
389.2835, 7.099352
389.7657, 7.040799
390.2478, 6.986210
390.7299, 6.925640
391.2120, 6.829930
391.6941, 6.741986
392.1762, 6.709244
392.6584, 6.738089
393.1405, 6.758825
393.6226, 6.712298
394.1047, 6.646688
394.5868, 6.614055
395.0689, 6.668913
395.5511, 6.721495
396.0332, 6.751550
396.5153, 6.756371
396.9974, 6.722953
397.4795, 6.591451
397.9616, 6.461796
398.4438, 6.388736
398.9259, 6.401927
399.4080, 6.429713
399.8901, 6.479295
400.3722, 6.537868
400.8543, 6.581812
401.3365, 6.620538
401.8186, 6.633555
402.3007, 6.605136
402.7828, 6.527058
403.2649, 6.482210
403.7470, 6.488750
404.2292, 6.508955
404.7113, 6.505916
405.1934, 6.465934
405.6755, 6.442897
406.1576, 6.446681
406.6397, 6.471969
407.1219, 6.505741
407.6040, 6.553539
408.0861, 6.587926
408.5682, 6.587619
409.0503, 6.553167
409.5324, 6.520583
410.0146, 6.489889
410.4967, 6.465146
410.9788, 6.453985
411.4609, 6.455527
411.9430, 6.460522
412.4251, 6.467706
412.9073, 6.475108
413.3894, 6.481906
413.8715, 6.487904
414.3536, 6.483284
414.8357, 6.448522
415.3178, 6.399187
415.8000, 6.363821
416.2821, 6.346897
416.7642, 6.348983
417.2463, 6.389425
417.7284, 6.451787
418.2105, 6.491051
418.6927, 6.460160
419.1748, 6.413989
419.6569, 6.401873
420.1390, 6.433969
420.6211, 6.447476
421.1032, 6.373895
421.5854, 6.281823
422.0675, 6.245252
422.5496, 6.359036
423.0317, 6.452550
423.5138, 6.469073
423.9959, 6.418236
424.4781, 6.366928
424.9602, 6.299691
425.4423, 6.255394
425.9244, 6.255998
426.4065, 6.333008
426.8886, 6.396171
427.3708, 6.452808
427.8529, 6.492741
428.3350, 6.496360
428.8171, 6.437413
429.2992, 6.390609
429.7813, 6.380351
430.2635, 6.405107
430.7456, 6.409461
431.2277, 6.384061
431.7098, 6.358624
432.1919, 6.363811
432.6740, 6.403579
433.1562, 6.421764
433.6383, 6.404769
434.1204, 6.372747
434.6025, 6.370705
435.0846, 6.397840
435.5667, 6.420138
436.0489, 6.413869
436.5310, 6.388994
437.0131, 6.374709
437.4952, 6.371398
437.9773, 6.379407
438.4594, 6.415783
438.9416, 6.462877
439.4236, 6.480443
439.9058, 6.435227
440.3879, 6.381827
440.8700, 6.380790
441.3521, 6.418291
441.8342, 6.445475
442.3163, 6.428851
442.7985, 6.395830
443.2806, 6.359354
443.7627, 6.314008
444.2448, 6.300089
444.7269, 6.374016
445.2090, 6.475133
445.6912, 6.531255
446.1733, 6.473149
446.6554, 6.421457
447.1375, 6.412630
447.6196, 6.443239
448.1017, 6.468347
448.5839, 6.480610
449.0660, 6.490159
449.5481, 6.502716
450.0302, 6.528224
450.5123, 6.533199
450.9944, 6.495034
451.4766, 6.451714
451.9587, 6.476576
452.4408, 6.606685
452.9229, 6.701337
453.4050, 6.712296
453.8871, 6.651006
454.3693, 6.615991
454.8514, 6.614134
455.3335, 6.608259
455.8156, 6.546581
456.2977, 6.440222
456.7798, 6.398326
457.2620, 6.445449
457.7441, 6.533931
458.2262, 6.609704
458.7083, 6.669776
459.1904, 6.704158
459.6725, 6.679329
460.1547, 6.637982
460.6368, 6.646991
461.1189, 6.705367
461.6010, 6.764822
462.0831, 6.791214
462.5652, 6.799603
463.0474, 6.807162
463.5295, 6.822285
464.0116, 6.830542
464.4937, 6.812122
464.9758, 6.781947
465.4579, 6.771271
465.9401, 6.802116
466.4222, 6.843847
466.9043, 6.888708
467.3864, 6.938303
467.8685, 6.974061
468.3506, 6.983078
468.8328, 6.984275
469.3149, 6.991610
469.7970, 7.013912
470.2791, 7.028249
470.7612, 7.037275
471.2433, 7.036093
471.7255, 7.001694
472.2076, 6.906944
472.6897, 6.847920
473.1718, 6.877810
473.6539, 6.996598
474.1360, 7.068603
474.6182, 7.089897
475.1003, 7.078913
475.5824, 7.038664
476.0645, 6.974517
476.5466, 6.938075
477.0287, 6.946050
477.5109, 6.974684
477.9930, 6.987605
478.4751, 6.987407
478.9572, 6.986301
479.4393, 6.992059
479.9214, 7.000386
480.4036, 7.012992
480.8857, 7.030393
481.3678, 7.025730
481.8499, 6.951442
482.3320, 6.856427
482.8141, 6.797808
483.2963, 6.823496
483.7784, 6.844975
484.2605, 6.820896
484.7426, 6.766436
485.2247, 6.719097
485.7068, 6.698275
486.1890, 6.677038
486.6711, 6.644437
487.1532, 6.596628
487.6353, 6.553937
488.1174, 6.515824
488.5995, 6.484326
489.0817, 6.463252
489.5638, 6.461051
490.0459, 6.446224
490.5280, 6.403851
491.0101, 6.354415
491.4922, 6.360741
491.9744, 6.437484
492.4565, 6.494673
492.9386, 6.486974
493.4207, 6.423810
493.9028, 6.360780
494.3849, 6.295105
494.8671, 6.251727
495.3492, 6.278577
495.8313, 6.347245
496.3134, 6.373804
496.7955, 6.331230
497.2776, 6.263728
497.7598, 6.205879
498.2419, 6.160243
498.7240, 6.134801
499.2061, 6.161292
499.6882, 6.188173
500.1703, 6.166379
500.6525, 6.095771
501.1346, 6.045929
501.6167, 6.062247
502.0988, 6.098726
502.5809, 6.122863
503.0630, 6.136033
503.5452, 6.126701
504.0273, 6.062109
504.5094, 5.980360
504.9915, 5.951143
505.4736, 6.016789
505.9557, 6.071426
506.4379, 6.084137
506.9200, 6.057922
507.4021, 6.052940
507.8842, 6.081841
508.3663, 6.102076
508.8484, 6.075828
509.3306, 6.001748
509.8127, 5.943552
510.2948, 5.903328
510.7769, 5.886405
511.2590, 5.917762
511.7411, 5.987316
512.2233, 6.037941
512.7054, 6.051714
513.1875, 6.033826
513.6696, 5.975496
514.1517, 5.884807
514.6339, 5.806246
515.1160, 5.769502
515.5981, 5.757477
516.0802, 5.752550
516.5623, 5.750497
517.0444, 5.766041
517.5266, 5.841473
518.0087, 5.923823
518.4908, 5.955315
518.9729, 5.873553
519.4550, 5.794501
519.9371, 5.734441
520.4193, 5.694506
520.9014, 5.679009
521.3835, 5.708801
521.8656, 5.735771
522.3477, 5.738470
522.8298, 5.711259
523.3120, 5.710377
523.7941, 5.748294
524.2762, 5.787114
524.7583, 5.785974
525.2404, 5.743217
525.7225, 5.704797
526.2047, 5.675979
526.6868, 5.656966
527.1689, 5.653500
527.6510, 5.662883
528.1331, 5.668080
528.6152, 5.650361
529.0974, 5.628487
529.5795, 5.637853
530.0616, 5.675245
530.5437, 5.701240
531.0258, 5.674322
531.5079, 5.632074
531.9901, 5.612904
532.4722, 5.635471
532.9543, 5.649386
533.4364, 5.622715
533.9185, 5.579794
534.4006, 5.553126
534.8828, 5.575687
535.3649, 5.585490
535.8470, 5.555216
536.3291, 5.496322
536.8112, 5.479989
537.2933, 5.540186
537.7755, 5.589403
538.2576, 5.576972
538.7397, 5.489336
539.2218, 5.455582
539.7039, 5.489888
540.1860, 5.539937
540.6682, 5.539072
541.1503, 5.493594
541.6324, 5.477352
542.1145, 5.513735
542.5966, 5.569960
543.0787, 5.606310
543.5609, 5.621178
544.0430, 5.608426
544.5251, 5.520845
545.0072, 5.432068
545.4893, 5.433469
545.9714, 5.519640
546.4536, 5.595544
546.9357, 5.600533
547.4178, 5.581385
547.8999, 5.574338
548.3820, 5.594547
548.8641, 5.605704
549.3463, 5.598433
549.8284, 5.578746
550.3105, 5.553735
550.7926, 5.509488
551.2747, 5.482002
551.7568, 5.484117
552.2390, 5.506583
552.7211, 5.511270
553.2032, 5.497904
553.6853, 5.467300
554.1674, 5.400365
554.6495, 5.303524
555.1317, 5.290395
555.6138, 5.369807
556.0959, 5.465759
556.5780, 5.512844
557.0601, 5.519473
557.5422, 5.505547
558.0244, 5.470908
558.5065, 5.428167
558.9886, 5.370420
559.4707, 5.315244
559.9528, 5.299100
560.4349, 5.399875
560.9171, 5.486598
561.3992, 5.460456
561.8813, 5.341115
562.3634, 5.273320
562.8455, 5.345234
563.3276, 5.435534
563.8098, 5.485398
564.2919, 5.482297
564.7740, 5.475550
565.2561, 5.462818
565.7382, 5.448650
566.2203, 5.437604
566.7025, 5.430737
567.1846, 5.422639
567.6667, 5.413323
568.1488, 5.401273
568.6309, 5.374854
569.1130, 5.335454
569.5952, 5.320148
570.0773, 5.372240
570.5594, 5.445339
571.0415, 5.433144
571.5236, 5.346065
572.0057, 5.280155
572.4879, 5.336102
572.9700, 5.427095
573.4521, 5.456944
573.9342, 5.401505
574.4163, 5.348545
574.8984, 5.354866
575.3806, 5.376417
575.8627, 5.368429
576.3448, 5.273407
576.8269, 5.207457
577.3090, 5.191745
577.7911, 5.212065
578.2733, 5.239486
578.7554, 5.282628
579.2375, 5.314628
579.7196, 5.326931
580.2017, 5.320752
580.6838, 5.300971
581.1660, 5.263979
581.6481, 5.235629
582.1302, 5.242438
582.6123, 5.275420
583.0944, 5.297786
583.5765, 5.306982
584.0587, 5.306745
584.5408, 5.283248
585.0229, 5.256320
585.5050, 5.265288
585.9871, 5.358470
586.4692, 5.432299
586.9514, 5.399375
587.4335, 5.303696
587.9155, 5.237040
588.3976, 5.257238
588.8798, 5.281425
589.3619, 5.275139
589.8440, 5.238337
590.3261, 5.229758
590.8082, 5.277638
