##NAMES=Phoenicochroite
##RRUFFID=R050587
##IDEAL CHEMISTRY=Pb^2+^_2_O(Cr^6+^O_4_)
##LOCALITY=Potter Cramer mine, Maricopa County, Arizona, USA
##OWNER=RRUFF
##SOURCE=Marcus Origlieri
##DESCRIPTION=Thin coating that includes red gemmy crystalline fragments in some places
##STATUS=The identification of this mineral is confirmed by single-crystal X-ray diffraction and chemical analysis.
##URL=rruff.info/R050587
##MEASURED CHEMISTRY=Pb_2.05_O(Cr_0.98_O_4_)
99.200, 113.631
99.682, 129.029
100.164, 146.783
100.647, 166.727
101.129, 189.456
101.611, 205.140
102.093, 210.869
102.575, 213.172
103.057, 211.970
103.539, 208.800
104.021, 207.284
104.504, 211.148
104.986, 221.827
105.468, 232.968
105.950, 244.838
106.432, 256.949
106.914, 269.473
107.396, 282.249
107.878, 294.326
108.360, 304.306
108.843, 311.330
109.325, 318.245
109.807, 321.539
110.289, 326.300
110.771, 337.320
111.253, 355.794
111.735, 381.401
112.217, 414.684
112.700, 456.565
113.182, 501.178
113.664, 543.591
114.146, 588.388
114.628, 645.250
115.110, 720.336
115.592, 804.208
116.074, 881.074
116.557, 951.543
117.039, 1016.164
117.521, 1077.218
118.003, 1133.410
118.485, 1178.591
118.967, 1204.564
119.449, 1222.615
119.931, 1252.879
120.413, 1299.908
120.896, 1349.643
121.378, 1394.181
121.860, 1433.414
122.342, 1465.049
122.824, 1492.083
123.306, 1507.267
123.788, 1501.138
124.270, 1468.336
124.752, 1419.810
125.235, 1365.759
125.717, 1304.568
126.199, 1244.803
126.681, 1187.991
127.163, 1135.167
127.645, 1087.732
128.127, 1045.656
128.609, 1010.094
129.092, 983.863
129.574, 967.954
130.056, 959.684
130.538, 954.326
131.020, 955.635
131.502, 969.281
131.984, 999.244
132.466, 1042.713
132.948, 1088.849
133.430, 1126.314
133.913, 1187.058
134.395, 1279.007
134.877, 1397.933
135.359, 1534.834
135.841, 1680.223
136.323, 1839.128
136.805, 2044.866
137.288, 2310.781
137.770, 2614.772
138.252, 2945.017
138.734, 3305.989
139.216, 3708.104
139.698, 4158.717
140.180, 4659.597
140.662, 5186.103
141.144, 5760.638
141.626, 6346.692
142.109, 6938.605
142.591, 7534.573
143.073, 8129.239
143.555, 8723.185
144.037, 9319.494
144.519, 9874.278
145.001, 10425.760
145.484, 10903.260
145.966, 11357.710
146.448, 11733.640
146.930, 11889.280
147.412, 11681.430
147.894, 11073.160
148.376, 10235.820
148.858, 8993.046
149.340, 7716.500
149.822, 6517.926
150.305, 5438.420
150.787, 4511.533
151.269, 3772.289
151.751, 3260.133
152.233, 2843.002
152.715, 2532.142
153.197, 2288.251
153.679, 2102.100
154.161, 1966.116
154.644, 1861.513
155.126, 1768.019
155.608, 1686.727
156.090, 1615.984
156.572, 1558.118
157.054, 1508.055
157.536, 1463.825
158.018, 1424.644
158.501, 1388.451
158.983, 1352.264
159.465, 1312.963
159.947, 1284.057
160.429, 1272.146
160.911, 1266.444
161.393, 1258.220
161.875, 1245.484
162.357, 1230.591
162.840, 1216.734
163.322, 1204.632
163.804, 1191.731
164.286, 1177.449
164.768, 1162.593
165.250, 1147.317
165.732, 1131.612
166.214, 1117.323
166.697, 1107.847
167.179, 1105.419
167.661, 1100.957
168.143, 1092.052
168.625, 1081.289
169.107, 1071.541
169.589, 1063.548
170.071, 1056.707
170.553, 1050.445
171.036, 1045.217
171.518, 1038.927
172.000, 1029.456
172.482, 1019.349
172.964, 1012.839
173.446, 1011.507
173.928, 1011.176
174.410, 1004.750
174.893, 990.877
175.375, 978.298
175.857, 967.643
176.339, 959.614
176.821, 956.300
177.303, 959.034
177.785, 963.389
178.267, 962.622
178.749, 956.813
179.232, 948.664
179.714, 934.730
180.196, 919.731
180.678, 912.502
181.160, 916.518
181.642, 924.541
182.124, 925.258
182.606, 918.332
183.089, 912.256
183.571, 910.243
184.053, 910.492
184.535, 909.963
185.017, 907.890
185.499, 905.007
185.981, 902.243
186.463, 899.630
186.945, 896.883
187.428, 893.442
187.910, 889.907
188.392, 887.579
188.874, 887.131
189.356, 886.949
189.838, 883.979
190.320, 878.086
190.802, 874.517
191.285, 878.681
191.767, 885.620
192.249, 885.106
192.731, 873.145
193.213, 858.763
193.695, 853.556
194.177, 856.785
194.659, 861.282
195.141, 866.651
195.624, 871.464
196.106, 872.754
196.588, 869.361
197.070, 864.236
197.552, 860.136
198.034, 856.936
198.516, 855.214
198.998, 856.276
199.480, 858.660
199.963, 859.775
200.445, 858.957
200.927, 857.696
201.409, 857.425
201.891, 858.001
202.373, 859.359
202.855, 862.490
203.337, 866.097
203.820, 868.051
204.302, 867.882
204.784, 866.872
205.266, 865.272
205.748, 863.367
206.230, 864.000
206.712, 871.333
207.194, 880.335
207.676, 883.458
208.159, 879.270
208.641, 872.808
209.123, 867.771
209.605, 864.034
210.087, 861.709
210.569, 860.444
211.051, 860.767
211.533, 864.638
212.016, 872.720
212.498, 879.504
212.980, 879.153
213.462, 873.115
213.944, 868.260
214.426, 864.731
214.908, 863.384
215.390, 867.006
215.872, 875.979
216.355, 883.092
216.837, 882.215
217.319, 874.647
217.801, 866.997
218.283, 858.906
218.765, 851.655
219.247, 846.114
219.729, 842.318
220.212, 840.699
220.694, 842.498
221.176, 846.843
221.658, 849.651
222.140, 850.129
222.622, 849.539
223.104, 848.922
223.586, 848.173
224.068, 846.106
224.551, 841.052
225.033, 834.459
225.515, 831.315
225.997, 835.028
226.479, 838.581
226.961, 836.398
227.443, 830.020
227.925, 826.432
228.408, 830.436
228.890, 838.672
229.372, 840.741
229.854, 832.055
230.336, 824.376
230.818, 824.911
231.300, 830.732
231.782, 833.573
232.264, 829.143
232.747, 820.785
233.229, 817.104
233.711, 820.000
234.193, 822.664
234.675, 822.417
235.157, 820.530
235.639, 819.620
236.121, 820.844
236.604, 822.659
237.086, 821.821
237.568, 817.407
238.050, 813.211
238.532, 809.008
239.014, 805.762
239.496, 805.448
239.978, 808.764
240.460, 813.213
240.943, 815.190
241.425, 814.230
241.907, 811.954
242.389, 805.787
242.871, 799.755
243.353, 799.117
243.835, 804.600
244.317, 810.638
244.799, 810.342
245.282, 800.719
245.764, 795.544
246.246, 798.567
246.728, 803.226
247.210, 804.693
247.692, 802.730
248.174, 800.153
248.656, 799.577
249.139, 801.306
249.621, 802.893
250.103, 803.593
250.585, 804.822
251.067, 808.449
251.549, 813.516
252.031, 816.819
252.513, 815.578
252.995, 809.883
253.478, 806.770
253.960, 803.719
254.442, 805.424
254.924, 819.151
255.406, 838.473
255.888, 849.926
256.370, 844.439
256.852, 826.601
257.335, 821.065
257.817, 843.729
258.299, 861.360
258.781, 868.010
259.263, 867.793
259.745, 864.816
260.227, 860.824
260.709, 857.966
261.191, 862.220
261.674, 881.212
262.156, 896.090
262.638, 901.323
263.120, 904.553
263.602, 913.658
264.084, 930.614
264.566, 949.743
265.048, 961.217
265.530, 959.380
266.013, 963.181
266.495, 978.662
266.977, 995.259
267.459, 1005.981
267.941, 1010.351
268.423, 1013.093
268.905, 1018.166
269.387, 1024.876
269.870, 1038.013
270.352, 1062.907
270.834, 1090.274
271.316, 1117.903
271.798, 1145.180
272.280, 1171.490
272.762, 1195.548
273.244, 1217.664
273.727, 1243.250
274.209, 1275.439
274.691, 1306.798
275.173, 1335.612
275.655, 1361.447
276.137, 1383.083
276.619, 1397.506
277.101, 1409.065
277.583, 1430.373
278.065, 1465.562
278.548, 1500.288
279.030, 1532.136
279.512, 1559.021
279.994, 1577.387
280.476, 1584.513
280.958, 1585.988
281.440, 1588.359
281.922, 1591.727
282.405, 1595.058
282.887, 1598.977
283.369, 1602.004
283.851, 1603.582
284.333, 1604.405
284.815, 1600.140
285.297, 1583.309
285.779, 1556.736
286.262, 1537.381
286.744, 1532.121
287.226, 1531.775
287.708, 1526.333
288.190, 1516.012
288.672, 1501.802
289.154, 1481.282
289.636, 1457.773
290.118, 1437.622
290.601, 1422.297
291.083, 1407.956
291.565, 1391.198
292.047, 1372.099
292.529, 1351.754
293.011, 1330.690
293.493, 1308.158
293.975, 1280.692
294.457, 1249.041
294.940, 1222.951
295.422, 1210.526
295.904, 1210.572
296.386, 1206.852
296.868, 1195.939
297.350, 1185.109
297.832, 1177.409
298.314, 1172.248
298.797, 1167.546
299.279, 1161.867
299.761, 1156.774
300.243, 1157.545
300.725, 1168.992
301.207, 1180.061
301.689, 1187.608
302.171, 1194.979
302.654, 1205.930
303.136, 1221.639
303.618, 1240.771
304.100, 1260.941
304.582, 1278.663
305.064, 1305.701
305.546, 1346.399
306.028, 1391.621
306.510, 1434.749
306.992, 1476.048
307.475, 1521.425
307.957, 1576.499
308.439, 1641.982
308.921, 1711.754
309.403, 1776.987
309.885, 1856.638
310.367, 1959.801
310.849, 2082.138
311.332, 2212.247
311.814, 2339.995
312.296, 2474.611
312.778, 2650.477
313.260, 2872.149
313.742, 3130.403
314.224, 3419.444
314.706, 3740.393
315.189, 4092.515
315.671, 4474.928
316.153, 4894.271
316.635, 5363.876
317.117, 5888.377
317.599, 6425.660
318.081, 6964.027
318.563, 7513.203
319.045, 8081.258
319.528, 8668.532
320.010, 9258.875
320.492, 9844.791
320.974, 10423.380
321.456, 10990.080
321.938, 11583.070
322.420, 12085.580
322.902, 12402.310
323.384, 12554.410
323.867, 12559.300
324.349, 12407.240
324.831, 12118.900
325.313, 11691.850
325.795, 11124.330
326.277, 10501.150
326.759, 9841.271
327.241, 9172.553
327.724, 8602.321
328.206, 8141.500
328.688, 7759.839
329.170, 7444.731
329.652, 7196.582
330.134, 7016.212
330.616, 6903.937
331.098, 6859.750
331.581, 6886.427
332.063, 6985.450
332.545, 7156.231
333.027, 7400.578
333.509, 7716.089
333.991, 8095.519
334.473, 8540.235
334.955, 9057.822
335.437, 9660.087
335.919, 10358.720
336.402, 11094.390
336.884, 11894.310
337.366, 12697.750
337.848, 13483.490
338.330, 14251.190
338.812, 15007.490
339.294, 15748.310
339.776, 16484.660
340.259, 17275.240
340.741, 18178.721
341.223, 19044.391
341.705, 20006.920
342.187, 20845.150
342.669, 21390.320
343.151, 21592.250
343.633, 21350.779
344.116, 20442.199
344.598, 18801.711
345.080, 17004.881
345.562, 14919.900
346.044, 12917.030
346.526, 11202.730
347.008, 9795.177
347.490, 8658.577
347.972, 7832.022
348.455, 7264.157
348.937, 6830.624
349.419, 6539.035
349.901, 6328.230
350.383, 6170.917
350.865, 6062.504
351.347, 5999.877
351.829, 6008.592
352.311, 6041.073
352.794, 6066.368
353.276, 6084.136
353.758, 6096.662
354.240, 6112.864
354.722, 6115.318
355.204, 6059.996
355.686, 5973.505
356.168, 5796.631
356.651, 5487.758
357.133, 5093.896
357.615, 4650.539
358.097, 4172.083
358.579, 3690.075
359.061, 3238.703
359.543, 2810.752
360.025, 2460.829
360.508, 2205.020
360.990, 1999.536
361.472, 1834.445
361.954, 1703.833
362.436, 1602.894
362.918, 1529.958
363.400, 1480.572
363.882, 1433.285
364.364, 1380.270
364.846, 1342.671
365.329, 1325.816
365.811, 1322.761
366.293, 1327.933
366.775, 1339.634
367.257, 1357.286
367.739, 1379.309
368.221, 1405.469
368.703, 1440.346
369.186, 1476.308
369.668, 1531.926
370.150, 1613.228
370.632, 1720.929
371.114, 1856.835
371.596, 2016.924
372.078, 2207.000
372.560, 2436.935
373.043, 2706.219
373.525, 3016.788
374.007, 3373.377
374.489, 3773.788
374.971, 4203.410
375.453, 4672.040
375.935, 5153.833
376.417, 5634.250
376.899, 6117.091
377.382, 6606.793
377.864, 7106.188
378.346, 7615.325
378.828, 8141.473
379.310, 8714.111
379.792, 9213.434
380.274, 9711.523
380.756, 10079.670
381.238, 10271.650
381.721, 10260.080
382.203, 9990.464
382.685, 9404.619
383.167, 8524.222
383.649, 7568.852
384.131, 6360.232
384.613, 5285.018
385.095, 4400.230
385.578, 3677.706
386.060, 3095.352
386.542, 2641.783
387.024, 2294.023
387.506, 2031.298
387.988, 1864.430
388.470, 1718.353
388.952, 1589.669
389.435, 1478.306
389.917, 1385.044
390.399, 1309.155
390.881, 1246.214
391.363, 1198.225
391.845, 1160.459
392.327, 1122.920
392.809, 1084.763
393.291, 1051.457
393.773, 1028.047
394.256, 1010.929
394.738, 991.998
395.220, 969.221
395.702, 947.694
396.184, 929.115
396.666, 913.737
397.148, 903.754
397.630, 900.342
398.113, 897.139
398.595, 885.095
399.077, 860.154
399.559, 842.795
400.041, 837.841
400.523, 835.976
401.005, 833.359
401.487, 829.297
401.970, 823.341
402.452, 814.999
402.934, 805.032
403.416, 796.819
403.898, 791.939
404.380, 786.319
404.862, 778.487
405.344, 770.360
405.826, 763.319
406.309, 757.730
406.791, 753.603
407.273, 751.965
407.755, 752.662
408.237, 750.546
408.719, 744.244
409.201, 736.804
409.683, 728.615
410.165, 720.703
410.648, 715.611
411.130, 714.666
411.612, 716.287
412.094, 720.516
412.576, 726.715
413.058, 729.697
413.540, 726.914
414.022, 720.677
414.504, 714.505
414.987, 707.708
415.469, 703.285
415.951, 705.108
416.433, 707.546
416.915, 703.919
417.397, 694.489
417.879, 685.582
418.362, 682.382
418.844, 684.600
419.326, 686.145
419.808, 687.676
420.290, 687.703
420.772, 685.466
421.254, 681.801
421.736, 678.051
422.218, 674.573
422.701, 669.784
423.183, 659.619
423.665, 642.345
424.147, 632.922
424.629, 638.180
425.111, 645.362
425.593, 648.030
426.075, 646.915
426.557, 644.479
427.040, 640.930
427.522, 637.343
428.004, 635.343
428.486, 634.907
428.968, 635.183
429.450, 636.517
429.932, 637.697
430.414, 636.178
430.897, 631.219
431.379, 626.604
431.861, 623.381
432.343, 620.991
432.825, 618.594
433.307, 616.214
433.789, 615.012
434.271, 616.375
434.753, 620.127
435.236, 620.969
435.718, 618.242
436.200, 613.350
436.682, 602.291
437.164, 591.026
437.646, 587.806
438.128, 594.891
438.610, 605.018
439.092, 608.255
439.575, 603.701
440.057, 600.154
440.539, 598.254
441.021, 597.339
441.503, 598.508
441.985, 600.331
442.467, 598.945
442.949, 589.941
443.431, 579.944
443.914, 577.434
444.396, 581.804
444.878, 587.253
445.360, 592.431
445.842, 596.477
446.324, 597.265
446.806, 594.058
447.289, 591.677
447.771, 592.044
448.253, 592.754
448.735, 591.574
449.217, 588.637
449.699, 585.388
450.181, 582.799
450.663, 580.875
451.145, 579.766
451.628, 580.840
452.110, 580.773
452.592, 577.833
453.074, 574.487
453.556, 572.283
454.038, 571.766
454.520, 573.700
455.002, 580.917
455.484, 592.424
455.967, 598.192
456.449, 596.107
456.931, 592.372
457.413, 588.782
457.895, 586.254
458.377, 586.855
458.859, 592.417
459.341, 598.512
459.823, 602.784
460.306, 605.262
460.788, 604.940
461.270, 601.145
461.752, 598.285
462.234, 602.188
462.716, 614.725
463.198, 622.747
463.680, 624.510
464.163, 623.987
464.645, 621.869
465.127, 618.940
465.609, 615.315
466.091, 610.944
466.573, 608.601
467.055, 615.813
467.537, 637.971
468.020, 650.623
468.502, 643.846
468.984, 633.400
469.466, 625.019
469.948, 619.594
470.430, 618.305
470.912, 623.894
471.394, 632.435
471.876, 637.952
472.358, 640.547
472.841, 642.859
473.323, 645.736
473.805, 649.125
474.287, 652.999
474.769, 657.267
475.251, 662.114
475.733, 667.726
476.216, 673.829
476.698, 680.934
477.180, 688.527
477.662, 694.400
478.144, 696.641
478.626, 696.825
479.108, 702.456
479.590, 720.300
480.072, 732.149
480.555, 731.588
481.037, 728.265
481.519, 730.762
482.001, 739.115
482.483, 745.765
482.965, 743.210
483.447, 734.177
483.929, 728.701
484.411, 727.967
484.894, 724.953
485.376, 714.270
485.858, 699.846
486.340, 690.288
486.822, 687.900
487.304, 684.723
487.786, 677.198
488.268, 667.462
488.750, 657.227
489.233, 647.152
489.715, 639.904
490.197, 638.887
490.679, 643.030
491.161, 637.806
491.643, 611.052
492.125, 589.585
492.607, 578.375
493.090, 573.117
493.572, 570.707
494.054, 570.014
494.536, 569.067
495.018, 566.209
495.500, 561.478
495.982, 554.568
496.464, 544.190
496.947, 534.984
497.429, 529.490
497.911, 526.970
498.393, 526.484
498.875, 529.727
499.357, 531.263
499.839, 527.630
500.321, 520.943
500.803, 513.662
501.285, 506.451
501.768, 500.706
502.250, 498.180
502.732, 498.790
503.214, 496.741
503.696, 487.918
504.178, 481.307
504.660, 480.486
505.142, 481.513
505.625, 479.833
506.107, 474.526
506.589, 468.753
507.071, 466.123
507.553, 466.142
508.035, 465.111
508.517, 462.841
508.999, 459.690
509.482, 454.981
509.964, 449.729
510.446, 445.791
510.928, 443.024
511.410, 442.170
511.892, 447.131
512.374, 452.828
512.856, 449.865
513.338, 437.456
513.821, 424.878
514.303, 420.418
514.785, 423.742
515.267, 427.647
515.749, 434.893
516.231, 439.162
516.713, 437.085
517.195, 433.067
517.677, 432.017
518.160, 434.569
518.642, 436.375
519.124, 432.401
519.606, 424.270
520.088, 418.741
520.570, 416.327
521.052, 415.044
521.534, 414.215
522.016, 413.684
522.499, 413.213
522.981, 413.362
523.463, 412.280
523.945, 406.860
524.427, 401.361
524.909, 401.615
525.391, 407.384
525.873, 413.234
526.356, 415.118
526.838, 413.566
527.320, 411.386
527.802, 407.945
528.284, 405.000
528.766, 402.771
529.248, 401.109
529.730, 400.477
530.213, 400.603
530.695, 399.776
531.177, 396.231
531.659, 391.207
532.141, 386.088
532.623, 380.863
533.105, 379.364
533.587, 384.340
534.070, 392.758
534.552, 399.193
535.034, 404.577
535.516, 405.622
535.998, 398.023
536.480, 389.305
536.962, 384.443
537.444, 383.068
537.926, 383.003
538.409, 383.146
538.891, 383.130
539.373, 381.462
539.855, 376.944
540.337, 375.994
540.819, 383.800
541.301, 390.971
541.783, 390.526
542.265, 384.229
542.748, 378.515
543.230, 375.910
543.712, 374.564
544.194, 372.751
544.676, 370.833
545.158, 370.044
545.640, 370.814
546.122, 372.223
546.604, 373.106
547.087, 373.315
547.569, 373.944
548.051, 375.715
548.533, 377.055
549.015, 377.637
549.497, 377.427
549.979, 376.543
550.461, 375.006
550.943, 372.367
551.426, 366.686
551.908, 358.874
552.390, 355.568
552.872, 357.978
553.354, 362.259
553.836, 367.652
554.318, 372.785
554.800, 373.856
555.283, 367.322
555.765, 363.258
556.247, 368.005
556.729, 374.839
557.211, 376.139
557.693, 371.736
558.175, 366.491
558.657, 364.013
559.140, 363.645
559.622, 362.247
560.104, 358.557
560.586, 356.790
561.068, 359.349
561.550, 362.931
562.032, 366.002
562.514, 368.292
562.997, 369.118
563.479, 367.244
563.961, 364.416
564.443, 362.795
564.925, 362.031
565.407, 360.357
565.889, 356.997
566.371, 353.146
566.853, 350.443
567.336, 348.963
567.818, 348.432
568.300, 349.704
568.782, 350.858
569.264, 350.964
569.746, 350.593
570.228, 350.948
570.710, 352.439
571.192, 353.341
571.675, 350.560
572.157, 345.163
572.639, 343.234
573.121, 345.759
573.603, 349.606
574.085, 353.636
574.567, 357.304
575.049, 358.923
575.531, 358.098
576.014, 356.116
576.496, 351.315
576.978, 346.840
577.460, 346.314
577.942, 349.148
578.424, 351.885
578.906, 352.225
579.388, 350.718
579.870, 348.388
580.353, 344.430
580.835, 343.363
581.317, 349.395
581.799, 355.005
582.281, 352.162
582.763, 343.102
583.245, 338.771
583.727, 347.160
584.210, 356.450
584.692, 357.891
585.174, 354.256
585.656, 351.076
586.138, 349.927
586.620, 349.538
587.102, 348.595
587.584, 347.099
588.067, 344.893
588.549, 341.098
589.031, 337.875
589.513, 336.172
589.995, 334.988
590.477, 332.896
590.959, 329.788
591.441, 327.960
591.924, 330.260
592.406, 334.054
592.888, 335.338
593.370, 334.113
593.852, 331.294
594.334, 326.697
594.816, 322.492
595.298, 322.995
595.780, 330.833
596.263, 336.311
596.745, 339.828
597.227, 340.902
597.709, 336.716
598.191, 330.697
598.673, 328.954
599.155, 334.047
599.637, 339.891
600.119, 338.674
600.602, 332.466
601.084, 330.128
601.566, 333.020
602.048, 335.961
602.530, 335.312
603.012, 332.286
603.494, 331.305
603.976, 333.268
604.458, 335.556
604.941, 339.063
605.423, 341.878
605.905, 342.224
606.387, 340.576
606.869, 338.345
607.351, 336.038
607.833, 334.605
608.315, 337.528
608.797, 344.767
609.280, 345.269
609.762, 334.408
610.244, 322.404
610.726, 316.561
611.208, 316.855
611.690, 321.442
612.172, 337.227
612.654, 348.725
613.137, 349.422
613.619, 344.636
614.101, 338.448
614.583, 332.360
615.065, 328.052
615.547, 326.878
616.029, 328.301
616.511, 330.865
616.994, 334.758
617.476, 339.025
617.958, 344.673
618.440, 349.117
618.922, 348.914
619.404, 344.828
619.886, 341.721
620.368, 341.075
620.851, 340.863
621.333, 339.414
621.815, 338.001
622.297, 339.376
622.779, 343.686
623.261, 347.259
623.743, 345.968
624.225, 340.905
624.707, 339.578
625.190, 343.260
625.672, 346.855
626.154, 348.495
626.636, 349.796
627.118, 353.119
627.600, 358.318
628.082, 361.178
628.564, 358.315
629.046, 354.934
629.529, 353.419
630.011, 359.486
630.493, 363.420
630.975, 365.334
631.457, 359.181
631.939, 363.446
632.421, 363.536
632.903, 363.454
633.385, 369.184
633.868, 364.205
634.350, 369.843
634.832, 352.692
635.314, 354.319
635.796, 362.554
636.278, 369.821
636.760, 374.262
637.242, 376.329
637.724, 374.529
638.207, 370.894
638.689, 369.912
639.171, 373.025
639.653, 377.916
640.135, 381.860
640.617, 384.859
