##NAMES=Phosphohedyphane
##RRUFFID=R060733
##IDEAL CHEMISTRY=Ca_2_Pb^2+^_3_(PO_4_)_3_Cl
##LOCALITY=Capitana mine, Copiapo, Chile
##OWNER=RRUFF
##SOURCE=Bob Jenkins
##DESCRIPTION=Colorless prismatic crystals associated with colorless gypsum, co-type sample
##STATUS=The identification of this mineral is confirmed by single-crystal X-ray diffraction and chemical analysis.
##URL=rruff.info/R060733
##MEASURED CHEMISTRY=(Ca_1.75_Pb_0.22_Na_0.03_)_Î£=2_Pb_3.00_(P_1.00_O_4_)_3_Cl_1.00_
233.0681, 15089.42
233.5502, 15082.92
234.0323, 15068.85
234.5144, 15045.85
234.9965, 15003.74
235.4786, 14970.49
235.9608, 14957.99
236.4429, 14973.70
236.9250, 14975.56
237.4071, 14957.21
237.8892, 14928.92
238.3713, 14906.17
238.8535, 14888.41
239.3356, 14877.14
239.8177, 14873.43
240.2998, 14878.60
240.7819, 14886.75
241.2640, 14900.48
241.7462, 14915.79
242.2283, 14925.10
242.7104, 14923.06
243.1925, 14923.99
243.6746, 14935.47
244.1567, 14965.61
244.6389, 14976.78
245.1210, 14958.01
245.6031, 14926.82
246.0852, 14915.72
246.5673, 14936.99
247.0494, 14957.37
247.5316, 14963.21
248.0137, 14946.79
248.4958, 14942.80
248.9779, 14956.92
249.4600, 14980.34
249.9421, 14996.73
250.4243, 15004.87
250.9064, 15008.46
251.3885, 15008.96
251.8706, 15006.88
252.3527, 14998.65
252.8348, 14978.93
253.3170, 14956.38
253.7991, 14949.21
254.2812, 14965.80
254.7633, 14981.82
255.2454, 14987.51
255.7275, 14979.43
256.2097, 14973.11
256.6918, 14967.12
257.1739, 14963.95
257.6560, 14968.64
258.1381, 14983.28
258.6202, 15001.70
259.1024, 15024.36
259.5845, 15055.31
260.0666, 15071.00
260.5487, 15063.18
261.0308, 15046.35
261.5129, 15050.66
261.9951, 15088.58
262.4772, 15117.65
262.9593, 15115.84
263.4414, 15072.42
263.9235, 15049.78
264.4056, 15051.50
264.8878, 15070.54
265.3699, 15097.33
265.8520, 15136.47
266.3341, 15170.94
266.8162, 15194.79
267.2983, 15207.27
267.7805, 15210.80
268.2626, 15200.50
268.7447, 15186.66
269.2268, 15188.36
269.7089, 15209.31
270.1910, 15232.44
270.6732, 15252.09
271.1553, 15268.04
271.6374, 15281.34
272.1195, 15291.34
272.6016, 15299.63
273.0837, 15309.73
273.5659, 15323.08
274.0480, 15331.04
274.5301, 15326.13
275.0122, 15307.49
275.4943, 15304.04
275.9764, 15319.23
276.4586, 15343.14
276.9407, 15360.82
277.4228, 15371.18
277.9049, 15383.00
278.3870, 15400.70
278.8691, 15423.91
279.3513, 15442.96
279.8334, 15456.62
280.3155, 15469.25
280.7976, 15486.42
281.2798, 15508.07
281.7619, 15532.91
282.2440, 15565.84
282.7261, 15603.83
283.2082, 15621.00
283.6903, 15614.31
284.1725, 15598.05
284.6546, 15588.19
285.1367, 15584.65
285.6188, 15583.48
286.1009, 15580.79
286.5830, 15579.11
287.0652, 15593.16
287.5473, 15625.23
288.0294, 15658.68
288.5115, 15673.75
288.9936, 15672.29
289.4757, 15670.39
289.9579, 15682.89
290.4400, 15696.56
290.9221, 15662.97
291.4042, 15578.23
291.8863, 15494.91
292.3684, 15475.17
292.8506, 15505.64
293.3327, 15528.21
293.8148, 15524.97
294.2969, 15502.51
294.7790, 15467.13
295.2611, 15418.67
295.7433, 15375.06
296.2254, 15356.83
296.7075, 15355.91
297.1896, 15349.83
297.6717, 15327.82
298.1538, 15300.81
298.6360, 15286.82
299.1181, 15284.81
299.6002, 15284.05
300.0823, 15272.92
300.5644, 15257.52
301.0465, 15250.61
301.5287, 15262.34
302.0108, 15275.33
302.4929, 15266.94
302.9750, 15240.25
303.4571, 15213.48
303.9392, 15192.37
304.4214, 15180.35
304.9035, 15183.87
305.3856, 15212.63
305.8677, 15244.05
306.3498, 15256.00
306.8319, 15252.98
307.3141, 15251.08
307.7962, 15259.83
308.2783, 15274.25
308.7604, 15289.11
309.2425, 15301.25
309.7246, 15317.75
310.2068, 15350.88
310.6889, 15392.93
311.1710, 15424.31
311.6531, 15433.18
312.1352, 15429.25
312.6173, 15417.04
313.0995, 15393.36
313.5816, 15373.36
314.0637, 15355.87
314.5458, 15347.42
315.0279, 15359.94
315.5100, 15425.68
315.9922, 15492.75
316.4743, 15528.88
316.9564, 15521.19
317.4385, 15520.77
317.9206, 15547.91
318.4027, 15591.64
318.8849, 15636.56
319.3670, 15689.19
319.8491, 15732.98
320.3312, 15756.28
320.8133, 15753.07
321.2954, 15761.88
321.7776, 15801.93
322.2597, 15853.16
322.7418, 15894.21
323.2239, 15915.86
323.7060, 15933.20
324.1881, 15948.40
324.6703, 15961.33
325.1524, 15975.36
325.6345, 15982.73
326.1166, 15995.38
326.5987, 16023.28
327.0808, 16093.41
327.5630, 16146.92
328.0451, 16170.59
328.5272, 16166.08
329.0093, 16169.85
329.4914, 16189.77
329.9735, 16210.75
330.4557, 16221.17
330.9378, 16203.28
331.4199, 16207.36
331.9020, 16250.58
332.3841, 16321.02
332.8662, 16357.93
333.3484, 16343.18
333.8305, 16321.85
334.3126, 16318.34
334.7947, 16337.36
335.2768, 16360.95
335.7589, 16392.63
336.2411, 16425.91
336.7232, 16440.17
337.2053, 16425.08
337.6874, 16420.98
338.1695, 16457.83
338.6516, 16544.16
339.1338, 16590.96
339.6159, 16588.07
340.0980, 16558.41
340.5801, 16532.14
341.0622, 16506.85
341.5443, 16505.79
342.0265, 16548.30
342.5086, 16628.57
342.9907, 16700.74
343.4728, 16767.15
343.9549, 16813.75
344.4370, 16807.67
344.9192, 16755.26
345.4013, 16717.06
345.8834, 16721.54
346.3655, 16753.84
346.8476, 16777.27
347.3297, 16791.69
347.8119, 16799.66
348.2940, 16795.35
348.7761, 16785.29
349.2582, 16790.36
349.7403, 16825.52
350.2225, 16869.34
350.7046, 16884.36
351.1867, 16875.07
351.6688, 16875.28
352.1509, 16922.88
352.6331, 16992.06
353.1152, 17044.57
353.5973, 17071.28
354.0794, 17080.60
354.5615, 17067.61
355.0436, 17040.73
355.5258, 17025.70
356.0079, 17052.36
356.4900, 17088.31
356.9721, 17104.15
357.4542, 17091.20
357.9363, 17072.30
358.4185, 17056.01
358.9006, 17042.86
359.3827, 17033.77
359.8648, 17028.07
360.3469, 17027.35
360.8290, 17035.16
361.3112, 17053.63
361.7933, 17067.03
362.2754, 17068.09
362.7575, 17062.48
363.2396, 17056.30
363.7217, 17044.51
364.2039, 17038.78
364.6860, 17048.99
365.1681, 17075.42
365.6502, 17085.16
366.1323, 17057.97
366.6144, 17023.03
367.0966, 17000.32
367.5787, 16994.54
368.0608, 16996.49
368.5429, 17010.33
369.0250, 17033.02
369.5071, 17048.92
369.9893, 17058.04
370.4714, 17060.39
370.9535, 17053.34
371.4356, 17024.50
371.9177, 17014.01
372.3998, 17021.04
372.8820, 17047.54
373.3641, 17105.99
373.8462, 17216.47
374.3283, 17306.08
374.8104, 17335.01
375.2925, 17295.87
375.7747, 17288.31
376.2568, 17318.97
376.7389, 17367.90
377.2210, 17409.54
377.7031, 17443.45
378.1852, 17476.23
378.6674, 17510.04
379.1495, 17544.39
379.6316, 17574.89
380.1137, 17599.76
380.5958, 17634.55
381.0779, 17697.11
381.5601, 17783.91
382.0422, 17872.80
382.5243, 17961.39
383.0064, 18048.90
383.4885, 18135.81
383.9706, 18222.30
384.4528, 18303.49
384.9349, 18370.55
385.4170, 18432.25
385.8991, 18506.24
386.3812, 18598.92
386.8633, 18694.10
387.3455, 18764.63
387.8276, 18825.30
388.3097, 18911.59
388.7918, 19069.04
389.2739, 19240.76
389.7560, 19375.79
390.2382, 19466.87
390.7203, 19562.40
391.2024, 19699.55
391.6845, 19851.27
392.1666, 19988.16
392.6487, 20094.24
393.1309, 20188.42
393.6130, 20267.97
394.0951, 20335.88
394.5772, 20419.43
395.0593, 20550.87
395.5414, 20684.24
396.0236, 20789.55
396.5057, 20839.75
396.9878, 20889.26
397.4699, 20954.01
397.9520, 21022.75
398.4341, 21059.77
398.9163, 21047.25
399.3984, 21021.45
399.8805, 20997.41
400.3626, 20985.20
400.8447, 20943.96
401.3268, 20865.52
401.8090, 20764.07
402.2911, 20654.73
402.7732, 20532.67
403.2553, 20418.35
403.7374, 20318.94
404.2195, 20233.61
404.7017, 20146.51
405.1838, 20055.89
405.6659, 19967.27
406.1480, 19884.11
406.6301, 19805.96
407.1122, 19738.46
407.5944, 19686.10
408.0765, 19641.18
408.5586, 19580.01
409.0407, 19502.84
409.5228, 19438.99
410.0049, 19410.54
410.4871, 19410.89
410.9692, 19427.00
411.4513, 19462.30
411.9334, 19494.22
412.4155, 19484.56
412.8976, 19448.75
413.3798, 19431.43
413.8619, 19458.94
414.3440, 19511.23
414.8261, 19574.15
415.3082, 19647.29
415.7903, 19715.31
416.2725, 19762.20
416.7546, 19801.19
417.2367, 19847.79
417.7188, 19896.46
418.2009, 19963.98
418.6830, 20066.60
419.1652, 20196.94
419.6473, 20324.03
420.1294, 20435.14
420.6115, 20543.05
421.0937, 20655.72
421.5758, 20770.46
422.0579, 20893.34
422.5400, 21032.96
423.0221, 21179.78
423.5042, 21321.07
423.9864, 21448.40
424.4685, 21577.62
424.9506, 21715.92
425.4327, 21862.71
425.9148, 22005.14
426.3969, 22154.20
426.8791, 22286.43
427.3612, 22372.75
427.8433, 22391.91
428.3254, 22433.55
428.8075, 22519.99
429.2896, 22633.31
429.7718, 22713.79
430.2539, 22761.00
430.7360, 22780.15
431.2181, 22765.42
431.7002, 22719.19
432.1823, 22677.08
432.6645, 22642.23
433.1466, 22606.74
433.6287, 22571.62
434.1108, 22531.59
434.5929, 22457.53
435.0750, 22318.35
435.5572, 22146.39
436.0393, 21991.45
436.5214, 21853.66
437.0035, 21735.19
437.4856, 21665.23
437.9677, 21608.73
438.4499, 21513.87
438.9320, 21349.00
439.4141, 21174.28
439.8962, 21029.07
440.3783, 20907.74
440.8604, 20791.41
441.3426, 20682.50
441.8247, 20569.85
442.3068, 20445.38
442.7889, 20305.29
443.2710, 20167.54
443.7531, 20033.98
444.2353, 19906.68
444.7174, 19785.62
445.1995, 19672.92
445.6816, 19565.99
446.1637, 19457.54
446.6458, 19350.73
447.1280, 19273.34
447.6101, 19249.50
448.0922, 19228.30
448.5743, 19179.32
449.0564, 19084.19
449.5385, 19008.68
450.0207, 18955.98
450.5028, 18922.36
450.9849, 18908.59
451.4670, 18921.50
451.9491, 18919.80
452.4312, 18881.60
452.9134, 18812.55
453.3955, 18753.38
453.8776, 18703.90
454.3597, 18666.60
454.8418, 18651.25
455.3239, 18652.44
455.8061, 18648.75
456.2882, 18635.66
456.7703, 18614.92
457.2524, 18576.71
457.7345, 18528.86
458.2166, 18502.83
458.6988, 18546.59
459.1809, 18607.64
459.6630, 18621.74
460.1451, 18576.02
460.6272, 18531.78
461.1093, 18533.27
461.5915, 18557.25
462.0736, 18574.95
462.5557, 18578.21
463.0378, 18572.22
463.5199, 18552.93
464.0020, 18522.98
464.4842, 18500.66
464.9663, 18497.67
465.4484, 18497.66
465.9305, 18492.04
466.4126, 18478.33
466.8947, 18462.34
467.3769, 18439.28
467.8590, 18416.10
468.3411, 18405.33
468.8232, 18415.26
469.3053, 18420.70
469.7874, 18410.97
470.2696, 18387.76
470.7517, 18381.71
471.2338, 18393.49
471.7159, 18420.18
472.1980, 18466.22
472.6801, 18531.10
473.1623, 18584.70
473.6444, 18624.39
474.1265, 18648.76
474.6086, 18646.12
475.0907, 18621.02
475.5728, 18602.86
476.0550, 18614.14
476.5371, 18639.89
477.0192, 18658.67
477.5013, 18669.91
477.9834, 18670.84
478.4655, 18655.44
478.9477, 18629.57
479.4298, 18601.39
479.9119, 18577.07
480.3940, 18545.87
480.8761, 18498.59
481.3582, 18439.66
481.8404, 18382.41
482.3225, 18321.15
482.8046, 18270.86
483.2867, 18241.60
483.7688, 18242.86
484.2509, 18235.09
484.7331, 18194.93
485.2152, 18154.77
485.6973, 18146.33
486.1794, 18195.50
486.6615, 18232.56
487.1436, 18248.79
487.6258, 18245.72
488.1079, 18224.94
488.5900, 18176.38
489.0721, 18138.41
489.5542, 18137.34
490.0363, 18173.48
490.5185, 18202.13
491.0006, 18221.00
491.4827, 18235.44
491.9648, 18245.01
492.4470, 18253.09
492.9291, 18280.10
493.4112, 18343.66
493.8933, 18420.06
494.3754, 18471.59
494.8575, 18501.13
495.3397, 18523.82
495.8218, 18544.18
496.3039, 18566.04
496.7860, 18593.66
497.2681, 18628.88
497.7502, 18666.54
498.2324, 18703.36
498.7145, 18741.31
499.1966, 18783.82
499.6787, 18836.86
500.1608, 18889.17
500.6429, 18939.59
501.1251, 18987.64
501.6072, 19026.81
502.0893, 19033.54
502.5714, 19052.31
503.0535, 19109.63
503.5356, 19240.22
504.0178, 19322.49
504.4999, 19333.97
504.9820, 19316.80
505.4641, 19343.39
505.9462, 19427.44
506.4283, 19483.05
506.9105, 19480.17
507.3926, 19430.88
507.8747, 19375.50
508.3568, 19312.95
508.8389, 19261.45
509.3210, 19251.27
509.8032, 19261.81
510.2853, 19231.32
510.7674, 19146.05
511.2495, 19045.72
511.7316, 18957.78
512.2137, 18885.26
512.6959, 18835.40
513.1780, 18834.05
513.6601, 18836.52
514.1422, 18815.11
514.6243, 18771.43
515.1064, 18718.89
515.5886, 18638.13
516.0707, 18567.20
516.5528, 18535.27
517.0349, 18579.32
517.5170, 18591.82
517.9991, 18523.59
518.4813, 18433.52
518.9634, 18399.62
519.4455, 18466.78
519.9276, 18512.54
520.4097, 18506.38
520.8918, 18456.92
521.3740, 18417.46
521.8561, 18387.05
522.3382, 18369.81
522.8203, 18371.44
523.3024, 18391.02
523.7845, 18414.58
524.2667, 18442.83
524.7488, 18469.97
525.2309, 18494.17
525.7130, 18512.92
526.1951, 18516.27
526.6772, 18490.43
527.1594, 18457.51
527.6415, 18439.04
528.1236, 18434.96
528.6057, 18444.82
529.0878, 18484.82
529.5699, 18527.94
530.0521, 18550.74
530.5342, 18545.19
531.0163, 18543.38
531.4984, 18561.26
531.9805, 18585.65
532.4626, 18602.63
532.9448, 18604.14
533.4269, 18604.90
533.9090, 18595.34
534.3911, 18584.99
534.8732, 18614.77
535.3553, 18705.79
535.8375, 18798.83
536.3196, 18873.32
536.8017, 18931.04
537.2838, 18945.48
537.7659, 18905.81
538.2480, 18859.05
538.7302, 18852.92
539.2123, 18884.52
539.6944, 18936.65
540.1765, 19011.42
540.6586, 19094.36
541.1407, 19163.22
541.6229, 19223.34
542.1050, 19294.79
542.5871, 19407.50
543.0692, 19523.93
543.5513, 19598.86
544.0334, 19629.96
544.5156, 19679.38
544.9977, 19795.78
545.4798, 19931.24
545.9619, 20045.84
546.4440, 20107.42
546.9261, 20184.77
547.4083, 20296.81
547.8904, 20429.15
548.3725, 20554.04
548.8546, 20669.55
549.3367, 20782.26
549.8188, 20894.46
550.3010, 21005.67
550.7831, 21110.47
551.2652, 21208.84
551.7473, 21301.25
552.2294, 21382.31
552.7115, 21454.32
553.1937, 21540.97
553.6758, 21647.78
554.1579, 21754.01
554.6400, 21852.50
555.1221, 21931.66
555.6042, 21956.13
556.0864, 21895.41
556.5685, 21793.30
557.0506, 21685.42
557.5327, 21570.57
558.0148, 21445.83
558.4969, 21316.48
558.9791, 21171.07
559.4612, 20985.96
559.9433, 20739.51
560.4254, 20558.39
560.9075, 20507.86
561.3896, 20510.19
561.8718, 20495.05
562.3539, 20448.53
562.8360, 20407.99
563.3181, 20376.97
563.8002, 20353.53
564.2823, 20329.17
564.7645, 20299.60
565.2466, 20289.55
565.7287, 20312.92
566.2108, 20364.13
566.6929, 20419.79
567.1750, 20479.82
567.6572, 20535.75
568.1393, 20575.53
568.6214, 20606.06
569.1035, 20639.42
569.5856, 20677.77
570.0677, 20719.21
570.5499, 20761.74
571.0320, 20806.84
571.5141, 20857.06
571.9962, 20922.49
572.4783, 20984.10
572.9604, 21027.25
573.4426, 21056.87
573.9247, 21099.88
574.4068, 21198.65
574.8889, 21275.57
575.3710, 21292.25
575.8531, 21231.28
576.3353, 21202.10
576.8174, 21214.70
577.2995, 21244.72
577.7816, 21269.02
578.2637, 21286.17
578.7458, 21310.65
579.2280, 21342.37
579.7101, 21386.33
580.1922, 21449.92
580.6743, 21533.23
581.1564, 21636.72
581.6385, 21761.88
582.1207, 21906.85
582.6028, 22068.65
583.0849, 22245.95
583.5670, 22439.25
584.0491, 22651.01
584.5313, 22877.13
585.0134, 23122.20
585.4955, 23401.62
585.9776, 23649.12
586.4597, 23820.85
586.9418, 23961.99
587.4240, 24121.01
587.9061, 24299.42
588.3882, 24497.84
588.8703, 24722.58
589.3524, 24965.68
589.8345, 25207.41
590.3167, 25451.60
590.7988, 25681.88
591.2809, 25892.45
591.7630, 26081.72
592.2451, 26240.13
592.7272, 26368.91
593.2094, 26436.66
593.6915, 26421.01
594.1736, 26325.00
594.6557, 26145.58
595.1378, 25877.48
595.6199, 25561.53
596.1021, 25222.56
596.5842, 24857.46
597.0663, 24460.16
597.5485, 23972.80
598.0306, 23517.62
598.5127, 23134.55
598.9948, 22817.13
599.4769, 22530.14
599.9590, 22275.14
600.4412, 22038.74
600.9233, 21814.05
601.4054, 21597.74
601.8875, 21434.24
602.3696, 21339.35
602.8517, 21261.32
603.3339, 21149.78
603.8160, 21008.88
604.2981, 20912.47
604.7802, 20876.65
605.2623, 20861.65
605.7444, 20815.60
606.2266, 20749.35
606.7087, 20694.87
607.1908, 20677.43
607.6729, 20660.88
608.1550, 20606.84
608.6371, 20528.07
609.1193, 20464.14
609.6014, 20438.92
610.0835, 20425.94
610.5656, 20413.96
611.0477, 20401.62
611.5298, 20395.39
612.0120, 20405.09
612.4941, 20411.40
612.9762, 20399.93
613.4583, 20364.58
613.9404, 20333.99
614.4225, 20310.60
614.9047, 20290.12
615.3868, 20263.37
615.8689, 20231.21
616.3510, 20209.38
616.8331, 20207.78
617.3152, 20211.92
617.7974, 20190.89
618.2795, 20153.68
618.7616, 20134.01
619.2437, 20171.71
619.7258, 20218.17
620.2079, 20236.96
620.6901, 20226.03
621.1722, 20208.91
621.6543, 20189.21
622.1364, 20169.09
622.6185, 20148.68
623.1006, 20118.88
623.5828, 20109.20
624.0649, 20126.35
624.5470, 20157.51
625.0291, 20192.55
625.5112, 20236.20
625.9933, 20254.40
626.4755, 20230.63
626.9576, 20191.95
627.4397, 20203.00
627.9218, 20256.85
628.4039, 20300.54
628.8860, 20292.11
629.3682, 20266.87
629.8503, 20281.83
630.3324, 20330.52
630.8145, 20362.75
631.2966, 20323.30
631.7787, 20274.71
632.2609, 20268.09
632.7430, 20326.37
633.2251, 20361.37
633.7072, 20332.45
634.1893, 20287.58
634.6714, 20266.49
635.1536, 20280.27
635.6357, 20291.91
636.1178, 20292.48
636.5999, 20296.13
637.0820, 20347.02
637.5641, 20448.71
638.0463, 20495.68
638.5284, 20422.72
639.0105, 20301.57
639.4926, 20286.21
639.9747, 20360.42
640.4568, 20430.08
640.9390, 20439.30
641.4211, 20417.39
641.9032, 20376.52
642.3853, 20317.94
642.8674, 20293.30
643.3495, 20354.61
643.8317, 20436.26
644.3138, 20493.87
644.7959, 20513.09
645.2780, 20524.06
645.7601, 20519.73
646.2422, 20513.29
646.7244, 20521.89
647.2065, 20548.80
647.6886, 20574.52
648.1707, 20597.93
648.6528, 20614.91
649.1349, 20608.48
649.6171, 20583.36
650.0992, 20572.67
650.5813, 20608.40
651.0634, 20656.72
651.5455, 20672.63
652.0276, 20661.79
652.5098, 20653.82
652.9919, 20664.97
653.4740, 20683.60
653.9561, 20706.99
654.4382, 20738.49
654.9203, 20751.86
655.4025, 20731.26
655.8846, 20701.96
656.3667, 20676.40
656.8488, 20644.06
657.3309, 20653.27
657.8130, 20720.01
658.2952, 20802.51
658.7773, 20839.88
659.2594, 20835.75
659.7415, 20830.28
660.2236, 20835.63
660.7057, 20841.69
661.1879, 20827.77
661.6700, 20801.96
662.1521, 20787.13
662.6342, 20811.48
663.1163, 20835.53
663.5984, 20822.86
664.0806, 20780.27
664.5627, 20766.34
665.0448, 20827.03
665.5269, 20890.81
666.0090, 20924.94
666.4911, 20923.50
666.9733, 20936.66
667.4554, 20973.70
667.9375, 21006.90
668.4196, 21003.79
668.9017, 20966.41
669.3839, 20961.50
669.8660, 20998.94
670.3481, 21050.23
670.8302, 21093.72
671.3123, 21125.11
671.7944, 21133.11
672.2766, 21101.75
672.7587, 21066.26
673.2408, 21047.21
673.7229, 21040.73
674.2050, 21038.79
674.6871, 21038.92
675.1693, 21043.79
675.6514, 21057.99
676.1335, 21078.67
676.6156, 21089.29
677.0977, 21083.38
677.5798, 21082.83
678.0620, 21106.02
678.5441, 21147.31
679.0262, 21138.26
679.5083, 21075.27
679.9904, 21020.00
680.4725, 21033.75
680.9547, 21085.17
681.4368, 21121.09
681.9189, 21134.70
682.4010, 21137.02
682.8831, 21135.41
683.3652, 21126.07
683.8474, 21103.07
684.3295, 21036.83
684.8116, 21002.05
685.2937, 21038.46
685.7758, 21099.14
686.2579, 21123.18
686.7401, 21100.55
687.2222, 21065.51
687.7043, 21013.81
688.1864, 20963.11
688.6685, 20963.17
689.1506, 21011.17
689.6328, 21061.91
690.1149, 21103.22
690.5970, 21130.68
691.0791, 21131.76
691.5612, 21110.71
692.0433, 21089.47
692.5255, 21066.52
693.0076, 21057.40
693.4897, 21078.72
693.9718, 21134.82
694.4539, 21179.56
694.9360, 21206.52
695.4182, 21220.60
695.9003, 21221.30
696.3824, 21202.92
696.8645, 21197.63
697.3466, 21210.24
697.8287, 21223.31
698.3109, 21210.05
698.7930, 21177.89
699.2751, 21168.09
699.7572, 21190.81
700.2393, 21226.19
700.7214, 21271.79
701.2036, 21312.04
701.6857, 21320.41
702.1678, 21254.49
702.6499, 21193.54
703.1320, 21166.46
703.6141, 21166.09
704.0963, 21175.07
704.5784, 21198.95
705.0605, 21220.94
705.5426, 21237.79
706.0247, 21250.06
706.5068, 21262.86
706.9890, 21277.99
707.4711, 21279.24
707.9532, 21250.96
708.4353, 21204.21
708.9174, 21162.62
709.3995, 21126.97
709.8817, 21107.20
710.3638, 21115.97
710.8459, 21140.11
711.3280, 21175.38
711.8101, 21225.00
712.2922, 21252.28
712.7744, 21223.70
713.2565, 21186.47
713.7386, 21171.67
714.2207, 21184.48
714.7028, 21210.37
715.1849, 21259.98
715.6671, 21304.56
716.1492, 21302.67
716.6313, 21259.45
717.1134, 21239.81
717.5955, 21260.23
718.0776, 21290.01
718.5598, 21294.32
719.0419, 21280.19
719.5240, 21260.94
720.0061, 21234.24
720.4882, 21211.97
720.9703, 21191.56
721.4525, 21179.90
721.9346, 21192.86
722.4167, 21264.39
722.8988, 21319.35
723.3809, 21341.94
723.8630, 21337.82
724.3452, 21328.31
724.8273, 21313.29
725.3094, 21293.95
725.7915, 21267.89
726.2736, 21239.07
726.7557, 21212.14
727.2379, 21189.00
727.7200, 21184.55
