##NAMES=Phosphosiderite
##RRUFFID=R050459
##IDEAL CHEMISTRY=Fe^3+^PO_4_&#183;2H_2_O
##LOCALITY=Bull Moose mine, Custer, South Dakota, USA
##OWNER=RRUFF
##SOURCE=University of Arizona Mineral Museum
##DESCRIPTION=Pale lavendar tabular crystals
##STATUS=The identification of this mineral is confirmed by single-crystal X-ray diffraction and chemical analysis.
##URL=rruff.info/R050459
##MEASURED CHEMISTRY=(Fe^3+^_0.99_Al_0.01_)_Σ=1_P_1.00_O_4_·2H_2_O
91.00781, 15.05521
91.48993, 15.59490
91.97205, 15.81117
92.45416, 15.38209
92.93628, 14.64354
93.41840, 14.32827
93.90051, 14.57293
94.38263, 15.24214
94.86475, 16.25159
95.34686, 17.59795
95.82898, 18.96603
96.31110, 19.90408
96.79321, 20.49272
97.27533, 21.57925
97.75745, 23.36841
98.23956, 25.77755
98.72168, 28.48821
99.20380, 31.51736
99.68591, 34.70887
100.1680, 37.73418
100.6501, 40.39121
101.1323, 43.74236
101.6144, 48.08900
102.0965, 53.46165
102.5786, 59.46689
103.0607, 66.25634
103.5428, 73.58787
104.0250, 81.17436
104.5071, 88.69799
104.9892, 96.90620
105.4713, 106.1191
105.9534, 116.9253
106.4355, 127.4148
106.9177, 137.6689
107.3998, 147.6083
107.8819, 157.3440
108.3640, 166.8448
108.8461, 176.0550
109.3282, 185.0695
109.8104, 193.8392
110.2925, 202.2695
110.7746, 209.6449
111.2567, 216.2131
111.7388, 224.2486
112.2209, 235.4897
112.7031, 247.3717
113.1852, 258.2515
113.6673, 265.5184
114.1494, 273.8401
114.6315, 284.7942
115.1136, 298.5905
115.5958, 312.7473
116.0779, 325.7469
116.5600, 338.9279
117.0421, 353.7250
117.5242, 371.5450
118.0063, 390.5941
118.4885, 409.9722
118.9706, 429.4288
119.4527, 450.1313
119.9348, 473.6903
120.4169, 498.8207
120.8990, 523.5587
121.3812, 546.9030
121.8633, 569.2608
122.3454, 590.9338
122.8275, 612.4686
123.3096, 632.4824
123.7917, 652.0833
124.2739, 669.9460
124.7560, 681.2070
125.2381, 682.0608
125.7202, 674.3104
126.2023, 660.6472
126.6844, 640.2314
127.1666, 615.9080
127.6487, 590.4794
128.1308, 563.9426
128.6129, 538.1895
129.0950, 514.1996
129.5771, 491.9406
130.0593, 471.1859
130.5414, 451.9188
131.0235, 434.2744
131.5056, 418.2369
131.9877, 402.5103
132.4698, 387.4854
132.9520, 375.9774
133.4341, 367.8358
133.9162, 361.3512
134.3983, 356.0389
134.8804, 351.9093
135.3625, 349.2307
135.8447, 348.1283
136.3268, 348.0625
136.8089, 348.2951
137.2910, 348.7828
137.7731, 349.7946
138.2552, 351.6802
138.7374, 354.6072
139.2195, 356.7517
139.7016, 357.7004
140.1837, 358.2769
140.6658, 360.1639
141.1479, 363.5566
141.6301, 367.7500
142.1122, 372.5526
142.5943, 378.2724
143.0764, 383.8331
143.5585, 389.4400
144.0406, 394.8797
144.5228, 399.4761
145.0049, 402.3663
145.4870, 405.4406
145.9691, 409.6953
146.4512, 415.7303
146.9333, 422.0762
147.4155, 428.9128
147.8976, 436.1994
148.3797, 442.8425
148.8618, 447.8532
149.3439, 453.0067
149.8260, 459.4254
150.3082, 468.0700
150.7903, 476.9627
151.2724, 486.0707
151.7545, 495.3499
152.2366, 504.8465
152.7188, 514.6339
153.2009, 524.6053
153.6830, 534.5636
154.1651, 544.6970
154.6472, 554.6415
155.1293, 563.8424
155.6115, 572.1451
156.0936, 581.3094
156.5757, 592.1873
157.0578, 603.9097
157.5399, 615.3819
158.0220, 627.3882
158.5042, 638.3143
158.9863, 647.5428
159.4684, 655.0719
159.9505, 661.0441
160.4326, 664.8730
160.9147, 667.2543
161.3969, 669.2121
161.8790, 670.9641
162.3611, 672.4984
162.8432, 673.7136
163.3253, 674.4130
163.8074, 675.3203
164.2896, 676.5710
164.7717, 678.2423
165.2538, 680.4985
165.7359, 683.4694
166.2180, 686.9922
166.7001, 690.8822
167.1823, 694.8602
167.6644, 699.6197
168.1465, 705.8657
168.6286, 713.2798
169.1107, 720.9804
169.5928, 728.1961
170.0750, 735.5511
170.5571, 743.8380
171.0392, 753.2605
171.5213, 763.4320
172.0034, 773.3553
172.4855, 783.4974
172.9677, 795.6010
173.4498, 812.8665
173.9319, 832.3978
174.4140, 849.9250
174.8961, 863.4037
175.3782, 875.5394
175.8604, 889.2164
176.3425, 904.4825
176.8246, 921.0832
177.3067, 941.0032
177.7888, 962.2619
178.2709, 980.3988
178.7531, 993.2928
179.2352, 1003.304
179.7173, 1012.939
180.1994, 1022.301
180.6815, 1033.315
181.1636, 1048.450
181.6458, 1066.748
182.1279, 1084.995
182.6100, 1103.750
183.0921, 1121.241
183.5742, 1133.704
184.0563, 1140.789
184.5385, 1145.714
185.0206, 1151.105
185.5027, 1156.858
185.9848, 1162.216
186.4669, 1166.757
186.9490, 1170.732
187.4312, 1175.292
187.9133, 1180.478
188.3954, 1185.396
188.8775, 1187.440
189.3596, 1187.156
189.8417, 1190.126
190.3239, 1199.803
190.8060, 1214.886
191.2881, 1227.959
191.7702, 1238.336
192.2523, 1248.861
192.7344, 1263.423
193.2166, 1281.973
193.6987, 1301.827
194.1808, 1320.985
194.6629, 1339.871
195.1450, 1364.965
195.6271, 1397.241
196.1093, 1433.224
196.5914, 1468.176
197.0735, 1502.006
197.5556, 1535.916
198.0377, 1571.720
198.5198, 1609.771
199.0020, 1642.336
199.4841, 1669.657
199.9662, 1691.117
200.4483, 1708.167
200.9304, 1722.173
201.4125, 1723.583
201.8947, 1708.073
202.3768, 1675.349
202.8589, 1629.299
203.3410, 1568.755
203.8231, 1496.244
204.3052, 1415.408
204.7874, 1323.906
205.2695, 1232.278
205.7516, 1144.333
206.2337, 1059.815
206.7158, 980.3813
207.1979, 905.4474
207.6801, 835.8723
208.1622, 774.9479
208.6443, 723.2041
209.1264, 677.1843
209.6085, 635.3782
210.0906, 597.6252
210.5728, 564.7611
211.0549, 537.5323
211.5370, 514.8734
212.0191, 495.3929
212.5012, 479.4420
212.9833, 465.4041
213.4655, 452.7314
213.9476, 441.3478
214.4297, 431.4188
214.9118, 423.2990
215.3939, 416.4725
215.8760, 409.2110
216.3581, 400.8192
216.8403, 393.5430
217.3224, 388.7990
217.8045, 387.4811
218.2866, 385.8243
218.7687, 383.7132
219.2508, 381.2311
219.7330, 378.5472
220.2151, 375.3009
220.6972, 372.5032
221.1793, 370.8496
221.6614, 371.0343
222.1435, 370.4100
222.6257, 368.7557
223.1078, 366.3155
223.5899, 363.5040
224.0720, 359.4703
224.5541, 356.4327
225.0362, 355.7745
225.5184, 359.3459
226.0005, 360.5887
226.4826, 358.2970
226.9647, 353.9119
227.4468, 351.4965
227.9289, 352.1089
228.4111, 353.1108
228.8932, 353.2224
229.3753, 351.7771
229.8574, 351.0837
230.3395, 351.5198
230.8216, 352.6536
231.3038, 353.1551
231.7859, 352.0898
232.2680, 351.7609
232.7501, 353.2932
233.2322, 357.4510
233.7143, 361.6959
234.1965, 365.7943
234.6786, 370.0411
235.1607, 375.4073
235.6428, 382.5783
236.1249, 389.8593
236.6070, 396.2937
237.0892, 400.5999
237.5713, 406.9307
238.0534, 415.8320
238.5355, 426.6085
239.0176, 437.4709
239.4997, 448.4517
239.9819, 459.6960
240.4640, 471.3075
240.9461, 483.9709
241.4282, 495.4137
241.9103, 504.6660
242.3924, 513.0059
242.8746, 523.6989
243.3567, 538.3358
243.8388, 552.9133
244.3209, 565.7183
244.8030, 575.5771
245.2851, 586.4059
245.7673, 597.9855
246.2494, 610.6306
246.7315, 625.2534
247.2136, 643.1627
247.6957, 660.9616
248.1778, 676.8492
248.6600, 688.7734
249.1421, 704.9152
249.6242, 726.9830
250.1063, 752.4490
250.5884, 776.1407
251.0705, 796.0264
251.5527, 817.7391
252.0348, 843.9034
252.5169, 877.0502
252.9990, 906.2077
253.4811, 930.8483
253.9632, 952.1491
254.4454, 972.1663
254.9275, 992.5086
255.4096, 1008.802
255.8917, 1019.805
256.3738, 1025.485
256.8560, 1025.645
257.3381, 1020.219
257.8202, 1009.374
258.3023, 992.8789
258.7844, 970.0337
259.2665, 943.3973
259.7487, 912.5454
260.2308, 876.6126
260.7129, 843.3699
261.1950, 812.7406
261.6771, 784.9781
262.1592, 760.7015
262.6414, 740.6260
263.1235, 722.6986
263.6056, 706.1744
264.0877, 690.7250
264.5698, 679.6535
265.0519, 673.3958
265.5341, 670.9164
266.0162, 671.2765
266.4983, 674.9008
266.9804, 680.0504
267.4625, 686.2487
267.9446, 693.4545
268.4268, 703.1936
268.9089, 716.2355
269.3910, 730.1071
269.8731, 742.3326
270.3552, 752.4789
270.8373, 762.3541
271.3195, 772.2534
271.8016, 782.1955
272.2837, 792.7874
272.7658, 804.1783
273.2479, 816.1852
273.7300, 829.2192
274.2122, 843.5654
274.6943, 856.7081
275.1764, 867.2785
275.6585, 876.1873
276.1406, 888.6230
276.6227, 905.3309
277.1049, 923.1271
277.5870, 938.9564
278.0691, 952.4784
278.5512, 968.1455
279.0333, 987.0668
279.5154, 1008.416
279.9976, 1029.342
280.4797, 1049.737
280.9618, 1070.552
281.4439, 1093.608
281.9260, 1118.838
282.4081, 1142.375
282.8903, 1163.672
283.3724, 1183.053
283.8545, 1201.015
284.3366, 1217.479
284.8187, 1233.405
285.3008, 1250.839
285.7830, 1269.345
286.2651, 1281.883
286.7472, 1287.696
287.2293, 1287.803
287.7114, 1284.622
288.1935, 1278.125
288.6757, 1265.379
289.1578, 1242.864
289.6399, 1211.974
290.1220, 1180.512
290.6041, 1148.484
291.0862, 1116.781
291.5684, 1086.198
292.0505, 1056.709
292.5326, 1029.421
293.0147, 1003.148
293.4968, 979.3240
293.9789, 961.9467
294.4611, 951.6341
294.9432, 945.6022
295.4253, 940.6431
295.9074, 937.2067
296.3895, 937.2604
296.8716, 942.7900
297.3538, 952.1057
297.8359, 962.2684
298.3180, 973.4070
298.8001, 984.4948
299.2822, 993.3533
299.7643, 1001.431
300.2465, 1012.411
300.7286, 1028.762
301.2107, 1047.878
301.6928, 1066.834
302.1749, 1085.483
302.6570, 1104.144
303.1392, 1122.609
303.6213, 1141.205
304.1034, 1160.211
304.5855, 1180.869
305.0676, 1200.875
305.5497, 1218.348
306.0319, 1233.396
306.5140, 1247.492
306.9961, 1262.254
307.4782, 1276.134
307.9603, 1287.699
308.4424, 1297.139
308.9246, 1302.934
309.4067, 1302.186
309.8888, 1296.518
310.3709, 1290.532
310.8530, 1288.831
311.3351, 1286.745
311.8173, 1279.944
312.2994, 1266.693
312.7815, 1251.715
313.2636, 1237.333
313.7457, 1223.358
314.2278, 1209.335
314.7100, 1196.128
315.1921, 1182.223
315.6742, 1165.873
316.1563, 1146.302
316.6384, 1128.527
317.1205, 1116.365
317.6027, 1107.078
318.0848, 1097.273
318.5669, 1084.202
319.0490, 1071.913
319.5311, 1061.747
320.0132, 1053.776
320.4954, 1047.940
320.9775, 1045.006
321.4596, 1043.851
321.9417, 1043.581
322.4238, 1043.488
322.9059, 1044.798
323.3881, 1048.198
323.8702, 1053.524
324.3523, 1059.098
324.8344, 1065.192
325.3165, 1071.136
325.7986, 1076.596
326.2808, 1081.395
326.7629, 1085.906
327.2450, 1090.382
327.7271, 1094.653
328.2092, 1098.048
328.6913, 1100.170
329.1735, 1101.765
329.6556, 1103.336
330.1377, 1106.367
330.6198, 1106.513
331.1019, 1103.028
331.5840, 1096.869
332.0662, 1089.871
332.5483, 1083.124
333.0304, 1073.789
333.5125, 1060.500
333.9946, 1042.033
334.4767, 1025.351
334.9589, 1011.192
335.4410, 998.2910
335.9231, 985.1031
336.4052, 971.5516
336.8873, 958.1881
337.3694, 945.0155
337.8516, 932.1528
338.3336, 920.8641
338.8158, 911.5363
339.2979, 902.9543
339.7800, 893.4744
340.2621, 882.7791
340.7442, 874.0955
341.2263, 868.5156
341.7085, 865.2018
342.1906, 861.5615
342.6727, 857.4075
343.1548, 853.9108
343.6369, 852.6252
344.1190, 853.3195
344.6012, 851.9966
345.0833, 848.0544
345.5654, 842.2492
346.0475, 835.8078
346.5296, 828.7409
347.0117, 820.7424
347.4939, 810.9639
347.9760, 800.1581
348.4581, 790.9505
348.9402, 783.7772
349.4223, 776.5231
349.9044, 766.3740
350.3866, 753.9282
350.8687, 741.1357
351.3508, 727.7839
351.8329, 714.8929
352.3150, 704.3508
352.7971, 696.0631
353.2793, 688.2733
353.7614, 678.8119
354.2435, 668.9155
354.7256, 660.5756
355.2077, 654.8787
355.6898, 650.3151
356.1720, 645.2972
356.6541, 640.1251
357.1362, 636.0881
357.6183, 634.6166
358.1004, 634.1896
358.5826, 633.4271
359.0647, 631.9115
359.5468, 630.4517
360.0289, 628.8373
360.5110, 627.6196
360.9931, 627.8519
361.4753, 631.0457
361.9574, 634.9105
362.4395, 637.8909
362.9216, 639.4489
363.4037, 642.7294
363.8858, 650.8904
364.3680, 660.3820
364.8501, 667.4957
365.3322, 667.4854
365.8143, 669.0079
366.2964, 675.0348
366.7785, 685.5138
367.2607, 694.7589
367.7428, 701.1281
368.2249, 706.9246
368.7070, 713.5700
369.1891, 721.9993
369.6712, 729.9252
370.1534, 736.0767
370.6355, 741.6596
371.1176, 750.6954
371.5997, 766.0787
372.0818, 781.1724
372.5639, 793.2466
373.0461, 801.2181
373.5282, 809.8273
374.0103, 819.3292
374.4924, 829.3726
374.9745, 839.4559
375.4566, 849.8848
375.9388, 859.5578
376.4209, 867.7482
376.9030, 874.7049
377.3851, 882.4772
377.8672, 891.1056
378.3493, 900.7606
378.8315, 912.6733
379.3136, 927.0602
379.7957, 937.7629
380.2778, 942.7526
380.7599, 944.4307
381.2420, 949.3006
381.7242, 957.2789
382.2063, 964.3475
382.6884, 966.9869
383.1705, 966.3950
383.6526, 966.9175
384.1347, 969.2819
384.6169, 971.4054
385.0990, 970.0883
385.5811, 966.1678
386.0632, 962.4344
386.5453, 961.4587
387.0274, 960.8326
387.5096, 956.9805
387.9917, 949.9147
388.4738, 942.1736
388.9559, 935.2287
389.4380, 929.1182
389.9201, 923.9318
390.4023, 920.6688
390.8844, 917.3168
391.3665, 912.4281
391.8486, 906.2722
392.3307, 899.9905
392.8128, 894.5633
393.2950, 888.9008
393.7771, 882.0145
394.2592, 873.1807
394.7413, 864.6749
395.2234, 857.9157
395.7055, 851.8454
396.1877, 844.8343
396.6698, 836.7271
397.1519, 827.4286
397.6340, 817.0085
398.1161, 805.5486
398.5982, 792.2855
399.0804, 776.0033
399.5625, 758.6227
400.0446, 741.5121
400.5267, 724.5434
401.0088, 708.0477
401.4909, 692.7088
401.9731, 677.9988
402.4552, 661.7573
402.9373, 642.5563
403.4194, 624.1512
403.9015, 608.5546
404.3836, 596.5493
404.8658, 584.0947
405.3479, 570.9689
405.8300, 557.8456
406.3121, 545.2273
406.7942, 532.9034
407.2763, 522.5959
407.7585, 515.5759
408.2406, 511.0802
408.7227, 504.7862
409.2048, 496.5064
409.6869, 488.1823
410.1690, 480.8891
410.6512, 474.8957
411.1333, 471.5052
411.6154, 471.6396
412.0975, 473.2435
412.5796, 473.5956
413.0617, 472.7621
413.5439, 471.1033
414.0260, 467.2582
414.5081, 463.2974
414.9902, 462.6676
415.4723, 465.8521
415.9544, 469.7005
416.4366, 471.8749
416.9187, 473.0062
417.4008, 474.0329
417.8829, 474.4087
418.3650, 475.5644
418.8471, 478.6364
419.3293, 483.3706
419.8114, 488.4195
420.2935, 493.6595
420.7756, 498.7091
421.2577, 502.9563
421.7398, 505.0907
422.2220, 508.9356
422.7041, 516.3327
423.1862, 525.8493
423.6683, 534.9114
424.1504, 542.0255
424.6325, 549.9932
425.1147, 559.7117
425.5968, 571.5466
426.0789, 582.9414
426.5610, 593.6825
427.0431, 604.1859
427.5252, 614.5491
428.0074, 624.2763
428.4895, 634.9757
428.9716, 646.6095
429.4537, 659.2418
429.9358, 672.9269
430.4179, 687.5717
430.9001, 703.4037
431.3822, 720.8284
431.8643, 739.8771
432.3464, 757.9413
432.8285, 774.6198
433.3106, 791.5990
433.7928, 811.4747
434.2749, 833.9064
434.7570, 855.9656
435.2391, 876.3190
435.7212, 896.0921
436.2033, 918.0425
436.6855, 941.7635
437.1676, 965.0454
437.6497, 985.3738
438.1318, 1004.477
438.6139, 1024.814
439.0960, 1046.658
439.5782, 1070.217
440.0603, 1096.777
440.5424, 1125.195
441.0245, 1152.905
441.5066, 1179.071
441.9887, 1204.309
442.4709, 1229.165
442.9530, 1253.610
443.4351, 1276.779
443.9172, 1297.603
444.3993, 1317.285
444.8814, 1336.427
445.3636, 1356.259
445.8457, 1374.252
446.3278, 1389.632
446.8099, 1402.842
447.2920, 1415.426
447.7741, 1428.477
448.2563, 1439.882
448.7384, 1449.299
449.2205, 1457.159
449.7026, 1460.597
450.1847, 1458.880
450.6668, 1453.689
451.1490, 1446.585
451.6311, 1437.773
452.1132, 1426.055
452.5953, 1410.681
453.0774, 1392.667
453.5595, 1373.490
454.0417, 1352.936
454.5238, 1332.474
455.0059, 1313.768
455.4880, 1296.090
455.9701, 1273.909
456.4522, 1246.652
456.9344, 1218.277
457.4165, 1192.849
457.8986, 1169.598
458.3807, 1147.105
458.8628, 1124.180
459.3449, 1102.326
459.8271, 1083.002
460.3092, 1066.046
460.7913, 1050.363
461.2734, 1034.992
461.7555, 1020.869
462.2376, 1008.651
462.7198, 998.6336
463.2019, 990.1416
463.6840, 984.0638
464.1661, 979.0248
464.6482, 973.3599
465.1303, 962.9089
465.6125, 955.6492
466.0946, 955.3358
466.5767, 961.1337
467.0588, 965.1750
467.5409, 964.1451
468.0230, 963.6686
468.5052, 966.2867
468.9873, 973.1448
469.4694, 980.2612
469.9515, 987.4126
470.4336, 994.9958
470.9157, 1003.995
471.3979, 1015.025
471.8800, 1025.028
472.3621, 1032.259
472.8442, 1037.910
473.3263, 1048.952
473.8084, 1066.050
474.2906, 1083.374
474.7727, 1096.087
475.2548, 1105.188
475.7369, 1115.468
476.2190, 1127.479
476.7011, 1140.533
477.1833, 1154.627
477.6654, 1169.307
478.1475, 1183.342
478.6296, 1196.350
479.1117, 1208.379
479.5938, 1219.333
480.0760, 1229.320
480.5581, 1238.670
481.0402, 1248.218
481.5223, 1256.953
482.0044, 1264.169
482.4865, 1269.777
482.9687, 1273.573
483.4508, 1275.221
483.9329, 1275.083
484.4150, 1273.666
484.8971, 1271.994
485.3792, 1268.068
485.8614, 1260.830
486.3435, 1250.495
486.8256, 1239.916
487.3077, 1230.939
487.7898, 1219.709
488.2719, 1203.599
488.7541, 1181.227
489.2362, 1159.550
489.7183, 1138.994
490.2004, 1118.589
490.6825, 1096.670
491.1646, 1073.120
491.6468, 1048.164
492.1289, 1020.996
492.6110, 992.7954
493.0931, 965.3846
493.5752, 938.6481
494.0573, 912.4803
494.5395, 886.2715
495.0216, 860.4813
495.5037, 835.0529
495.9858, 810.2717
496.4679, 786.9186
496.9500, 767.0333
497.4322, 749.1312
497.9143, 731.1088
498.3964, 711.9009
498.8785, 692.5148
499.3606, 673.2261
499.8427, 654.0580
500.3249, 636.4318
500.8070, 621.3055
501.2891, 607.2365
501.7712, 593.5894
502.2533, 580.1512
502.7354, 567.6489
503.2176, 556.5175
503.6997, 546.2238
504.1818, 536.2722
504.6639, 526.7762
505.1460, 517.3740
505.6281, 507.9370
506.1103, 498.5229
506.5924, 489.8395
507.0745, 482.1043
507.5566, 474.3150
508.0387, 465.3377
508.5208, 455.3409
509.0030, 448.0293
509.4851, 443.6552
509.9672, 440.5585
510.4493, 437.3131
510.9314, 433.9363
511.4135, 430.4343
511.8957, 426.7641
512.3778, 423.1407
512.8599, 419.9770
513.3420, 417.1113
513.8242, 414.0716
514.3063, 410.5273
514.7884, 406.7279
515.2705, 402.4218
515.7526, 397.6001
516.2347, 394.1233
516.7169, 393.6380
517.1990, 394.2565
517.6811, 394.5446
518.1632, 393.8217
518.6453, 393.3506
519.1274, 393.6937
519.6096, 394.2749
520.0917, 393.8921
520.5738, 391.1799
521.0559, 389.8060
521.5380, 391.2024
522.0201, 395.1467
522.5023, 397.5884
522.9844, 398.1403
523.4665, 398.3133
523.9486, 399.1669
524.4307, 400.6758
524.9128, 402.1326
525.3950, 403.3530
525.8771, 404.9218
526.3592, 407.8619
526.8413, 411.8491
527.3234, 415.8343
527.8055, 419.4472
528.2877, 422.7903
528.7698, 425.9135
529.2519, 428.8470
529.7340, 431.8492
530.2161, 434.6741
530.6982, 437.8780
531.1804, 442.2101
531.6625, 447.9412
532.1446, 453.2013
532.6267, 456.5287
533.1088, 459.4915
533.5909, 463.4816
534.0731, 470.6489
534.5552, 476.4227
535.0373, 479.4276
535.5194, 480.9839
536.0015, 484.8659
536.4836, 492.5322
536.9658, 499.4626
537.4479, 503.7452
537.9300, 505.5108
538.4121, 508.1986
538.8942, 511.9212
539.3763, 516.0170
539.8585, 520.1947
540.3406, 524.3451
540.8227, 527.7590
541.3048, 530.2703
541.7869, 532.4182
542.2690, 534.8679
542.7512, 537.4944
543.2333, 539.9944
543.7154, 542.6920
544.1975, 544.8381
544.6796, 545.9973
545.1617, 546.1429
545.6439, 545.0890
546.1260, 541.7656
546.6081, 537.9808
547.0902, 534.7196
547.5723, 532.1677
548.0544, 529.9711
548.5366, 528.6853
549.0187, 527.3702
549.5008, 525.2166
549.9829, 522.0620
550.4650, 518.3826
550.9471, 514.2685
551.4293, 509.6368
551.9114, 504.0218
552.3935, 497.2204
552.8756, 490.3798
553.3577, 483.5794
553.8398, 477.0943
554.3220, 472.8034
554.8041, 470.7754
555.2862, 468.3819
555.7683, 462.9931
556.2504, 455.8530
556.7325, 449.1770
557.2147, 443.1800
557.6968, 438.0912
558.1789, 434.5001
558.6610, 431.8284
559.1431, 429.2587
559.6252, 427.7371
560.1074, 424.9971
560.5895, 418.7330
561.0716, 410.2543
561.5537, 404.0668
562.0358, 403.5550
562.5179, 402.9955
563.0001, 400.3139
563.4822, 395.3239
563.9643, 390.3666
564.4464, 385.2800
564.9285, 380.4509
565.4106, 376.1097
565.8928, 372.2602
566.3749, 368.8021
566.8570, 365.6955
567.3391, 362.9721
567.8212, 360.8985
568.3033, 359.3458
568.7855, 357.5397
569.2676, 355.3701
569.7497, 352.6254
570.2318, 348.3750
570.7139, 343.0714
571.1960, 338.3420
571.6782, 335.8587
572.1603, 333.9230
572.6424, 331.2993
573.1245, 327.8437
573.6066, 323.8875
574.0887, 318.8148
574.5709, 313.7013
575.0530, 309.3380
575.5351, 306.1298
576.0172, 303.2133
576.4993, 300.9687
576.9814, 298.8046
577.4636, 295.6465
577.9457, 290.8807
578.4278, 286.8147
578.9099, 284.3217
579.3920, 282.8997
579.8741, 280.5161
580.3563, 277.1051
580.8384, 273.7475
581.3205, 271.2164
581.8026, 269.2084
582.2847, 266.8946
582.7668, 264.2303
583.2490, 261.7260
583.7311, 260.1387
584.2132, 258.8511
584.6953, 256.9308
585.1774, 253.7899
585.6595, 250.9172
586.1416, 249.2748
