##NAMES=Phosphophyllite
##RRUFFID=R050224
##IDEAL CHEMISTRY=Zn^2+^_2_Fe^2+^(P^5+^O_4_)_2_&#183;4H_2_O
##LOCALITY=Unificada mine, Cerro Rico, Potosi, Bolivia
##OWNER=RRUFF
##SOURCE=Marcus Origlieri
##DESCRIPTION=Pale blue single crystal fragments
##STATUS=The identification of this mineral has been confirmed by X-ray diffraction and chemical analysis
##URL=rruff.info/R050224
##MEASURED CHEMISTRY=Zn_2.00_Fe^2+^_1.00_(P_1.00_O_4_)_2_Â·4H_2_O
108.2096, 156.8493
108.6917, 163.9724
109.1738, 171.2838
109.6559, 178.6622
110.1381, 187.4558
110.6202, 197.3757
111.1023, 208.9050
111.5844, 222.5463
112.0665, 238.5236
112.5486, 256.5808
113.0308, 276.8534
113.5129, 299.8530
113.9950, 324.0427
114.4771, 349.6894
114.9592, 376.2259
115.4413, 403.1852
115.9235, 432.7464
116.4056, 460.8904
116.8877, 485.6336
117.3698, 507.6257
117.8519, 525.2885
118.3340, 538.0968
118.8162, 546.1951
119.2983, 549.9283
119.7804, 548.0800
120.2625, 542.6476
120.7446, 535.1598
121.2267, 525.6478
121.7089, 514.5600
122.1910, 501.6074
122.6731, 487.0782
123.1552, 472.2616
123.6373, 457.6178
124.1194, 443.2872
124.6016, 429.1421
125.0837, 414.9247
125.5658, 401.4059
126.0479, 389.1422
126.5300, 378.1649
127.0121, 368.9961
127.4943, 362.5163
127.9764, 358.2343
128.4585, 354.8523
128.9406, 351.9310
129.4227, 349.6258
129.9048, 348.3250
130.3869, 348.0610
130.8691, 348.4802
131.3512, 349.4459
131.8333, 350.8738
132.3154, 352.2667
132.7975, 353.3139
133.2796, 354.1186
133.7618, 355.1894
134.2439, 355.8777
134.7260, 354.7933
135.2081, 352.1313
135.6902, 348.7170
136.1723, 345.3781
136.6545, 342.3912
137.1366, 339.7640
137.6187, 337.7576
138.1008, 336.4924
138.5829, 335.6560
139.0650, 334.6529
139.5472, 333.5131
140.0293, 332.0993
140.5114, 330.0971
140.9935, 327.1931
141.4756, 325.2433
141.9577, 324.6216
142.4399, 324.9045
142.9220, 324.5135
143.4041, 323.0952
143.8862, 321.6413
144.3683, 320.9123
144.8504, 321.6618
145.3326, 321.3188
145.8147, 319.3148
146.2968, 315.8568
146.7789, 312.9352
147.2610, 311.0057
147.7431, 309.1186
148.2253, 306.5537
148.7074, 302.9338
149.1895, 299.1942
149.6716, 295.3926
150.1537, 291.5150
150.6358, 287.9521
151.1180, 285.0652
151.6001, 282.3039
152.0822, 279.2486
152.5643, 274.6844
153.0464, 271.0854
153.5285, 269.1158
154.0107, 269.0105
154.4928, 268.7551
154.9749, 268.0275
155.4570, 267.1822
155.9391, 266.5695
156.4212, 266.0147
156.9034, 265.8849
157.3855, 266.4703
157.8676, 267.9731
158.3497, 269.1257
158.8318, 269.4345
159.3139, 269.3358
159.7961, 269.3876
160.2782, 269.9997
160.7603, 270.5629
161.2424, 270.6955
161.7245, 270.1475
162.2066, 269.9829
162.6888, 270.6165
163.1709, 271.8492
163.6530, 273.3621
164.1351, 275.3358
164.6172, 277.3444
165.0993, 279.0464
165.5815, 280.2056
166.0636, 281.6355
166.5457, 283.8621
167.0278, 286.6591
167.5099, 289.5566
167.9920, 292.0742
168.4742, 294.7514
168.9563, 298.0452
169.4384, 302.1619
169.9205, 306.6549
170.4026, 311.2855
170.8847, 316.0750
171.3669, 321.0250
171.8490, 325.9667
172.3311, 331.1431
172.8132, 336.8481
173.2953, 343.2962
173.7774, 350.0541
174.2596, 357.0632
174.7417, 364.1898
175.2238, 370.8302
175.7059, 375.5124
176.1880, 379.6771
176.6701, 385.5070
177.1523, 394.2082
177.6344, 403.7509
178.1165, 411.9211
178.5986, 418.9195
179.0807, 425.4769
179.5628, 432.6461
180.0450, 439.8059
180.5271, 445.6024
181.0092, 449.6932
181.4913, 452.4019
181.9734, 453.9353
182.4555, 454.3389
182.9377, 454.1397
183.4198, 453.9218
183.9019, 453.4614
184.3840, 452.0855
184.8661, 449.4759
185.3482, 445.9801
185.8304, 441.8160
186.3125, 436.9969
186.7946, 432.5057
187.2767, 429.2903
187.7588, 427.1558
188.2409, 425.3964
188.7231, 423.9232
189.2052, 422.6220
189.6873, 420.7788
190.1694, 418.2573
190.6515, 416.6183
191.1336, 417.5951
191.6158, 420.9827
192.0979, 424.9930
192.5800, 429.2060
193.0621, 433.6872
193.5442, 438.6257
194.0263, 444.0270
194.5085, 450.1546
194.9906, 457.5946
195.4727, 466.2909
195.9548, 474.6985
196.4369, 482.3582
196.9190, 489.3364
197.4012, 496.1246
197.8833, 502.8649
198.3654, 508.8324
198.8475, 513.2863
199.3296, 516.2831
199.8117, 517.4115
200.2939, 516.5920
200.7760, 513.8436
201.2581, 509.0143
201.7402, 502.0025
202.2223, 493.2400
202.7044, 482.8898
203.1866, 470.9060
203.6687, 458.4057
204.1508, 445.6144
204.6329, 432.5453
205.1150, 419.1592
205.5971, 405.0530
206.0793, 391.4926
206.5614, 380.0103
207.0435, 370.9496
207.5256, 362.7469
208.0077, 355.0012
208.4898, 347.7158
208.9720, 341.2126
209.4541, 335.4661
209.9362, 330.5350
210.4183, 326.5047
210.9004, 323.4493
211.3825, 321.1230
211.8647, 319.4429
212.3468, 318.4071
212.8289, 318.1550
213.3110, 318.8385
213.7931, 320.0931
214.2752, 321.4100
214.7574, 322.6249
215.2395, 324.4589
215.7216, 327.3414
216.2037, 331.3047
216.6858, 334.7010
217.1679, 337.4524
217.6500, 339.7508
218.1322, 341.7289
218.6143, 343.2639
219.0964, 344.8471
219.5785, 346.6832
220.0606, 348.8287
220.5427, 350.3606
221.0249, 351.1779
221.5070, 351.4732
221.9891, 351.3590
222.4712, 350.5498
222.9533, 349.9971
223.4354, 350.1485
223.9176, 351.0988
224.3997, 351.1165
224.8818, 350.1202
225.3639, 348.2912
225.8460, 345.7306
226.3281, 342.2466
226.8103, 338.4765
227.2924, 334.6529
227.7745, 330.7422
228.2566, 326.4687
228.7387, 321.7699
229.2208, 316.7765
229.7030, 311.6960
230.1851, 306.4545
230.6672, 301.1434
231.1493, 295.6526
231.6314, 289.9548
232.1135, 284.8312
232.5957, 280.4179
233.0778, 276.4320
233.5599, 272.6778
234.0420, 269.2328
234.5241, 265.8597
235.0062, 262.3597
235.4884, 258.7571
235.9705, 256.1165
236.4526, 254.9360
236.9347, 254.1654
237.4168, 252.7770
237.8989, 250.2759
238.3811, 248.1164
238.8632, 246.5079
239.3453, 245.4456
239.8274, 244.9749
240.3095, 245.4110
240.7916, 246.0762
241.2738, 246.3569
241.7559, 245.8985
242.2380, 245.7713
242.7201, 246.2229
243.2022, 247.2213
243.6843, 248.0870
244.1665, 248.5638
244.6486, 249.2230
245.1307, 250.5490
245.6128, 252.8623
246.0949, 255.1880
246.5770, 257.3074
247.0592, 259.2860
247.5413, 261.7950
248.0234, 265.0897
248.5055, 268.5672
248.9876, 271.7718
249.4697, 274.6498
249.9519, 277.3606
250.4340, 279.6005
250.9161, 281.5977
251.3982, 284.8786
251.8803, 290.0461
252.3624, 295.6045
252.8446, 300.4902
253.3267, 304.2652
253.8088, 308.4880
254.2909, 313.3835
254.7730, 318.8368
255.2551, 324.2500
255.7373, 329.5161
256.2194, 334.9052
256.7015, 340.4762
257.1836, 346.2211
257.6657, 352.3028
258.1478, 358.9686
258.6299, 365.9018
259.1121, 372.3183
259.5942, 378.1592
260.0763, 383.6341
260.5584, 388.9722
261.0405, 394.1854
261.5226, 399.0849
262.0048, 403.7350
262.4869, 408.0250
262.9690, 411.7121
263.4511, 414.4789
263.9332, 417.2757
264.4153, 420.7313
264.8975, 425.3932
265.3796, 428.5684
265.8617, 429.8945
266.3438, 430.0750
266.8259, 430.4937
267.3080, 431.3906
267.7902, 431.8603
268.2723, 431.3612
268.7544, 429.6733
269.2365, 428.6830
269.7186, 428.7490
270.2007, 429.0575
270.6829, 428.3425
271.1650, 426.4427
271.6471, 424.1133
272.1292, 421.5822
272.6113, 418.8486
273.0934, 415.9953
273.5756, 412.9362
274.0577, 409.9569
274.5398, 407.4571
275.0219, 405.5638
275.5040, 403.5961
275.9861, 401.4874
276.4683, 399.1974
276.9504, 395.9904
277.4325, 391.5461
277.9146, 387.0167
278.3967, 383.7119
278.8788, 381.7563
279.3610, 379.8715
279.8431, 377.5880
280.3252, 375.1449
280.8073, 373.9072
281.2894, 374.1274
281.7715, 374.5136
282.2537, 373.8310
282.7358, 372.0567
283.2179, 370.3102
283.7000, 368.7519
284.1821, 367.3925
284.6642, 366.1584
285.1464, 364.9865
285.6285, 364.4043
286.1106, 365.1512
286.5927, 367.1101
287.0748, 368.5365
287.5569, 368.9597
288.0391, 369.0212
288.5212, 370.2068
289.0033, 372.5295
289.4854, 375.0420
289.9675, 377.1231
290.4496, 378.8611
290.9318, 380.6233
291.4139, 382.3610
291.8960, 384.3801
292.3781, 387.2958
292.8602, 391.0649
293.3423, 394.9212
293.8245, 398.3671
294.3066, 401.5927
294.7887, 405.2759
295.2708, 409.4725
295.7529, 413.8705
296.2350, 418.0736
296.7172, 422.1107
297.1993, 426.1913
297.6814, 430.3079
298.1635, 434.5955
298.6456, 439.2787
299.1277, 444.3861
299.6099, 449.8471
300.0920, 455.2387
300.5741, 460.8439
301.0562, 467.1889
301.5383, 474.6584
302.0204, 482.9654
302.5026, 491.8389
302.9847, 501.3241
303.4668, 510.6528
303.9489, 518.9244
304.4310, 526.6779
304.9131, 535.2120
305.3953, 544.8091
305.8774, 555.3354
306.3595, 566.6154
306.8416, 578.5712
307.3237, 591.1671
307.8058, 604.0541
308.2880, 617.5587
308.7701, 632.1834
309.2522, 648.7072
309.7343, 665.4196
310.2164, 680.6889
310.6985, 695.1183
311.1807, 709.9736
311.6628, 725.9493
312.1449, 742.7852
312.6270, 759.7357
313.1091, 776.5658
313.5912, 794.2864
314.0734, 814.1920
314.5555, 835.4515
315.0376, 856.7059
315.5197, 876.7347
316.0018, 897.1367
316.4839, 918.8011
316.9661, 942.1298
317.4482, 964.8530
317.9303, 986.2571
318.4124, 1006.338
318.8945, 1025.368
319.3766, 1043.150
319.8588, 1060.006
320.3409, 1076.360
320.8230, 1092.271
321.3051, 1105.858
321.7872, 1117.499
322.2693, 1126.156
322.7515, 1131.016
323.2336, 1130.521
323.7157, 1127.739
324.1978, 1123.782
324.6799, 1118.323
325.1620, 1109.268
325.6442, 1095.662
326.1263, 1078.819
326.6084, 1059.361
327.0905, 1036.620
327.5726, 1012.224
328.0547, 985.8782
328.5369, 958.0236
329.0190, 929.0223
329.5011, 898.2521
329.9832, 867.2702
330.4653, 836.4733
330.9474, 805.4706
331.4296, 775.7104
331.9117, 747.4226
332.3938, 720.2474
332.8759, 693.5630
333.3580, 666.7655
333.8401, 640.9761
334.3223, 616.6588
334.8044, 593.6992
335.2865, 572.1031
335.7686, 552.3673
336.2507, 533.6294
336.7328, 515.2997
337.2150, 496.8927
337.6971, 479.7675
338.1792, 464.0689
338.6613, 449.8205
339.1434, 436.3635
339.6255, 423.7156
340.1077, 411.7423
340.5898, 400.0646
341.0719, 388.8123
341.5540, 378.4220
342.0361, 369.1723
342.5182, 360.7150
343.0003, 352.2679
343.4825, 343.8510
343.9646, 335.8103
344.4467, 328.4450
344.9288, 321.8095
345.4109, 315.3509
345.8930, 309.1097
346.3752, 303.0453
346.8573, 297.2039
347.3394, 291.5432
347.8215, 286.1566
348.3036, 281.1010
348.7857, 276.3391
349.2679, 271.7213
349.7500, 267.2592
350.2321, 263.0827
350.7142, 259.5806
351.1963, 256.5524
351.6784, 253.3286
352.1606, 249.6224
352.6427, 245.7718
353.1248, 242.1875
353.6069, 238.8178
354.0890, 235.5439
354.5711, 232.2912
355.0533, 229.0850
355.5354, 225.9040
356.0175, 222.7308
356.4996, 219.6640
356.9817, 216.7184
357.4638, 213.9123
357.9460, 211.2878
358.4281, 209.1164
358.9102, 206.9737
359.3923, 204.4430
359.8744, 201.4295
360.3565, 198.5585
360.8387, 196.2660
361.3208, 194.3174
361.8029, 192.4367
362.2850, 190.7096
362.7671, 188.8598
363.2492, 186.6786
363.7314, 184.1941
364.2135, 181.7818
364.6956, 179.4661
365.1777, 177.3501
365.6598, 175.5224
366.1419, 174.3793
366.6241, 173.0543
367.1062, 171.3409
367.5883, 169.3328
368.0704, 167.3200
368.5525, 165.0294
369.0346, 163.0058
369.5168, 161.5030
369.9989, 160.8452
370.4810, 159.9559
370.9631, 158.6789
371.4452, 157.2330
371.9273, 155.9149
372.4095, 154.8734
372.8916, 153.7578
373.3737, 152.4538
373.8558, 150.9470
374.3379, 149.5251
374.8200, 148.1583
375.3022, 146.8964
375.7843, 145.7598
376.2664, 144.6705
376.7485, 143.9881
377.2306, 143.9570
377.7127, 144.2789
378.1949, 143.8688
378.6770, 142.5688
379.1591, 141.1909
379.6412, 140.1502
380.1233, 139.4381
380.6054, 139.0683
381.0876, 139.1281
381.5697, 139.3061
382.0518, 139.1430
382.5339, 138.6537
383.0160, 138.0653
383.4981, 137.4138
383.9803, 136.7400
384.4624, 136.1254
384.9445, 135.5648
385.4266, 135.2298
385.9087, 135.3964
386.3908, 135.9118
386.8730, 136.3876
387.3551, 136.7408
387.8372, 137.0029
388.3193, 137.2242
388.8014, 137.3954
389.2835, 137.4740
389.7657, 137.1250
390.2478, 136.8163
390.7299, 137.1216
391.2120, 138.1975
391.6941, 139.4901
392.1762, 140.8253
392.6584, 142.0777
393.1405, 143.0726
393.6226, 143.4039
394.1047, 143.7406
394.5868, 144.4439
395.0689, 145.5172
395.5511, 146.6705
396.0332, 147.8489
396.5153, 149.0370
396.9974, 150.2204
397.4795, 151.0439
397.9616, 152.2727
398.4438, 154.2026
398.9259, 156.6634
399.4080, 159.1218
399.8901, 161.7142
400.3722, 164.1361
400.8543, 166.1623
401.3365, 167.4765
401.8186, 169.3630
402.3007, 172.1374
402.7828, 175.2898
403.2649, 178.2006
403.7470, 180.7693
404.2292, 183.2788
404.7113, 185.6604
405.1934, 187.9669
405.6755, 190.7682
406.1576, 194.1729
406.6397, 197.7663
407.1219, 201.2493
407.6040, 204.6059
408.0861, 207.9989
408.5682, 211.4704
409.0503, 214.9662
409.5324, 218.6214
410.0146, 222.4487
410.4967, 226.0311
410.9788, 228.9245
411.4609, 231.3444
411.9430, 234.6179
412.4251, 238.9133
412.9073, 242.8176
413.3894, 244.7890
413.8715, 245.2810
414.3536, 245.6338
414.8357, 246.4323
415.3178, 247.0494
415.8000, 246.6029
416.2821, 245.2146
416.7642, 243.4859
417.2463, 242.2505
417.7284, 240.6442
418.2105, 237.6843
418.6927, 233.0253
419.1748, 227.7827
419.6569, 222.3027
420.1390, 216.6696
420.6211, 211.1729
421.1032, 205.9257
421.5854, 200.6912
422.0675, 195.3737
422.5496, 189.9302
423.0317, 184.5082
423.5138, 178.6909
423.9959, 173.1571
424.4781, 168.2574
424.9602, 164.5648
425.4423, 160.9721
425.9244, 157.4747
426.4065, 154.0060
426.8886, 150.3937
427.3708, 146.3078
427.8529, 142.4311
428.3350, 138.9541
428.8171, 135.8896
429.2992, 133.1413
429.7813, 130.7384
430.2635, 128.6214
430.7456, 126.7568
431.2277, 125.2219
431.7098, 123.6552
432.1919, 121.9873
432.6740, 120.2499
433.1562, 118.5068
433.6383, 116.7418
434.1204, 115.0972
434.6025, 113.6468
435.0846, 112.3864
435.5667, 111.3630
436.0489, 110.6155
436.5310, 109.8728
437.0131, 108.7725
437.4952, 107.3945
437.9773, 106.0091
438.4594, 104.5526
438.9416, 103.2699
439.4236, 102.6557
439.9058, 102.6164
440.3879, 102.5136
440.8700, 101.7930
441.3521, 100.8522
441.8342, 100.1431
442.3163, 99.83404
442.7985, 99.49790
443.2806, 98.75916
443.7627, 97.85564
444.2448, 97.15232
444.7269, 97.02977
445.2090, 96.90483
445.6912, 96.48134
446.1733, 95.74912
446.6554, 95.17194
447.1375, 94.98779
447.6196, 94.89378
448.1017, 94.70020
448.5839, 94.22897
449.0660, 93.88577
449.5481, 93.76828
450.0302, 93.75849
450.5123, 93.58615
450.9944, 93.11877
451.4766, 92.73843
451.9587, 92.64246
452.4408, 92.85756
452.9229, 92.63271
453.4050, 91.77032
453.8871, 90.92455
454.3693, 90.81419
454.8514, 91.48495
455.3335, 91.89854
455.8156, 91.86714
456.2977, 91.53825
456.7798, 91.11481
457.2620, 90.60915
457.7441, 90.24011
458.2262, 90.17258
458.7083, 90.31308
459.1904, 90.48064
459.6725, 90.67078
460.1547, 90.84877
460.6368, 91.06066
461.1189, 91.22520
461.6010, 91.18851
462.0831, 90.77569
462.5652, 90.33376
463.0474, 90.07774
463.5295, 89.99158
464.0116, 90.03880
464.4937, 90.34047
464.9758, 90.66323
465.4579, 90.87077
465.9401, 90.93495
466.4222, 90.96666
466.9043, 91.02354
467.3864, 91.04479
467.8685, 90.97312
468.3506, 90.47696
468.8328, 90.28363
469.3149, 90.63283
469.7970, 91.35606
470.2791, 91.81172
470.7612, 91.84612
471.2433, 91.84050
471.7255, 91.96136
472.2076, 92.23958
472.6897, 92.43090
473.1718, 92.48769
473.6539, 92.55553
474.1360, 92.88540
474.6182, 93.49786
475.1003, 93.84114
475.5824, 93.66902
476.0645, 93.28055
476.5466, 93.41827
477.0287, 94.04771
477.5109, 94.74089
477.9930, 95.20998
478.4751, 95.56307
478.9572, 96.02179
479.4393, 96.60763
479.9214, 97.21252
480.4036, 97.74739
480.8857, 98.23402
481.3678, 98.69606
481.8499, 99.06628
482.3320, 99.50504
482.8141, 100.1838
483.2963, 101.0233
483.7784, 101.7676
484.2605, 102.2272
484.7426, 102.6368
485.2247, 103.1127
485.7068, 103.6766
486.1890, 104.2483
486.6711, 104.7624
487.1532, 105.3114
487.6353, 105.9786
488.1174, 106.6868
488.5995, 107.6291
489.0817, 108.9921
489.5638, 110.5764
490.0459, 111.6870
490.5280, 112.0838
491.0101, 112.6102
491.4922, 113.7340
491.9744, 115.4774
492.4565, 116.8199
492.9386, 117.6807
493.4207, 118.5233
493.9028, 120.0252
494.3849, 122.0439
494.8671, 123.4932
495.3492, 123.9222
495.8313, 124.0886
496.3134, 125.3642
496.7955, 127.4425
497.2776, 129.1964
497.7598, 129.7245
498.2419, 129.7612
498.7240, 130.0403
499.2061, 130.6030
499.6882, 131.1865
500.1703, 131.6755
500.6525, 132.0957
501.1346, 132.4668
501.6167, 132.7801
502.0988, 133.0731
502.5809, 133.5479
503.0630, 133.9972
503.5452, 133.9796
504.0273, 133.0435
504.5094, 132.0219
504.9915, 130.9896
505.4736, 129.9275
505.9557, 129.4731
506.4379, 130.0365
506.9200, 130.6532
507.4021, 130.6575
507.8842, 129.9640
508.3663, 128.9672
508.8484, 127.5450
509.3306, 126.0709
509.8127, 125.2708
510.2948, 125.1339
510.7769, 124.9275
511.2590, 124.3203
511.7411, 123.4969
512.2233, 122.9274
512.7054, 122.5896
513.1875, 122.2556
513.6696, 121.8166
514.1517, 121.2605
514.6339, 120.5665
515.1160, 119.7233
515.5981, 118.7621
516.0802, 117.4974
516.5623, 116.1760
517.0444, 115.1287
517.5266, 114.6289
518.0087, 114.2514
518.4908, 113.9998
518.9729, 113.7916
519.4550, 113.2688
519.9371, 111.9793
520.4193, 110.7173
520.9014, 109.8270
521.3835, 109.4164
521.8656, 108.8870
522.3477, 108.1606
522.8298, 107.4026
523.3120, 106.7515
523.7941, 106.2110
524.2762, 105.8197
524.7583, 105.6010
525.2404, 105.5168
525.7225, 105.5451
526.2047, 105.6852
526.6868, 105.7123
527.1689, 105.5229
527.6510, 105.1413
528.1331, 104.4873
528.6152, 103.5696
529.0974, 102.8838
529.5795, 103.0251
530.0616, 103.5623
530.5437, 103.8556
531.0258, 103.6806
531.5079, 103.5472
531.9901, 103.8715
532.4722, 104.4215
532.9543, 104.8330
533.4364, 104.9528
533.9185, 104.9573
534.4006, 104.8805
534.8828, 104.7286
535.3649, 104.5381
535.8470, 104.1356
536.3291, 103.8692
536.8112, 103.8927
537.2933, 104.2530
537.7755, 104.7345
538.2576, 105.4086
538.7397, 106.0961
539.2218, 106.5547
539.7039, 106.7487
540.1860, 107.0454
540.6682, 107.5775
541.1503, 108.1524
541.6324, 108.2062
542.1145, 107.8157
542.5966, 107.7390
543.0787, 108.6662
543.5609, 110.0422
544.0430, 110.9723
544.5251, 111.4592
545.0072, 111.7945
545.4893, 112.0115
545.9714, 112.2625
546.4536, 112.7196
546.9357, 113.4724
547.4178, 114.2886
547.8999, 115.1540
548.3820, 116.0026
548.8641, 116.7426
549.3463, 117.0475
549.8284, 117.5886
550.3105, 118.6356
550.7926, 120.0735
551.2747, 121.2507
551.7568, 122.0104
552.2390, 122.7973
552.7211, 123.8110
553.2032, 125.0667
553.6853, 126.3872
554.1674, 127.8035
554.6495, 129.1887
555.1317, 130.3736
555.6138, 131.3757
556.0959, 132.4497
556.5780, 133.6073
557.0601, 134.9354
557.5422, 136.6560
558.0244, 138.6609
558.5065, 140.6399
558.9886, 142.3846
559.4707, 144.0725
559.9528, 145.6785
560.4349, 147.2748
560.9171, 149.2489
561.3992, 152.1667
561.8813, 155.2415
562.3634, 157.9155
562.8455, 159.9849
563.3276, 162.1783
563.8098, 164.3651
564.2919, 166.8499
564.7740, 170.0185
565.2561, 174.5352
565.7382, 178.3565
566.2203, 181.0188
566.7025, 183.0756
567.1846, 185.8404
567.6667, 189.4151
568.1488, 193.1408
568.6309, 196.6988
569.1130, 200.2096
569.5952, 204.1342
570.0773, 208.5130
570.5594, 212.5696
571.0415, 215.5779
571.5236, 218.0382
572.0057, 220.7381
572.4879, 223.8390
572.9700, 226.9526
573.4521, 229.7698
573.9342, 232.4646
574.4163, 235.2099
574.8984, 238.5042
575.3806, 241.3343
575.8627, 243.0956
576.3448, 244.1744
576.8269, 245.6641
577.3090, 247.9985
577.7911, 250.3597
578.2733, 252.4909
578.7554, 254.3783
579.2375, 256.7647
579.7196, 259.8140
580.2017, 262.9520
580.6838, 265.6846
581.1660, 268.0094
581.6481, 270.6452
582.1302, 273.6335
582.6123, 276.8591
583.0944, 280.4222
583.5765, 284.0948
584.0587, 287.1526
584.5408, 289.0175
585.0229, 290.7950
585.5050, 293.9901
585.9871, 297.9928
586.4692, 301.2615
586.9514, 302.5737
587.4335, 303.5189
587.9155, 304.9140
588.3976, 306.7583
588.8798, 308.3917
589.3619, 309.7739
589.8440, 310.8299
590.3261, 311.4902
590.8082, 311.6160
591.2903, 311.8336
591.7725, 312.3547
592.2546, 312.6697
592.7367, 312.1143
593.2188, 310.5860
593.7009, 309.2306
594.1830, 308.3170
594.6652, 307.4690
595.1473, 306.0208
595.6294, 304.0242
596.1115, 301.7389
596.5936, 299.2442
597.0757, 296.5532
597.5579, 293.6357
598.0400, 290.5540
598.5221, 287.3451
599.0042, 284.1844
599.4863, 280.8089
599.9684, 276.8994
600.4506, 272.3403
600.9327, 268.0494
601.4148, 264.4434
601.8969, 261.0463
602.3790, 257.4926
602.8611, 253.7330
603.3433, 249.8328
603.8254, 245.7542
