##NAMES=Phosphohedyphane
##RRUFFID=R110037
##IDEAL CHEMISTRY=Ca_2_Pb^2+^_3_(PO_4_)_3_Cl
##LOCALITY=Blue Bell claims, Baker, San Bernardino County, California, USA
##OWNER=RRUFF
##SOURCE=Brent Thorne
##DESCRIPTION=Colorless hexagonal prisms with long pyramidal terminations
##STATUS=The identification of this mineral has been confirmed only by single crystal X-ray diffraction.
##URL=rruff.info/R110037
179.2017, 728.8220
179.6838, 730.4688
180.1659, 732.4070
180.6480, 734.6990
181.1301, 737.1852
181.6122, 739.9009
182.0944, 742.7771
182.5765, 745.4794
183.0586, 747.7734
183.5407, 749.8265
184.0228, 752.2353
184.5049, 755.0753
184.9871, 757.7576
185.4692, 759.0339
185.9513, 759.2405
186.4334, 760.1793
186.9155, 763.6207
187.3976, 768.5482
187.8798, 771.2979
188.3619, 771.3666
188.8440, 770.6727
189.3261, 771.9687
189.8082, 775.1210
190.2903, 778.3784
190.7725, 780.8370
191.2546, 782.6475
191.7367, 784.3824
192.2188, 785.9872
192.7009, 787.7457
193.1830, 790.5692
193.6652, 794.4639
194.1473, 797.4865
194.6294, 797.8895
195.1115, 795.9471
195.5936, 795.2557
196.0757, 796.1504
196.5579, 798.1147
197.0400, 800.6895
197.5221, 804.0323
198.0042, 806.3808
198.4863, 806.5525
198.9684, 804.5321
199.4506, 801.9269
199.9327, 798.4222
200.4148, 794.9605
200.8969, 794.1612
201.3790, 796.5498
201.8611, 798.7542
202.3433, 798.7036
202.8254, 796.2337
203.3075, 793.5550
203.7896, 790.7801
204.2717, 787.9571
204.7538, 785.1630
205.2360, 782.3049
205.7181, 779.7514
206.2002, 778.0816
206.6823, 777.6277
207.1644, 775.5825
207.6465, 770.9605
208.1287, 765.0125
208.6108, 761.7017
209.0929, 761.8796
209.5750, 762.3069
210.0571, 760.6767
210.5392, 756.2751
211.0214, 753.3353
211.5035, 752.9083
211.9856, 753.9824
212.4677, 752.7269
212.9498, 748.2451
213.4319, 743.4866
213.9140, 740.2184
214.3962, 738.7722
214.8783, 737.7523
215.3604, 737.4011
215.8425, 737.3528
216.3246, 735.9472
216.8067, 732.4660
217.2889, 728.9765
217.7710, 726.8995
218.2531, 726.9489
218.7352, 726.1546
219.2173, 723.8135
219.6994, 720.3903
220.1816, 718.4330
220.6637, 718.8237
221.1458, 719.0637
221.6279, 717.3365
222.1100, 712.4572
222.5921, 708.7214
223.0743, 706.6945
223.5564, 706.0789
224.0385, 705.5128
224.5206, 705.3416
225.0027, 704.7360
225.4848, 703.0126
225.9670, 699.4304
226.4491, 696.6334
226.9312, 695.0762
227.4133, 694.4910
227.8954, 693.4766
228.3775, 691.8887
228.8597, 690.1251
229.3418, 688.3994
229.8239, 686.6093
230.3060, 685.0911
230.7881, 683.9382
231.2702, 683.0682
231.7524, 682.1494
232.2345, 681.0281
232.7166, 680.0523
233.1987, 679.4811
233.6808, 679.5832
234.1629, 679.4518
234.6451, 678.9571
235.1272, 678.1680
235.6093, 677.3651
236.0914, 676.4007
236.5735, 675.6251
237.0556, 675.3054
237.5378, 675.8353
238.0199, 675.9765
238.5020, 675.5481
238.9841, 674.6995
239.4662, 674.0645
239.9483, 673.9841
240.4305, 673.6941
240.9126, 672.7599
241.3947, 670.9095
241.8768, 668.9988
242.3589, 666.7469
242.8410, 664.4874
243.3232, 663.5162
243.8053, 664.7610
244.2874, 666.0157
244.7695, 666.0909
245.2516, 664.3183
245.7337, 662.8137
246.2159, 661.6113
246.6980, 660.6957
247.1801, 660.1238
247.6622, 660.2040
248.1443, 660.1279
248.6264, 659.3270
249.1086, 656.8980
249.5907, 656.0019
250.0728, 657.4969
250.5549, 660.3323
251.0370, 661.6115
251.5191, 660.5320
252.0013, 659.1969
252.4834, 658.5515
252.9655, 658.9542
253.4476, 659.1681
253.9297, 659.2042
254.4118, 659.0591
254.8940, 658.6935
255.3761, 658.0076
255.8582, 657.2664
256.3403, 656.4629
256.8224, 655.3217
257.3046, 655.0768
257.7867, 656.1668
258.2688, 657.8524
258.7509, 658.6829
259.2330, 658.3854
259.7151, 657.7521
260.1973, 657.0687
260.6794, 656.3920
261.1615, 655.4108
261.6436, 653.9486
262.1257, 652.3544
262.6078, 651.3154
263.0900, 651.1793
263.5721, 650.8144
264.0542, 649.6428
264.5363, 647.3931
265.0184, 646.2492
265.5005, 646.5607
265.9827, 647.5631
266.4648, 648.2115
266.9469, 648.4717
267.4290, 648.4634
267.9111, 648.1237
268.3932, 647.4139
268.8754, 646.9856
269.3575, 646.9338
269.8396, 646.9889
270.3217, 646.8215
270.8038, 646.3983
271.2859, 645.7932
271.7681, 644.7969
272.2502, 643.4463
272.7323, 643.2987
273.2144, 644.8397
273.6965, 646.5921
274.1786, 646.7105
274.6608, 644.7901
275.1429, 643.4835
275.6250, 643.6656
276.1071, 645.0818
276.5892, 645.7965
277.0714, 645.7090
277.5535, 645.1775
278.0356, 644.3480
278.5177, 643.1494
278.9998, 642.4264
279.4819, 642.6309
279.9641, 643.3815
280.4462, 642.7030
280.9283, 640.2236
281.4104, 637.8934
281.8925, 637.6786
282.3746, 639.6219
282.8568, 640.7712
283.3389, 640.5408
283.8210, 639.3229
284.3031, 638.1472
284.7852, 637.0416
285.2673, 635.8460
285.7495, 634.1952
286.2316, 632.1789
286.7137, 630.9724
287.1958, 630.9459
287.6779, 631.4843
288.1600, 631.1767
288.6422, 630.0036
289.1243, 629.0232
289.6064, 629.0762
290.0885, 629.9524
290.5706, 630.5673
291.0527, 630.7354
291.5349, 630.7828
292.0170, 631.5837
292.4991, 632.9996
292.9812, 633.6584
293.4633, 632.1790
293.9454, 629.2888
294.4276, 627.3231
294.9097, 626.4891
295.3918, 626.3015
295.8739, 626.2966
296.3560, 626.4664
296.8381, 626.7612
297.3203, 627.3923
297.8024, 628.0929
298.2845, 628.1287
298.7666, 627.4138
299.2487, 626.7947
299.7308, 627.2238
300.2130, 628.4536
300.6951, 629.7777
301.1772, 631.4610
301.6593, 632.8055
302.1414, 632.2376
302.6235, 629.8125
303.1057, 627.7793
303.5878, 628.8217
304.0699, 631.5144
304.5520, 633.2018
305.0341, 632.6974
305.5162, 631.1246
305.9984, 629.0450
306.4805, 626.6494
306.9626, 625.1022
307.4447, 626.1105
307.9268, 628.1785
308.4089, 629.3106
308.8911, 628.6198
309.3732, 627.4442
309.8553, 626.5389
310.3374, 625.9637
310.8195, 625.9121
311.3016, 627.0829
311.7838, 628.5230
312.2659, 629.3926
312.7480, 629.4496
313.2301, 629.0851
313.7122, 628.1144
314.1943, 626.8838
314.6765, 626.1476
315.1586, 626.6468
315.6407, 627.4635
316.1228, 628.0051
316.6049, 628.1161
317.0870, 628.3019
317.5692, 629.0135
318.0513, 629.8863
318.5334, 630.4040
319.0155, 629.9240
319.4976, 629.4660
319.9797, 629.6954
320.4619, 630.7549
320.9440, 631.2072
321.4261, 629.6243
321.9082, 627.6552
322.3903, 626.8684
322.8724, 629.1317
323.3546, 631.0477
323.8367, 631.5254
324.3188, 630.6014
324.8009, 629.8932
325.2830, 629.7078
325.7651, 629.8021
326.2473, 630.0243
326.7294, 630.9915
327.2115, 631.3867
327.6936, 630.6863
328.1757, 629.1887
328.6578, 628.3077
329.1400, 628.1535
329.6221, 628.5612
330.1042, 629.5286
330.5863, 631.8231
331.0684, 633.4185
331.5505, 634.0838
332.0327, 634.0751
332.5148, 633.8729
332.9969, 632.8467
333.4790, 632.4491
333.9611, 633.4415
334.4432, 636.4976
334.9254, 638.0181
335.4075, 637.0961
335.8896, 635.3536
336.3717, 635.1439
336.8538, 637.1370
337.3359, 639.0267
337.8180, 640.1416
338.3001, 640.4955
338.7823, 641.1287
339.2644, 642.3007
339.7465, 643.2609
340.2286, 643.0778
340.7107, 641.5153
341.1928, 640.3199
341.6750, 639.9138
342.1571, 640.1207
342.6392, 640.3884
343.1213, 640.7924
343.6034, 640.9090
344.0855, 640.1403
344.5677, 638.5531
345.0498, 637.6865
345.5319, 637.8690
346.0140, 638.6255
346.4961, 638.9753
346.9782, 638.9412
347.4604, 639.1766
347.9425, 640.2914
348.4246, 642.0150
348.9067, 643.3365
349.3888, 644.1878
349.8709, 644.7167
350.3531, 644.9658
350.8352, 645.0037
351.3173, 645.0875
351.7994, 645.1815
352.2815, 645.4332
352.7636, 646.4040
353.2458, 648.0848
353.7279, 649.2975
354.2100, 647.9988
354.6921, 645.6951
355.1742, 645.1449
355.6563, 648.6628
356.1385, 652.6954
356.6206, 653.5351
357.1027, 651.7224
357.5848, 649.9537
358.0669, 649.5900
358.5490, 650.1517
359.0312, 651.3046
359.5133, 653.2902
359.9954, 655.1903
360.4775, 656.6328
360.9596, 657.6217
361.4417, 658.1418
361.9239, 657.6101
362.4060, 657.0762
362.8881, 657.2855
363.3702, 658.5287
363.8523, 659.3701
364.3344, 658.8070
364.8166, 657.7845
365.2987, 657.3776
365.7808, 658.0693
366.2629, 659.1823
366.7450, 660.8389
367.2271, 663.0197
367.7093, 664.6002
368.1914, 664.8973
368.6735, 664.8918
369.1556, 665.2211
369.6377, 666.1469
370.1198, 667.0799
370.6020, 667.7619
371.0841, 668.3917
371.5662, 669.7705
372.0483, 672.6085
372.5304, 675.2955
373.0125, 677.1041
373.4947, 677.6160
373.9768, 678.4008
374.4589, 679.5540
374.9410, 680.9118
375.4231, 682.1506
375.9052, 683.1408
376.3874, 684.4326
376.8695, 686.2090
377.3516, 688.4988
377.8337, 690.9788
378.3158, 693.7031
378.7979, 696.6013
379.2801, 699.6237
379.7622, 702.8123
380.2443, 705.8303
380.7264, 708.3906
381.2085, 710.9683
381.6906, 715.1845
382.1728, 721.0463
382.6549, 726.9008
383.1370, 731.2802
383.6191, 734.6161
384.1012, 738.4615
384.5833, 743.0345
385.0655, 748.0247
385.5476, 752.8561
386.0297, 757.7099
386.5118, 763.0167
386.9939, 769.2083
387.4760, 775.9477
387.9582, 782.8898
388.4403, 790.0919
388.9224, 797.2269
389.4045, 804.0133
389.8866, 810.5154
390.3687, 816.8847
390.8509, 823.2927
391.3330, 829.3702
391.8151, 834.6624
392.2972, 839.3626
392.7793, 844.3273
393.2614, 850.8981
393.7436, 857.2825
394.2257, 862.2542
394.7078, 865.1686
395.1899, 867.5854
395.6720, 870.5699
396.1541, 873.3045
396.6363, 874.4791
397.1184, 873.1237
397.6005, 870.7542
398.0826, 867.8842
398.5647, 864.5884
399.0468, 860.3683
399.5290, 854.7180
400.0111, 848.3771
400.4932, 841.9230
400.9753, 835.0695
401.4574, 828.4766
401.9395, 822.2258
402.4217, 816.3065
402.9038, 810.7660
403.3859, 805.4828
403.8680, 800.7626
404.3501, 796.7617
404.8322, 793.5987
405.3144, 790.9363
405.7965, 789.0128
406.2786, 787.3412
406.7607, 784.7870
407.2428, 780.9421
407.7249, 778.5015
408.2071, 778.9571
408.6892, 781.7115
409.1713, 782.6630
409.6534, 781.5035
410.1355, 780.3272
410.6176, 780.9693
411.0998, 783.2634
411.5819, 786.3495
412.0640, 790.2107
412.5461, 794.5395
413.0282, 799.2023
413.5103, 804.0730
413.9925, 808.5261
414.4746, 811.8194
414.9567, 814.6332
415.4388, 817.9012
415.9209, 821.7186
416.4030, 826.0452
416.8852, 831.6985
417.3673, 837.7467
417.8494, 842.6946
418.3315, 844.4574
418.8136, 846.2421
419.2957, 850.5012
419.7779, 856.8658
420.2600, 863.0701
420.7421, 867.7697
421.2242, 872.1035
421.7063, 876.7974
422.1884, 882.3320
422.6706, 887.7517
423.1527, 893.3426
423.6348, 898.6465
424.1169, 902.8321
424.5990, 905.1425
425.0811, 906.9713
425.5633, 908.3769
426.0454, 909.1250
426.5275, 911.1562
427.0096, 916.0052
427.4917, 920.9139
427.9738, 923.5267
428.4560, 922.7228
428.9381, 921.9644
429.4202, 921.8821
429.9023, 922.0500
430.3844, 920.8461
430.8665, 917.8967
431.3487, 914.6505
431.8308, 911.9676
432.3129, 909.9282
432.7950, 907.1689
433.2771, 903.6618
433.7592, 899.5092
434.2414, 894.6485
434.7235, 889.1260
435.2056, 883.4478
435.6877, 877.9129
436.1698, 872.2676
436.6519, 865.6451
437.1341, 858.1003
437.6162, 850.6203
438.0983, 843.8526
438.5804, 837.5869
439.0625, 831.5151
439.5446, 825.6495
440.0268, 819.7590
440.5089, 813.4102
440.9910, 806.8613
441.4731, 800.7460
441.9552, 795.5022
442.4373, 790.5834
442.9195, 785.5490
443.4016, 780.3868
443.8837, 775.4571
444.3658, 771.0934
444.8479, 766.8817
445.3300, 762.5430
445.8122, 757.7552
446.2943, 753.1104
446.7764, 748.6317
447.2585, 744.3348
447.7406, 740.2685
448.2227, 736.2777
448.7049, 732.6744
449.1870, 729.4594
449.6691, 726.6125
450.1512, 724.5576
450.6333, 723.8760
451.1154, 723.3995
451.5976, 721.9500
452.0797, 719.2302
452.5618, 716.6091
453.0439, 714.2366
453.5260, 712.1564
454.0081, 710.3285
454.4903, 708.7361
454.9724, 707.5000
455.4545, 706.9479
455.9366, 706.9227
456.4187, 705.9639
456.9008, 703.8097
457.3830, 701.9218
457.8651, 702.7526
458.3472, 705.4064
458.8293, 706.9103
459.3114, 705.7198
459.7935, 703.4988
460.2757, 702.0665
460.7578, 701.3774
461.2399, 701.1838
461.7220, 701.7106
462.2041, 702.4504
462.6862, 703.1465
463.1684, 703.9885
463.6505, 703.7866
464.1326, 700.7308
464.6147, 696.6478
465.0968, 693.8527
465.5789, 694.1614
466.0611, 694.8046
466.5432, 695.2356
467.0253, 695.4059
467.5074, 695.0107
467.9895, 693.3757
468.4716, 691.6910
468.9538, 690.4909
469.4359, 689.7730
469.9180, 689.6127
470.4001, 690.4274
470.8822, 691.4961
471.3643, 691.6275
471.8465, 690.3956
472.3286, 689.4300
472.8107, 689.1517
473.2928, 689.4781
473.7749, 690.0531
474.2570, 690.9379
474.7392, 691.7092
475.2213, 691.9591
475.7034, 691.7700
476.1855, 691.7506
476.6676, 692.0251
477.1497, 692.2902
477.6319, 691.9382
478.1140, 691.1991
478.5961, 690.8223
479.0782, 691.8087
479.5603, 692.9172
480.0424, 692.2840
480.5246, 690.1486
481.0067, 688.4863
481.4888, 688.8724
481.9709, 690.0862
482.4530, 691.1102
482.9352, 691.7951
483.4173, 692.1420
483.8994, 691.9319
484.3815, 691.4214
484.8636, 691.0074
485.3457, 690.5375
485.8279, 690.4135
486.3100, 690.8996
486.7921, 692.0038
487.2742, 692.9042
487.7563, 693.7299
488.2384, 694.2530
488.7206, 694.3078
489.2027, 693.7181
489.6848, 693.1500
490.1669, 692.5472
490.6490, 692.0531
491.1311, 691.8469
491.6133, 691.9175
492.0954, 692.4260
492.5775, 693.7527
493.0596, 695.4610
493.5417, 695.6049
494.0238, 694.1493
494.5060, 692.8543
494.9881, 693.1955
495.4702, 694.6765
495.9523, 696.3391
496.4344, 698.2362
496.9165, 699.3874
497.3987, 697.9119
497.8808, 695.0685
498.3629, 693.2636
498.8450, 694.3875
499.3271, 696.1246
499.8092, 697.1713
500.2914, 697.5883
500.7735, 697.6625
501.2556, 697.2571
501.7377, 696.7576
502.2198, 696.3611
502.7019, 696.0348
503.1841, 695.9823
503.6662, 696.3593
504.1483, 696.9837
504.6304, 697.6846
505.1125, 698.9234
505.5946, 699.4160
506.0768, 698.4255
506.5589, 696.4762
507.0410, 696.4269
507.5231, 698.9044
508.0052, 701.4899
508.4873, 702.9955
508.9695, 703.3904
509.4516, 703.2592
509.9337, 702.5089
510.4158, 701.6090
510.8979, 700.9470
511.3800, 700.5525
511.8622, 700.6996
512.3443, 701.8116
512.8264, 702.9758
513.3085, 702.5463
513.7906, 701.0114
514.2728, 700.1161
514.7549, 701.9559
515.2370, 704.1461
515.7191, 704.3917
516.2012, 702.4299
516.6833, 700.5432
517.1655, 699.3330
517.6476, 698.9059
518.1297, 699.3730
518.6118, 702.0383
519.0939, 704.0091
519.5760, 704.6517
520.0582, 704.2948
520.5403, 703.7169
521.0224, 702.0856
521.5045, 701.4237
521.9866, 702.6042
522.4688, 705.6255
522.9509, 707.8270
523.4330, 709.1062
523.9151, 709.8191
524.3972, 709.9948
524.8793, 709.6059
525.3615, 709.8654
525.8436, 711.0603
526.3257, 712.4156
526.8078, 712.7270
527.2899, 712.1475
527.7720, 711.3693
528.2542, 710.3407
528.7363, 709.5186
529.2184, 709.6106
529.7005, 710.5126
530.1826, 711.6615
530.6647, 713.2314
531.1469, 714.5875
531.6290, 714.9174
532.1111, 713.7652
532.5932, 713.3390
533.0753, 715.5784
533.5574, 718.5344
534.0396, 720.1478
534.5217, 718.1132
535.0038, 717.0489
535.4859, 718.3215
535.9680, 721.0757
536.4501, 722.5306
536.9323, 721.8221
537.4144, 721.2864
537.8965, 721.8611
538.3786, 723.5703
538.8607, 724.9293
539.3428, 725.8179
539.8250, 726.6641
540.3071, 727.9201
540.7892, 729.5124
541.2713, 730.7949
541.7534, 731.4423
542.2355, 732.3465
542.7177, 735.2931
543.1998, 739.6550
543.6819, 743.3586
544.1640, 744.5992
544.6461, 745.3027
545.1282, 747.5709
545.6104, 751.1119
546.0925, 754.1387
546.5746, 755.0764
547.0567, 755.6379
547.5388, 757.0325
548.0209, 759.6749
548.5031, 762.3098
548.9852, 764.8523
549.4673, 767.1930
549.9494, 769.1899
550.4315, 770.2581
550.9136, 771.8796
551.3958, 774.2621
551.8779, 777.2825
552.3600, 780.6828
552.8421, 784.7094
553.3242, 788.2973
553.8063, 790.9107
554.2885, 792.6569
554.7706, 794.6072
555.2527, 796.8571
555.7348, 798.3356
556.2169, 797.8868
556.6990, 795.9568
557.1812, 793.5949
557.6633, 790.9042
558.1454, 788.0831
558.6275, 785.2142
559.1096, 782.3802
559.5917, 779.6578
560.0739, 777.2849
560.5560, 774.8839
561.0381, 771.7236
561.5202, 768.2204
562.0023, 766.0643
562.4844, 766.7029
562.9666, 767.8938
563.4487, 768.6495
563.9308, 768.7972
564.4129, 769.2170
564.8950, 770.0633
565.3771, 770.9988
565.8593, 771.6417
566.3414, 771.7703
566.8235, 772.5792
567.3056, 774.2875
567.7877, 776.5790
568.2698, 779.4100
568.7520, 782.7007
569.2341, 784.5309
569.7162, 783.1279
570.1983, 780.5572
570.6804, 780.7096
571.1625, 783.3306
571.6447, 786.5558
572.1268, 789.7902
572.6089, 792.7004
573.0910, 794.9346
573.5731, 796.4764
574.0552, 797.3799
574.5374, 796.7579
575.0195, 795.9762
575.5016, 796.3046
575.9837, 798.8859
576.4658, 801.4473
576.9479, 803.9512
577.4301, 806.2526
577.9122, 808.0318
578.3943, 808.9609
578.8764, 809.9706
579.3585, 811.1654
579.8406, 812.6085
580.3228, 814.9583
580.8049, 818.3307
581.2870, 821.8279
581.7691, 824.8038
582.2512, 827.4200
582.7333, 830.5208
583.2155, 834.2500
583.6975, 837.7462
584.1796, 839.9573
584.6617, 841.5319
585.1439, 843.6105
585.6260, 846.8596
586.1081, 850.0688
586.5902, 852.6589
587.0723, 854.6832
587.5544, 856.1980
588.0366, 857.5714
588.5187, 858.1137
589.0008, 857.0745
589.4829, 854.5649
589.9650, 853.0646
590.4471, 853.1889
590.9293, 853.4760
591.4114, 853.2294
591.8935, 852.3593
592.3756, 851.4894
592.8577, 850.5892
593.3398, 849.7520
593.8220, 849.7792
594.3041, 850.3218
594.7862, 848.3766
595.2683, 842.9698
595.7504, 836.0557
596.2325, 829.9376
596.7147, 824.2673
597.1968, 818.2402
597.6789, 810.7863
598.1610, 803.3904
598.6431, 797.2733
599.1252, 792.2209
599.6074, 787.0969
600.0895, 780.5881
600.5716, 774.6257
601.0537, 770.3718
601.5358, 768.4327
602.0179, 765.8319
602.5001, 761.6041
602.9822, 757.6224
603.4643, 755.3914
603.9464, 755.3680
604.4285, 755.2708
604.9106, 755.0060
605.3928, 754.5521
605.8749, 753.7526
606.3570, 752.6397
606.8391, 751.6943
607.3212, 751.0557
607.8033, 750.6607
608.2855, 750.3853
608.7676, 750.2543
609.2497, 750.3644
609.7318, 751.4210
610.2139, 752.2473
610.6960, 751.5793
611.1782, 749.4264
611.6603, 747.7055
612.1424, 747.4486
612.6245, 747.5580
613.1066, 747.3884
613.5887, 746.8818
614.0709, 746.0804
614.5530, 744.5460
615.0351, 743.1252
615.5172, 742.7050
615.9993, 743.4216
616.4814, 744.7034
616.9636, 746.8378
617.4457, 748.9454
617.9278, 748.9574
618.4099, 747.0778
618.8920, 745.4922
619.3741, 745.3262
619.8563, 745.7815
620.3384, 745.8582
620.8205, 745.5546
621.3026, 744.8913
621.7847, 743.1572
622.2668, 741.5776
622.7490, 741.3605
623.2311, 742.7577
623.7132, 743.6948
624.1953, 743.1560
624.6774, 742.3066
625.1595, 741.9938
625.6417, 742.7739
626.1238, 743.0258
626.6059, 742.4698
627.0880, 741.7198
627.5701, 741.8314
628.0522, 742.9896
628.5344, 743.0640
629.0165, 741.0660
629.4986, 738.5543
629.9807, 739.0408
630.4628, 741.9938
630.9449, 744.5375
631.4271, 745.0634
631.9092, 744.5794
632.3913, 743.5871
632.8734, 742.3027
633.3555, 742.0630
633.8376, 744.9861
634.3198, 747.9976
634.8019, 749.1134
635.2840, 747.7601
635.7661, 746.4798
636.2482, 744.9943
636.7303, 744.1061
637.2125, 744.5759
637.6946, 747.2515
638.1767, 748.7852
638.6588, 748.8206
639.1409, 748.1137
639.6230, 747.7255
640.1052, 747.6259
640.5873, 747.2369
641.0694, 746.2526
641.5515, 745.2089
642.0336, 745.0091
642.5157, 745.4420
642.9979, 745.8889
643.4800, 745.8990
643.9621, 745.9279
644.4442, 746.3506
644.9263, 747.1036
645.4084, 747.7918
645.8906, 748.3914
646.3727, 748.8043
646.8548, 748.8436
647.3369, 748.3937
647.8190, 748.5798
648.3011, 749.9202
648.7833, 751.1200
649.2654, 751.0034
649.7475, 749.4147
650.2296, 748.4069
650.7117, 748.1123
651.1938, 748.3141
651.6760, 749.0637
652.1581, 750.1242
652.6402, 750.6689
653.1223, 750.2376
653.6044, 749.7344
654.0865, 750.1684
654.5687, 751.0886
655.0508, 751.6324
655.5329, 750.8439
656.0150, 750.2785
656.4971, 750.8038
656.9792, 752.1488
657.4614, 752.8224
657.9435, 752.0731
658.4256, 751.6280
658.9077, 752.1785
659.3898, 753.6672
659.8719, 754.7850
660.3541, 755.5569
660.8362, 755.8347
661.3183, 755.3436
661.8004, 754.2519
662.2825, 753.0087
662.7646, 751.6027
663.2468, 750.7100
663.7289, 751.4489
664.2110, 752.8617
664.6931, 753.6312
665.1752, 753.1895
665.6573, 752.8594
666.1395, 753.5126
666.6216, 754.5016
667.1037, 755.0272
667.5858, 754.4377
668.0679, 754.0676
668.5500, 754.0432
669.0322, 754.2845
669.5143, 754.6943
669.9964, 755.3563
670.4785, 755.7581
670.9606, 755.6705
671.4427, 755.2585
671.9249, 754.7392
672.4070, 754.1858
672.8891, 754.2586
673.3712, 756.3791
673.8533, 758.7231
674.3354, 758.5316
674.8176, 756.0590
675.2997, 754.5172
675.7818, 756.7032
