##NAMES=Phosphosiderite
##RRUFFID=R070519
##IDEAL CHEMISTRY=Fe^3+^PO_4_&#183;2H_2_O
##LOCALITY=Stewart mine, Pala, San Diego County, California, USA
##OWNER=RRUFF
##SOURCE=James Shigley
##DESCRIPTION=Bluish-purple fine-grained botryoidal and tabular crystals
##STATUS=The identification of this mineral has been confirmed by X-ray diffraction.
##URL=rruff.info/R070519
150.3270, 4845.931
150.8091, 4916.606
151.2912, 5003.891
151.7733, 5076.146
152.2555, 5118.184
152.7376, 5143.918
153.2197, 5173.416
153.7018, 5219.991
154.1839, 5277.372
154.6660, 5315.053
155.1481, 5319.609
155.6303, 5319.102
156.1124, 5307.931
156.5945, 5298.254
157.0766, 5309.239
157.5587, 5355.999
158.0408, 5432.520
158.5230, 5491.702
159.0051, 5494.571
159.4872, 5521.994
159.9693, 5604.915
160.4514, 5698.316
160.9335, 5768.170
161.4157, 5802.800
161.8978, 5805.311
162.3799, 5810.336
162.8620, 5816.905
163.3441, 5827.745
163.8262, 5842.829
164.3084, 5863.008
164.7905, 5891.889
165.2726, 5934.395
165.7547, 5989.296
166.2368, 6020.227
166.7189, 6015.076
167.2011, 6001.822
167.6832, 5975.088
168.1653, 5945.949
168.6474, 5935.847
169.1295, 5962.980
169.6116, 6026.336
170.0938, 6065.917
170.5759, 6072.042
171.0580, 6068.265
171.5401, 6053.737
172.0222, 6034.461
172.5043, 6019.662
172.9865, 6014.895
173.4686, 6019.910
173.9507, 6044.501
174.4328, 6104.580
174.9149, 6164.244
175.3970, 6205.724
175.8792, 6235.804
176.3613, 6274.286
176.8434, 6337.895
177.3255, 6426.579
177.8076, 6496.812
178.2897, 6541.808
178.7719, 6579.833
179.2540, 6609.587
179.7361, 6636.926
180.2182, 6674.661
180.7003, 6733.132
181.1824, 6812.524
181.6646, 6887.703
182.1467, 6969.936
182.6288, 7038.679
183.1109, 7078.898
183.5930, 7097.865
184.0751, 7116.173
184.5573, 7149.493
185.0394, 7197.137
185.5215, 7230.371
186.0036, 7235.138
186.4857, 7243.298
186.9678, 7268.693
187.4500, 7308.446
187.9321, 7354.294
188.4142, 7403.577
188.8963, 7454.922
189.3784, 7480.278
189.8605, 7455.476
190.3427, 7434.876
190.8248, 7443.857
191.3069, 7475.106
191.7890, 7508.381
192.2711, 7532.675
192.7532, 7547.066
193.2354, 7540.370
193.7175, 7496.191
194.1996, 7452.985
194.6817, 7426.052
195.1638, 7412.038
195.6459, 7401.283
196.1281, 7388.788
196.6102, 7374.436
197.0923, 7356.374
197.5744, 7337.459
198.0565, 7313.242
198.5386, 7280.619
199.0208, 7241.403
199.5029, 7200.548
199.9850, 7160.886
200.4671, 7121.426
200.9492, 7073.705
201.4313, 7021.241
201.9135, 6959.594
202.3956, 6890.387
202.8777, 6811.174
203.3598, 6711.449
203.8419, 6581.659
204.3240, 6433.410
204.8061, 6318.550
205.2883, 6254.878
205.7704, 6195.313
206.2525, 6136.178
206.7346, 6072.313
207.2167, 5990.725
207.6988, 5883.212
208.1810, 5760.333
208.6631, 5659.754
209.1452, 5588.342
209.6273, 5525.962
210.1094, 5466.646
210.5915, 5414.122
211.0737, 5378.053
211.5558, 5364.502
212.0379, 5361.685
212.5200, 5338.875
213.0021, 5280.113
213.4842, 5227.680
213.9664, 5189.340
214.4485, 5160.579
214.9306, 5136.103
215.4127, 5114.351
215.8948, 5093.986
216.3769, 5071.959
216.8591, 5045.366
217.3412, 5022.608
217.8233, 5006.983
218.3054, 4994.744
218.7875, 4980.671
219.2696, 4963.113
219.7518, 4946.298
220.2339, 4937.183
220.7160, 4938.859
221.1981, 4943.088
221.6802, 4961.155
222.1623, 4975.823
222.6445, 4964.605
223.1266, 4923.707
223.6087, 4875.811
224.0908, 4851.560
224.5729, 4863.603
225.0550, 4870.238
225.5372, 4870.428
226.0193, 4866.178
226.5014, 4858.770
226.9835, 4848.513
227.4656, 4835.384
227.9477, 4819.566
228.4299, 4801.244
228.9120, 4777.672
229.3941, 4735.707
229.8762, 4699.006
230.3583, 4686.600
230.8404, 4696.835
231.3225, 4711.294
231.8047, 4711.727
232.2868, 4694.296
232.7689, 4692.101
233.2510, 4715.248
233.7331, 4741.254
234.2152, 4760.000
234.6974, 4771.916
235.1795, 4781.492
235.6616, 4791.901
236.1437, 4803.119
236.6258, 4817.275
237.1079, 4832.216
237.5901, 4851.770
238.0722, 4879.708
238.5543, 4913.342
239.0364, 4947.062
239.5185, 4977.342
240.0006, 5004.741
240.4828, 5034.729
240.9649, 5058.101
241.4470, 5094.528
241.9291, 5161.014
242.4112, 5240.315
242.8933, 5305.729
243.3755, 5343.280
243.8576, 5361.003
244.3397, 5388.106
244.8218, 5432.100
245.3039, 5477.111
245.7860, 5520.817
246.2682, 5565.497
246.7503, 5615.989
247.2324, 5674.115
247.7145, 5733.082
248.1966, 5775.693
248.6787, 5778.602
249.1609, 5805.497
249.6430, 5875.489
250.1251, 5957.882
250.6072, 6029.272
251.0893, 6083.633
251.5714, 6128.569
252.0536, 6175.269
252.5357, 6227.443
253.0178, 6272.289
253.4999, 6310.750
253.9820, 6342.125
254.4641, 6364.709
254.9462, 6378.919
255.4284, 6387.371
255.9105, 6393.294
256.3926, 6397.565
256.8747, 6394.249
257.3568, 6377.572
257.8390, 6357.925
258.3211, 6341.635
258.8032, 6326.258
259.2853, 6303.452
259.7674, 6263.056
260.2495, 6206.271
260.7317, 6162.060
261.2138, 6139.725
261.6959, 6119.485
262.1780, 6096.637
262.6601, 6070.632
263.1422, 6039.633
263.6244, 5998.054
264.1065, 5953.705
264.5886, 5937.201
265.0707, 5968.919
265.5528, 5989.902
266.0349, 5964.709
266.5170, 5923.721
266.9991, 5904.193
267.4813, 5923.685
267.9634, 5963.187
268.4455, 5991.817
268.9276, 6006.966
269.4097, 6021.845
269.8918, 6036.011
270.3740, 6054.512
270.8561, 6084.332
271.3382, 6128.431
271.8203, 6174.707
272.3024, 6209.132
272.7845, 6231.724
273.2667, 6259.941
273.7488, 6300.592
274.2309, 6346.265
274.7130, 6387.421
275.1951, 6423.547
275.6772, 6465.497
276.1594, 6518.669
276.6415, 6582.875
277.1236, 6660.846
277.6057, 6761.554
278.0878, 6860.668
278.5699, 6932.082
279.0521, 6980.058
279.5342, 7026.475
280.0163, 7073.948
280.4984, 7126.453
280.9805, 7190.941
281.4626, 7268.689
281.9448, 7354.448
282.4269, 7453.140
282.9090, 7558.235
283.3911, 7641.664
283.8732, 7678.320
284.3553, 7707.716
284.8375, 7772.623
285.3196, 7867.716
285.8017, 7944.602
286.2838, 7972.950
286.7659, 7960.141
287.2480, 7944.596
287.7302, 7926.146
288.2123, 7905.553
288.6944, 7887.268
289.1765, 7866.948
289.6586, 7836.320
290.1407, 7792.786
290.6229, 7734.530
291.1050, 7654.290
291.5871, 7531.222
292.0692, 7424.672
292.5513, 7345.260
293.0334, 7285.136
293.5156, 7235.840
293.9977, 7195.181
294.4798, 7164.962
294.9619, 7150.688
295.4440, 7166.037
295.9261, 7155.917
296.4083, 7097.616
296.8904, 7034.098
297.3725, 6990.687
297.8546, 6969.019
298.3367, 6958.836
298.8188, 6951.446
299.3010, 6946.503
299.7831, 6949.724
300.2652, 6964.470
300.7473, 6983.420
301.2294, 7011.613
301.7115, 7041.712
302.1937, 7060.018
302.6758, 7057.055
303.1579, 7039.999
303.6400, 7036.763
304.1221, 7052.949
304.6042, 7075.860
305.0864, 7112.107
305.5685, 7149.105
306.0506, 7175.937
306.5327, 7188.790
307.0148, 7189.137
307.4969, 7176.205
307.9791, 7145.599
308.4612, 7118.678
308.9433, 7106.061
309.4254, 7092.369
309.9075, 7068.164
310.3896, 7033.317
310.8718, 6994.846
311.3539, 6955.705
311.8360, 6916.714
312.3181, 6887.250
312.8002, 6873.562
313.2823, 6861.353
313.7645, 6842.362
314.2466, 6818.005
314.7287, 6791.906
315.2108, 6766.404
315.6929, 6739.728
316.1750, 6707.372
316.6571, 6668.058
317.1393, 6629.498
317.6214, 6593.544
318.1035, 6561.752
318.5856, 6537.206
319.0677, 6521.361
319.5498, 6511.324
320.0320, 6504.877
320.5141, 6502.343
320.9962, 6505.924
321.4783, 6517.575
321.9604, 6534.162
322.4425, 6551.761
322.9247, 6572.504
323.4068, 6586.639
323.8889, 6586.754
324.3710, 6580.372
324.8531, 6579.698
325.3352, 6587.224
325.8174, 6591.685
326.2995, 6577.941
326.7816, 6539.690
327.2637, 6521.874
327.7458, 6549.986
328.2279, 6575.820
328.7101, 6565.244
329.1922, 6525.133
329.6743, 6486.039
330.1564, 6469.616
330.6385, 6472.156
331.1206, 6462.847
331.6028, 6441.162
332.0849, 6408.179
332.5670, 6350.641
333.0491, 6286.720
333.5312, 6241.408
334.0133, 6224.333
334.4955, 6218.524
334.9776, 6189.747
335.4597, 6120.957
335.9418, 6067.214
336.4239, 6040.469
336.9060, 6019.957
337.3882, 5993.317
337.8703, 5959.542
338.3524, 5925.021
338.8345, 5896.907
339.3166, 5874.934
339.7987, 5847.488
340.2809, 5810.363
340.7630, 5772.726
341.2451, 5737.510
341.7272, 5704.566
342.2093, 5674.833
342.6914, 5651.467
343.1736, 5628.237
343.6557, 5590.799
344.1378, 5535.557
344.6199, 5487.308
345.1020, 5461.174
345.5841, 5445.068
346.0663, 5425.161
346.5484, 5400.635
347.0305, 5370.737
347.5126, 5332.193
347.9947, 5287.689
348.4768, 5244.313
348.9590, 5201.892
349.4411, 5165.498
349.9232, 5147.486
350.4053, 5148.354
350.8874, 5134.457
351.3695, 5087.704
351.8517, 5031.888
352.3338, 4986.170
352.8159, 4952.151
353.2980, 4925.531
353.7801, 4904.107
354.2622, 4887.544
354.7444, 4872.711
355.2265, 4866.212
355.7086, 4853.558
356.1907, 4822.339
356.6728, 4784.482
357.1549, 4759.840
357.6371, 4756.143
358.1192, 4762.600
358.6013, 4757.143
359.0834, 4724.593
359.5655, 4708.444
360.0476, 4719.882
360.5298, 4736.463
361.0119, 4744.008
361.4940, 4741.974
361.9761, 4738.526
362.4582, 4742.568
362.9403, 4753.463
363.4225, 4752.849
363.9046, 4730.458
364.3867, 4709.913
364.8688, 4694.541
365.3509, 4687.214
365.8330, 4693.757
366.3151, 4719.568
366.7972, 4752.830
367.2794, 4775.685
367.7615, 4787.439
368.2436, 4796.460
368.7257, 4802.780
369.2078, 4809.414
369.6899, 4819.825
370.1721, 4834.328
370.6542, 4849.131
371.1363, 4862.188
371.6184, 4874.147
372.1005, 4886.330
372.5826, 4899.049
373.0648, 4911.195
373.5469, 4920.987
374.0290, 4928.899
374.5111, 4940.243
374.9932, 4953.027
375.4753, 4971.348
375.9575, 5002.904
376.4396, 5042.542
376.9217, 5076.104
377.4038, 5096.257
377.8859, 5107.273
378.3680, 5119.968
378.8502, 5136.737
379.3323, 5151.977
379.8144, 5163.631
380.2965, 5174.917
380.7786, 5188.809
381.2607, 5205.509
381.7429, 5222.645
382.2250, 5237.099
382.7071, 5248.322
383.1892, 5264.310
383.6713, 5291.934
384.1534, 5317.278
384.6356, 5334.172
385.1177, 5346.542
385.5998, 5361.754
386.0819, 5384.279
386.5640, 5408.133
387.0461, 5420.701
387.5283, 5419.297
388.0104, 5420.214
388.4925, 5427.140
388.9746, 5438.569
389.4567, 5455.657
389.9388, 5478.375
390.4210, 5497.343
390.9031, 5498.327
391.3852, 5492.909
391.8673, 5514.509
392.3494, 5572.562
392.8315, 5622.166
393.3137, 5624.394
393.7958, 5585.862
394.2779, 5553.065
394.7600, 5523.914
395.2421, 5504.445
395.7242, 5509.717
396.2064, 5526.920
396.6885, 5524.813
397.1706, 5489.986
397.6527, 5436.251
398.1348, 5389.828
398.6169, 5355.069
399.0991, 5320.098
399.5812, 5289.679
400.0633, 5255.340
400.5454, 5207.175
401.0275, 5148.354
401.5096, 5091.912
401.9918, 5048.521
402.4739, 5017.336
402.9560, 4988.161
403.4381, 4965.237
403.9202, 4938.183
404.4023, 4902.590
404.8845, 4862.838
405.3666, 4821.926
405.8487, 4780.399
406.3308, 4742.790
406.8129, 4713.583
407.2950, 4692.788
407.7772, 4682.903
408.2593, 4696.267
408.7414, 4704.029
409.2235, 4674.065
409.7056, 4615.502
410.1877, 4570.343
410.6699, 4562.236
411.1520, 4569.024
411.6341, 4569.416
412.1162, 4562.777
412.5983, 4547.483
413.0804, 4518.562
413.5626, 4483.910
414.0447, 4468.278
414.5268, 4474.137
415.0089, 4489.693
415.4910, 4525.347
415.9731, 4563.009
416.4552, 4580.981
416.9373, 4576.993
417.4195, 4566.313
417.9016, 4563.696
418.3837, 4569.303
418.8658, 4580.705
419.3479, 4611.188
419.8300, 4633.029
420.3122, 4631.415
420.7943, 4619.270
421.2764, 4614.583
421.7585, 4624.929
422.2406, 4645.120
422.7227, 4667.880
423.2049, 4693.513
423.6870, 4720.083
424.1691, 4749.711
424.6512, 4777.779
425.1333, 4799.440
425.6154, 4815.979
426.0976, 4835.086
426.5797, 4858.266
427.0618, 4887.183
427.5439, 4928.419
428.0260, 4982.197
428.5081, 5030.290
428.9903, 5061.769
429.4724, 5081.634
429.9545, 5103.886
430.4366, 5122.552
430.9187, 5153.678
431.4008, 5214.351
431.8830, 5283.696
432.3651, 5337.112
432.8472, 5370.205
433.3293, 5392.026
433.8114, 5409.038
434.2935, 5419.527
434.7757, 5451.373
435.2578, 5528.631
435.7399, 5600.319
436.2220, 5652.508
436.7041, 5691.898
437.1862, 5726.566
437.6684, 5759.355
438.1505, 5794.718
438.6326, 5841.638
439.1147, 5901.968
439.5968, 5956.670
440.0789, 6003.806
440.5611, 6043.074
441.0432, 6072.570
441.5253, 6094.267
442.0074, 6115.531
442.4895, 6134.141
442.9716, 6156.970
443.4538, 6199.981
443.9359, 6260.577
444.4180, 6306.370
444.9001, 6317.561
445.3822, 6310.356
445.8643, 6322.088
446.3465, 6360.232
446.8286, 6394.153
447.3107, 6421.675
447.7928, 6440.619
448.2749, 6443.780
448.7570, 6433.941
449.2392, 6427.065
449.7213, 6438.271
450.2034, 6464.111
450.6855, 6467.025
451.1676, 6426.864
451.6497, 6390.022
452.1319, 6363.825
452.6140, 6344.335
453.0961, 6328.729
453.5782, 6316.023
454.0603, 6304.175
454.5424, 6292.339
455.0246, 6280.111
455.5067, 6263.890
455.9888, 6243.970
456.4709, 6218.859
456.9530, 6183.461
457.4352, 6142.230
457.9173, 6103.639
458.3994, 6064.868
458.8815, 6035.073
459.3636, 6029.906
459.8457, 6038.560
460.3279, 6028.984
460.8100, 5989.317
461.2921, 5945.779
461.7742, 5935.465
462.2563, 5970.667
462.7384, 5987.909
463.2206, 5977.850
463.7026, 5960.444
464.1848, 5938.464
464.6669, 5917.479
465.1490, 5906.903
465.6311, 5912.183
466.1132, 5926.135
466.5953, 5931.795
467.0775, 5923.864
467.5596, 5926.022
468.0417, 5948.696
468.5238, 5976.650
469.0059, 6005.692
469.4880, 6033.451
469.9702, 6053.279
470.4523, 6054.046
470.9344, 6048.894
471.4165, 6061.681
471.8986, 6091.845
472.3807, 6116.639
472.8629, 6123.766
473.3450, 6122.300
473.8271, 6130.610
474.3092, 6149.702
474.7913, 6172.097
475.2734, 6204.414
475.7556, 6233.961
476.2377, 6246.288
476.7198, 6243.431
477.2019, 6239.776
477.6840, 6245.845
478.1661, 6259.091
478.6483, 6266.785
479.1304, 6264.828
479.6125, 6263.632
480.0946, 6268.466
480.5767, 6271.835
481.0588, 6266.859
481.5410, 6253.292
482.0231, 6237.217
482.5052, 6227.658
482.9873, 6219.654
483.4694, 6192.950
483.9515, 6143.369
484.4337, 6093.983
484.9158, 6058.061
485.3979, 6029.712
485.8800, 5996.015
486.3621, 5956.897
486.8442, 5912.283
487.3264, 5859.950
487.8085, 5803.288
488.2906, 5746.979
488.7727, 5691.468
489.2548, 5632.185
489.7369, 5564.353
490.2191, 5488.813
490.7012, 5418.591
491.1833, 5356.164
491.6654, 5296.063
492.1475, 5244.445
492.6296, 5190.645
493.1118, 5120.542
493.5939, 5032.644
494.0760, 4945.425
494.5581, 4880.303
495.0402, 4833.625
495.5223, 4778.364
496.0045, 4709.757
496.4866, 4645.008
496.9687, 4597.492
497.4508, 4559.980
497.9329, 4519.591
498.4150, 4474.577
498.8972, 4427.706
499.3793, 4379.560
499.8614, 4330.794
500.3435, 4281.098
500.8256, 4230.785
501.3077, 4184.228
501.7899, 4145.821
502.2720, 4115.450
502.7541, 4081.777
503.2362, 4036.605
503.7183, 3997.929
504.2004, 3976.973
504.6826, 3959.259
505.1647, 3927.820
505.6468, 3879.756
506.1289, 3829.461
506.6110, 3791.365
507.0931, 3763.983
507.5753, 3736.437
508.0574, 3709.102
508.5395, 3680.331
509.0216, 3649.688
509.5037, 3616.730
509.9858, 3579.293
510.4680, 3530.340
510.9501, 3493.060
511.4322, 3486.462
511.9143, 3494.499
512.3964, 3496.013
512.8785, 3487.353
513.3607, 3472.445
513.8428, 3454.006
514.3249, 3432.408
514.8070, 3411.963
515.2891, 3398.015
515.7712, 3378.290
516.2534, 3340.210
516.7355, 3302.594
517.2176, 3286.617
517.6997, 3293.571
518.1818, 3301.957
518.6639, 3288.406
519.1461, 3260.197
519.6282, 3248.881
520.1103, 3258.883
520.5924, 3267.029
521.0745, 3261.436
521.5566, 3247.063
522.0388, 3233.752
522.5209, 3220.919
523.0030, 3211.047
523.4851, 3206.919
523.9672, 3204.915
524.4493, 3202.478
524.9315, 3198.656
525.4136, 3190.408
525.8957, 3174.364
526.3778, 3154.271
526.8599, 3146.342
527.3420, 3155.863
527.8242, 3168.761
528.3063, 3193.656
528.7884, 3213.157
529.2705, 3210.160
529.7526, 3187.990
530.2347, 3168.893
530.7169, 3170.796
531.1990, 3182.459
531.6811, 3179.180
532.1632, 3161.183
532.6453, 3154.909
533.1274, 3175.483
533.6096, 3205.890
534.0917, 3215.838
534.5738, 3199.646
535.0559, 3192.833
535.5380, 3208.768
536.0201, 3226.488
536.5023, 3232.798
536.9844, 3229.547
537.4665, 3221.915
537.9485, 3212.049
538.4307, 3204.508
538.9128, 3210.479
539.3949, 3234.763
539.8770, 3252.229
540.3591, 3261.880
540.8412, 3263.067
541.3234, 3249.320
541.8055, 3227.607
542.2876, 3215.075
542.7697, 3220.424
543.2518, 3231.891
543.7339, 3242.620
544.2161, 3251.212
544.6982, 3251.115
545.1803, 3239.991
545.6624, 3230.149
546.1445, 3236.554
546.6266, 3260.914
547.1088, 3271.891
547.5909, 3253.629
548.0730, 3242.312
548.5551, 3257.075
549.0372, 3278.346
549.5193, 3280.129
550.0015, 3257.757
550.4836, 3233.356
550.9657, 3231.133
551.4478, 3247.342
551.9299, 3258.375
552.4120, 3262.667
552.8942, 3266.909
553.3763, 3279.310
553.8584, 3290.997
554.3405, 3284.056
554.8226, 3250.866
555.3047, 3222.830
555.7869, 3215.039
556.2690, 3213.322
556.7511, 3199.544
557.2332, 3177.059
557.7153, 3166.432
558.1974, 3181.750
558.6796, 3213.139
559.1617, 3230.789
559.6438, 3228.671
560.1259, 3227.830
560.6080, 3236.558
561.0901, 3241.705
561.5723, 3233.319
562.0544, 3214.949
562.5365, 3198.546
563.0186, 3188.363
563.5007, 3183.284
563.9828, 3182.845
564.4650, 3186.606
564.9471, 3195.358
565.4292, 3210.577
565.9113, 3221.510
566.3934, 3214.065
566.8755, 3185.721
567.3577, 3167.040
567.8398, 3165.180
568.3219, 3163.069
568.8040, 3152.208
569.2861, 3140.486
569.7682, 3140.904
570.2504, 3154.889
570.7325, 3166.038
571.2146, 3155.060
571.6967, 3126.637
572.1788, 3103.093
572.6609, 3084.608
573.1431, 3070.894
573.6252, 3062.672
574.1073, 3058.617
574.5894, 3056.266
575.0715, 3056.153
575.5536, 3055.602
576.0358, 3056.904
576.5179, 3055.240
577.0000, 3043.693
577.4821, 3025.551
577.9642, 3010.741
578.4464, 3004.641
578.9285, 3003.621
579.4106, 3000.071
579.8927, 2992.961
580.3748, 2988.601
580.8569, 2992.243
581.3391, 2992.769
581.8212, 2983.837
582.3033, 2967.470
582.7854, 2947.105
583.2675, 2917.858
583.7496, 2895.300
584.2318, 2897.873
584.7139, 2912.260
585.1960, 2912.180
585.6781, 2893.902
586.1602, 2874.086
586.6423, 2867.430
587.1245, 2871.827
587.6066, 2870.872
588.0887, 2861.979
588.5708, 2851.536
589.0529, 2838.440
589.5350, 2825.733
590.0172, 2814.551
590.4993, 2805.664
590.9814, 2801.246
591.4635, 2806.664
591.9456, 2813.984
592.4277, 2811.263
592.9099, 2799.692
593.3920, 2785.841
593.8741, 2770.784
594.3562, 2758.199
594.8383, 2753.398
595.3204, 2757.755
595.8026, 2759.362
596.2847, 2761.030
596.7668, 2757.007
597.2489, 2738.341
597.7310, 2716.516
598.2131, 2708.367
598.6953, 2716.285
599.1774, 2722.569
599.6595, 2704.648
600.1416, 2671.379
600.6237, 2657.330
601.1058, 2664.778
601.5880, 2674.633
602.0701, 2681.533
602.5522, 2683.160
603.0343, 2672.267
603.5164, 2643.625
603.9985, 2626.059
604.4807, 2633.904
604.9628, 2642.860
605.4449, 2636.223
605.9270, 2620.329
606.4091, 2609.717
606.8912, 2610.329
607.3734, 2613.399
607.8555, 2603.121
608.3376, 2580.226
608.8197, 2574.630
609.3018, 2595.756
609.7839, 2613.436
610.2661, 2608.510
610.7482, 2589.860
611.2303, 2576.023
611.7124, 2568.042
612.1945, 2562.930
612.6766, 2562.419
613.1588, 2562.468
613.6409, 2561.691
614.1230, 2558.322
614.6051, 2545.925
615.0872, 2519.861
615.5693, 2491.899
616.0515, 2489.073
616.5336, 2516.682
617.0157, 2532.127
617.4978, 2523.555
617.9799, 2514.348
618.4620, 2524.017
618.9442, 2542.485
619.4263, 2548.752
619.9084, 2533.448
620.3905, 2518.649
620.8726, 2517.444
621.3547, 2520.740
621.8369, 2518.242
622.3190, 2508.911
622.8011, 2494.358
623.2832, 2474.421
623.7653, 2454.265
624.2474, 2451.019
624.7296, 2472.533
625.2117, 2483.748
625.6938, 2473.551
626.1759, 2460.168
626.6580, 2456.521
627.1401, 2458.472
627.6223, 2454.369
628.1044, 2436.685
628.5865, 2420.561
629.0686, 2417.037
629.5507, 2419.810
630.0328, 2418.502
630.5150, 2412.243
630.9971, 2407.946
631.4792, 2411.304
631.9613, 2419.731
632.4434, 2423.297
632.9255, 2421.371
633.4077, 2416.068
633.8898, 2403.269
634.3719, 2391.308
634.8540, 2387.126
635.3361, 2388.151
635.8182, 2385.547
636.3003, 2371.930
636.7824, 2361.071
637.2645, 2366.231
637.7466, 2379.151
638.2288, 2386.134
638.7109, 2384.895
639.1930, 2379.281
639.6751, 2370.983
640.1572, 2362.453
640.6393, 2367.189
641.1215, 2396.282
641.6036, 2411.686
642.0857, 2400.075
642.5678, 2379.790
643.0499, 2357.711
643.5320, 2336.011
644.0142, 2320.133
644.4963, 2309.712
644.9784, 2308.289
645.4605, 2328.439
645.9426, 2355.692
646.4247, 2362.844
646.9069, 2346.950
647.3890, 2326.608
647.8711, 2316.265
