##NAMES=Phosphophyllite
##RRUFFID=R050224
##IDEAL CHEMISTRY=Zn^2+^_2_Fe^2+^(P^5+^O_4_)_2_&#183;4H_2_O
##LOCALITY=Unificada mine, Cerro Rico, Potosi, Bolivia
##OWNER=RRUFF
##SOURCE=Marcus Origlieri
##DESCRIPTION=Pale blue single crystal fragments
##STATUS=The identification of this mineral has been confirmed by X-ray diffraction and chemical analysis
##URL=rruff.info/R050224
##MEASURED CHEMISTRY=Zn_2.00_Fe^2+^_1.00_(P_1.00_O_4_)_2_Â·4H_2_O
107.7813, 450.0640
108.2634, 463.4702
108.7455, 477.7465
109.2276, 492.6667
109.7097, 508.2526
110.1918, 524.2865
110.6740, 540.7839
111.1561, 557.7441
111.6382, 574.2969
112.1203, 590.4504
112.6024, 606.0706
113.0845, 619.8387
113.5666, 632.5238
114.0488, 641.9299
114.5309, 647.0245
115.0130, 647.6462
115.4951, 643.9372
115.9772, 635.8024
116.4593, 622.6490
116.9415, 606.2549
117.4236, 586.1331
117.9057, 563.9373
118.3878, 540.1014
118.8699, 514.9819
119.3520, 489.2437
119.8342, 465.0039
120.3163, 442.1009
120.7984, 421.0902
121.2805, 402.1901
121.7626, 385.0916
122.2447, 369.6582
122.7269, 355.8509
123.2090, 343.5457
123.6911, 331.8839
124.1732, 320.6127
124.6553, 310.0052
125.1374, 300.2772
125.6196, 291.3482
126.1017, 282.8934
126.5838, 274.8079
127.0659, 267.0978
127.5480, 259.4662
128.0302, 251.6703
128.5123, 244.1259
128.9944, 237.4503
129.4765, 231.7745
129.9586, 226.2612
130.4407, 220.0208
130.9229, 213.4017
131.4050, 207.1352
131.8871, 201.5477
132.3692, 196.5243
132.8513, 191.8295
133.3334, 187.6488
133.8155, 183.5283
134.2977, 179.0919
134.7798, 174.4856
135.2619, 170.0939
135.7440, 166.2731
136.2261, 163.0601
136.7082, 159.9091
137.1904, 156.6675
137.6725, 153.6098
138.1546, 150.9398
138.6367, 148.6085
139.1188, 146.4179
139.6009, 144.1121
140.0831, 141.5207
140.5652, 139.2410
141.0473, 137.4220
141.5294, 135.7572
142.0115, 134.0679
142.4936, 132.3055
142.9758, 130.5152
143.4579, 128.7852
143.9400, 127.0787
144.4221, 125.5191
144.9042, 124.2340
145.3863, 123.0752
145.8685, 121.8231
146.3506, 120.3754
146.8327, 118.8802
147.3148, 117.7030
147.7969, 116.9260
148.2790, 116.1531
148.7612, 115.1795
149.2433, 114.0712
149.7254, 113.0514
150.2075, 112.1464
150.6896, 111.4548
151.1717, 111.0805
151.6539, 111.1082
152.1360, 111.2438
152.6181, 111.2221
153.1002, 111.0238
153.5823, 110.8748
154.0644, 110.9674
154.5466, 111.1067
155.0287, 111.0907
155.5108, 110.8172
155.9929, 110.5123
156.4750, 110.6276
156.9571, 111.4339
157.4393, 112.0621
157.9214, 112.1188
158.4035, 111.9844
158.8856, 112.0362
159.3677, 112.4633
159.8498, 113.1761
160.3320, 113.8485
160.8141, 114.5005
161.2962, 115.0814
161.7783, 115.5851
162.2604, 116.0167
162.7425, 116.3274
163.2247, 116.4610
163.7068, 116.4647
164.1889, 116.9645
164.6710, 118.4401
165.1531, 119.8675
165.6352, 120.9875
166.1174, 121.8381
166.5995, 122.5098
167.0816, 123.0315
167.5637, 123.4138
168.0458, 124.1032
168.5279, 125.3507
169.0101, 126.6339
169.4922, 127.6162
169.9743, 128.3171
170.4564, 129.0636
170.9385, 130.1889
171.4206, 131.6408
171.9028, 132.7975
172.3849, 133.3791
172.8670, 133.7929
173.3491, 134.4087
173.8312, 135.2563
174.3133, 136.2552
174.7955, 137.4833
175.2776, 138.8334
175.7597, 140.0512
176.2418, 141.1064
176.7239, 141.9677
177.2060, 142.5259
177.6882, 142.6685
178.1703, 142.7197
178.6524, 142.9360
179.1345, 143.2270
179.6166, 143.4012
180.0987, 143.3934
180.5809, 143.1910
181.0630, 142.6990
181.5451, 141.6379
182.0272, 140.6048
182.5093, 139.9538
182.9914, 139.5395
183.4736, 139.0316
183.9557, 138.1821
184.4378, 136.9848
184.9199, 135.6347
185.4020, 133.7282
185.8841, 132.0234
186.3663, 130.8097
186.8484, 130.0311
187.3305, 129.4672
187.8126, 128.9169
188.2947, 128.3679
188.7768, 127.9256
189.2590, 127.5925
189.7411, 127.3502
190.2232, 127.1648
190.7053, 127.0544
191.1874, 127.0772
191.6695, 127.2903
192.1517, 127.7057
192.6338, 128.3463
193.1159, 129.3199
193.5980, 130.3980
194.0801, 131.4387
194.5622, 132.4215
195.0444, 133.4337
195.5265, 134.5926
196.0086, 135.9773
196.4907, 137.1322
196.9728, 138.0888
197.4549, 138.8035
197.9371, 139.2155
198.4192, 139.3133
198.9013, 139.1870
199.3834, 138.9316
199.8655, 138.5506
200.3476, 137.9296
200.8298, 136.8221
201.3119, 135.5371
201.7940, 134.5281
202.2761, 133.9056
202.7582, 133.3933
203.2403, 132.6339
203.7225, 131.6944
204.2046, 130.9480
204.6867, 130.5451
205.1688, 130.4236
205.6509, 130.4511
206.1330, 130.6464
206.6152, 130.9364
207.0973, 131.2487
207.5794, 131.5931
208.0615, 132.0082
208.5436, 132.3933
209.0257, 132.8274
209.5079, 133.7149
209.9900, 135.2503
210.4721, 137.0608
210.9542, 138.9556
211.4363, 140.9139
211.9184, 142.8971
212.4006, 144.9203
212.8827, 146.9743
213.3648, 148.8324
213.8469, 150.1590
214.3290, 151.6291
214.8111, 153.5911
215.2933, 155.9336
215.7754, 158.3384
216.2575, 160.5407
216.7396, 162.5218
217.2217, 164.5902
217.7038, 167.1296
218.1859, 169.4114
218.6681, 171.1707
219.1502, 172.4725
219.6323, 173.5526
220.1144, 174.5867
220.5965, 175.5639
221.0786, 176.6212
221.5608, 178.3705
222.0429, 179.6431
222.5250, 179.8340
223.0071, 179.1216
223.4892, 178.1326
223.9713, 177.4472
224.4535, 177.1689
224.9356, 176.1209
225.4177, 174.0273
225.8998, 171.5873
226.3819, 169.0768
226.8640, 166.4893
227.3462, 163.6794
227.8283, 160.4877
228.3104, 156.8643
228.7925, 153.4396
229.2746, 150.0998
229.7567, 147.0115
230.2389, 144.4790
230.7210, 142.3695
231.2031, 140.1649
231.6852, 137.3959
232.1673, 134.0799
232.6494, 131.1578
233.1316, 128.8588
233.6137, 126.7368
234.0958, 124.4027
234.5779, 121.9293
235.0600, 119.8398
235.5421, 118.5846
236.0243, 118.1173
236.5064, 117.5025
236.9885, 116.7115
237.4706, 115.8075
237.9527, 114.6908
238.4348, 113.4010
238.9170, 112.3403
239.3991, 111.8045
239.8812, 111.7195
240.3633, 111.6800
240.8454, 111.7502
241.3275, 111.7943
241.8097, 111.6076
242.2918, 111.2029
242.7739, 110.9858
243.2560, 111.2443
243.7381, 111.8288
244.2202, 112.4246
244.7024, 113.0128
245.1845, 113.5924
245.6666, 114.1307
246.1487, 114.6224
246.6308, 115.2100
247.1129, 115.9789
247.5951, 116.8768
248.0772, 117.8653
248.5593, 118.9858
249.0414, 120.0792
249.5235, 120.8904
250.0056, 121.3827
250.4878, 122.1049
250.9699, 123.3901
251.4520, 124.9221
251.9341, 126.4470
252.4162, 127.9362
252.8983, 129.3746
253.3805, 130.7153
253.8626, 131.9482
254.3447, 133.2027
254.8268, 134.4852
255.3089, 135.8165
255.7910, 137.2534
256.2732, 138.7954
256.7553, 140.2911
257.2374, 141.5396
257.7195, 142.4946
258.2016, 143.5073
258.6837, 144.9450
259.1659, 146.2173
259.6480, 146.9038
260.1301, 147.0134
260.6122, 146.9900
261.0943, 147.4329
261.5764, 148.5010
262.0586, 148.9502
262.5407, 148.1433
263.0228, 147.1094
263.5049, 146.2449
263.9870, 145.5644
264.4691, 144.9016
264.9513, 144.1337
265.4334, 143.2702
265.9155, 142.1837
266.3976, 140.6916
266.8797, 139.1197
267.3618, 137.5005
267.8440, 135.8885
268.3261, 134.3912
268.8082, 133.1354
269.2903, 132.1337
269.7724, 131.0299
270.2545, 129.7824
270.7367, 128.4635
271.2188, 126.9847
271.7009, 125.4428
272.1830, 124.0335
272.6651, 122.9058
273.1472, 122.0439
273.6294, 121.1420
274.1115, 120.1976
274.5936, 119.2107
275.0757, 118.0727
275.5578, 116.9080
276.0399, 115.9252
276.5221, 115.2628
277.0042, 114.8664
277.4863, 114.4203
277.9684, 113.9580
278.4505, 113.3959
278.9326, 112.6091
279.4148, 111.7426
279.8969, 110.9612
280.3790, 110.3408
280.8611, 109.8851
281.3432, 109.6010
281.8253, 109.5524
282.3075, 109.6253
282.7896, 109.9065
283.2717, 110.2663
283.7538, 110.5347
284.2359, 110.6515
284.7180, 110.7379
285.2002, 111.0512
285.6823, 111.7796
286.1644, 112.4977
286.6465, 113.1385
287.1286, 113.8053
287.6107, 114.5770
288.0929, 115.4801
288.5750, 116.5086
289.0571, 117.6791
289.5392, 119.1119
290.0213, 120.3979
290.5034, 121.2456
290.9856, 122.1490
291.4677, 123.5249
291.9498, 125.3889
292.4319, 127.4243
292.9140, 129.2403
293.3961, 130.7384
293.8783, 132.4587
294.3604, 134.4516
294.8425, 136.5892
295.3246, 138.7840
295.8067, 141.0350
296.2888, 143.3817
296.7710, 145.8570
297.2531, 148.4462
297.7352, 151.2220
298.2173, 154.2066
298.6994, 157.3020
299.1815, 160.4455
299.6637, 163.6547
300.1458, 167.0098
300.6279, 170.5825
301.1100, 174.3475
301.5921, 178.3031
302.0742, 182.4797
302.5564, 186.7512
303.0385, 191.1281
303.5206, 195.5629
304.0027, 199.9955
304.4848, 204.3660
304.9669, 208.7450
305.4491, 213.3958
305.9312, 218.4990
306.4133, 223.6303
306.8954, 228.7282
307.3775, 233.8288
307.8596, 238.9380
308.3418, 244.0460
308.8239, 249.2694
309.3060, 254.7700
309.7881, 260.6302
310.2702, 266.6637
310.7523, 273.0070
311.2345, 279.4657
311.7166, 285.8482
312.1987, 292.0887
312.6808, 298.2543
313.1629, 304.4138
313.6451, 310.5223
314.1272, 316.6535
314.6093, 322.8084
315.0914, 328.9233
315.5735, 335.1398
316.0556, 341.3656
316.5378, 347.1920
317.0199, 352.3002
317.5020, 356.6375
317.9841, 360.9567
318.4662, 365.4559
318.9483, 369.7398
319.4305, 374.1986
319.9126, 378.3754
320.3947, 381.0987
320.8768, 381.5864
321.3589, 380.1542
321.8410, 378.3449
322.3232, 376.5516
322.8053, 373.9981
323.2874, 370.6288
323.7695, 366.3658
324.2516, 360.9770
324.7337, 354.3760
325.2159, 346.8616
325.6980, 339.1369
326.1801, 331.2035
326.6622, 323.0851
327.1443, 314.8355
327.6264, 306.3503
328.1086, 297.4224
328.5907, 288.0410
329.0728, 278.4712
329.5549, 269.0404
330.0370, 259.7079
330.5191, 250.6434
331.0013, 241.8822
331.4834, 233.3822
331.9655, 225.1362
332.4476, 217.1320
332.9297, 209.3255
333.4118, 201.5975
333.8940, 193.9368
334.3761, 186.9385
334.8582, 180.9390
335.3403, 175.1044
335.8224, 168.9007
336.3045, 162.5889
336.7867, 156.7039
337.2688, 151.6080
337.7509, 147.1846
338.2330, 142.9567
338.7151, 139.0559
339.1972, 135.1746
339.6793, 131.1260
340.1614, 127.1058
340.6436, 123.3739
341.1257, 119.9935
341.6078, 116.8840
342.0899, 113.8629
342.5720, 110.8816
343.0541, 108.1112
343.5363, 105.6190
344.0184, 103.2719
344.5005, 100.9507
344.9826, 98.64308
345.4647, 96.43150
345.9468, 94.42515
346.4290, 92.67006
346.9111, 90.86299
347.3932, 88.91796
347.8753, 87.02110
348.3574, 85.19907
348.8395, 83.49390
349.3217, 82.00007
349.8038, 80.81709
350.2859, 79.90325
350.7680, 78.85496
351.2501, 77.54916
351.7322, 76.23499
352.2144, 74.93935
352.6965, 73.66609
353.1786, 72.42662
353.6607, 71.22501
354.1428, 70.05547
354.6249, 68.88356
355.1071, 67.59648
355.5892, 66.51760
356.0713, 65.81873
356.5534, 65.20934
357.0355, 64.47198
357.5176, 63.56445
357.9998, 62.57415
358.4819, 61.57809
358.9640, 60.52125
359.4461, 59.69506
359.9282, 59.30394
360.4103, 58.93050
360.8925, 58.42426
361.3746, 57.78712
361.8567, 57.07613
362.3388, 56.31456
362.8209, 55.51500
363.3030, 54.79798
363.7852, 54.25169
364.2673, 53.68199
364.7494, 53.01159
365.2315, 52.30748
365.7136, 51.65442
366.1957, 51.08923
366.6779, 50.59016
367.1600, 50.11486
367.6421, 49.64497
368.1242, 49.25016
368.6063, 49.01035
369.0884, 48.79417
369.5706, 48.52471
370.0527, 48.18662
370.5348, 47.79916
371.0169, 47.33307
371.4990, 46.77499
371.9811, 46.38691
372.4633, 46.43151
372.9454, 46.37169
373.4275, 45.84813
373.9096, 45.02992
374.3917, 44.32679
374.8738, 44.01251
375.3560, 43.97886
375.8381, 43.92154
376.3202, 43.87614
376.8023, 43.71861
377.2844, 43.26243
377.7665, 42.73274
378.2487, 42.39046
378.7308, 42.33007
379.2129, 42.36671
379.6950, 42.29865
380.1771, 42.12367
380.6592, 41.89016
381.1414, 41.54391
381.6235, 41.20149
382.1056, 40.95298
382.5877, 40.79950
383.0698, 40.70652
383.5519, 40.66138
384.0341, 40.66003
384.5162, 40.70691
384.9983, 40.83382
385.4804, 40.92826
385.9625, 40.85351
386.4446, 40.68301
386.9268, 40.57033
387.4089, 40.58823
387.8910, 40.65698
388.3731, 40.68172
388.8552, 40.66514
389.3373, 40.68079
389.8195, 40.74547
390.3016, 40.88221
390.7837, 41.12765
391.2658, 41.51857
391.7479, 41.90606
392.2300, 42.26213
392.7122, 42.55761
393.1943, 42.69739
393.6764, 42.63178
394.1585, 42.52011
394.6406, 42.55826
395.1227, 42.74909
395.6049, 42.93044
396.0870, 42.97963
396.5691, 43.08202
397.0512, 43.41462
397.5333, 43.97135
398.0154, 44.63668
398.4976, 45.39172
398.9797, 46.17877
399.4618, 46.66506
399.9439, 46.64673
400.4260, 46.62061
400.9081, 46.64556
401.3903, 46.77894
401.8724, 47.17161
402.3545, 47.88206
402.8366, 48.69104
403.3187, 49.21227
403.8008, 49.23595
404.2830, 49.42812
404.7651, 49.84541
405.2472, 50.38020
405.7293, 51.00148
406.2114, 51.67738
406.6935, 52.35449
407.1757, 52.99888
407.6578, 53.60521
408.1399, 54.07801
408.6220, 54.15582
409.1041, 54.39557
409.5862, 55.13964
410.0684, 56.04184
410.5505, 56.62844
411.0326, 56.69176
411.5147, 56.44942
411.9968, 56.32921
412.4789, 56.40173
412.9611, 56.44244
413.4432, 56.55303
413.9253, 56.54479
414.4074, 56.29739
414.8895, 55.81183
415.3716, 55.16018
415.8538, 54.35612
416.3359, 53.41538
416.8180, 52.61443
417.3001, 52.06892
417.7822, 51.50336
418.2643, 50.91156
418.7465, 50.21933
419.2286, 49.29155
419.7107, 48.03772
420.1928, 46.66876
420.6749, 45.49955
421.1570, 44.55540
421.6392, 43.62635
422.1213, 42.67586
422.6034, 41.71627
423.0855, 40.75598
423.5676, 39.79073
424.0497, 38.85201
424.5319, 37.95929
425.0140, 37.10608
425.4961, 36.27745
425.9782, 35.47832
426.4603, 34.68957
426.9424, 33.86165
427.4246, 33.04609
427.9067, 32.35997
428.3888, 31.86468
428.8709, 31.45703
429.3530, 31.09192
429.8351, 30.75772
430.3173, 30.38958
430.7994, 29.94620
431.2815, 29.49377
431.7636, 29.15847
432.2457, 28.95327
432.7278, 28.73752
433.2100, 28.48508
433.6921, 28.20467
434.1742, 27.88343
434.6563, 27.52818
435.1384, 27.21319
435.6205, 27.01124
436.1027, 26.91340
436.5848, 26.75283
437.0669, 26.48884
437.5490, 26.22047
438.0311, 25.90921
438.5132, 25.63192
438.9954, 25.54378
439.4775, 25.69979
439.9596, 25.94248
440.4417, 25.99575
440.9238, 25.77699
441.4059, 25.54618
441.8881, 25.29541
442.3702, 25.04036
442.8523, 24.75778
443.3344, 24.47557
443.8165, 24.26819
444.2986, 24.20382
444.7808, 24.25318
445.2629, 24.23252
445.7450, 24.07845
446.2271, 23.94751
446.7092, 23.88107
447.1913, 23.84260
447.6735, 23.80219
448.1556, 23.75084
448.6377, 23.68795
449.1198, 23.61402
449.6019, 23.52967
450.0840, 23.42291
450.5662, 23.25414
451.0483, 23.11067
451.5304, 23.05043
452.0125, 23.04987
452.4946, 23.05290
452.9767, 23.04852
453.4589, 23.02130
453.9410, 22.91217
454.4231, 22.70945
454.9052, 22.60051
455.3873, 22.72480
455.8694, 22.93146
456.3516, 23.00657
456.8337, 22.93152
457.3158, 22.83123
457.7979, 22.76967
458.2800, 22.72001
458.7621, 22.61860
459.2443, 22.45173
459.7264, 22.30949
460.2085, 22.27189
460.6906, 22.33375
461.1727, 22.38666
461.6548, 22.40885
462.1370, 22.44427
462.6191, 22.51113
463.1012, 22.60569
463.5833, 22.74424
464.0654, 22.93800
464.5475, 23.10480
465.0297, 23.09334
465.5118, 22.77499
465.9939, 22.60082
466.4760, 22.65040
466.9581, 22.76339
467.4402, 22.90178
467.9224, 23.02441
468.4045, 23.03620
468.8866, 22.85279
469.3687, 22.54585
469.8508, 22.45881
470.3329, 22.79414
470.8151, 23.02740
471.2972, 23.01711
471.7793, 22.93614
472.2614, 22.91982
472.7435, 22.99491
473.2256, 23.11318
473.7078, 23.24109
474.1899, 23.37822
474.6720, 23.48544
475.1541, 23.56458
475.6362, 23.60774
476.1183, 23.57001
476.6005, 23.50828
477.0826, 23.51506
477.5647, 23.63236
478.0468, 23.79643
478.5289, 23.94187
479.0110, 24.07083
479.4932, 24.22358
479.9753, 24.43753
480.4574, 24.63319
480.9395, 24.69687
481.4216, 24.64317
481.9037, 24.60148
482.3859, 24.54520
482.8680, 24.55773
483.3501, 24.76193
483.8322, 25.13297
484.3143, 25.50734
484.7964, 25.80992
485.2786, 26.03968
485.7607, 26.18883
486.2428, 26.24633
486.7249, 26.25287
487.2070, 26.13065
487.6891, 26.01026
488.1713, 25.99540
488.6534, 26.10827
489.1355, 26.35672
489.6176, 26.77138
490.0997, 27.34682
490.5818, 27.76156
491.0640, 27.83994
491.5461, 27.94736
492.0282, 28.13361
492.5103, 28.38191
492.9924, 28.71097
493.4745, 29.11437
493.9567, 29.46674
494.4388, 29.56413
494.9209, 29.37362
495.4030, 29.29790
495.8851, 29.38886
496.3672, 29.56186
496.8494, 29.82914
497.3315, 30.13243
497.8136, 30.36384
498.2957, 30.48050
498.7778, 30.50851
499.2599, 30.41731
499.7421, 30.21952
500.2242, 30.18279
500.7063, 30.47362
501.1884, 30.83035
501.6705, 30.92505
502.1526, 30.77480
502.6348, 30.56711
503.1169, 30.25684
503.5990, 29.97447
504.0811, 29.90372
504.5632, 30.00432
505.0453, 30.01112
505.5274, 29.75620
506.0096, 29.34916
506.4917, 29.12109
506.9738, 29.26023
507.4559, 29.26832
507.9380, 28.95523
508.4201, 28.61068
508.9023, 28.51763
509.3844, 28.66023
509.8665, 28.80341
510.3486, 28.75769
510.8307, 28.53949
511.3128, 28.28683
511.7950, 27.92682
512.2771, 27.64427
512.7592, 27.55358
513.2413, 27.49625
513.7234, 27.28506
514.2056, 26.90043
514.6877, 26.55303
515.1698, 26.51024
515.6519, 26.72504
516.1340, 26.76493
516.6161, 26.56153
517.0983, 26.30009
517.5804, 26.06606
518.0625, 25.84697
518.5446, 25.61696
519.0267, 25.35710
519.5089, 25.12386
519.9910, 24.92877
520.4731, 24.79243
520.9552, 24.81056
521.4373, 25.03078
521.9194, 25.25128
522.4016, 25.26584
522.8837, 25.06184
523.3658, 24.87449
523.8479, 24.64927
524.3300, 24.49766
524.8121, 24.53891
525.2943, 24.67335
525.7764, 24.70502
526.2585, 24.56580
526.7406, 24.39026
527.2227, 24.41257
527.7048, 24.75174
528.1870, 24.85918
528.6691, 24.46820
529.1512, 24.13194
529.6333, 24.10653
530.1154, 24.28041
530.5975, 24.43082
531.0797, 24.44979
531.5618, 24.41924
532.0439, 24.50192
532.5260, 24.72355
533.0081, 24.84108
533.4902, 24.68308
533.9724, 24.56467
534.4545, 24.78322
534.9366, 25.24329
535.4187, 25.58089
535.9008, 25.59396
536.3829, 25.47036
536.8651, 25.36561
537.3472, 25.29129
537.8293, 25.35037
538.3114, 25.61423
538.7935, 25.95605
539.2756, 26.16951
539.7578, 26.23087
540.2399, 26.30344
540.7220, 26.40488
541.2041, 26.51947
541.6862, 26.60586
542.1683, 26.69500
542.6505, 26.89185
543.1326, 27.26146
543.6147, 27.70263
544.0968, 27.95278
544.5789, 27.85476
545.0610, 27.88677
545.5432, 28.16303
546.0253, 28.46546
546.5074, 28.61395
546.9895, 28.68017
547.4716, 28.89965
547.9537, 29.46628
548.4359, 30.18176
548.9180, 30.57841
549.4001, 30.60455
549.8822, 30.67515
550.3643, 30.88729
550.8464, 31.20516
551.3286, 31.58314
551.8107, 32.01918
552.2928, 32.51396
552.7749, 33.14507
553.2570, 33.77902
553.7391, 34.23507
554.2213, 34.54137
554.7034, 34.89072
555.1855, 35.38401
555.6676, 35.94220
556.1497, 36.39487
556.6318, 36.61010
557.1140, 37.03393
557.5961, 37.79272
558.0782, 38.66195
558.5603, 39.54736
559.0424, 40.41852
559.5245, 41.24384
560.0067, 42.01123
560.4888, 42.70926
560.9709, 43.25509
561.4530, 43.47624
561.9351, 44.02794
562.4172, 45.28901
562.8994, 46.64605
563.3815, 47.82371
563.8636, 48.83103
564.3457, 49.74681
564.8278, 50.55627
565.3099, 51.35762
565.7921, 52.28520
566.2742, 53.33708
566.7563, 54.47420
567.2384, 55.69646
567.7205, 56.98032
568.2026, 58.33485
568.6848, 59.76218
569.1669, 61.08900
569.6490, 62.29387
570.1311, 63.38357
570.6132, 64.31303
571.0953, 65.13911
571.5775, 65.98547
572.0596, 66.89790
572.5417, 67.91830
573.0238, 69.14221
573.5059, 70.72366
573.9880, 72.04245
574.4702, 73.04472
574.9523, 73.85429
575.4344, 74.32188
575.9165, 74.67531
576.3986, 75.31013
576.8807, 76.42006
577.3629, 77.69311
577.8450, 78.68105
578.3271, 79.38750
578.8092, 80.11879
579.2913, 80.93929
579.7734, 81.75256
580.2556, 82.41724
580.7377, 83.01260
581.2198, 83.76655
581.7019, 84.80029
582.1840, 85.89524
582.6661, 86.93515
583.1483, 87.93758
583.6304, 88.97449
584.1125, 90.06360
584.5946, 91.08965
585.0767, 91.95040
585.5588, 92.64433
586.0409, 93.14671
586.5230, 93.40849
587.0051, 93.55704
587.4872, 93.51771
587.9694, 93.43285
588.4515, 93.47487
588.9336, 93.66854
589.4157, 93.87570
589.8978, 93.97348
590.3799, 93.96288
590.8621, 93.86661
591.3442, 93.71183
591.8263, 93.40256
592.3084, 92.92161
592.7905, 92.24340
593.2726, 91.25900
593.7548, 89.91314
594.2369, 88.63137
594.7190, 87.81396
595.2011, 87.09793
595.6832, 85.91635
596.1653, 84.27952
596.6475, 82.62249
597.1296, 81.20972
597.6117, 79.97683
598.0938, 78.74624
598.5759, 77.65853
599.0580, 76.33681
599.5402, 74.56608
600.0223, 72.75304
600.5044, 71.13658
600.9865, 69.71248
601.4686, 68.39507
601.9507, 67.15785
602.4329, 65.93134
602.9150, 64.54173
603.3971, 62.94310
