##NAMES=Phosphuranylite
##RRUFFID=R050470
##IDEAL CHEMISTRY=KCa(H_3_O)_3_(U^6+^O_2_)_7_(PO_4_)_4_O_4_&#183;8H_2_O
##LOCALITY=La Faye mine, Grury District, Burgundy Region, France
##OWNER=RRUFF
##SOURCE=University of Arizona Mineral Museum
##DESCRIPTION=Yellow thin flattened bladed crystals
##STATUS=The identification of this mineral is confirmed by single-crystal X-ray diffraction and chemical analysis.
##URL=rruff.info/R050470
##MEASURED CHEMISTRY=(Ca_0.70_Pb_0.30_)_Σ=1_(U_1.00_O_2_)_7_(P_1.00_O_4_)_4_(OH)_4_·15.72H_2_O
91.00781, 39.22004
91.48993, 38.19708
91.97205, 37.78925
92.45416, 38.08589
92.93628, 38.98878
93.41840, 40.29017
93.90051, 41.94890
94.38263, 43.99223
94.86475, 46.48499
95.34686, 49.42704
95.82898, 52.81533
96.31110, 56.62465
96.79321, 60.86380
97.27533, 65.48328
97.75745, 70.24783
98.23956, 75.34978
98.72168, 81.46297
99.20380, 88.54710
99.68591, 96.57009
100.1680, 105.5699
100.6501, 115.5177
101.1323, 126.1546
101.6144, 136.9028
102.0965, 147.5282
102.5786, 161.2817
103.0607, 179.1668
103.5428, 199.3925
104.0250, 219.4234
104.5071, 238.6324
104.9892, 258.4110
105.4713, 279.1452
105.9534, 301.0918
106.4355, 323.3988
106.9177, 346.9691
107.3998, 370.9343
107.8819, 393.3939
108.3640, 414.1073
108.8461, 433.2524
109.3282, 451.1408
109.8104, 464.3745
110.2925, 479.8271
110.7746, 498.0110
111.2567, 518.6821
111.7388, 540.7471
112.2209, 564.1481
112.7031, 588.6307
113.1852, 614.2998
113.6673, 640.5519
114.1494, 668.3488
114.6315, 698.4513
115.1136, 731.1948
115.5958, 764.2425
116.0779, 797.5662
116.5600, 830.6305
117.0421, 862.6969
117.5242, 893.7331
118.0063, 923.8989
118.4885, 953.7601
118.9706, 983.4755
119.4527, 1012.209
119.9348, 1039.578
120.4169, 1065.533
120.8990, 1090.413
121.3812, 1113.892
121.8633, 1136.427
122.3454, 1158.172
122.8275, 1179.328
123.3096, 1199.686
123.7917, 1218.734
124.2739, 1236.715
124.7560, 1254.518
125.2381, 1272.167
125.7202, 1290.177
126.2023, 1309.018
126.6844, 1328.575
127.1666, 1349.515
127.6487, 1373.416
128.1308, 1400.243
128.6129, 1427.452
129.0950, 1452.794
129.5771, 1476.933
130.0593, 1502.434
130.5414, 1530.295
131.0235, 1559.671
131.5056, 1586.855
131.9877, 1605.770
132.4698, 1616.480
132.9520, 1626.884
133.4341, 1637.061
133.9162, 1648.107
134.3983, 1660.990
134.8804, 1675.289
135.3625, 1687.944
135.8447, 1698.994
136.3268, 1708.703
136.8089, 1717.437
137.2910, 1725.192
137.7731, 1732.430
138.2552, 1739.414
138.7374, 1746.123
139.2195, 1752.320
139.7016, 1757.801
140.1837, 1762.975
140.6658, 1768.740
141.1479, 1775.506
141.6301, 1781.881
142.1122, 1787.082
142.5943, 1790.416
143.0764, 1794.460
143.5585, 1799.741
144.0406, 1805.702
144.5228, 1810.623
145.0049, 1814.159
145.4870, 1817.047
145.9691, 1819.686
146.4512, 1822.532
146.9333, 1824.477
147.4155, 1825.058
147.8976, 1824.498
148.3797, 1824.696
148.8618, 1826.512
149.3439, 1828.495
149.8260, 1829.712
150.3082, 1830.170
150.7903, 1829.851
151.2724, 1828.084
151.7545, 1824.787
152.2366, 1822.944
152.7188, 1823.615
153.2009, 1825.223
153.6830, 1826.493
154.1651, 1827.827
154.6472, 1828.244
155.1293, 1827.432
155.6115, 1825.323
156.0936, 1822.503
156.5757, 1818.493
157.0578, 1814.035
157.5399, 1809.998
158.0220, 1806.432
158.5042, 1803.495
158.9863, 1801.550
159.4684, 1800.904
159.9505, 1799.978
160.4326, 1797.644
160.9147, 1794.892
161.3969, 1793.180
161.8790, 1793.703
162.3611, 1794.910
162.8432, 1796.195
163.3253, 1797.745
163.8074, 1798.447
164.2896, 1797.085
164.7717, 1794.468
165.2538, 1792.229
165.7359, 1790.706
166.2180, 1789.995
166.7001, 1790.335
167.1823, 1792.178
167.6644, 1794.047
168.1465, 1795.011
168.6286, 1795.243
169.1107, 1795.258
169.5928, 1795.122
170.0750, 1795.007
170.5571, 1795.209
171.0392, 1796.217
171.5213, 1796.896
172.0034, 1795.871
172.4855, 1793.517
172.9677, 1791.483
173.4498, 1790.964
173.9319, 1791.381
174.4140, 1791.920
174.8961, 1792.385
175.3782, 1792.873
175.8604, 1793.730
176.3425, 1794.871
176.8246, 1795.582
177.3067, 1794.933
177.7888, 1793.482
178.2709, 1792.339
178.7531, 1791.606
179.2352, 1791.501
179.7173, 1792.500
180.1994, 1794.574
180.6815, 1797.118
181.1636, 1800.429
181.6458, 1803.930
182.1279, 1805.677
182.6100, 1803.786
183.0921, 1800.309
183.5742, 1799.639
184.0563, 1801.878
184.5385, 1805.030
185.0206, 1807.104
185.5027, 1808.339
185.9848, 1809.853
186.4669, 1812.587
186.9490, 1815.813
187.4312, 1817.181
187.9133, 1816.469
188.3954, 1815.154
188.8775, 1814.853
189.3596, 1815.486
189.8417, 1816.318
190.3239, 1816.906
190.8060, 1817.427
191.2881, 1818.994
191.7702, 1821.847
192.2523, 1824.817
192.7344, 1826.431
193.2166, 1826.698
193.6987, 1826.465
194.1808, 1825.654
194.6629, 1824.411
195.1450, 1824.219
195.6271, 1825.060
196.1093, 1826.990
196.5914, 1830.946
197.0735, 1837.206
197.5556, 1841.951
198.0377, 1842.633
198.5198, 1839.208
199.0020, 1837.932
199.4841, 1839.265
199.9662, 1841.888
200.4483, 1843.515
200.9304, 1843.869
201.4125, 1844.831
201.8947, 1847.703
202.3768, 1852.740
202.8589, 1856.529
203.3410, 1859.170
203.8231, 1860.433
204.3052, 1859.057
204.7874, 1854.106
205.2695, 1850.459
205.7516, 1850.989
206.2337, 1856.548
206.7158, 1860.411
207.1979, 1862.051
207.6801, 1862.444
208.1622, 1863.739
208.6443, 1866.399
209.1264, 1868.573
209.6085, 1869.177
210.0906, 1867.734
210.5728, 1866.924
211.0549, 1866.884
211.5370, 1867.439
212.0191, 1868.200
212.5012, 1869.161
212.9833, 1870.400
213.4655, 1871.992
213.9476, 1874.053
214.4297, 1876.133
214.9118, 1878.235
215.3939, 1880.363
215.8760, 1882.635
216.3581, 1885.200
216.8403, 1887.549
217.3224, 1889.567
217.8045, 1891.614
218.2866, 1891.988
218.7687, 1889.712
219.2508, 1886.043
219.7330, 1884.576
220.2151, 1886.102
220.6972, 1888.249
221.1793, 1889.688
221.6614, 1889.608
222.1435, 1891.102
222.6257, 1895.208
223.1078, 1900.600
223.5899, 1903.632
224.0720, 1903.465
224.5541, 1902.314
225.0362, 1901.104
225.5184, 1899.751
226.0005, 1898.623
226.4826, 1897.553
226.9647, 1896.806
227.4468, 1897.154
227.9289, 1899.110
228.4111, 1901.466
228.8932, 1903.948
229.3753, 1907.515
229.8574, 1908.894
230.3395, 1907.086
230.8216, 1903.299
231.3038, 1900.692
231.7859, 1899.151
232.2680, 1898.965
232.7501, 1900.443
233.2322, 1904.482
233.7143, 1908.119
234.1965, 1911.381
234.6786, 1914.218
235.1607, 1916.423
235.6428, 1917.253
236.1249, 1918.467
236.6070, 1921.090
237.0892, 1926.657
237.5713, 1929.976
238.0534, 1929.591
238.5355, 1927.308
239.0176, 1928.043
239.4997, 1934.075
239.9819, 1939.862
240.4640, 1942.828
240.9461, 1941.433
241.4282, 1940.977
241.9103, 1941.961
242.3924, 1943.744
242.8746, 1944.765
243.3567, 1944.746
243.8388, 1944.432
244.3209, 1944.035
244.8030, 1943.328
245.2851, 1943.306
245.7673, 1944.488
246.2494, 1946.176
246.7315, 1946.682
247.2136, 1944.894
247.6957, 1943.715
248.1778, 1944.509
248.6600, 1948.275
249.1421, 1950.971
249.6242, 1952.311
250.1063, 1952.749
250.5884, 1953.006
251.0705, 1952.476
251.5527, 1952.785
252.0348, 1954.853
252.5169, 1959.606
252.9990, 1962.697
253.4811, 1963.623
253.9632, 1963.217
254.4454, 1962.866
254.9275, 1962.481
255.4096, 1962.299
255.8917, 1962.516
256.3738, 1963.335
256.8560, 1963.559
257.3381, 1962.917
257.8202, 1961.917
258.3023, 1961.344
258.7844, 1961.396
259.2665, 1961.465
259.7487, 1961.261
260.2308, 1960.654
260.7129, 1960.870
261.1950, 1962.515
261.6771, 1964.314
262.1592, 1964.403
262.6414, 1962.207
263.1235, 1959.712
263.6056, 1957.262
264.0877, 1954.771
264.5698, 1953.436
265.0519, 1953.578
265.5341, 1954.438
266.0162, 1955.321
266.4983, 1956.481
266.9804, 1956.836
267.4625, 1955.819
267.9446, 1953.476
268.4268, 1952.073
268.9089, 1952.036
269.3910, 1952.239
269.8731, 1951.417
270.3552, 1949.279
270.8373, 1947.302
271.3195, 1945.905
271.8016, 1944.987
272.2837, 1943.336
272.7658, 1940.514
273.2479, 1937.874
273.7300, 1936.965
274.2122, 1938.194
274.6943, 1938.646
275.1764, 1937.580
275.6585, 1935.302
276.1406, 1933.232
276.6227, 1931.281
277.1049, 1929.885
277.5870, 1929.823
278.0691, 1931.305
278.5512, 1931.761
279.0333, 1930.642
279.5154, 1928.295
279.9976, 1925.427
280.4797, 1921.741
280.9618, 1919.023
281.4439, 1919.176
281.9260, 1922.229
282.4081, 1923.911
282.8903, 1923.375
283.3724, 1921.473
283.8545, 1919.922
284.3366, 1918.671
284.8187, 1918.295
285.3008, 1919.742
285.7830, 1922.809
286.2651, 1924.896
286.7472, 1925.719
287.2293, 1925.606
287.7114, 1924.652
288.1935, 1922.865
288.6757, 1921.777
289.1578, 1922.780
289.6399, 1925.398
290.1220, 1927.309
290.6041, 1928.450
291.0862, 1928.654
291.5684, 1927.037
292.0505, 1923.822
292.5326, 1921.214
293.0147, 1920.944
293.4968, 1922.126
293.9789, 1921.964
294.4611, 1920.274
294.9432, 1918.010
295.4253, 1916.132
295.9074, 1914.598
296.3895, 1913.231
296.8716, 1911.821
297.3538, 1910.561
297.8359, 1909.905
298.3180, 1909.865
298.8001, 1910.047
299.2822, 1910.051
299.7643, 1909.977
300.2465, 1910.102
300.7286, 1910.733
301.2107, 1911.478
301.6928, 1911.733
302.1749, 1911.527
302.6570, 1911.302
303.1392, 1911.765
303.6213, 1912.401
304.1034, 1912.250
304.5855, 1910.562
305.0676, 1908.552
305.5497, 1907.380
306.0319, 1906.959
306.5140, 1906.778
306.9961, 1906.146
307.4782, 1905.687
307.9603, 1906.286
308.4424, 1908.638
308.9246, 1911.104
309.4067, 1912.563
309.8888, 1913.108
310.3709, 1913.056
310.8530, 1912.347
311.3351, 1911.213
311.8173, 1909.635
312.2994, 1907.244
312.7815, 1905.508
313.2636, 1906.037
313.7457, 1907.792
314.2278, 1908.904
314.7100, 1908.194
315.1921, 1906.904
315.6742, 1905.622
316.1563, 1904.359
316.6384, 1903.567
317.1205, 1903.852
317.6027, 1904.639
318.0848, 1905.195
318.5669, 1904.839
319.0490, 1904.604
319.5311, 1905.103
320.0132, 1906.392
320.4954, 1907.233
320.9775, 1906.655
321.4596, 1905.750
321.9417, 1905.451
322.4238, 1906.804
322.9059, 1907.872
323.3881, 1907.926
323.8702, 1907.078
324.3523, 1906.777
324.8344, 1907.759
325.3165, 1909.020
325.7986, 1909.980
326.2808, 1909.651
326.7629, 1910.167
327.2450, 1912.444
327.7271, 1915.887
328.2092, 1918.125
328.6913, 1918.644
329.1735, 1918.395
329.6556, 1917.656
330.1377, 1915.831
330.6198, 1914.629
331.1019, 1914.293
331.5840, 1914.479
332.0662, 1914.457
332.5483, 1913.398
333.0304, 1913.300
333.5125, 1915.121
333.9946, 1919.468
334.4767, 1922.455
334.9589, 1923.553
335.4410, 1923.760
335.9231, 1924.397
336.4052, 1925.844
336.8873, 1926.689
337.3694, 1926.318
337.8516, 1924.857
338.3336, 1924.474
338.8158, 1925.581
339.2979, 1926.979
339.7800, 1927.608
340.2621, 1927.404
340.7442, 1927.025
341.2263, 1926.509
341.7085, 1925.968
342.1906, 1925.720
342.6727, 1925.750
343.1548, 1926.183
343.6369, 1927.093
344.1190, 1928.460
344.6012, 1930.421
345.0833, 1933.197
345.5654, 1936.087
346.0475, 1937.777
346.5296, 1938.303
347.0117, 1938.524
347.4939, 1938.554
347.9760, 1938.590
348.4581, 1939.316
348.9402, 1940.790
349.4223, 1942.772
349.9044, 1945.589
350.3866, 1948.856
350.8687, 1951.291
351.3508, 1952.249
351.8329, 1952.146
352.3150, 1951.170
352.7971, 1949.359
353.2793, 1948.082
353.7614, 1948.396
354.2435, 1949.942
354.7256, 1952.254
355.2077, 1955.938
355.6898, 1959.384
356.1720, 1961.107
356.6541, 1961.339
357.1362, 1961.106
357.6183, 1959.858
358.1004, 1959.015
358.5826, 1960.289
359.0647, 1965.125
359.5468, 1969.169
360.0289, 1969.031
360.5110, 1966.512
360.9931, 1965.042
361.4753, 1967.544
361.9574, 1970.183
362.4395, 1970.612
362.9216, 1968.148
363.4037, 1966.569
363.8858, 1968.114
364.3680, 1970.694
364.8501, 1972.115
365.3322, 1970.359
365.8143, 1969.030
366.2964, 1968.975
366.7785, 1970.221
367.2607, 1972.136
367.7428, 1976.260
368.2249, 1980.023
368.7070, 1981.823
369.1891, 1978.477
369.6712, 1977.416
370.1534, 1980.115
370.6355, 1985.258
371.1176, 1988.688
371.5997, 1989.094
372.0818, 1989.374
372.5639, 1990.685
373.0461, 1993.355
373.5282, 1995.903
374.0103, 1998.454
374.4924, 2000.751
374.9745, 2002.281
375.4566, 2002.775
375.9388, 2003.399
376.4209, 2004.634
376.9030, 2006.443
377.3851, 2007.609
377.8672, 2008.065
378.3493, 2008.324
378.8315, 2008.689
379.3136, 2009.189
379.7957, 2010.586
380.2778, 2013.453
380.7599, 2016.942
381.2420, 2018.435
381.7242, 2017.906
382.2063, 2018.334
382.6884, 2023.133
383.1705, 2030.643
383.6526, 2034.453
384.1347, 2033.266
384.6169, 2030.924
385.0990, 2032.769
385.5811, 2037.600
386.0632, 2041.525
386.5453, 2042.293
387.0274, 2041.304
387.5096, 2039.722
387.9917, 2037.614
388.4738, 2036.692
388.9559, 2039.502
389.4380, 2043.997
389.9201, 2047.460
390.4023, 2048.341
390.8844, 2048.769
391.3665, 2050.256
391.8486, 2052.534
392.3307, 2054.531
392.8128, 2055.797
393.2950, 2056.539
393.7771, 2056.717
394.2592, 2055.859
394.7413, 2055.593
395.2234, 2056.848
395.7055, 2058.902
396.1877, 2060.653
396.6698, 2062.092
397.1519, 2062.950
397.6340, 2062.883
398.1161, 2061.732
398.5982, 2061.169
399.0804, 2062.403
399.5625, 2063.648
400.0446, 2063.545
400.5267, 2060.093
401.0088, 2058.317
401.4909, 2058.793
401.9731, 2061.319
402.4552, 2065.346
402.9373, 2072.323
403.4194, 2078.480
403.9015, 2081.501
404.3836, 2080.022
404.8658, 2081.127
405.3479, 2085.885
405.8300, 2091.700
406.3121, 2094.004
406.7942, 2092.006
407.2763, 2091.921
407.7585, 2096.642
408.2406, 2105.014
408.7227, 2110.356
409.2048, 2112.389
409.6869, 2113.389
410.1690, 2115.003
410.6512, 2117.203
411.1333, 2120.029
411.6154, 2123.656
412.0975, 2127.636
412.5796, 2131.382
413.0617, 2134.937
413.5439, 2138.547
414.0260, 2142.393
414.5081, 2146.432
414.9902, 2150.741
415.4723, 2155.426
415.9544, 2159.710
416.4366, 2163.152
416.9187, 2165.727
417.4008, 2167.384
417.8829, 2166.362
418.3650, 2165.927
418.8471, 2168.628
419.3293, 2173.924
419.8114, 2178.728
420.2935, 2180.666
420.7756, 2182.307
421.2577, 2185.553
421.7398, 2192.334
422.2220, 2197.687
422.7041, 2199.699
423.1862, 2199.768
423.6683, 2200.419
424.1504, 2202.809
424.6325, 2204.980
425.1147, 2206.311
425.5968, 2206.708
426.0789, 2207.254
426.5610, 2207.549
427.0431, 2208.361
427.5252, 2210.615
428.0074, 2215.755
428.4895, 2218.776
428.9716, 2218.242
429.4537, 2215.468
429.9358, 2215.064
430.4179, 2217.941
430.9001, 2219.927
431.3822, 2218.161
431.8643, 2212.555
432.3464, 2209.190
432.8285, 2208.532
433.3106, 2208.659
433.7928, 2206.988
434.2749, 2203.752
434.7570, 2200.959
435.2391, 2199.712
435.7212, 2198.917
436.2033, 2196.110
436.6855, 2191.505
437.1676, 2186.903
437.6497, 2183.803
438.1318, 2181.496
438.6139, 2178.855
439.0960, 2175.624
439.5782, 2172.355
440.0603, 2169.507
440.5424, 2166.927
441.0245, 2164.376
441.5066, 2161.196
441.9887, 2158.424
442.4709, 2157.333
442.9530, 2157.816
443.4351, 2156.927
443.9172, 2152.236
444.3993, 2146.489
444.8814, 2141.723
445.3636, 2138.673
445.8457, 2135.998
446.3278, 2133.980
446.8099, 2132.222
447.2920, 2129.688
447.7741, 2126.089
448.2563, 2121.997
448.7384, 2117.279
449.2205, 2111.592
449.7026, 2107.985
450.1847, 2107.845
450.6668, 2108.147
451.1490, 2105.757
451.6311, 2099.677
452.1132, 2094.938
452.5953, 2092.671
453.0774, 2091.886
453.5595, 2089.333
454.0417, 2084.712
454.5238, 2080.957
455.0059, 2080.520
455.4880, 2082.552
455.9701, 2082.293
456.4522, 2079.325
456.9344, 2075.832
457.4165, 2074.235
457.8986, 2074.002
458.3807, 2073.732
458.8628, 2073.031
459.3449, 2072.021
459.8271, 2070.749
460.3092, 2069.260
460.7913, 2067.719
461.2734, 2065.640
461.7555, 2063.921
462.2376, 2063.714
462.7198, 2065.671
463.2019, 2066.800
463.6840, 2064.810
464.1661, 2061.484
464.6482, 2058.982
465.1303, 2058.033
465.6125, 2057.743
466.0946, 2058.436
466.5767, 2059.895
467.0588, 2060.213
467.5409, 2057.796
468.0230, 2055.508
468.5052, 2054.706
468.9873, 2056.250
469.4694, 2057.262
469.9515, 2058.007
470.4336, 2058.036
470.9157, 2056.228
471.3979, 2051.649
471.8800, 2048.688
472.3621, 2049.094
472.8442, 2051.964
473.3263, 2052.705
473.8084, 2051.073
474.2906, 2049.189
474.7727, 2048.577
475.2548, 2049.013
475.7369, 2049.527
476.2190, 2050.026
476.7011, 2050.482
477.1833, 2051.183
477.6654, 2051.849
478.1475, 2051.713
478.6296, 2049.727
479.1117, 2047.299
479.5938, 2045.334
480.0760, 2043.976
480.5581, 2044.195
481.0402, 2048.880
481.5223, 2053.975
482.0044, 2055.876
482.4865, 2052.696
482.9687, 2049.688
483.4508, 2048.691
483.9329, 2048.914
484.4150, 2049.231
484.8971, 2049.198
485.3792, 2049.479
485.8614, 2050.301
486.3435, 2051.624
486.8256, 2053.084
487.3077, 2055.417
487.7898, 2057.008
488.2719, 2056.717
488.7541, 2053.626
489.2362, 2051.597
489.7183, 2050.652
490.2004, 2050.768
490.6825, 2052.271
491.1646, 2055.340
491.6468, 2058.018
492.1289, 2059.957
492.6110, 2060.990
493.0931, 2060.372
493.5752, 2058.112
494.0573, 2055.654
494.5395, 2053.635
495.0216, 2052.207
495.5037, 2051.823
495.9858, 2052.677
496.4679, 2053.818
496.9500, 2054.246
497.4322, 2054.404
497.9143, 2055.021
498.3964, 2056.872
498.8785, 2058.848
499.3606, 2060.599
499.8427, 2062.053
500.3249, 2062.737
500.8070, 2061.191
501.2891, 2059.883
501.7712, 2060.449
502.2533, 2064.273
502.7354, 2066.457
503.2176, 2064.970
503.6997, 2062.509
504.1818, 2061.819
504.6639, 2063.794
505.1460, 2065.893
505.6281, 2068.102
506.1103, 2070.087
506.5924, 2070.280
507.0745, 2068.185
507.5566, 2065.946
508.0387, 2064.594
508.5208, 2064.093
509.0030, 2063.948
509.4851, 2064.222
509.9672, 2064.501
510.4493, 2064.074
510.9314, 2063.264
511.4135, 2063.342
511.8957, 2065.299
512.3778, 2067.187
512.8599, 2066.112
513.3420, 2063.016
513.8242, 2060.605
514.3063, 2060.669
514.7884, 2061.702
515.2705, 2062.726
515.7526, 2063.671
516.2347, 2064.397
516.7169, 2063.954
517.1990, 2063.762
517.6811, 2064.938
518.1632, 2069.227
518.6453, 2072.687
519.1274, 2074.382
519.6096, 2075.063
520.0917, 2076.112
520.5738, 2077.927
521.0559, 2079.400
521.5380, 2080.251
522.0201, 2080.499
522.5023, 2080.353
522.9844, 2079.685
523.4665, 2079.032
523.9486, 2078.565
524.4307, 2078.322
524.9128, 2079.234
525.3950, 2081.544
525.8771, 2084.388
526.3592, 2086.663
526.8413, 2088.476
527.3234, 2090.374
527.8055, 2093.037
528.2877, 2095.351
528.7698, 2095.664
529.2519, 2094.359
529.7340, 2093.116
530.2161, 2092.419
530.6982, 2092.466
531.1804, 2093.710
531.6625, 2096.459
532.1446, 2098.804
532.6267, 2099.921
533.1088, 2100.474
533.5909, 2101.058
534.0731, 2101.410
534.5552, 2102.312
535.0373, 2104.303
535.5194, 2106.821
536.0015, 2108.472
536.4836, 2108.878
536.9658, 2109.122
537.4479, 2109.449
537.9300, 2109.853
538.4121, 2110.589
538.8942, 2111.592
539.3763, 2113.081
539.8585, 2115.902
540.3406, 2119.601
540.8227, 2121.260
541.3048, 2120.051
541.7869, 2118.425
542.2690, 2119.697
542.7512, 2122.967
543.2333, 2125.979
543.7154, 2127.212
544.1975, 2128.308
544.6796, 2131.318
545.1617, 2135.637
545.6439, 2138.451
546.1260, 2136.605
546.6081, 2134.318
547.0902, 2134.391
547.5723, 2137.944
548.0544, 2140.417
548.5366, 2140.229
549.0187, 2139.257
549.5008, 2139.165
549.9829, 2140.470
550.4650, 2141.768
550.9471, 2143.103
551.4293, 2144.294
551.9114, 2144.842
552.3935, 2144.630
552.8756, 2144.381
553.3577, 2144.272
553.8398, 2144.359
554.3220, 2144.999
554.8041, 2146.213
555.2862, 2147.498
555.7683, 2148.633
556.2504, 2149.524
556.7325, 2150.028
557.2147, 2150.132
557.6968, 2149.778
558.1789, 2147.457
558.6610, 2144.988
559.1431, 2145.077
559.6252, 2152.059
560.1074, 2158.279
560.5895, 2160.372
561.0716, 2159.211
561.5537, 2157.740
562.0358, 2155.516
562.5179, 2154.047
563.0001, 2154.269
563.4822, 2156.460
563.9643, 2157.285
564.4464, 2156.245
564.9285, 2154.559
565.4106, 2153.065
565.8928, 2151.788
566.3749, 2150.554
566.8570, 2149.299
567.3391, 2148.191
567.8212, 2147.600
568.3033, 2147.447
568.7855, 2147.123
569.2676, 2146.142
569.7497, 2145.149
570.2318, 2145.256
570.7139, 2146.251
571.1960, 2147.228
571.6782, 2148.147
572.1603, 2148.476
572.6424, 2147.552
573.1245, 2145.242
573.6066, 2142.926
574.0887, 2140.786
574.5709, 2139.051
575.0530, 2137.880
575.5351, 2137.628
576.0172, 2137.483
576.4993, 2137.506
576.9814, 2137.596
577.4636, 2137.767
577.9457, 2138.563
578.4278, 2137.893
578.9099, 2134.696
579.3920, 2129.864
579.8741, 2126.788
580.3563, 2125.561
580.8384, 2125.026
581.3205, 2124.598
581.8026, 2124.309
582.2847, 2124.520
582.7668, 2125.249
583.2490, 2125.539
583.7311, 2124.323
584.2132, 2122.287
