##NAMES=Phosgenite
##RRUFFID=R050640
##IDEAL CHEMISTRY=Pb^2+^_2_CO_3_Cl_2_
##LOCALITY=Monte Poni, Sardinia, Italy
##OWNER=RRUFF
##SOURCE=University of Arizona Mineral Museum
##DESCRIPTION=Gray rectangular prismatic crystal
##STATUS=The identification of this mineral has been confirmed by X-ray diffraction and chemical analysis
##URL=rruff.info/R050640
##MEASURED CHEMISTRY=Pb_2.00_(CO_3_)Cl_2.03_ ; C estimated by difference
89.78156, 0.0000000E+00
90.26367, 130.5946
90.74579, 130.5330
91.22791, 130.3742
91.71002, 130.1662
92.19214, 130.3549
92.67426, 131.7760
93.15638, 133.9427
93.63850, 135.4973
94.12061, 135.5340
94.60273, 134.7914
95.08485, 135.1288
95.56696, 136.6573
96.04908, 138.4933
96.53120, 139.6042
97.01331, 140.0004
97.49543, 140.2743
97.97755, 140.5183
98.45966, 140.7538
98.94178, 141.5778
99.42390, 143.2559
99.90602, 145.1424
100.3881, 145.7153
100.8703, 144.4769
101.3524, 143.7168
101.8345, 145.0595
102.3166, 149.3216
102.7987, 152.0244
103.2808, 152.3286
103.7630, 150.8650
104.2451, 150.3570
104.7272, 150.9601
105.2093, 152.3093
105.6914, 154.0890
106.1735, 155.5815
106.6557, 158.7082
107.1378, 163.6667
107.6199, 170.5154
108.1020, 178.8159
108.5841, 186.6201
109.0662, 196.9768
109.5484, 212.7017
110.0305, 236.5762
110.5126, 263.2184
110.9947, 290.7890
111.4768, 318.3714
111.9590, 352.2488
112.4411, 394.1489
112.9232, 442.6828
113.4053, 494.8082
113.8874, 546.4715
114.3695, 604.9250
114.8517, 673.0898
115.3338, 753.2335
115.8159, 837.8652
116.2980, 923.0836
116.7801, 1011.989
117.2622, 1110.354
117.7444, 1217.609
118.2265, 1337.498
118.7086, 1471.906
119.1907, 1622.904
119.6728, 1788.491
120.1549, 1969.118
120.6371, 2164.126
121.1192, 2371.742
121.6013, 2587.952
122.0834, 2815.278
122.5655, 3055.589
123.0476, 3309.806
123.5298, 3576.928
124.0119, 3857.292
124.4940, 4150.670
124.9761, 4455.114
125.4582, 4781.731
125.9404, 5116.184
126.4225, 5427.483
126.9046, 5709.938
127.3867, 5959.938
127.8688, 6169.942
128.3509, 6339.228
128.8331, 6475.507
129.3152, 6579.709
129.7973, 6655.266
130.2794, 6717.236
130.7615, 6768.745
131.2436, 6811.833
131.7258, 6851.383
132.2079, 6886.585
132.6900, 6921.167
133.1721, 6961.367
133.6542, 7007.077
134.1364, 7054.038
134.6185, 7101.853
135.1006, 7150.520
135.5827, 7194.711
136.0648, 7234.339
136.5469, 7269.454
137.0291, 7298.600
137.5112, 7320.036
137.9933, 7341.950
138.4754, 7372.895
138.9575, 7415.801
139.4396, 7446.501
139.9218, 7457.134
140.4039, 7453.513
140.8860, 7463.762
141.3681, 7489.935
141.8502, 7526.392
142.3323, 7566.857
142.8145, 7607.956
143.2966, 7662.764
143.7787, 7731.932
144.2608, 7816.143
144.7429, 7917.130
145.2250, 8038.375
145.7072, 8174.581
146.1893, 8320.588
146.6714, 8469.558
147.1535, 8638.085
147.6356, 8828.596
148.1178, 9040.721
148.5999, 9271.870
149.0820, 9526.325
149.5641, 9797.270
150.0462, 10074.59
150.5283, 10379.43
151.0105, 10666.06
151.4926, 10830.46
151.9747, 10961.70
152.4568, 11046.63
152.9389, 11097.78
153.4210, 11101.93
153.9032, 11039.46
154.3853, 10878.86
154.8674, 10681.30
155.3495, 10461.34
155.8316, 10202.29
156.3137, 9957.731
156.7959, 9731.292
157.2780, 9523.855
157.7601, 9338.512
158.2422, 9171.986
158.7243, 9027.198
159.2065, 8904.287
159.6886, 8808.215
160.1707, 8723.890
160.6528, 8645.078
161.1349, 8573.958
161.6170, 8516.818
162.0992, 8482.306
162.5813, 8458.154
163.0634, 8436.059
163.5455, 8410.800
164.0276, 8391.596
164.5097, 8380.980
164.9919, 8379.181
165.4740, 8387.464
165.9561, 8409.966
166.4382, 8441.120
166.9203, 8476.220
167.4024, 8514.470
167.8846, 8555.784
168.3667, 8599.294
168.8488, 8645.486
169.3309, 8697.600
169.8130, 8759.361
170.2952, 8827.837
170.7773, 8898.515
171.2594, 8971.053
171.7415, 9044.783
172.2236, 9121.958
172.7057, 9202.091
173.1879, 9278.861
173.6700, 9346.062
174.1521, 9406.781
174.6342, 9466.568
175.1163, 9526.531
175.5984, 9587.626
176.0806, 9653.064
176.5627, 9723.202
177.0448, 9788.028
177.5269, 9837.556
178.0090, 9874.720
178.4911, 9907.835
178.9733, 9940.657
179.4554, 9971.188
179.9375, 9992.922
180.4196, 10004.37
180.9017, 10019.95
181.3838, 10062.08
181.8660, 10123.10
182.3481, 10177.03
182.8302, 10210.53
183.3123, 10228.61
183.7944, 10246.20
184.2766, 10266.66
184.7587, 10273.32
185.2408, 10250.69
185.7229, 10198.75
186.2050, 10114.38
186.6871, 9994.559
187.1693, 9839.972
187.6514, 9659.688
188.1335, 9449.984
188.6156, 9220.002
189.0977, 8971.588
189.5798, 8706.531
190.0620, 8443.143
190.5441, 8184.145
191.0262, 7930.565
191.5083, 7692.134
191.9904, 7465.743
192.4725, 7252.846
192.9547, 7054.497
193.4368, 6868.932
193.9189, 6698.666
194.4010, 6546.567
194.8831, 6412.078
195.3652, 6286.696
195.8474, 6170.274
196.3295, 6062.077
196.8116, 5960.487
197.2937, 5865.744
197.7758, 5778.279
198.2579, 5699.707
198.7401, 5630.042
199.2222, 5566.340
199.7043, 5509.704
200.1864, 5458.397
200.6685, 5408.577
201.1507, 5360.536
201.6328, 5313.577
202.1149, 5266.710
202.5970, 5219.591
203.0791, 5175.938
203.5612, 5137.362
204.0434, 5101.938
204.5255, 5064.281
205.0076, 5023.281
205.4897, 4983.982
205.9718, 4949.765
206.4539, 4921.263
206.9361, 4894.490
207.4182, 4869.751
207.9003, 4846.337
208.3824, 4821.012
208.8645, 4793.239
209.3466, 4764.856
209.8288, 4735.803
210.3109, 4704.906
210.7930, 4678.688
211.2751, 4658.610
211.7572, 4643.447
212.2393, 4628.282
212.7215, 4613.519
213.2036, 4598.148
213.6857, 4580.945
214.1678, 4560.458
214.6499, 4542.835
215.1320, 4528.954
215.6142, 4518.097
216.0963, 4508.050
216.5784, 4499.987
217.0605, 4490.565
217.5426, 4476.373
218.0247, 4454.008
218.5069, 4437.665
218.9890, 4430.538
219.4711, 4430.526
219.9532, 4427.440
220.4353, 4420.287
220.9175, 4411.743
221.3996, 4402.942
221.8817, 4392.941
222.3638, 4385.573
222.8459, 4382.205
223.3280, 4381.871
223.8102, 4379.872
224.2923, 4375.575
224.7744, 4370.493
225.2565, 4365.309
225.7386, 4359.201
226.2207, 4355.027
226.7029, 4354.162
227.1850, 4355.562
227.6671, 4353.784
228.1492, 4347.266
228.6313, 4339.778
229.1134, 4333.387
229.5956, 4327.591
230.0777, 4324.049
230.5598, 4323.783
231.0419, 4326.029
231.5240, 4327.002
232.0062, 4326.783
232.4883, 4325.300
232.9704, 4321.893
233.4525, 4313.786
233.9346, 4310.197
234.4167, 4313.696
234.8989, 4322.498
235.3810, 4328.014
235.8631, 4328.391
236.3452, 4327.926
236.8273, 4328.747
237.3094, 4329.993
237.7916, 4334.330
238.2737, 4343.182
238.7558, 4355.260
239.2379, 4365.417
239.7200, 4373.048
240.2021, 4379.495
240.6843, 4385.510
241.1664, 4391.175
241.6485, 4396.086
242.1306, 4399.212
242.6127, 4401.654
243.0948, 4407.571
243.5770, 4418.652
244.0591, 4431.097
244.5412, 4443.153
245.0233, 4455.595
245.5054, 4466.083
245.9876, 4472.788
246.4697, 4477.782
246.9518, 4488.688
247.4339, 4510.819
247.9160, 4531.012
248.3981, 4542.596
248.8803, 4542.936
249.3624, 4541.002
249.8445, 4536.570
250.3266, 4529.969
250.8087, 4522.679
251.2908, 4517.231
251.7730, 4506.909
252.2551, 4488.830
252.7372, 4462.056
253.2193, 4429.188
253.7014, 4389.188
254.1835, 4343.813
254.6657, 4297.302
255.1478, 4249.554
255.6299, 4200.719
256.1120, 4149.571
256.5941, 4094.451
257.0763, 4043.600
257.5584, 3997.251
258.0405, 3954.525
258.5226, 3914.329
259.0047, 3876.197
259.4868, 3840.911
259.9690, 3809.269
260.4511, 3781.797
260.9332, 3755.246
261.4153, 3727.776
261.8974, 3702.497
262.3795, 3686.235
262.8617, 3682.922
263.3438, 3678.697
263.8259, 3667.506
264.3080, 3647.581
264.7901, 3634.016
265.2722, 3628.505
265.7544, 3627.281
266.2365, 3625.318
266.7186, 3622.520
267.2007, 3619.199
267.6828, 3614.841
268.1649, 3609.177
268.6471, 3606.817
269.1292, 3608.291
269.6113, 3612.180
270.0934, 3616.623
270.5755, 3621.357
271.0576, 3627.944
271.5398, 3637.314
272.0219, 3649.447
272.5040, 3660.208
272.9861, 3668.691
273.4682, 3677.469
273.9503, 3689.429
274.4325, 3704.852
274.9146, 3721.623
275.3967, 3739.517
275.8788, 3758.484
276.3610, 3777.556
276.8431, 3797.206
277.3252, 3814.985
277.8073, 3828.307
278.2894, 3836.967
278.7715, 3844.147
279.2537, 3851.692
279.7358, 3858.081
280.2179, 3857.608
280.7000, 3850.474
281.1821, 3835.587
281.6642, 3810.568
282.1464, 3775.388
282.6285, 3737.342
283.1106, 3698.134
283.5927, 3656.333
284.0748, 3607.091
284.5569, 3549.604
285.0391, 3489.686
285.5212, 3428.702
286.0033, 3367.094
286.4854, 3311.272
286.9675, 3263.357
287.4496, 3219.466
287.9318, 3170.654
288.4139, 3116.405
288.8960, 3065.306
289.3781, 3022.969
289.8602, 2987.845
290.3423, 2951.520
290.8245, 2912.524
291.3066, 2874.056
291.7887, 2841.432
292.2708, 2814.312
292.7529, 2790.770
293.2350, 2771.777
293.7172, 2755.756
294.1993, 2738.531
294.6814, 2719.736
295.1635, 2699.967
295.6456, 2678.206
296.1277, 2655.506
296.6099, 2636.764
297.0920, 2627.332
297.5741, 2622.987
298.0562, 2615.216
298.5383, 2603.704
299.0204, 2592.149
299.5026, 2584.797
299.9847, 2580.444
300.4668, 2575.665
300.9489, 2569.571
301.4311, 2562.189
301.9132, 2552.734
302.3953, 2541.267
302.8774, 2531.009
303.3595, 2524.372
303.8416, 2520.687
304.3238, 2518.841
304.8059, 2520.408
305.2880, 2521.863
305.7701, 2518.796
306.2522, 2511.834
306.7343, 2505.023
307.2165, 2500.946
307.6986, 2498.513
308.1807, 2496.412
308.6628, 2494.447
309.1449, 2492.417
309.6270, 2489.771
310.1092, 2486.777
310.5913, 2484.421
311.0734, 2484.604
311.5555, 2484.892
312.0376, 2482.935
312.5197, 2477.620
313.0019, 2471.867
313.4840, 2466.031
313.9661, 2460.901
314.4482, 2458.015
314.9303, 2461.809
315.4124, 2465.383
315.8946, 2463.831
316.3767, 2455.569
316.8588, 2447.453
317.3409, 2441.466
317.8230, 2437.473
318.3051, 2435.296
318.7873, 2437.907
319.2694, 2439.667
319.7515, 2437.794
320.2336, 2431.900
320.7157, 2425.922
321.1978, 2420.320
321.6800, 2415.451
322.1621, 2411.658
322.6442, 2409.550
323.1263, 2407.931
323.6084, 2406.789
324.0905, 2406.058
324.5727, 2404.956
325.0548, 2402.879
325.5369, 2400.743
326.0190, 2399.114
326.5012, 2399.318
326.9833, 2398.577
327.4654, 2396.619
327.9475, 2393.564
328.4296, 2389.836
328.9117, 2383.190
329.3939, 2377.865
329.8760, 2375.742
330.3581, 2379.363
330.8402, 2381.478
331.3223, 2382.169
331.8044, 2381.284
332.2866, 2378.165
332.7687, 2370.073
333.2508, 2363.715
333.7329, 2361.618
334.2150, 2364.890
334.6971, 2367.034
335.1793, 2368.136
335.6614, 2368.058
336.1435, 2366.355
336.6256, 2362.261
337.1077, 2358.660
337.5898, 2356.357
338.0720, 2355.326
338.5541, 2355.288
339.0362, 2357.065
339.5183, 2358.199
340.0004, 2355.843
340.4825, 2349.359
340.9647, 2343.950
341.4468, 2340.396
341.9289, 2338.580
342.4110, 2338.525
342.8931, 2340.453
343.3752, 2342.509
343.8574, 2343.017
344.3395, 2342.096
344.8216, 2342.353
345.3037, 2344.375
345.7858, 2346.866
346.2679, 2347.590
346.7501, 2346.589
347.2322, 2344.909
347.7143, 2342.302
348.1964, 2339.370
348.6785, 2338.073
349.1607, 2338.536
349.6428, 2340.269
350.1249, 2344.278
350.6070, 2349.415
351.0891, 2352.041
351.5713, 2348.765
352.0534, 2343.056
352.5355, 2339.998
353.0176, 2339.579
353.4997, 2339.936
353.9818, 2340.576
354.4640, 2340.859
354.9461, 2339.754
355.4282, 2336.751
355.9103, 2332.572
356.3924, 2326.148
356.8745, 2318.513
357.3567, 2313.842
357.8388, 2317.536
358.3209, 2323.472
358.8030, 2326.147
359.2851, 2323.598
359.7672, 2320.342
360.2494, 2317.802
360.7315, 2316.313
361.2136, 2316.505
361.6957, 2320.673
362.1778, 2324.879
362.6599, 2326.809
363.1421, 2325.927
363.6242, 2325.485
364.1063, 2327.424
364.5884, 2329.860
365.0705, 2330.850
365.5526, 2327.159
366.0348, 2324.913
366.5169, 2326.501
366.9990, 2331.625
367.4811, 2335.074
367.9632, 2334.705
368.4453, 2333.653
368.9275, 2333.711
369.4096, 2336.130
369.8917, 2337.954
370.3738, 2338.823
370.8559, 2339.082
371.3380, 2339.802
371.8202, 2342.241
372.3023, 2343.421
372.7844, 2341.505
373.2665, 2334.866
373.7487, 2332.207
374.2308, 2335.630
374.7129, 2340.937
375.1950, 2341.718
375.6771, 2335.755
376.1592, 2332.589
376.6414, 2336.008
377.1235, 2345.030
377.6056, 2349.216
378.0877, 2347.533
378.5698, 2344.588
379.0519, 2344.736
379.5341, 2348.008
380.0162, 2350.243
380.4983, 2350.601
380.9804, 2349.696
381.4625, 2348.137
381.9446, 2345.943
382.4268, 2345.396
382.9089, 2349.379
383.3910, 2356.229
383.8731, 2360.285
384.3552, 2360.690
384.8373, 2360.183
385.3195, 2361.558
385.8016, 2364.564
386.2837, 2368.530
386.7658, 2374.578
387.2479, 2380.676
387.7300, 2383.686
388.2122, 2383.719
388.6943, 2383.864
389.1764, 2387.366
389.6585, 2391.997
390.1406, 2394.657
390.6227, 2392.812
391.1049, 2391.185
391.5870, 2393.898
392.0691, 2399.538
392.5512, 2403.845
393.0333, 2403.790
393.5154, 2402.532
393.9976, 2401.712
394.4797, 2401.165
394.9618, 2402.459
395.4439, 2408.655
395.9260, 2416.272
396.4081, 2420.666
396.8903, 2417.055
397.3724, 2413.964
397.8545, 2413.675
398.3366, 2416.329
398.8188, 2420.139
399.3009, 2427.652
399.7830, 2434.513
400.2651, 2437.765
400.7472, 2432.562
401.2293, 2431.164
401.7115, 2436.351
402.1936, 2445.517
402.6757, 2450.581
403.1578, 2449.626
403.6399, 2447.823
404.1220, 2447.226
404.6042, 2447.981
405.0863, 2448.966
405.5684, 2450.093
406.0505, 2451.552
406.5326, 2453.800
407.0147, 2457.007
407.4969, 2459.766
407.9790, 2461.473
408.4611, 2462.535
408.9432, 2465.223
409.4253, 2469.806
409.9074, 2473.180
410.3896, 2471.454
410.8717, 2466.046
411.3538, 2463.431
411.8359, 2464.964
412.3180, 2468.624
412.8001, 2472.722
413.2823, 2476.803
413.7644, 2479.354
414.2465, 2477.426
414.7286, 2474.406
415.2107, 2475.948
415.6928, 2482.440
416.1750, 2487.714
416.6571, 2485.483
417.1392, 2479.603
417.6213, 2475.206
418.1034, 2474.449
418.5855, 2475.198
419.0677, 2477.020
419.5498, 2479.569
420.0319, 2481.453
420.5140, 2482.118
420.9961, 2481.973
421.4782, 2481.065
421.9604, 2478.877
422.4425, 2477.377
422.9246, 2477.312
423.4067, 2478.101
423.8889, 2478.949
424.3710, 2479.506
424.8531, 2480.400
425.3352, 2482.282
425.8173, 2485.175
426.2994, 2486.242
426.7816, 2484.531
427.2637, 2481.946
427.7458, 2479.543
428.2279, 2476.841
428.7100, 2475.477
429.1921, 2475.815
429.6743, 2477.383
430.1564, 2479.551
430.6385, 2482.883
431.1206, 2484.575
431.6027, 2482.051
432.0848, 2475.658
432.5670, 2475.203
433.0491, 2481.873
433.5312, 2489.645
434.0133, 2491.790
434.4954, 2489.063
434.9775, 2486.441
435.4597, 2485.095
435.9418, 2484.592
436.4239, 2484.005
436.9060, 2483.479
437.3881, 2483.886
437.8702, 2486.747
438.3524, 2490.516
438.8345, 2492.712
439.3166, 2492.831
439.7987, 2492.898
440.2808, 2494.786
440.7629, 2497.606
441.2451, 2499.969
441.7272, 2502.594
442.2093, 2503.474
442.6914, 2500.778
443.1735, 2494.969
443.6556, 2489.146
444.1378, 2482.953
444.6199, 2478.129
445.1020, 2476.019
445.5841, 2478.253
446.0662, 2480.474
446.5483, 2481.996
447.0305, 2483.242
447.5126, 2484.931
447.9947, 2488.183
448.4768, 2490.527
448.9590, 2491.178
449.4411, 2490.081
449.9232, 2489.140
450.4053, 2488.188
450.8874, 2487.550
451.3695, 2487.523
451.8517, 2488.214
452.3338, 2489.049
452.8159, 2490.324
453.2980, 2491.246
453.7801, 2489.680
454.2622, 2485.434
454.7444, 2481.603
455.2265, 2479.926
455.7086, 2479.869
456.1907, 2479.120
456.6728, 2477.619
457.1549, 2476.272
457.6371, 2476.094
458.1192, 2476.704
458.6013, 2477.252
459.0834, 2477.772
459.5655, 2477.711
460.0476, 2475.938
460.5298, 2472.975
461.0119, 2470.457
461.4940, 2469.409
461.9761, 2468.967
462.4582, 2468.417
462.9403, 2467.663
463.4225, 2467.269
463.9046, 2468.602
464.3867, 2469.917
464.8688, 2469.534
465.3509, 2465.270
465.8330, 2461.337
466.3152, 2458.869
466.7973, 2457.477
467.2794, 2455.727
467.7615, 2452.000
468.2436, 2449.411
468.7257, 2449.543
469.2079, 2453.498
469.6900, 2454.860
470.1721, 2452.084
470.6542, 2448.365
471.1363, 2447.199
471.6184, 2449.233
472.1006, 2451.258
472.5827, 2452.795
473.0648, 2453.917
473.5469, 2455.461
474.0291, 2457.664
474.5112, 2457.664
474.9933, 2451.307
475.4754, 2440.856
475.9575, 2437.229
476.4396, 2441.517
476.9218, 2447.168
477.4039, 2445.842
477.8860, 2440.509
478.3681, 2438.311
478.8502, 2443.331
479.3323, 2450.125
479.8145, 2453.187
480.2966, 2453.389
480.7787, 2453.888
481.2608, 2457.726
481.7429, 2461.454
482.2250, 2462.311
482.7072, 2459.477
483.1893, 2456.709
483.6714, 2456.012
484.1535, 2455.712
484.6356, 2454.136
485.1177, 2448.344
485.5999, 2444.361
486.0820, 2443.474
486.5641, 2445.204
487.0462, 2447.975
487.5283, 2453.045
488.0104, 2457.550
488.4926, 2460.318
488.9747, 2461.068
489.4568, 2461.813
489.9389, 2462.516
490.4210, 2463.278
490.9031, 2464.450
491.3853, 2466.107
491.8674, 2466.449
492.3495, 2464.148
492.8316, 2461.426
493.3137, 2464.106
493.7958, 2471.710
494.2780, 2479.010
494.7601, 2482.982
495.2422, 2484.500
495.7243, 2484.345
496.2064, 2482.451
496.6885, 2481.485
497.1707, 2484.629
497.6528, 2489.684
498.1349, 2493.558
498.6170, 2494.416
499.0992, 2495.347
499.5813, 2498.536
500.0634, 2503.113
500.5455, 2506.966
501.0276, 2509.523
501.5097, 2511.111
501.9919, 2511.890
502.4740, 2511.879
502.9561, 2510.928
503.4382, 2507.466
503.9203, 2504.180
504.4024, 2502.944
504.8846, 2504.605
505.3667, 2506.769
505.8488, 2510.062
506.3309, 2513.314
506.8130, 2513.570
507.2951, 2510.163
507.7773, 2506.792
508.2594, 2504.653
508.7415, 2503.711
509.2236, 2503.901
509.7057, 2505.301
510.1878, 2506.919
510.6700, 2508.501
511.1521, 2509.690
511.6342, 2508.808
512.1163, 2504.854
512.5984, 2501.554
513.0806, 2503.762
513.5627, 2509.513
514.0448, 2514.699
514.5269, 2517.997
515.0090, 2519.703
515.4911, 2519.263
515.9733, 2517.008
516.4554, 2515.166
516.9375, 2513.761
517.4196, 2513.581
517.9017, 2515.611
518.3839, 2521.942
518.8660, 2525.535
519.3481, 2522.893
519.8302, 2518.391
520.3123, 2516.792
520.7944, 2520.030
521.2766, 2522.617
521.7587, 2523.344
522.2408, 2522.911
522.7229, 2524.599
523.2050, 2529.415
523.6871, 2532.813
524.1693, 2530.923
524.6514, 2524.490
525.1335, 2522.866
525.6156, 2526.477
526.0977, 2532.221
526.5798, 2539.014
527.0620, 2545.599
527.5441, 2547.387
528.0262, 2541.175
528.5083, 2534.155
528.9904, 2534.858
529.4725, 2540.842
529.9547, 2546.230
530.4368, 2547.136
530.9189, 2547.186
531.4010, 2549.176
531.8831, 2553.127
532.3652, 2555.432
532.8474, 2552.237
533.3295, 2548.875
533.8116, 2548.948
534.2937, 2556.571
534.7758, 2561.289
535.2579, 2561.482
535.7401, 2559.380
536.2222, 2558.062
536.7043, 2557.565
537.1864, 2557.909
537.6685, 2559.437
538.1506, 2561.832
538.6328, 2563.344
539.1149, 2563.872
539.5970, 2564.421
540.0791, 2566.031
540.5612, 2568.301
541.0433, 2568.652
541.5255, 2566.734
542.0076, 2565.312
542.4897, 2567.923
542.9718, 2572.891
543.4539, 2577.124
543.9360, 2580.426
544.4182, 2581.434
544.9003, 2576.323
545.3824, 2568.039
545.8645, 2563.160
546.3466, 2566.622
546.8287, 2571.991
547.3109, 2577.190
547.7930, 2582.040
548.2751, 2584.899
548.7572, 2585.102
549.2393, 2583.531
549.7214, 2580.276
550.2036, 2572.950
550.6857, 2569.716
551.1678, 2572.446
551.6499, 2577.421
552.1320, 2579.088
552.6141, 2576.803
553.0963, 2575.939
553.5784, 2578.731
554.0605, 2582.937
554.5426, 2581.942
555.0247, 2576.020
555.5068, 2569.918
555.9890, 2565.501
556.4711, 2563.119
556.9532, 2564.537
557.4353, 2569.773
557.9174, 2574.470
558.3995, 2574.647
558.8817, 2572.772
559.3638, 2571.551
559.8459, 2572.013
560.3281, 2572.379
560.8102, 2572.038
561.2923, 2571.133
561.7744, 2569.887
562.2565, 2566.091
562.7386, 2564.527
563.2208, 2567.556
563.7029, 2574.216
564.1850, 2577.783
564.6671, 2577.237
565.1492, 2575.375
565.6313, 2573.044
566.1135, 2570.105
566.5956, 2568.989
567.0777, 2569.902
567.5598, 2571.927
568.0419, 2574.881
568.5240, 2578.338
569.0062, 2580.146
569.4883, 2579.542
569.9704, 2577.896
570.4525, 2576.688
570.9346, 2575.808
571.4167, 2575.017
571.8989, 2573.054
572.3810, 2572.077
572.8631, 2574.787
573.3452, 2580.448
573.8273, 2584.247
574.3094, 2581.949
574.7916, 2579.193
575.2737, 2579.657
575.7558, 2585.858
576.2379, 2588.048
576.7200, 2583.083
577.2021, 2576.451
577.6843, 2572.969
578.1664, 2573.561
578.6485, 2574.483
579.1306, 2575.069
579.6127, 2576.076
580.0948, 2579.891
580.5770, 2586.499
581.0591, 2591.551
581.5412, 2592.433
582.0233, 2591.077
582.5054, 2592.118
582.9875, 2595.184
583.4697, 2597.523
583.9518, 2595.951
584.4339, 2593.371
584.9160, 2593.405
585.3981, 2596.792
