##NAMES=Phosphuranylite
##RRUFFID=R110155
##IDEAL CHEMISTRY=KCa(H_3_O)_3_(U^6+^O_2_)_7_(PO_4_)_4_O_4_&#183;8H_2_O
##LOCALITY=Folgosinho, Portugal
##OWNER=RRUFF
##SOURCE=Luiz Menezes
##DESCRIPTION=Light yellow bladed crystals.
##STATUS=The identification of this mineral has been confirmed by single-crystal X-ray diffraction.
##URL=rruff.info/R110155
116.1915, 236.8679
116.6736, 236.7570
117.1557, 236.8312
117.6378, 237.1242
118.1199, 237.6146
118.6021, 238.2483
119.0842, 239.0000
119.5663, 239.8792
120.0484, 240.7215
120.5305, 241.3554
121.0126, 242.0519
121.4948, 243.1228
121.9769, 244.6395
122.4590, 246.2177
122.9411, 247.5700
123.4232, 248.7061
123.9053, 249.4470
124.3875, 249.5786
124.8696, 249.2539
125.3517, 248.7665
125.8338, 247.6528
126.3159, 247.1626
126.7980, 248.3256
127.2802, 250.8808
127.7623, 253.5850
128.2444, 255.5277
128.7265, 256.6586
129.2086, 257.4796
129.6907, 257.3625
130.1729, 257.4251
130.6550, 258.4374
131.1371, 260.3775
131.6192, 262.4555
132.1013, 263.4796
132.5834, 262.5863
133.0656, 262.3486
133.5477, 262.9813
134.0298, 264.0512
134.5119, 265.3135
134.9940, 266.6645
135.4761, 268.0565
135.9583, 269.3656
136.4404, 270.2939
136.9225, 271.5114
137.4046, 273.3290
137.8867, 275.4096
138.3688, 277.2931
138.8510, 278.7990
139.3331, 279.9261
139.8152, 280.6399
140.2973, 280.8150
140.7794, 280.8758
141.2615, 280.9926
141.7437, 281.1427
142.2258, 281.2304
142.7079, 281.2083
143.1900, 281.0750
143.6721, 280.8561
144.1542, 280.5014
144.6364, 280.1222
145.1185, 279.8158
145.6006, 279.5839
146.0827, 279.4163
146.5648, 279.6307
147.0469, 279.8077
147.5291, 279.4058
148.0112, 278.0450
148.4933, 276.1962
148.9754, 274.9583
149.4575, 274.7017
149.9396, 274.4420
150.4218, 273.8113
150.9039, 272.9897
151.3860, 272.1703
151.8681, 271.4075
152.3502, 270.7489
152.8323, 270.6461
153.3145, 272.1317
153.7966, 273.1864
154.2787, 273.2247
154.7608, 272.5090
155.2429, 271.5624
155.7250, 270.7306
156.2072, 269.9825
156.6893, 269.9147
157.1714, 270.7231
157.6535, 271.8692
158.1356, 273.3415
158.6177, 275.0189
159.0999, 276.5773
159.5820, 277.6707
160.0641, 278.1955
160.5462, 279.0444
161.0283, 280.7360
161.5104, 282.3841
161.9926, 283.1716
162.4747, 283.0020
162.9568, 282.6500
163.4389, 283.0128
163.9210, 284.0456
164.4031, 284.7990
164.8853, 285.1669
165.3674, 285.1489
165.8495, 284.6853
166.3316, 283.6961
166.8137, 282.4411
167.2958, 280.9200
167.7780, 279.2470
168.2601, 277.9966
168.7422, 277.7997
169.2243, 278.3418
169.7064, 278.3504
170.1885, 277.5263
170.6707, 276.3018
171.1528, 274.8749
171.6349, 273.3062
172.1170, 271.7987
172.5991, 270.4051
173.0812, 269.1080
173.5634, 268.3029
174.0455, 268.7862
174.5276, 269.1617
175.0097, 268.7224
175.4918, 267.5370
175.9739, 266.1860
176.4561, 265.2700
176.9382, 264.8352
177.4203, 264.6896
177.9024, 265.1125
178.3845, 265.5712
178.8666, 265.6228
179.3488, 265.2999
179.8309, 265.0884
180.3130, 265.7085
180.7951, 267.7589
181.2772, 269.3032
181.7593, 270.0239
182.2415, 270.5140
182.7236, 271.0360
183.2057, 271.7054
183.6878, 272.7328
184.1699, 274.4879
184.6520, 277.5739
185.1342, 280.2252
185.6163, 282.2216
186.0984, 283.8482
186.5805, 285.3238
187.0626, 286.6986
187.5447, 288.1081
188.0269, 289.8589
188.5090, 292.0843
188.9911, 294.0763
189.4732, 295.2554
189.9553, 296.1605
190.4374, 297.7967
190.9196, 300.6244
191.4017, 303.9370
191.8838, 306.7636
192.3659, 309.0901
192.8480, 311.3014
193.3301, 313.5716
193.8123, 315.8629
194.2944, 318.0735
194.7765, 320.2245
195.2586, 322.1933
195.7407, 323.8399
196.2228, 325.1547
196.7050, 326.4609
197.1871, 328.0127
197.6692, 329.7989
198.1513, 331.5610
198.6334, 333.2755
199.1155, 334.9248
199.5977, 336.5551
200.0798, 338.1586
200.5619, 339.5870
201.0440, 340.6772
201.5261, 341.4012
202.0082, 342.0207
202.4904, 342.4652
202.9725, 342.8880
203.4546, 343.4971
203.9367, 344.2581
204.4188, 344.8293
204.9009, 344.6467
205.3831, 343.2916
205.8652, 342.4807
206.3473, 342.7389
206.8294, 343.1549
207.3115, 343.2926
207.7936, 343.0431
208.2758, 342.4844
208.7579, 341.6927
209.2400, 340.5153
209.7221, 339.4329
210.2042, 338.6102
210.6863, 337.7568
211.1685, 336.5659
211.6506, 335.0248
212.1327, 333.4643
212.6148, 332.3559
213.0969, 331.9072
213.5790, 331.5698
214.0612, 331.7270
214.5433, 331.7586
215.0254, 330.9362
215.5075, 329.1606
215.9896, 327.2299
216.4717, 326.3197
216.9539, 327.0102
217.4360, 327.4187
217.9181, 327.5244
218.4002, 327.3321
218.8823, 326.6647
219.3644, 325.4752
219.8466, 324.3080
220.3287, 324.0243
220.8108, 324.8317
221.2929, 325.3020
221.7750, 325.0399
222.2571, 324.4207
222.7393, 323.8206
223.2214, 323.2850
223.7035, 322.9710
224.1856, 323.3608
224.6677, 324.4016
225.1498, 324.9144
225.6320, 324.4351
226.1141, 323.2816
226.5962, 321.8664
227.0783, 320.1449
227.5604, 318.4817
228.0425, 317.3471
228.5247, 316.6212
229.0068, 315.7944
229.4889, 314.6791
229.9710, 313.3346
230.4531, 311.8867
230.9352, 310.3711
231.4174, 308.7013
231.8995, 306.7621
232.3816, 304.6283
232.8637, 302.4955
233.3458, 300.4734
233.8279, 298.5257
234.3101, 296.4528
234.7922, 294.0901
235.2743, 291.9212
235.7564, 290.2871
236.2385, 289.0185
236.7206, 287.7671
237.2028, 286.3330
237.6849, 284.7676
238.1670, 283.3159
238.6491, 282.2846
239.1312, 280.8706
239.6133, 278.5734
240.0955, 275.7503
240.5776, 272.9908
241.0597, 270.7225
241.5418, 268.7807
242.0239, 266.3954
242.5060, 263.1982
242.9882, 260.0225
243.4703, 257.0918
243.9524, 254.3330
244.4345, 251.6146
244.9166, 248.8582
245.3987, 246.0882
245.8809, 243.4476
246.3630, 240.6001
246.8451, 238.3950
247.3272, 237.5723
247.8093, 237.2916
248.2914, 236.4502
248.7736, 234.4204
249.2557, 231.5110
249.7378, 228.9771
250.2199, 226.6180
250.7020, 224.9741
251.1841, 224.4852
251.6663, 224.6104
252.1484, 224.7880
252.6305, 224.7511
253.1126, 224.5150
253.5947, 224.1135
254.0768, 223.1707
254.5590, 222.5321
255.0411, 222.2410
255.5232, 222.2762
256.0053, 222.6961
256.4874, 223.5214
256.9695, 224.5592
257.4517, 225.3416
257.9338, 225.6494
258.4159, 225.9374
258.8980, 226.1805
259.3801, 226.4170
259.8622, 226.8008
260.3444, 227.3717
260.8265, 227.8321
261.3086, 227.5977
261.7907, 225.9082
262.2728, 224.6955
262.7549, 224.1271
263.2371, 223.9696
263.7192, 224.2115
264.2013, 224.8163
264.6834, 225.2842
265.1655, 224.8031
265.6476, 222.7606
266.1298, 221.2268
266.6119, 220.6700
267.0940, 220.3964
267.5761, 219.7328
268.0582, 218.5524
268.5403, 217.2564
269.0225, 216.3696
269.5046, 216.0726
269.9867, 215.2724
270.4688, 213.4893
270.9509, 211.4809
271.4330, 209.9864
271.9152, 209.0720
272.3973, 208.1396
272.8794, 206.5993
273.3615, 204.3845
273.8436, 202.2951
274.3257, 200.4176
274.8079, 198.6045
275.2900, 196.6750
275.7721, 194.6372
276.2542, 192.8410
276.7363, 191.6656
277.2184, 191.0174
277.7006, 189.9256
278.1827, 188.0932
278.6648, 186.0576
279.1469, 184.2489
279.6290, 182.6313
280.1111, 180.7902
280.5933, 178.2815
281.0754, 175.4383
281.5575, 173.3126
282.0396, 172.1290
282.5217, 171.3762
283.0038, 171.0042
283.4860, 170.9029
283.9681, 170.4522
284.4502, 169.2356
284.9323, 167.6033
285.4144, 166.3337
285.8965, 165.5642
286.3787, 164.8042
286.8608, 163.7732
287.3429, 162.5299
287.8250, 161.2752
288.3071, 160.0884
288.7892, 158.8949
289.2714, 157.5647
289.7535, 156.0830
290.2356, 154.6319
290.7177, 153.2894
291.1998, 152.0401
291.6819, 150.8553
292.1641, 149.7804
292.6462, 148.6608
293.1283, 147.3552
293.6104, 145.8826
294.0925, 144.2100
294.5746, 142.0337
295.0568, 139.7017
295.5389, 138.0508
296.0210, 137.4057
296.5031, 136.7615
296.9852, 134.9941
297.4673, 132.4891
297.9495, 130.2646
298.4316, 128.7323
298.9137, 127.6430
299.3958, 126.6933
299.8779, 125.9044
300.3600, 125.1120
300.8422, 124.1632
301.3243, 123.1442
301.8064, 122.2244
302.2885, 121.4930
302.7706, 120.8130
303.2527, 119.9956
303.7349, 119.0238
304.2170, 118.1138
304.6991, 117.3701
305.1812, 116.7537
305.6633, 116.2128
306.1454, 115.7490
306.6276, 115.3481
307.1097, 115.0512
307.5918, 114.8481
308.0739, 114.5427
308.5560, 114.0565
309.0381, 113.4449
309.5203, 112.7113
310.0024, 111.8238
310.4845, 111.1175
310.9666, 110.9930
311.4487, 111.3055
311.9308, 111.2940
312.4130, 110.6152
312.8951, 109.8629
313.3772, 109.6196
313.8593, 109.8163
314.3414, 110.0382
314.8235, 110.1026
315.3057, 110.0392
315.7878, 109.9265
316.2699, 109.7779
316.7520, 109.5605
317.2341, 109.2888
317.7162, 108.9403
318.1984, 108.4263
318.6805, 107.5050
319.1626, 106.4988
319.6447, 105.9674
320.1268, 105.9907
320.6089, 106.0917
321.0911, 106.0599
321.5732, 105.9222
322.0553, 105.6617
322.5374, 105.1331
323.0195, 104.7124
323.5016, 105.0230
323.9838, 106.0766
324.4659, 106.6084
324.9480, 105.6153
325.4301, 104.2238
325.9122, 103.9602
326.3943, 105.1241
326.8765, 106.2339
327.3586, 106.0095
327.8407, 104.7097
328.3228, 103.7814
328.8049, 103.6229
329.2870, 103.8581
329.7692, 104.1421
330.2513, 104.4676
330.7334, 104.7498
331.2155, 105.0072
331.6976, 105.1857
332.1797, 105.0941
332.6619, 104.6075
333.1440, 104.1460
333.6261, 104.1109
334.1082, 104.3680
334.5903, 104.6336
335.0724, 104.9317
335.5546, 105.1382
336.0367, 105.0209
336.5188, 104.5475
337.0009, 104.0897
337.4830, 103.8012
337.9651, 103.6977
338.4473, 103.8095
338.9294, 104.2231
339.4115, 104.7227
339.8936, 105.0921
340.3757, 105.3658
340.8578, 105.8208
341.3400, 106.6764
341.8221, 107.6468
342.3042, 108.3508
342.7863, 108.8081
343.2684, 108.9710
343.7505, 108.5149
344.2327, 107.7569
344.7148, 107.5407
345.1969, 108.1733
345.6790, 109.0279
346.1611, 109.3660
346.6432, 109.2708
347.1254, 109.1632
347.6075, 109.1227
348.0896, 109.1418
348.5717, 109.2611
349.0538, 109.4908
349.5359, 109.6276
350.0181, 109.3818
350.5002, 108.9102
350.9823, 108.8847
351.4644, 109.6576
351.9465, 110.6159
352.4286, 111.3681
352.9108, 111.9496
353.3929, 112.5506
353.8750, 113.2664
354.3571, 114.0502
354.8392, 114.8282
355.3214, 115.7595
355.8035, 116.3595
356.2856, 116.0444
356.7677, 115.3528
357.2498, 115.3161
357.7319, 116.2784
358.2141, 117.6744
358.6962, 118.8027
359.1783, 119.6540
359.6604, 120.3103
360.1425, 120.6632
360.6246, 120.9010
361.1068, 121.1142
361.5889, 121.3394
362.0710, 121.7619
362.5531, 122.6087
363.0352, 123.8679
363.5173, 124.7694
363.9995, 124.9954
364.4816, 125.2195
364.9637, 125.7294
365.4458, 126.4905
365.9279, 127.4123
366.4100, 128.4712
366.8922, 129.6020
367.3743, 130.5755
367.8564, 131.4342
368.3385, 132.0926
368.8206, 132.3243
369.3027, 132.4407
369.7849, 132.7978
370.2670, 133.4922
370.7491, 134.3997
371.2312, 135.3822
371.7133, 136.5397
372.1954, 137.4119
372.6776, 137.7044
373.1597, 137.9775
373.6418, 138.5621
374.1239, 139.4586
374.6060, 140.5063
375.0881, 141.5989
375.5703, 142.7322
376.0524, 143.8893
376.5345, 145.0892
377.0166, 146.2978
377.4987, 147.5071
377.9808, 148.7257
378.4630, 149.9998
378.9451, 151.3521
379.4272, 152.7000
379.9093, 153.8327
380.3914, 154.5671
380.8735, 155.3941
381.3557, 156.1222
381.8378, 157.0778
382.3199, 158.5935
382.8020, 160.6661
383.2841, 162.9456
383.7662, 165.0157
384.2484, 166.8225
384.7305, 168.8504
385.2126, 171.9160
385.6947, 174.4104
386.1768, 175.2849
386.6589, 175.2161
387.1411, 175.6300
387.6232, 177.4886
388.1053, 180.2956
388.5874, 182.2675
389.0695, 183.1827
389.5516, 183.6147
390.0338, 183.2844
390.5159, 182.8349
390.9980, 182.9306
391.4801, 183.7500
391.9622, 184.7786
392.4443, 185.4931
392.9265, 185.9121
393.4086, 185.8196
393.8907, 184.6457
394.3728, 183.4529
394.8549, 183.0285
395.3370, 183.1797
395.8192, 183.0936
396.3013, 182.0625
396.7834, 180.4003
397.2655, 179.2949
397.7476, 179.1379
398.2297, 178.5202
398.7119, 175.9780
399.1940, 172.7481
399.6761, 170.5166
400.1582, 169.9948
400.6403, 169.9262
401.1224, 169.0181
401.6046, 167.3130
402.0867, 165.6253
402.5688, 164.0256
403.0509, 162.7582
403.5330, 162.1045
404.0151, 162.0653
404.4973, 162.2142
404.9794, 162.5508
405.4615, 162.9028
405.9436, 162.8162
406.4257, 162.1596
406.9078, 161.7314
407.3900, 162.4051
407.8721, 163.9312
408.3542, 164.9463
408.8363, 164.7628
409.3184, 164.5775
409.8005, 165.2019
410.2827, 166.4812
410.7648, 167.8587
411.2469, 169.0901
411.7290, 170.2772
412.2111, 171.6521
412.6932, 173.2209
413.1754, 174.9107
413.6575, 176.8722
414.1396, 178.8582
414.6217, 180.6098
415.1038, 182.0831
415.5859, 183.4185
416.0681, 184.7496
416.5502, 186.0799
417.0323, 187.3399
417.5144, 188.3240
417.9965, 189.4586
418.4786, 191.0830
418.9608, 192.9640
419.4429, 194.6447
419.9250, 195.8813
420.4071, 196.8330
420.8892, 197.9420
421.3713, 199.3214
421.8535, 200.6910
422.3356, 202.1009
422.8177, 203.4653
423.2998, 204.5830
423.7819, 205.5130
424.2640, 206.6330
424.7462, 208.4458
425.2283, 211.0455
425.7104, 213.0225
426.1925, 213.2762
426.6746, 214.1032
427.1567, 216.7867
427.6389, 220.3255
428.1210, 223.0134
428.6031, 223.9211
429.0852, 224.0579
429.5673, 225.6289
430.0494, 229.1860
430.5316, 232.1893
431.0137, 233.6489
431.4958, 234.5973
431.9779, 235.5072
432.4600, 236.4636
432.9421, 237.5455
433.4243, 239.1785
433.9064, 241.0650
434.3885, 241.7940
434.8706, 240.9242
435.3527, 239.7758
435.8348, 239.0970
436.3170, 238.7278
436.7991, 238.4817
437.2812, 238.6047
437.7633, 238.4268
438.2454, 237.0463
438.7275, 234.6469
439.2097, 232.5872
439.6918, 231.4664
440.1739, 230.6988
440.6560, 229.4304
441.1381, 227.6612
441.6202, 225.7227
442.1024, 223.6468
442.5845, 221.4851
443.0666, 219.3030
443.5487, 217.1042
444.0308, 214.8943
444.5129, 212.6844
444.9951, 210.4733
445.4772, 208.1605
445.9593, 205.4455
446.4414, 203.0050
446.9235, 201.4548
447.4056, 200.1899
447.8878, 198.2012
448.3699, 195.1572
448.8520, 191.6848
449.3341, 188.7528
449.8162, 186.7265
450.2983, 184.2159
450.7805, 180.6779
451.2626, 177.2371
451.7447, 174.6567
452.2268, 172.6799
452.7089, 170.5063
453.1910, 167.5986
453.6732, 164.1186
454.1553, 160.7254
454.6374, 157.2091
455.1195, 154.1725
455.6016, 152.1709
456.0837, 150.3316
456.5659, 147.7260
457.0480, 144.2540
457.5301, 140.9395
458.0122, 139.0337
458.4943, 138.4959
458.9764, 137.5455
459.4586, 136.0009
459.9407, 134.2126
460.4228, 132.1683
460.9049, 130.0716
461.3870, 128.3094
461.8691, 127.1021
462.3513, 126.1419
462.8334, 125.0760
463.3155, 123.9102
463.7976, 122.8009
464.2797, 121.7941
464.7618, 120.8708
465.2440, 119.9860
465.7261, 119.1328
466.2082, 118.3906
466.6903, 117.8393
467.1724, 117.3812
467.6545, 116.7690
468.1367, 116.0209
468.6188, 115.7085
469.1009, 116.4330
469.5830, 117.8474
470.0651, 118.2018
470.5472, 116.4588
471.0294, 115.1198
471.5115, 115.0671
471.9936, 115.6619
472.4757, 116.2041
472.9578, 116.4850
473.4399, 116.4909
473.9221, 116.1387
474.4042, 115.2820
474.8863, 114.9321
475.3684, 115.4090
475.8505, 115.9843
476.3326, 116.5216
476.8148, 116.9463
477.2969, 117.1519
477.7790, 117.0809
478.2611, 116.8481
478.7432, 116.6152
479.2253, 116.1894
479.7075, 116.3262
480.1896, 117.7906
480.6717, 119.2754
481.1538, 120.0513
481.6359, 120.1652
482.1180, 120.0994
482.6002, 120.1228
483.0823, 120.2197
483.5644, 120.3983
484.0465, 120.7309
484.5286, 120.8657
485.0107, 120.3903
485.4929, 119.7652
485.9750, 119.5811
486.4571, 119.9758
486.9392, 120.4059
487.4213, 120.4377
487.9034, 120.2832
488.3856, 120.4746
488.8677, 121.1364
489.3498, 121.8155
489.8319, 122.0460
490.3140, 121.8895
490.7961, 122.1219
491.2783, 123.2760
491.7604, 124.2547
492.2425, 124.4136
492.7246, 124.0759
493.2067, 123.8384
493.6888, 123.9110
494.1710, 124.1508
494.6531, 124.3471
495.1352, 124.5000
495.6173, 124.6027
496.0994, 124.6309
496.5815, 124.6400
497.0637, 124.6943
497.5458, 124.7472
498.0279, 124.6495
498.5100, 124.2901
498.9921, 123.8687
499.4742, 123.9451
499.9564, 124.7872
500.4385, 125.4469
500.9206, 125.5932
501.4027, 125.6773
501.8848, 125.9635
502.3669, 126.4533
502.8491, 127.0053
503.3312, 127.6899
503.8133, 128.3304
504.2954, 128.3014
504.7775, 127.4261
505.2596, 126.7261
505.7418, 126.7794
506.2239, 127.2333
506.7060, 127.5607
507.1881, 127.6917
507.6702, 127.8838
508.1523, 128.4590
508.6345, 129.1168
509.1166, 129.2163
509.5987, 128.6613
510.0808, 128.2192
510.5629, 128.6631
511.0450, 129.8488
511.5272, 130.1301
512.0093, 128.7352
512.4914, 127.4820
512.9735, 126.5374
513.4556, 126.1807
513.9377, 126.9889
514.4199, 129.0215
514.9020, 131.4777
515.3841, 133.4168
515.8662, 134.8709
516.3483, 135.5755
516.8304, 134.5946
517.3126, 133.8423
517.7947, 133.9935
518.2768, 134.6671
518.7589, 135.3120
519.2410, 135.7158
519.7231, 135.9390
520.2053, 135.9625
520.6874, 135.7502
521.1695, 135.8723
521.6516, 136.4852
522.1337, 137.3621
522.6158, 138.4881
523.0980, 139.7403
523.5801, 140.7746
524.0622, 141.5557
524.5443, 141.9783
525.0264, 141.6176
525.5085, 140.6586
525.9907, 140.2806
526.4728, 141.0202
526.9549, 142.2337
527.4370, 142.9824
527.9191, 143.2092
528.4012, 143.4245
528.8834, 143.8009
529.3655, 144.0769
529.8476, 144.0436
530.3297, 143.7514
530.8118, 143.3649
531.2939, 142.9689
531.7761, 142.5527
532.2582, 142.1054
532.7403, 141.7610
533.2224, 141.1164
533.7045, 140.0063
534.1866, 138.7767
534.6688, 137.5546
535.1509, 136.3866
535.6330, 135.3254
536.1151, 134.4190
536.5972, 133.6244
537.0793, 132.8532
537.5615, 132.1594
538.0436, 131.2851
538.5257, 130.0648
539.0078, 128.7057
539.4899, 127.3180
539.9720, 125.9198
540.4542, 124.7002
540.9363, 123.8984
541.4184, 123.2621
541.9005, 122.4147
542.3826, 121.3528
542.8647, 120.3008
543.3469, 119.3834
543.8290, 118.5347
544.3111, 117.5767
544.7932, 116.4940
545.2753, 115.3681
545.7574, 113.9140
546.2396, 112.6239
546.7217, 112.0003
547.2038, 111.9839
547.6859, 112.2056
548.1680, 112.4562
548.6501, 112.6371
549.1323, 112.2433
549.6144, 110.5929
550.0965, 109.5695
550.5786, 109.8155
551.0607, 110.3353
551.5428, 110.4344
552.0250, 110.0759
552.5071, 109.6135
552.9892, 109.2954
553.4713, 109.0658
553.9534, 108.7434
554.4355, 108.3046
554.9177, 107.8927
555.3998, 107.5674
555.8819, 107.2969
556.3640, 107.0069
556.8461, 106.6802
557.3282, 106.4745
557.8104, 106.6666
558.2925, 106.8852
558.7746, 106.5561
559.2567, 105.7290
559.7388, 105.0955
560.2209, 105.1300
560.7031, 105.5544
561.1852, 105.4799
561.6673, 104.3048
562.1494, 103.4667
562.6315, 103.2868
563.1136, 103.2128
563.5958, 102.7516
564.0779, 101.9906
564.5600, 101.4572
565.0421, 101.6099
565.5242, 102.1109
566.0063, 101.6877
566.4885, 99.87125
566.9706, 98.50930
567.4527, 98.48052
567.9348, 98.73318
568.4169, 98.55334
568.8990, 97.95325
569.3812, 97.35839
569.8633, 97.12399
570.3454, 96.95836
570.8275, 96.36111
571.3096, 95.36404
571.7917, 94.45232
572.2739, 93.82161
572.7560, 93.38408
573.2381, 93.01833
573.7202, 92.77943
574.2023, 92.38896
574.6844, 91.69040
575.1666, 90.94398
575.6487, 90.37952
576.1308, 89.91773
576.6129, 89.30906
577.0950, 88.41433
577.5771, 87.36638
578.0593, 86.46491
578.5414, 85.78709
579.0235, 85.04396
579.5056, 83.85973
579.9877, 82.95061
580.4698, 82.99931
580.9520, 83.56314
581.4341, 83.56612
581.9162, 82.34706
582.3983, 80.74074
582.8804, 79.86246
583.3625, 79.65314
583.8447, 79.60254
584.3268, 79.75961
584.8089, 79.65925
585.2910, 78.53477
585.7731, 76.53303
586.2552, 75.21925
586.7374, 75.15627
587.2195, 75.36480
587.7016, 75.55622
588.1837, 75.62000
588.6658, 75.31204
589.1479, 74.58004
589.6301, 73.75552
590.1122, 73.25111
590.5943, 73.10500
591.0764, 72.92104
591.5585, 72.78274
592.0406, 72.49786
592.5228, 71.82779
593.0049, 71.07829
593.4870, 70.63057
593.9691, 70.57596
594.4512, 70.65589
594.9333, 70.74749
595.4155, 70.78715
595.8976, 70.40148
596.3797, 69.45136
596.8618, 68.61519
597.3439, 68.33648
597.8260, 68.43586
598.3082, 68.44212
598.7903, 68.32639
599.2724, 68.19215
599.7545, 68.07400
600.2366, 67.95320
600.7188, 67.83389
601.2009, 67.70059
601.6830, 67.44537
602.1651, 66.95100
602.6472, 66.38284
603.1293, 66.42854
603.6115, 67.86446
604.0936, 68.46230
604.5757, 67.33507
605.0578, 66.06685
605.5399, 65.66786
606.0220, 66.00193
606.5042, 66.33911
606.9863, 66.23444
607.4684, 65.97726
607.9505, 66.10973
608.4326, 66.61806
608.9147, 66.94600
609.3969, 66.97061
609.8790, 66.72825
610.3611, 66.12405
610.8432, 65.19733
611.3253, 64.49535
611.8074, 63.97570
612.2896, 63.79766
612.7717, 64.33920
613.2538, 65.19610
613.7359, 65.63089
614.2180, 65.44762
