##NAMES=Phosgenite
##RRUFFID=R050640
##IDEAL CHEMISTRY=Pb^2+^_2_CO_3_Cl_2_
##LOCALITY=Monte Poni, Sardinia, Italy
##OWNER=RRUFF
##SOURCE=University of Arizona Mineral Museum
##DESCRIPTION=Gray rectangular prismatic crystal
##STATUS=The identification of this mineral has been confirmed by X-ray diffraction and chemical analysis
##URL=rruff.info/R050640
##MEASURED CHEMISTRY=Pb_2.00_(CO_3_)Cl_2.03_ ; C estimated by difference
92.02539, 1919.880
92.50751, 1942.041
92.98962, 1966.429
93.47174, 1960.410
93.95386, 1945.695
94.43597, 1928.328
94.91809, 1913.207
95.40021, 1901.368
95.88232, 1889.085
96.36444, 1874.206
96.84656, 1862.014
97.32867, 1854.211
97.81078, 1850.785
98.29290, 1851.142
98.77502, 1853.202
99.25713, 1853.157
99.73925, 1861.577
100.2214, 1880.304
100.7035, 1904.032
101.1856, 1929.968
101.6677, 1957.889
102.1498, 1989.387
102.6320, 2026.426
103.1141, 2070.486
103.5962, 2118.768
104.0783, 2176.231
104.5604, 2235.965
105.0425, 2292.345
105.5247, 2345.433
106.0068, 2389.344
106.4889, 2413.260
106.9710, 2419.986
107.4531, 2410.048
107.9352, 2380.166
108.4173, 2332.194
108.8995, 2275.329
109.3816, 2206.195
109.8637, 2133.701
110.3458, 2066.790
110.8279, 2006.060
111.3100, 1950.697
111.7922, 1899.037
112.2743, 1850.302
112.7564, 1808.991
113.2385, 1776.594
113.7206, 1751.001
114.2027, 1731.326
114.6849, 1717.492
115.1670, 1708.623
115.6491, 1701.894
116.1312, 1696.318
116.6133, 1694.582
117.0954, 1697.936
117.5776, 1705.143
118.0597, 1714.244
118.5418, 1723.815
119.0239, 1733.830
119.5060, 1747.801
119.9881, 1765.805
120.4703, 1786.655
120.9524, 1808.585
121.4345, 1832.277
121.9166, 1860.925
122.3987, 1897.309
122.8808, 1942.944
123.3630, 1993.839
123.8451, 2052.028
124.3272, 2114.522
124.8093, 2180.915
125.2914, 2252.792
125.7735, 2319.970
126.2557, 2372.781
126.7378, 2413.207
127.2199, 2435.071
127.7020, 2434.028
128.1841, 2412.093
128.6662, 2374.701
129.1483, 2317.813
129.6305, 2249.383
130.1126, 2174.561
130.5947, 2093.986
131.0768, 2013.246
131.5589, 1935.940
132.0410, 1861.867
132.5232, 1793.186
133.0053, 1729.998
133.4874, 1672.229
133.9695, 1620.742
134.4516, 1575.504
134.9337, 1535.934
135.4159, 1500.956
135.8980, 1470.928
136.3801, 1445.467
136.8622, 1424.232
137.3443, 1406.703
137.8264, 1392.687
138.3086, 1382.035
138.7907, 1374.544
139.2728, 1369.967
139.7549, 1368.933
140.2370, 1370.323
140.7191, 1374.391
141.2013, 1380.793
141.6834, 1389.194
142.1655, 1399.485
142.6476, 1411.527
143.1297, 1424.487
143.6118, 1436.509
144.0939, 1450.977
144.5761, 1469.635
145.0582, 1492.082
145.5403, 1516.619
146.0224, 1542.391
146.5045, 1569.748
146.9866, 1598.938
147.4688, 1629.824
147.9509, 1662.589
148.4330, 1698.203
148.9151, 1737.236
149.3972, 1775.838
149.8793, 1813.217
150.3615, 1848.761
150.8436, 1881.664
151.3257, 1913.213
151.8078, 1941.064
152.2899, 1960.107
152.7720, 1971.921
153.2542, 1970.390
153.7363, 1953.165
154.2184, 1923.964
154.7005, 1887.644
155.1826, 1846.176
155.6647, 1799.992
156.1469, 1754.216
156.6290, 1706.012
157.1111, 1661.597
157.5932, 1622.405
158.0753, 1588.226
158.5574, 1558.814
159.0396, 1534.210
159.5217, 1514.822
160.0038, 1496.802
160.4859, 1480.306
160.9680, 1464.772
161.4501, 1449.425
161.9323, 1434.645
162.4144, 1421.847
162.8965, 1412.677
163.3786, 1407.943
163.8607, 1404.076
164.3428, 1401.608
164.8250, 1399.568
165.3071, 1396.622
165.7892, 1392.696
166.2713, 1389.901
166.7534, 1391.147
167.2355, 1396.993
167.7177, 1403.165
168.1998, 1409.621
168.6819, 1416.064
169.1640, 1421.812
169.6461, 1426.478
170.1282, 1431.352
170.6104, 1438.221
171.0925, 1446.804
171.5746, 1455.734
172.0567, 1465.416
172.5388, 1475.122
173.0209, 1482.587
173.5031, 1486.811
173.9852, 1489.292
174.4673, 1491.918
174.9494, 1494.567
175.4315, 1496.013
175.9136, 1495.957
176.3958, 1494.354
176.8779, 1489.504
177.3600, 1479.672
177.8421, 1467.366
178.3242, 1453.747
178.8063, 1438.948
179.2885, 1423.243
179.7706, 1406.921
180.2527, 1390.108
180.7348, 1371.904
181.2169, 1350.811
181.6990, 1329.382
182.1812, 1308.976
182.6633, 1289.747
183.1454, 1271.248
183.6275, 1252.936
184.1096, 1235.304
184.5917, 1216.740
185.0738, 1198.290
185.5560, 1178.466
186.0381, 1156.073
186.5202, 1130.894
187.0023, 1103.811
187.4844, 1076.474
187.9665, 1048.807
188.4487, 1020.780
188.9308, 992.3456
189.4129, 963.7925
189.8950, 934.9216
190.3771, 905.8337
190.8592, 877.4634
191.3414, 851.8404
191.8235, 829.9091
192.3056, 809.1238
192.7877, 789.1084
193.2698, 770.2424
193.7519, 753.2041
194.2341, 738.3846
194.7162, 724.8737
195.1983, 710.6312
195.6804, 695.0328
196.1625, 680.7098
196.6446, 668.6057
197.1268, 658.3201
197.6089, 648.9968
198.0910, 640.5443
198.5731, 632.6974
199.0552, 624.8836
199.5373, 616.9180
200.0195, 609.5696
200.5016, 603.3961
200.9837, 598.2247
201.4658, 593.2630
201.9479, 588.3126
202.4300, 583.4386
202.9122, 578.7850
203.3943, 574.3539
203.8764, 569.9567
204.3585, 565.4865
204.8406, 560.9355
205.3227, 556.2130
205.8048, 550.7921
206.2870, 545.6213
206.7691, 541.6389
207.2512, 538.9347
207.7333, 536.3881
208.2154, 532.6893
208.6975, 527.5788
209.1797, 522.8595
209.6618, 519.0321
210.1439, 515.5500
210.6260, 512.2618
211.1081, 509.1046
211.5902, 505.9484
212.0724, 502.5156
212.5545, 498.5532
213.0366, 495.1713
213.5187, 493.0327
214.0008, 491.0365
214.4829, 488.3531
214.9651, 484.8981
215.4472, 481.3115
215.9293, 478.5038
216.4114, 476.5898
216.8935, 475.3399
217.3756, 475.3328
217.8578, 475.4528
218.3399, 474.9874
218.8220, 473.7630
219.3041, 472.0009
219.7862, 470.0013
220.2683, 467.4606
220.7505, 465.3029
221.2326, 463.4488
221.7147, 461.9664
222.1968, 461.0060
222.6789, 460.5680
223.1610, 460.4014
223.6432, 460.1559
224.1253, 459.8919
224.6074, 459.3636
225.0895, 458.0264
225.5716, 456.7234
226.0537, 456.3087
226.5358, 456.9635
227.0180, 458.1268
227.5001, 459.0714
227.9822, 459.7715
228.4643, 460.2653
228.9464, 460.4507
229.4285, 460.4755
229.9107, 460.1674
230.3928, 459.4471
230.8749, 459.3077
231.3570, 461.4897
231.8391, 466.2764
232.3212, 470.1631
232.8034, 472.2294
233.2855, 473.2435
233.7676, 473.8598
234.2497, 474.0568
234.7318, 474.6762
235.2139, 477.1543
235.6961, 481.2299
236.1782, 484.8740
236.6603, 487.0011
237.1424, 488.5636
237.6245, 491.2198
238.1066, 495.4727
238.5888, 499.8569
239.0709, 502.6292
239.5530, 504.3079
240.0351, 506.6288
240.5172, 510.6041
240.9993, 515.5201
241.4815, 519.9759
241.9636, 523.7767
242.4457, 527.4503
242.9278, 531.1317
243.4099, 534.9594
243.8920, 539.3243
244.3742, 545.0419
244.8563, 551.2977
245.3384, 556.0742
245.8205, 558.8203
246.3026, 561.2806
246.7847, 564.6618
247.2668, 568.4064
247.7490, 571.6365
248.2311, 574.1013
248.7132, 575.7232
249.1953, 576.3372
249.6774, 575.8926
250.1595, 574.4211
250.6417, 572.4440
251.1238, 569.5050
251.6059, 564.7805
252.0880, 557.5551
252.5701, 548.7442
253.0522, 540.7562
253.5344, 534.7962
254.0165, 527.2613
254.4986, 516.3386
254.9807, 503.8404
255.4628, 491.5182
255.9449, 480.1364
256.4271, 469.5077
256.9092, 459.0091
257.3913, 448.1194
257.8734, 438.5551
258.3555, 430.5090
258.8376, 423.7287
259.3198, 418.1190
259.8019, 413.6777
260.2840, 410.0073
260.7661, 406.2358
261.2482, 401.9442
261.7303, 398.4158
262.2125, 396.0453
262.6946, 394.1693
263.1767, 392.1288
263.6588, 389.7331
264.1409, 387.4834
264.6230, 386.3329
265.1052, 386.9997
265.5873, 387.4077
266.0694, 386.8651
266.5515, 386.4466
267.0336, 387.0414
267.5157, 388.7992
267.9979, 391.1249
268.4800, 393.0934
268.9621, 394.2026
269.4442, 396.0882
269.9263, 398.8338
270.4084, 402.1245
270.8906, 405.8004
271.3727, 409.8141
271.8548, 414.1899
272.3369, 419.0761
272.8190, 424.8801
273.3011, 429.6804
273.7833, 432.0348
274.2654, 434.7673
274.7475, 439.9724
275.2296, 447.3687
275.7117, 454.8852
276.1938, 460.4264
276.6760, 463.6311
277.1581, 467.0509
277.6402, 471.5384
278.1223, 475.4328
278.6044, 478.3405
279.0865, 480.0511
279.5686, 480.2251
280.0508, 478.5423
280.5329, 474.9901
281.0150, 470.3859
281.4971, 465.7073
281.9792, 459.2426
282.4613, 449.7882
282.9435, 437.9862
283.4256, 425.3144
283.9077, 412.7172
284.3898, 400.0540
284.8719, 386.7832
285.3540, 372.3146
285.8362, 357.9361
286.3183, 343.6063
286.8004, 329.6339
287.2825, 316.5949
287.7646, 304.8073
288.2467, 294.0470
288.7289, 283.3679
289.2110, 272.0242
289.6931, 261.6895
290.1752, 252.8220
290.6573, 245.1205
291.1394, 238.4082
291.6216, 232.6496
292.1037, 227.4796
292.5858, 222.0698
293.0679, 216.2312
293.5500, 210.5737
294.0321, 204.6866
294.5143, 199.2126
294.9964, 195.0959
295.4785, 192.5654
295.9606, 190.7176
296.4427, 188.2955
296.9248, 185.0666
297.4070, 181.9001
297.8891, 178.6627
298.3712, 175.5947
298.8533, 172.8802
299.3354, 170.5632
299.8175, 168.6264
300.2997, 167.1354
300.7818, 166.1922
301.2639, 164.9919
301.7460, 163.2542
302.2281, 161.4930
302.7102, 160.0722
303.1924, 158.9856
303.6745, 157.9619
304.1566, 156.8037
304.6387, 155.5116
305.1208, 154.1824
305.6029, 152.6593
306.0851, 151.2439
306.5672, 150.1189
307.0493, 149.2339
307.5314, 148.4027
308.0135, 147.4998
308.4956, 146.5894
308.9778, 145.9783
309.4599, 146.1734
309.9420, 145.9969
310.4241, 144.8246
310.9062, 143.0387
311.3883, 141.2849
311.8705, 139.7650
312.3526, 138.6248
312.8347, 138.3976
313.3168, 139.7039
313.7989, 140.3248
314.2810, 139.3942
314.7632, 137.6848
315.2453, 136.0934
315.7274, 134.8520
316.2095, 134.0005
316.6916, 133.7289
317.1737, 134.2715
317.6559, 134.3193
318.1380, 133.3246
318.6201, 132.0552
319.1022, 131.2780
319.5843, 131.0710
320.0664, 130.9188
320.5485, 130.2992
321.0306, 129.1669
321.5128, 128.3476
321.9949, 128.2223
322.4770, 128.0770
322.9591, 127.3217
323.4412, 126.0679
323.9233, 124.9613
324.4055, 124.5062
324.8876, 124.5583
325.3697, 124.1040
325.8518, 122.5960
326.3339, 121.2539
326.8160, 120.5635
327.2982, 120.3715
327.7803, 120.4036
328.2624, 120.5977
328.7445, 120.7840
329.2266, 120.4588
329.7087, 119.3545
330.1909, 118.3065
330.6730, 117.2931
331.1551, 116.4836
331.6372, 116.2814
332.1193, 116.8158
332.6014, 117.4310
333.0836, 117.0894
333.5657, 115.2269
334.0478, 114.1128
334.5299, 114.3998
335.0120, 115.0853
335.4941, 115.4117
335.9763, 115.2699
336.4584, 114.8853
336.9405, 114.4439
337.4226, 113.9377
337.9047, 113.4380
338.3868, 113.1456
338.8690, 112.6704
339.3511, 111.5488
339.8332, 110.0239
340.3153, 108.8526
340.7974, 108.5463
341.2795, 108.9649
341.7617, 109.2341
342.2438, 109.3715
342.7259, 109.3669
343.2080, 109.1412
343.6901, 108.7902
344.1722, 108.4551
344.6544, 108.1960
345.1365, 107.9727
345.6186, 107.7035
346.1007, 107.3669
346.5828, 107.0106
347.0649, 106.4907
347.5471, 106.0378
348.0292, 105.9953
348.5113, 106.3662
348.9934, 106.6766
349.4755, 106.2945
349.9576, 104.9087
350.4398, 104.1379
350.9219, 104.2512
351.4040, 104.6250
351.8861, 105.1161
352.3682, 105.6070
352.8503, 105.9192
353.3325, 105.9240
353.8146, 105.6231
354.2967, 105.0098
354.7788, 103.5204
355.2609, 102.3636
355.7430, 101.7553
356.2252, 101.6449
356.7073, 102.1320
357.1894, 103.2804
357.6715, 104.6134
358.1536, 104.8960
358.6357, 103.1069
359.1179, 101.7800
359.5999, 101.2760
360.0821, 101.0602
360.5642, 100.7208
361.0463, 100.1664
361.5284, 99.54981
362.0105, 99.02668
362.4926, 98.54520
362.9748, 98.37701
363.4569, 99.01148
363.9390, 99.48460
364.4211, 99.30139
364.9032, 98.58360
365.3853, 97.72835
365.8675, 96.99886
366.3496, 96.40331
366.8317, 96.01773
367.3138, 95.79866
367.7959, 95.88520
368.2780, 96.72148
368.7602, 97.71822
369.2423, 98.06895
369.7244, 97.40293
370.2065, 96.25307
370.6886, 95.67601
371.1707, 95.87571
371.6529, 96.15498
372.1350, 96.61950
372.6171, 96.98101
373.0992, 97.01694
373.5813, 96.71192
374.0634, 96.25255
374.5456, 95.81174
375.0277, 95.39243
375.5098, 94.93172
375.9919, 94.22085
376.4740, 93.71662
376.9561, 93.71879
377.4383, 94.07723
377.9204, 94.45118
378.4025, 94.67114
378.8846, 94.76017
379.3667, 94.77605
379.8488, 94.70525
380.3310, 94.59445
380.8131, 94.45763
381.2952, 94.29380
381.7773, 94.05213
382.2594, 93.68044
382.7415, 93.41270
383.2237, 93.61236
383.7058, 94.27576
384.1879, 94.74039
384.6700, 94.68513
385.1521, 94.54580
385.6342, 94.84718
386.1164, 95.54088
386.5985, 95.95224
387.0806, 95.48341
387.5627, 94.48331
388.0448, 93.78039
388.5269, 93.47824
389.0091, 93.35276
389.4912, 93.36227
389.9733, 93.42564
390.4554, 93.34579
390.9375, 92.95254
391.4196, 92.52173
391.9018, 92.30830
392.3839, 92.29500
392.8660, 92.30407
393.3481, 92.16722
393.8302, 92.10715
394.3123, 92.63074
394.7945, 93.99151
395.2766, 95.06875
395.7587, 95.27204
396.2408, 94.94262
396.7229, 94.60416
397.2050, 94.35863
397.6872, 94.20897
398.1693, 94.17049
398.6514, 94.25401
399.1335, 94.36507
399.6156, 94.61201
400.0977, 94.79546
400.5798, 94.73671
401.0620, 94.47086
401.5441, 94.18510
402.0262, 94.00547
402.5083, 93.88963
402.9904, 93.62181
403.4725, 92.88747
403.9547, 92.41087
404.4368, 92.48909
404.9189, 92.83874
405.4010, 93.12663
405.8831, 93.24519
406.3652, 93.26051
406.8474, 93.26444
407.3295, 93.25660
407.8116, 93.23642
408.2937, 93.01180
408.7758, 92.94174
409.2579, 93.41788
409.7401, 94.26421
410.2222, 94.89244
410.7043, 94.82301
411.1864, 94.17479
411.6685, 94.00839
412.1506, 95.06987
412.6328, 95.69750
413.1149, 94.98427
413.5970, 94.01646
414.0791, 94.33292
414.5612, 96.38622
415.0433, 98.70434
415.5255, 98.77566
416.0076, 95.77055
416.4897, 93.38140
416.9718, 91.99060
417.4539, 91.14548
417.9360, 90.80755
418.4182, 90.87651
418.9003, 91.14780
419.3824, 91.56502
419.8645, 92.05534
420.3466, 92.27749
420.8287, 92.12078
421.3109, 91.91822
421.7930, 91.82779
422.2751, 91.75780
422.7572, 91.62200
423.2393, 91.40822
423.7214, 91.07423
424.2036, 90.38082
424.6857, 89.36228
425.1678, 88.92365
425.6499, 89.56625
426.1320, 90.48508
426.6141, 90.99895
427.0963, 91.13100
427.5784, 91.02197
428.0605, 90.57518
428.5426, 89.98536
429.0247, 89.55922
429.5068, 89.31645
429.9890, 89.10535
430.4711, 88.73421
430.9532, 88.36434
431.4353, 88.44536
431.9174, 89.24471
432.3995, 90.10033
432.8817, 90.92266
433.3638, 91.53782
433.8459, 91.38888
434.3280, 90.20764
434.8101, 88.83983
435.2922, 88.55090
435.7744, 89.73280
436.2565, 90.41355
436.7386, 90.19124
437.2207, 89.71694
437.7028, 89.38181
438.1849, 89.20812
438.6671, 89.10171
439.1492, 89.00839
439.6313, 88.92027
440.1134, 88.79250
440.5955, 88.40314
441.0776, 88.25319
441.5598, 88.68518
442.0418, 89.23817
442.5240, 89.41949
443.0061, 89.11311
443.4882, 88.57388
443.9703, 88.11648
444.4524, 87.74930
444.9345, 87.42197
445.4167, 87.15461
445.8988, 86.90930
446.3809, 86.57785
446.8630, 86.27036
447.3451, 86.23073
447.8272, 86.65189
448.3094, 87.29481
448.7915, 87.55725
449.2736, 87.36522
449.7557, 86.99802
450.2378, 86.24535
450.7199, 85.52429
451.2021, 85.17749
451.6842, 85.22826
452.1663, 85.37320
452.6484, 85.50011
453.1305, 85.54992
453.6126, 85.17058
454.0948, 84.14760
454.5769, 83.16600
455.0590, 82.67962
455.5411, 82.55676
456.0232, 82.65531
456.5053, 83.16410
456.9875, 83.58292
457.4696, 83.32031
457.9517, 82.54647
458.4338, 82.05687
458.9159, 82.15853
459.3980, 82.56869
459.8802, 82.95537
460.3623, 83.36031
460.8444, 83.46733
461.3265, 83.03860
461.8086, 82.40971
462.2907, 81.76795
462.7729, 81.17754
463.2550, 80.83983
463.7371, 80.94111
464.2192, 81.37820
464.7013, 81.55479
465.1834, 81.44298
465.6656, 81.12851
466.1477, 80.37025
466.6298, 79.53872
467.1119, 79.03674
467.5940, 78.95177
468.0761, 79.10236
468.5583, 79.28212
469.0404, 79.49068
469.5225, 79.74294
470.0046, 80.35583
470.4867, 80.67825
470.9688, 80.31715
471.4510, 79.56814
471.9331, 78.83952
472.4152, 78.29346
472.8973, 78.05762
473.3794, 78.56978
473.8615, 80.14316
474.3437, 81.12538
474.8258, 80.92242
475.3079, 80.23470
475.7900, 79.31021
476.2721, 78.23945
476.7542, 77.27174
477.2364, 76.53587
477.7185, 76.02098
478.2006, 75.67960
478.6827, 75.50027
479.1648, 75.60263
479.6469, 76.39191
480.1291, 77.33931
480.6112, 77.40137
481.0933, 76.12736
481.5754, 75.11338
482.0575, 75.50132
482.5396, 76.62101
483.0217, 77.18759
483.5038, 76.93210
483.9860, 76.45985
484.4681, 76.36768
484.9502, 76.67239
485.4323, 76.66873
485.9144, 76.06909
486.3965, 75.48675
486.8787, 75.28061
487.3608, 75.25393
487.8429, 74.96126
488.3250, 74.22398
488.8071, 73.39185
489.2892, 73.09974
489.7714, 73.54746
490.2535, 74.06603
490.7356, 74.66521
491.2177, 75.31178
491.6998, 76.36343
492.1819, 77.45055
492.6641, 77.62955
493.1462, 76.13994
493.6283, 73.70000
494.1104, 72.40845
494.5925, 72.49806
495.0746, 73.11417
495.5568, 74.83791
496.0389, 76.47555
496.5210, 77.03605
497.0031, 76.51401
497.4852, 75.86327
497.9673, 75.77872
498.4495, 76.07217
498.9316, 76.23179
499.4137, 76.22483
499.8958, 76.16419
500.3779, 76.18436
500.8600, 76.16015
501.3422, 75.77453
501.8243, 74.68051
502.3064, 73.94797
502.7885, 74.64170
503.2706, 75.92076
503.7527, 76.08995
504.2349, 74.76868
504.7170, 73.21465
505.1991, 72.70652
505.6812, 73.31860
506.1633, 73.48524
506.6454, 72.79086
507.1276, 72.16521
507.6097, 71.84385
508.0918, 71.84184
508.5739, 72.26405
509.0560, 73.12889
509.5381, 74.10679
510.0203, 74.63789
510.5024, 74.54385
510.9845, 74.61657
511.4666, 75.17858
511.9487, 75.58687
512.4308, 75.56005
512.9130, 75.19536
513.3951, 74.68315
513.8772, 74.08372
514.3593, 73.48893
514.8414, 73.05793
515.3235, 72.79422
515.8057, 72.67076
516.2878, 72.84054
516.7699, 72.98762
517.2520, 72.71535
517.7341, 72.11031
518.2162, 71.79612
518.6984, 72.35938
519.1805, 73.16957
519.6626, 73.39158
520.1447, 73.04380
520.6268, 72.55216
521.1089, 72.02877
521.5911, 71.58780
522.0732, 71.55839
522.5553, 72.08070
523.0374, 72.51551
523.5195, 72.69309
524.0016, 72.78391
524.4838, 72.94963
524.9659, 73.18311
525.4480, 73.36178
525.9301, 73.38828
526.4122, 73.29794
526.8943, 73.27792
527.3765, 73.46602
527.8586, 73.52242
528.3407, 73.35375
528.8228, 73.09573
529.3049, 72.82533
529.7870, 72.57115
530.2692, 72.35916
530.7513, 72.16887
531.2334, 72.03462
531.7155, 72.22385
532.1976, 72.93178
532.6797, 73.50600
533.1619, 73.70332
533.6440, 73.60796
534.1261, 73.17048
534.6082, 72.32145
535.0903, 71.63001
535.5724, 71.54008
536.0546, 71.85414
536.5367, 72.10096
537.0188, 72.20341
537.5009, 72.57490
537.9830, 73.77357
538.4651, 75.49318
538.9473, 76.07056
539.4294, 74.57343
539.9115, 73.22132
540.3936, 72.68815
540.8757, 72.60729
541.3578, 72.59840
541.8400, 72.55465
542.3221, 72.45324
542.8042, 72.25046
543.2863, 71.94217
543.7684, 71.79279
544.2505, 72.00378
544.7326, 72.13632
545.2147, 71.97014
545.6968, 71.75388
546.1790, 71.82563
546.6611, 72.25024
547.1432, 72.68309
547.6253, 72.63445
548.1074, 72.17191
548.5895, 72.12867
549.0717, 72.71986
549.5538, 73.33637
550.0359, 73.74232
550.5180, 73.90616
551.0001, 73.67873
551.4822, 72.84708
551.9644, 72.08581
552.4465, 71.87218
552.9286, 72.01706
553.4107, 72.23392
553.8928, 72.47517
554.3749, 72.43407
554.8571, 71.73447
555.3392, 70.40312
555.8213, 69.55865
556.3034, 68.95127
556.7855, 69.04576
557.2676, 70.83665
557.7498, 72.97556
558.2319, 73.70889
558.7140, 72.72310
559.1961, 71.19120
559.6782, 70.38686
560.1603, 70.32370
560.6425, 70.09285
561.1246, 69.44022
561.6067, 69.00487
562.0888, 69.01888
562.5709, 69.30625
563.0530, 69.85469
563.5352, 70.68640
564.0173, 71.06631
564.4994, 69.82874
564.9815, 67.61150
565.4636, 66.64082
565.9457, 67.29496
566.4279, 68.32319
566.9100, 69.12089
567.3921, 69.59118
567.8742, 69.50324
568.3563, 68.44589
568.8384, 67.52052
569.3206, 67.10113
569.8027, 67.01665
570.2848, 67.14092
570.7669, 67.41143
571.2490, 67.66795
571.7311, 67.76278
572.2133, 67.71380
572.6954, 67.71904
573.1775, 67.92601
573.6596, 67.97743
574.1417, 67.60378
574.6238, 67.21262
575.1060, 67.18697
575.5881, 67.54933
576.0702, 68.02182
576.5523, 68.45661
577.0344, 68.81081
577.5165, 68.88786
577.9987, 68.63365
578.4808, 68.33690
578.9629, 68.08562
579.4450, 67.88213
579.9271, 67.70082
580.4092, 67.52507
580.8914, 67.48914
581.3735, 67.99477
581.8556, 68.44646
582.3377, 67.85987
582.8198, 66.42453
583.3019, 65.49021
583.7841, 65.88810
584.2662, 67.17978
584.7483, 68.18283
585.2304, 69.11001
585.7125, 69.34165
586.1946, 68.00266
586.6768, 66.78444
587.1589, 67.10866
587.6410, 68.46216
588.1231, 69.22311
