##NAMES=Phosphoferrite
##RRUFFID=R090065
##IDEAL CHEMISTRY=Fe^2+^_3_(PO_4_)_2_&#183;3H_2_O
##LOCALITY=Germany
##OWNER=RRUFF
##SOURCE=Royal Ontario Museum 
##DESCRIPTION=Dark brown pseudo-octahedral crystals on matrix
##STATUS=The identification of this mineral is confirmed by single-crystal X-ray diffraction and chemical analysis.
##URL=rruff.info/R090065
##MEASURED CHEMISTRY=(Fe^+2^_2.376_Mn^+2^_0.758_Ca_0.03_)_Σ=3.164_(P_0.967_O_4_)_2_·3H_2_O
91.82715, 259.2720
92.30927, 259.0366
92.79138, 259.3504
93.27350, 257.9041
93.75562, 255.2195
94.23773, 252.0199
94.71985, 248.7838
95.20197, 245.6869
95.68408, 243.2724
96.16620, 240.8428
96.64832, 237.8098
97.13043, 234.0043
97.61255, 230.2033
98.09467, 227.5372
98.57678, 226.4722
99.05890, 224.6773
99.54102, 222.0168
100.0231, 219.1521
100.5052, 216.5577
100.9874, 214.4031
101.4695, 212.6406
101.9516, 211.2483
102.4337, 210.3731
102.9158, 209.6963
103.3979, 209.2502
103.8801, 208.9455
104.3622, 208.6620
104.8443, 208.3133
105.3264, 207.8891
105.8085, 207.3426
106.2906, 206.5427
106.7728, 205.6894
107.2549, 204.9408
107.7370, 204.2979
108.2191, 203.5624
108.7012, 202.3871
109.1833, 200.7121
109.6655, 199.5351
110.1476, 199.4341
110.6297, 199.7908
111.1118, 199.5442
111.5939, 198.2035
112.0760, 196.8265
112.5582, 196.6975
113.0403, 197.6978
113.5224, 198.6902
114.0045, 198.9716
114.4866, 198.5694
114.9688, 198.0212
115.4509, 197.1919
115.9330, 196.4256
116.4151, 195.9634
116.8972, 195.8365
117.3793, 195.8420
117.8615, 195.7412
118.3436, 195.5585
118.8257, 195.1818
119.3078, 194.3331
119.7899, 193.4586
120.2720, 192.8551
120.7542, 192.6454
121.2363, 192.8156
121.7184, 193.3363
122.2005, 195.3397
122.6826, 196.4200
123.1647, 195.7381
123.6468, 194.1411
124.1290, 192.8659
124.6111, 192.6491
125.0932, 193.3288
125.5753, 193.5282
126.0574, 193.2056
126.5395, 192.5926
127.0217, 191.5257
127.5038, 190.1317
127.9859, 189.0170
128.4680, 188.7449
128.9501, 189.1718
129.4323, 189.2568
129.9144, 188.7360
130.3965, 187.9779
130.8786, 187.3317
131.3607, 186.8127
131.8428, 186.3904
132.3250, 186.1408
132.8071, 185.9709
133.2892, 185.7108
133.7713, 185.1259
134.2534, 184.3699
134.7355, 184.0465
135.2177, 184.6654
135.6998, 185.0052
136.1819, 184.2461
136.6640, 182.7231
137.1461, 181.2876
137.6282, 180.7355
138.1104, 181.1901
138.5925, 181.1519
139.0746, 180.0876
139.5567, 178.9535
140.0388, 178.0768
140.5209, 177.4830
141.0031, 177.0218
141.4852, 176.5357
141.9673, 176.0588
142.4494, 175.4463
142.9315, 174.4750
143.4136, 173.5477
143.8958, 172.9705
144.3779, 172.8062
144.8600, 172.8294
145.3421, 172.6720
145.8242, 172.1422
146.3063, 171.7967
146.7885, 171.8859
147.2706, 172.0975
147.7527, 172.0451
148.2348, 171.5842
148.7169, 170.8470
149.1990, 169.9728
149.6812, 168.7672
150.1633, 167.9754
150.6454, 168.2828
151.1275, 169.3101
151.6096, 169.7875
152.0917, 168.9689
152.5739, 167.6201
153.0560, 166.9678
153.5381, 167.1591
154.0202, 167.5882
154.5023, 167.8236
154.9844, 167.8602
155.4665, 167.8074
155.9487, 167.5927
156.4308, 167.3589
156.9129, 167.2830
157.3950, 167.4500
157.8771, 167.5847
158.3592, 167.1797
158.8414, 165.9108
159.3235, 164.9309
159.8056, 164.5610
160.2877, 164.5389
160.7698, 164.7368
161.2519, 165.1229
161.7341, 165.5474
162.2162, 165.5360
162.6983, 164.5281
163.1804, 163.8305
163.6625, 163.7505
164.1446, 164.0323
164.6268, 164.4245
165.1089, 164.8063
165.5910, 165.1242
166.0731, 165.0169
166.5552, 163.7509
167.0373, 162.8570
167.5195, 162.9400
168.0016, 163.6226
168.4837, 164.1685
168.9658, 164.1021
169.4479, 163.4469
169.9300, 162.6888
170.4122, 161.2988
170.8943, 160.3154
171.3764, 160.5718
171.8585, 161.8098
172.3406, 162.8247
172.8227, 162.6409
173.3049, 161.3814
173.7870, 160.6243
174.2691, 160.7082
174.7512, 161.0498
175.2333, 161.1792
175.7154, 161.0737
176.1976, 160.9826
176.6797, 161.2133
177.1618, 161.5939
177.6439, 161.6921
178.1260, 161.1058
178.6081, 160.3004
179.0903, 160.0217
179.5724, 160.4355
180.0545, 160.8948
180.5366, 160.8535
181.0187, 160.5939
181.5008, 160.5971
181.9830, 161.3386
182.4651, 162.4702
182.9472, 162.8489
183.4293, 162.0102
183.9114, 161.0913
184.3935, 160.4389
184.8757, 160.0686
185.3578, 160.0481
185.8399, 160.6097
186.3220, 161.6393
186.8041, 161.8722
187.2862, 160.2243
187.7684, 158.8881
188.2505, 158.6354
188.7326, 159.1805
189.2147, 159.9193
189.6968, 160.4372
190.1789, 160.7436
190.6611, 160.5870
191.1432, 159.3090
191.6253, 158.2011
192.1074, 157.7858
192.5895, 157.9238
193.0716, 158.1421
193.5538, 158.0054
194.0359, 157.4269
194.5180, 157.2351
195.0001, 157.7599
195.4822, 158.2774
195.9643, 158.4532
196.4465, 158.2933
196.9286, 157.9835
197.4107, 157.6838
197.8928, 157.3972
198.3749, 157.0883
198.8570, 156.6497
199.3392, 156.2712
199.8213, 156.1409
200.3034, 156.2509
200.7855, 156.3594
201.2676, 156.2318
201.7497, 155.8498
202.2319, 155.5185
202.7140, 155.1885
203.1961, 154.9489
203.6782, 154.9653
204.1603, 155.2697
204.6424, 155.5237
205.1246, 155.2744
205.6067, 154.6626
206.0888, 154.3707
206.5709, 154.8844
207.0530, 155.6572
207.5351, 155.8511
208.0173, 155.2659
208.4994, 154.6550
208.9815, 154.7566
209.4636, 155.2844
209.9457, 155.6595
210.4278, 155.5755
210.9100, 155.2066
211.3921, 154.9209
211.8742, 154.7134
212.3563, 154.6187
212.8384, 154.8543
213.3205, 155.2000
213.8027, 155.2134
214.2848, 154.4256
214.7669, 153.1404
215.2490, 152.5154
215.7311, 152.9475
216.2132, 153.4587
216.6954, 153.7442
217.1775, 153.8006
217.6596, 153.6102
218.1417, 153.0993
218.6238, 152.3344
219.1059, 151.7039
219.5881, 151.1828
220.0702, 150.8645
220.5523, 150.7587
221.0344, 150.8585
221.5165, 151.2053
221.9986, 151.9014
222.4808, 152.8648
222.9629, 153.3168
223.4450, 152.8873
223.9271, 152.2729
224.4092, 151.2656
224.8913, 150.2042
225.3735, 149.6929
225.8556, 150.2124
226.3377, 151.6151
226.8198, 152.2261
227.3019, 151.1882
227.7840, 150.2226
228.2662, 149.6141
228.7483, 149.3373
229.2304, 149.3428
229.7125, 149.6316
230.1946, 150.1511
230.6767, 150.3131
231.1589, 149.6776
231.6410, 149.1943
232.1231, 149.3079
232.6052, 149.7379
233.0873, 149.8618
233.5694, 149.2444
234.0516, 148.0569
234.5337, 147.5771
235.0158, 148.3636
235.4979, 149.0909
235.9800, 149.4297
236.4621, 149.4199
236.9443, 149.1136
237.4264, 148.4615
237.9085, 147.6163
238.3906, 147.2922
238.8727, 148.0387
239.3548, 148.5864
239.8370, 148.3838
240.3191, 147.6478
240.8012, 146.8240
241.2833, 146.0024
241.7654, 145.3965
242.2475, 145.6732
242.7297, 147.5770
243.2118, 149.0250
243.6939, 148.6247
244.1760, 146.9668
244.6581, 145.8814
245.1402, 146.2755
245.6224, 147.4866
246.1045, 148.1236
246.5866, 147.9962
247.0687, 147.8874
247.5508, 148.3649
248.0329, 149.2251
248.5151, 149.7240
248.9972, 149.5306
249.4793, 148.9439
249.9614, 148.3470
250.4435, 147.6850
250.9256, 147.2947
251.4078, 147.5355
251.8899, 148.2595
252.3720, 148.7822
252.8541, 148.7604
253.3362, 148.7017
253.8183, 149.2637
254.3005, 150.4417
254.7826, 151.4473
255.2647, 151.6538
255.7468, 151.2187
256.2289, 150.9322
256.7110, 150.9140
257.1931, 151.1129
257.6753, 151.5323
258.1574, 152.1338
258.6395, 152.6717
259.1216, 152.9125
259.6037, 152.9251
260.0858, 153.1311
260.5680, 153.7713
261.0501, 154.3250
261.5322, 154.3140
262.0143, 153.9309
262.4964, 153.7594
262.9785, 154.2727
263.4607, 155.3550
263.9428, 156.3640
264.4249, 157.3768
264.9070, 158.1701
265.3891, 158.6062
265.8712, 158.7814
266.3534, 158.8742
266.8355, 158.9360
267.3176, 159.0035
267.7997, 159.2319
268.2818, 159.6105
268.7639, 160.1987
269.2461, 161.2133
269.7282, 162.3763
270.2103, 163.2788
270.6924, 163.6843
271.1745, 163.7087
271.6566, 163.6935
272.1388, 163.5324
272.6209, 163.5258
273.1030, 163.7666
273.5851, 164.1702
274.0672, 164.6954
274.5493, 165.3520
275.0315, 165.9963
275.5136, 166.2224
275.9957, 165.7078
276.4778, 165.3785
276.9599, 165.6074
277.4420, 165.9603
277.9242, 166.0217
278.4063, 165.6460
278.8884, 165.0300
279.3705, 164.5109
279.8526, 164.0587
280.3347, 163.7945
280.8169, 163.7853
281.2990, 163.8967
281.7811, 164.0618
282.2632, 164.2534
282.7453, 164.4429
283.2274, 164.6692
283.7096, 165.2132
284.1917, 165.0439
284.6738, 163.2953
285.1559, 161.5739
285.6380, 161.0897
286.1201, 161.8149
286.6023, 162.6273
287.0844, 162.1005
287.5665, 159.6778
288.0486, 158.1549
288.5307, 158.3012
289.0128, 158.5812
289.4950, 158.2022
289.9771, 157.2728
290.4592, 156.4679
290.9413, 156.4879
291.4234, 157.4472
291.9055, 157.7015
292.3877, 156.6805
292.8698, 155.5376
293.3519, 154.6092
293.8340, 153.8501
294.3161, 153.0628
294.7982, 152.0922
295.2804, 150.9646
295.7625, 150.0714
296.2446, 149.6211
296.7267, 149.1942
297.2088, 148.7574
297.6909, 148.2877
298.1731, 147.7514
298.6552, 147.1274
299.1373, 146.4527
299.6194, 145.8725
300.1015, 145.4995
300.5836, 145.0938
301.0658, 144.6637
301.5479, 144.1842
302.0300, 143.6105
302.5121, 142.9290
302.9942, 142.1921
303.4763, 141.4829
303.9585, 140.6239
304.4406, 140.1053
304.9227, 140.2120
305.4048, 140.4588
305.8869, 140.4565
306.3690, 140.1177
306.8512, 139.6200
307.3333, 139.2175
307.8154, 139.0120
308.2975, 138.6208
308.7796, 137.9160
309.2617, 137.1599
309.7439, 136.5029
310.2260, 135.9556
310.7081, 135.4350
311.1902, 134.8277
311.6723, 134.0583
312.1544, 133.7579
312.6366, 134.4895
313.1187, 135.0677
313.6008, 134.9554
314.0829, 134.2937
314.5650, 133.4715
315.0471, 132.7345
315.5293, 132.1034
316.0114, 131.8691
316.4935, 132.5957
316.9756, 133.0887
317.4577, 132.9045
317.9398, 132.3712
318.4220, 132.0155
318.9041, 132.1132
319.3862, 132.4930
319.8683, 132.6115
320.3504, 132.2119
320.8326, 131.8502
321.3147, 131.5165
321.7968, 131.2511
322.2789, 131.1890
322.7610, 131.3475
323.2431, 131.4593
323.7253, 131.0053
324.2074, 129.3202
324.6895, 128.4042
325.1716, 128.7875
325.6537, 129.4274
326.1358, 129.6616
326.6180, 129.3930
327.1001, 128.8849
327.5822, 128.4047
328.0643, 127.9520
328.5464, 127.5271
329.0285, 126.9449
329.5107, 126.5581
329.9928, 126.6726
330.4749, 127.1265
330.9570, 127.4988
331.4391, 127.4595
331.9212, 127.0436
332.4034, 126.7699
332.8855, 126.8569
333.3676, 126.8519
333.8497, 126.5882
334.3318, 126.2010
334.8139, 125.9049
335.2961, 125.8126
335.7782, 125.8237
336.2603, 125.6431
336.7424, 125.1062
337.2245, 124.6115
337.7066, 124.1547
338.1888, 123.7655
338.6709, 123.5065
339.1530, 123.3798
339.6351, 123.2856
340.1172, 123.0489
340.5993, 122.5402
341.0815, 122.2271
341.5636, 122.3065
342.0457, 122.3919
342.5278, 122.2395
343.0099, 121.8703
343.4920, 121.4870
343.9742, 121.3053
344.4563, 121.3472
344.9384, 121.1796
345.4205, 120.4006
345.9026, 119.8018
346.3847, 119.7809
346.8669, 120.0724
347.3490, 120.1662
347.8311, 119.7226
348.3132, 118.9103
348.7953, 118.4321
349.2774, 118.5901
349.7596, 118.6116
350.2417, 118.1948
350.7238, 117.6649
351.2059, 117.3649
351.6880, 117.4092
352.1701, 117.6208
352.6523, 117.7531
353.1344, 117.8647
353.6165, 117.7064
354.0986, 116.8445
354.5807, 116.0261
355.0628, 115.7358
355.5450, 115.9745
356.0271, 116.3726
356.5092, 116.6156
356.9913, 116.7005
357.4734, 116.6938
357.9555, 116.5309
358.4377, 116.3416
358.9198, 116.2343
359.4019, 116.1414
359.8840, 115.9094
360.3661, 115.3954
360.8482, 114.7200
361.3304, 114.2495
361.8125, 114.0509
362.2946, 113.9216
362.7767, 113.8392
363.2588, 113.7624
363.7409, 113.6323
364.2231, 113.4210
364.7052, 113.2127
365.1873, 113.1311
365.6694, 113.1912
366.1515, 113.2408
366.6336, 113.3427
367.1158, 113.3322
367.5979, 112.9905
368.0800, 112.3428
368.5621, 111.7902
369.0442, 111.6204
369.5263, 111.7911
370.0085, 112.1870
370.4906, 113.0461
370.9727, 113.6666
371.4548, 113.4499
371.9369, 112.6622
372.4190, 111.8573
372.9012, 111.1055
373.3833, 110.5420
373.8654, 110.4877
374.3475, 111.0121
374.8296, 111.4485
375.3117, 111.3422
375.7939, 111.0138
376.2760, 111.0081
376.7581, 111.5600
377.2402, 111.9439
377.7223, 111.3036
378.2044, 109.9500
378.6866, 109.3500
379.1687, 110.2039
379.6508, 111.4480
380.1329, 111.6575
380.6150, 110.8765
381.0971, 110.1683
381.5793, 109.8803
382.0614, 109.8551
382.5435, 109.9209
383.0256, 110.0646
383.5077, 110.1732
383.9898, 110.1048
384.4720, 109.9077
384.9541, 109.9095
385.4362, 110.4003
385.9183, 110.8377
386.4004, 110.7142
386.8825, 110.2216
387.3647, 110.1085
387.8468, 110.8559
388.3289, 111.9867
388.8110, 112.1676
389.2931, 110.8519
389.7752, 109.9616
390.2574, 110.2577
390.7395, 111.0244
391.2216, 111.4053
391.7037, 111.2130
392.1858, 110.7783
392.6679, 110.4292
393.1501, 110.1293
393.6322, 110.2290
394.1143, 111.2587
394.5964, 112.1747
395.0785, 112.1270
395.5606, 111.4213
396.0428, 111.0975
396.5249, 111.8930
397.0070, 113.5112
397.4891, 114.3701
397.9712, 113.8951
398.4533, 113.3184
398.9355, 112.5386
399.4176, 111.8251
399.8997, 111.4677
400.3818, 111.5517
400.8639, 111.9321
401.3460, 112.4414
401.8282, 113.2511
402.3103, 113.6928
402.7924, 113.5940
403.2745, 113.3396
403.7566, 112.9631
404.2387, 112.5810
404.7209, 112.4626
405.2030, 112.8955
405.6851, 113.7529
406.1672, 113.9831
406.6493, 112.7958
407.1314, 112.1280
407.6136, 112.7895
408.0957, 113.9858
408.5778, 114.8973
409.0599, 115.2331
409.5420, 115.1520
410.0241, 114.7164
410.5063, 113.7664
410.9884, 113.3422
411.4705, 114.1778
411.9526, 115.1067
412.4347, 115.4936
412.9168, 115.3626
413.3990, 115.0544
413.8811, 114.8247
414.3632, 114.6067
414.8453, 114.0422
415.3274, 112.8658
415.8095, 112.0036
416.2917, 112.3308
416.7738, 113.1634
417.2559, 113.5748
417.7380, 113.1950
418.2201, 112.6541
418.7022, 112.6463
419.1844, 113.1006
419.6665, 113.3025
420.1486, 112.9074
420.6307, 112.3520
421.1128, 112.2079
421.5949, 112.4648
422.0771, 112.7317
422.5592, 112.9714
423.0413, 113.0943
423.5234, 112.9235
424.0055, 112.4395
424.4876, 111.8789
424.9698, 111.3274
425.4519, 110.8536
425.9340, 110.7525
426.4161, 111.5074
426.8982, 112.1127
427.3803, 111.9607
427.8625, 111.3447
428.3446, 110.8690
428.8267, 110.7580
429.3088, 110.8785
429.7909, 111.0214
430.2730, 111.2542
430.7552, 111.3382
431.2373, 111.1189
431.7194, 110.8658
432.2015, 110.7738
432.6836, 110.8447
433.1657, 110.9905
433.6479, 111.1643
434.1300, 111.3494
434.6121, 111.3159
435.0942, 110.8188
435.5763, 110.3799
436.0584, 110.0181
436.5406, 109.7835
437.0227, 109.8021
437.5048, 110.0980
437.9869, 110.4314
438.4690, 110.3496
438.9511, 109.5934
439.4333, 109.2686
439.9154, 109.7211
440.3975, 110.3197
440.8796, 110.9210
441.3617, 111.4436
441.8438, 111.7500
442.3260, 111.6915
442.8081, 111.3904
443.2902, 111.2791
443.7723, 111.4669
444.2544, 111.5689
444.7365, 111.3421
445.2187, 111.0273
445.7008, 110.8232
446.1829, 110.7679
446.6650, 110.8299
447.1471, 111.0515
447.6292, 111.3916
448.1114, 111.6211
448.5935, 111.6835
449.0756, 111.6717
449.5577, 111.6880
450.0398, 111.7012
450.5219, 111.5959
451.0041, 111.0252
451.4862, 110.5520
451.9683, 110.9321
452.4504, 112.0233
452.9325, 112.8306
453.4146, 112.8589
453.8968, 112.4072
454.3789, 112.0953
454.8610, 111.9299
455.3431, 111.8379
455.8252, 111.8735
456.3073, 111.9369
456.7895, 111.8828
457.2716, 111.7082
457.7537, 111.5766
458.2358, 111.6364
458.7179, 111.8883
459.2000, 112.1328
459.6822, 112.5417
460.1643, 112.7503
460.6464, 112.4482
461.1285, 111.9522
461.6106, 111.7539
462.0927, 112.0265
462.5748, 112.4691
463.0569, 112.5584
463.5391, 112.1137
464.0212, 111.8019
464.5033, 111.6611
464.9854, 111.6078
465.4675, 111.6903
465.9496, 111.8311
466.4318, 111.8472
466.9139, 111.5816
467.3960, 111.1571
467.8781, 111.0255
468.3602, 111.4134
468.8423, 111.4975
469.3245, 110.6246
469.8066, 109.6118
470.2887, 109.1209
470.7708, 109.2442
471.2529, 109.5765
471.7350, 109.8851
472.2172, 110.1583
472.6993, 110.3185
473.1814, 110.3101
473.6635, 110.3348
474.1456, 110.7369
474.6277, 111.2618
475.1099, 111.2775
475.5920, 110.2481
476.0741, 109.2499
476.5562, 109.1056
477.0383, 109.6012
477.5204, 110.1988
478.0026, 110.7944
478.4847, 111.1405
478.9668, 110.7548
479.4489, 109.3867
479.9310, 108.5435
480.4131, 108.7595
480.8953, 109.1437
481.3774, 109.0150
481.8595, 108.5070
482.3416, 108.1884
482.8237, 108.4099
483.3058, 109.0126
483.7880, 109.4577
484.2701, 109.7757
484.7522, 109.8649
485.2343, 109.6842
485.7164, 109.3144
486.1985, 108.6444
486.6807, 107.7786
487.1628, 107.1418
487.6449, 107.1648
488.1270, 107.7968
488.6091, 108.3126
489.0912, 108.7520
489.5734, 108.9968
490.0555, 108.8930
490.5376, 108.6621
491.0197, 108.6089
491.5018, 108.8329
491.9839, 108.9811
492.4661, 108.5827
492.9482, 107.7118
493.4303, 107.0226
493.9124, 106.5684
494.3945, 106.3774
494.8766, 106.5525
495.3588, 107.0083
495.8409, 107.5662
496.3230, 108.5656
496.8051, 109.2963
497.2872, 108.8094
497.7693, 107.4713
498.2515, 106.7240
498.7336, 107.2101
499.2157, 108.2041
499.6978, 108.5010
500.1799, 107.7947
500.6620, 107.5813
501.1442, 108.4874
501.6263, 109.4713
502.1084, 109.7597
502.5905, 109.4646
503.0726, 109.1314
503.5547, 109.0921
504.0369, 109.2569
504.5190, 109.3057
505.0011, 109.0761
505.4832, 108.9917
505.9653, 109.1474
506.4474, 109.3857
506.9296, 109.5759
507.4117, 109.7235
507.8938, 109.9478
508.3759, 110.4124
508.8580, 111.0369
509.3401, 111.2861
509.8223, 110.9359
510.3044, 110.7023
510.7865, 111.0208
511.2686, 111.4865
511.7507, 111.6769
512.2328, 111.4997
512.7150, 111.3060
513.1971, 111.3486
513.6792, 111.5797
514.1613, 111.9155
514.6434, 112.3931
515.1255, 112.7450
515.6077, 112.6777
516.0898, 112.3089
516.5719, 112.1742
517.0540, 112.5157
517.5361, 112.8228
518.0182, 112.6766
518.5004, 112.3933
518.9825, 112.5972
519.4646, 113.4510
519.9467, 114.4483
520.4288, 114.9713
520.9109, 114.9268
521.3931, 115.0288
521.8752, 115.4361
522.3573, 115.7926
522.8394, 115.9110
523.3215, 115.9164
523.8036, 115.9915
524.2858, 116.2097
524.7679, 116.5372
525.2500, 116.9721
525.7321, 117.5823
526.2142, 117.9421
526.6964, 117.7211
527.1785, 117.5689
527.6606, 117.7987
528.1427, 118.3235
528.6248, 118.9548
529.1069, 119.6846
529.5891, 120.3621
530.0712, 120.7727
530.5533, 120.9256
531.0354, 120.9477
531.5175, 120.7924
531.9996, 120.6460
532.4818, 120.7926
532.9639, 121.2043
533.4460, 121.5254
533.9281, 121.5956
534.4102, 121.6237
534.8923, 121.9667
535.3745, 122.4380
535.8566, 122.2608
536.3387, 120.9774
536.8208, 119.3639
537.3029, 119.0821
537.7850, 121.2095
538.2672, 122.4469
538.7493, 122.2825
539.2314, 121.7650
539.7135, 121.2991
540.1956, 120.9923
540.6777, 120.9312
541.1599, 121.1924
541.6420, 121.6380
542.1241, 121.9822
542.6062, 122.3333
543.0883, 122.2290
543.5704, 121.0961
544.0526, 119.8722
544.5347, 119.1230
545.0168, 118.8146
545.4989, 118.6376
545.9810, 118.4657
546.4631, 118.3048
546.9453, 118.1603
547.4274, 118.0320
547.9095, 117.9305
548.3916, 117.8478
548.8737, 117.8092
549.3558, 117.9240
549.8380, 118.2526
550.3201, 118.3479
550.8022, 118.0623
551.2843, 117.5595
551.7664, 116.7354
552.2485, 115.7757
552.7307, 115.3117
553.2128, 115.7548
553.6949, 116.6948
554.1770, 116.9568
554.6591, 116.0205
555.1412, 115.3212
555.6234, 114.9527
556.1055, 114.7405
556.5876, 114.7185
557.0697, 114.7679
557.5518, 114.5700
558.0339, 113.8238
558.5161, 112.8758
558.9982, 112.6021
559.4803, 113.1272
559.9624, 113.5920
560.4445, 113.8278
560.9266, 113.8511
561.4088, 113.6362
561.8909, 113.2063
562.3730, 112.8164
562.8551, 112.4880
563.3372, 112.2955
563.8193, 112.4690
564.3015, 112.9080
564.7836, 113.0345
565.2657, 112.5194
565.7478, 111.7910
566.2299, 111.6583
566.7120, 112.4502
567.1942, 113.0689
567.6763, 113.4576
568.1584, 113.7219
568.6405, 113.7876
569.1226, 113.7874
569.6047, 114.0509
570.0869, 114.7681
570.5690, 115.6177
571.0511, 115.8483
571.5332, 115.2230
572.0153, 114.8974
572.4974, 115.0760
572.9796, 115.5031
573.4617, 116.1821
573.9438, 116.9991
574.4259, 117.6808
574.9080, 118.1048
575.3901, 118.3679
575.8723, 118.5325
576.3544, 118.6176
576.8365, 118.7517
577.3186, 119.0005
577.8007, 119.2084
578.2828, 119.1265
578.7650, 118.7325
579.2471, 118.6570
579.7292, 119.0007
580.2113, 119.5772
580.6934, 120.4502
581.1755, 121.4507
581.6577, 122.4440
582.1398, 123.3481
582.6219, 123.8857
583.1040, 123.5337
583.5861, 122.0858
584.0682, 121.3979
584.5504, 122.1908
585.0325, 122.8959
585.5146, 123.0215
585.9967, 122.8004
586.4788, 122.4597
586.9609, 122.0457
587.4431, 121.8157
