##NAMES=Phosphoferrite
##RRUFFID=R130690
##IDEAL CHEMISTRY=Fe^2+^_3_(PO_4_)_2_&#183;3H_2_O
##LOCALITY=Hagendorf, Waidhaus, Vohenstrauß, Oberpfälzer Wald, Upper Palatinate, Bavaria, Germany
##OWNER=RRUFF
##SOURCE=Rob Lavinsky
##DESCRIPTION=Euhedral dark-grey zoned crystals with striations. Interior is colorless, clear, and exterior is dark brown. This sample represents the interior, the exterior is R140624.
##STATUS=The identification of this mineral is confirmed by single-crystal X-ray diffraction and chemical analysis.
##URL=rruff.info/R130690
##MEASURED CHEMISTRY=(Fe^2+^_2.04_Mn_0.84_Mg_0.03_)_Σ=2.91_(PO_4_)_2_·3.08H_2_O
208.8360, 87.26212
209.3181, 87.55546
209.8002, 87.93565
210.2823, 88.15907
210.7644, 88.20681
211.2466, 88.24966
211.7287, 88.23280
212.2108, 88.26054
212.6929, 88.38939
213.1750, 88.60566
213.6571, 88.86927
214.1393, 89.16372
214.6214, 89.52383
215.1035, 89.63864
215.5856, 89.22327
216.0677, 88.87044
216.5498, 88.94070
217.0320, 89.38676
217.5141, 89.88065
217.9962, 90.11472
218.4783, 90.04552
218.9604, 90.09544
219.4425, 90.28432
219.9247, 90.55895
220.4068, 90.94690
220.8889, 91.42272
221.3710, 91.83874
221.8531, 92.02307
222.3352, 91.96401
222.8174, 92.16692
223.2995, 92.88993
223.7816, 93.68260
224.2637, 94.18131
224.7458, 94.37627
225.2279, 94.52589
225.7100, 94.84594
226.1922, 95.31257
226.6743, 95.71275
227.1564, 96.00533
227.6385, 96.24260
228.1206, 96.49799
228.6027, 96.77837
229.0849, 96.95168
229.5670, 96.84579
230.0491, 96.55329
230.5312, 96.33434
231.0133, 96.36916
231.4954, 96.42027
231.9776, 96.17983
232.4597, 95.61063
232.9418, 95.01611
233.4239, 94.62245
233.9060, 94.32027
234.3881, 93.93539
234.8703, 93.36024
235.3524, 92.73864
235.8345, 92.27525
236.3166, 91.99905
236.7987, 91.75126
237.2808, 91.45067
237.7630, 91.13102
238.2451, 90.84692
238.7272, 90.66579
239.2093, 90.45219
239.6914, 89.92072
240.1735, 88.92210
240.6557, 88.07992
241.1378, 87.72176
241.6199, 87.59221
242.1020, 87.49424
242.5841, 87.38062
243.0662, 87.21349
243.5484, 86.88321
244.0305, 86.27813
244.5126, 85.82300
244.9947, 85.72529
245.4768, 85.76800
245.9589, 85.81898
246.4410, 85.84235
246.9232, 85.75923
247.4053, 85.34588
247.8874, 84.31127
248.3695, 83.66691
248.8516, 83.83749
249.3337, 84.26775
249.8159, 84.57175
250.2980, 84.62702
250.7801, 84.51328
251.2622, 84.31709
251.7443, 83.88710
252.2264, 83.73758
252.7086, 84.10209
253.1907, 84.59077
253.6728, 84.90755
254.1549, 84.98616
254.6370, 84.99752
255.1191, 85.23728
255.6013, 85.92788
256.0834, 86.35269
256.5655, 86.25294
257.0476, 86.11018
257.5297, 86.25660
258.0118, 86.74232
258.4940, 87.37453
258.9761, 87.88765
259.4582, 88.19013
259.9403, 88.61138
260.4224, 89.35652
260.9045, 90.04523
261.3867, 90.34774
261.8688, 90.28825
262.3509, 90.20744
262.8330, 90.51267
263.3151, 91.34251
263.7972, 92.07036
264.2794, 92.76120
264.7615, 93.31980
265.2436, 93.62415
265.7257, 93.71345
266.2078, 93.76684
266.6899, 93.96615
267.1721, 94.34790
267.6542, 94.63237
268.1363, 94.88351
268.6184, 95.00435
269.1005, 94.89803
269.5826, 94.60239
270.0648, 94.24545
270.5469, 93.92399
271.0290, 93.64051
271.5111, 93.38260
271.9932, 93.25350
272.4753, 93.04615
272.9575, 92.58810
273.4396, 91.96678
273.9217, 91.45525
274.4038, 91.27862
274.8859, 91.38154
275.3680, 91.05917
275.8501, 89.87237
276.3322, 88.84019
276.8144, 88.42641
277.2965, 88.42635
277.7786, 88.35700
278.2607, 87.94082
278.7428, 87.27937
279.2249, 86.80939
279.7071, 86.58770
280.1892, 86.44284
280.6713, 86.47256
281.1534, 86.53477
281.6355, 86.31718
282.1176, 85.64418
282.5998, 84.74978
283.0819, 84.28242
283.5640, 84.50365
284.0461, 84.58268
284.5282, 84.14958
285.0103, 83.52515
285.4925, 83.23794
285.9746, 83.49023
286.4567, 83.94442
286.9388, 84.03285
287.4209, 83.70509
287.9030, 83.23362
288.3852, 82.43065
288.8673, 81.59673
289.3494, 81.17038
289.8315, 81.26284
290.3136, 81.50404
290.7957, 81.44783
291.2779, 81.05821
291.7600, 80.63347
292.2421, 80.14754
292.7242, 79.67036
293.2063, 79.23424
293.6884, 78.84534
294.1706, 78.60622
294.6527, 78.70215
295.1348, 79.12775
295.6169, 79.23089
296.0990, 78.74224
296.5811, 78.10283
297.0633, 77.61995
297.5454, 77.30885
298.0275, 77.08896
298.5096, 76.91982
298.9917, 76.80172
299.4738, 76.70327
299.9560, 76.61021
300.4381, 76.54868
300.9202, 76.54326
301.4023, 76.58589
301.8844, 76.65801
302.3665, 76.79472
302.8487, 76.91562
303.3308, 76.79280
303.8129, 76.29599
304.2950, 75.79424
304.7771, 75.41385
305.2592, 75.15079
305.7414, 75.01329
306.2235, 75.03078
306.7056, 75.12808
307.1877, 75.16763
307.6698, 75.15435
308.1519, 75.09570
308.6341, 74.94178
309.1162, 74.75484
309.5983, 74.66739
310.0804, 74.73269
310.5625, 74.81777
311.0446, 74.68765
311.5268, 74.32492
312.0089, 74.14391
312.4910, 74.44700
312.9731, 74.87220
313.4552, 74.95647
313.9373, 74.62453
314.4195, 74.18475
314.9016, 73.93761
315.3837, 73.86026
315.8658, 73.62541
316.3479, 72.93873
316.8300, 72.27346
317.3121, 72.11063
317.7943, 72.42705
318.2764, 72.73846
318.7585, 72.74477
319.2406, 72.46674
319.7227, 72.12407
320.2048, 71.60445
320.6870, 71.13071
321.1691, 70.86852
321.6512, 70.76592
322.1333, 70.64133
322.6154, 70.42314
323.0975, 70.11727
323.5797, 69.73051
324.0618, 69.19533
324.5439, 68.73498
325.0260, 68.51805
325.5081, 68.41727
325.9902, 68.14874
326.4724, 67.58829
326.9545, 66.96992
327.4366, 66.73409
327.9187, 66.98209
328.4008, 66.96924
328.8829, 66.26346
329.3651, 65.36231
329.8472, 64.90453
330.3293, 65.00014
330.8114, 65.19962
331.2935, 65.03532
331.7756, 64.47098
332.2578, 64.05500
332.7399, 63.92957
333.2220, 63.86409
333.7041, 63.68825
334.1862, 63.40507
334.6683, 63.11455
335.1505, 62.89786
335.6326, 62.73328
336.1147, 62.47612
336.5968, 62.02692
337.0789, 61.59896
337.5610, 61.21670
338.0432, 60.92070
338.5253, 60.85132
339.0074, 61.11404
339.4895, 61.54771
339.9716, 61.70617
340.4537, 61.51545
340.9359, 61.23977
341.4180, 60.91008
341.9001, 60.52893
342.3822, 60.07512
342.8643, 59.54402
343.3464, 59.00953
343.8286, 58.56746
344.3107, 58.22425
344.7928, 57.99741
345.2749, 57.88531
345.7570, 57.89283
346.2391, 58.13418
346.7213, 58.56045
347.2034, 58.87238
347.6855, 58.76893
348.1676, 58.22042
348.6497, 57.85648
349.1318, 57.85413
349.6140, 57.82560
350.0961, 57.52983
350.5782, 57.07604
351.0603, 56.73888
351.5424, 56.68932
352.0245, 56.85785
352.5067, 56.94763
352.9888, 56.89569
353.4709, 56.84363
353.9530, 56.77702
354.4351, 56.73149
354.9172, 56.80679
355.3994, 57.02812
355.8815, 57.21736
356.3636, 57.04190
356.8457, 56.11975
357.3278, 55.62767
357.8099, 55.79325
358.2920, 56.17330
358.7741, 56.56726
359.2563, 56.89996
359.7384, 57.07724
360.2205, 56.97603
360.7026, 56.54708
361.1847, 56.32164
361.6668, 56.50086
362.1490, 56.66038
362.6311, 56.63863
363.1132, 56.49432
363.5953, 56.35584
364.0774, 56.30082
364.5595, 56.31171
365.0417, 56.31201
365.5238, 56.25409
366.0059, 56.25588
366.4880, 56.37065
366.9701, 56.52814
367.4522, 56.68272
367.9344, 56.81311
368.4165, 56.88641
368.8986, 56.82622
369.3807, 56.54657
369.8628, 56.37033
370.3449, 56.41464
370.8271, 56.46853
371.3092, 56.35909
371.7913, 56.12965
372.2734, 56.00179
372.7555, 56.25300
373.2376, 56.86149
373.7198, 57.08321
374.2019, 56.60704
374.6840, 56.10129
375.1661, 55.69424
375.6482, 55.42329
376.1303, 55.37432
376.6125, 55.63723
377.0946, 56.02815
377.5767, 56.11923
378.0588, 55.81239
378.5409, 55.48018
379.0230, 55.09416
379.5052, 54.80128
379.9873, 54.81535
380.4694, 55.17159
380.9515, 55.49158
381.4336, 55.27884
381.9157, 54.54867
382.3979, 54.11753
382.8800, 54.27212
383.3621, 54.54352
383.8442, 54.59426
384.3263, 54.47747
384.8084, 54.39730
385.2906, 54.51602
385.7727, 54.73817
386.2548, 54.84971
386.7369, 54.83872
387.2190, 54.75702
387.7011, 54.55958
388.1833, 54.32816
388.6654, 54.17865
389.1475, 54.13439
389.6296, 54.17332
390.1117, 54.31562
390.5938, 54.54570
391.0760, 54.74060
391.5581, 54.86905
392.0402, 54.93082
392.5223, 54.89616
393.0044, 54.75096
393.4865, 54.68465
393.9687, 54.86043
394.4508, 55.13269
394.9329, 55.22055
395.4150, 55.06410
395.8971, 54.95670
396.3792, 55.23182
396.8614, 55.84035
397.3435, 56.18695
397.8256, 56.03229
398.3077, 55.79977
398.7898, 55.75068
399.2719, 55.85872
399.7540, 56.01123
400.2361, 56.16315
400.7183, 56.30486
401.2004, 56.38682
401.6825, 56.22422
402.1646, 56.32645
402.6467, 57.08936
403.1288, 58.02281
403.6110, 58.48424
404.0931, 58.34883
404.5752, 58.08801
405.0573, 58.29508
405.5394, 59.15026
406.0215, 59.53441
406.5037, 59.02172
406.9858, 58.50535
407.4679, 58.44714
407.9500, 58.75289
408.4321, 59.10089
408.9142, 59.29422
409.3964, 59.36973
409.8785, 59.50356
410.3606, 59.80533
410.8427, 60.02085
411.3248, 60.06575
411.8069, 60.05153
412.2891, 60.12406
412.7712, 60.30432
413.2533, 60.44033
413.7354, 60.27472
414.2175, 59.66499
414.6996, 59.32438
415.1818, 59.57735
415.6639, 59.80472
416.1460, 59.71535
416.6281, 59.40216
417.1102, 59.13327
417.5923, 59.09607
418.0745, 59.21188
418.5566, 59.18423
419.0387, 58.89602
419.5208, 58.72890
420.0029, 58.95678
420.4850, 59.26796
420.9672, 59.30225
421.4493, 58.96261
421.9314, 58.67141
422.4135, 59.08611
422.8956, 60.14428
423.3777, 60.50861
423.8599, 59.61769
424.3420, 58.47791
424.8241, 57.84265
425.3062, 57.61447
425.7883, 57.44521
426.2704, 57.13425
426.7526, 56.82333
427.2347, 56.78520
427.7168, 57.03975
428.1989, 57.21859
428.6810, 57.04537
429.1631, 56.71296
429.6453, 56.67781
430.1274, 57.11428
430.6095, 57.45447
431.0916, 57.26326
431.5737, 56.80006
432.0558, 56.60925
432.5380, 56.84425
433.0201, 57.23891
433.5022, 57.51311
433.9843, 57.65356
434.4664, 57.71338
434.9485, 57.56068
435.4307, 57.44057
435.9128, 57.54901
436.3949, 57.84004
436.8770, 58.13176
437.3591, 58.31581
437.8412, 58.42596
438.3234, 58.58832
438.8055, 58.78558
439.2876, 59.06089
439.7697, 59.59493
440.2518, 60.10741
440.7339, 60.18708
441.2160, 59.82785
441.6982, 59.55223
442.1803, 60.02917
442.6624, 61.42588
443.1445, 62.36104
443.6266, 62.56403
444.1087, 62.57527
444.5909, 62.34271
445.0730, 62.06726
445.5551, 62.06151
446.0372, 62.50391
446.5193, 63.21218
447.0014, 63.82037
447.4836, 64.36637
447.9657, 64.69387
448.4478, 64.53949
448.9299, 64.32780
449.4120, 64.34946
449.8941, 64.60490
450.3763, 64.86474
450.8584, 64.94744
451.3405, 64.88749
451.8226, 64.81713
452.3047, 64.71870
452.7868, 64.66013
453.2690, 64.71631
453.7511, 64.82964
454.2332, 64.93435
454.7153, 65.05311
455.1974, 65.08876
455.6795, 64.88473
456.1617, 64.50719
456.6438, 64.27049
457.1259, 64.31873
457.6080, 64.41835
458.0901, 64.19656
458.5722, 63.65270
459.0544, 63.28438
459.5365, 63.28821
460.0186, 63.42693
460.5007, 63.54296
460.9828, 63.61345
461.4649, 63.60419
461.9471, 63.48295
462.4292, 63.27676
462.9113, 63.09412
463.3934, 62.93676
463.8755, 62.79824
464.3576, 62.74712
464.8398, 62.67547
465.3219, 62.38818
465.8040, 61.88985
466.2861, 61.47927
466.7682, 61.52487
467.2503, 62.10262
467.7325, 62.40248
468.2146, 62.22499
468.6967, 61.97605
469.1788, 61.66050
469.6609, 61.36837
470.1430, 61.24798
470.6252, 61.37128
471.1073, 61.58489
471.5894, 61.60632
472.0715, 61.38889
472.5536, 61.18624
473.0357, 61.07677
473.5179, 60.95379
474.0000, 60.70165
474.4821, 60.36572
474.9642, 60.12936
475.4463, 60.17194
475.9284, 60.36393
476.4106, 60.40424
476.8927, 60.26501
477.3748, 60.14930
477.8569, 60.18768
478.3390, 60.28516
478.8211, 60.28275
479.3033, 60.14505
479.7854, 60.01377
480.2675, 60.00486
480.7496, 60.03850
481.2317, 59.94192
481.7138, 59.67917
482.1959, 59.41864
482.6780, 59.33605
483.1602, 59.42432
483.6423, 59.35260
484.1244, 59.00401
484.6065, 58.63438
485.0886, 58.32179
485.5707, 58.06328
486.0529, 57.83602
486.5350, 57.63127
487.0171, 57.48899
487.4992, 57.49657
487.9813, 57.78370
488.4634, 57.85906
488.9456, 57.73632
489.4277, 57.42971
489.9098, 56.75246
490.3919, 55.90354
490.8740, 55.32701
491.3561, 55.33108
491.8383, 55.67075
492.3204, 55.63421
492.8025, 55.03335
493.2846, 54.57619
493.7667, 54.56393
494.2488, 54.63646
494.7310, 54.57624
495.2131, 54.36608
495.6952, 54.08686
496.1773, 53.71085
496.6594, 53.31623
497.1415, 53.17657
497.6237, 53.36509
498.1058, 53.48080
498.5879, 53.22382
499.0700, 52.78173
499.5521, 52.52305
500.0342, 52.52073
500.5164, 52.56624
500.9985, 52.58394
501.4806, 52.57258
501.9627, 52.51474
502.4448, 52.40622
502.9269, 52.30695
503.4091, 52.27966
503.8912, 52.32751
504.3733, 52.34506
504.8554, 52.35657
505.3375, 52.31501
505.8196, 52.07927
506.3018, 51.81649
506.7839, 51.83842
507.2660, 52.24323
507.7481, 52.75269
508.2302, 52.92244
508.7123, 52.64271
509.1945, 52.41970
509.6766, 52.20179
510.1587, 52.09356
510.6408, 52.20287
511.1229, 52.44299
511.6050, 52.65631
512.0872, 52.76581
512.5693, 52.80700
513.0514, 52.85272
513.5335, 52.91285
514.0156, 52.88963
514.4977, 52.63036
514.9799, 52.41779
515.4620, 52.54557
515.9441, 52.95959
516.4262, 53.29018
516.9083, 53.24540
517.3904, 53.11269
517.8726, 53.32858
518.3547, 53.86706
518.8368, 54.30029
519.3189, 54.40382
519.8010, 54.30895
520.2831, 54.30418
520.7653, 54.41131
521.2474, 54.52176
521.7295, 54.57703
522.2116, 54.65606
522.6937, 54.85503
523.1758, 55.15664
523.6580, 55.46312
524.1401, 55.71134
524.6222, 55.89349
525.1043, 55.96381
525.5864, 55.75450
526.0685, 55.67540
526.5507, 55.75631
527.0328, 55.97628
527.5149, 56.39364
527.9970, 56.96631
528.4791, 57.49669
528.9612, 57.81816
529.4434, 57.94758
529.9255, 57.95143
530.4076, 57.72634
530.8897, 57.61687
531.3718, 57.95329
531.8539, 58.39448
532.3361, 58.53092
532.8182, 58.24750
533.3003, 58.04519
533.7824, 58.38737
534.2645, 59.01769
534.7466, 59.32595
535.2288, 59.20825
535.7109, 59.13211
536.1930, 59.48727
536.6751, 60.19236
537.1572, 60.70383
537.6393, 60.90264
538.1215, 61.07453
538.6036, 61.27501
539.0857, 61.50568
539.5678, 61.78395
540.0499, 62.10585
540.5320, 62.41877
541.0142, 62.64611
541.4963, 62.78027
541.9784, 63.10540
542.4604, 63.98719
542.9426, 64.61721
543.4247, 64.65083
543.9068, 64.43803
544.3889, 64.35005
544.8710, 64.49052
545.3531, 64.76456
545.8353, 65.09911
546.3174, 65.48924
546.7995, 65.86560
547.2816, 66.23002
547.7637, 66.56680
548.2458, 66.91630
548.7280, 67.21916
549.2101, 67.34370
549.6922, 67.17265
550.1743, 67.02316
550.6564, 67.10872
551.1385, 67.35627
551.6207, 67.61311
552.1028, 67.84697
552.5849, 68.12173
553.0670, 68.52934
553.5491, 69.07157
554.0313, 69.39303
554.5134, 69.32677
554.9955, 69.27600
555.4776, 69.36076
555.9597, 69.51871
556.4418, 69.69447
556.9240, 69.86251
557.4061, 69.97240
557.8882, 69.93035
558.3703, 69.72472
558.8524, 69.71375
559.3345, 70.08331
559.8167, 70.38145
560.2988, 70.34482
560.7809, 70.20981
561.2630, 70.32236
561.7451, 70.79644
562.2272, 71.21181
562.7094, 71.12217
563.1915, 70.67245
563.6736, 70.33672
564.1557, 70.16880
564.6378, 70.12658
565.1199, 70.28966
565.6021, 70.54923
566.0842, 70.45750
566.5663, 69.69621
567.0484, 69.03897
567.5305, 68.91560
568.0126, 68.96328
568.4948, 68.67869
568.9769, 68.00349
569.4590, 67.27522
569.9411, 66.82722
570.4232, 66.63661
570.9053, 66.28682
571.3875, 65.44130
571.8696, 64.89772
572.3517, 65.05851
572.8338, 65.38490
573.3159, 65.34957
573.7980, 64.88885
574.2802, 64.35291
574.7623, 64.00651
575.2444, 63.83306
575.7265, 63.80585
576.2086, 63.97719
576.6907, 64.06792
577.1729, 63.84072
577.6550, 63.51797
578.1371, 63.51196
578.6192, 63.94107
579.1013, 64.17916
579.5834, 63.72389
580.0656, 63.11212
580.5477, 62.97670
581.0298, 63.32710
581.5119, 63.83155
581.9940, 64.30320
582.4761, 64.73197
582.9583, 65.08390
583.4404, 65.27158
583.9225, 65.51613
584.4046, 65.89367
584.8867, 66.26608
585.3688, 66.51528
585.8510, 66.67364
586.3331, 66.86779
586.8152, 67.18597
587.2973, 67.57206
587.7794, 67.93491
588.2615, 68.30089
588.7437, 68.45173
589.2258, 68.22834
589.7079, 67.88448
590.1900, 67.67437
590.6721, 67.57201
591.1542, 67.40771
591.6364, 67.10810
592.1185, 66.74533
592.6006, 66.35000
593.0827, 65.94290
593.5648, 65.60548
594.0469, 65.37730
594.5291, 65.13569
595.0112, 64.70267
595.4933, 64.03908
595.9754, 63.35053
596.4575, 62.55926
596.9396, 61.83337
597.4218, 61.29387
597.9039, 60.83181
598.3860, 60.24883
598.8681, 59.48402
599.3502, 58.75105
599.8323, 58.36766
600.3145, 58.31527
600.7966, 58.09272
601.2787, 57.59134
601.7608, 57.10889
602.2429, 56.92959
602.7250, 56.84243
603.2072, 56.49847
603.6893, 55.76348
604.1714, 55.04506
604.6535, 54.58716
605.1356, 54.25178
605.6177, 53.87422
606.0999, 53.42413
606.5820, 52.85299
607.0641, 52.10323
607.5462, 51.23440
608.0283, 50.50740
608.5104, 49.97856
608.9926, 49.52781
609.4747, 49.24166
609.9568, 48.95608
610.4389, 48.52497
610.9210, 47.98202
611.4031, 47.48504
611.8853, 47.15708
612.3674, 46.89658
612.8495, 46.44274
613.3316, 45.76512
613.8137, 45.24352
614.2958, 45.06641
614.7780, 44.94507
615.2601, 44.52930
615.7422, 43.87865
616.2243, 43.36864
616.7064, 43.16537
617.1885, 43.03543
617.6707, 42.84871
618.1528, 42.62374
618.6349, 42.41044
619.1170, 42.22234
619.5991, 42.01747
620.0812, 41.74113
620.5634, 41.38577
621.0455, 41.06120
621.5276, 40.82270
622.0097, 40.54670
622.4918, 40.14296
622.9739, 39.72860
623.4561, 39.44764
623.9382, 39.31971
624.4203, 39.20532
624.9023, 38.92271
625.3845, 38.57798
625.8666, 38.53893
626.3487, 38.85040
626.8308, 38.98981
627.3129, 38.64464
627.7950, 38.06011
628.2772, 37.68462
628.7593, 37.52462
629.2414, 37.47091
629.7235, 37.68323
630.2056, 37.83948
630.6877, 37.69638
631.1699, 37.31506
631.6520, 36.84415
632.1341, 36.35337
632.6162, 35.89321
633.0983, 35.53560
633.5804, 35.26571
634.0626, 35.18776
634.5447, 35.53020
635.0268, 35.76554
635.5089, 35.58133
635.9910, 35.18344
636.4731, 34.87505
636.9553, 34.72901
637.4374, 34.67527
637.9195, 34.71730
638.4016, 34.80210
638.8837, 34.85461
639.3658, 34.86158
639.8480, 34.74158
640.3301, 34.40024
640.8122, 33.93937
641.2943, 33.69961
641.7764, 33.85858
642.2585, 33.98917
642.7407, 34.16688
643.2228, 34.24920
643.7049, 34.06308
644.1870, 33.70787
644.6691, 33.43810
645.1512, 33.39494
645.6334, 33.46505
646.1155, 33.46302
646.5976, 33.38977
647.0797, 33.37122
647.5618, 33.45631
648.0439, 33.53462
648.5261, 33.51361
649.0082, 33.41778
649.4903, 33.32560
649.9724, 33.27391
650.4545, 33.17898
650.9366, 32.97469
651.4188, 32.72822
651.9009, 32.48268
652.3830, 32.26721
652.8651, 32.16693
653.3472, 32.25701
653.8293, 32.48443
654.3115, 32.65982
654.7936, 32.78839
655.2757, 32.85070
655.7578, 32.80558
656.2399, 32.72338
656.7220, 32.59064
657.2042, 32.44802
657.6863, 32.42075
658.1684, 32.64238
658.6505, 32.85682
659.1326, 32.75851
659.6147, 32.46114
660.0969, 32.28629
660.5790, 32.30481
661.0611, 32.40538
661.5432, 32.51426
662.0253, 32.62070
662.5074, 32.60717
662.9896, 32.32259
663.4717, 32.11790
663.9538, 31.87919
664.4359, 31.84081
664.9180, 32.42540
665.4001, 33.43042
665.8823, 34.08331
666.3644, 33.82103
666.8465, 33.08528
667.3286, 32.65894
667.8107, 32.53340
668.2928, 32.39874
668.7750, 32.16636
669.2571, 31.95959
669.7392, 31.91179
670.2213, 32.00908
670.7034, 32.07970
671.1855, 32.16871
671.6677, 32.17151
672.1498, 31.94807
672.6319, 31.68448
673.1140, 31.60166
673.5961, 31.70679
674.0782, 31.85025
674.5604, 31.92951
675.0425, 31.94416
675.5246, 31.88071
676.0067, 31.71921
676.4888, 31.56168
676.9709, 31.35693
677.4531, 31.24567
677.9352, 31.38612
678.4173, 31.71263
678.8994, 31.99553
679.3815, 32.26378
679.8636, 32.37235
680.3458, 32.08477
680.8279, 31.63987
681.3100, 31.42429
681.7921, 31.49450
682.2742, 31.65838
682.7563, 31.76803
683.2385, 31.82991
683.7206, 31.88688
684.2027, 31.99194
684.6848, 31.97511
685.1669, 31.62380
685.6490, 31.31209
686.1312, 31.29517
686.6133, 31.50144
687.0954, 31.69980
687.5775, 31.83780
688.0596, 31.87999
688.5417, 31.69041
689.0239, 31.39752
689.5060, 31.33392
689.9881, 31.55496
690.4702, 31.82947
690.9523, 31.98829
691.4344, 32.04259
691.9166, 32.04753
692.3987, 31.95854
692.8808, 31.89127
693.3629, 31.88106
693.8450, 31.86604
694.3271, 31.77941
694.8093, 31.65805
695.2914, 31.61373
695.7735, 31.72601
696.2556, 31.83507
696.7377, 31.71202
697.2198, 31.43308
697.7020, 31.27230
698.1841, 31.27535
698.6662, 31.34761
699.1483, 31.45510
699.6304, 31.56071
