##NAMES=Phurcalite
##RRUFFID=R060698
##IDEAL CHEMISTRY=Ca_2_(U^6+^O_2_)_3_O_2_(PO_4_)_2_&#183;7H_2_O
##LOCALITY=Los Azules, Copiapo, Chile
##OWNER=RRUFF
##SOURCE=Bob Jenkins
##DESCRIPTION=Divergent sprays of bright yellow acicular crystals
##STATUS=The identification of this mineral has been confirmed by single-crystal X-ray diffraction.
##URL=rruff.info/R060698
170.698, 236688.297
171.180, 236812.094
171.662, 236998.094
172.144, 237195.500
172.626, 237360.297
173.108, 237517.000
173.590, 237703.094
174.072, 237922.094
174.555, 238183.797
175.037, 238515.500
175.519, 238920.797
176.001, 239345.000
176.483, 239757.797
176.965, 240148.906
177.447, 240485.094
177.929, 240686.094
178.412, 240837.203
178.894, 241090.000
179.376, 241469.797
179.858, 241866.203
180.340, 242129.406
180.822, 242286.703
181.304, 242470.500
181.786, 242773.797
182.268, 243154.203
182.751, 243511.406
183.233, 243824.000
183.715, 244126.000
184.197, 244487.703
184.679, 244900.203
185.161, 245254.203
185.643, 245417.797
186.125, 245448.094
186.607, 245587.094
187.090, 245907.703
187.572, 246295.094
188.054, 246512.406
188.536, 246555.500
189.018, 246603.797
189.500, 246864.094
189.982, 247284.906
190.464, 247538.297
190.947, 247506.594
191.429, 247301.297
191.911, 247218.703
192.393, 247268.406
192.875, 247372.203
193.357, 247489.594
193.839, 247620.500
194.321, 247702.797
194.803, 247716.500
195.286, 247676.406
195.768, 247634.000
196.250, 247590.797
196.732, 247553.000
197.214, 247514.000
197.696, 247474.094
198.178, 247492.094
198.661, 247602.906
199.143, 247796.094
199.625, 247970.500
200.107, 248123.906
200.589, 248278.000
201.071, 248467.703
201.553, 248701.203
202.035, 248914.594
202.517, 249055.797
202.999, 249126.094
203.482, 249303.594
203.964, 249593.406
204.446, 249962.594
204.928, 250385.406
205.410, 250872.500
205.892, 251327.594
206.374, 251711.094
206.857, 252018.406
207.339, 252248.297
207.821, 252384.594
208.303, 252452.906
208.785, 252501.906
209.267, 252542.594
209.749, 252538.000
210.231, 252466.297
210.713, 252319.297
211.195, 252198.000
211.678, 252111.000
212.160, 252064.500
212.642, 252075.797
213.124, 252178.906
213.606, 252286.000
214.088, 252350.906
214.570, 252349.797
215.052, 252415.000
215.535, 252562.906
216.017, 252769.094
216.499, 252964.703
216.981, 253123.203
217.463, 253306.000
217.945, 253561.594
218.427, 253944.703
218.909, 254174.000
219.391, 254141.797
219.874, 253961.406
220.356, 254028.500
220.838, 254482.500
221.320, 254932.703
221.802, 255151.594
222.284, 255042.594
222.766, 254972.797
223.248, 254987.094
223.730, 255063.000
224.213, 255094.906
224.695, 255067.594
225.177, 255039.797
225.659, 255029.797
226.141, 254983.500
226.623, 255115.797
227.105, 255546.500
227.587, 256180.094
228.070, 256534.797
228.552, 256444.703
229.034, 256289.594
229.516, 256308.000
229.998, 256571.703
230.480, 256838.094
230.962, 257106.406
231.444, 257358.094
231.926, 257483.203
232.409, 257416.094
232.891, 257300.297
233.373, 257223.000
233.855, 257172.000
234.337, 257195.797
234.819, 257339.906
235.301, 257584.203
235.783, 257728.203
236.266, 257733.906
236.748, 257691.703
237.230, 257661.203
237.712, 257632.000
238.194, 257643.703
238.676, 257711.500
239.158, 257832.500
239.640, 257965.906
240.122, 258132.703
240.605, 258292.797
241.087, 258407.000
241.569, 258421.594
242.051, 258507.000
242.533, 258718.500
243.015, 259041.797
243.497, 259277.906
243.980, 259320.797
244.462, 259390.406
244.944, 259684.094
245.426, 260372.000
245.908, 260922.594
246.390, 261219.906
246.872, 261270.094
247.354, 261328.203
247.836, 261373.906
248.318, 261430.297
248.801, 261523.094
249.283, 261686.203
249.765, 261802.906
250.247, 261863.594
250.729, 261869.094
251.211, 261796.594
251.693, 261625.203
252.176, 261424.203
252.658, 261262.500
253.140, 261198.906
253.622, 261078.203
254.104, 260853.297
254.586, 260543.203
255.068, 260365.297
255.550, 260387.406
256.032, 260468.203
256.514, 260481.906
256.997, 260375.797
257.479, 260337.203
257.961, 260406.000
258.443, 260573.500
258.925, 260728.000
259.407, 260839.203
259.889, 260962.703
260.371, 261151.094
260.853, 261427.297
261.336, 261669.406
261.818, 261806.203
262.300, 261859.297
262.782, 262161.906
263.264, 262863.906
263.746, 263542.688
264.228, 263767.312
264.711, 263328.094
265.193, 263111.594
265.675, 263346.000
266.157, 263947.906
266.639, 264287.312
267.121, 264295.906
267.603, 264169.688
268.085, 264049.312
268.567, 263935.406
269.050, 263849.406
269.532, 263800.688
270.014, 263790.000
270.496, 263826.406
270.978, 263952.312
271.460, 264041.000
271.942, 263968.312
272.424, 263697.812
272.906, 263491.000
273.389, 263402.500
273.871, 263410.094
274.353, 263384.906
274.835, 263299.688
275.317, 263270.094
275.799, 263419.688
276.281, 263774.812
276.763, 264058.188
277.246, 264208.688
277.728, 264262.094
278.210, 264348.188
278.692, 264469.688
279.174, 264594.500
279.656, 264696.500
280.138, 264772.312
280.620, 264824.688
281.103, 264820.688
281.585, 264812.094
282.067, 264993.594
282.549, 265393.500
283.031, 265757.312
283.513, 265826.500
283.995, 265623.312
284.477, 265643.688
284.959, 266050.000
285.441, 266589.000
285.924, 266635.094
286.406, 266168.188
286.888, 265661.688
287.370, 265469.000
287.852, 265544.812
288.334, 265505.094
288.816, 265271.812
289.298, 264973.906
289.781, 264841.594
290.263, 264871.500
290.745, 264951.312
291.227, 265037.688
291.709, 265119.406
292.191, 265154.812
292.673, 265135.812
293.155, 265073.406
293.638, 264978.500
294.120, 264853.094
294.602, 264708.906
295.084, 264552.594
295.566, 264384.500
296.048, 264202.094
296.530, 264000.406
297.012, 263820.906
297.494, 263734.188
297.977, 263729.312
298.459, 263743.688
298.941, 263730.812
299.423, 263728.812
299.905, 263804.406
300.387, 263969.906
300.869, 264186.312
301.351, 264424.812
301.833, 264680.000
302.316, 264937.312
302.798, 265122.000
303.280, 265318.500
303.762, 265670.594
304.244, 266185.000
304.726, 266696.594
305.208, 267075.312
305.690, 267330.406
306.172, 267492.688
306.655, 267464.000
307.137, 267400.812
307.619, 267483.594
308.101, 267715.812
308.583, 267932.688
309.065, 268007.500
309.547, 268005.906
310.030, 268016.906
310.512, 268194.812
310.994, 268323.594
311.476, 268211.594
311.958, 267877.406
312.440, 267543.312
312.922, 267298.906
313.404, 267128.500
313.886, 267013.812
314.369, 266979.500
314.851, 266972.312
315.333, 267011.812
315.815, 267079.812
316.297, 267058.406
316.779, 266792.312
317.261, 266477.000
317.743, 266260.500
318.225, 266245.000
318.708, 266261.812
319.190, 266294.000
319.672, 266328.812
320.154, 266309.812
320.636, 266079.406
321.118, 265892.094
321.600, 265903.500
322.082, 266300.500
322.565, 266647.188
323.047, 266835.906
323.529, 266908.000
324.011, 266973.094
324.493, 267015.812
324.975, 267071.000
325.457, 267142.312
325.939, 267181.406
326.422, 267321.906
326.904, 267709.312
327.386, 268186.594
327.868, 268449.500
328.350, 268302.000
328.832, 268133.500
329.314, 268055.812
329.796, 268108.688
330.278, 268121.406
330.760, 268062.812
331.243, 267983.188
331.725, 267947.812
332.207, 267966.094
332.689, 268026.312
333.171, 268150.812
333.653, 268356.312
334.135, 268472.000
334.617, 268471.688
335.100, 268415.406
335.582, 268365.906
336.064, 268341.188
336.546, 268287.406
337.028, 268174.688
337.510, 268015.312
337.992, 267931.406
338.474, 267935.406
338.957, 267977.406
339.439, 268008.188
339.921, 268013.406
340.403, 268067.594
340.885, 268210.906
341.367, 268388.000
341.849, 268395.094
342.331, 268205.500
342.813, 267991.906
343.296, 267894.094
343.778, 267908.188
344.260, 267845.500
344.742, 267669.812
345.224, 267456.312
345.706, 267336.094
346.188, 267314.500
346.670, 267374.500
347.152, 267556.000
347.635, 267826.812
348.117, 268036.094
348.599, 268165.406
349.081, 268264.688
349.563, 268387.812
350.045, 268523.406
350.527, 268648.906
351.009, 268700.906
351.491, 268734.594
351.974, 268880.312
352.456, 269144.500
352.938, 269371.500
353.420, 269370.094
353.902, 269230.594
354.384, 269129.406
354.866, 269215.312
355.349, 269326.688
355.831, 269317.688
356.313, 269198.812
356.795, 269020.688
357.277, 268780.594
357.759, 268525.094
358.241, 268307.094
358.723, 268138.188
359.205, 268028.312
359.688, 268034.000
360.170, 268121.312
360.652, 268152.312
361.134, 268031.906
361.616, 267852.188
362.098, 267652.188
362.580, 267346.500
363.062, 267190.312
363.544, 267382.312
364.027, 267770.688
364.509, 268040.188
364.991, 268052.500
365.473, 267976.688
365.955, 267865.906
366.437, 267705.188
366.919, 267571.500
367.401, 267492.406
367.884, 267444.812
368.366, 267396.812
368.848, 267346.312
369.330, 267307.594
369.812, 267267.500
370.294, 267218.312
370.776, 267279.000
371.258, 267542.688
371.741, 267839.594
372.223, 268011.812
372.705, 267969.188
373.187, 267979.500
373.669, 268082.812
374.151, 268264.688
374.633, 268454.688
375.115, 268666.406
375.597, 268841.406
376.079, 268935.500
376.562, 268939.406
377.044, 268886.500
377.526, 268760.906
378.008, 268595.000
378.490, 268460.312
378.972, 268357.688
379.454, 268288.188
379.936, 268284.812
380.419, 268339.094
380.901, 268324.094
381.383, 268237.500
381.865, 268112.406
382.347, 267949.812
382.829, 267771.500
383.311, 267702.000
383.793, 267881.094
384.276, 268176.906
384.758, 268265.094
385.240, 268143.406
385.722, 268052.312
386.204, 268255.906
386.686, 268627.094
387.168, 268904.188
387.650, 268945.406
388.132, 268931.188
388.615, 269061.000
389.097, 269296.812
389.579, 269494.094
390.061, 269535.094
390.543, 269501.812
391.025, 269466.812
391.507, 269436.594
391.989, 269425.406
392.471, 269510.188
392.954, 269623.000
393.436, 269632.500
393.918, 269409.594
394.400, 269154.906
394.882, 268982.406
395.364, 268925.906
395.846, 268843.312
396.328, 268668.906
396.810, 268469.812
397.293, 268313.094
397.775, 268248.406
398.257, 268181.812
398.739, 268051.188
399.221, 267858.500
399.703, 267798.812
400.185, 268007.812
400.668, 268223.500
401.150, 268284.312
401.632, 268038.500
402.114, 267910.000
402.596, 267965.906
403.078, 268139.000
403.560, 268261.812
404.042, 268369.312
404.524, 268355.594
405.007, 268110.812
405.489, 267577.594
405.971, 267330.094
406.453, 267460.812
406.935, 267710.812
407.417, 267675.094
407.899, 267328.406
408.381, 267093.406
408.863, 267150.906
409.346, 267410.406
409.828, 267514.188
410.310, 267452.594
410.792, 267377.312
411.274, 267436.406
411.756, 267596.094
412.238, 267742.812
412.720, 267863.688
413.203, 267948.500
413.685, 267959.500
414.167, 267913.094
414.649, 267882.000
415.131, 267936.000
415.613, 268014.594
416.095, 268023.312
416.577, 267932.312
417.060, 267868.812
417.542, 267959.594
418.024, 268123.906
418.506, 268239.594
418.988, 268240.188
419.470, 268187.188
419.952, 268113.312
420.434, 268017.000
420.916, 267876.906
421.398, 267626.812
421.881, 267369.500
422.363, 267178.812
422.845, 267187.312
423.327, 267142.312
423.809, 266977.094
424.291, 266735.906
424.773, 266549.312
425.255, 266524.594
425.738, 266463.688
426.220, 266272.000
426.702, 265856.906
427.184, 265613.500
427.666, 265616.812
428.148, 265729.594
428.630, 265769.406
429.112, 265706.812
429.595, 265638.188
430.077, 265572.000
430.559, 265510.312
431.041, 265514.688
431.523, 265606.312
432.005, 265675.594
432.487, 265608.094
432.969, 265410.812
433.451, 265272.594
433.934, 265247.094
434.416, 265245.094
434.898, 265092.188
435.380, 264803.000
435.862, 264506.500
436.344, 264236.906
436.826, 264024.406
437.308, 263977.594
437.790, 264119.406
438.273, 264232.906
438.755, 264045.812
439.237, 263705.000
439.719, 263470.094
440.201, 263509.812
440.683, 263616.312
441.165, 263663.500
441.647, 263650.594
442.129, 263586.594
442.612, 263438.188
443.094, 263258.000
443.576, 263080.406
444.058, 262911.094
444.540, 262743.812
445.022, 262558.812
445.504, 262376.812
445.987, 262236.688
446.469, 262263.312
446.951, 262219.312
447.433, 262003.406
447.915, 261598.000
448.397, 261286.406
448.879, 261116.594
449.361, 261003.906
449.843, 260888.594
450.326, 260786.000
450.808, 260634.297
451.290, 260384.500
451.772, 260095.797
452.254, 259989.906
452.736, 260105.203
453.218, 260225.906
453.700, 260234.406
454.182, 260132.406
454.665, 260009.797
455.147, 259862.203
455.629, 259711.797
456.111, 259593.500
456.593, 259501.703
457.075, 259410.000
457.557, 259335.094
458.039, 259239.594
458.522, 259033.594
459.004, 258731.297
459.486, 258458.500
459.968, 258362.297
460.450, 258319.297
460.932, 258156.906
461.414, 257785.000
461.896, 257463.406
462.379, 257431.594
462.861, 257555.703
463.343, 257601.094
463.825, 257364.797
464.307, 257132.297
464.789, 257049.000
465.271, 257127.500
465.753, 257181.000
466.235, 257165.703
466.717, 257113.094
467.200, 257044.000
467.682, 256914.094
468.164, 256827.797
468.646, 256808.203
469.128, 256830.000
469.610, 256822.297
470.092, 256757.797
470.574, 256703.594
471.057, 256686.406
471.539, 256707.203
472.021, 256719.203
472.503, 256732.000
472.985, 256700.703
473.467, 256550.406
473.949, 256280.094
474.431, 256035.094
474.914, 255861.000
475.396, 255721.297
475.878, 255560.203
476.360, 255377.703
476.842, 255144.203
477.324, 254799.500
477.806, 254413.094
478.288, 254104.297
478.770, 253895.906
479.253, 253742.203
479.735, 253600.906
480.217, 253497.406
480.699, 253468.500
481.181, 253618.797
481.663, 253768.000
482.145, 253764.906
482.627, 253643.406
483.109, 253624.500
483.592, 253858.000
484.074, 254147.906
484.556, 254382.406
485.038, 254562.906
485.520, 254629.000
486.002, 254434.094
486.484, 254150.406
486.966, 254024.406
487.448, 254183.906
487.931, 254294.000
488.413, 254297.797
488.895, 254198.594
489.377, 253972.594
489.859, 253584.797
490.341, 253189.703
490.823, 252927.703
491.306, 252815.000
491.788, 252623.797
492.270, 252317.094
492.752, 251989.500
493.234, 251812.000
493.716, 251768.297
494.198, 251712.094
494.680, 251550.406
495.162, 251342.594
495.645, 251195.000
496.127, 251099.203
496.609, 251003.203
497.091, 250859.406
497.573, 250690.500
498.055, 250518.000
498.537, 250335.500
499.019, 250173.797
499.501, 250055.297
499.984, 249972.703
500.466, 249909.906
500.948, 249893.906
501.430, 249876.000
501.912, 249859.594
502.394, 249853.406
502.876, 249766.594
503.358, 249467.297
503.841, 249184.297
504.323, 249070.594
504.805, 249246.703
505.287, 249334.594
505.769, 249263.906
506.251, 249117.797
506.733, 249082.906
507.215, 249176.406
507.697, 249289.500
508.180, 249409.297
508.662, 249518.594
509.144, 249471.906
509.626, 249253.500
510.108, 249055.703
510.590, 249155.203
511.072, 249432.500
511.554, 249478.500
512.036, 249155.797
512.519, 248751.594
513.001, 248594.000
513.483, 248611.203
513.965, 248619.406
514.447, 248460.500
514.929, 248314.500
515.411, 248340.594
515.893, 248537.500
516.375, 248691.000
516.858, 248667.703
517.340, 248589.906
517.822, 248544.594
518.304, 248554.297
518.786, 248574.094
519.268, 248640.500
519.750, 248701.406
520.232, 248649.500
520.715, 248339.797
521.197, 248154.797
521.679, 248244.703
522.161, 248598.906
522.643, 248811.500
523.125, 248867.594
523.607, 248833.797
524.089, 248754.594
524.571, 248632.797
525.054, 248451.000
525.536, 248182.594
526.018, 247924.906
526.500, 247863.406
526.982, 247950.703
527.464, 247999.797
527.946, 247900.094
528.429, 247730.906
528.911, 247563.703
529.393, 247402.297
529.875, 247274.906
530.357, 247282.797
530.839, 247283.797
531.321, 247132.203
531.803, 246720.094
532.285, 246377.297
532.768, 246296.000
533.250, 246325.000
533.732, 246258.094
534.214, 245993.906
534.696, 245719.500
535.178, 245455.797
535.660, 245209.594
536.142, 245017.297
536.625, 244892.594
537.107, 244805.203
537.589, 244753.500
538.071, 244750.500
538.553, 244697.797
539.035, 244583.906
539.517, 244453.297
539.999, 244332.500
540.481, 244228.797
540.964, 244228.406
541.446, 244398.203
541.928, 244625.203
542.410, 244717.297
542.892, 244694.203
543.374, 244655.000
543.856, 244615.203
544.338, 244605.594
544.820, 244689.094
545.303, 244880.594
545.785, 244998.797
546.267, 244901.094
546.749, 244713.500
547.231, 244554.500
547.713, 244501.906
548.195, 244420.703
548.677, 244258.797
549.159, 244060.094
549.642, 243937.000
550.124, 243971.500
550.606, 243965.297
551.088, 243847.297
551.570, 243617.703
552.052, 243416.594
552.534, 243250.297
553.016, 243096.797
553.499, 242937.406
553.981, 242774.203
554.463, 242612.594
554.945, 242453.500
555.427, 242297.500
555.909, 242134.906
556.391, 241974.703
556.873, 241846.094
557.356, 241809.500
557.838, 241780.406
558.320, 241658.297
558.802, 241463.297
559.284, 241293.000
559.766, 241210.297
560.248, 241164.594
560.730, 241128.297
561.213, 241108.000
561.695, 241067.000
562.177, 240934.406
562.659, 240805.500
563.141, 240786.094
563.623, 240958.500
564.105, 241099.406
564.587, 241185.094
565.069, 241213.000
565.552, 241156.906
566.034, 240982.406
566.516, 240843.703
566.998, 240838.406
567.480, 240939.797
567.962, 240948.594
568.444, 240857.203
568.926, 240759.203
569.408, 240766.703
569.891, 240831.703
570.373, 240856.094
570.855, 240831.500
571.337, 240735.000
571.819, 240455.203
572.301, 240101.203
572.783, 239866.203
573.265, 239987.297
573.747, 240096.406
574.230, 240004.297
574.712, 239728.406
575.194, 239484.203
575.676, 239319.000
576.158, 239183.406
576.640, 239067.500
577.122, 238995.500
577.604, 238877.797
578.086, 238726.906
578.569, 238527.703
579.051, 238229.094
579.533, 237816.406
580.015, 237494.906
580.497, 237309.000
580.979, 237230.906
581.461, 237225.297
581.943, 237287.203
582.426, 237376.297
582.908, 237540.297
583.390, 237684.203
583.872, 237623.203
584.354, 237367.906
584.836, 237163.406
585.318, 237206.500
585.800, 237334.594
586.282, 237416.406
586.765, 237425.500
587.247, 237380.906
587.729, 237229.797
588.211, 237044.094
588.693, 236925.094
589.175, 236939.594
589.657, 236927.094
590.140, 236855.797
590.622, 236744.094
591.104, 236675.094
591.586, 236673.297
592.068, 236630.297
592.550, 236467.203
593.032, 236204.094
593.514, 236008.203
593.996, 235883.094
594.479, 235807.406
594.961, 235855.703
595.443, 235926.703
595.925, 235776.406
596.407, 235276.297
596.889, 234786.906
597.371, 234605.594
597.853, 234624.000
598.335, 234670.406
598.818, 234789.203
599.300, 234820.000
599.782, 234615.594
600.264, 234230.594
600.746, 234038.500
601.228, 234263.297
601.710, 234452.703
602.192, 234408.297
602.674, 234083.297
603.157, 233909.703
603.639, 233927.703
604.121, 234006.203
604.603, 234028.500
605.085, 233996.703
605.567, 233961.297
606.049, 233923.406
606.531, 233896.297
607.013, 233944.297
607.496, 234023.094
607.978, 234007.406
608.460, 233709.203
608.942, 233402.500
609.424, 233346.703
609.906, 233487.000
610.388, 233599.703
610.870, 233610.594
611.353, 233552.297
611.835, 233415.594
612.317, 233168.297
612.799, 233000.500
613.281, 233003.500
613.763, 233014.094
614.245, 232905.594
614.727, 232643.906
615.209, 232399.000
615.692, 232184.703
616.174, 232001.406
616.656, 231844.203
617.138, 231715.906
617.620, 231633.000
618.102, 231627.297
618.584, 231644.406
619.067, 231569.406
619.549, 231425.703
620.031, 231320.406
620.513, 231330.797
620.995, 231390.797
621.477, 231473.297
621.959, 231575.797
622.441, 231598.703
622.923, 231394.000
623.406, 231163.906
623.888, 231056.703
624.370, 231185.203
624.852, 231246.297
625.334, 231223.594
625.816, 231144.094
626.298, 231057.500
626.780, 230982.406
627.263, 230787.000
627.745, 230388.797
628.227, 229914.094
628.709, 229708.594
629.191, 229743.906
629.673, 229731.797
630.155, 229466.906
630.637, 229095.500
631.119, 228789.703
631.602, 228556.500
632.084, 228409.203
632.566, 228522.000
633.048, 228619.000
633.530, 228454.000
634.012, 227872.297
634.494, 227414.797
634.976, 227269.000
635.458, 227248.094
635.941, 227168.203
636.423, 226966.406
636.905, 226845.406
637.387, 226870.203
637.869, 226939.297
638.351, 226791.406
638.833, 226410.500
639.315, 226128.500
639.797, 226121.094
640.280, 226252.500
640.762, 226216.297
641.244, 226034.594
641.726, 225858.000
642.208, 225817.703
642.690, 225808.500
643.172, 225727.406
