##NAMES=Phurcalite
##RRUFFID=R060698
##IDEAL CHEMISTRY=Ca_2_(U^6+^O_2_)_3_O_2_(PO_4_)_2_&#183;7H_2_O
##LOCALITY=Los Azules, Copiapo, Chile
##OWNER=RRUFF
##SOURCE=Bob Jenkins
##DESCRIPTION=Divergent sprays of bright yellow acicular crystals
##STATUS=The identification of this mineral has been confirmed by single-crystal X-ray diffraction.
##URL=rruff.info/R060698
136.474, 2128.337
136.956, 2118.818
137.438, 2182.438
137.920, 2266.535
138.402, 2345.659
138.884, 2420.075
139.366, 2475.688
139.848, 2555.582
140.331, 2625.758
140.813, 2695.522
141.295, 2773.476
141.777, 2805.301
142.259, 2890.312
142.741, 2994.960
143.223, 3092.846
143.705, 3181.543
144.188, 3266.128
144.670, 3354.029
145.152, 3443.353
145.634, 3518.631
146.116, 3576.825
146.598, 3620.335
147.080, 3650.159
147.562, 3665.705
148.044, 3672.796
148.527, 3678.348
149.009, 3681.124
149.491, 3670.301
149.973, 3635.023
150.455, 3586.605
150.937, 3543.967
151.419, 3510.490
151.901, 3477.884
152.383, 3440.257
152.866, 3398.041
153.348, 3349.729
153.830, 3288.894
154.312, 3222.223
154.794, 3165.115
155.276, 3122.236
155.758, 3083.409
156.240, 3037.959
156.723, 2988.406
157.205, 2945.170
157.687, 2915.096
158.169, 2895.789
158.651, 2878.893
159.133, 2862.681
159.615, 2850.873
160.097, 2843.438
160.579, 2840.903
161.062, 2846.590
161.544, 2866.065
162.026, 2896.819
162.508, 2925.262
162.990, 2948.017
163.472, 2971.106
163.954, 3000.917
164.436, 3035.349
164.919, 3065.752
165.401, 3082.207
165.883, 3086.486
166.365, 3097.781
166.847, 3117.926
167.329, 3145.711
167.811, 3185.573
168.293, 3233.833
168.775, 3276.448
169.258, 3300.223
169.740, 3305.571
170.222, 3310.784
170.704, 3314.568
171.186, 3320.844
171.668, 3333.297
172.150, 3350.699
172.632, 3367.679
173.115, 3379.903
173.597, 3387.316
174.079, 3392.860
174.561, 3392.320
175.043, 3394.100
175.525, 3401.760
176.007, 3415.242
176.489, 3432.704
176.971, 3453.645
177.454, 3478.412
177.936, 3502.588
178.418, 3526.758
178.900, 3549.495
179.382, 3568.428
179.864, 3584.763
180.346, 3602.678
180.828, 3624.633
181.311, 3650.050
181.793, 3684.179
182.275, 3734.475
182.757, 3787.961
183.239, 3842.385
183.721, 3896.263
184.203, 3946.485
184.685, 3988.742
185.167, 4021.530
185.650, 4059.443
186.132, 4103.177
186.614, 4151.903
187.096, 4208.661
187.578, 4271.439
188.060, 4333.510
188.542, 4387.337
189.024, 4430.556
189.507, 4485.855
189.989, 4569.375
190.471, 4651.294
190.953, 4719.519
191.435, 4776.261
191.917, 4830.938
192.399, 4888.496
192.881, 4947.313
193.363, 5028.944
193.846, 5164.513
194.328, 5296.878
194.810, 5406.960
195.292, 5497.427
195.774, 5579.716
196.256, 5659.563
196.738, 5736.331
197.220, 5832.455
197.702, 5982.389
198.185, 6120.945
198.667, 6223.945
199.149, 6299.488
199.631, 6369.030
200.113, 6451.261
200.595, 6546.456
201.077, 6626.891
201.559, 6689.302
202.042, 6738.360
202.524, 6773.958
203.006, 6796.575
203.488, 6800.848
203.970, 6772.018
204.452, 6715.251
204.934, 6626.911
205.416, 6581.331
205.898, 6525.370
206.380, 6459.590
206.863, 6354.552
207.345, 6300.200
207.827, 6225.542
208.309, 6160.936
208.791, 6064.931
209.273, 5955.833
209.755, 5849.230
210.238, 5741.685
210.720, 5640.560
211.202, 5558.796
211.684, 5507.061
212.166, 5478.350
212.648, 5435.943
213.130, 5367.730
213.612, 5300.314
214.094, 5235.410
214.577, 5175.900
215.059, 5125.734
215.541, 5088.468
216.023, 5059.797
216.505, 5024.008
216.987, 4977.104
217.469, 4928.584
217.951, 4881.075
218.434, 4832.721
218.916, 4779.993
219.398, 4720.900
219.880, 4659.629
220.362, 4607.575
220.844, 4571.037
221.326, 4533.013
221.808, 4491.056
222.290, 4446.469
222.773, 4401.213
223.255, 4355.674
223.737, 4308.384
224.219, 4254.640
224.701, 4185.155
225.183, 4129.233
225.665, 4091.762
226.147, 4066.011
226.629, 4044.108
227.112, 4043.433
227.594, 4037.607
228.076, 4026.904
228.558, 3996.720
229.040, 3991.693
229.522, 3976.584
230.004, 3961.059
230.486, 3959.572
230.969, 3932.222
231.451, 3930.512
231.933, 3918.568
232.415, 3911.307
232.897, 3893.900
233.379, 3879.629
233.861, 3866.920
234.343, 3860.250
234.825, 3864.500
235.307, 3873.451
235.790, 3883.555
236.272, 3895.651
236.754, 3899.755
237.236, 3884.755
237.718, 3871.171
238.200, 3866.049
238.682, 3870.142
239.165, 3882.905
239.647, 3908.075
240.129, 3944.832
240.611, 3973.404
241.093, 3988.341
241.575, 4001.284
242.057, 4020.340
242.539, 4042.072
243.021, 4057.466
243.503, 4056.029
243.986, 4043.655
244.468, 4046.471
244.950, 4071.964
245.432, 4100.482
245.914, 4123.294
246.396, 4142.630
246.878, 4162.676
247.361, 4187.271
247.843, 4212.316
248.325, 4226.814
248.807, 4225.614
249.289, 4228.085
249.771, 4252.914
250.253, 4282.880
250.735, 4294.736
251.217, 4272.310
251.699, 4243.943
252.182, 4254.666
252.664, 4311.719
253.146, 4358.793
253.628, 4365.551
254.110, 4354.217
254.592, 4347.008
255.074, 4348.173
255.556, 4350.989
256.039, 4347.395
256.521, 4337.794
257.003, 4331.443
257.485, 4318.829
257.967, 4323.746
258.449, 4321.396
258.931, 4339.017
259.413, 4351.792
259.896, 4359.978
260.378, 4349.836
260.860, 4363.360
261.342, 4367.400
261.824, 4371.052
262.306, 4387.909
262.788, 4380.433
263.270, 4397.079
263.752, 4404.096
264.234, 4415.520
264.717, 4417.401
265.199, 4422.231
265.681, 4436.605
266.163, 4435.077
266.645, 4439.676
267.127, 4442.407
267.609, 4444.574
268.091, 4441.151
268.574, 4427.668
269.056, 4403.819
269.538, 4368.374
270.020, 4317.609
270.502, 4252.269
270.984, 4191.051
271.466, 4141.458
271.948, 4089.701
272.431, 4018.195
272.913, 3933.160
273.395, 3861.896
273.877, 3817.146
274.359, 3800.368
274.841, 3773.260
275.323, 3769.109
275.805, 3759.387
276.287, 3744.390
276.770, 3708.323
277.252, 3699.463
277.734, 3679.702
278.216, 3659.493
278.698, 3648.460
279.180, 3653.613
279.662, 3633.867
280.144, 3564.078
280.626, 3475.729
281.109, 3398.919
281.591, 3342.541
282.073, 3303.353
282.555, 3278.282
283.037, 3275.760
283.519, 3267.216
284.001, 3253.711
284.483, 3234.104
284.966, 3204.359
285.448, 3166.396
285.930, 3128.313
286.412, 3099.993
286.894, 3084.311
287.376, 3053.987
287.858, 2992.305
288.340, 2933.679
288.823, 2891.516
289.305, 2862.612
289.787, 2837.734
290.269, 2810.775
290.751, 2782.512
291.233, 2757.174
291.715, 2729.548
292.197, 2712.924
292.679, 2718.831
293.161, 2733.344
293.644, 2740.076
294.126, 2731.677
294.608, 2713.213
295.090, 2694.295
295.572, 2673.243
296.054, 2655.960
296.536, 2644.874
297.018, 2636.712
297.501, 2629.631
297.983, 2623.127
298.465, 2616.992
298.947, 2610.735
299.429, 2604.197
299.911, 2599.189
300.393, 2597.262
300.875, 2595.597
301.358, 2592.294
301.840, 2587.508
302.322, 2582.607
302.804, 2579.320
303.286, 2576.728
303.768, 2572.259
304.250, 2567.208
304.732, 2556.977
305.214, 2533.296
305.697, 2502.270
306.179, 2477.345
306.661, 2466.524
307.143, 2461.298
307.625, 2450.483
308.107, 2433.889
308.589, 2418.723
309.071, 2411.447
309.553, 2406.984
310.036, 2393.315
310.518, 2361.953
311.000, 2334.324
311.482, 2327.689
311.964, 2335.223
312.446, 2336.216
312.928, 2322.078
313.410, 2300.853
313.892, 2287.372
314.375, 2283.372
314.857, 2278.881
315.339, 2268.191
315.821, 2257.748
316.303, 2258.890
316.785, 2273.016
317.267, 2284.786
317.750, 2276.437
318.232, 2242.666
318.714, 2216.777
319.196, 2199.352
319.678, 2188.676
320.160, 2186.337
320.642, 2190.387
321.124, 2195.721
321.606, 2198.768
322.089, 2199.907
322.571, 2202.593
323.053, 2212.133
323.535, 2217.021
324.017, 2209.830
324.499, 2198.750
324.981, 2194.886
325.463, 2202.696
325.945, 2216.457
326.428, 2224.510
326.910, 2224.697
327.392, 2223.459
327.874, 2217.681
328.356, 2213.386
328.838, 2217.182
329.320, 2228.421
329.802, 2238.296
330.284, 2235.474
330.767, 2219.171
331.249, 2210.914
331.731, 2220.440
332.213, 2226.676
332.695, 2215.554
333.177, 2193.906
333.659, 2177.574
334.141, 2177.660
334.624, 2186.849
335.106, 2189.053
335.588, 2182.644
336.070, 2176.018
336.552, 2171.816
337.034, 2170.308
337.516, 2173.328
337.998, 2184.392
338.480, 2192.454
338.963, 2183.775
339.445, 2162.737
339.927, 2151.703
340.409, 2159.836
340.891, 2176.414
341.373, 2186.347
341.855, 2189.420
342.337, 2191.875
342.819, 2197.910
343.302, 2202.998
343.784, 2198.236
344.266, 2182.923
344.748, 2171.305
345.230, 2177.594
345.712, 2202.739
346.194, 2219.331
346.677, 2217.068
347.159, 2217.198
347.641, 2234.191
348.123, 2261.153
348.605, 2280.984
349.087, 2284.032
349.569, 2276.335
350.051, 2277.328
350.533, 2297.293
351.016, 2312.807
351.498, 2320.790
351.980, 2325.291
352.462, 2329.722
352.944, 2334.891
353.426, 2339.426
353.908, 2339.377
354.390, 2331.102
354.872, 2336.158
355.355, 2374.468
355.837, 2408.583
356.319, 2421.339
356.801, 2418.405
357.283, 2415.355
357.765, 2422.423
358.247, 2435.917
358.729, 2443.298
359.211, 2440.144
359.694, 2442.627
360.176, 2460.864
360.658, 2486.632
361.140, 2513.215
361.622, 2540.055
362.104, 2564.087
362.586, 2579.173
363.069, 2587.525
363.551, 2603.509
364.033, 2633.224
364.515, 2667.219
364.997, 2688.714
365.479, 2697.924
365.961, 2725.855
366.443, 2801.456
366.925, 2888.675
367.408, 2946.680
367.890, 2973.237
368.372, 2986.859
368.854, 2997.315
369.336, 3005.880
369.818, 3025.171
370.300, 3061.328
370.782, 3099.368
371.264, 3134.720
371.747, 3168.776
372.229, 3203.426
372.711, 3239.404
373.193, 3277.801
373.675, 3321.687
374.157, 3377.777
374.639, 3425.630
375.121, 3459.494
375.603, 3490.928
376.086, 3524.706
376.568, 3562.475
377.050, 3606.121
377.532, 3657.800
378.014, 3716.958
378.496, 3776.151
378.978, 3832.727
379.460, 3893.739
379.943, 3963.970
380.425, 4038.309
380.907, 4109.596
381.389, 4175.958
381.871, 4239.194
382.353, 4299.010
382.835, 4355.498
383.317, 4421.051
383.799, 4504.314
384.282, 4591.853
384.764, 4668.073
385.246, 4733.208
385.728, 4800.225
386.210, 4874.751
386.692, 4954.238
387.174, 5036.270
387.656, 5120.672
388.138, 5202.128
388.621, 5275.964
389.103, 5343.158
389.585, 5412.616
390.067, 5486.742
390.549, 5560.241
391.031, 5630.438
391.513, 5699.091
391.996, 5769.779
392.478, 5843.517
392.960, 5917.984
393.442, 5986.806
393.924, 6036.152
394.406, 6112.666
394.888, 6239.332
395.370, 6369.310
395.852, 6469.169
396.335, 6545.816
396.817, 6631.012
397.299, 6750.869
397.781, 6898.970
398.263, 7035.932
398.745, 7154.587
399.227, 7275.197
399.709, 7410.965
400.191, 7548.471
400.674, 7671.073
401.156, 7772.353
401.638, 7873.038
402.120, 8003.298
402.602, 8157.413
403.084, 8282.792
403.566, 8362.440
404.048, 8423.510
404.530, 8496.968
405.013, 8577.792
405.495, 8631.283
405.977, 8634.475
406.459, 8616.244
406.941, 8606.685
407.423, 8603.033
407.905, 8580.945
408.387, 8524.603
408.870, 8444.022
409.352, 8371.029
409.834, 8319.623
410.316, 8254.610
410.798, 8162.345
411.280, 8060.143
411.762, 7961.929
412.244, 7871.604
412.727, 7789.390
413.209, 7714.644
413.691, 7646.444
414.173, 7594.476
414.655, 7563.392
415.137, 7544.938
415.619, 7532.417
416.101, 7532.356
416.583, 7552.760
417.065, 7596.248
417.548, 7665.949
418.030, 7784.826
418.512, 7965.847
418.994, 8091.428
419.476, 8089.238
419.958, 8068.201
420.440, 8118.893
420.922, 8238.688
421.405, 8378.337
421.887, 8520.971
422.369, 8667.853
422.851, 8824.532
423.333, 8990.193
423.815, 9150.843
424.297, 9293.805
424.779, 9425.360
425.262, 9573.716
425.744, 9757.419
426.226, 9930.357
426.708, 10086.550
427.190, 10222.730
427.672, 10335.940
428.154, 10425.140
428.636, 10492.470
429.118, 10542.360
429.601, 10578.100
430.083, 10574.280
430.565, 10505.630
431.047, 10424.570
431.529, 10352.640
432.011, 10277.820
432.493, 10178.230
432.975, 10043.100
433.457, 9882.110
433.940, 9706.785
434.422, 9514.697
434.904, 9324.601
435.386, 9135.135
435.868, 8955.841
436.350, 8797.578
436.832, 8659.080
437.314, 8517.227
437.797, 8358.799
438.279, 8192.424
438.761, 8027.929
439.243, 7864.851
439.725, 7716.016
440.207, 7592.032
440.689, 7485.397
441.171, 7372.191
441.654, 7250.654
442.136, 7125.801
442.618, 6998.304
443.100, 6868.124
443.582, 6731.958
444.064, 6591.055
444.546, 6453.503
445.028, 6327.336
445.510, 6212.288
445.992, 6113.775
446.475, 6086.313
446.957, 6013.084
447.439, 5841.500
447.921, 5617.530
448.403, 5391.853
448.885, 5179.243
449.367, 5002.609
449.849, 4900.058
450.332, 4872.757
450.814, 4855.755
451.296, 4871.709
451.778, 4848.825
452.260, 4702.324
452.742, 4462.697
453.224, 4251.298
453.706, 4109.355
454.189, 4005.877
454.671, 3921.419
455.153, 3852.890
455.635, 3789.615
456.117, 3728.260
456.599, 3666.153
457.081, 3597.351
457.563, 3512.717
458.045, 3438.869
458.528, 3378.377
459.010, 3327.389
459.492, 3288.296
459.974, 3257.146
460.456, 3222.929
460.938, 3177.093
461.420, 3123.106
461.902, 3077.535
462.384, 3044.746
462.867, 3011.144
463.349, 2970.965
463.831, 2930.656
464.313, 2895.967
464.795, 2867.634
465.277, 2841.367
465.759, 2816.568
466.241, 2791.436
466.724, 2759.251
467.206, 2718.175
467.688, 2679.746
468.170, 2651.097
468.652, 2631.157
469.134, 2613.839
469.616, 2606.256
470.098, 2591.354
470.580, 2556.634
471.063, 2513.921
471.545, 2477.501
472.027, 2450.994
472.509, 2431.775
472.991, 2417.882
473.473, 2409.590
473.955, 2401.292
474.437, 2398.357
474.919, 2389.151
475.402, 2363.709
475.884, 2333.162
476.366, 2304.445
476.848, 2288.168
477.330, 2284.435
477.812, 2277.658
478.294, 2267.999
478.776, 2246.831
479.259, 2240.525
479.741, 2228.262
480.223, 2215.755
480.705, 2211.542
481.187, 2192.047
481.669, 2186.889
482.151, 2174.814
482.633, 2169.342
483.116, 2167.875
483.598, 2163.469
484.080, 2153.578
484.562, 2143.054
485.044, 2139.978
485.526, 2149.313
486.008, 2147.671
486.490, 2123.345
486.972, 2101.504
487.454, 2095.418
487.937, 2099.308
488.419, 2100.452
488.901, 2092.083
489.383, 2082.267
489.865, 2068.187
490.347, 2059.197
490.829, 2064.200
491.311, 2065.807
491.794, 2064.199
492.276, 2049.749
492.758, 2051.882
493.240, 2047.370
493.722, 2042.585
494.204, 2047.051
494.686, 2034.470
495.168, 2038.790
495.651, 2036.363
496.133, 2037.025
496.615, 2030.999
497.097, 2027.039
497.579, 2029.767
498.061, 2028.792
498.543, 2021.997
499.025, 2022.855
499.507, 2010.040
499.990, 2009.222
500.472, 2007.578
500.954, 2003.013
501.436, 2007.280
501.918, 2009.905
502.400, 2010.608
502.882, 2007.534
503.364, 2007.669
503.846, 2022.208
504.329, 2033.250
504.811, 2040.984
505.293, 2035.499
505.775, 2047.085
506.257, 2051.829
506.739, 2056.292
507.221, 2070.279
507.703, 2066.717
508.185, 2079.618
508.668, 2086.802
509.150, 2089.467
509.632, 2084.091
510.114, 2083.349
510.596, 2090.841
511.078, 2099.214
511.560, 2105.610
512.042, 2109.749
512.525, 2111.531
513.007, 2110.636
513.489, 2108.685
513.971, 2108.496
514.453, 2110.060
514.935, 2113.269
515.417, 2117.159
515.899, 2123.939
516.381, 2136.515
516.864, 2153.592
517.346, 2169.659
517.828, 2184.106
518.310, 2195.860
518.792, 2201.514
519.274, 2203.472
519.756, 2208.792
520.239, 2220.101
520.721, 2235.467
521.203, 2252.623
521.685, 2273.711
522.167, 2288.580
522.649, 2290.555
523.131, 2294.112
523.613, 2306.572
524.095, 2324.289
524.578, 2341.045
525.060, 2354.218
525.542, 2364.962
526.024, 2372.279
526.506, 2376.440
526.988, 2390.120
527.470, 2419.551
527.952, 2450.815
528.434, 2474.084
528.917, 2490.418
529.399, 2502.243
529.881, 2503.976
530.363, 2507.580
530.845, 2518.208
531.327, 2535.285
531.809, 2562.298
532.291, 2599.095
532.773, 2630.437
533.256, 2635.701
533.738, 2611.753
534.220, 2608.122
534.702, 2648.618
535.184, 2680.814
535.666, 2681.552
536.148, 2672.505
536.630, 2679.923
537.112, 2710.570
537.595, 2748.416
538.077, 2782.199
538.559, 2811.888
539.041, 2838.187
539.523, 2861.820
540.005, 2876.953
540.487, 2877.261
540.969, 2866.858
541.452, 2861.366
541.934, 2860.534
542.416, 2864.349
542.898, 2873.564
543.380, 2886.981
543.862, 2907.788
544.344, 2933.068
544.826, 2951.830
545.308, 2955.433
545.791, 2946.230
546.273, 2932.429
546.755, 2910.947
547.237, 2893.500
547.719, 2887.939
548.201, 2883.780
548.683, 2872.560
549.166, 2854.377
549.648, 2835.502
550.130, 2820.960
550.612, 2805.448
551.094, 2783.962
551.576, 2756.436
552.058, 2721.065
552.540, 2675.981
553.022, 2628.847
553.505, 2593.156
553.987, 2571.847
554.469, 2554.564
554.951, 2551.029
555.433, 2540.911
555.915, 2510.560
556.397, 2468.426
556.879, 2430.224
557.362, 2402.763
557.844, 2378.267
558.326, 2330.875
558.808, 2268.358
559.290, 2221.958
559.772, 2223.573
560.254, 2213.524
560.736, 2192.454
561.218, 2127.329
561.701, 2119.092
562.183, 2088.056
562.665, 2056.088
563.147, 2043.299
563.629, 2006.095
564.111, 1987.263
564.593, 1949.509
565.075, 1908.917
565.557, 1880.119
566.040, 1860.689
566.522, 1835.431
567.004, 1801.952
567.486, 1767.833
567.968, 1728.816
568.450, 1694.418
568.932, 1675.015
569.414, 1670.681
569.896, 1667.896
570.379, 1661.421
570.861, 1653.030
571.343, 1642.874
571.825, 1632.197
572.307, 1627.141
572.789, 1631.279
573.271, 1636.523
573.753, 1628.146
574.235, 1600.647
574.718, 1576.909
575.200, 1555.851
575.682, 1539.635
576.164, 1529.719
576.646, 1524.924
577.128, 1524.519
577.610, 1528.927
578.093, 1532.298
578.575, 1526.380
579.057, 1514.061
579.539, 1507.741
580.021, 1509.805
580.503, 1511.173
580.985, 1504.943
581.467, 1492.889
581.949, 1484.006
582.432, 1477.632
582.914, 1474.784
583.396, 1481.990
583.878, 1488.089
584.360, 1479.285
584.842, 1459.000
585.324, 1445.077
585.806, 1451.944
586.289, 1468.747
586.771, 1466.819
587.253, 1443.355
587.735, 1424.266
588.217, 1417.317
588.699, 1414.203
589.181, 1405.019
589.663, 1391.238
590.145, 1384.188
590.628, 1394.254
591.110, 1402.424
591.592, 1394.374
592.074, 1379.082
592.556, 1373.698
593.038, 1381.715
593.520, 1388.917
594.002, 1378.066
594.484, 1350.160
594.967, 1333.120
595.449, 1329.220
595.931, 1331.643
596.413, 1347.023
596.895, 1362.406
597.377, 1363.911
597.859, 1349.940
598.341, 1335.236
598.823, 1325.356
599.306, 1318.470
599.788, 1314.891
600.270, 1312.944
600.752, 1306.243
601.234, 1291.660
601.716, 1274.391
602.198, 1263.110
602.680, 1258.779
603.162, 1257.004
603.645, 1262.297
604.127, 1265.139
604.609, 1260.973
605.091, 1252.936
605.573, 1240.584
606.055, 1220.505
606.537, 1205.130
607.019, 1214.257
607.502, 1217.436
607.984, 1214.988
608.466, 1190.057
608.948, 1194.159
609.430, 1186.624
609.912, 1178.613
610.394, 1180.394
610.876, 1180.959
611.359, 1178.688
611.841, 1170.138
612.323, 1162.291
612.805, 1161.206
613.287, 1163.489
613.769, 1160.959
614.251, 1149.190
614.733, 1134.927
615.216, 1124.283
615.698, 1117.409
616.180, 1115.784
616.662, 1119.964
617.144, 1125.893
617.626, 1130.708
618.108, 1134.617
618.590, 1138.885
619.072, 1143.629
619.555, 1148.574
620.037, 1156.707
620.519, 1162.630
621.001, 1163.116
621.483, 1157.778
621.965, 1145.794
622.447, 1123.615
622.929, 1100.846
623.411, 1093.342
623.894, 1099.741
624.376, 1109.895
624.858, 1123.560
625.340, 1133.494
625.822, 1132.588
626.304, 1121.443
626.786, 1110.442
627.268, 1097.470
627.750, 1087.386
628.233, 1079.464
628.715, 1075.977
629.197, 1082.196
629.679, 1095.831
630.161, 1106.813
630.643, 1108.783
631.125, 1103.071
631.607, 1088.065
632.089, 1064.343
632.572, 1051.403
633.054, 1056.457
633.536, 1067.786
634.018, 1074.229
634.500, 1060.093
634.982, 1077.554
635.464, 1087.346
635.946, 1089.879
636.429, 1063.417
636.911, 1074.397
637.393, 1070.371
637.875, 1065.731
638.357, 1081.980
638.839, 1059.735
639.321, 1075.654
639.803, 1076.338
640.286, 1083.994
640.768, 1076.553
641.250, 1073.775
641.732, 1086.099
642.214, 1090.062
642.696, 1080.882
643.178, 1088.982
643.660, 1066.210
644.143, 1070.528
644.625, 1086.535
645.107, 1078.115
645.589, 1086.490
646.071, 1072.810
646.553, 1070.397
647.035, 1078.562
647.517, 1091.622
647.999, 1096.151
648.482, 1092.162
648.964, 1086.138
649.446, 1078.874
649.928, 1072.869
650.410, 1072.015
650.892, 1076.826
651.374, 1076.623
651.856, 1063.575
652.338, 1055.499
652.821, 1063.668
653.303, 1075.219
653.785, 1076.053
654.267, 1065.197
654.749, 1051.824
655.231, 1040.743
655.713, 1033.141
656.195, 1031.114
656.677, 1034.673
657.160, 1045.383
657.642, 1065.573
658.124, 1087.047
658.606, 1102.606
659.088, 1112.402
659.570, 1110.098
660.052, 1083.787
660.534, 1061.770
661.016, 1047.944
661.499, 1042.120
