##NAMES=Pickeringite
##RRUFFID=R060108
##IDEAL CHEMISTRY=MgAl_2_(S^6+^O_4_)_4_&#183;22H_2_O
##LOCALITY=Tucumcari, New Mexico, USA
##OWNER=RRUFF
##SOURCE=University of Arizona Mineral Museum
##DESCRIPTION=Colorless acicular aggregates
##STATUS=The identification of this mineral has been confirmed by X-ray diffraction and chemical analysis
##URL=rruff.info/R060108
##MEASURED CHEMISTRY=(Mg_0.88_Mn_0.12_)_Σ=1_Al_2.00_(S_1.00_O_4_)_4_·22H_2_O
92.02539, 130.3000
92.50751, 134.2066
92.98962, 136.9982
93.47174, 135.5473
93.95386, 132.3984
94.43597, 128.9089
94.91809, 125.7983
95.40021, 123.0509
95.88232, 120.1273
96.36444, 116.8607
96.84656, 113.6687
97.32867, 110.7093
97.81078, 107.9677
98.29290, 105.4035
98.77502, 102.9233
99.25713, 100.3675
99.73925, 97.90252
100.2214, 95.36313
100.7035, 93.03346
101.1856, 90.97972
101.6677, 89.21367
102.1498, 87.78088
102.6320, 86.77039
103.1141, 86.38963
103.5962, 85.93774
104.0783, 85.37724
104.5604, 84.74936
105.0425, 84.11217
105.5247, 83.48466
106.0068, 82.81860
106.4889, 82.02292
106.9710, 81.11548
107.4531, 80.08216
107.9352, 78.75803
108.4173, 77.22426
108.8995, 75.94046
109.3816, 75.19395
109.8637, 74.69250
110.3458, 74.08648
110.8279, 73.29757
111.3100, 72.54986
111.7922, 72.14697
112.2743, 72.19594
112.7564, 72.25560
113.2385, 72.12720
113.7206, 71.97884
114.2027, 72.00222
114.6849, 72.30887
115.1670, 72.76474
115.6491, 72.88000
116.1312, 72.19155
116.6133, 71.68355
117.0954, 71.60591
117.5776, 71.79982
118.0597, 72.02377
118.5418, 72.11604
119.0239, 72.07495
119.5060, 71.96826
119.9881, 71.77724
120.4703, 71.55276
120.9524, 71.24505
121.4345, 70.89262
121.9166, 70.65191
122.3987, 70.72444
122.8808, 71.17795
123.3630, 71.30489
123.8451, 70.91037
124.3272, 70.28884
124.8093, 69.68201
125.2914, 69.11182
125.7735, 68.63423
126.2557, 68.30680
126.7378, 68.10812
127.2199, 68.09595
127.7020, 68.52405
128.1841, 69.19595
128.6662, 69.45150
129.1483, 69.00503
129.6305, 68.30643
130.1126, 67.65260
130.5947, 67.05785
131.0768, 66.59293
131.5589, 66.40471
132.0410, 66.55082
132.5232, 66.50285
133.0053, 65.94490
133.4874, 65.34059
133.9695, 64.90595
134.4516, 64.68881
134.9337, 64.62393
135.4159, 64.64002
135.8980, 64.87350
136.3801, 64.91422
136.8622, 64.64865
137.3443, 64.26617
137.8264, 63.94980
138.3086, 63.76601
138.7907, 63.61876
139.2728, 63.24708
139.7549, 62.28828
140.2370, 61.51246
140.7191, 61.01569
141.2013, 60.72827
141.6834, 60.56628
142.1655, 60.50234
142.6476, 60.50991
143.1297, 60.47120
143.6118, 60.47451
144.0939, 60.35941
144.5761, 59.98682
145.0582, 59.40740
145.5403, 58.84573
146.0224, 58.41615
146.5045, 58.11994
146.9866, 57.90237
147.4688, 57.81297
147.9509, 57.76088
148.4330, 57.64569
148.9151, 57.45238
149.3972, 57.28917
149.8793, 57.33752
150.3615, 57.43309
150.8436, 57.34670
151.3257, 56.91515
151.8078, 56.29089
152.2899, 55.83437
152.7720, 55.62651
153.2542, 55.44679
153.7363, 55.17010
154.2184, 54.85889
154.7005, 54.61959
155.1826, 54.56125
155.6647, 54.64942
156.1469, 54.52108
156.6290, 53.89027
157.1111, 53.30859
157.5932, 52.90092
158.0753, 52.65601
158.5574, 52.53492
159.0396, 52.52613
159.5217, 52.65648
160.0038, 52.64515
160.4859, 52.36034
160.9680, 52.07311
161.4501, 51.87817
161.9323, 51.78666
162.4144, 51.78328
162.8965, 51.87646
163.3786, 52.13085
163.8607, 52.14888
164.3428, 51.72319
164.8250, 51.22635
165.3071, 50.95906
165.7892, 50.96037
166.2713, 51.01322
166.7534, 50.83509
167.2355, 50.38086
167.7177, 50.03728
168.1998, 49.90940
168.6819, 49.89040
169.1640, 49.83803
169.6461, 49.71364
170.1282, 49.59185
170.6104, 49.64289
171.0925, 49.84591
171.5746, 49.87520
172.0567, 49.45769
172.5388, 48.75183
173.0209, 48.20453
173.5031, 47.86079
173.9852, 47.77538
174.4673, 48.06659
174.9494, 48.68982
175.4315, 49.22130
175.9136, 49.35130
176.3958, 49.08991
176.8779, 48.69105
177.3600, 47.89900
177.8421, 47.23040
178.3242, 47.10843
178.8063, 47.49389
179.2885, 47.90561
179.7706, 47.74804
180.2527, 46.81114
180.7348, 46.22646
181.2169, 46.34396
181.6990, 46.62016
182.1812, 46.83677
182.6633, 46.93420
183.1454, 46.92334
183.6275, 46.78638
184.1096, 46.36662
184.5917, 46.16652
185.0738, 46.44555
185.5560, 46.73452
186.0381, 46.61971
186.5202, 46.02994
187.0023, 45.29473
187.4844, 44.99382
187.9665, 45.64004
188.4487, 45.90939
188.9308, 45.50539
189.4129, 44.88769
189.8950, 44.44442
190.3771, 44.30775
190.8592, 44.41314
191.3414, 44.67484
191.8235, 45.30375
192.3056, 45.68482
192.7877, 45.55330
193.2698, 45.19160
193.7519, 44.99512
194.2341, 45.12131
194.7162, 45.39624
195.1983, 45.44478
195.6804, 45.21449
196.1625, 45.01584
196.6446, 44.95509
197.1268, 44.99352
197.6089, 45.06328
198.0910, 45.17907
198.5731, 45.25401
199.0552, 45.12069
199.5373, 44.73391
200.0195, 44.40469
200.5016, 44.32756
200.9837, 44.46304
201.4658, 44.61736
201.9479, 44.77030
202.4300, 44.88044
202.9122, 44.90551
203.3943, 44.83962
203.8764, 44.74108
204.3585, 44.62324
204.8406, 44.48637
205.3227, 44.43353
205.8048, 44.52110
206.2870, 44.68783
206.7691, 44.92809
207.2512, 45.23739
207.7333, 45.51593
208.2154, 45.63343
208.6975, 45.55776
209.1797, 45.51164
209.6618, 45.59893
210.1439, 45.68066
210.6260, 45.68071
211.1081, 45.58593
211.5902, 45.43055
212.0724, 45.23593
212.5545, 44.96025
213.0366, 44.78057
213.5187, 44.70916
214.0008, 44.72580
214.4829, 44.84959
214.9651, 45.07145
215.4472, 45.33299
215.9293, 45.56129
216.4114, 45.79564
216.8935, 45.89950
217.3756, 45.73869
217.8578, 45.56456
218.3399, 45.60296
218.8220, 45.87906
219.3041, 46.19564
219.7862, 46.24426
220.2683, 45.86421
220.7505, 45.50170
221.2326, 45.05809
221.7147, 44.68726
222.1968, 44.55773
222.6789, 44.69166
223.1610, 44.92001
223.6432, 44.99514
224.1253, 44.84474
224.6074, 44.66062
225.0895, 44.30595
225.5716, 43.99164
226.0537, 44.03293
226.5358, 44.48333
227.0180, 44.91753
227.5001, 44.66095
227.9822, 43.35241
228.4643, 42.51834
228.9464, 42.60224
229.4285, 43.04168
229.9107, 43.24802
230.3928, 43.08739
230.8749, 42.79158
231.3570, 42.66741
231.8391, 42.73916
232.3212, 42.71627
232.8034, 42.45191
233.2855, 42.10820
233.7676, 41.90397
234.2497, 41.89169
234.7318, 41.93835
235.2139, 41.85120
235.6961, 41.65269
236.1782, 41.60318
236.6603, 41.93813
237.1424, 42.41048
237.6245, 42.62586
238.1066, 42.49611
238.5888, 42.24389
239.0709, 42.04992
239.5530, 41.89828
240.0351, 41.74046
240.5172, 41.53242
240.9993, 41.31245
241.4815, 41.15223
241.9636, 41.05669
242.4457, 41.01984
242.9278, 41.13383
243.4099, 41.30639
243.8920, 41.32423
244.3742, 40.94738
244.8563, 40.37758
245.3384, 40.12687
245.8205, 40.35890
246.3026, 40.54205
246.7847, 40.28847
247.2668, 39.80495
247.7490, 39.42498
248.2311, 39.35486
248.7132, 39.45885
249.1953, 39.39078
249.6774, 39.07528
250.1595, 38.73447
250.6417, 38.46167
251.1238, 38.22385
251.6059, 37.98410
252.0880, 37.73115
252.5701, 37.45932
253.0522, 37.14147
253.5344, 36.74075
254.0165, 36.37096
254.4986, 36.01460
254.9807, 35.72004
255.4628, 35.54344
255.9449, 35.51399
256.4271, 35.60188
256.9092, 35.76442
257.3913, 36.11016
257.8734, 36.31304
258.3555, 36.25058
258.8376, 36.07198
259.3198, 35.91344
259.8019, 35.82847
260.2840, 35.77660
260.7661, 35.67613
261.2482, 35.52216
261.7303, 35.32104
262.2125, 34.96134
262.6946, 34.62387
263.1767, 34.48895
263.6588, 34.60485
264.1409, 34.84093
264.6230, 34.97267
265.1052, 34.97269
265.5873, 34.90772
266.0694, 34.75220
266.5515, 34.56492
267.0336, 34.37749
267.5157, 34.20231
267.9979, 34.04647
268.4800, 33.92133
268.9621, 33.83312
269.4442, 33.76760
269.9263, 33.71921
270.4084, 33.69263
270.8906, 33.68556
271.3727, 33.70083
271.8548, 33.75311
272.3369, 33.87288
272.8190, 34.11200
273.3011, 34.23726
273.7833, 34.21918
274.2654, 34.13764
274.7475, 34.00986
275.2296, 33.85350
275.7117, 33.69687
276.1938, 33.55590
276.6760, 33.40756
277.1581, 33.43512
277.6402, 33.80514
278.1223, 34.15519
278.6044, 34.33986
279.0865, 34.35643
279.5686, 34.24011
280.0508, 33.99243
280.5329, 33.60636
281.0150, 33.44854
281.4971, 33.63552
281.9792, 33.88042
282.4613, 34.16505
282.9435, 34.42789
283.4256, 34.53917
283.9077, 34.39806
284.3898, 34.03980
284.8719, 33.79081
285.3540, 33.63330
285.8362, 33.58141
286.3183, 33.68804
286.8004, 33.89878
287.2825, 34.11932
287.7646, 34.30114
288.2467, 34.46094
288.7289, 34.66211
289.2110, 35.11988
289.6931, 35.35518
290.1752, 35.09778
290.6573, 34.62326
291.1394, 34.32080
291.6216, 34.34297
292.1037, 34.57149
292.5858, 34.77671
293.0679, 34.95982
293.5500, 35.11554
294.0321, 35.24346
294.5143, 35.34369
294.9964, 35.43153
295.4785, 35.51092
295.9606, 35.53294
296.4427, 35.40471
296.9248, 35.02765
297.4070, 34.81117
297.8891, 34.80458
298.3712, 34.94288
298.8533, 35.23848
299.3354, 35.67259
299.8175, 36.07586
300.2997, 36.27212
300.7818, 36.22196
301.2639, 36.15112
301.7460, 35.98489
302.2281, 35.85648
302.7102, 35.91084
303.1924, 36.12324
303.6745, 36.28792
304.1566, 36.23064
304.6387, 35.96331
305.1208, 35.79527
305.6029, 35.69630
306.0851, 35.71071
306.5672, 35.92104
307.0493, 36.27602
307.5314, 36.62971
308.0135, 36.91581
308.4956, 37.12362
308.9778, 37.20129
309.4599, 37.06576
309.9420, 36.92986
310.4241, 36.84084
310.9062, 36.80001
311.3883, 36.83855
311.8705, 36.98890
312.3526, 37.16348
312.8347, 37.15861
313.3168, 36.95967
313.7989, 36.66146
314.2810, 36.08290
314.7632, 35.48360
315.2453, 35.26885
315.7274, 35.56372
316.2095, 36.03239
316.6916, 36.21392
317.1737, 36.02982
317.6559, 35.89964
318.1380, 35.97393
318.6201, 36.04594
319.1022, 35.87584
319.5843, 35.44545
320.0664, 34.99756
320.5485, 34.77675
321.0306, 34.80747
321.5128, 34.69592
321.9949, 34.27774
322.4770, 33.85930
322.9591, 33.65343
323.4412, 33.63773
323.9233, 33.64401
324.4055, 33.55199
324.8876, 33.38908
325.3697, 33.35136
325.8518, 33.59605
326.3339, 33.77620
326.8160, 33.69973
327.2982, 33.46445
327.7803, 33.29004
328.2624, 33.28474
328.7445, 33.38433
329.2266, 33.41921
329.7087, 33.38040
330.1909, 33.30619
330.6730, 33.12510
331.1551, 32.93969
331.6372, 32.93147
332.1193, 33.15647
332.6014, 33.41537
333.0836, 33.39840
333.5657, 32.95148
334.0478, 32.68829
334.5299, 32.75653
335.0120, 32.93234
335.4941, 33.05127
335.9763, 33.08740
336.4584, 33.08943
336.9405, 33.12263
337.4226, 33.19808
337.9047, 33.04831
338.3868, 32.38966
338.8690, 31.79575
339.3511, 31.61748
339.8332, 31.76629
340.3153, 31.93759
340.7974, 31.94282
341.2795, 31.80671
341.7617, 31.68184
342.2438, 31.48660
342.7259, 31.39511
343.2080, 31.56829
343.6901, 31.84073
344.1722, 31.93699
344.6544, 31.73929
345.1365, 31.39913
345.6186, 31.23210
346.1007, 31.41143
346.5828, 31.51057
347.0649, 31.44345
347.5471, 31.34397
348.0292, 31.34863
348.5113, 31.47418
348.9934, 31.61962
349.4755, 31.66586
349.9576, 31.59802
350.4398, 31.47606
350.9219, 31.16781
351.4040, 30.93125
351.8861, 30.96930
352.3682, 31.21447
352.8503, 31.44715
353.3325, 31.50611
353.8146, 31.39706
354.2967, 31.20026
354.7788, 30.75776
355.2609, 30.40830
355.7430, 30.32883
356.2252, 30.35849
356.7073, 30.23430
357.1894, 29.82844
357.6715, 29.29230
358.1536, 29.00988
358.6357, 29.19801
359.1179, 29.32517
359.5999, 29.33047
360.0821, 29.29866
360.5642, 29.28730
361.0463, 29.31331
361.5284, 29.37396
362.0105, 29.47551
362.4926, 29.64246
362.9748, 29.75444
363.4569, 29.73157
363.9390, 29.73175
364.4211, 29.89717
364.9032, 30.15399
365.3853, 30.28444
365.8675, 30.08870
366.3496, 29.61989
366.8317, 29.39900
367.3138, 29.69516
367.7959, 29.90600
368.2780, 29.85888
368.7602, 29.67128
369.2423, 29.49563
369.7244, 29.39952
370.2065, 29.32584
370.6886, 29.13864
371.1707, 28.74845
371.6529, 28.47536
372.1350, 28.39220
372.6171, 28.41027
373.0992, 28.50705
373.5813, 28.66454
374.0634, 28.82446
374.5456, 28.94962
375.0277, 29.04357
375.5098, 29.01535
375.9919, 28.69860
376.4740, 28.44202
376.9561, 28.45777
377.4383, 28.65480
377.9204, 28.81496
378.4025, 28.79336
378.8846, 28.66137
379.3667, 28.62885
379.8488, 28.74057
380.3310, 28.83584
380.8131, 28.84223
381.2952, 28.80302
381.7773, 28.75507
382.2594, 28.70564
382.7415, 28.65808
383.2237, 28.61057
383.7058, 28.56313
384.1879, 28.54160
384.6700, 28.57543
385.1521, 28.61338
385.6342, 28.57010
386.1164, 28.45781
386.5985, 28.44122
387.0806, 28.69584
387.5627, 29.10355
388.0448, 29.38605
388.5269, 29.51046
389.0091, 29.54371
389.4912, 29.52052
389.9733, 29.44175
390.4554, 29.28815
390.9375, 28.88859
391.4196, 28.56623
391.9018, 28.71976
392.3839, 29.29315
392.8660, 29.76107
393.3481, 29.86954
393.8302, 29.75963
394.3123, 29.71280
394.7945, 29.73646
395.2766, 29.78802
395.7587, 29.83072
396.2408, 29.89546
396.7229, 30.04705
397.2050, 30.30668
397.6872, 30.60848
398.1693, 30.92691
398.6514, 31.26982
399.1335, 31.37881
399.6156, 30.58136
400.0977, 31.20108
400.5798, 31.61919
401.0620, 31.84654
401.5441, 31.31164
402.0262, 31.76099
402.5083, 31.81589
402.9904, 31.85461
403.4725, 32.44249
403.9547, 32.10773
404.4368, 32.06733
404.9189, 32.13903
405.4010, 32.29397
405.8831, 32.51912
406.3652, 32.78391
406.8474, 33.05326
407.3295, 33.36303
407.8116, 33.55608
408.2937, 33.43083
408.7758, 33.37865
409.2579, 33.64800
409.7401, 34.19695
410.2222, 34.85482
410.7043, 35.53147
411.1864, 36.19428
411.6685, 36.57832
412.1506, 36.37238
412.6328, 36.25710
413.1149, 36.36309
413.5970, 36.59505
414.0791, 36.87516
414.5612, 37.17038
415.0433, 37.42949
415.5255, 37.52176
416.0076, 37.32764
416.4897, 37.38554
416.9718, 38.00880
417.4539, 38.65357
417.9360, 39.07083
418.4182, 39.28020
418.9003, 39.42661
419.3824, 39.63097
419.8645, 39.85628
420.3466, 39.89656
420.8287, 39.58437
421.3109, 39.44092
421.7930, 39.73173
422.2751, 39.94279
422.7572, 40.07396
423.2393, 40.12952
423.7214, 39.88301
424.2036, 40.02657
424.6857, 40.01379
425.1678, 39.28070
425.6499, 39.01914
426.1320, 38.97087
426.6141, 38.92073
427.0963, 38.87155
427.5784, 38.84681
428.0605, 38.93945
428.5426, 39.02942
429.0247, 38.87677
429.5068, 38.45185
429.9890, 38.07007
430.4711, 37.94535
430.9532, 38.01659
431.4353, 38.05691
431.9174, 38.12410
432.3995, 37.90716
432.8817, 38.06831
433.3638, 38.14956
433.8459, 38.15520
434.3280, 37.85877
434.8101, 37.95241
435.2922, 37.88972
435.7744, 37.82062
436.2565, 37.96915
436.7386, 37.71666
437.2207, 37.75708
437.7028, 37.67078
438.1849, 37.62522
438.6671, 37.55864
439.1492, 37.41313
439.6313, 37.22942
440.1134, 37.25323
440.5955, 37.74618
441.0776, 38.12633
441.5598, 38.26316
442.0418, 38.29164
442.5240, 38.35657
443.0061, 38.49207
443.4882, 38.62169
443.9703, 38.63531
444.4524, 38.49854
444.9345, 38.40863
445.4167, 38.26255
445.8988, 38.26834
446.3809, 38.57426
446.8630, 39.08205
447.3451, 39.63943
447.8272, 40.18867
448.3094, 40.65274
448.7915, 40.77771
449.2736, 40.39403
449.7557, 40.15564
450.2378, 40.32125
450.7199, 40.62442
451.2021, 40.89318
451.6842, 41.10608
452.1663, 41.32997
452.6484, 41.63733
453.1305, 42.00474
453.6126, 42.32566
454.0948, 42.59734
454.5769, 42.80996
455.0590, 42.82274
455.5411, 42.78761
456.0232, 43.00200
456.5053, 43.28757
456.9875, 43.49325
457.4696, 43.62331
457.9517, 43.45130
458.4338, 43.66935
458.9159, 43.73108
459.3980, 43.78640
459.8802, 44.05937
460.3623, 43.93130
460.8444, 44.31519
461.3265, 44.30578
461.8086, 44.16783
462.2907, 44.11394
462.7729, 44.14805
463.2550, 44.15047
463.7371, 44.01487
464.2192, 43.69027
464.7013, 43.80970
465.1834, 43.84922
465.6656, 43.81312
466.1477, 43.47497
466.6298, 43.52688
467.1119, 43.42247
467.5940, 43.31165
468.0761, 43.41846
468.5583, 43.12155
469.0404, 42.92359
469.5225, 42.71494
470.0046, 42.43364
470.4867, 42.20679
470.9688, 42.16488
471.4510, 42.18470
471.9331, 42.05886
472.4152, 41.68108
472.8973, 41.16358
473.3794, 40.68910
473.8615, 40.23613
474.3437, 39.92320
474.8258, 39.98598
475.3079, 40.02296
475.7900, 39.70818
476.2721, 39.09889
476.7542, 38.56285
477.2364, 38.45219
477.7185, 38.54917
478.2006, 38.32025
478.6827, 37.71530
479.1648, 37.08049
479.6469, 36.59159
480.1291, 36.18395
480.6112, 35.72088
481.0933, 35.14161
481.5754, 34.66422
482.0575, 34.48295
482.5396, 34.45990
483.0217, 34.30758
483.5038, 33.96211
483.9860, 33.64722
484.4681, 33.63540
484.9502, 33.93789
485.4323, 33.87884
485.9144, 33.12453
486.3965, 32.38750
486.8787, 32.01807
487.3608, 31.86670
487.8429, 31.63212
488.3250, 31.19269
488.8071, 30.67471
489.2892, 30.31818
489.7714, 30.24545
490.2535, 30.02421
490.7356, 29.41590
491.2177, 28.90551
491.6998, 28.86630
492.1819, 29.13482
492.6641, 29.26283
493.1462, 28.93754
493.6283, 28.34767
494.1104, 28.07325
494.5925, 28.25500
495.0746, 28.37148
495.5568, 28.17434
496.0389, 27.95802
496.5210, 27.99896
497.0031, 28.28662
497.4852, 28.47604
497.9673, 28.21913
498.4495, 27.68664
498.9316, 27.35892
499.4137, 27.27964
499.8958, 27.27887
500.3779, 27.32368
500.8600, 27.35961
501.3422, 27.26404
501.8243, 26.94910
502.3064, 26.68115
502.7885, 26.65964
503.2706, 26.75681
503.7527, 26.69922
504.2349, 26.42510
504.7170, 26.19121
505.1991, 26.29962
505.6812, 26.78078
506.1633, 26.91628
506.6454, 26.34041
507.1276, 25.86490
507.6097, 25.89323
508.0918, 26.18444
508.5739, 26.32787
509.0560, 26.17613
509.5381, 25.94226
510.0203, 26.00052
510.5024, 26.51135
510.9845, 26.76369
511.4666, 26.44282
511.9487, 26.17441
512.4308, 26.27861
512.9130, 26.60723
513.3951, 26.82730
513.8772, 26.74594
514.3593, 26.54838
514.8414, 26.62458
515.3235, 27.03276
515.8057, 27.26650
516.2878, 27.12840
516.7699, 26.85417
517.2520, 26.60839
517.7341, 26.39957
518.2162, 26.26533
518.6984, 26.23770
519.1805, 26.28328
519.6626, 26.37853
520.1447, 26.51834
520.6268, 26.66549
521.1089, 26.83535
521.5911, 26.96333
522.0732, 26.85299
522.5553, 26.38080
523.0374, 26.07164
523.5195, 26.14347
524.0016, 26.32335
524.4838, 26.36009
524.9659, 26.25781
525.4480, 26.18087
525.9301, 26.25268
526.4122, 26.44032
526.8943, 26.58043
527.3765, 26.73282
527.8586, 26.73724
528.3407, 26.47244
528.8228, 26.13882
529.3049, 25.88644
529.7870, 25.73750
530.2692, 25.63415
530.7513, 25.49679
531.2334, 25.35744
531.7155, 25.46525
532.1976, 26.00438
532.6797, 26.35879
533.1619, 26.08280
533.6440, 25.57899
534.1261, 25.23192
534.6082, 25.10558
535.0903, 25.07270
535.5724, 25.07641
536.0546, 25.10870
536.5367, 25.17670
537.0188, 25.28815
537.5009, 25.33099
537.9830, 25.17689
538.4651, 24.88381
538.9473, 24.77571
539.4294, 25.01558
539.9115, 25.21663
540.3936, 25.27612
540.8757, 25.23600
541.3578, 25.11290
541.8400, 24.92687
542.3221, 24.75909
542.8042, 24.69696
543.2863, 24.74218
543.7684, 24.78796
544.2505, 24.87409
544.7326, 24.90980
545.2147, 24.92233
545.6968, 24.85410
546.1790, 24.56367
546.6611, 24.03971
547.1432, 23.57998
547.6253, 23.62298
548.1074, 24.10510
548.5895, 24.22623
549.0717, 23.74330
549.5538, 23.35569
550.0359, 23.74207
550.5180, 24.42462
551.0001, 24.63253
551.4822, 24.03841
551.9644, 23.45760
552.4465, 23.58224
552.9286, 24.04772
553.4107, 23.79068
553.8928, 24.21924
554.3749, 24.44619
554.8571, 24.48234
555.3392, 23.75630
555.8213, 24.01449
556.3034, 23.87824
556.7855, 23.72582
557.2676, 24.12255
557.7498, 23.68141
558.2319, 23.73252
558.7140, 23.92433
559.1961, 24.10393
559.6782, 24.08773
560.1603, 23.87296
560.6425, 23.72322
561.1246, 23.62225
561.6067, 23.62081
562.0888, 23.85073
562.5709, 24.11848
563.0530, 24.17437
563.5352, 23.95230
564.0173, 23.69888
564.4994, 23.58968
564.9815, 23.61660
565.4636, 23.81612
565.9457, 24.24702
566.4279, 24.54747
566.9100, 24.35966
567.3921, 23.86768
567.8742, 23.74435
568.3563, 24.26218
568.8384, 24.69134
569.3206, 24.73349
569.8027, 24.57792
570.2848, 24.40841
570.7669, 24.27545
571.2490, 24.21461
571.7311, 24.25892
572.2133, 24.40500
572.6954, 24.62100
573.1775, 25.11628
573.6596, 25.38428
574.1417, 25.10922
574.6238, 24.75994
575.1060, 24.79638
575.5881, 25.23580
576.0702, 25.69882
576.5523, 25.89131
577.0344, 25.85411
577.5165, 25.68771
577.9987, 25.33565
578.4808, 25.10608
578.9629, 25.18231
579.4450, 25.42446
579.9271, 25.66065
580.4092, 25.90425
580.8914, 26.02651
581.3735, 25.86726
581.8556, 25.63177
582.3377, 25.55607
582.8198, 25.63581
583.3019, 25.71788
583.7841, 25.69864
584.2662, 25.66321
584.7483, 25.86280
585.2304, 26.72659
585.7125, 27.10291
586.1946, 26.47151
586.6768, 25.84442
587.1589, 25.84328
587.6410, 26.38802
