##NAMES=Piemontite
##RRUFFID=R061119
##IDEAL CHEMISTRY=Ca_2_Mn^3+^Al_2_(Si_2_O_7_)(SiO_4_)O(OH)
##LOCALITY=Muramatsu mine, Kinkai, Nagasaki, Japan
##OWNER=RRUFF
##SOURCE=Michael Scott
##DESCRIPTION=Red elongated prismatic crystals
##STATUS=The identification of this mineral is confirmed by single-crystal X-ray diffraction and chemical analysis.
##URL=rruff.info/R061119
##MEASURED CHEMISTRY=(Ca_1.96_Mn^2+^_0.04_)_Σ=2_(Mn^3+^_0.64_Fe^3+^_0.36_)_Σ=1_Al_2.00_(Si_2.00_O_7_)(Si_1.00_O_4_)O(OH); OH assumed by stoichiometry; Mn^2+^ and  Mn^3+^ splitted by charge balance
202.0782, 1068.342
202.5603, 1053.667
203.0424, 1047.624
203.5246, 1056.684
204.0067, 1078.003
204.4888, 1085.849
204.9709, 1077.194
205.4530, 1061.775
205.9352, 1048.259
206.4173, 1036.017
206.8994, 1028.541
207.3815, 1028.677
207.8636, 1036.149
208.3457, 1038.031
208.8279, 1032.389
209.3100, 1024.130
209.7921, 1019.468
210.2742, 1019.538
210.7563, 1019.485
211.2384, 1017.111
211.7205, 1011.906
212.2027, 1012.055
212.6848, 1021.352
213.1669, 1031.697
213.6490, 1029.153
214.1311, 1007.112
214.6132, 988.9933
215.0954, 983.9335
215.5775, 994.8798
216.0596, 1001.353
216.5417, 1001.239
217.0238, 998.4218
217.5059, 1000.322
217.9881, 1010.765
218.4702, 1018.005
218.9523, 1016.935
219.4344, 1004.816
219.9165, 994.4072
220.3986, 984.2592
220.8808, 976.6247
221.3629, 977.2469
221.8450, 992.0166
222.3271, 1004.598
222.8092, 1007.289
223.2913, 994.0508
223.7735, 987.0573
224.2556, 986.8537
224.7377, 992.6631
225.2198, 1003.636
225.7019, 1024.667
226.1840, 1043.169
226.6662, 1053.364
227.1483, 1051.969
227.6304, 1049.358
228.1125, 1044.385
228.5946, 1038.495
229.0767, 1035.622
229.5588, 1035.509
230.0410, 1038.808
230.5231, 1047.151
231.0052, 1066.605
231.4873, 1077.160
231.9694, 1073.527
232.4515, 1060.769
232.9337, 1057.876
233.4158, 1068.933
233.8979, 1084.213
234.3800, 1100.432
234.8621, 1126.172
235.3442, 1133.642
235.8264, 1112.073
236.3085, 1070.450
236.7906, 1048.146
237.2727, 1054.933
237.7548, 1068.274
238.2369, 1075.871
238.7191, 1076.042
239.2012, 1073.235
239.6833, 1065.554
240.1654, 1054.622
240.6475, 1049.956
241.1296, 1056.446
241.6118, 1062.938
242.0939, 1061.704
242.5760, 1046.083
243.0581, 1036.694
243.5402, 1039.207
244.0223, 1050.477
244.5045, 1050.675
244.9866, 1033.643
245.4687, 1013.402
245.9508, 999.2500
246.4329, 994.9012
246.9150, 988.8887
247.3972, 978.7217
247.8793, 965.6094
248.3614, 956.8597
248.8435, 952.9485
249.3256, 952.8337
249.8077, 956.6615
250.2898, 968.0046
250.7720, 975.3519
251.2541, 975.9171
251.7362, 970.7936
252.2183, 968.8083
252.7004, 971.5165
253.1825, 975.2054
253.6647, 977.3481
254.1468, 977.6877
254.6289, 976.9790
255.1110, 975.4053
255.5931, 972.8486
256.0753, 967.9012
256.5574, 957.2303
257.0395, 948.9186
257.5216, 950.2326
258.0037, 966.4337
258.4858, 979.0093
258.9679, 985.8654
259.4500, 987.2421
259.9322, 983.1907
260.4143, 970.1332
260.8964, 957.5087
261.3785, 953.3483
261.8606, 961.3194
262.3427, 966.9619
262.8249, 967.4874
263.3070, 963.9604
263.7891, 964.1154
264.2712, 970.5454
264.7533, 975.8896
265.2354, 972.8496
265.7176, 957.0349
266.1997, 948.0823
266.6818, 950.8586
267.1639, 962.8202
267.6460, 968.4440
268.1281, 964.7209
268.6103, 961.1208
269.0924, 967.0441
269.5745, 986.8643
270.0566, 996.5952
270.5387, 990.2158
271.0208, 971.5410
271.5030, 957.9599
271.9851, 949.7129
272.4672, 945.9161
272.9493, 947.5580
273.4314, 955.9604
273.9135, 961.2488
274.3957, 961.7659
274.8778, 958.2791
275.3599, 953.2697
275.8420, 946.4001
276.3241, 939.1837
276.8062, 932.6782
277.2884, 926.9430
277.7705, 921.2205
278.2526, 915.0414
278.7347, 909.0793
279.2168, 906.0130
279.6989, 906.4757
280.1811, 906.7219
280.6632, 902.2297
281.1453, 892.8430
281.6274, 890.9922
282.1095, 901.8480
282.5916, 917.5768
283.0738, 914.3616
283.5559, 889.6977
284.0380, 868.0682
284.5201, 869.5264
285.0022, 892.2515
285.4843, 911.0013
285.9665, 923.2740
286.4486, 929.4016
286.9307, 925.4634
287.4128, 911.0471
287.8949, 889.8150
288.3770, 910.8059
288.8592, 924.6635
289.3413, 931.7698
289.8234, 911.9064
290.3055, 926.8688
290.7876, 927.8745
291.2697, 928.3081
291.7519, 948.1726
292.2340, 932.2322
292.7161, 951.7878
293.1982, 957.1742
293.6803, 963.3723
294.1624, 963.8054
294.6446, 960.5182
295.1267, 954.5493
295.6088, 952.4630
296.0909, 961.7348
296.5730, 977.3066
297.0551, 987.0497
297.5372, 988.8463
298.0193, 988.8862
298.5015, 997.1666
298.9836, 1010.795
299.4657, 1019.307
299.9478, 1010.614
300.4299, 995.0842
300.9120, 989.4596
301.3942, 995.5350
301.8763, 1007.413
302.3584, 1022.321
302.8405, 1038.792
303.3226, 1052.711
303.8047, 1063.119
304.2869, 1069.557
304.7690, 1069.798
305.2511, 1063.130
305.7332, 1057.729
306.2153, 1063.878
306.6974, 1075.561
307.1796, 1082.093
307.6617, 1072.698
308.1438, 1059.994
308.6259, 1054.758
309.1080, 1057.467
309.5901, 1062.275
310.0723, 1067.016
310.5544, 1071.179
311.0365, 1074.099
311.5186, 1072.637
312.0007, 1072.135
312.4828, 1080.552
312.9650, 1096.887
313.4471, 1103.593
313.9292, 1080.497
314.4113, 1047.400
314.8934, 1024.099
315.3755, 1023.803
315.8577, 1028.221
316.3398, 1030.985
316.8219, 1032.096
317.3040, 1031.795
317.7861, 1033.746
318.2682, 1032.347
318.7504, 1023.259
319.2325, 992.8671
319.7146, 968.4441
320.1967, 960.3910
320.6788, 965.5887
321.1609, 971.3724
321.6431, 977.8303
322.1252, 981.8220
322.6073, 981.5448
323.0894, 975.1786
323.5715, 966.7280
324.0536, 953.8733
324.5358, 939.0053
325.0179, 928.8276
325.5000, 928.9883
325.9821, 930.0363
326.4642, 928.0560
326.9464, 920.7743
327.4285, 914.0646
327.9106, 909.7520
328.3927, 905.9296
328.8748, 898.4576
329.3569, 882.3952
329.8391, 868.1581
330.3212, 859.1295
330.8033, 856.7701
331.2854, 855.3642
331.7675, 855.2243
332.2496, 855.8985
332.7318, 856.7823
333.2139, 858.1952
333.6960, 859.3011
334.1781, 859.8680
334.6602, 859.8525
335.1423, 859.5221
335.6244, 858.5854
336.1065, 857.6401
336.5887, 857.1930
337.0708, 856.9179
337.5529, 858.2789
338.0350, 862.6341
338.5171, 869.5249
338.9992, 872.0192
339.4814, 868.9346
339.9635, 851.7111
340.4456, 873.5900
340.9277, 888.5054
341.4098, 896.8308
341.8919, 878.8302
342.3741, 894.8257
342.8562, 897.1962
343.3383, 899.0079
343.8204, 919.7870
344.3025, 905.6151
344.7846, 926.0934
345.2668, 932.7412
345.7489, 945.7179
346.2310, 944.9868
346.7131, 956.1856
347.1952, 960.9747
347.6773, 963.7520
348.1595, 969.0905
348.6416, 975.9168
349.1237, 980.7902
349.6058, 982.4905
350.0879, 984.9085
350.5700, 993.4551
351.0522, 1007.118
351.5343, 1022.039
352.0164, 1037.769
352.4985, 1053.000
352.9806, 1065.383
353.4627, 1074.565
353.9449, 1083.097
354.4270, 1094.054
354.9091, 1105.838
355.3912, 1115.696
355.8733, 1118.878
356.3554, 1108.387
356.8376, 1132.668
357.3197, 1149.814
357.8018, 1160.209
358.2839, 1143.635
358.7660, 1161.886
359.2481, 1166.181
359.7303, 1169.905
360.2124, 1193.058
360.6945, 1180.406
361.1766, 1203.250
361.6587, 1211.925
362.1408, 1227.086
362.6230, 1244.327
363.1051, 1258.181
363.5872, 1245.508
364.0693, 1235.070
364.5514, 1237.095
365.0335, 1246.674
365.5157, 1250.739
365.9978, 1241.821
366.4799, 1231.199
366.9620, 1223.396
367.4441, 1219.825
367.9262, 1216.930
368.4084, 1215.632
368.8905, 1214.707
369.3726, 1212.395
369.8547, 1210.900
370.3368, 1205.338
370.8189, 1192.855
371.3011, 1171.442
371.7831, 1155.699
372.2653, 1148.545
372.7474, 1144.244
373.2295, 1136.719
373.7116, 1125.405
374.1937, 1112.177
374.6758, 1095.620
375.1580, 1076.842
375.6401, 1065.281
376.1222, 1062.417
376.6043, 1063.312
377.0864, 1065.365
377.5685, 1068.986
378.0507, 1068.909
378.5328, 1063.124
379.0149, 1054.496
379.4970, 1050.135
379.9791, 1050.235
380.4612, 1052.478
380.9434, 1057.175
381.4255, 1063.424
381.9076, 1065.055
382.3897, 1060.645
382.8718, 1054.660
383.3539, 1053.298
383.8361, 1055.927
384.3182, 1059.464
384.8003, 1063.034
385.2824, 1066.347
385.7645, 1068.961
386.2466, 1070.888
386.7288, 1072.017
387.2109, 1072.592
387.6930, 1072.276
388.1751, 1070.408
388.6572, 1065.449
389.1393, 1059.953
389.6215, 1058.318
390.1036, 1059.370
390.5857, 1055.522
391.0678, 1037.480
391.5499, 1014.956
392.0320, 996.4951
392.5142, 983.9159
392.9963, 976.3636
393.4784, 977.9355
393.9605, 984.5762
394.4426, 986.0568
394.9247, 970.8998
395.4069, 956.2975
395.8890, 953.0220
396.3711, 970.0576
396.8532, 975.1156
397.3353, 948.1453
397.8174, 911.3001
398.2996, 892.9711
398.7817, 920.3105
399.2638, 940.4604
399.7459, 938.5269
400.2280, 911.8146
400.7101, 899.6971
401.1923, 910.7173
401.6744, 928.1912
402.1565, 939.2637
402.6386, 941.2292
403.1207, 942.5868
403.6028, 942.6793
404.0850, 943.0631
404.5671, 951.7117
405.0492, 972.3591
405.5313, 990.9201
406.0134, 997.4229
406.4955, 990.6126
406.9777, 988.1172
407.4598, 990.7660
407.9419, 997.8921
408.4240, 1010.311
408.9061, 1027.815
409.3882, 1043.265
409.8703, 1052.071
410.3524, 1056.343
410.8346, 1063.626
411.3167, 1074.124
411.7988, 1085.229
412.2809, 1092.621
412.7630, 1098.365
413.2451, 1107.757
413.7273, 1123.745
414.2094, 1142.537
414.6915, 1160.209
415.1736, 1176.761
415.6557, 1193.067
416.1378, 1213.242
416.6200, 1231.498
417.1021, 1239.809
417.5842, 1232.639
418.0663, 1226.918
418.5484, 1234.651
419.0305, 1250.570
419.5127, 1264.859
419.9948, 1271.339
420.4769, 1277.558
420.9590, 1288.983
421.4411, 1307.259
421.9232, 1319.361
422.4054, 1316.519
422.8875, 1309.061
423.3696, 1306.315
423.8517, 1317.298
424.3338, 1324.066
424.8159, 1322.624
425.2981, 1314.274
425.7802, 1307.669
426.2623, 1299.876
426.7444, 1297.074
427.2265, 1304.080
427.7086, 1329.789
428.1908, 1342.668
428.6729, 1337.323
429.1550, 1323.674
429.6371, 1320.436
430.1192, 1330.034
430.6013, 1340.952
431.0835, 1349.156
431.5656, 1354.919
432.0477, 1362.179
432.5298, 1371.642
433.0119, 1379.468
433.4940, 1378.683
433.9762, 1371.111
434.4583, 1370.602
434.9404, 1383.633
435.4225, 1401.518
435.9046, 1408.633
436.3867, 1405.982
436.8689, 1401.161
437.3510, 1400.355
437.8331, 1400.018
438.3152, 1394.540
438.7973, 1382.608
439.2794, 1368.170
439.7616, 1352.223
440.2437, 1336.274
440.7258, 1322.673
441.2079, 1310.648
441.6900, 1302.704
442.1721, 1303.448
442.6543, 1312.540
443.1364, 1316.803
443.6185, 1304.560
444.1006, 1289.285
444.5827, 1281.415
445.0648, 1292.776
445.5470, 1299.611
446.0291, 1293.056
446.5112, 1278.828
446.9933, 1275.321
447.4754, 1295.084
447.9575, 1312.597
448.4396, 1317.579
448.9218, 1304.316
449.4039, 1303.083
449.8860, 1320.646
450.3681, 1343.403
450.8502, 1354.623
451.3323, 1350.682
451.8145, 1347.865
452.2966, 1349.332
452.7787, 1354.674
453.2608, 1362.094
453.7429, 1371.664
454.2250, 1383.057
454.7072, 1397.762
455.1893, 1414.923
455.6714, 1428.574
456.1535, 1437.929
456.6356, 1444.013
457.1177, 1446.565
457.5999, 1446.605
458.0820, 1448.059
458.5641, 1454.237
459.0462, 1462.206
459.5283, 1467.157
460.0104, 1469.171
460.4926, 1473.512
460.9747, 1489.238
461.4568, 1507.016
461.9389, 1515.759
462.4210, 1505.772
462.9031, 1495.972
463.3853, 1498.318
463.8674, 1507.815
464.3495, 1511.048
464.8316, 1498.962
465.3137, 1484.119
465.7958, 1471.688
466.2780, 1463.042
466.7601, 1453.607
467.2422, 1441.704
467.7243, 1429.511
468.2064, 1419.808
468.6885, 1416.818
469.1707, 1408.999
469.6528, 1393.710
470.1349, 1372.085
470.6170, 1348.767
471.0991, 1321.197
471.5812, 1298.216
472.0634, 1288.095
472.5455, 1291.707
473.0276, 1287.239
473.5097, 1272.046
473.9918, 1253.339
474.4739, 1242.532
474.9561, 1238.757
475.4382, 1233.709
475.9203, 1223.731
476.4024, 1210.816
476.8845, 1198.216
477.3666, 1185.973
477.8488, 1174.790
478.3309, 1165.089
478.8130, 1156.761
479.2951, 1149.972
479.7772, 1145.244
480.2593, 1140.774
480.7415, 1135.546
481.2236, 1129.733
481.7057, 1123.659
482.1878, 1116.906
482.6699, 1110.381
483.1520, 1103.982
483.6342, 1097.672
484.1163, 1093.762
484.5984, 1093.278
485.0805, 1095.017
485.5626, 1098.286
486.0447, 1107.951
486.5268, 1111.806
487.0089, 1104.235
487.4911, 1091.774
487.9732, 1091.932
488.4553, 1111.756
488.9374, 1128.750
489.4195, 1133.018
489.9016, 1124.169
490.3838, 1122.828
490.8659, 1130.550
491.3480, 1140.733
491.8301, 1147.101
492.3122, 1149.889
492.7943, 1150.738
493.2765, 1149.065
493.7586, 1147.066
494.2407, 1148.318
494.7228, 1152.569
495.2049, 1158.428
495.6870, 1167.421
496.1692, 1176.504
496.6513, 1181.361
497.1334, 1181.596
497.6155, 1180.613
498.0976, 1182.126
498.5797, 1183.158
499.0619, 1180.262
499.5440, 1165.865
500.0261, 1154.360
500.5082, 1152.101
500.9903, 1156.861
501.4724, 1160.596
501.9546, 1161.335
502.4367, 1161.169
502.9188, 1161.792
503.4009, 1165.220
503.8830, 1161.407
504.3651, 1144.808
504.8473, 1125.969
505.3294, 1116.870
505.8115, 1122.262
506.2936, 1122.494
506.7757, 1112.269
507.2578, 1095.794
507.7400, 1088.277
508.2221, 1090.872
508.7042, 1091.503
509.1863, 1080.112
509.6684, 1060.378
510.1505, 1048.757
510.6327, 1046.634
511.1148, 1046.530
511.5969, 1040.110
512.0790, 1029.954
512.5611, 1021.431
513.0432, 1014.928
513.5253, 1012.300
514.0074, 1020.492
514.4896, 1035.191
514.9717, 1041.463
515.4538, 1021.792
515.9359, 999.5842
516.4180, 990.2785
516.9001, 998.7480
517.3823, 1004.732
517.8644, 1002.975
518.3465, 997.1491
518.8286, 990.6447
519.3107, 978.2123
519.7928, 973.0665
520.2750, 980.3718
520.7571, 995.9672
521.2392, 1003.693
521.7213, 1001.336
522.2034, 996.3500
522.6855, 991.7984
523.1677, 987.7009
523.6498, 982.6453
524.1319, 976.3829
524.6140, 969.8666
525.0961, 963.3228
525.5782, 957.1606
526.0604, 953.8400
526.5425, 954.3649
527.0246, 957.3596
527.5067, 963.8849
527.9888, 972.1085
528.4709, 975.2264
528.9531, 964.6675
529.4352, 950.6710
529.9173, 942.9866
530.3994, 942.6792
530.8815, 940.8256
531.3636, 931.2079
531.8458, 919.2940
532.3279, 909.6253
532.8100, 901.7673
533.2921, 897.9806
533.7742, 899.5770
534.2563, 905.5499
534.7385, 913.5419
535.2206, 927.3239
535.7027, 937.7393
536.1848, 941.5709
536.6669, 938.7346
537.1490, 934.3604
537.6312, 926.7537
538.1133, 921.7258
538.5954, 926.9236
539.0775, 941.8695
539.5596, 949.8083
540.0417, 947.2746
540.5239, 940.6062
541.0060, 938.2119
541.4881, 939.7979
541.9702, 944.1355
542.4523, 952.0316
542.9344, 961.5804
543.4166, 971.2211
543.8987, 980.7684
544.3808, 989.2601
544.8629, 994.7322
545.3450, 999.5916
545.8271, 1005.483
546.3093, 1012.055
546.7914, 1021.266
547.2735, 1039.593
547.7556, 1059.118
548.2377, 1068.920
548.7198, 1056.275
549.2020, 1048.422
549.6841, 1049.646
550.1662, 1059.110
550.6483, 1072.036
551.1304, 1090.084
551.6125, 1107.981
552.0947, 1123.718
552.5768, 1137.396
553.0589, 1145.752
553.5410, 1147.619
554.0231, 1148.829
554.5052, 1158.137
554.9874, 1173.082
555.4695, 1182.670
555.9516, 1179.576
556.4337, 1177.101
556.9158, 1197.255
557.3979, 1232.742
557.8801, 1261.302
558.3622, 1263.364
558.8443, 1259.797
559.3264, 1267.009
559.8085, 1286.465
560.2906, 1300.587
560.7728, 1300.402
561.2549, 1294.522
561.7370, 1289.252
562.2191, 1288.486
562.7012, 1283.924
563.1833, 1275.732
563.6655, 1263.634
564.1476, 1245.895
564.6297, 1219.070
565.1118, 1195.519
565.5939, 1179.620
566.0760, 1169.525
566.5582, 1153.535
567.0403, 1130.443
567.5224, 1111.668
568.0045, 1107.882
568.4866, 1114.760
568.9688, 1119.404
569.4509, 1120.839
569.9330, 1119.257
570.4151, 1112.378
570.8972, 1103.178
571.3793, 1096.415
571.8615, 1094.490
572.3436, 1094.598
572.8257, 1093.414
573.3078, 1092.833
573.7899, 1098.357
574.2720, 1122.970
574.7542, 1143.614
575.2363, 1147.948
575.7184, 1132.350
576.2005, 1125.889
576.6826, 1132.411
577.1647, 1143.886
577.6469, 1155.708
578.1290, 1168.650
578.6111, 1177.488
579.0932, 1180.990
579.5753, 1181.859
580.0574, 1184.350
580.5396, 1188.373
581.0216, 1192.952
581.5037, 1197.891
581.9858, 1202.990
582.4680, 1208.361
582.9501, 1213.811
583.4322, 1218.417
583.9143, 1223.518
584.3964, 1226.301
584.8785, 1222.079
585.3607, 1208.898
585.8428, 1199.789
586.3249, 1204.270
586.8070, 1213.255
587.2891, 1218.385
587.7712, 1215.522
588.2534, 1212.286
588.7355, 1211.301
589.2176, 1209.783
589.6997, 1185.408
590.1818, 1196.962
590.6639, 1201.384
591.1461, 1199.053
591.6282, 1169.754
592.1103, 1175.280
592.5924, 1166.850
593.0745, 1157.847
593.5566, 1168.275
594.0388, 1142.897
594.5209, 1140.941
595.0030, 1135.064
595.4851, 1130.038
595.9672, 1114.185
596.4493, 1093.925
596.9315, 1079.312
597.4136, 1080.056
597.8957, 1079.393
598.3778, 1065.156
598.8599, 1043.557
599.3420, 1030.043
599.8242, 1037.547
600.3063, 1044.341
600.7884, 1043.385
601.2705, 1034.621
601.7526, 1025.661
602.2347, 1013.431
602.7169, 1006.040
603.1990, 1012.550
603.6811, 1035.389
604.1632, 1043.154
604.6453, 1031.818
605.1274, 1013.735
605.6096, 1005.000
606.0917, 1003.267
606.5738, 998.4340
607.0559, 982.8131
607.5380, 969.7209
608.0201, 981.2869
608.5023, 1008.593
608.9844, 1025.824
609.4665, 1009.889
609.9486, 989.2537
610.4307, 980.0331
610.9128, 983.0854
611.3950, 987.4886
611.8771, 993.1920
612.3592, 997.9465
612.8413, 1000.525
613.3234, 1000.595
613.8055, 999.5475
614.2877, 997.8951
614.7698, 994.5681
615.2519, 985.8076
615.7340, 970.7253
616.2161, 964.5731
616.6982, 973.6869
617.1804, 988.5275
617.6625, 989.3355
618.1446, 978.8832
618.6267, 970.8047
619.1088, 976.2790
619.5909, 985.0775
620.0731, 984.7188
620.5552, 975.9855
621.0373, 969.3752
621.5194, 971.4366
622.0015, 976.4277
622.4836, 981.0756
622.9658, 985.7621
623.4479, 987.5190
623.9300, 983.4136
624.4121, 977.8921
624.8942, 975.0822
625.3763, 975.7242
625.8585, 976.8719
626.3406, 977.8101
626.8227, 979.5255
627.3048, 986.2564
627.7869, 998.0347
628.2690, 1004.255
628.7512, 997.3948
629.2333, 984.3575
629.7154, 979.0233
630.1975, 980.4413
630.6796, 981.9550
631.1617, 978.3265
631.6439, 973.4641
632.1260, 971.4868
632.6081, 973.3578
633.0902, 973.5529
633.5723, 966.7000
634.0544, 959.2695
634.5366, 956.5396
635.0187, 963.7473
635.5008, 968.7500
635.9829, 971.0144
636.4650, 971.2247
636.9471, 969.8536
637.4293, 966.0597
637.9114, 964.7086
638.3935, 968.2330
638.8756, 973.8447
639.3577, 973.5918
639.8398, 967.9017
640.3220, 961.9362
640.8041, 958.9710
641.2862, 957.2767
641.7683, 954.5458
642.2504, 950.7740
642.7325, 947.0863
643.2147, 942.8751
643.6968, 939.8651
644.1789, 940.3395
644.6610, 947.5160
645.1431, 950.2921
645.6252, 940.8979
646.1074, 929.9013
646.5895, 928.7920
647.0716, 947.0364
647.5537, 950.0273
648.0358, 927.3455
648.5179, 894.5249
649.0001, 884.7906
649.4822, 898.0812
649.9643, 913.0341
650.4464, 923.4547
650.9285, 928.9232
651.4106, 926.4908
651.8928, 917.4481
652.3749, 908.8682
652.8570, 906.3892
653.3391, 905.0800
653.8212, 900.2230
654.3033, 891.2541
654.7855, 884.0483
655.2676, 878.7476
655.7497, 877.2078
656.2318, 881.9360
656.7139, 901.9267
657.1960, 907.2114
657.6781, 890.4806
658.1602, 866.9956
658.6423, 856.1094
659.1245, 858.8232
659.6066, 862.4405
660.0887, 864.3751
660.5708, 866.2861
661.0529, 873.0943
661.5350, 882.9926
662.0172, 888.7727
662.4993, 884.0224
662.9814, 875.7550
663.4635, 869.4712
663.9456, 865.0656
664.4277, 862.1083
664.9099, 859.9324
665.3920, 859.5638
665.8741, 862.6844
666.3562, 870.5013
666.8383, 873.8516
667.3204, 869.6793
667.8026, 864.8255
668.2847, 865.3541
668.7668, 873.2077
669.2489, 871.2174
669.7310, 856.1976
670.2131, 839.2890
670.6953, 835.4396
671.1774, 841.4183
671.6595, 845.2816
672.1416, 844.2104
672.6237, 840.0837
673.1058, 828.8635
673.5880, 816.5068
674.0701, 814.6650
674.5522, 844.2233
675.0343, 868.1279
675.5164, 867.5385
675.9985, 847.5311
676.4807, 836.1859
676.9628, 841.2111
677.4449, 845.7057
677.9270, 842.5544
678.4091, 832.3545
678.8912, 831.2335
679.3734, 840.9599
679.8555, 851.1172
680.3376, 854.4251
680.8197, 852.0750
681.3018, 847.3658
681.7839, 840.4052
682.2661, 833.3445
682.7482, 823.0308
683.2303, 815.9241
683.7124, 822.1190
684.1945, 853.5486
684.6766, 877.4218
685.1588, 877.6926
685.6409, 865.1717
686.1230, 854.5562
686.6051, 847.0344
687.0872, 841.0510
687.5693, 837.1885
688.0515, 834.3221
688.5336, 828.2090
689.0157, 817.9445
689.4978, 813.8390
689.9799, 823.7112
690.4620, 839.6475
690.9442, 841.2897
691.4263, 830.8685
691.9084, 821.1951
692.3905, 822.8443
692.8726, 826.8436
693.3547, 825.0468
693.8369, 817.0226
694.3190, 808.7669
