##NAMES=Piemontite
##RRUFFID=R061119
##IDEAL CHEMISTRY=Ca_2_Mn^3+^Al_2_(Si_2_O_7_)(SiO_4_)O(OH)
##LOCALITY=Muramatsu mine, Kinkai, Nagasaki, Japan
##OWNER=RRUFF
##SOURCE=Michael Scott
##DESCRIPTION=Red elongated prismatic crystals
##STATUS=The identification of this mineral is confirmed by single-crystal X-ray diffraction and chemical analysis.
##URL=rruff.info/R061119
##MEASURED CHEMISTRY=(Ca_1.96_Mn^2+^_0.04_)_Σ=2_(Mn^3+^_0.64_Fe^3+^_0.36_)_Σ=1_Al_2.00_(Si_2.00_O_7_)(Si_1.00_O_4_)O(OH); OH assumed by stoichiometry; Mn^2+^ and  Mn^3+^ splitted by charge balance
193.9469, 1458.578
194.4290, 1460.738
194.9111, 1461.274
195.3932, 1456.531
195.8753, 1445.679
196.3574, 1433.902
196.8396, 1429.995
197.3217, 1440.404
197.8038, 1446.936
198.2859, 1444.936
198.7680, 1441.132
199.2501, 1441.913
199.7323, 1448.880
200.2144, 1459.779
200.6965, 1472.117
201.1786, 1490.263
201.6607, 1498.901
202.1428, 1491.472
202.6250, 1478.167
203.1071, 1468.633
203.5892, 1464.651
204.0713, 1460.881
204.5534, 1450.594
205.0355, 1431.394
205.5177, 1410.826
205.9998, 1380.561
206.4819, 1354.083
206.9640, 1347.750
207.4461, 1362.208
207.9282, 1377.852
208.4104, 1371.696
208.8925, 1335.256
209.3746, 1309.545
209.8567, 1300.573
210.3388, 1297.613
210.8209, 1295.352
211.3030, 1292.309
211.7852, 1285.951
212.2673, 1272.809
212.7494, 1251.161
213.2315, 1234.893
213.7136, 1226.750
214.1957, 1221.348
214.6779, 1215.161
215.1600, 1208.322
215.6421, 1203.185
216.1242, 1201.688
216.6063, 1204.077
217.0884, 1209.454
217.5706, 1219.243
218.0527, 1230.315
218.5348, 1243.666
219.0169, 1257.615
219.4990, 1266.413
219.9811, 1264.709
220.4633, 1252.860
220.9454, 1247.942
221.4275, 1256.477
221.9096, 1263.942
222.3917, 1263.300
222.8738, 1256.614
223.3560, 1249.210
223.8381, 1243.700
224.3202, 1240.639
224.8023, 1245.581
225.2844, 1272.637
225.7665, 1290.793
226.2487, 1284.760
226.7308, 1263.684
227.2129, 1244.930
227.6950, 1237.958
228.1771, 1239.855
228.6592, 1238.630
229.1414, 1229.603
229.6235, 1223.186
230.1056, 1224.702
230.5877, 1228.992
231.0698, 1228.130
231.5519, 1218.481
232.0341, 1203.501
232.5162, 1192.130
232.9983, 1180.717
233.4804, 1177.935
233.9625, 1191.063
234.4446, 1210.077
234.9268, 1223.726
235.4089, 1228.219
235.8910, 1228.339
236.3731, 1232.709
236.8552, 1244.986
237.3373, 1256.064
237.8195, 1265.521
238.3016, 1274.060
238.7837, 1280.525
239.2658, 1285.325
239.7479, 1292.753
240.2300, 1309.506
240.7122, 1341.812
241.1943, 1367.535
241.6764, 1391.585
242.1585, 1406.563
242.6406, 1403.119
243.1227, 1383.182
243.6049, 1359.911
244.0870, 1348.031
244.5691, 1351.813
245.0512, 1345.428
245.5333, 1323.238
246.0154, 1297.789
246.4975, 1273.257
246.9797, 1250.369
247.4618, 1229.003
247.9439, 1209.169
248.4260, 1190.888
248.9081, 1172.860
249.3902, 1154.152
249.8724, 1136.723
250.3545, 1121.543
250.8366, 1108.071
251.3187, 1094.476
251.8008, 1079.088
252.2829, 1063.234
252.7651, 1055.445
253.2472, 1067.009
253.7293, 1073.503
254.2114, 1066.953
254.6935, 1054.312
255.1756, 1044.736
255.6578, 1042.838
256.1399, 1045.393
256.6220, 1043.066
257.1041, 1029.519
257.5862, 1022.361
258.0684, 1030.545
258.5505, 1041.622
259.0326, 1042.476
259.5147, 1029.192
259.9968, 1011.856
260.4789, 1007.379
260.9611, 1020.620
261.4432, 1032.769
261.9253, 1040.183
262.4074, 1047.138
262.8895, 1056.463
263.3716, 1068.502
263.8537, 1081.398
264.3358, 1093.893
264.8180, 1106.234
265.3001, 1115.741
265.7822, 1115.742
266.2643, 1118.839
266.7464, 1134.446
267.2285, 1159.829
267.7107, 1183.235
268.1928, 1192.288
268.6749, 1189.266
269.1570, 1195.929
269.6391, 1215.579
270.1212, 1241.179
270.6034, 1274.278
271.0855, 1309.647
271.5676, 1335.901
272.0497, 1340.330
272.5318, 1334.448
273.0139, 1350.423
273.4961, 1399.976
273.9782, 1438.636
274.4603, 1437.422
274.9424, 1414.854
275.4245, 1391.744
275.9066, 1372.118
276.3888, 1356.883
276.8709, 1351.236
277.3530, 1356.321
277.8351, 1351.976
278.3172, 1322.842
278.7993, 1284.497
279.2815, 1257.352
279.7636, 1244.992
280.2457, 1236.189
280.7278, 1222.412
281.2099, 1205.028
281.6920, 1190.894
282.1742, 1182.927
282.6563, 1177.463
283.1384, 1168.639
283.6205, 1155.916
284.1026, 1147.161
284.5847, 1146.531
285.0669, 1151.527
285.5490, 1157.568
286.0311, 1163.536
286.5132, 1172.224
286.9953, 1188.203
287.4774, 1211.130
287.9596, 1231.267
288.4417, 1242.388
288.9238, 1253.324
289.4059, 1261.511
289.8880, 1293.338
290.3701, 1319.303
290.8523, 1339.724
291.3344, 1337.979
291.8165, 1364.852
292.2986, 1380.257
292.7807, 1395.191
293.2628, 1411.068
293.7450, 1440.880
294.2271, 1467.853
294.7092, 1480.482
295.1913, 1482.050
295.6734, 1483.054
296.1555, 1486.631
296.6377, 1485.775
297.1198, 1477.579
297.6019, 1465.296
298.0840, 1453.227
298.5661, 1442.656
299.0482, 1430.929
299.5304, 1413.798
300.0125, 1389.880
300.4946, 1362.560
300.9767, 1326.788
301.4588, 1291.711
301.9409, 1263.743
302.4231, 1243.078
302.9052, 1225.694
303.3873, 1207.755
303.8694, 1188.964
304.3515, 1171.913
304.8336, 1156.311
305.3158, 1142.754
305.7979, 1134.563
306.2800, 1128.437
306.7621, 1117.184
307.2442, 1094.800
307.7263, 1065.685
308.2085, 1049.362
308.6906, 1056.205
309.1727, 1059.494
309.6548, 1051.852
310.1369, 1038.760
310.6190, 1024.499
311.1012, 1010.166
311.5833, 999.1699
312.0654, 998.9050
312.5475, 1012.647
313.0296, 1021.162
313.5117, 1015.620
313.9939, 1006.879
314.4760, 1003.756
314.9581, 1006.345
315.4402, 1004.187
315.9223, 982.9020
316.4044, 947.0644
316.8866, 926.1334
317.3687, 928.9809
317.8508, 937.0865
318.3329, 937.6584
318.8150, 932.4302
319.2971, 926.1988
319.7793, 925.6100
320.2614, 914.7883
320.7435, 922.0178
321.2256, 923.3109
321.7077, 918.9863
322.1898, 892.2202
322.6720, 894.4316
323.1541, 885.0308
323.6362, 875.1541
324.1183, 881.4458
324.6004, 867.6475
325.0826, 868.6682
325.5647, 865.8483
326.0468, 854.9858
326.5289, 840.1320
327.0110, 828.9108
327.4931, 821.8310
327.9753, 815.9579
328.4574, 810.9126
328.9395, 796.1550
329.4216, 807.8109
329.9037, 813.6040
330.3858, 813.8492
330.8680, 791.9299
331.3501, 798.6314
331.8322, 793.8631
332.3143, 788.6246
332.7964, 799.3543
333.2785, 780.6591
333.7606, 791.1356
334.2427, 789.9672
334.7249, 794.1281
335.2070, 786.7487
335.6891, 782.9340
336.1712, 790.6633
336.6533, 792.0007
337.1354, 783.2928
337.6176, 787.7924
338.0997, 768.6942
338.5818, 770.3038
339.0639, 780.8478
339.5460, 772.7203
340.0281, 770.7606
340.5103, 771.9315
340.9924, 770.9901
341.4745, 769.4708
341.9566, 766.5885
342.4387, 763.3257
342.9208, 763.1132
343.4030, 770.6632
343.8851, 784.1903
344.3672, 793.2521
344.8493, 798.0004
345.3314, 797.6591
345.8135, 787.6992
346.2957, 773.6768
346.7778, 764.2232
347.2599, 762.9211
347.7420, 766.1641
348.2241, 770.6815
348.7062, 776.4332
349.1884, 782.2751
349.6705, 789.8239
350.1526, 795.2184
350.6347, 791.8640
351.1168, 777.3250
351.5989, 765.2111
352.0811, 762.0057
352.5632, 764.8898
353.0453, 770.3069
353.5274, 777.9224
354.0095, 784.2715
354.4916, 785.2518
354.9738, 779.9343
355.4559, 777.0691
355.9380, 778.4196
356.4201, 780.7261
356.9022, 782.9558
357.3843, 784.5632
357.8665, 775.9752
358.3486, 789.9684
358.8307, 798.0252
359.3128, 800.4648
359.7949, 780.4625
360.2770, 789.4392
360.7592, 786.8026
361.2413, 783.6896
361.7234, 796.7450
362.2055, 780.0069
362.6876, 790.0107
363.1697, 792.8835
363.6519, 801.2463
364.1340, 805.8218
364.6161, 800.6098
365.0982, 797.0779
365.5803, 801.9046
366.0624, 812.6154
366.5446, 822.1407
367.0267, 826.3546
367.5088, 825.7796
367.9909, 820.3181
368.4730, 805.2167
368.9551, 797.1245
369.4373, 809.8109
369.9194, 829.2919
370.4015, 841.5928
370.8836, 842.7715
371.3657, 840.1154
371.8478, 840.4521
372.3300, 842.9327
372.8121, 841.8238
373.2942, 834.4033
373.7763, 825.5078
374.2584, 819.4884
374.7405, 816.1013
375.2227, 816.8571
375.7048, 826.3532
376.1869, 837.5593
376.6690, 842.0299
377.1511, 839.9412
377.6332, 838.5483
378.1154, 842.7062
378.5975, 851.5857
379.0796, 859.5114
379.5617, 865.6641
380.0438, 872.0397
380.5259, 880.1686
381.0081, 888.4766
381.4902, 893.6602
381.9723, 894.8976
382.4544, 896.3981
382.9365, 905.8551
383.4186, 930.5812
383.9008, 942.0901
384.3829, 925.9221
384.8650, 911.6582
385.3471, 914.2937
385.8292, 931.7476
386.3113, 955.4056
386.7935, 981.4211
387.2756, 1007.104
387.7577, 1019.956
388.2398, 1014.778
388.7219, 1006.988
389.2040, 997.3911
389.6862, 989.5765
390.1683, 988.7291
390.6504, 996.6142
391.1325, 1004.585
391.6146, 1003.410
392.0967, 994.3340
392.5789, 985.5489
393.0610, 976.3098
393.5431, 971.4679
394.0252, 981.4370
394.5073, 1002.159
394.9894, 1012.231
395.4716, 992.8845
395.9537, 969.9756
396.4358, 972.5652
396.9179, 997.3282
397.4000, 1015.284
397.8821, 1006.640
398.3643, 984.7455
398.8464, 994.4065
399.3285, 1059.390
399.8106, 1115.122
400.2927, 1146.541
400.7748, 1166.795
401.2570, 1187.203
401.7391, 1210.954
402.2212, 1238.239
402.7033, 1269.426
403.1854, 1304.535
403.6675, 1342.413
404.1497, 1388.826
404.6317, 1431.828
405.1139, 1466.829
405.5960, 1495.933
406.0781, 1522.221
406.5602, 1546.922
407.0423, 1571.260
407.5244, 1598.187
408.0066, 1628.362
408.4887, 1658.232
408.9708, 1694.568
409.4529, 1723.786
409.9350, 1732.333
410.4171, 1721.215
410.8993, 1710.165
411.3814, 1716.273
411.8635, 1729.028
412.3456, 1724.530
412.8277, 1699.531
413.3098, 1673.274
413.7920, 1656.794
414.2741, 1649.320
414.7562, 1644.513
415.2383, 1639.543
415.7204, 1640.824
416.2025, 1657.874
416.6847, 1681.438
417.1668, 1692.196
417.6489, 1684.448
418.1310, 1675.377
418.6131, 1689.295
419.0952, 1734.220
419.5774, 1773.242
420.0595, 1802.215
420.5416, 1830.215
421.0237, 1863.683
421.5058, 1899.370
421.9879, 1929.296
422.4701, 1948.379
422.9522, 1960.290
423.4343, 1976.601
423.9164, 2003.036
424.3985, 2019.627
424.8806, 2019.186
425.3628, 2010.107
425.8449, 1996.871
426.3270, 1980.134
426.8091, 1959.715
427.2912, 1937.359
427.7733, 1911.120
428.2555, 1871.190
428.7376, 1811.931
429.2197, 1759.047
429.7018, 1734.115
430.1839, 1727.205
430.6660, 1710.396
431.1482, 1674.266
431.6303, 1638.604
432.1124, 1611.960
432.5945, 1593.319
433.0766, 1581.789
433.5587, 1577.249
434.0409, 1575.853
434.5230, 1572.610
435.0051, 1566.620
435.4872, 1562.712
435.9693, 1562.448
436.4514, 1562.425
436.9336, 1562.253
437.4157, 1560.984
437.8978, 1557.092
438.3799, 1549.719
438.8620, 1539.502
439.3441, 1527.097
439.8263, 1509.837
440.3084, 1497.606
440.7905, 1492.861
441.2726, 1492.995
441.7547, 1500.580
442.2368, 1513.610
442.7190, 1521.455
443.2011, 1510.370
443.6832, 1490.638
444.1653, 1487.909
444.6474, 1504.866
445.1295, 1522.535
445.6117, 1531.097
446.0938, 1533.424
446.5759, 1537.081
447.0580, 1541.701
447.5401, 1548.317
448.0222, 1556.804
448.5044, 1567.716
448.9865, 1582.819
449.4686, 1602.174
449.9507, 1622.587
450.4328, 1641.012
450.9149, 1657.382
451.3971, 1672.184
451.8792, 1679.172
452.3613, 1691.794
452.8434, 1718.780
453.3255, 1751.626
453.8076, 1776.156
454.2898, 1787.575
454.7719, 1799.329
455.2540, 1835.129
455.7361, 1899.166
456.2182, 1950.623
456.7003, 1979.862
457.1825, 2003.372
457.6646, 2029.811
458.1467, 2058.684
458.6288, 2088.041
459.1109, 2115.408
459.5930, 2144.855
460.0752, 2183.972
460.5573, 2230.823
461.0394, 2270.689
461.5215, 2296.963
462.0036, 2316.445
462.4857, 2340.249
462.9679, 2370.386
463.4500, 2397.065
463.9321, 2424.653
464.4142, 2444.228
464.8963, 2443.619
465.3784, 2428.374
465.8606, 2417.134
466.3427, 2422.147
466.8248, 2437.737
467.3069, 2444.403
467.7890, 2440.002
468.2711, 2430.171
468.7533, 2411.903
469.2354, 2391.796
469.7175, 2375.848
470.1996, 2363.492
470.6817, 2348.430
471.1638, 2324.451
471.6460, 2294.276
472.1281, 2266.726
472.6102, 2242.446
473.0923, 2216.545
473.5744, 2183.913
474.0565, 2149.629
474.5387, 2125.176
475.0208, 2116.322
475.5029, 2101.797
475.9850, 2067.403
476.4671, 2025.558
476.9492, 1994.839
477.4313, 1976.625
477.9135, 1955.306
478.3956, 1916.574
478.8777, 1861.858
479.3598, 1815.475
479.8419, 1785.327
480.3240, 1754.671
480.8062, 1720.945
481.2883, 1685.916
481.7704, 1650.761
482.2525, 1615.975
482.7346, 1583.709
483.2167, 1556.470
483.6989, 1534.112
484.1810, 1512.289
484.6631, 1492.066
485.1452, 1470.254
485.6273, 1438.972
486.1094, 1406.364
486.5916, 1386.860
487.0737, 1388.174
487.5558, 1391.237
488.0379, 1384.564
488.5200, 1371.058
489.0021, 1355.657
489.4843, 1339.379
489.9664, 1323.720
490.4485, 1309.842
490.9306, 1297.576
491.4127, 1289.432
491.8948, 1290.557
492.3770, 1289.182
492.8591, 1279.042
493.3412, 1265.745
493.8233, 1257.557
494.3054, 1256.792
494.7875, 1257.017
495.2697, 1248.408
495.7518, 1230.283
496.2339, 1218.717
496.7160, 1218.250
497.1981, 1218.176
497.6802, 1212.253
498.1624, 1202.893
498.6445, 1194.115
499.1266, 1186.828
499.6087, 1180.381
500.0908, 1171.656
500.5729, 1163.502
501.0551, 1165.430
501.5372, 1180.486
502.0193, 1196.801
502.5014, 1202.340
502.9835, 1196.353
503.4656, 1188.199
503.9478, 1174.292
504.4299, 1162.622
504.9120, 1155.107
505.3941, 1151.628
505.8762, 1152.709
506.3583, 1158.264
506.8405, 1165.377
507.3226, 1169.517
507.8047, 1170.340
508.2868, 1175.436
508.7689, 1188.751
509.2510, 1200.380
509.7332, 1203.635
510.2153, 1202.160
510.6974, 1202.250
511.1795, 1206.294
511.6616, 1210.099
512.1437, 1210.231
512.6259, 1207.912
513.1080, 1205.111
513.5901, 1202.168
514.0722, 1201.610
514.5543, 1206.744
515.0364, 1217.858
515.5186, 1224.334
516.0007, 1220.592
516.4828, 1219.495
516.9649, 1220.708
517.4470, 1227.967
517.9291, 1249.319
518.4113, 1285.302
518.8934, 1321.355
519.3755, 1336.741
519.8576, 1332.859
520.3397, 1346.949
520.8218, 1386.774
521.3040, 1428.461
521.7861, 1461.261
522.2682, 1487.785
522.7503, 1510.440
523.2324, 1527.797
523.7145, 1546.074
524.1967, 1576.530
524.6788, 1607.019
525.1609, 1616.918
525.6430, 1603.945
526.1251, 1581.681
526.6072, 1560.283
527.0894, 1539.333
527.5715, 1516.215
528.0536, 1489.572
528.5357, 1462.201
529.0178, 1438.422
529.4999, 1411.501
529.9821, 1371.149
530.4642, 1318.993
530.9463, 1271.533
531.4284, 1245.750
531.9105, 1234.549
532.3926, 1211.125
532.8748, 1172.076
533.3569, 1140.650
533.8390, 1129.629
534.3211, 1129.898
534.8032, 1126.154
535.2853, 1117.928
535.7675, 1108.251
536.2496, 1094.796
536.7317, 1082.538
537.2138, 1077.552
537.6959, 1078.386
538.1780, 1077.861
538.6602, 1071.497
539.1423, 1062.118
539.6244, 1057.347
540.1065, 1058.443
540.5886, 1061.345
541.0707, 1070.838
541.5529, 1077.505
542.0350, 1073.378
542.5171, 1061.724
542.9992, 1053.116
543.4813, 1052.349
543.9634, 1057.308
544.4456, 1067.710
544.9277, 1082.399
545.4098, 1093.680
545.8919, 1098.487
546.3740, 1101.599
546.8561, 1108.556
547.3383, 1119.816
547.8204, 1132.168
548.3025, 1148.271
548.7846, 1162.508
549.2667, 1170.214
549.7488, 1175.313
550.2310, 1181.176
550.7131, 1189.504
551.1952, 1205.986
551.6773, 1242.066
552.1594, 1297.920
552.6415, 1343.215
553.1237, 1370.296
553.6058, 1400.701
554.0879, 1451.895
554.5700, 1512.065
555.0521, 1562.708
555.5342, 1596.314
556.0164, 1635.987
556.4985, 1695.905
556.9806, 1767.487
557.4627, 1839.635
557.9448, 1910.849
558.4269, 1985.525
558.9091, 2067.935
559.3912, 2154.637
559.8733, 2227.683
560.3554, 2280.126
560.8375, 2330.343
561.3196, 2390.370
561.8018, 2440.318
562.2839, 2468.543
562.7660, 2473.968
563.2481, 2458.155
563.7302, 2420.962
564.2123, 2364.173
564.6945, 2285.445
565.1766, 2186.921
565.6587, 2086.913
566.1408, 1990.298
566.6229, 1898.640
567.1050, 1812.623
567.5872, 1731.579
568.0693, 1665.673
568.5514, 1624.703
569.0335, 1588.690
569.5156, 1544.835
569.9977, 1501.724
570.4799, 1474.180
570.9620, 1466.708
571.4441, 1467.073
571.9262, 1457.945
572.4083, 1439.918
572.8904, 1436.885
573.3726, 1456.378
573.8547, 1474.045
574.3368, 1470.487
574.8189, 1459.677
575.3010, 1466.154
575.7831, 1497.564
576.2653, 1527.931
576.7474, 1543.093
577.2295, 1554.642
577.7116, 1577.516
578.1937, 1610.300
578.6758, 1638.608
579.1580, 1651.925
579.6401, 1658.696
580.1222, 1686.996
580.6042, 1753.123
581.0864, 1800.209
581.5685, 1804.279
582.0506, 1803.935
582.5327, 1819.567
583.0148, 1846.989
583.4969, 1871.870
583.9791, 1888.424
584.4612, 1900.414
584.9433, 1910.912
585.4254, 1919.656
585.9075, 1925.116
586.3896, 1926.854
586.8718, 1927.700
587.3539, 1930.187
587.8360, 1934.323
588.3181, 1940.483
588.8002, 1955.447
589.2823, 1964.013
589.7645, 1957.179
590.2466, 1947.262
590.7287, 1945.616
591.2108, 1953.596
591.6929, 1965.422
592.1750, 1980.549
592.6572, 1995.080
593.1393, 1999.702
593.6214, 1994.439
594.1035, 1984.435
594.5856, 1969.135
595.0677, 1954.401
595.5499, 1950.050
596.0320, 1959.906
596.5141, 1963.405
596.9962, 1964.858
597.4783, 1954.975
597.9604, 1917.285
598.4426, 1869.395
598.9247, 1840.689
599.4068, 1840.427
599.8889, 1846.730
600.3710, 1830.670
600.8531, 1795.343
601.3353, 1773.831
601.8174, 1770.800
602.2995, 1768.406
602.7816, 1756.061
603.2637, 1739.382
603.7458, 1730.333
604.2280, 1731.711
604.7101, 1731.510
605.1922, 1726.628
605.6743, 1719.260
606.1564, 1708.781
606.6385, 1697.332
607.1207, 1689.639
607.6028, 1686.637
608.0849, 1696.990
608.5670, 1701.406
609.0491, 1700.205
609.5313, 1676.562
610.0134, 1681.898
610.4955, 1675.621
610.9776, 1668.868
611.4597, 1678.283
611.9418, 1657.906
612.4240, 1653.604
612.9061, 1651.525
613.3882, 1648.143
613.8703, 1644.264
614.3524, 1640.954
614.8345, 1638.217
615.3167, 1635.303
615.7988, 1631.635
616.2809, 1627.607
616.7630, 1624.464
617.2451, 1622.457
617.7272, 1620.282
618.2094, 1613.383
618.6915, 1611.076
619.1736, 1622.587
619.6557, 1643.118
620.1378, 1658.352
620.6199, 1661.715
621.1021, 1663.130
621.5842, 1665.414
622.0663, 1671.434
622.5484, 1690.231
623.0305, 1721.401
623.5126, 1748.373
623.9948, 1756.644
624.4769, 1750.304
624.9590, 1751.216
625.4411, 1762.086
625.9232, 1774.593
626.4053, 1785.449
626.8875, 1799.456
627.3696, 1822.773
627.8517, 1852.666
628.3338, 1877.767
628.8159, 1890.806
629.2980, 1900.845
629.7802, 1915.536
630.2623, 1932.790
630.7444, 1946.222
631.2265, 1954.805
631.7086, 1968.148
632.1907, 1997.054
632.6729, 2039.036
633.1550, 2068.378
633.6371, 2075.731
634.1192, 2086.496
634.6013, 2110.027
635.0834, 2134.506
635.5656, 2148.664
636.0477, 2154.509
636.5298, 2165.632
637.0119, 2193.740
637.4940, 2224.262
637.9761, 2241.293
638.4583, 2250.186
638.9404, 2265.631
639.4225, 2291.292
639.9046, 2318.144
640.3867, 2336.833
640.8688, 2347.801
641.3510, 2360.954
641.8331, 2381.700
642.3152, 2395.303
642.7973, 2394.470
643.2794, 2389.336
643.7615, 2388.727
644.2437, 2391.974
644.7258, 2390.706
645.2079, 2377.373
645.6900, 2361.033
646.1721, 2351.757
646.6542, 2346.162
647.1364, 2338.089
647.6185, 2325.589
648.1006, 2301.728
648.5827, 2256.881
649.0648, 2193.026
649.5469, 2140.028
650.0291, 2102.556
650.5112, 2068.607
650.9933, 2042.416
651.4754, 2013.827
651.9575, 1970.963
652.4396, 1916.183
652.9218, 1868.566
653.4039, 1843.100
653.8860, 1821.508
654.3681, 1786.095
654.8502, 1743.042
655.3323, 1707.446
655.8145, 1682.582
656.2966, 1657.566
656.7787, 1620.814
657.2608, 1573.984
657.7429, 1536.340
658.2250, 1513.835
658.7072, 1487.417
659.1893, 1443.187
659.6714, 1401.448
660.1535, 1383.590
660.6356, 1384.681
661.1177, 1373.112
661.5999, 1324.792
662.0820, 1274.637
662.5641, 1249.681
663.0462, 1237.929
663.5283, 1217.702
664.0104, 1185.219
664.4926, 1152.252
664.9747, 1129.073
665.4568, 1113.822
665.9389, 1097.047
666.4210, 1077.703
666.9031, 1060.388
667.3853, 1046.896
667.8674, 1034.751
668.3495, 1021.797
668.8316, 1008.328
669.3137, 995.6738
669.7958, 987.8173
670.2780, 976.5005
670.7601, 954.3511
671.2422, 928.5499
671.7243, 906.4496
672.2064, 889.7250
672.6885, 879.3866
673.1707, 877.2346
673.6528, 879.3893
674.1349, 876.0490
674.6170, 867.1340
675.0991, 853.3408
675.5812, 832.5397
676.0634, 810.9053
676.5455, 790.2197
677.0276, 772.5495
677.5097, 766.2819
677.9918, 782.3824
678.4739, 794.7600
678.9561, 797.1392
679.4382, 793.2318
679.9203, 784.3434
680.4024, 772.0674
680.8845, 759.1456
681.3666, 746.6785
681.8488, 735.8254
682.3309, 728.3689
682.8130, 724.1955
683.2951, 723.5050
683.7772, 727.0031
684.2593, 730.5731
684.7415, 732.2126
685.2236, 731.5516
685.7057, 727.1473
686.1878, 714.4879
