##NAMES=Pinakiolite
##RRUFFID=R050636
##IDEAL CHEMISTRY=(Mg,Mn^2+^)_2_(Mn^3+^,Sb^5+^)O_2_(BO_3_)
##LOCALITY=Langban, Filipstad, Varmland, Sweden
##OWNER=RRUFF
##SOURCE=University of Arizona Mineral Museum
##DESCRIPTION=Dark-grey crystals embedded into matrix of calcite, dolomite and tephroite
##STATUS=The identification of this mineral has been confirmed by single-crystal X-ray diffraction.
##URL=rruff.info/R050636
89.78156, 0.0000000E+00
90.26367, 12.19366
90.74579, 12.86409
91.22791, 12.67344
91.71002, 11.69880
92.19214, 10.60378
92.67426, 9.698115
93.15638, 9.061557
93.63850, 8.965600
94.12061, 9.977506
94.60273, 11.46429
95.08485, 11.79637
95.56696, 10.85625
96.04908, 9.536226
96.53120, 8.825886
97.01331, 8.716869
97.49543, 8.795877
97.97755, 8.960468
98.45966, 9.201501
98.94178, 9.403433
99.42390, 9.610998
99.90602, 9.711656
100.3881, 9.381710
100.8703, 8.462162
101.3524, 7.671774
101.8345, 7.441739
102.3166, 7.938336
102.7987, 8.277537
103.2808, 8.328358
103.7630, 8.181098
104.2451, 8.246428
104.7272, 8.646122
105.2093, 9.098437
105.6914, 9.448542
106.1735, 9.783365
106.6557, 9.848208
107.1378, 9.452893
107.6199, 8.568892
108.1020, 8.102653
108.5841, 8.387869
109.0662, 8.913661
109.5484, 9.225326
110.0305, 9.312066
110.5126, 9.199952
110.9947, 8.857388
111.4768, 8.238955
111.9590, 7.589860
112.4411, 6.496604
112.9232, 5.484426
113.4053, 5.260218
113.8874, 6.383558
114.3695, 7.951255
114.8517, 9.811755
115.3338, 12.36068
115.8159, 14.12224
116.2980, 13.89159
116.7801, 12.54236
117.2622, 11.98063
117.7444, 13.65440
118.2265, 15.91264
118.7086, 17.60673
119.1907, 18.07780
119.6728, 18.60784
120.1549, 20.09273
120.6371, 22.31460
121.1192, 24.39886
121.6013, 25.42812
122.0834, 26.16829
122.5655, 27.46787
123.0476, 29.70859
123.5298, 32.50108
124.0119, 36.05024
124.4940, 40.25014
124.9761, 43.61817
125.4582, 44.00585
125.9404, 42.70631
126.4225, 42.25208
126.9046, 44.21431
127.3867, 47.44437
127.8688, 50.19323
128.3509, 52.44228
128.8331, 54.39111
129.3152, 56.02994
129.7973, 57.46555
130.2794, 59.18518
130.7615, 61.68006
131.2436, 64.67970
131.7258, 67.05676
132.2079, 68.57851
132.6900, 70.03703
133.1721, 72.90269
133.6542, 77.18307
134.1364, 81.39242
134.6185, 84.58791
135.1006, 86.83303
135.5827, 89.53264
136.0648, 92.98924
136.5469, 96.75675
137.0291, 99.84871
137.5112, 102.2436
137.9933, 103.9586
138.4754, 104.5483
138.9575, 103.6022
139.4396, 104.3132
139.9218, 107.9596
140.4039, 113.5047
140.8860, 115.3376
141.3681, 111.8696
141.8502, 107.4778
142.3323, 105.7392
142.8145, 107.6155
143.2966, 109.6028
143.7787, 111.2035
144.2608, 112.4367
144.7429, 113.6171
145.2250, 114.6709
145.7072, 115.7528
146.1893, 117.0049
146.6714, 118.3916
147.1535, 120.0017
147.6356, 121.9140
148.1178, 124.1849
148.5999, 126.3371
149.0820, 128.5666
149.5641, 130.5849
150.0462, 132.0170
150.5283, 131.8516
151.0105, 132.0897
151.4926, 132.0625
151.9747, 133.1011
152.4568, 134.0850
152.9389, 135.4160
153.4210, 136.5815
153.9032, 136.8688
154.3853, 135.2608
154.8674, 133.6190
155.3495, 132.5968
155.8316, 132.5827
156.3137, 132.3344
156.7959, 131.2251
157.2780, 129.7800
157.7601, 128.9955
158.2422, 130.1155
158.7243, 131.1697
159.2065, 131.0467
159.6886, 128.4269
160.1707, 126.6562
160.6528, 127.3401
161.1349, 129.6675
161.6170, 131.5030
162.0992, 131.8352
162.5813, 131.5834
163.0634, 131.3540
163.5455, 131.4113
164.0276, 131.3381
164.5097, 130.7881
164.9919, 129.8975
165.4740, 129.1971
165.9561, 129.2372
166.4382, 129.4538
166.9203, 129.2984
167.4024, 127.8962
167.8846, 126.8201
168.3667, 127.5365
168.8488, 129.7398
169.3309, 131.4508
169.8130, 131.0143
170.2952, 129.5290
170.7773, 128.3585
171.2594, 127.9923
171.7415, 128.0743
172.2236, 128.5006
172.7057, 129.2372
173.1879, 129.7904
173.6700, 129.7758
174.1521, 129.3311
174.6342, 128.6949
175.1163, 127.8721
175.5984, 126.9374
176.0806, 125.8507
176.5627, 124.6004
177.0448, 123.6198
177.5269, 123.3277
178.0090, 123.6009
178.4911, 124.1447
178.9733, 124.9874
179.4554, 125.9707
179.9375, 126.9928
180.4196, 128.0839
180.9017, 128.8262
181.3838, 128.5374
181.8660, 127.4608
182.3481, 126.4432
182.8302, 125.7178
183.3123, 125.3467
183.7944, 125.6330
184.2766, 126.6884
184.7587, 127.8601
185.2408, 128.4304
185.7229, 128.4371
186.2050, 128.1235
186.6871, 127.3065
187.1693, 126.2047
187.6514, 125.8017
188.1335, 126.2772
188.6156, 126.9484
189.0977, 126.5493
189.5798, 125.1555
190.0620, 124.2163
190.5441, 124.9596
191.0262, 127.0392
191.5083, 128.0025
191.9904, 127.4989
192.4725, 126.3882
192.9547, 126.2348
193.4368, 127.0699
193.9189, 127.8106
194.4010, 127.5666
194.8831, 126.4448
195.3652, 126.3166
195.8474, 127.6292
196.3295, 129.4664
196.8116, 129.9204
197.2937, 128.8827
197.7758, 127.5237
198.2579, 126.2716
198.7401, 125.1095
199.2222, 124.8302
199.7043, 125.6863
200.1864, 127.2247
200.6685, 128.5874
201.1507, 129.8375
201.6328, 130.5697
202.1149, 130.3461
202.5970, 129.0505
203.0791, 127.9786
203.5612, 127.2325
204.0434, 126.7844
204.5255, 126.6151
205.0076, 126.7739
205.4897, 127.0429
205.9718, 127.3437
206.4539, 127.7150
206.9361, 127.9056
207.4182, 127.9157
207.9003, 127.7235
208.3824, 127.1696
208.8645, 126.0941
209.3466, 125.0723
209.8288, 124.4178
210.3109, 124.1389
210.7930, 124.2488
211.2751, 124.9773
211.7572, 126.0377
212.2393, 126.2762
212.7215, 125.3401
213.2036, 124.3518
213.6857, 124.0885
214.1678, 124.8146
214.6499, 125.3623
215.1320, 125.5957
215.6142, 125.5801
216.0963, 125.6069
216.5784, 125.7267
217.0605, 125.7924
217.5426, 125.6946
218.0247, 125.3802
218.5069, 125.0552
218.9890, 124.6983
219.4711, 124.3439
219.9532, 124.2400
220.4353, 124.7238
220.9175, 124.9084
221.3996, 123.9848
221.8817, 121.0605
222.3638, 119.4842
222.8459, 120.1779
223.3280, 122.5356
223.8102, 123.2427
224.2923, 121.2207
224.7744, 119.2195
225.2565, 119.2143
225.7386, 122.4878
226.2207, 124.5773
226.7029, 124.6165
227.1850, 123.0902
227.6671, 122.5646
228.1492, 123.5653
228.6313, 124.8176
229.1134, 125.5834
229.5956, 125.8213
230.0777, 125.6519
230.5598, 124.8746
231.0419, 123.6682
231.5240, 122.8779
232.0062, 122.5155
232.4883, 122.5532
232.9704, 123.0927
233.4525, 124.6544
233.9346, 125.5364
234.4167, 125.2980
234.8989, 124.2416
235.3810, 123.8391
235.8631, 124.5434
236.3452, 125.2984
236.8273, 125.4606
237.3094, 124.6439
237.7916, 124.0456
238.2737, 123.6223
238.7558, 123.4558
239.2379, 124.0028
239.7200, 125.9876
240.2021, 127.7056
240.6843, 128.1054
241.1664, 126.1987
241.6485, 125.1789
242.1306, 125.5660
242.6127, 126.9416
243.0948, 127.6708
243.5770, 127.3798
244.0591, 126.9676
244.5412, 126.9459
245.0233, 127.6903
245.5054, 127.9428
245.9876, 127.2924
246.4697, 126.1764
246.9518, 126.0353
247.4339, 127.4088
247.9160, 128.9547
248.3981, 130.0392
248.8803, 130.5684
249.3624, 130.8527
249.8445, 130.7517
250.3266, 130.4446
250.8087, 130.4603
251.2908, 131.0195
251.7730, 131.5397
252.2551, 131.7022
252.7372, 131.2357
253.2193, 131.1495
253.7014, 131.6984
254.1835, 132.5152
254.6657, 132.6401
255.1478, 131.4933
255.6299, 130.6777
256.1120, 130.9990
256.5941, 133.0077
257.0763, 134.3536
257.5584, 134.7757
258.0405, 134.7165
258.5226, 135.1087
259.0047, 136.2644
259.4868, 137.2366
259.9690, 137.6205
260.4511, 137.2847
260.9332, 136.9032
261.4153, 136.2726
261.8974, 135.7690
262.3795, 136.1344
262.8617, 137.7445
263.3438, 139.3296
263.8259, 140.5142
264.3080, 141.2767
264.7901, 141.6847
265.2722, 141.5875
265.7544, 141.3137
266.2365, 141.2947
266.7186, 141.5065
267.2007, 142.0743
267.6828, 143.3393
268.1649, 145.4290
268.6471, 145.9130
269.1292, 144.1408
269.6113, 141.8038
270.0934, 141.0897
270.5755, 142.3703
271.0576, 143.8539
271.5398, 145.2307
272.0219, 146.4947
272.5040, 146.9050
272.9861, 146.2607
273.4682, 145.1961
273.9503, 144.2089
274.4325, 143.2193
274.9146, 142.8135
275.3967, 143.2547
275.8788, 144.4390
276.3610, 145.5833
276.8431, 146.7283
277.3252, 147.6776
277.8073, 148.2846
278.2894, 148.5575
278.7715, 148.2940
279.2537, 147.0292
279.7358, 145.2950
280.2179, 145.8417
280.7000, 149.2405
281.1821, 152.3599
281.6642, 152.2309
282.1464, 148.8326
282.6285, 145.9728
283.1106, 144.2255
283.5927, 143.4323
284.0748, 143.3927
284.5569, 144.1855
285.0391, 145.0094
285.5212, 145.1909
286.0033, 144.7988
286.4854, 144.7615
286.9675, 145.3725
287.4496, 146.1143
287.9318, 145.7259
288.4139, 144.1837
288.8960, 142.7787
289.3781, 142.4002
289.8602, 142.8549
290.3423, 143.2400
290.8245, 143.5555
291.3066, 143.5889
291.7887, 142.8685
292.2708, 141.4588
292.7529, 139.9613
293.2350, 138.3628
293.7172, 136.9090
294.1993, 136.6347
294.6814, 137.7638
295.1635, 139.2049
295.6456, 139.4319
296.1277, 138.7142
296.6099, 138.1951
297.0920, 138.7893
297.5741, 139.8647
298.0562, 140.0209
298.5383, 139.1755
299.0204, 138.2206
299.5026, 138.3845
299.9847, 139.1805
300.4668, 139.2933
300.9489, 137.3679
301.4311, 134.8994
301.9132, 134.1675
302.3953, 135.1136
302.8774, 136.4429
303.3595, 137.3971
303.8416, 137.9841
304.3238, 138.2111
304.8059, 137.8445
305.2880, 137.3434
305.7701, 137.2406
306.2522, 137.4697
306.7343, 137.6330
307.2165, 137.2967
307.6986, 136.7991
308.1807, 136.5692
308.6628, 136.7691
309.1449, 137.1628
309.6270, 137.8075
310.1092, 138.5554
310.5913, 138.9117
311.0734, 137.9530
311.5555, 136.8323
312.0376, 136.6751
312.5197, 138.0059
313.0019, 139.4266
313.4840, 140.3025
313.9661, 140.7111
314.4482, 140.8239
314.9303, 140.1150
315.4124, 139.5633
315.8946, 140.0765
316.3767, 142.1080
316.8588, 143.4314
317.3409, 142.3489
317.8230, 140.2375
318.3051, 138.9164
318.7873, 140.0228
319.2694, 141.0699
319.7515, 140.5786
320.2336, 138.2975
320.7157, 137.1689
321.1978, 139.4534
321.6800, 142.6095
322.1621, 144.3362
322.6442, 142.7014
323.1263, 141.1150
323.6084, 140.5218
324.0905, 140.8563
324.5727, 140.8443
325.0548, 139.7973
325.5369, 138.6766
326.0190, 138.0658
326.5012, 138.6550
326.9833, 139.0053
327.4654, 138.9012
327.9475, 138.4480
328.4296, 138.0696
328.9117, 137.8761
329.3939, 137.6607
329.8760, 137.3414
330.3581, 136.9119
330.8402, 136.3841
331.3223, 135.7669
331.8044, 135.0430
332.2866, 134.1504
332.7687, 132.9038
333.2508, 131.7681
333.7329, 130.9064
334.2150, 130.3793
334.6971, 129.8167
335.1793, 129.1982
335.6614, 128.5575
336.1435, 127.8973
336.6256, 127.0887
337.1077, 126.6321
337.5898, 126.8946
338.0720, 127.8049
338.5541, 127.5995
339.0362, 125.8200
339.5183, 123.9553
340.0004, 123.6353
340.4825, 125.1679
340.9647, 126.0382
341.4468, 125.7108
341.9289, 124.4953
342.4110, 123.2394
342.8931, 121.9075
343.3752, 120.8267
343.8574, 120.3747
344.3395, 120.4979
344.8216, 120.3765
345.3037, 119.8054
345.7858, 119.1991
346.2679, 119.5464
346.7501, 120.7708
347.2322, 121.6099
347.7143, 120.7945
348.1964, 119.0253
348.6785, 118.8648
349.1607, 120.6373
349.6428, 122.6329
350.1249, 122.7922
350.6070, 121.5679
351.0891, 120.3701
351.5713, 119.6845
352.0534, 119.4148
352.5355, 119.5430
353.0176, 120.0544
353.4997, 120.5794
353.9818, 120.9948
354.4640, 121.1995
354.9461, 121.0098
355.4282, 120.1921
355.9103, 119.1972
356.3924, 118.2212
356.8745, 117.3410
357.3567, 116.8761
357.8388, 117.5577
358.3209, 118.4198
358.8030, 118.5907
359.2851, 117.7534
359.7672, 116.6441
360.2494, 115.1981
360.7315, 113.7855
361.2136, 113.1060
361.6957, 113.9186
362.1778, 115.1095
362.6599, 116.2925
363.1421, 117.4907
363.6242, 118.1790
364.1063, 118.0522
364.5884, 117.3950
365.0705, 116.4999
365.5526, 114.8707
366.0348, 113.5915
366.5169, 113.0757
366.9990, 113.2748
367.4811, 113.3144
367.9632, 113.0761
368.4453, 112.6795
368.9275, 112.1868
369.4096, 111.3690
369.8917, 110.7783
370.3738, 110.5273
370.8559, 110.5050
371.3380, 110.4164
371.8202, 110.3009
372.3023, 110.0626
372.7844, 109.6132
373.2665, 108.8411
373.7487, 108.3318
374.2308, 108.1599
374.7129, 108.1769
375.1950, 108.1491
375.6771, 107.9914
376.1592, 108.0945
376.6414, 108.7423
377.1235, 109.8213
377.6056, 110.1045
378.0877, 109.4168
378.5698, 108.5205
379.0519, 108.0924
379.5341, 108.1392
380.0162, 108.1415
380.4983, 107.9887
380.9804, 107.7731
381.4625, 107.7047
381.9446, 107.7803
382.4268, 107.9305
382.9089, 108.2314
383.3910, 108.5827
383.8731, 108.5953
384.3552, 108.1794
384.8373, 107.7108
385.3195, 107.5657
385.8016, 107.7169
386.2837, 108.0882
386.7658, 108.6708
387.2479, 109.4381
387.7300, 110.5365
388.2122, 111.9361
388.6943, 113.0838
389.1764, 113.4339
389.6585, 113.3311
390.1406, 113.1878
390.6227, 113.0895
391.1049, 113.0239
391.5870, 112.9420
392.0691, 112.8792
392.5512, 112.9432
393.0333, 113.4883
393.5154, 113.9639
393.9976, 113.9787
394.4797, 113.3680
394.9618, 112.6841
395.4439, 112.0083
395.9260, 111.3871
396.4081, 110.8842
396.8903, 110.2468
397.3724, 109.9878
397.8545, 110.5546
398.3366, 112.0049
398.8188, 112.7207
399.3009, 111.9670
399.7830, 110.8581
400.2651, 110.0777
400.7472, 109.5699
401.2293, 109.4970
401.7115, 110.1107
402.1936, 111.1406
402.6757, 111.7712
403.1578, 111.9110
403.6399, 111.8039
404.1220, 111.4973
404.6042, 110.9333
405.0863, 110.4820
405.5684, 110.1309
406.0505, 109.9187
406.5326, 109.9587
407.0147, 110.2944
407.4969, 110.5521
407.9790, 110.6134
408.4611, 110.5267
408.9432, 110.4129
409.4253, 110.2522
409.9074, 110.2898
410.3896, 111.0335
410.8717, 112.2303
411.3538, 112.5753
411.8359, 111.6020
412.3180, 110.4097
412.8001, 110.7183
413.2823, 112.2164
413.7644, 113.6758
414.2465, 114.5569
414.7286, 114.9767
415.2107, 114.8314
415.6928, 114.0910
416.1750, 113.7523
416.6571, 115.0916
417.1392, 117.1441
417.6213, 118.6428
418.1034, 118.8216
418.5855, 118.6829
419.0677, 118.7328
419.5498, 118.9273
420.0319, 119.0987
420.5140, 118.8412
420.9961, 118.7816
421.4782, 119.4613
421.9604, 121.4546
422.4425, 122.8229
422.9246, 122.4294
423.4067, 121.3628
423.8889, 121.1119
424.3710, 123.0614
424.8531, 124.5780
425.3352, 124.7848
425.8173, 123.6734
426.2994, 123.4057
426.7816, 124.6510
427.2637, 126.0650
427.7458, 126.7544
428.2279, 126.4223
428.7100, 126.0816
429.1921, 125.7581
429.6743, 125.4864
430.1564, 125.3416
430.6385, 125.3074
431.1206, 125.4735
431.6027, 126.0627
432.0848, 127.0358
432.5670, 127.2374
433.0491, 126.5430
433.5312, 125.5879
434.0133, 124.8279
434.4954, 124.3141
434.9775, 124.4871
435.4597, 125.7446
435.9418, 127.3773
436.4239, 128.0563
436.9060, 127.8912
437.3881, 127.6219
437.8702, 127.7354
438.3524, 128.0249
438.8345, 128.1391
439.3166, 127.9985
439.7987, 127.9678
440.2808, 128.6019
440.7629, 129.4866
441.2451, 129.9710
441.7272, 129.1933
442.2093, 128.4897
442.6914, 128.6759
443.1735, 129.6395
443.6556, 130.5838
444.1378, 131.3905
444.6199, 131.9731
445.1020, 132.2647
445.5841, 132.2001
446.0662, 131.9620
446.5483, 131.3179
447.0305, 130.5688
447.5126, 130.2257
447.9947, 130.7843
448.4768, 131.1551
448.9590, 131.0040
449.4411, 130.3148
449.9232, 129.9371
450.4053, 130.0661
450.8874, 130.2160
451.3695, 129.9556
451.8517, 129.1182
452.3338, 128.6461
452.8159, 128.7769
453.2980, 129.1381
453.7801, 128.8696
454.2622, 127.9239
454.7444, 127.0789
455.2265, 126.8466
455.7086, 127.0249
456.1907, 126.6698
456.6728, 125.7379
457.1549, 124.7862
457.6371, 124.3713
458.1192, 124.3211
458.6013, 124.2273
459.0834, 124.0396
459.5655, 123.6873
460.0476, 123.0269
460.5298, 122.1226
461.0119, 121.2026
461.4940, 119.9948
461.9761, 119.0608
462.4582, 118.9963
462.9403, 119.9072
463.4225, 120.7856
463.9046, 121.4990
464.3867, 121.8122
464.8688, 121.4877
465.3509, 119.3153
465.8330, 117.8048
466.3152, 117.8030
466.7973, 118.9343
467.2794, 119.8385
467.7615, 120.3308
468.2436, 120.6932
468.7257, 121.0307
469.2079, 121.3744
469.6900, 121.5049
470.1721, 121.2429
470.6542, 120.9614
471.1363, 121.2419
471.6184, 122.4497
472.1006, 122.6500
472.5827, 121.0900
473.0648, 118.5596
473.5469, 117.6654
474.0291, 118.5387
474.5112, 119.5022
474.9933, 119.4709
475.4754, 118.6964
475.9575, 118.3866
476.4396, 118.6585
476.9218, 118.8151
477.4039, 117.6792
477.8860, 115.8620
478.3681, 114.8436
478.8502, 115.4711
479.3323, 116.6201
479.8145, 117.4243
480.2966, 117.8716
480.7787, 117.9026
481.2608, 117.0202
481.7429, 116.0477
482.2250, 115.6539
482.7072, 116.0403
483.1893, 116.2534
483.6714, 115.7025
484.1535, 114.9320
484.6356, 114.4915
485.1177, 114.6091
485.5999, 114.8978
486.0820, 115.5032
486.5641, 116.2768
487.0462, 116.6803
487.5283, 116.6864
488.0104, 116.3609
488.4926, 115.7093
488.9747, 114.7224
489.4568, 113.2504
489.9389, 110.6779
490.4210, 108.7504
490.9031, 110.2331
491.3853, 115.4375
491.8674, 118.7375
492.3495, 118.4752
492.8316, 116.2555
493.3137, 115.5793
493.7958, 116.3157
494.2780, 117.0520
494.7601, 116.6143
495.2422, 115.6990
495.7243, 115.8781
496.2064, 117.2720
496.6885, 118.4722
497.1707, 117.8226
497.6528, 116.4601
498.1349, 116.0044
498.6170, 117.5929
499.0992, 119.1828
499.5813, 119.3081
500.0634, 118.5784
500.5455, 118.4932
501.0276, 120.5515
501.5097, 122.4454
501.9919, 123.0336
502.4740, 121.9788
502.9561, 121.4804
503.4382, 122.2608
503.9203, 123.2497
504.4024, 123.6786
504.8846, 123.0418
505.3667, 122.8878
505.8488, 123.4172
506.3309, 124.4098
506.8130, 125.4314
507.2951, 126.4963
507.7773, 127.5068
508.2594, 128.3435
508.7415, 129.0735
509.2236, 130.3203
509.7057, 132.1495
510.1878, 133.6684
510.6700, 133.9650
511.1521, 133.3601
511.6342, 132.7022
512.1163, 132.0223
512.5984, 131.7014
513.0806, 132.3302
513.5627, 133.6131
514.0448, 134.9327
514.5269, 136.3414
515.0090, 137.4283
515.4911, 137.4533
515.9733, 136.6676
516.4554, 136.7188
516.9375, 139.0482
517.4196, 141.8142
517.9017, 144.0099
518.3839, 145.5775
518.8660, 146.4168
519.3481, 145.7384
519.8302, 144.6763
520.3123, 144.4951
520.7944, 145.9205
521.2766, 146.8864
521.7587, 146.9324
522.2408, 146.3128
522.7229, 145.9725
523.2050, 145.9107
523.6871, 146.1392
524.1693, 146.7128
524.6514, 147.6072
525.1335, 148.7297
525.6156, 150.1390
526.0977, 151.4216
526.5798, 151.9851
527.0620, 152.0818
527.5441, 152.5011
528.0262, 153.5735
528.5083, 154.7263
528.9904, 155.1528
529.4725, 155.1556
529.9547, 155.4726
530.4368, 156.9329
530.9189, 158.4483
531.4010, 159.1521
531.8831, 159.0441
532.3652, 159.1890
532.8474, 160.1164
533.3295, 161.2869
533.8116, 162.3930
534.2937, 163.5466
534.7758, 164.3562
535.2579, 164.6031
535.7401, 164.6092
536.2222, 164.7778
536.7043, 164.9944
537.1864, 165.7173
537.6685, 167.3409
538.1506, 169.5203
538.6328, 170.4728
539.1149, 170.0658
539.5970, 169.3263
540.0791, 168.6316
540.5612, 168.0753
541.0433, 168.2971
541.5255, 169.3825
542.0076, 170.6119
542.4897, 171.0917
542.9718, 171.2257
543.4539, 171.8997
543.9360, 173.6679
544.4182, 175.4694
544.9003, 176.3036
545.3824, 176.5252
545.8645, 176.9257
546.3466, 177.9861
546.8287, 179.1489
547.3109, 180.3201
547.7930, 181.4831
548.2751, 182.0897
548.7572, 181.4457
549.2393, 180.6957
549.7214, 180.3971
550.2036, 180.4035
550.6857, 181.3147
551.1678, 183.7117
551.6499, 186.4310
552.1320, 187.7158
552.6141, 187.3583
553.0963, 186.9368
553.5784, 186.6501
554.0605, 186.6777
554.5426, 187.8244
555.0247, 190.0151
555.5068, 191.8776
555.9890, 192.1619
556.4711, 191.7011
556.9532, 192.0783
557.4353, 193.3502
557.9174, 194.5776
558.3995, 194.8544
558.8817, 194.7840
559.3638, 195.0430
559.8459, 195.9365
560.3281, 196.8670
560.8102, 197.4236
561.2923, 197.8968
561.7744, 198.7407
562.2565, 200.7758
562.7386, 202.3658
563.2208, 202.9021
563.7029, 202.5941
564.1850, 202.9649
564.6671, 204.2143
565.1492, 205.7845
565.6313, 207.5534
566.1135, 209.5596
566.5956, 210.9478
567.0777, 211.5706
567.5598, 212.0612
568.0419, 213.0688
568.5240, 214.5236
569.0062, 216.1525
569.4883, 217.9257
569.9704, 219.7552
570.4525, 221.5190
570.9346, 223.2453
571.4167, 224.9231
571.8989, 226.3932
572.3810, 227.9805
572.8631, 230.0698
573.3452, 232.5589
573.8273, 234.8815
574.3094, 236.6066
574.7916, 238.2577
575.2737, 240.1461
575.7558, 242.4177
576.2379, 244.5124
576.7200, 246.1344
577.2021, 247.7808
577.6843, 249.9723
578.1664, 252.9489
578.6485, 255.6660
579.1306, 257.9193
579.6127, 260.0015
580.0948, 262.7753
580.5770, 266.2311
581.0591, 269.1849
581.5412, 270.7864
582.0233, 271.7617
582.5054, 273.9529
582.9875, 277.1582
583.4697, 280.0708
583.9518, 280.8131
584.4339, 281.2912
584.9160, 283.9256
585.3981, 289.2187
585.8802, 294.3069
