##NAMES=Pirquitasite
##RRUFFID=R061016
##IDEAL CHEMISTRY=Ag^1+^_2_Zn^2+^Sn^4+^S^2-^_4_
##LOCALITY=Pirquitas, Jujuy Province, Argentina
##OWNER=RRUFF
##SOURCE=Michael Scott (small piece), Bob Jenkins (large piece)
##DESCRIPTION=Steel gray metallic massive, associated with rhodostannite, R120139. This sample was used in the Schumer et al (2013) study.
##STATUS=The identification of this mineral is confirmed by single-crystal X-ray diffraction and chemical analysis.
##URL=rruff.info/R061016
##MEASURED CHEMISTRY=(Ag_1.90_Cu_0.10_)(Zn_0.61_Fe_0.33_Cu_0.03_Cd_0.03_)(Sn_0.97_Fe_0.03_)S_3.87_; normalized to four cations
124.9029, 1440.871
125.3851, 1630.832
125.8672, 1839.300
126.3493, 2055.224
126.8314, 2290.393
127.3135, 2525.353
127.7956, 2740.497
128.2778, 2921.474
128.7599, 3085.183
129.2420, 3274.436
129.7241, 3526.236
130.2062, 3710.824
130.6884, 3784.625
131.1705, 3767.917
131.6526, 3676.613
132.1347, 3508.069
132.6168, 3275.516
133.0989, 3016.523
133.5811, 2689.129
134.0632, 2399.476
134.5453, 2181.865
135.0274, 2021.166
135.5095, 1891.185
135.9916, 1777.234
136.4738, 1680.169
136.9559, 1610.357
137.4380, 1574.474
137.9201, 1563.567
138.4022, 1580.245
138.8843, 1618.670
139.3665, 1668.058
139.8486, 1718.259
140.3307, 1769.342
140.8128, 1844.085
141.2949, 1961.807
141.7770, 2088.408
142.2592, 2220.799
142.7413, 2354.512
143.2234, 2482.969
143.7055, 2597.194
144.1876, 2693.435
144.6697, 2806.191
145.1519, 2944.179
145.6340, 3089.517
146.1161, 3252.342
146.5982, 3421.334
147.0803, 3568.768
147.5624, 3672.299
148.0446, 3738.539
148.5267, 3720.903
149.0088, 3577.839
149.4909, 3403.873
149.9730, 3231.720
150.4551, 3070.783
150.9372, 2923.288
151.4194, 2789.677
151.9015, 2668.312
152.3836, 2573.129
152.8657, 2510.082
153.3478, 2463.403
153.8299, 2425.969
154.3121, 2395.705
154.7942, 2371.902
155.2763, 2354.144
155.7584, 2343.892
156.2405, 2336.969
156.7226, 2330.578
157.2048, 2328.836
157.6869, 2334.470
158.1690, 2348.050
158.6511, 2369.246
159.1332, 2398.255
159.6153, 2441.406
160.0975, 2477.680
160.5796, 2500.623
161.0617, 2520.505
161.5438, 2550.551
162.0259, 2592.940
162.5080, 2633.216
162.9902, 2650.345
163.4723, 2634.882
163.9544, 2614.203
164.4365, 2583.378
164.9186, 2550.365
165.4007, 2522.750
165.8829, 2502.416
166.3650, 2488.133
166.8471, 2478.752
167.3292, 2475.455
167.8113, 2474.155
168.2934, 2477.466
168.7756, 2481.534
169.2577, 2482.875
169.7398, 2480.757
170.2219, 2473.613
170.7040, 2456.380
171.1861, 2423.099
171.6683, 2399.800
172.1504, 2397.317
172.6325, 2404.914
173.1146, 2409.166
173.5967, 2406.448
174.0788, 2399.097
174.5610, 2389.653
175.0431, 2377.315
175.5252, 2366.227
176.0073, 2357.654
176.4894, 2350.677
176.9715, 2344.573
177.4537, 2339.565
177.9358, 2333.585
178.4179, 2321.256
178.9000, 2300.079
179.3821, 2285.350
179.8642, 2287.201
180.3464, 2296.555
180.8285, 2296.557
181.3106, 2280.596
181.7927, 2261.003
182.2748, 2260.668
182.7569, 2282.457
183.2391, 2296.583
183.7212, 2286.497
184.2033, 2264.624
184.6854, 2252.684
185.1675, 2257.218
185.6496, 2270.103
186.1318, 2282.242
186.6139, 2294.981
187.0960, 2300.239
187.5781, 2286.671
188.0602, 2265.496
188.5423, 2259.785
189.0245, 2279.391
189.5066, 2304.398
189.9887, 2302.105
190.4708, 2271.580
190.9529, 2249.336
191.4350, 2250.087
191.9172, 2266.295
192.3993, 2286.532
192.8814, 2310.126
193.3635, 2331.987
193.8456, 2342.515
194.3277, 2341.714
194.8099, 2345.457
195.2920, 2362.039
195.7741, 2385.816
196.2562, 2407.410
196.7383, 2425.365
197.2204, 2439.875
197.7026, 2449.966
198.1847, 2455.982
198.6668, 2461.599
199.1489, 2468.355
199.6310, 2475.312
200.1131, 2478.928
200.5953, 2476.502
201.0774, 2477.512
201.5595, 2498.896
202.0416, 2538.232
202.5237, 2569.947
203.0058, 2582.040
203.4880, 2583.504
203.9701, 2588.330
204.4522, 2599.059
204.9343, 2611.386
205.4164, 2621.463
205.8985, 2629.515
206.3807, 2634.988
206.8628, 2632.079
207.3449, 2628.509
207.8270, 2638.140
208.3091, 2664.958
208.7912, 2692.382
209.2734, 2700.565
209.7555, 2692.963
210.2376, 2692.413
210.7197, 2710.436
211.2018, 2735.008
211.6839, 2748.934
212.1661, 2749.331
212.6482, 2751.435
213.1303, 2774.848
213.6124, 2814.623
214.0945, 2838.276
214.5766, 2828.325
215.0588, 2806.759
215.5409, 2794.790
216.0230, 2793.919
216.5051, 2801.986
216.9872, 2824.554
217.4693, 2856.777
217.9515, 2872.244
218.4336, 2852.477
218.9157, 2825.253
219.3978, 2815.998
219.8799, 2825.327
220.3620, 2838.588
220.8442, 2847.208
221.3263, 2851.248
221.8084, 2853.494
222.2905, 2854.642
222.7726, 2853.503
223.2547, 2850.768
223.7369, 2845.900
224.2190, 2833.614
224.7011, 2806.732
225.1832, 2770.078
225.6653, 2745.128
226.1474, 2738.259
226.6296, 2736.907
227.1117, 2735.127
227.5938, 2733.048
228.0759, 2731.581
228.5580, 2731.832
229.0401, 2732.635
229.5223, 2730.160
230.0044, 2722.681
230.4865, 2714.396
230.9686, 2704.879
231.4507, 2695.716
231.9328, 2691.975
232.4150, 2697.238
232.8971, 2707.910
233.3792, 2713.914
233.8613, 2713.636
234.3434, 2712.487
234.8255, 2709.686
235.3077, 2707.412
235.7898, 2711.469
236.2719, 2725.457
236.7540, 2742.676
237.2361, 2747.390
237.7182, 2731.313
238.2004, 2721.989
238.6825, 2735.177
239.1646, 2755.088
239.6467, 2755.339
240.1288, 2726.649
240.6109, 2691.029
241.0931, 2686.189
241.5752, 2730.415
242.0573, 2760.742
242.5394, 2763.715
243.0215, 2755.244
243.5036, 2748.758
243.9858, 2747.634
244.4679, 2752.791
244.9500, 2766.058
245.4321, 2791.307
245.9142, 2814.410
246.3963, 2829.196
246.8785, 2846.030
247.3606, 2876.018
247.8427, 2918.328
248.3248, 2959.996
248.8069, 2985.869
249.2890, 2990.208
249.7712, 3012.903
250.2533, 3063.292
250.7354, 3120.785
251.2175, 3177.310
251.6996, 3231.134
252.1817, 3280.646
252.6639, 3322.301
253.1460, 3355.377
253.6281, 3408.772
254.1102, 3493.641
254.5923, 3583.978
255.0744, 3675.784
255.5566, 3766.854
256.0387, 3853.316
256.5208, 3931.611
257.0029, 4003.954
257.4850, 4084.501
257.9671, 4175.452
258.4492, 4273.119
258.9314, 4383.438
259.4135, 4498.191
259.8956, 4606.867
260.3777, 4704.264
260.8598, 4793.886
261.3419, 4888.289
261.8241, 4990.882
262.3062, 5092.601
262.7883, 5193.965
263.2704, 5292.756
263.7525, 5388.756
264.2346, 5481.123
264.7168, 5568.745
265.1989, 5651.626
265.6810, 5737.847
266.1631, 5799.625
266.6452, 5825.356
267.1273, 5836.939
267.6095, 5847.307
268.0916, 5859.015
268.5737, 5867.893
269.0558, 5872.567
269.5379, 5876.522
270.0201, 5858.368
270.5022, 5798.951
270.9843, 5730.583
271.4664, 5661.410
271.9485, 5594.115
272.4306, 5532.198
272.9128, 5484.228
273.3949, 5448.488
273.8770, 5395.419
274.3591, 5312.896
274.8412, 5227.280
275.3233, 5144.579
275.8055, 5068.034
276.2876, 5003.888
276.7697, 4957.801
277.2518, 4925.503
277.7339, 4895.398
278.2160, 4868.657
278.6982, 4841.503
279.1803, 4812.006
279.6624, 4781.118
280.1445, 4749.831
280.6266, 4718.820
281.1087, 4687.220
281.5909, 4649.749
282.0730, 4604.434
282.5551, 4572.574
283.0372, 4569.751
283.5193, 4581.789
284.0014, 4592.749
284.4836, 4603.325
284.9657, 4606.252
285.4478, 4589.273
285.9299, 4556.789
286.4120, 4534.422
286.8941, 4530.146
287.3763, 4538.792
287.8584, 4555.479
288.3405, 4581.596
288.8226, 4603.611
289.3047, 4610.958
289.7868, 4611.539
290.2690, 4619.800
290.7511, 4638.832
291.2332, 4664.200
291.7153, 4694.939
292.1974, 4731.488
292.6795, 4756.063
293.1617, 4759.892
293.6438, 4754.741
294.1259, 4749.686
294.6080, 4745.787
295.0901, 4742.245
295.5722, 4736.834
296.0544, 4730.293
296.5365, 4735.622
297.0186, 4761.065
297.5007, 4789.000
297.9828, 4811.874
298.4649, 4830.521
298.9471, 4849.141
299.4292, 4870.914
299.9113, 4893.328
300.3934, 4905.664
300.8755, 4892.702
301.3576, 4888.603
301.8398, 4901.717
302.3219, 4924.935
302.8040, 4949.551
303.2861, 4972.456
303.7682, 4996.455
304.2503, 5026.612
304.7325, 5062.313
305.2146, 5106.409
305.6967, 5156.893
306.1788, 5215.825
306.6609, 5280.779
307.1430, 5353.865
307.6252, 5445.077
308.1073, 5566.842
308.5894, 5723.572
309.0715, 5883.909
309.5536, 6029.825
310.0357, 6198.883
310.5179, 6406.261
311.0000, 6648.515
311.4821, 6913.013
311.9642, 7186.789
312.4463, 7479.487
312.9284, 7834.577
313.4106, 8265.472
313.8927, 8739.774
314.3748, 9230.156
314.8569, 9759.052
315.3390, 10351.74
315.8211, 11018.87
316.3033, 11753.08
316.7854, 12558.50
317.2675, 13439.61
317.7496, 14347.24
318.2317, 15238.12
318.7138, 16172.82
319.1960, 17203.65
319.6781, 18341.02
320.1602, 19531.16
320.6423, 20757.86
321.1244, 22013.12
321.6065, 23260.86
322.0887, 24506.39
322.5708, 25713.81
323.0529, 26854.46
323.5350, 27934.57
324.0171, 28928.34
324.4992, 29850.47
324.9814, 30670.82
325.4635, 31362.19
325.9456, 31927.15
326.4277, 32340.90
326.9098, 32589.76
327.3919, 32657.15
327.8741, 32559.92
328.3562, 32283.31
328.8383, 31866.32
329.3204, 31301.73
329.8025, 30610.99
330.2846, 29833.47
330.7668, 28988.33
331.2489, 28083.71
331.7310, 27151.64
332.2131, 26191.68
332.6952, 25208.61
333.1773, 24170.52
333.6595, 23127.76
334.1416, 22141.70
334.6237, 21221.38
335.1058, 20347.70
335.5879, 19497.04
336.0700, 18667.64
336.5522, 17860.66
337.0343, 17072.72
337.5164, 16308.41
337.9985, 15559.51
338.4806, 14836.31
338.9627, 14157.35
339.4449, 13541.93
339.9270, 12984.77
340.4091, 12452.07
340.8912, 11952.77
341.3733, 11466.57
341.8554, 10974.97
342.3376, 10496.62
342.8197, 10054.71
343.3018, 9661.353
343.7839, 9298.022
344.2660, 8940.675
344.7481, 8588.604
345.2303, 8246.813
345.7124, 7919.792
346.1945, 7604.495
346.6766, 7294.531
347.1587, 6991.040
347.6408, 6697.758
348.1230, 6415.219
348.6051, 6143.935
349.0872, 5882.076
349.5693, 5625.541
350.0514, 5386.925
350.5335, 5183.771
351.0157, 5008.853
351.4978, 4839.029
351.9799, 4661.984
352.4620, 4493.973
352.9441, 4348.451
353.4262, 4224.246
353.9084, 4115.625
354.3905, 4021.544
354.8726, 3938.362
355.3547, 3855.372
355.8368, 3759.973
356.3189, 3682.082
356.8011, 3634.747
357.2832, 3605.724
357.7653, 3582.391
358.2474, 3560.794
358.7295, 3538.254
359.2116, 3510.202
359.6938, 3472.576
360.1759, 3442.970
360.6580, 3429.219
361.1401, 3415.321
361.6222, 3394.596
362.1043, 3366.500
362.5865, 3332.608
363.0686, 3293.714
363.5507, 3249.871
364.0328, 3200.932
364.5149, 3137.893
364.9970, 3083.392
365.4792, 3046.818
365.9613, 3018.231
366.4434, 2988.167
366.9255, 2953.516
367.4076, 2913.743
367.8897, 2866.506
368.3719, 2811.160
368.8540, 2755.385
369.3361, 2696.376
369.8182, 2642.076
370.3003, 2600.253
370.7824, 2569.698
371.2646, 2540.254
371.7467, 2505.187
372.2288, 2468.173
372.7109, 2438.151
373.1930, 2416.958
373.6751, 2392.937
374.1573, 2355.830
374.6394, 2309.495
375.1215, 2269.538
375.6036, 2239.541
376.0857, 2212.905
376.5678, 2184.899
377.0500, 2157.654
377.5321, 2137.844
378.0142, 2128.741
378.4963, 2124.261
378.9784, 2113.445
379.4605, 2094.096
379.9427, 2071.788
380.4248, 2040.709
380.9069, 2010.958
381.3890, 1990.409
381.8711, 1979.136
382.3532, 1971.413
382.8354, 1961.931
383.3175, 1950.846
383.7996, 1946.015
384.2817, 1960.417
384.7638, 1966.299
385.2459, 1949.938
385.7281, 1924.502
386.2102, 1907.519
386.6923, 1906.224
387.1744, 1912.814
387.6565, 1914.828
388.1386, 1911.395
388.6208, 1908.221
389.1029, 1907.301
389.5850, 1906.037
390.0671, 1903.339
390.5492, 1898.963
391.0313, 1891.816
391.5135, 1877.750
391.9956, 1861.180
392.4777, 1852.948
392.9598, 1854.917
393.4419, 1857.151
393.9240, 1852.336
394.4062, 1842.817
394.8883, 1836.753
395.3704, 1834.509
395.8525, 1835.757
396.3346, 1845.075
396.8167, 1857.407
397.2989, 1860.989
397.7810, 1851.398
398.2631, 1834.730
398.7452, 1819.969
399.2273, 1806.437
399.7094, 1797.344
400.1916, 1795.570
400.6737, 1795.738
401.1558, 1795.681
401.6379, 1794.588
402.1200, 1791.445
402.6021, 1785.299
403.0843, 1776.575
403.5664, 1767.933
404.0485, 1757.035
404.5306, 1750.019
405.0127, 1749.969
405.4948, 1752.915
405.9770, 1755.150
406.4591, 1755.649
406.9412, 1755.436
407.4233, 1755.518
407.9054, 1755.901
408.3875, 1756.848
408.8697, 1760.465
409.3518, 1761.523
409.8339, 1754.059
410.3160, 1740.555
410.7981, 1729.733
411.2802, 1726.198
411.7624, 1725.591
412.2445, 1724.349
412.7266, 1722.229
413.2087, 1716.187
413.6908, 1701.776
414.1729, 1685.510
414.6551, 1686.462
415.1372, 1715.619
415.6193, 1735.674
416.1014, 1733.739
416.5835, 1722.480
417.0656, 1714.806
417.5478, 1712.582
418.0299, 1709.914
418.5120, 1700.557
418.9941, 1684.038
419.4762, 1671.301
419.9583, 1661.409
420.4405, 1656.607
420.9226, 1661.639
421.4047, 1670.795
421.8868, 1676.084
422.3689, 1674.172
422.8510, 1669.133
423.3332, 1668.350
423.8153, 1673.085
424.2974, 1672.813
424.7795, 1660.202
425.2616, 1647.954
425.7437, 1647.183
426.2259, 1655.635
426.7080, 1660.618
427.1901, 1652.814
427.6722, 1639.523
428.1543, 1632.827
428.6364, 1632.939
429.1186, 1629.237
429.6007, 1613.448
430.0828, 1591.642
430.5649, 1581.071
431.0470, 1586.788
431.5291, 1592.704
432.0113, 1596.699
432.4934, 1597.628
432.9755, 1591.418
433.4576, 1578.458
433.9397, 1567.601
434.4218, 1568.691
434.9040, 1583.055
435.3861, 1592.452
435.8682, 1595.820
436.3503, 1595.408
436.8324, 1589.690
437.3145, 1581.122
437.7967, 1571.387
438.2788, 1560.835
438.7609, 1554.198
439.2430, 1562.679
439.7251, 1589.519
440.2072, 1604.397
440.6894, 1594.871
441.1715, 1580.644
441.6536, 1575.053
442.1357, 1577.076
442.6178, 1581.050
443.0999, 1589.381
443.5821, 1595.609
444.0642, 1588.358
444.5463, 1568.682
445.0284, 1552.762
445.5105, 1549.815
445.9926, 1554.005
446.4748, 1549.573
446.9569, 1528.359
447.4390, 1517.514
447.9211, 1532.491
448.4032, 1552.868
448.8853, 1558.599
449.3675, 1548.662
449.8496, 1534.951
450.3317, 1527.472
450.8138, 1525.924
451.2959, 1525.528
451.7780, 1527.199
452.2602, 1528.916
452.7423, 1530.692
453.2244, 1532.112
453.7065, 1533.176
454.1886, 1533.843
454.6707, 1532.762
455.1529, 1528.145
455.6350, 1520.194
456.1171, 1509.814
456.5992, 1492.938
457.0813, 1481.665
457.5634, 1493.250
458.0455, 1518.066
458.5276, 1530.598
459.0098, 1515.878
459.4919, 1497.211
459.9740, 1490.847
460.4561, 1493.420
460.9382, 1495.672
461.4203, 1494.248
461.9025, 1492.382
462.3846, 1495.713
462.8667, 1508.666
463.3488, 1513.255
463.8309, 1498.563
464.3130, 1486.430
464.7952, 1494.646
465.2773, 1514.596
465.7594, 1523.858
466.2415, 1508.270
466.7236, 1479.482
467.2057, 1467.021
467.6879, 1475.701
468.1700, 1485.099
468.6521, 1494.202
469.1342, 1500.441
469.6163, 1502.086
470.0984, 1499.129
470.5806, 1492.541
471.0627, 1477.137
471.5448, 1460.821
472.0269, 1460.239
472.5090, 1475.563
472.9911, 1485.806
473.4733, 1478.231
473.9554, 1459.579
474.4375, 1449.293
474.9196, 1452.397
475.4017, 1452.187
475.8839, 1440.115
476.3660, 1426.979
476.8481, 1424.356
477.3302, 1432.250
477.8123, 1442.225
478.2944, 1447.775
478.7766, 1448.906
479.2587, 1444.500
479.7408, 1424.890
480.2229, 1415.226
480.7050, 1431.335
481.1871, 1452.436
481.6693, 1455.826
482.1514, 1437.492
482.6335, 1418.365
483.1156, 1419.445
483.5977, 1434.628
484.0798, 1441.656
484.5620, 1437.572
485.0441, 1430.655
485.5262, 1424.398
486.0083, 1419.807
486.4904, 1420.010
486.9725, 1431.240
487.4547, 1438.811
487.9368, 1433.564
488.4189, 1422.699
488.9010, 1415.230
489.3831, 1413.513
489.8652, 1417.327
490.3474, 1427.912
490.8295, 1446.099
491.3116, 1455.318
491.7937, 1445.740
492.2758, 1437.894
492.7579, 1439.120
493.2401, 1443.412
493.7222, 1441.603
494.2043, 1430.666
494.6864, 1420.744
495.1685, 1427.813
495.6506, 1448.383
496.1328, 1453.420
496.6149, 1434.395
497.0970, 1413.031
497.5791, 1405.752
498.0612, 1409.414
498.5433, 1413.377
499.0255, 1417.794
499.5076, 1421.065
499.9897, 1422.386
500.4718, 1422.047
500.9539, 1419.738
501.4360, 1415.538
501.9182, 1412.005
502.4003, 1412.775
502.8824, 1418.925
503.3645, 1421.142
503.8466, 1412.988
504.3287, 1407.917
504.8109, 1412.598
505.2930, 1421.338
505.7751, 1426.446
506.2572, 1425.250
506.7393, 1420.571
507.2214, 1412.994
507.7036, 1403.495
508.1857, 1402.791
508.6678, 1416.094
509.1499, 1428.553
509.6320, 1426.527
510.1141, 1413.609
510.5963, 1404.175
511.0784, 1398.559
511.5605, 1397.673
512.0426, 1407.540
512.5247, 1420.773
513.0068, 1422.421
513.4890, 1409.285
513.9711, 1395.980
514.4532, 1401.602
514.9353, 1429.622
515.4174, 1441.791
515.8995, 1421.379
516.3817, 1403.678
516.8638, 1376.818
517.3459, 1405.263
517.8280, 1421.804
518.3101, 1427.079
518.7922, 1387.350
519.2744, 1405.735
519.7565, 1400.830
520.2386, 1394.971
520.7207, 1421.535
521.2028, 1388.351
521.6849, 1414.401
522.1671, 1416.807
522.6492, 1430.033
523.1313, 1419.827
523.6134, 1416.858
524.0955, 1437.330
524.5776, 1444.823
525.0598, 1419.185
525.5419, 1413.887
526.0240, 1408.182
526.5061, 1407.288
526.9882, 1411.069
527.4703, 1415.688
527.9525, 1423.108
528.4346, 1428.264
528.9167, 1431.497
529.3988, 1431.177
529.8809, 1424.433
530.3630, 1410.683
530.8452, 1395.937
531.3273, 1379.089
531.8094, 1365.650
532.2915, 1372.451
532.7736, 1401.295
533.2557, 1423.959
533.7379, 1420.937
534.2200, 1399.956
534.7021, 1388.950
535.1842, 1392.626
535.6663, 1398.091
536.1484, 1404.045
536.6306, 1411.278
537.1127, 1422.829
537.5948, 1436.908
538.0769, 1446.745
538.5590, 1447.050
539.0411, 1439.844
539.5233, 1430.300
540.0054, 1416.174
540.4875, 1408.404
540.9696, 1413.918
541.4517, 1423.951
541.9338, 1432.082
542.4160, 1437.980
542.8981, 1438.979
543.3802, 1429.232
543.8623, 1417.713
544.3444, 1413.108
544.8265, 1414.595
545.3087, 1418.740
545.7908, 1424.479
546.2729, 1429.387
546.7550, 1428.539
547.2371, 1418.491
547.7192, 1411.902
548.2014, 1410.295
548.6835, 1410.210
549.1656, 1410.555
549.6477, 1411.247
550.1298, 1412.338
550.6119, 1413.789
551.0941, 1415.891
551.5762, 1420.914
552.0583, 1427.883
552.5404, 1427.720
553.0225, 1416.865
553.5046, 1404.971
553.9868, 1399.686
554.4689, 1401.075
554.9510, 1405.206
555.4331, 1417.267
555.9152, 1426.010
556.3973, 1425.609
556.8795, 1420.596
557.3616, 1415.307
557.8437, 1411.317
558.3258, 1410.295
558.8079, 1414.662
559.2900, 1423.805
559.7722, 1430.663
560.2543, 1434.401
560.7364, 1437.564
561.2185, 1442.403
561.7006, 1446.252
562.1827, 1446.373
562.6649, 1442.416
563.1470, 1436.198
563.6291, 1425.391
564.1112, 1414.617
564.5933, 1409.855
565.0754, 1410.843
565.5576, 1415.079
566.0397, 1422.083
566.5218, 1410.180
567.0039, 1437.221
567.4860, 1452.358
567.9681, 1456.230
568.4503, 1415.097
568.9324, 1432.078
569.4145, 1425.770
569.8966, 1418.507
570.3787, 1443.667
570.8608, 1409.080
571.3430, 1433.727
571.8251, 1434.728
572.3072, 1446.551
572.7893, 1434.941
573.2714, 1430.569
573.7535, 1449.637
574.2357, 1455.727
574.7178, 1441.419
575.1999, 1453.930
575.6820, 1436.575
576.1641, 1445.239
576.6462, 1447.429
577.1284, 1446.024
577.6105, 1444.427
578.0926, 1443.070
578.5747, 1439.521
579.0568, 1429.342
579.5389, 1415.549
580.0211, 1414.541
580.5032, 1430.052
580.9853, 1444.493
581.4674, 1452.498
581.9495, 1456.001
582.4316, 1457.901
582.9138, 1458.241
583.3959, 1455.985
583.8780, 1445.161
584.3601, 1436.390
584.8422, 1443.355
585.3243, 1459.499
585.8065, 1464.973
586.2886, 1451.252
586.7707, 1431.492
587.2528, 1428.900
587.7349, 1448.610
588.2170, 1460.864
588.6992, 1459.954
589.1813, 1458.695
589.6634, 1465.215
590.1455, 1473.746
590.6276, 1474.207
591.1097, 1462.128
591.5919, 1451.069
592.0740, 1451.985
592.5561, 1459.296
593.0382, 1464.097
593.5203, 1465.289
594.0024, 1464.068
594.4846, 1460.786
594.9667, 1456.287
595.4488, 1453.783
595.9309, 1456.156
596.4130, 1455.545
596.8951, 1447.431
597.3773, 1440.319
597.8594, 1441.224
598.3415, 1447.637
598.8236, 1451.227
599.3057, 1446.140
599.7878, 1439.925
600.2700, 1443.125
600.7521, 1453.799
601.2342, 1463.666
601.7163, 1471.333
602.1984, 1474.993
602.6805, 1471.611
603.1627, 1461.485
603.6448, 1456.480
604.1269, 1462.732
604.6090, 1465.734
605.0911, 1460.719
605.5732, 1452.608
606.0554, 1442.619
606.5375, 1433.179
607.0196, 1432.764
607.5017, 1454.047
607.9838, 1484.692
608.4659, 1492.209
608.9481, 1475.875
609.4302, 1465.969
609.9123, 1474.640
610.3944, 1489.019
610.8765, 1492.776
611.3586, 1484.421
611.8408, 1476.849
612.3229, 1468.787
612.8050, 1463.234
613.2871, 1462.862
613.7692, 1465.202
614.2513, 1467.317
614.7335, 1468.268
615.2156, 1468.030
615.6977, 1465.687
616.1798, 1461.925
