##NAMES=Pirssonite
##RRUFFID=R070192
##IDEAL CHEMISTRY=Na_2_Ca(CO_3_)_2_&#183;2H_2_O
##LOCALITY=Natrum, Sahara, Egypt
##OWNER=RRUFF
##SOURCE=Renato and Adriana Pagano
##DESCRIPTION=Colorless transparent hemimorphic tabular crystals
##STATUS=The identification of this mineral has been confirmed by single-crystal X-ray diffraction.
##URL=rruff.info/R070192
153.5565, 35939.84
154.0386, 36191.84
154.5207, 36406.85
155.0028, 36579.09
155.4849, 36718.32
155.9670, 36836.70
156.4492, 36907.55
156.9313, 36983.38
157.4134, 37087.33
157.8955, 37227.07
158.3776, 37353.62
158.8597, 37431.62
159.3419, 37493.05
159.8240, 37581.28
160.3061, 37710.48
160.7882, 37869.75
161.2703, 38059.38
161.7524, 38291.76
162.2346, 38522.65
162.7167, 38725.67
163.1988, 38914.27
163.6809, 39114.03
164.1630, 39361.21
164.6451, 39611.41
165.1273, 39830.15
165.6094, 39998.02
166.0915, 40155.11
166.5736, 40326.87
167.0557, 40507.38
167.5379, 40682.19
168.0200, 40833.20
168.5021, 40976.19
168.9842, 41127.73
169.4663, 41303.82
169.9484, 41478.25
170.4306, 41635.31
170.9127, 41773.32
171.3948, 41890.78
171.8769, 41965.00
172.3590, 42020.26
172.8411, 42092.34
173.3233, 42191.59
173.8054, 42314.50
174.2875, 42468.26
174.7696, 42654.09
175.2517, 42835.11
175.7338, 42962.42
176.2160, 43060.60
176.6981, 43183.16
177.1802, 43363.02
177.6623, 43577.03
178.1444, 43795.77
178.6265, 44018.10
179.1087, 44234.25
179.5908, 44438.82
180.0729, 44627.48
180.5550, 44788.59
181.0371, 44922.31
181.5192, 45022.88
182.0014, 45065.10
182.4835, 45038.68
182.9656, 44984.02
183.4477, 44951.02
183.9298, 44937.82
184.4119, 44927.98
184.8941, 44908.92
185.3762, 44884.68
185.8583, 44863.23
186.3404, 44834.50
186.8225, 44828.40
187.3046, 44910.19
187.7868, 45078.29
188.2689, 45269.65
188.7510, 45429.75
189.2331, 45567.06
189.7152, 45736.07
190.1973, 45944.80
190.6795, 46188.35
191.1616, 46465.91
191.6437, 46778.26
192.1258, 47105.54
192.6079, 47439.73
193.0900, 47779.91
193.5722, 48107.78
194.0543, 48427.83
194.5364, 48731.34
195.0185, 48976.84
195.5006, 49163.77
195.9827, 49295.56
196.4649, 49383.36
196.9470, 49430.45
197.4291, 49387.37
197.9112, 49220.79
198.3933, 48948.01
198.8754, 48680.82
199.3576, 48417.10
199.8397, 48166.82
200.3218, 47944.89
200.8039, 47754.67
201.2860, 47582.78
201.7681, 47424.73
202.2503, 47280.80
202.7324, 47160.17
203.2145, 47064.58
203.6966, 46989.10
204.1787, 46924.67
204.6608, 46868.77
205.1430, 46838.04
205.6251, 46843.66
206.1072, 46888.52
206.5893, 46932.03
207.0714, 46974.01
207.5535, 47014.85
208.0357, 47056.72
208.5178, 47101.78
208.9999, 47140.41
209.4820, 47174.66
209.9641, 47210.34
210.4462, 47203.68
210.9284, 47136.59
211.4105, 47041.68
211.8926, 46990.66
212.3747, 47002.21
212.8568, 47011.36
213.3389, 46982.57
213.8211, 46896.69
214.3032, 46845.54
214.7853, 46837.85
215.2674, 46861.43
215.7495, 46885.31
216.2316, 46906.74
216.7138, 46934.50
217.1959, 46974.47
217.6780, 47032.47
218.1601, 47087.55
218.6422, 47144.46
219.1243, 47196.36
219.6065, 47215.70
220.0886, 47182.16
220.5707, 47149.63
221.0528, 47150.38
221.5349, 47198.93
222.0170, 47240.79
222.4992, 47262.87
222.9813, 47276.01
223.4634, 47329.09
223.9455, 47441.61
224.4276, 47567.39
224.9097, 47678.82
225.3919, 47777.64
225.8740, 47861.73
226.3561, 47929.51
226.8382, 47982.09
227.3203, 48028.25
227.8024, 48063.25
228.2846, 48097.38
228.7667, 48138.23
229.2488, 48188.13
229.7309, 48237.74
230.2130, 48282.75
230.6951, 48324.86
231.1773, 48382.30
231.6594, 48468.01
232.1415, 48553.22
232.6236, 48616.55
233.1057, 48648.95
233.5878, 48676.73
234.0700, 48696.70
234.5521, 48710.92
235.0342, 48751.86
235.5163, 48843.18
235.9984, 48934.90
236.4805, 48985.19
236.9627, 48970.14
237.4448, 48959.25
237.9269, 48956.63
238.4090, 48962.96
238.8911, 49001.18
239.3732, 49090.25
239.8554, 49191.16
240.3375, 49271.07
240.8196, 49323.56
241.3017, 49367.22
241.7838, 49405.34
242.2659, 49437.73
242.7481, 49458.81
243.2302, 49447.73
243.7123, 49446.51
244.1944, 49498.96
244.6765, 49644.54
245.1586, 49770.49
245.6408, 49854.73
246.1229, 49897.50
246.6050, 49932.37
247.0871, 49941.88
247.5692, 49961.66
248.0513, 50029.06
248.5335, 50169.77
249.0156, 50309.19
249.4977, 50435.52
249.9798, 50549.87
250.4619, 50646.25
250.9440, 50723.77
251.4262, 50785.30
251.9083, 50830.39
252.3904, 50846.07
252.8725, 50872.28
253.3546, 50919.37
253.8367, 50987.95
254.3189, 51054.13
254.8010, 51121.41
255.2831, 51181.42
255.7652, 51221.82
256.2473, 51227.92
256.7295, 51247.46
257.2116, 51296.48
257.6937, 51375.20
258.1758, 51435.33
258.6579, 51475.68
259.1400, 51498.85
259.6222, 51504.12
260.1043, 51481.38
260.5864, 51467.20
261.0685, 51476.62
261.5506, 51509.28
262.0327, 51504.20
262.5149, 51430.99
262.9970, 51362.61
263.4791, 51389.16
263.9612, 51555.18
264.4433, 51687.11
264.9254, 51736.43
265.4076, 51705.51
265.8897, 51705.34
266.3718, 51741.79
266.8539, 51799.25
267.3360, 51868.80
267.8181, 51958.12
268.3003, 52029.05
268.7824, 52066.61
269.2645, 52073.55
269.7466, 52091.85
270.2287, 52118.48
270.7108, 52162.12
271.1930, 52237.82
271.6751, 52353.08
272.1572, 52466.05
272.6393, 52574.01
273.1214, 52675.01
273.6035, 52736.36
274.0857, 52754.65
274.5678, 52743.65
275.0499, 52700.81
275.5320, 52616.01
276.0141, 52573.00
276.4962, 52601.60
276.9784, 52688.91
277.4605, 52755.27
277.9426, 52798.30
278.4247, 52830.07
278.9068, 52857.94
279.3889, 52881.32
279.8711, 52909.27
280.3532, 52941.59
280.8353, 52980.35
281.3174, 53044.19
281.7995, 53139.81
282.2816, 53223.61
282.7638, 53247.92
283.2459, 53213.75
283.7280, 53183.39
284.2101, 53166.21
284.6922, 53163.63
285.1743, 53184.41
285.6565, 53230.12
286.1386, 53283.15
286.6207, 53324.51
287.1028, 53356.76
287.5849, 53408.63
288.0670, 53494.92
288.5492, 53595.13
289.0313, 53649.45
289.5134, 53656.21
289.9955, 53672.79
290.4776, 53766.89
290.9597, 53916.50
291.4419, 54019.36
291.9240, 54046.49
292.4061, 54031.34
292.8882, 54022.09
293.3703, 54019.88
293.8524, 54044.01
294.3346, 54140.11
294.8167, 54276.09
295.2988, 54354.01
295.7809, 54340.58
296.2630, 54293.14
296.7451, 54287.58
297.2273, 54321.95
297.7094, 54380.71
298.1915, 54476.00
298.6736, 54586.80
299.1557, 54666.97
299.6378, 54705.87
300.1200, 54723.80
300.6021, 54736.93
301.0842, 54747.52
301.5663, 54764.89
302.0484, 54794.01
302.5305, 54833.50
303.0127, 54882.72
303.4948, 54944.24
303.9769, 55007.66
304.4590, 55069.27
304.9411, 55126.30
305.4232, 55172.05
305.9054, 55183.07
306.3875, 55190.61
306.8696, 55236.29
307.3517, 55333.27
307.8338, 55422.89
308.3159, 55429.68
308.7981, 55397.07
309.2802, 55409.02
309.7623, 55568.50
310.2444, 55746.09
310.7265, 55835.04
311.2086, 55815.84
311.6908, 55785.66
312.1729, 55798.91
312.6550, 55837.35
313.1371, 55874.84
313.6192, 55884.46
314.1013, 55902.75
314.5835, 55957.36
315.0656, 56052.11
315.5477, 56140.68
316.0298, 56203.06
316.5119, 56248.48
316.9940, 56287.24
317.4762, 56295.20
317.9583, 56321.53
318.4404, 56395.06
318.9225, 56515.76
319.4046, 56628.54
319.8867, 56732.96
320.3689, 56814.77
320.8510, 56862.16
321.3331, 56833.38
321.8152, 56810.41
322.2973, 56814.57
322.7794, 56843.97
323.2616, 56873.30
323.7437, 56885.61
324.2258, 56904.74
324.7079, 56945.53
325.1900, 57022.27
325.6721, 57106.20
326.1543, 57207.42
326.6364, 57318.70
327.1185, 57403.70
327.6006, 57430.31
328.0827, 57456.09
328.5648, 57508.09
329.0470, 57630.96
329.5291, 57716.99
330.0112, 57761.88
330.4933, 57770.16
330.9754, 57748.69
331.4576, 57652.85
331.9397, 57582.90
332.4218, 57574.17
332.9039, 57622.84
333.3860, 57757.40
333.8681, 58047.20
334.3503, 58380.54
334.8324, 58522.88
335.3145, 58388.80
335.7966, 58247.08
336.2787, 58200.18
336.7608, 58266.51
337.2430, 58293.67
337.7251, 58266.65
338.2072, 58221.47
338.6893, 58201.97
339.1714, 58206.60
339.6535, 58247.89
340.1357, 58349.93
340.6178, 58504.92
341.0999, 58583.47
341.5820, 58569.30
342.0641, 58532.20
342.5462, 58543.69
343.0284, 58603.56
343.5105, 58681.20
343.9926, 58775.74
344.4747, 58879.43
344.9568, 58972.07
345.4389, 59055.15
345.9211, 59107.15
346.4032, 59083.55
346.8853, 59003.98
347.3674, 58962.18
347.8495, 58984.04
348.3316, 59045.23
348.8138, 59106.49
349.2959, 59168.94
349.7780, 59239.88
350.2601, 59336.43
350.7422, 59444.53
351.2243, 59539.64
351.7065, 59622.58
352.1886, 59681.88
352.6707, 59679.50
353.1528, 59636.93
353.6349, 59623.90
354.1170, 59721.82
354.5992, 59848.36
355.0813, 59907.00
355.5634, 59879.28
356.0455, 59832.84
356.5276, 59787.31
357.0097, 59759.87
357.4919, 59780.32
357.9740, 59915.48
358.4561, 60062.21
358.9382, 60143.92
359.4203, 60153.90
359.9024, 60173.37
360.3846, 60262.19
360.8667, 60372.05
361.3488, 60452.42
361.8309, 60455.73
362.3130, 60457.19
362.7951, 60482.61
363.2773, 60530.86
363.7594, 60582.99
364.2415, 60642.00
364.7236, 60697.98
365.2057, 60744.47
365.6878, 60744.66
366.1700, 60775.94
366.6521, 60884.96
367.1342, 61042.54
367.6163, 61129.56
368.0984, 61058.32
368.5805, 60984.21
369.0627, 60970.91
369.5448, 61062.46
370.0269, 61128.95
370.5090, 61157.02
370.9911, 61164.16
371.4732, 61183.89
371.9554, 61223.18
372.4375, 61262.68
372.9196, 61291.40
373.4017, 61303.60
373.8838, 61349.61
374.3659, 61446.70
374.8481, 61555.35
375.3302, 61621.84
375.8123, 61635.91
376.2944, 61654.52
376.7765, 61697.41
377.2586, 61759.18
377.7408, 61789.55
378.2229, 61781.97
378.7050, 61772.47
379.1871, 61793.78
379.6692, 61844.64
380.1513, 61902.69
380.6335, 61963.64
381.1156, 62028.96
381.5977, 62109.97
382.0798, 62205.36
382.5619, 62281.78
383.0440, 62305.34
383.5262, 62293.08
384.0083, 62291.74
384.4904, 62307.70
384.9725, 62332.22
385.4546, 62347.57
385.9367, 62361.22
386.4189, 62396.33
386.9010, 62481.75
387.3831, 62587.11
387.8652, 62682.08
388.3473, 62765.02
388.8294, 62830.43
389.3116, 62844.02
389.7937, 62843.25
390.2758, 62879.69
390.7579, 63017.82
391.2400, 63161.07
391.7221, 63257.11
392.2043, 63307.83
392.6864, 63337.26
393.1685, 63320.45
393.6506, 63305.73
394.1327, 63332.43
394.6148, 63464.70
395.0970, 63564.91
395.5791, 63567.73
396.0612, 63509.57
396.5433, 63496.38
397.0254, 63586.88
397.5075, 63692.14
397.9897, 63778.16
398.4718, 63838.08
398.9539, 63890.66
399.4360, 63951.30
399.9181, 63998.87
400.4002, 63997.13
400.8824, 63878.93
401.3645, 63813.57
401.8466, 63871.49
402.3287, 64061.68
402.8108, 64125.14
403.2929, 63980.93
403.7751, 63830.68
404.2572, 63881.42
404.7393, 64192.69
405.2214, 64443.21
405.7035, 64578.65
406.1856, 64619.08
406.6678, 64604.45
407.1499, 64523.57
407.6320, 64463.77
408.1141, 64500.27
408.5962, 64621.43
409.0783, 64707.81
409.5605, 64743.83
410.0426, 64760.02
410.5247, 64798.58
411.0068, 64856.19
411.4889, 64916.25
411.9710, 64978.07
412.4532, 65034.82
412.9353, 65062.75
413.4174, 65059.68
413.8995, 65076.43
414.3816, 65200.12
414.8637, 65364.56
415.3459, 65459.56
415.8280, 65388.63
416.3101, 65297.05
416.7922, 65300.53
417.2743, 65383.54
417.7564, 65474.19
418.2386, 65550.32
418.7207, 65610.71
419.2028, 65652.33
419.6849, 65671.20
420.1670, 65680.17
420.6491, 65665.95
421.1313, 65646.86
421.6134, 65656.05
422.0955, 65714.94
422.5776, 65789.95
423.0597, 65884.13
423.5418, 66009.77
424.0240, 66084.21
424.5061, 66039.00
424.9882, 65979.45
425.4703, 66000.31
425.9524, 66181.59
426.4345, 66311.70
426.9167, 66346.85
427.3988, 66305.18
427.8809, 66291.07
428.3630, 66311.63
428.8451, 66345.71
429.3272, 66378.26
429.8094, 66405.86
430.2915, 66457.77
430.7736, 66540.93
431.2557, 66639.71
431.7378, 66728.84
432.2199, 66808.40
432.7021, 66875.68
433.1842, 66922.88
433.6663, 66956.49
434.1484, 67007.40
434.6305, 67076.91
435.1126, 67140.81
435.5948, 67161.89
436.0769, 67157.56
436.5590, 67174.89
437.0411, 67232.30
437.5232, 67308.69
438.0053, 67398.33
438.4875, 67492.10
438.9696, 67553.32
439.4517, 67524.30
439.9338, 67472.08
440.4159, 67457.13
440.8980, 67490.59
441.3802, 67553.54
441.8623, 67673.13
442.3444, 67807.80
442.8265, 67898.27
443.3086, 67885.75
443.7907, 67863.88
444.2729, 67859.06
444.7550, 67872.84
445.2371, 67909.55
445.7192, 67991.98
446.2013, 68083.26
446.6834, 68159.66
447.1656, 68210.76
447.6477, 68260.13
448.1298, 68307.97
448.6119, 68355.01
449.0940, 68404.78
449.5761, 68471.34
450.0583, 68514.42
450.5404, 68503.31
451.0225, 68426.95
451.5046, 68419.39
451.9867, 68501.13
452.4688, 68608.39
452.9510, 68658.55
453.4331, 68649.22
453.9152, 68657.91
454.3973, 68707.07
454.8794, 68784.66
455.3615, 68867.57
455.8437, 68955.80
456.3258, 69028.43
456.8079, 69061.20
457.2900, 69069.34
457.7721, 69086.12
458.2542, 69116.28
458.7364, 69153.02
459.2185, 69198.11
459.7006, 69244.54
460.1827, 69276.46
460.6648, 69248.67
461.1469, 69232.99
461.6291, 69300.49
462.1112, 69448.24
462.5933, 69571.09
463.0754, 69596.49
463.5575, 69592.06
464.0396, 69610.68
464.5218, 69685.66
465.0039, 69754.66
465.4860, 69806.27
465.9681, 69843.56
466.4502, 69873.95
466.9323, 69877.90
467.4145, 69896.41
467.8966, 69954.04
468.3787, 70069.29
468.8608, 70116.53
469.3429, 70053.73
469.8250, 69970.17
470.3072, 69954.66
470.7893, 70016.25
471.2714, 70118.98
471.7535, 70283.54
472.2356, 70471.87
472.7177, 70524.48
473.1999, 70426.07
473.6820, 70341.86
474.1641, 70396.34
474.6462, 70556.73
475.1284, 70673.88
475.6105, 70735.55
476.0926, 70770.73
476.5747, 70800.30
477.0568, 70828.70
477.5389, 70867.61
478.0211, 70938.92
478.5032, 71009.41
478.9853, 71038.68
479.4674, 71032.61
479.9495, 71028.11
480.4316, 71037.55
480.9138, 71062.66
481.3959, 71108.30
481.8780, 71185.42
482.3601, 71257.91
482.8422, 71300.24
483.3243, 71332.95
483.8065, 71388.84
484.2886, 71537.27
484.7707, 71645.23
485.2528, 71643.95
485.7349, 71532.73
486.2170, 71515.45
486.6992, 71657.21
487.1813, 71823.89
487.6634, 71933.77
488.1455, 71980.76
488.6276, 71977.92
489.1097, 71894.66
489.5919, 71793.38
490.0740, 71822.53
490.5561, 71999.16
491.0382, 72156.43
491.5203, 72215.68
492.0024, 72198.43
492.4846, 72188.73
492.9667, 72185.58
493.4488, 72207.05
493.9309, 72288.00
494.4130, 72405.67
494.8951, 72506.90
495.3773, 72585.95
495.8594, 72634.98
496.3415, 72623.16
496.8236, 72573.41
497.3057, 72543.87
497.7878, 72576.46
498.2700, 72628.08
498.7521, 72671.55
499.2342, 72703.90
499.7163, 72739.70
500.1984, 72772.66
500.6805, 72816.71
501.1627, 72883.55
501.6448, 73033.05
502.1269, 73134.77
502.6090, 73132.64
503.0911, 73075.21
503.5732, 73096.48
504.0554, 73259.77
504.5375, 73405.19
505.0196, 73472.09
505.5017, 73453.48
505.9838, 73439.77
506.4659, 73427.13
506.9481, 73428.16
507.4302, 73460.25
507.9123, 73523.72
508.3944, 73586.87
508.8765, 73639.77
509.3586, 73696.38
509.8408, 73798.44
510.3229, 73937.39
510.8050, 74055.33
511.2871, 74106.49
511.7692, 74121.70
512.2513, 74145.07
512.7335, 74179.02
513.2156, 74210.97
513.6977, 74222.67
514.1798, 74230.96
514.6619, 74255.63
515.1440, 74310.50
515.6262, 74372.36
516.1083, 74437.04
516.5904, 74501.85
517.0725, 74559.20
517.5546, 74626.30
518.0367, 74668.53
518.5189, 74656.63
519.0010, 74574.28
519.4831, 74545.21
519.9652, 74587.70
520.4473, 74665.30
520.9294, 74761.35
521.4116, 74900.95
521.8937, 74962.05
522.3758, 74903.00
522.8579, 74782.40
523.3400, 74736.23
523.8221, 74767.20
524.3043, 74837.70
524.7864, 74953.97
525.2685, 75095.58
525.7506, 75204.92
526.2327, 75282.38
526.7148, 75321.92
527.1970, 75286.93
527.6791, 75218.16
528.1612, 75182.56
528.6433, 75193.70
529.1254, 75245.11
529.6075, 75362.00
530.0897, 75514.84
530.5718, 75639.29
531.0539, 75710.46
531.5360, 75749.42
532.0181, 75746.02
532.5002, 75697.53
532.9824, 75692.20
533.4645, 75781.45
533.9466, 75890.80
534.4287, 75974.61
534.9108, 76022.84
535.3929, 76064.41
535.8751, 76094.52
536.3572, 76122.05
536.8393, 76169.21
537.3214, 76245.96
537.8035, 76297.73
538.2856, 76296.91
538.7678, 76258.56
539.2499, 76254.11
539.7320, 76284.73
540.2141, 76321.41
540.6962, 76321.20
541.1783, 76312.26
541.6605, 76376.30
542.1426, 76540.85
542.6247, 76702.24
543.1068, 76742.04
543.5889, 76715.49
544.0710, 76716.77
544.5532, 76832.29
545.0353, 76939.58
545.5174, 76952.08
545.9995, 76891.70
546.4816, 76875.57
546.9637, 77008.32
547.4459, 77135.34
547.9280, 77168.50
548.4101, 77046.80
548.8922, 77001.73
549.3743, 77071.95
549.8564, 77186.45
550.3386, 77271.23
550.8207, 77316.94
551.3028, 77363.93
551.7849, 77419.56
552.2670, 77479.28
552.7491, 77526.35
553.2313, 77560.01
553.7134, 77601.70
554.1955, 77690.55
554.6776, 77794.38
555.1597, 77793.43
555.6418, 77683.33
556.1240, 77600.34
556.6061, 77697.28
557.0882, 77882.43
557.5703, 78020.61
558.0524, 78063.57
558.5345, 78088.39
559.0167, 78149.35
559.4988, 78222.32
559.9809, 78260.85
560.4630, 78204.08
560.9451, 78158.19
561.4272, 78163.33
561.9094, 78221.98
562.3915, 78272.42
562.8736, 78302.10
563.3557, 78336.92
563.8378, 78392.55
564.3199, 78476.19
564.8021, 78556.05
565.2842, 78629.66
565.7663, 78702.13
566.2484, 78793.80
566.7305, 78904.23
567.2126, 78958.02
567.6948, 78907.90
568.1769, 78818.73
568.6590, 78817.70
569.1411, 78893.47
569.6232, 78980.95
570.1053, 79050.20
570.5875, 79105.99
571.0696, 79149.78
571.5517, 79180.91
572.0338, 79215.88
572.5159, 79270.78
572.9980, 79329.60
573.4802, 79377.09
573.9623, 79403.09
574.4444, 79426.82
574.9265, 79445.41
575.4086, 79464.30
575.8907, 79493.80
576.3729, 79538.26
576.8550, 79586.24
577.3371, 79636.07
577.8192, 79687.02
578.3013, 79735.17
578.7834, 79780.89
579.2656, 79819.60
579.7477, 79830.77
580.2298, 79825.13
580.7119, 79886.38
581.1940, 80032.05
581.6761, 80179.33
582.1583, 80231.86
582.6404, 80217.95
583.1225, 80195.40
583.6046, 80168.10
584.0867, 80157.80
584.5688, 80188.15
585.0510, 80249.13
585.5331, 80312.71
586.0152, 80349.85
586.4973, 80403.74
586.9794, 80510.20
587.4615, 80682.70
587.9437, 80798.15
588.4258, 80802.32
588.9079, 80795.09
589.3900, 80854.36
589.8721, 81037.90
590.3542, 81099.16
590.8364, 80986.90
591.3185, 80812.23
591.8006, 80746.61
592.2827, 80788.07
592.7648, 80867.44
593.2469, 80981.16
593.7291, 81104.17
594.2112, 81182.20
594.6933, 81222.01
595.1754, 81257.48
595.6575, 81324.29
596.1396, 81387.37
596.6218, 81398.70
597.1039, 81351.43
597.5860, 81325.77
598.0681, 81364.32
598.5502, 81438.58
599.0323, 81526.98
599.5145, 81656.46
599.9966, 81755.95
600.4787, 81808.89
600.9608, 81835.34
601.4429, 81863.61
601.9250, 81886.28
602.4072, 81931.71
602.8893, 82018.34
603.3714, 82130.53
603.8535, 82190.27
604.3356, 82194.02
604.8177, 82197.73
605.2999, 82245.60
605.7820, 82319.83
606.2641, 82364.88
606.7462, 82377.91
607.2283, 82388.94
607.7104, 82439.73
608.1926, 82497.38
608.6747, 82514.87
609.1568, 82451.69
609.6389, 82403.27
610.1210, 82420.87
610.6031, 82480.04
611.0853, 82541.01
611.5674, 82579.19
612.0495, 82639.23
612.5316, 82745.91
613.0137, 82887.74
613.4958, 82981.96
613.9780, 83017.70
614.4601, 83028.41
614.9422, 83020.13
615.4243, 82993.81
615.9064, 82992.47
616.3885, 83016.95
616.8707, 83061.27
617.3528, 83136.11
617.8349, 83225.17
618.3170, 83286.30
618.7991, 83303.45
619.2813, 83312.95
619.7634, 83332.85
620.2455, 83369.69
620.7276, 83435.11
621.2097, 83565.81
621.6918, 83693.11
622.1740, 83799.14
622.6561, 83882.40
623.1382, 83936.84
623.6203, 83947.81
624.1024, 83945.55
624.5845, 83934.21
625.0667, 83911.27
625.5488, 83909.51
626.0309, 83928.37
626.5130, 83969.40
626.9951, 84052.16
627.4772, 84169.67
627.9594, 84230.76
628.4415, 84213.46
628.9236, 84189.61
629.4057, 84262.71
629.8878, 84395.38
630.3699, 84503.27
630.8521, 84544.20
631.3342, 84565.40
631.8163, 84599.64
632.2984, 84640.22
632.7805, 84669.02
633.2626, 84661.86
633.7448, 84658.73
634.2269, 84672.68
634.7090, 84704.19
635.1911, 84753.96
635.6732, 84837.48
636.1553, 84918.16
636.6375, 84966.15
637.1196, 84972.38
637.6017, 85026.82
638.0838, 85143.77
638.5659, 85261.80
639.0480, 85296.89
639.5302, 85268.87
640.0123, 85263.57
640.4944, 85315.01
640.9765, 85362.52
641.4586, 85304.05
641.9407, 85196.99
642.4229, 85158.94
642.9050, 85309.86
643.3871, 85474.42
643.8692, 85573.09
644.3513, 85611.88
644.8334, 85648.32
645.3156, 85689.00
645.7977, 85730.27
646.2798, 85766.38
646.7619, 85793.64
647.2440, 85858.55
647.7261, 85976.75
648.2083, 86093.66
648.6904, 86161.07
649.1725, 86182.57
649.6546, 86181.91
650.1367, 86154.87
650.6188, 86136.28
651.1010, 86170.68
