##NAMES=Pirssonite
##RRUFFID=R070192
##IDEAL CHEMISTRY=Na_2_Ca(CO_3_)_2_&#183;2H_2_O
##LOCALITY=Natrum, Sahara, Egypt
##OWNER=RRUFF
##SOURCE=Renato and Adriana Pagano
##DESCRIPTION=Colorless transparent hemimorphic tabular crystals
##STATUS=The identification of this mineral has been confirmed by single-crystal X-ray diffraction.
##URL=rruff.info/R070192
229.3036, 17564.58
229.7857, 17565.63
230.2678, 17585.21
230.7499, 17628.39
231.2320, 17681.52
231.7142, 17708.22
232.1963, 17681.23
232.6784, 17674.90
233.1605, 17725.57
233.6426, 17783.38
234.1247, 17798.47
234.6069, 17755.61
235.0890, 17689.24
235.5711, 17660.33
236.0532, 17687.25
236.5353, 17708.80
237.0174, 17704.39
237.4996, 17704.09
237.9817, 17734.00
238.4638, 17796.41
238.9459, 17866.71
239.4280, 17915.34
239.9101, 17938.50
240.3923, 17953.52
240.8744, 17957.25
241.3565, 17956.03
241.8386, 17945.35
242.3207, 17929.54
242.8028, 17924.12
243.2850, 17950.90
243.7671, 18014.45
244.2492, 18055.50
244.7313, 18056.30
245.2134, 18049.81
245.6955, 18051.75
246.1777, 18056.92
246.6598, 18048.77
247.1419, 18007.43
247.6240, 17939.27
248.1061, 17905.07
248.5882, 17927.00
249.0704, 17955.65
249.5525, 17975.42
250.0346, 17989.42
250.5167, 18003.97
250.9988, 18024.06
251.4809, 18045.34
251.9631, 18054.19
252.4452, 18044.37
252.9273, 18034.56
253.4094, 18018.10
253.8915, 18009.59
254.3736, 18032.85
254.8558, 18102.99
255.3379, 18182.68
255.8200, 18204.98
256.3021, 18151.44
256.7842, 18110.39
257.2664, 18111.93
257.7485, 18133.10
258.2306, 18164.49
258.7127, 18204.84
259.1948, 18239.79
259.6769, 18249.43
260.1591, 18232.28
260.6412, 18224.75
261.1233, 18246.21
261.6054, 18268.07
262.0875, 18264.37
262.5696, 18236.32
263.0518, 18213.72
263.5339, 18223.71
264.0160, 18260.04
264.4981, 18286.55
264.9802, 18300.15
265.4623, 18301.70
265.9445, 18288.82
266.4266, 18264.98
266.9087, 18241.58
267.3908, 18214.05
267.8729, 18192.34
268.3550, 18207.98
268.8372, 18277.14
269.3193, 18332.96
269.8014, 18303.68
270.2835, 18231.17
270.7656, 18186.47
271.2477, 18200.97
271.7299, 18239.94
272.2120, 18270.12
272.6941, 18291.63
273.1762, 18299.74
273.6583, 18282.09
274.1404, 18253.94
274.6226, 18246.10
275.1047, 18271.71
275.5868, 18296.33
276.0689, 18289.40
276.5510, 18259.75
277.0331, 18244.12
277.5153, 18257.07
277.9974, 18288.12
278.4795, 18320.67
278.9616, 18354.74
279.4437, 18389.42
279.9258, 18434.26
280.4080, 18477.21
280.8901, 18493.63
281.3722, 18475.88
281.8543, 18445.25
282.3364, 18422.58
282.8185, 18407.35
283.3007, 18407.95
283.7828, 18444.68
284.2649, 18485.44
284.7470, 18497.06
285.2291, 18478.64
285.7112, 18457.73
286.1934, 18457.71
286.6755, 18478.20
287.1576, 18487.65
287.6397, 18464.35
288.1218, 18451.95
288.6039, 18487.49
289.0861, 18552.82
289.5682, 18597.08
290.0503, 18590.04
290.5324, 18544.25
291.0145, 18512.08
291.4966, 18507.10
291.9788, 18497.96
292.4609, 18469.13
292.9430, 18437.47
293.4251, 18427.19
293.9072, 18446.40
294.3893, 18479.62
294.8715, 18499.21
295.3536, 18495.57
295.8357, 18495.73
296.3178, 18515.85
296.7999, 18528.02
297.2820, 18497.18
297.7642, 18428.94
298.2463, 18371.70
298.7284, 18380.47
299.2105, 18468.92
299.6926, 18528.55
300.1747, 18546.13
300.6569, 18549.16
301.1390, 18531.66
301.6211, 18507.05
302.1032, 18502.08
302.5853, 18538.02
303.0674, 18603.75
303.5495, 18641.06
304.0316, 18627.96
304.5138, 18617.45
304.9959, 18629.79
305.4780, 18646.13
305.9601, 18640.12
306.4422, 18601.01
306.9243, 18556.25
307.4065, 18559.10
307.8886, 18629.19
308.3707, 18673.46
308.8528, 18644.54
309.3349, 18606.05
309.8170, 18595.54
310.2992, 18616.05
310.7813, 18645.97
311.2634, 18670.84
311.7455, 18690.40
312.2276, 18701.65
312.7097, 18705.73
313.1919, 18698.26
313.6740, 18669.79
314.1561, 18628.37
314.6382, 18595.61
315.1203, 18587.20
315.6024, 18590.75
316.0846, 18579.20
316.5667, 18547.36
317.0488, 18531.88
317.5309, 18572.13
318.0130, 18635.00
318.4951, 18663.96
318.9773, 18639.48
319.4594, 18602.79
319.9415, 18582.21
320.4236, 18575.03
320.9057, 18566.44
321.3878, 18546.57
321.8700, 18531.15
322.3521, 18553.37
322.8342, 18620.59
323.3163, 18671.16
323.7984, 18679.03
324.2805, 18664.41
324.7627, 18648.23
325.2448, 18634.11
325.7269, 18631.03
326.2090, 18653.38
326.6911, 18704.72
327.1732, 18725.75
327.6554, 18680.39
328.1375, 18639.04
328.6196, 18649.33
329.1017, 18698.35
329.5838, 18742.06
330.0659, 18754.16
330.5481, 18742.29
331.0302, 18740.67
331.5123, 18765.80
331.9944, 18780.69
332.4765, 18782.64
332.9586, 18772.00
333.4408, 18741.41
333.9229, 18691.10
334.4050, 18641.99
334.8871, 18627.31
335.3692, 18662.88
335.8513, 18690.91
336.3335, 18717.25
336.8156, 18732.03
337.2977, 18724.67
337.7798, 18699.88
338.2619, 18672.25
338.7440, 18653.23
339.2262, 18641.77
339.7083, 18627.77
340.1904, 18605.73
340.6725, 18589.86
341.1546, 18584.22
341.6367, 18586.23
342.1189, 18593.60
342.6010, 18606.18
343.0831, 18620.48
343.5652, 18633.14
344.0473, 18645.15
344.5294, 18647.89
345.0116, 18627.14
345.4937, 18606.19
345.9758, 18604.77
346.4579, 18623.51
346.9400, 18646.51
347.4221, 18672.62
347.9043, 18695.26
348.3864, 18688.79
348.8685, 18639.44
349.3506, 18596.10
349.8327, 18610.22
350.3148, 18662.93
350.7970, 18698.69
351.2791, 18683.69
351.7612, 18667.50
352.2433, 18705.34
352.7254, 18784.58
353.2076, 18835.85
353.6897, 18820.20
354.1718, 18763.69
354.6539, 18733.95
355.1360, 18736.06
355.6181, 18746.74
356.1003, 18773.27
356.5824, 18800.16
357.0645, 18807.94
357.5466, 18792.81
358.0287, 18763.66
358.5108, 18727.27
358.9930, 18678.17
359.4751, 18654.53
359.9572, 18680.87
360.4393, 18704.44
360.9214, 18697.62
361.4035, 18669.61
361.8857, 18643.11
362.3678, 18631.26
362.8499, 18631.19
363.3320, 18632.76
363.8141, 18637.95
364.2962, 18641.53
364.7784, 18638.69
365.2605, 18636.73
365.7426, 18644.04
366.2247, 18661.42
366.7068, 18679.59
367.1889, 18688.58
367.6711, 18688.16
368.1532, 18682.62
368.6353, 18667.39
369.1174, 18652.52
369.5995, 18640.13
370.0816, 18631.83
370.5638, 18631.29
371.0459, 18641.22
371.5280, 18659.04
372.0101, 18684.37
372.4922, 18718.88
372.9743, 18743.97
373.4565, 18746.51
373.9386, 18737.80
374.4207, 18735.22
374.9028, 18740.10
375.3849, 18748.13
375.8670, 18765.11
376.3492, 18782.28
376.8313, 18775.90
377.3134, 18738.15
377.7955, 18700.96
378.2776, 18702.47
378.7597, 18748.07
379.2419, 18766.15
379.7240, 18731.01
380.2061, 18690.48
380.6882, 18667.14
381.1703, 18661.69
381.6524, 18676.33
382.1346, 18715.45
382.6167, 18764.21
383.0988, 18777.50
383.5809, 18713.16
384.0630, 18666.93
384.5451, 18648.45
385.0273, 18643.72
385.5094, 18646.72
385.9915, 18653.39
386.4736, 18654.14
386.9557, 18633.90
387.4378, 18590.23
387.9200, 18574.73
388.4021, 18616.24
388.8842, 18653.54
389.3663, 18666.94
389.8484, 18663.17
390.3305, 18649.74
390.8127, 18625.17
391.2948, 18606.11
391.7769, 18628.04
392.2590, 18697.16
392.7411, 18747.28
393.2232, 18755.88
393.7054, 18741.93
394.1875, 18721.89
394.6696, 18696.19
395.1517, 18670.21
395.6338, 18636.69
396.1159, 18607.88
396.5981, 18610.94
397.0802, 18649.98
397.5623, 18688.48
398.0444, 18698.36
398.5265, 18686.02
399.0086, 18688.18
399.4908, 18722.14
399.9729, 18750.91
400.4550, 18756.24
400.9371, 18747.87
401.4192, 18745.07
401.9013, 18754.24
402.3835, 18759.88
402.8656, 18736.00
403.3477, 18663.21
403.8298, 18621.38
404.3119, 18639.04
404.7940, 18656.32
405.2762, 18635.14
405.7583, 18587.28
406.2404, 18547.67
406.7225, 18538.96
407.2046, 18553.56
407.6867, 18565.70
408.1689, 18575.58
408.6510, 18582.38
409.1331, 18585.24
409.6152, 18585.73
410.0973, 18588.10
410.5794, 18592.01
411.0616, 18586.68
411.5437, 18550.06
412.0258, 18492.24
412.5079, 18470.77
412.9900, 18501.32
413.4721, 18539.50
413.9543, 18549.50
414.4364, 18545.63
414.9185, 18557.36
415.4006, 18605.81
415.8827, 18652.23
416.3648, 18664.81
416.8470, 18651.85
417.3291, 18639.31
417.8112, 18636.59
418.2933, 18635.20
418.7754, 18621.45
419.2575, 18589.99
419.7397, 18564.32
420.2218, 18543.04
420.7039, 18529.78
421.1860, 18530.15
421.6681, 18541.19
422.1502, 18553.23
422.6324, 18559.61
423.1145, 18563.23
423.5966, 18578.42
424.0787, 18632.91
424.5608, 18654.02
425.0429, 18614.99
425.5251, 18555.93
426.0072, 18502.54
426.4893, 18461.71
426.9714, 18436.15
427.4535, 18438.15
427.9356, 18463.83
428.4178, 18461.26
428.8999, 18407.37
429.3820, 18369.86
429.8641, 18408.84
430.3462, 18479.26
430.8283, 18509.28
431.3105, 18463.94
431.7926, 18414.29
432.2747, 18435.48
432.7568, 18504.06
433.2389, 18530.01
433.7210, 18482.52
434.2032, 18413.42
434.6853, 18383.76
435.1674, 18398.20
435.6495, 18407.88
436.1316, 18405.10
436.6137, 18401.63
437.0959, 18400.17
437.5780, 18403.89
438.0601, 18424.14
438.5422, 18468.65
439.0243, 18520.31
439.5064, 18533.10
439.9886, 18470.85
440.4707, 18433.97
440.9528, 18437.39
441.4349, 18452.61
441.9170, 18470.17
442.3991, 18483.83
442.8813, 18480.99
443.3634, 18443.68
443.8455, 18385.78
444.3276, 18364.54
444.8097, 18392.36
445.2918, 18422.26
445.7740, 18440.74
446.2561, 18450.24
446.7382, 18451.23
447.2203, 18443.08
447.7024, 18431.83
448.1845, 18421.37
448.6667, 18410.37
449.1488, 18393.20
449.6309, 18368.15
450.1130, 18349.64
450.5951, 18351.69
451.0772, 18371.75
451.5594, 18381.87
452.0415, 18378.53
452.5236, 18370.20
453.0057, 18353.17
453.4878, 18335.12
453.9699, 18330.68
454.4521, 18342.77
454.9342, 18355.22
455.4163, 18346.99
455.8984, 18315.47
456.3805, 18278.16
456.8626, 18203.90
457.3448, 18157.04
457.8269, 18177.30
458.3090, 18233.46
458.7911, 18275.86
459.2732, 18283.23
459.7553, 18271.51
460.2375, 18254.62
460.7196, 18232.18
461.2017, 18239.29
461.6838, 18304.11
462.1659, 18371.04
462.6480, 18391.18
463.1302, 18370.62
463.6123, 18336.49
464.0944, 18271.61
464.5765, 18215.31
465.0586, 18216.28
465.5407, 18260.12
466.0229, 18285.54
466.5050, 18262.91
466.9871, 18219.10
467.4692, 18207.93
467.9513, 18256.64
468.4334, 18280.70
468.9156, 18253.72
469.3977, 18225.48
469.8798, 18234.68
470.3619, 18270.71
470.8440, 18295.15
471.3261, 18281.70
471.8083, 18246.11
472.2904, 18238.08
472.7725, 18273.67
473.2546, 18293.07
473.7367, 18266.83
474.2188, 18232.04
474.7010, 18214.32
475.1831, 18213.25
475.6652, 18207.97
476.1473, 18178.88
476.6294, 18141.05
477.1115, 18119.86
477.5937, 18116.01
478.0758, 18122.49
478.5579, 18141.61
479.0400, 18164.10
479.5221, 18165.76
480.0042, 18139.46
480.4864, 18114.16
480.9685, 18088.22
481.4506, 18070.39
481.9327, 18076.40
482.4148, 18101.60
482.8969, 18119.07
483.3791, 18106.15
483.8612, 18071.48
484.3433, 18064.76
484.8254, 18112.00
485.3075, 18144.57
485.7896, 18144.06
486.2718, 18133.00
486.7539, 18128.59
487.2360, 18132.79
487.7181, 18137.64
488.2002, 18135.43
488.6823, 18129.16
489.1645, 18127.21
489.6466, 18129.24
490.1287, 18138.49
490.6108, 18162.64
491.0929, 18191.94
491.5750, 18206.70
492.0572, 18204.31
492.5393, 18195.55
493.0214, 18177.41
493.5035, 18158.51
493.9856, 18154.10
494.4677, 18162.44
494.9499, 18161.20
495.4320, 18131.23
495.9141, 18078.57
496.3962, 18041.51
496.8783, 18025.47
497.3604, 18019.09
497.8426, 18028.21
498.3247, 18041.15
498.8068, 18047.44
499.2889, 18046.60
499.7710, 18047.17
500.2531, 18068.86
500.7353, 18097.15
501.2174, 18059.70
501.6995, 17931.33
502.1816, 17846.05
502.6637, 17893.20
503.1458, 17999.97
503.6280, 18047.13
504.1101, 18018.69
504.5922, 17989.10
505.0743, 17989.49
505.5564, 18001.37
506.0385, 18006.32
506.5207, 18001.96
507.0028, 17986.81
507.4849, 17956.38
507.9670, 17919.18
508.4491, 17913.70
508.9312, 17980.53
509.4134, 18019.68
509.8955, 18009.36
510.3776, 17983.66
510.8597, 17961.60
511.3418, 17947.58
511.8239, 17942.85
512.3061, 17950.81
512.7882, 17967.08
513.2703, 17982.30
513.7524, 17998.03
514.2346, 18002.04
514.7167, 17985.48
515.1988, 17958.57
515.6809, 17934.31
516.1630, 17912.73
516.6451, 17892.44
517.1273, 17862.62
517.6094, 17841.44
518.0915, 17856.87
518.5736, 17899.20
519.0557, 17927.91
519.5378, 17920.99
520.0200, 17889.50
520.5021, 17857.84
520.9842, 17813.82
521.4663, 17793.80
521.9484, 17826.36
522.4305, 17853.37
522.9127, 17836.42
523.3948, 17787.94
523.8769, 17744.06
524.3590, 17722.96
524.8411, 17717.13
525.3232, 17714.83
525.8054, 17716.10
526.2875, 17727.18
526.7696, 17756.11
527.2517, 17784.68
527.7338, 17788.79
528.2159, 17771.86
528.6981, 17762.67
529.1802, 17781.93
529.6623, 17793.48
530.1444, 17764.59
530.6265, 17714.69
531.1086, 17681.08
531.5908, 17676.47
532.0729, 17690.91
532.5550, 17714.46
533.0371, 17752.16
533.5192, 17767.58
534.0013, 17736.62
534.4835, 17710.49
534.9656, 17708.55
535.4477, 17719.07
535.9298, 17727.19
536.4119, 17729.09
536.8940, 17723.95
537.3762, 17702.16
537.8583, 17672.38
538.3404, 17669.52
538.8225, 17701.96
539.3046, 17726.19
539.7867, 17701.49
540.2689, 17643.74
540.7510, 17632.47
541.2331, 17715.24
541.7152, 17773.83
542.1973, 17778.28
542.6794, 17752.01
543.1616, 17700.40
543.6437, 17635.68
544.1258, 17596.49
544.6079, 17621.10
545.0900, 17688.64
545.5721, 17701.50
546.0543, 17633.97
546.5364, 17582.32
547.0185, 17586.06
547.5006, 17603.68
547.9827, 17602.35
548.4648, 17582.57
548.9469, 17567.01
549.4290, 17573.36
549.9111, 17583.39
550.3932, 17570.29
550.8754, 17541.02
551.3575, 17529.69
551.8396, 17551.94
552.3217, 17587.60
552.8038, 17604.79
553.2859, 17600.39
553.7681, 17587.14
554.2502, 17546.91
554.7323, 17518.36
555.2144, 17530.72
555.6965, 17560.74
556.1786, 17567.11
556.6608, 17533.92
557.1429, 17496.14
557.6250, 17502.58
558.1071, 17546.49
558.5892, 17573.57
559.0714, 17578.86
559.5535, 17566.45
560.0356, 17527.27
560.5177, 17473.65
560.9998, 17445.53
561.4819, 17459.84
561.9641, 17470.34
562.4462, 17447.27
562.9283, 17422.58
563.4104, 17442.30
563.8925, 17501.01
564.3746, 17546.60
564.8568, 17539.30
565.3389, 17492.81
565.8210, 17459.56
566.3031, 17439.50
566.7852, 17432.97
567.2673, 17463.78
567.7495, 17488.86
568.2316, 17473.67
568.7137, 17425.71
569.1958, 17384.01
569.6779, 17358.68
570.1600, 17352.30
570.6422, 17379.85
571.1243, 17429.91
571.6064, 17466.58
572.0885, 17479.60
572.5706, 17467.63
573.0527, 17423.07
573.5349, 17338.79
574.0170, 17288.80
574.4991, 17289.01
574.9812, 17302.07
575.4633, 17335.21
575.9454, 17367.79
576.4276, 17372.21
576.9097, 17344.80
577.3918, 17315.98
577.8739, 17317.99
578.3560, 17340.62
578.8381, 17346.66
579.3203, 17333.18
579.8024, 17325.85
580.2845, 17341.73
580.7666, 17365.85
581.2487, 17363.60
581.7308, 17323.15
582.2130, 17309.23
582.6951, 17360.44
583.1772, 17414.01
583.6593, 17430.63
584.1414, 17416.01
584.6235, 17383.99
585.1057, 17340.66
585.5878, 17302.00
586.0699, 17300.39
586.5520, 17340.79
587.0341, 17359.71
587.5162, 17349.42
587.9984, 17325.12
588.4805, 17278.49
588.9626, 17228.04
589.4447, 17208.30
589.9268, 17235.74
590.4089, 17262.08
590.8911, 17268.97
591.3732, 17259.05
591.8553, 17220.34
592.3374, 17162.02
592.8195, 17135.71
593.3016, 17181.84
593.7838, 17266.40
594.2659, 17276.54
594.7480, 17159.21
595.2301, 17093.60
595.7122, 17149.37
596.1943, 17210.59
596.6765, 17216.19
597.1586, 17181.24
597.6407, 17150.61
598.1228, 17142.63
598.6049, 17140.69
599.0870, 17126.44
599.5692, 17106.79
600.0513, 17102.86
600.5334, 17118.74
601.0155, 17133.48
601.4976, 17126.42
601.9797, 17102.52
602.4619, 17102.83
602.9440, 17166.95
603.4261, 17200.76
603.9082, 17179.89
604.3903, 17140.50
604.8724, 17101.28
605.3546, 17067.99
605.8367, 17047.61
606.3188, 17047.45
606.8009, 17057.63
607.2830, 17063.69
607.7651, 17066.34
608.2473, 17073.75
608.7294, 17090.65
609.2115, 17101.45
609.6936, 17085.82
610.1757, 17043.65
610.6578, 17024.73
611.1400, 17056.43
611.6221, 17074.49
612.1042, 17049.52
612.5863, 17012.98
613.0684, 16994.71
613.5505, 16998.93
614.0327, 17016.97
614.5148, 17054.00
614.9969, 17090.53
615.4790, 17065.40
615.9611, 16974.89
616.4432, 16907.81
616.9254, 16893.33
617.4075, 16905.31
617.8896, 16920.88
618.3717, 16940.16
618.8538, 16948.26
619.3359, 16941.88
619.8181, 16927.42
620.3002, 16892.04
620.7823, 16857.52
621.2644, 16854.01
621.7465, 16884.69
622.2286, 16926.08
622.7108, 16960.18
623.1929, 16986.80
623.6750, 17004.75
624.1571, 17014.07
624.6392, 17014.70
625.1213, 17007.43
625.6035, 16990.47
626.0856, 16951.40
626.5677, 16891.80
627.0498, 16860.67
627.5319, 16899.87
628.0140, 16931.22
628.4962, 16900.81
628.9783, 16843.49
629.4604, 16809.44
629.9425, 16810.88
630.4246, 16832.09
630.9067, 16863.37
631.3889, 16900.37
631.8710, 16918.65
632.3531, 16915.89
632.8352, 16902.73
633.3173, 16874.23
633.7994, 16844.32
634.2816, 16829.94
634.7637, 16830.21
635.2458, 16828.61
635.7279, 16814.90
636.2100, 16805.96
636.6921, 16822.39
637.1743, 16845.70
637.6564, 16842.44
638.1385, 16807.27
638.6206, 16767.67
639.1027, 16751.03
639.5848, 16753.86
640.0670, 16757.08
640.5491, 16763.14
641.0312, 16759.43
641.5133, 16727.30
641.9954, 16698.66
642.4775, 16718.29
642.9597, 16780.56
643.4418, 16812.69
643.9239, 16776.68
644.4060, 16731.46
644.8881, 16696.27
645.3702, 16677.93
645.8524, 16700.32
646.3345, 16760.16
646.8166, 16803.96
647.2987, 16775.27
647.7808, 16692.96
648.2629, 16647.95
648.7451, 16649.31
649.2272, 16652.51
649.7093, 16642.50
650.1914, 16634.80
650.6735, 16652.24
651.1556, 16689.38
651.6378, 16706.51
652.1199, 16680.21
652.6020, 16651.66
653.0841, 16641.13
653.5662, 16639.32
654.0483, 16630.62
654.5305, 16614.72
655.0126, 16608.77
655.4947, 16631.07
655.9768, 16667.86
656.4589, 16667.82
656.9410, 16622.75
657.4232, 16593.66
657.9053, 16605.68
658.3874, 16619.26
658.8695, 16587.79
659.3516, 16524.23
659.8337, 16488.04
660.3159, 16506.40
660.7980, 16525.54
661.2801, 16529.48
661.7622, 16523.82
662.2443, 16508.81
662.7264, 16489.09
663.2086, 16478.94
663.6907, 16489.74
664.1728, 16510.51
664.6549, 16514.90
665.1370, 16502.13
665.6191, 16500.66
666.1013, 16519.66
666.5834, 16539.56
667.0655, 16550.03
667.5476, 16549.18
668.0297, 16530.88
668.5118, 16474.84
668.9940, 16434.48
669.4761, 16426.55
669.9582, 16432.73
670.4403, 16439.15
670.9224, 16446.70
671.4045, 16468.31
671.8867, 16513.82
672.3688, 16550.94
672.8509, 16518.10
673.3330, 16428.57
673.8151, 16382.41
674.2972, 16394.64
674.7794, 16418.29
675.2615, 16431.77
675.7436, 16432.99
676.2257, 16414.28
676.7078, 16357.29
677.1899, 16320.58
677.6721, 16316.49
678.1542, 16321.90
678.6363, 16331.57
679.1184, 16340.21
679.6005, 16337.92
680.0826, 16321.60
680.5648, 16309.20
681.0469, 16327.55
681.5290, 16359.96
682.0111, 16362.27
682.4932, 16334.35
682.9753, 16307.35
683.4575, 16293.95
683.9396, 16290.67
684.4217, 16294.77
684.9038, 16311.54
685.3859, 16307.28
685.8680, 16253.50
686.3502, 16212.71
686.8323, 16203.87
687.3144, 16212.91
687.7965, 16230.19
688.2786, 16252.29
688.7607, 16267.03
689.2429, 16266.20
689.7250, 16255.47
690.2071, 16233.85
690.6892, 16207.73
691.1713, 16199.41
691.6534, 16214.45
692.1356, 16228.47
692.6177, 16211.81
693.0998, 16172.45
693.5819, 16189.73
694.0640, 16312.56
694.5461, 16383.15
695.0283, 16333.03
695.5104, 16256.60
695.9925, 16210.71
696.4746, 16192.48
696.9567, 16185.82
697.4388, 16193.01
697.9210, 16201.52
698.4031, 16203.69
698.8852, 16203.98
699.3673, 16204.88
699.8494, 16208.90
700.3315, 16226.28
700.8137, 16266.04
701.2958, 16308.52
701.7779, 16310.99
702.2600, 16271.87
702.7421, 16223.17
703.2242, 16157.62
703.7064, 16108.46
704.1885, 16098.12
704.6706, 16116.83
705.1527, 16143.70
705.6348, 16188.11
706.1169, 16213.45
706.5991, 16205.35
707.0812, 16186.34
707.5633, 16171.95
708.0454, 16155.34
708.5275, 16114.95
709.0096, 16046.46
709.4918, 15991.32
709.9739, 16003.92
710.4560, 16055.98
710.9381, 16074.70
711.4202, 16060.69
711.9023, 16039.12
712.3845, 16015.95
712.8666, 16001.54
713.3487, 16011.33
713.8308, 16046.97
714.3129, 16071.84
714.7950, 16083.45
715.2772, 16086.98
715.7593, 16079.92
716.2414, 16067.88
716.7235, 16050.26
717.2056, 16030.78
717.6877, 16024.03
718.1699, 16052.23
718.6520, 16071.48
719.1341, 16034.16
719.6162, 15969.05
720.0983, 15918.15
720.5804, 15890.37
721.0626, 15893.60
721.5447, 15937.84
722.0268, 15997.20
722.5089, 16001.82
722.9910, 15940.13
723.4731, 15904.72
723.9553, 15910.29
724.4374, 15927.37
724.9195, 15946.40
725.4016, 15963.30
725.8837, 15969.70
726.3658, 15962.81
726.8480, 15954.87
