##NAMES=Planerite
##RRUFFID=R080123
##IDEAL CHEMISTRY=Al_6_(PO_4_)_2_(PO_3_OH)_2_(OH)_8_&#183;4H_2_O
##LOCALITY=Bruguers, Gav√°, Barcelona, Catalonia, Spain
##OWNER=RRUFF
##SOURCE=Joan Abella i Creus
##DESCRIPTION=Light green, microcrystalline fragments
##STATUS=The identification of this mineral has been confirmed only by X-ray diffraction
##URL=rruff.info/R080123
92.35352, 64.82754
92.83563, 60.18929
93.31775, 58.21462
93.79987, 59.54823
94.28198, 63.63218
94.76410, 68.87676
95.24622, 74.84093
95.72833, 81.90815
96.21045, 90.86592
96.69257, 101.7921
97.17468, 113.9537
97.65680, 126.1693
98.13892, 138.5213
98.62103, 153.1712
99.10315, 170.7939
99.58527, 191.1320
100.0674, 211.7786
100.5495, 232.7026
101.0316, 253.6106
101.5137, 273.5360
101.9958, 292.1773
102.4780, 311.3977
102.9601, 331.9544
103.4422, 354.2169
103.9243, 374.9699
104.4064, 392.8890
104.8885, 410.2485
105.3707, 432.1252
105.8528, 462.0205
106.3349, 491.2622
106.8170, 516.4031
107.2991, 535.9095
107.7813, 554.1570
108.2634, 570.1765
108.7455, 584.8813
109.2276, 600.7348
109.7097, 617.8578
110.1918, 636.2105
110.6740, 655.8082
111.1561, 677.1464
111.6382, 699.1741
112.1203, 722.0944
112.6024, 745.9244
113.0845, 769.4716
113.5667, 793.6999
114.0488, 816.8679
114.5309, 838.0674
115.0130, 854.8066
115.4951, 871.4731
115.9772, 889.7740
116.4594, 909.8282
116.9415, 929.1561
117.4236, 945.8549
117.9057, 961.6957
118.3878, 978.5007
118.8699, 998.0060
119.3521, 1018.042
119.8342, 1037.543
120.3163, 1056.378
120.7984, 1075.342
121.2805, 1094.788
121.7626, 1114.700
122.2448, 1135.046
122.7269, 1155.400
123.2090, 1176.381
123.6911, 1199.074
124.1732, 1224.050
124.6553, 1248.816
125.1375, 1270.489
125.6196, 1289.878
126.1017, 1309.553
126.5838, 1332.106
127.0659, 1355.812
127.5480, 1377.490
128.0302, 1396.403
128.5123, 1414.082
128.9944, 1432.645
129.4765, 1451.983
129.9586, 1471.105
130.4407, 1489.431
130.9229, 1506.979
131.4050, 1524.020
131.8871, 1540.402
132.3692, 1556.045
132.8513, 1570.010
133.3334, 1579.698
133.8156, 1582.064
134.2977, 1580.408
134.7798, 1580.203
135.2619, 1580.652
135.7440, 1582.053
136.2261, 1583.999
136.7083, 1584.252
137.1904, 1582.471
137.6725, 1580.309
138.1546, 1579.282
138.6367, 1579.413
139.1188, 1580.642
139.6010, 1583.542
140.0831, 1588.124
140.5652, 1590.457
141.0473, 1589.783
141.5294, 1587.982
142.0115, 1587.487
142.4937, 1588.646
142.9758, 1590.130
143.4579, 1591.486
143.9400, 1592.528
144.4221, 1594.094
144.9042, 1596.281
145.3864, 1598.841
145.8685, 1601.368
146.3506, 1604.131
146.8327, 1606.466
147.3148, 1608.115
147.7969, 1608.670
148.2791, 1609.461
148.7612, 1611.184
149.2433, 1613.103
149.7254, 1613.479
150.2075, 1610.642
150.6896, 1607.774
151.1718, 1606.088
151.6539, 1606.726
152.1360, 1606.904
152.6181, 1606.221
153.1002, 1604.998
153.5823, 1604.196
154.0645, 1604.270
154.5466, 1604.468
155.0287, 1604.436
155.5108, 1604.060
155.9929, 1603.496
156.4750, 1602.658
156.9572, 1601.591
157.4393, 1600.546
157.9214, 1599.087
158.4035, 1597.922
158.8856, 1597.486
159.3677, 1598.558
159.8499, 1599.681
160.3320, 1600.172
160.8141, 1600.217
161.2962, 1600.955
161.7783, 1603.716
162.2604, 1606.923
162.7426, 1609.274
163.2247, 1609.551
163.7068, 1609.639
164.1889, 1610.363
164.6710, 1611.690
165.1531, 1613.121
165.6353, 1614.420
166.1174, 1615.679
166.5995, 1616.995
167.0816, 1618.467
167.5637, 1619.932
168.0458, 1621.208
168.5280, 1622.274
169.0101, 1623.457
169.4922, 1624.634
169.9743, 1626.094
170.4564, 1628.244
170.9385, 1631.955
171.4207, 1636.003
171.9028, 1639.341
172.3849, 1641.904
172.8670, 1644.096
173.3491, 1646.072
173.8312, 1647.926
174.3134, 1649.837
174.7955, 1653.004
175.2776, 1655.784
175.7597, 1655.750
176.2418, 1652.527
176.7239, 1648.678
177.2061, 1646.529
177.6882, 1645.610
178.1703, 1644.675
178.6524, 1643.100
179.1345, 1641.113
179.6166, 1639.020
180.0988, 1636.766
180.5809, 1634.672
181.0630, 1633.104
181.5451, 1631.991
182.0272, 1631.128
182.5093, 1630.219
182.9915, 1629.467
183.4736, 1629.493
183.9557, 1630.446
184.4378, 1631.736
184.9199, 1632.400
185.4020, 1632.552
185.8842, 1633.149
186.3663, 1634.730
186.8484, 1637.186
187.3305, 1640.344
187.8126, 1644.532
188.2947, 1648.623
188.7769, 1650.285
189.2590, 1649.656
189.7411, 1649.486
190.2232, 1651.970
190.7053, 1656.591
191.1874, 1659.939
191.6696, 1661.566
192.1517, 1662.245
192.6338, 1663.142
193.1159, 1664.242
193.5980, 1665.960
194.0801, 1669.184
194.5623, 1673.707
195.0444, 1676.538
195.5265, 1676.935
196.0086, 1676.131
196.4907, 1676.630
196.9728, 1678.490
197.4550, 1681.074
197.9371, 1684.188
198.4192, 1687.837
198.9013, 1691.498
199.3834, 1695.315
199.8655, 1698.910
200.3477, 1701.086
200.8298, 1701.482
201.3119, 1702.082
201.7940, 1704.665
202.2761, 1709.573
202.7582, 1712.568
203.2404, 1712.875
203.7225, 1711.377
204.2046, 1710.578
204.6867, 1710.746
205.1688, 1710.738
205.6509, 1709.507
206.1331, 1706.677
206.6152, 1705.177
207.0973, 1705.603
207.5794, 1707.340
208.0615, 1708.525
208.5436, 1709.059
209.0258, 1709.298
209.5079, 1709.347
209.9900, 1709.091
210.4721, 1709.133
210.9542, 1709.469
211.4363, 1710.130
211.9185, 1711.361
212.4006, 1713.446
212.8827, 1715.459
213.3648, 1716.829
213.8469, 1717.520
214.3290, 1717.692
214.8112, 1717.213
215.2933, 1716.238
215.7754, 1715.135
216.2575, 1713.437
216.7396, 1712.467
217.2217, 1713.179
217.7038, 1716.132
218.1860, 1719.098
218.6681, 1722.205
219.1502, 1725.169
219.6323, 1726.685
220.1144, 1725.964
220.5965, 1725.155
221.0787, 1725.575
221.5608, 1727.781
222.0429, 1729.714
222.5250, 1731.026
223.0071, 1732.030
223.4892, 1733.807
223.9714, 1736.600
224.4535, 1739.855
224.9356, 1743.429
225.4177, 1747.672
225.8998, 1751.319
226.3819, 1753.977
226.8641, 1756.048
227.3462, 1758.808
227.8283, 1762.293
228.3104, 1766.371
228.7925, 1771.109
229.2746, 1777.384
229.7568, 1782.378
230.2389, 1785.696
230.7210, 1787.743
231.2031, 1789.766
231.6852, 1792.113
232.1673, 1793.903
232.6495, 1794.712
233.1316, 1794.505
233.6137, 1793.333
234.0958, 1790.844
234.5779, 1787.481
235.0600, 1784.517
235.5422, 1782.118
236.0243, 1779.848
236.5064, 1777.456
236.9885, 1774.627
237.4706, 1772.441
237.9527, 1771.347
238.4349, 1770.803
238.9170, 1769.344
239.3991, 1766.109
239.8812, 1763.238
240.3633, 1761.730
240.8454, 1762.300
241.3276, 1762.453
241.8097, 1762.008
242.2918, 1761.212
242.7739, 1760.660
243.2560, 1760.680
243.7381, 1760.447
244.2203, 1759.675
244.7024, 1758.356
245.1845, 1756.480
245.6666, 1753.632
246.1487, 1750.440
246.6308, 1748.056
247.1130, 1746.701
247.5951, 1745.794
248.0772, 1745.268
248.5593, 1745.371
249.0414, 1744.931
249.5235, 1743.922
250.0057, 1742.370
250.4878, 1740.104
250.9699, 1736.227
251.4520, 1733.214
251.9341, 1732.110
252.4162, 1733.420
252.8984, 1734.113
253.3805, 1734.206
253.8626, 1733.654
254.3447, 1732.096
254.8268, 1728.263
255.3089, 1726.008
255.7911, 1726.988
256.2732, 1731.775
256.7553, 1734.936
257.2374, 1736.035
257.7195, 1735.942
258.2017, 1735.621
258.6838, 1734.862
259.1659, 1734.367
259.6480, 1734.340
260.1301, 1734.795
260.6122, 1735.444
261.0944, 1736.613
261.5765, 1737.582
262.0586, 1737.428
262.5407, 1735.608
263.0228, 1734.203
263.5049, 1733.724
263.9871, 1734.143
264.4692, 1734.754
264.9513, 1735.680
265.4334, 1736.625
265.9155, 1737.286
266.3976, 1737.529
266.8798, 1737.916
267.3619, 1738.639
267.8440, 1739.619
268.3261, 1739.955
268.8082, 1739.100
269.2903, 1738.731
269.7725, 1740.602
270.2546, 1745.366
270.7367, 1749.201
271.2188, 1751.467
271.7009, 1752.382
272.1830, 1752.699
272.6652, 1752.120
273.1473, 1751.731
273.6294, 1752.305
274.1115, 1753.952
274.5936, 1755.965
275.0757, 1758.458
275.5579, 1761.142
276.0400, 1763.112
276.5221, 1764.282
277.0042, 1765.016
277.4863, 1765.295
277.9684, 1765.038
278.4506, 1765.304
278.9327, 1766.096
279.4148, 1767.537
279.8969, 1770.344
280.3790, 1774.818
280.8611, 1778.648
281.3433, 1780.041
281.8254, 1779.040
282.3075, 1780.027
282.7896, 1783.853
283.2717, 1788.152
283.7538, 1788.563
284.2360, 1784.935
284.7181, 1781.591
285.2002, 1780.303
285.6823, 1780.958
286.1644, 1782.857
286.6465, 1786.243
287.1287, 1789.891
287.6108, 1792.152
288.0929, 1793.076
288.5750, 1793.737
289.0571, 1794.155
289.5392, 1794.610
290.0214, 1796.566
290.5035, 1800.188
290.9856, 1803.879
291.4677, 1805.698
291.9498, 1805.953
292.4319, 1806.506
292.9141, 1808.115
293.3962, 1810.305
293.8783, 1811.964
294.3604, 1813.092
294.8425, 1814.069
295.3246, 1815.362
295.8068, 1816.829
296.2889, 1817.823
296.7710, 1817.832
297.2531, 1817.768
297.7352, 1819.573
298.2173, 1823.014
298.6995, 1826.179
299.1816, 1826.885
299.6637, 1826.343
300.1458, 1827.314
300.6279, 1830.807
301.1100, 1834.778
301.5922, 1835.905
302.0743, 1834.957
302.5564, 1835.107
303.0385, 1840.017
303.5206, 1846.559
304.0027, 1850.108
304.4849, 1849.633
304.9670, 1847.740
305.4491, 1846.048
305.9312, 1844.791
306.4133, 1844.536
306.8954, 1846.167
307.3776, 1848.660
307.8597, 1851.006
308.3418, 1853.171
308.8239, 1855.409
309.3060, 1858.529
309.7881, 1861.816
310.2703, 1864.031
310.7524, 1863.459
311.2345, 1862.595
311.7166, 1863.229
312.1987, 1865.363
312.6808, 1867.974
313.1630, 1870.572
313.6451, 1873.309
314.1272, 1876.368
314.6093, 1879.904
315.0914, 1883.592
315.5735, 1887.236
316.0557, 1890.839
316.5378, 1894.487
317.0199, 1898.314
317.5020, 1902.124
317.9841, 1905.836
318.4662, 1909.361
318.9484, 1912.786
319.4305, 1916.458
319.9126, 1920.092
320.3947, 1922.930
320.8768, 1924.149
321.3589, 1924.988
321.8411, 1925.916
322.3232, 1926.627
322.8053, 1928.310
323.2874, 1932.155
323.7695, 1936.930
324.2516, 1940.678
324.7338, 1942.231
325.2159, 1943.504
325.6980, 1945.013
326.1801, 1946.795
326.6622, 1948.765
327.1443, 1951.244
327.6265, 1953.787
328.1086, 1955.958
328.5907, 1957.355
329.0728, 1958.828
329.5549, 1960.842
330.0370, 1963.427
330.5192, 1964.727
331.0013, 1963.518
331.4834, 1962.088
331.9655, 1962.198
332.4476, 1966.081
332.9297, 1967.585
333.4119, 1965.277
333.8940, 1960.082
334.3761, 1956.057
334.8582, 1953.600
335.3403, 1951.765
335.8224, 1950.160
336.3046, 1948.894
336.7867, 1947.459
337.2688, 1945.841
337.7509, 1944.021
338.2330, 1941.900
338.7151, 1939.431
339.1973, 1936.867
339.6794, 1934.199
340.1615, 1931.443
340.6436, 1929.146
341.1257, 1927.483
341.6078, 1926.048
342.0899, 1924.566
342.5721, 1923.155
343.0542, 1920.786
343.5363, 1916.561
344.0184, 1911.246
344.5005, 1908.551
344.9826, 1908.842
345.4648, 1909.309
345.9469, 1906.505
346.4290, 1901.008
346.9111, 1897.970
347.3932, 1899.046
347.8753, 1902.034
348.3575, 1902.709
348.8396, 1901.195
349.3217, 1899.245
349.8038, 1897.564
350.2859, 1896.306
350.7680, 1896.086
351.2502, 1897.158
351.7323, 1898.471
352.2144, 1898.974
352.6965, 1898.762
353.1786, 1898.104
353.6607, 1897.365
354.1429, 1896.193
354.6250, 1893.695
355.1071, 1889.807
355.5892, 1886.483
356.0713, 1885.848
356.5534, 1886.655
357.0356, 1887.046
357.5177, 1886.144
357.9998, 1884.787
358.4819, 1883.333
358.9640, 1881.852
359.4461, 1880.770
359.9283, 1880.893
360.4104, 1881.178
360.8925, 1880.589
361.3746, 1877.910
361.8567, 1875.982
362.3388, 1876.416
362.8210, 1878.435
363.3031, 1880.297
363.7852, 1881.463
364.2673, 1882.320
364.7494, 1883.176
365.2315, 1884.311
365.7137, 1884.519
366.1958, 1882.442
366.6779, 1879.707
367.1600, 1878.209
367.6421, 1878.996
368.1242, 1880.178
368.6064, 1881.799
369.0885, 1883.925
369.5706, 1884.791
370.0527, 1883.128
370.5348, 1881.216
371.0169, 1880.508
371.4991, 1881.346
371.9812, 1882.932
372.4633, 1885.889
372.9454, 1889.563
373.4275, 1891.468
373.9096, 1890.871
374.3918, 1889.834
374.8739, 1889.030
375.3560, 1888.122
375.8381, 1889.113
376.3202, 1892.674
376.8023, 1897.228
377.2845, 1900.327
377.7666, 1901.714
378.2487, 1902.819
378.7308, 1904.027
379.2129, 1905.310
379.6950, 1906.278
380.1772, 1906.818
380.6593, 1907.614
381.1414, 1909.458
381.6235, 1912.234
382.1056, 1915.137
382.5877, 1918.154
383.0699, 1920.978
383.5520, 1922.927
384.0341, 1924.074
384.5162, 1924.947
384.9983, 1926.087
385.4804, 1927.182
385.9626, 1927.411
386.4447, 1926.566
386.9268, 1925.524
387.4089, 1924.912
387.8910, 1924.769
388.3731, 1925.208
388.8553, 1926.926
389.3374, 1928.824
389.8195, 1929.945
390.3016, 1930.264
390.7837, 1929.912
391.2658, 1927.974
391.7480, 1925.829
392.2301, 1925.003
392.7122, 1926.956
393.1943, 1928.904
393.6764, 1929.255
394.1585, 1928.554
394.6407, 1928.306
395.1228, 1929.690
395.6049, 1931.175
396.0870, 1931.968
396.5691, 1931.765
397.0512, 1931.588
397.5334, 1931.055
398.0155, 1930.839
398.4976, 1931.781
398.9797, 1935.201
399.4618, 1938.421
399.9439, 1940.679
400.4261, 1941.959
400.9082, 1943.971
401.3903, 1947.168
401.8724, 1950.608
402.3545, 1953.589
402.8366, 1955.319
403.3188, 1958.293
403.8009, 1963.152
404.2830, 1969.116
404.7651, 1974.144
405.2472, 1977.854
405.7293, 1981.615
406.2115, 1986.171
406.6936, 1991.532
407.1757, 1996.080
407.6578, 1999.620
408.1399, 2002.943
408.6220, 2007.032
409.1042, 2011.881
409.5863, 2016.806
410.0684, 2021.410
410.5505, 2026.141
411.0326, 2032.737
411.5147, 2041.164
411.9969, 2049.383
412.4790, 2056.181
412.9611, 2061.778
413.4432, 2066.369
413.9253, 2069.826
414.4074, 2073.140
414.8896, 2077.915
415.3717, 2083.425
415.8538, 2087.912
416.3359, 2089.959
416.8180, 2090.940
417.3001, 2092.035
417.7823, 2093.261
418.2644, 2094.056
418.7465, 2094.938
419.2286, 2094.837
419.7107, 2092.538
420.1928, 2085.353
420.6750, 2079.060
421.1571, 2076.821
421.6392, 2077.177
422.1213, 2076.424
422.6034, 2072.299
423.0855, 2067.968
423.5677, 2064.769
424.0498, 2063.195
424.5319, 2061.509
425.0140, 2060.515
425.4961, 2058.941
425.9782, 2055.362
426.4604, 2047.080
426.9425, 2040.861
427.4246, 2038.291
427.9067, 2038.818
428.3888, 2038.620
428.8709, 2037.268
429.3531, 2035.963
429.8352, 2035.205
430.3173, 2034.875
430.7994, 2036.015
431.2815, 2039.346
431.7636, 2042.968
432.2458, 2043.425
432.7279, 2040.517
433.2100, 2037.324
433.6921, 2034.511
434.1742, 2032.265
434.6563, 2031.786
435.1385, 2033.114
435.6206, 2034.467
436.1027, 2034.319
436.5848, 2033.010
437.0669, 2031.384
437.5490, 2029.495
438.0312, 2027.647
438.5133, 2026.235
438.9954, 2025.162
439.4775, 2024.108
439.9596, 2023.298
440.4417, 2022.242
440.9239, 2020.184
441.4060, 2017.097
441.8881, 2014.482
442.3702, 2013.151
442.8523, 2012.765
443.3344, 2013.004
443.8166, 2014.446
444.2987, 2015.694
444.7808, 2016.438
445.2629, 2016.647
445.7450, 2016.260
446.2271, 2014.866
446.7093, 2013.184
447.1914, 2011.246
447.6735, 2008.580
448.1556, 2007.219
448.6377, 2007.775
449.1198, 2009.224
449.6020, 2010.614
450.0841, 2012.004
450.5662, 2013.139
451.0483, 2013.778
451.5304, 2014.153
452.0125, 2015.404
452.4947, 2017.854
452.9768, 2020.220
453.4589, 2021.645
453.9410, 2022.097
454.4231, 2023.075
454.9052, 2024.763
455.3874, 2026.459
455.8695, 2026.968
456.3516, 2026.496
456.8337, 2026.641
457.3158, 2028.302
457.7979, 2030.564
458.2801, 2031.569
458.7622, 2031.509
459.2443, 2031.727
459.7264, 2033.852
460.2085, 2036.566
460.6906, 2037.816
461.1728, 2036.973
461.6549, 2036.402
462.1370, 2038.549
462.6191, 2041.911
463.1012, 2044.224
463.5833, 2044.015
464.0655, 2043.169
464.5476, 2042.247
465.0297, 2041.297
465.5118, 2040.597
465.9939, 2040.902
466.4760, 2040.950
466.9582, 2040.003
467.4403, 2037.375
467.9224, 2034.795
468.4045, 2032.147
468.8866, 2029.632
469.3687, 2027.556
469.8509, 2026.329
470.3330, 2024.891
470.8151, 2023.004
471.2972, 2020.714
471.7793, 2018.312
472.2614, 2015.654
472.7436, 2013.269
473.2257, 2011.441
473.7078, 2010.168
474.1899, 2009.775
474.6720, 2010.491
475.1541, 2011.494
475.6363, 2011.438
476.1184, 2010.479
476.6005, 2009.635
477.0826, 2009.107
477.5647, 2009.052
478.0468, 2010.463
478.5290, 2013.075
479.0111, 2014.468
479.4932, 2011.472
479.9753, 2006.933
480.4574, 2004.287
480.9395, 2004.494
481.4217, 2005.484
481.9038, 2006.491
482.3859, 2007.355
482.8680, 2007.820
483.3501, 2007.505
483.8322, 2007.039
484.3144, 2006.553
484.7965, 2006.054
485.2786, 2005.654
485.7607, 2005.762
486.2428, 2005.622
486.7249, 2004.750
487.2071, 2002.355
487.6892, 2001.033
488.1713, 2001.712
488.6534, 2002.847
489.1355, 2001.906
489.6176, 1997.898
490.0998, 1994.890
490.5819, 1994.135
491.0640, 1995.159
491.5461, 1995.547
492.0282, 1995.311
492.5103, 1994.621
492.9925, 1993.186
493.4746, 1991.271
493.9567, 1990.363
494.4388, 1990.606
494.9209, 1991.480
495.4030, 1992.570
495.8852, 1993.789
496.3673, 1994.967
496.8494, 1995.648
497.3315, 1996.534
497.8136, 1998.466
498.2957, 2001.225
498.7779, 2003.914
499.2600, 2006.589
499.7421, 2008.681
500.2242, 2009.608
500.7063, 2009.042
501.1884, 2008.628
501.6706, 2009.576
502.1527, 2010.653
502.6348, 2010.597
503.1169, 2007.287
503.5990, 2005.261
504.0811, 2005.443
504.5633, 2007.328
505.0454, 2009.152
505.5275, 2011.280
506.0096, 2012.657
506.4917, 2012.519
506.9738, 2010.637
507.4560, 2010.054
507.9381, 2011.038
508.4202, 2012.570
508.9023, 2013.867
509.3844, 2014.899
509.8665, 2015.045
510.3487, 2013.883
510.8308, 2012.366
511.3129, 2012.064
511.7950, 2012.839
512.2772, 2014.020
512.7593, 2016.000
513.2414, 2017.798
513.7235, 2017.937
514.2056, 2016.464
514.6877, 2014.974
515.1699, 2013.958
515.6520, 2013.647
516.1341, 2014.448
516.6162, 2017.428
517.0983, 2019.549
517.5804, 2019.057
518.0626, 2017.208
518.5447, 2016.071
519.0268, 2016.736
519.5089, 2017.293
519.9910, 2017.078
520.4731, 2016.176
520.9553, 2016.211
521.4374, 2018.029
521.9195, 2019.550
522.4016, 2019.292
522.8837, 2016.665
523.3658, 2015.732
523.8480, 2017.083
524.3301, 2019.021
524.8122, 2019.195
525.2943, 2017.722
525.7764, 2016.065
526.2585, 2014.402
526.7407, 2013.064
527.2228, 2012.747
527.7049, 2013.347
528.1870, 2014.215
528.6691, 2015.680
529.1512, 2016.820
529.6334, 2016.002
530.1155, 2013.006
530.5976, 2010.718
531.0797, 2011.087
531.5618, 2012.837
532.0439, 2014.749
532.5261, 2017.088
533.0082, 2018.722
533.4903, 2018.898
533.9724, 2018.211
534.4545, 2017.954
534.9366, 2018.492
535.4188, 2019.206
535.9009, 2020.114
536.3830, 2021.215
536.8651, 2021.834
537.3472, 2021.845
537.8293, 2021.705
538.3115, 2021.668
538.7936, 2021.749
539.2757, 2022.077
539.7578, 2022.673
540.2399, 2023.529
540.7220, 2024.627
541.2042, 2025.961
541.6863, 2027.560
542.1684, 2029.388
542.6505, 2031.534
543.1326, 2034.678
543.6147, 2038.395
544.0969, 2041.166
544.5790, 2041.145
545.0611, 2040.343
545.5432, 2040.543
546.0253, 2041.946
546.5074, 2042.993
546.9896, 2042.317
547.4717, 2041.408
547.9538, 2041.505
548.4359, 2044.458
548.9180, 2046.191
549.4001, 2045.451
549.8823, 2043.637
550.3644, 2043.212
550.8465, 2045.236
551.3286, 2046.664
551.8107, 2046.577
552.2928, 2045.217
552.7750, 2044.288
553.2571, 2043.815
553.7392, 2043.649
554.2213, 2043.815
554.7034, 2044.236
555.1855, 2044.712
555.6677, 2045.320
556.1498, 2045.237
556.6319, 2042.439
557.1140, 2038.417
557.5961, 2036.477
558.0782, 2038.604
558.5604, 2041.312
559.0425, 2041.230
559.5246, 2039.571
560.0067, 2039.049
560.4888, 2042.285
560.9709, 2045.532
561.4531, 2046.970
561.9352, 2046.543
562.4173, 2046.045
562.8994, 2045.428
563.3815, 2045.058
563.8636, 2045.169
564.3458, 2046.031
564.8279, 2046.779
565.3100, 2047.699
565.7921, 2048.184
566.2742, 2047.123
566.7563, 2044.297
567.2385, 2042.085
567.7206, 2040.950
568.2027, 2040.801
568.6848, 2041.915
569.1669, 2044.115
569.6490, 2045.945
570.1312, 2046.278
570.6133, 2045.949
571.0954, 2046.145
571.5775, 2046.865
572.0596, 2047.715
572.5417, 2048.625
573.0239, 2049.440
573.5060, 2049.924
573.9881, 2049.781
574.4702, 2050.038
574.9523, 2051.462
575.4344, 2053.311
575.9166, 2054.632
576.3987, 2054.954
576.8808, 2055.338
577.3629, 2056.021
577.8450, 2056.834
578.3271, 2057.096
578.8093, 2056.345
579.2914, 2057.945
579.7735, 2058.975
580.2556, 2059.466
580.7377, 2057.803
581.2198, 2058.922
581.7020, 2058.926
582.1841, 2058.884
582.6662, 2060.394
583.1483, 2059.044
583.6304, 2060.529
584.1125, 2060.883
584.5947, 2061.754
585.0768, 2061.504
585.5589, 2061.601
586.0410, 2062.819
586.5231, 2063.621
587.0052, 2063.808
587.4873, 2065.356
587.9694, 2064.688
588.4515, 2066.059
588.9337, 2068.899
589.4158, 2070.375
589.8979, 2070.491
