##NAMES=Planerite
##RRUFFID=R080123
##IDEAL CHEMISTRY=Al_6_(PO_4_)_2_(PO_3_OH)_2_(OH)_8_&#183;4H_2_O
##LOCALITY=Bruguers, Gav√°, Barcelona, Catalonia, Spain
##OWNER=RRUFF
##SOURCE=Joan Abella i Creus
##DESCRIPTION=Light green, microcrystalline fragments
##STATUS=The identification of this mineral has been confirmed only by X-ray diffraction
##URL=rruff.info/R080123
92.52344, 158.9915
93.00555, 158.0965
93.48767, 158.3204
93.96979, 162.9742
94.45190, 167.6200
94.93402, 171.6936
95.41614, 173.0128
95.89825, 172.3147
96.38037, 171.0001
96.86249, 169.3062
97.34460, 168.1331
97.82672, 168.1101
98.30884, 168.0576
98.79095, 168.1839
99.27307, 167.9770
99.75519, 166.6021
100.2373, 163.8453
100.7194, 160.2545
101.2015, 157.8704
101.6837, 157.4750
102.1658, 157.4547
102.6479, 156.3840
103.1300, 154.1089
103.6121, 152.1100
104.0942, 151.7399
104.5764, 152.3535
105.0585, 153.1412
105.5406, 153.9681
106.0227, 154.7624
106.5048, 155.3074
106.9869, 155.5836
107.4691, 155.4962
107.9512, 155.0035
108.4333, 154.1637
108.9154, 153.1202
109.3975, 151.9346
109.8796, 150.5632
110.3618, 149.2949
110.8439, 148.1082
111.3260, 147.0224
111.8081, 145.9671
112.2902, 144.9827
112.7723, 144.2310
113.2544, 143.9792
113.7366, 144.6732
114.2187, 145.0602
114.7008, 144.6549
115.1829, 144.2027
115.6650, 144.5937
116.1471, 146.1600
116.6293, 148.1725
117.1114, 148.8000
117.5935, 147.3245
118.0756, 146.0466
118.5577, 145.3841
119.0398, 145.3000
119.5220, 145.8399
120.0041, 147.3826
120.4862, 149.2342
120.9683, 149.8365
121.4504, 148.4693
121.9325, 147.0791
122.4147, 147.5286
122.8968, 149.9932
123.3789, 152.1526
123.8610, 152.4294
124.3431, 151.9121
124.8252, 151.5627
125.3074, 151.7224
125.7895, 152.1517
126.2716, 152.3291
126.7537, 152.0553
127.2358, 151.8798
127.7179, 152.1295
128.2001, 152.5332
128.6822, 152.6806
129.1643, 152.2326
129.6464, 151.2784
130.1285, 150.9851
130.6107, 152.3848
131.0928, 153.5006
131.5749, 153.6894
132.0570, 153.1795
132.5391, 152.5829
133.0212, 152.4530
133.5034, 152.8962
133.9855, 153.0821
134.4676, 152.8670
134.9497, 152.5711
135.4318, 152.2492
135.9139, 151.9547
136.3960, 151.8928
136.8782, 152.3643
137.3603, 153.5088
137.8424, 154.4973
138.3245, 155.8805
138.8066, 156.2741
139.2887, 156.4110
139.7709, 156.3002
140.2530, 155.9553
140.7351, 154.6744
141.2172, 154.1243
141.6993, 154.6751
142.1814, 154.9783
142.6636, 155.0473
143.1457, 154.1804
143.6278, 154.5220
144.1099, 154.3793
144.5920, 154.2167
145.0741, 154.7284
145.5563, 153.9975
146.0384, 154.4986
146.5205, 155.7270
147.0026, 156.4721
147.4847, 156.0183
147.9668, 155.2830
148.4490, 154.7177
148.9311, 154.4253
149.4132, 154.2477
149.8953, 153.9385
150.3774, 153.3852
150.8595, 152.9260
151.3417, 152.6120
151.8238, 152.3691
152.3059, 152.1486
152.7880, 151.9315
153.2701, 151.7160
153.7522, 151.5017
154.2344, 151.2910
154.7165, 151.0789
155.1986, 151.0977
155.6807, 151.0551
156.1628, 150.4640
156.6449, 149.0289
157.1271, 147.0637
157.6092, 145.8909
158.0913, 146.0462
158.5734, 146.2120
159.0555, 145.9394
159.5376, 145.3835
160.0198, 144.9949
160.5019, 145.1188
160.9840, 145.5376
161.4661, 145.4492
161.9482, 144.2627
162.4303, 143.2000
162.9125, 143.3304
163.3946, 144.5978
163.8767, 145.6673
164.3588, 145.6404
164.8409, 144.9121
165.3230, 144.1174
165.8052, 143.1438
166.2873, 142.3431
166.7694, 142.3551
167.2515, 143.4637
167.7336, 144.4117
168.2157, 144.2253
168.6979, 143.6286
169.1800, 143.5283
169.6621, 144.5099
170.1442, 146.0884
170.6263, 146.8401
171.1084, 146.1740
171.5906, 145.5822
172.0727, 145.3476
172.5548, 145.5082
173.0369, 146.1994
173.5190, 147.6433
174.0011, 149.6732
174.4833, 150.8770
174.9654, 150.5549
175.4475, 150.0056
175.9296, 149.3879
176.4117, 148.7433
176.8938, 148.0770
177.3760, 147.3921
177.8581, 146.6883
178.3402, 145.9804
178.8223, 145.2659
179.3044, 144.5524
179.7865, 143.8257
180.2687, 143.1004
180.7508, 142.3998
181.2329, 141.7262
181.7150, 141.0703
182.1971, 140.7117
182.6792, 140.9587
183.1614, 141.2042
183.6435, 140.9373
184.1256, 140.2043
184.6077, 139.6460
185.0898, 139.9372
185.5719, 141.1427
186.0541, 141.9099
186.5362, 141.7695
187.0183, 141.4332
187.5004, 141.6179
187.9825, 142.4208
188.4646, 143.3180
188.9468, 143.8945
189.4289, 144.1811
189.9110, 144.2466
190.3931, 143.8353
190.8752, 143.2909
191.3573, 143.2080
191.8395, 143.7650
192.3216, 144.4032
192.8037, 144.5763
193.2858, 144.4837
193.7679, 144.5951
194.2500, 145.3088
194.7322, 146.4083
195.2143, 147.2021
195.6964, 147.5995
196.1785, 147.7750
196.6606, 147.7076
197.1427, 147.5212
197.6249, 147.4926
198.1070, 147.8542
198.5891, 148.5648
199.0712, 149.2191
199.5533, 149.8614
200.0354, 150.3793
200.5176, 150.8530
200.9997, 151.1840
201.4818, 151.1269
201.9639, 150.3169
202.4460, 148.7140
202.9281, 147.9044
203.4103, 148.7817
203.8924, 149.6974
204.3745, 150.1762
204.8566, 150.2781
205.3387, 150.3128
205.8208, 150.6076
206.3030, 151.2623
206.7851, 151.2117
207.2672, 149.5366
207.7493, 148.0901
208.2314, 147.8326
208.7135, 148.5500
209.1957, 149.3285
209.6778, 149.3026
210.1599, 148.3060
210.6420, 147.8107
211.1241, 148.2582
211.6062, 148.7192
212.0884, 148.6943
212.5705, 148.1989
213.0526, 147.5642
213.5347, 147.0839
214.0168, 146.7850
214.4989, 146.3348
214.9811, 145.3929
215.4632, 144.5708
215.9453, 144.3903
216.4274, 144.8353
216.9095, 145.3354
217.3916, 145.3372
217.8737, 144.8459
218.3559, 144.7707
218.8380, 145.5901
219.3201, 146.5336
219.8022, 146.8415
220.2843, 146.4585
220.7664, 146.0654
221.2486, 146.2870
221.7307, 146.9787
222.2128, 147.4918
222.6949, 147.5759
223.1770, 147.5229
223.6591, 147.5744
224.1413, 147.7082
224.6234, 148.1455
225.1055, 149.3364
225.5876, 150.9321
226.0697, 152.3025
226.5518, 153.1777
227.0340, 153.7876
227.5161, 154.4707
227.9982, 155.2622
228.4803, 156.0007
228.9624, 156.6976
229.4445, 157.2613
229.9267, 157.5397
230.4088, 157.4590
230.8909, 157.0726
231.3730, 156.4152
231.8551, 155.3500
232.3372, 154.3657
232.8194, 153.7278
233.3015, 153.2516
233.7836, 152.7171
234.2657, 152.0157
234.7478, 151.2349
235.2299, 150.5774
235.7121, 150.0897
236.1942, 149.6348
236.6763, 149.2443
237.1584, 148.8333
237.6405, 148.2820
238.1227, 147.5191
238.6048, 146.6526
239.0869, 145.9735
239.5690, 145.6141
240.0511, 145.2120
240.5332, 144.6804
241.0154, 144.0876
241.4975, 143.4712
241.9796, 142.8443
242.4617, 142.2720
242.9438, 141.9539
243.4259, 142.1952
243.9081, 142.2034
244.3902, 142.0249
244.8723, 141.5435
245.3544, 140.4469
245.8365, 138.6364
246.3186, 136.6250
246.8008, 135.6261
247.2829, 136.8627
247.7650, 137.3650
248.2471, 136.6931
248.7292, 135.4455
249.2113, 133.9830
249.6935, 132.4727
250.1756, 131.1570
250.6577, 130.5501
251.1398, 131.6971
251.6219, 132.0299
252.1040, 130.9821
252.5862, 129.4619
253.0683, 128.1742
253.5504, 127.3520
254.0325, 126.9250
254.5146, 126.8224
254.9967, 127.4834
255.4789, 127.6210
255.9610, 126.7129
256.4431, 125.5895
256.9252, 125.0271
257.4073, 125.1919
257.8894, 125.6280
258.3716, 125.7263
258.8537, 125.3199
259.3358, 124.9706
259.8179, 124.6364
260.3000, 124.3828
260.7821, 124.2303
261.2643, 124.1905
261.7464, 124.3582
262.2285, 124.9312
262.7106, 126.0796
263.1927, 126.6760
263.6748, 126.3636
264.1570, 125.7058
264.6391, 125.0790
265.1212, 124.5427
265.6033, 124.1560
266.0854, 124.0612
266.5675, 124.2652
267.0497, 124.1444
267.5318, 123.2313
268.0139, 122.3042
268.4960, 122.1089
268.9781, 122.6510
269.4602, 123.1992
269.9424, 123.1683
270.4245, 122.6312
270.9066, 122.2904
271.3887, 122.3475
271.8708, 122.4646
272.3529, 122.4204
272.8351, 122.2131
273.3172, 121.8528
273.7993, 121.2123
274.2814, 120.4611
274.7635, 120.0893
275.2456, 120.2979
275.7278, 120.6761
276.2099, 121.0945
276.6920, 121.5141
277.1741, 121.5501
277.6562, 120.7477
278.1383, 119.6255
278.6205, 119.2328
279.1026, 119.7725
279.5847, 120.5910
280.0668, 121.4323
280.5489, 122.2525
281.0310, 122.7513
281.5132, 122.7418
281.9953, 122.4171
282.4774, 121.9999
282.9595, 121.4248
283.4416, 121.1228
283.9237, 121.5669
284.4059, 122.5617
284.8880, 123.2408
285.3701, 123.1951
285.8522, 123.0470
286.3343, 123.6187
286.8164, 124.8659
287.2986, 125.7923
287.7807, 125.6513
288.2628, 124.7445
288.7449, 123.9917
289.2270, 123.3872
289.7091, 123.2151
290.1913, 124.0543
290.6734, 125.5877
291.1555, 126.6544
291.6376, 126.2552
292.1197, 125.0450
292.6018, 124.6592
293.0840, 125.4611
293.5661, 126.4065
294.0482, 126.8313
294.5303, 126.9079
295.0124, 126.9232
295.4945, 126.9968
295.9767, 127.0662
296.4588, 126.9769
296.9409, 126.6592
297.4230, 126.4234
297.9051, 126.4863
298.3872, 126.7070
298.8694, 127.0003
299.3515, 127.4935
299.8336, 127.7868
300.3157, 126.5676
300.7978, 127.2424
301.2799, 127.6696
301.7621, 127.8626
302.2442, 127.1196
302.7263, 127.5852
303.2084, 127.5665
303.6905, 127.5279
304.1726, 128.1636
304.6548, 127.5567
305.1369, 128.1817
305.6190, 128.3150
306.1011, 128.6733
306.5832, 128.5443
307.0653, 128.5658
307.5475, 129.0748
308.0296, 129.3139
308.5117, 129.1288
308.9938, 129.5014
309.4759, 128.8776
309.9580, 129.1281
310.4402, 130.4576
310.9223, 131.3935
311.4044, 132.0952
311.8865, 132.4872
312.3686, 132.6369
312.8507, 132.8278
313.3329, 133.0138
313.8150, 133.3383
314.2971, 133.9274
314.7792, 134.6867
315.2613, 135.4690
315.7434, 136.3104
316.2256, 137.0693
316.7077, 137.3000
317.1898, 136.6853
317.6719, 136.4423
318.1540, 137.6435
318.6361, 139.2879
319.1183, 140.1896
319.6004, 139.8176
320.0825, 139.1145
320.5646, 139.4980
321.0467, 141.1828
321.5288, 142.5821
322.0110, 142.9021
322.4931, 142.9052
322.9752, 143.1854
323.4573, 143.8377
323.9394, 144.5234
324.4215, 144.9337
324.9037, 145.0710
325.3858, 145.1233
325.8679, 144.9688
326.3500, 144.9017
326.8321, 145.1579
327.3142, 145.7032
327.7964, 146.3015
328.2785, 146.8755
328.7606, 147.3937
329.2427, 147.7096
329.7248, 147.8112
330.2069, 147.6999
330.6891, 147.3704
331.1712, 146.8585
331.6533, 146.2135
332.1354, 145.3401
332.6175, 144.4071
333.0996, 143.7795
333.5818, 143.5201
334.0639, 143.3560
334.5460, 143.4051
335.0281, 143.3857
335.5102, 142.8772
335.9923, 141.6118
336.4745, 140.1917
336.9566, 139.3347
337.4387, 139.0738
337.9208, 138.8831
338.4029, 138.7741
338.8850, 138.5177
339.3671, 137.9439
339.8492, 137.0391
340.3314, 135.7750
340.8135, 133.6519
341.2956, 130.9248
341.7777, 129.4330
342.2598, 130.0921
342.7419, 131.2417
343.2241, 131.4428
343.7062, 130.8447
344.1883, 130.1460
344.6704, 129.6931
345.1525, 129.3677
345.6346, 128.9366
346.1168, 128.4062
346.5989, 127.7139
347.0810, 126.5779
347.5631, 125.2672
348.0452, 124.2720
348.5273, 123.8063
349.0095, 123.6279
349.4916, 123.5737
349.9737, 123.6509
350.4558, 123.5324
350.9379, 122.9256
351.4200, 122.1117
351.9022, 121.5661
352.3843, 121.3905
352.8664, 121.2644
353.3485, 120.8384
353.8306, 120.2503
354.3127, 120.1503
354.7949, 120.9752
355.2770, 121.9162
355.7591, 121.7579
356.2412, 120.5248
356.7233, 119.6218
357.2054, 120.0394
357.6876, 120.9444
358.1697, 120.8892
358.6518, 119.5882
359.1339, 118.0575
359.6160, 117.1818
360.0981, 116.8492
360.5803, 116.4658
361.0624, 115.9165
361.5445, 115.3278
362.0266, 114.7831
362.5087, 114.2863
362.9908, 113.8461
363.4730, 113.4489
363.9551, 113.1312
364.4372, 112.9770
364.9193, 113.0339
365.4014, 113.1562
365.8835, 113.3031
366.3657, 113.4709
366.8478, 113.6821
367.3299, 113.9625
367.8120, 114.2080
368.2941, 114.2597
368.7762, 114.1277
369.2584, 113.7883
369.7405, 112.9714
370.2226, 112.1002
370.7047, 111.5558
371.1868, 111.3919
371.6689, 111.5350
372.1511, 111.9818
372.6332, 112.7507
373.1153, 113.3053
373.5974, 113.6514
374.0795, 113.8105
374.5616, 113.7168
375.0438, 113.4419
375.5259, 113.1271
376.0080, 112.8337
376.4901, 112.5954
376.9722, 112.5421
377.4543, 112.8641
377.9365, 113.1214
378.4186, 113.0841
378.9007, 113.0432
379.3828, 113.4722
379.8649, 114.4575
380.3470, 115.4492
380.8292, 115.6582
381.3113, 114.7937
381.7934, 113.9499
382.2755, 112.6251
382.7576, 111.7413
383.2397, 112.1428
383.7219, 113.5424
384.2040, 114.9307
384.6861, 115.5092
385.1682, 115.3286
385.6503, 115.1595
386.1324, 115.0265
386.6146, 114.8799
387.0967, 114.6325
387.5788, 114.3949
388.0609, 114.3614
388.5430, 114.6123
389.0251, 114.9433
389.5073, 114.9174
389.9894, 114.3138
390.4715, 113.8046
390.9536, 113.0662
391.4357, 112.6853
391.9178, 113.3341
392.4000, 114.8765
392.8821, 116.3800
393.3642, 116.8825
393.8463, 116.3492
394.3284, 115.9629
394.8105, 115.7306
395.2927, 115.6537
395.7748, 115.9164
396.2569, 116.2941
396.7390, 116.3672
397.2211, 115.8364
397.7032, 115.0777
398.1854, 115.0354
398.6675, 116.0274
399.1496, 116.7707
399.6317, 116.7398
400.1138, 116.4261
400.5959, 116.0206
401.0781, 115.5744
401.5602, 115.4812
402.0423, 116.2779
402.5244, 117.8760
403.0065, 119.3373
403.4886, 120.6227
403.9708, 121.6295
404.4529, 122.2167
404.9350, 122.4928
405.4171, 122.7580
405.8992, 123.0525
406.3813, 123.4520
406.8635, 124.0700
407.3456, 124.9094
407.8277, 125.9684
408.3098, 127.4261
408.7919, 129.0356
409.2740, 130.3339
409.7562, 131.1548
410.2383, 132.0470
410.7204, 133.3504
411.2025, 134.9954
411.6846, 136.8791
412.1667, 139.0970
412.6489, 141.2269
413.1310, 142.6810
413.6131, 143.4977
414.0952, 144.2102
414.5773, 145.1315
415.0594, 145.8387
415.5416, 145.6179
416.0237, 144.5946
416.5058, 144.0311
416.9879, 144.9536
417.4700, 146.9577
417.9521, 147.8179
418.4343, 146.7600
418.9164, 145.7000
419.3985, 145.2509
419.8806, 145.0863
420.3627, 144.7377
420.8448, 144.0535
421.3270, 143.1646
421.8091, 142.2319
422.2912, 141.1471
422.7733, 140.3794
423.2554, 140.3359
423.7375, 140.2333
424.2197, 139.5558
424.7018, 138.3882
425.1839, 137.1554
425.6660, 136.1813
426.1481, 135.3932
426.6302, 134.2320
427.1124, 131.8599
427.5945, 130.1819
428.0766, 129.8430
428.5587, 130.0869
429.0408, 130.2130
429.5229, 129.9913
430.0051, 129.5302
430.4872, 128.8635
430.9693, 127.8194
431.4514, 127.3013
431.9335, 128.0055
432.4156, 128.6556
432.8978, 128.9292
433.3799, 128.7377
433.8620, 127.9144
434.3441, 126.0847
434.8262, 123.7737
435.3083, 122.6023
435.7905, 122.9438
436.2726, 123.4070
436.7547, 123.5801
437.2368, 123.6045
437.7189, 123.6056
438.2010, 123.6119
438.6832, 123.5154
439.1653, 123.2051
439.6474, 122.7054
440.1295, 122.0722
440.6116, 121.1351
441.0938, 120.4196
441.5759, 120.7844
442.0580, 121.8135
442.5401, 122.1600
443.0222, 120.8893
443.5043, 119.1562
443.9865, 118.0696
444.4686, 117.5926
444.9507, 117.3008
445.4328, 117.0190
445.9149, 116.7847
446.3970, 116.6923
446.8792, 116.7661
447.3613, 116.8769
447.8434, 117.1436
448.3255, 117.3579
448.8076, 117.1565
449.2897, 116.5069
449.7719, 115.8823
450.2540, 115.7769
450.7361, 116.2300
451.2182, 116.3069
451.7003, 115.4449
452.1824, 114.8778
452.6646, 115.4208
453.1467, 116.4832
453.6288, 116.9912
454.1109, 116.4734
454.5930, 115.4491
455.0751, 114.9710
455.5573, 115.4453
456.0394, 115.6819
456.5215, 115.4166
457.0036, 115.1770
457.4857, 115.3358
457.9678, 115.8247
458.4500, 116.3269
458.9321, 116.6296
459.4142, 116.7301
459.8963, 116.5612
460.3784, 115.7822
460.8605, 115.3562
461.3427, 114.7768
461.8248, 115.3580
462.3069, 115.6917
462.7890, 115.7911
463.2711, 114.9545
463.7532, 115.3266
464.2354, 115.2142
464.7175, 115.0821
465.1996, 115.6242
465.6817, 115.8798
466.1638, 115.8622
466.6459, 115.6545
467.1281, 115.4905
467.6102, 115.6278
468.0923, 115.6770
468.5744, 115.0538
469.0565, 113.8329
469.5386, 112.8221
470.0208, 112.3314
470.5029, 112.2215
470.9850, 112.3530
471.4671, 112.8115
471.9492, 113.0174
472.4313, 112.7885
472.9135, 112.2570
473.3956, 111.3689
473.8777, 110.2070
474.3598, 109.3314
474.8419, 109.2387
475.3240, 109.8261
475.8062, 110.0724
476.2883, 109.7285
476.7704, 109.4033
477.2525, 109.2250
477.7346, 109.1283
478.2167, 109.1225
478.6989, 109.1753
479.1810, 109.0433
479.6631, 108.2949
480.1452, 106.6605
480.6273, 105.8282
481.1094, 106.7958
481.5916, 107.5491
482.0737, 107.2773
482.5558, 106.3626
483.0379, 105.4710
483.5200, 104.8912
484.0021, 104.6310
484.4843, 104.8459
484.9664, 105.7311
485.4485, 106.1821
485.9306, 105.5407
486.4127, 104.7730
486.8948, 104.5118
487.3770, 104.7241
487.8591, 105.0429
488.3412, 105.3562
488.8233, 105.6073
489.3054, 105.6524
489.7875, 105.4735
490.2697, 105.2748
490.7518, 105.2448
491.2339, 104.4489
491.7160, 104.9759
492.1981, 105.2552
492.6802, 105.3003
493.1624, 104.4095
493.6445, 104.7273
494.1266, 104.5607
494.6087, 104.3742
495.0908, 104.8621
495.5729, 104.1074
496.0551, 104.5845
496.5372, 104.5699
497.0193, 104.7804
497.5014, 104.5035
497.9835, 104.3772
498.4656, 105.1922
498.9478, 105.1685
499.4299, 104.6037
499.9120, 103.8469
500.3941, 103.3953
500.8762, 103.2924
501.3583, 103.3147
501.8405, 103.8391
502.3226, 104.1040
502.8047, 103.5247
503.2868, 102.5337
503.7689, 101.9615
504.2510, 102.2536
504.7331, 102.9736
505.2152, 103.3252
505.6974, 103.2527
506.1795, 103.1540
506.6616, 102.9806
507.1437, 102.9370
507.6258, 103.2690
508.1079, 103.9023
508.5901, 104.4162
509.0722, 104.6154
509.5543, 104.5748
510.0364, 104.3462
510.5185, 103.9351
511.0006, 103.5247
511.4828, 103.1758
511.9649, 102.9046
512.4470, 102.7257
512.9291, 102.5922
513.4113, 102.6666
513.8934, 103.2236
514.3755, 103.8686
514.8576, 104.2299
515.3397, 104.2622
515.8218, 104.0165
516.3040, 103.4899
516.7861, 102.7368
517.2682, 102.1598
517.7503, 101.4363
518.2324, 101.3202
518.7145, 102.6398
519.1967, 104.1424
519.6788, 104.5433
520.1609, 103.7057
520.6430, 102.5112
521.1251, 101.7651
521.6072, 101.4614
522.0894, 101.5808
522.5715, 102.7513
523.0536, 103.3208
523.5357, 102.1085
524.0178, 100.3505
524.4999, 99.58511
524.9821, 100.2678
525.4642, 101.2219
525.9463, 101.3229
526.4284, 100.7595
526.9105, 100.4369
527.3926, 100.5826
527.8748, 100.6548
528.3569, 100.0030
528.8390, 98.91468
529.3211, 98.38627
529.8032, 98.79324
530.2853, 99.46566
530.7675, 100.3413
531.2496, 101.1743
531.7317, 101.4465
532.2138, 101.0048
532.6959, 100.1093
533.1780, 98.98633
533.6602, 97.48982
534.1423, 96.70585
534.6244, 97.06615
535.1065, 97.54076
535.5886, 97.94216
536.0707, 98.14662
536.5529, 97.86883
537.0350, 97.01883
537.5171, 96.11747
537.9992, 96.17019
538.4813, 97.48940
538.9634, 98.12273
539.4456, 97.18211
539.9277, 96.43466
540.4098, 96.99641
540.8919, 98.29523
541.3740, 99.14159
541.8561, 98.97803
542.3383, 98.37978
542.8204, 97.92836
543.3025, 97.62959
543.7846, 97.54072
544.2667, 97.67687
544.7488, 98.02755
545.2310, 98.88160
545.7131, 100.1374
546.1952, 100.5913
546.6773, 99.07514
547.1594, 97.61815
547.6415, 97.75172
548.1237, 98.99876
548.6058, 100.1038
549.0879, 100.5600
549.5700, 100.6955
550.0521, 101.1049
550.5342, 102.1578
551.0164, 102.3056
551.4985, 100.4576
551.9806, 98.95779
552.4627, 99.11626
552.9448, 100.3273
553.4269, 101.4054
553.9091, 101.8015
554.3912, 101.6859
554.8733, 101.1284
555.3554, 99.94786
555.8375, 99.63506
556.3196, 101.2945
556.8018, 102.8005
557.2839, 102.5569
557.7660, 101.0956
558.2481, 99.90813
558.7302, 99.48765
559.2123, 99.60558
559.6945, 100.2595
560.1766, 101.3168
560.6587, 102.1867
561.1408, 102.6945
561.6229, 102.9386
562.1050, 102.9819
562.5872, 102.7745
563.0693, 102.7484
563.5514, 103.0601
564.0335, 103.4016
564.5156, 103.7164
564.9977, 103.9276
565.4799, 103.8526
565.9620, 103.4270
566.4441, 102.9107
566.9262, 102.7361
567.4083, 103.0036
567.8904, 103.2047
568.3726, 103.3064
568.8547, 103.3702
569.3368, 103.3562
569.8189, 103.3330
570.3010, 103.4131
570.7831, 103.6467
571.2653, 103.9514
571.7474, 104.3093
572.2295, 104.6889
572.7116, 104.8267
573.1937, 104.6401
573.6758, 104.2998
574.1580, 103.7526
574.6401, 103.1402
575.1222, 103.0314
575.6043, 103.9737
576.0864, 104.8686
576.5685, 105.1346
577.0507, 105.0045
577.5328, 104.7611
578.0149, 104.5002
578.4970, 104.4508
578.9791, 104.9380
579.4612, 106.0053
579.9434, 106.5104
580.4255, 105.7687
580.9076, 105.2612
581.3897, 105.4631
581.8718, 105.9263
582.3539, 106.1786
582.8361, 106.1064
583.3182, 105.8669
583.8003, 105.5022
584.2824, 105.0624
584.7645, 104.9543
585.2466, 105.2683
585.7288, 105.6630
586.2108, 106.0705
586.6929, 106.4110
587.1750, 106.6093
587.6572, 106.7072
588.1393, 106.4521
588.6214, 105.1515
589.1035, 103.7229
589.5856, 103.6805
590.0677, 104.9944
