##NAMES=Plattnerite
##RRUFFID=R080019
##IDEAL CHEMISTRY=Pb^4+^O_2_
##LOCALITY=Snake Pit, lower Mex-Tex mine, Hansonburg District, Socorro County, New Mexico, USA
##OWNER=RRUFF
##SOURCE=William W. Pinch
##DESCRIPTION=Black twinned crystals associated with red scrutinyite, R080018, on the surface of a quartz crystal
##STATUS=The identification of this mineral has been confirmed by single-crystal X-ray diffraction.
##URL=rruff.info/R080019
145.7834, 68.98888
146.2655, 69.65148
146.7477, 70.29764
147.2298, 70.74233
147.7119, 71.00223
148.1940, 71.00631
148.6761, 70.56555
149.1582, 69.90759
149.6404, 69.53122
150.1225, 69.63964
150.6046, 69.81824
151.0867, 69.91997
151.5688, 69.85945
152.0509, 69.84990
152.5331, 69.85824
153.0152, 69.90881
153.4973, 70.07939
153.9794, 70.50023
154.4615, 70.93935
154.9436, 71.30383
155.4258, 71.73736
155.9079, 71.91199
156.3900, 71.67701
156.8721, 71.11064
157.3542, 70.58945
157.8363, 70.04070
158.3185, 69.64865
158.8006, 69.52197
159.2827, 69.99570
159.7648, 70.42477
160.2469, 70.62868
160.7290, 70.62955
161.2112, 70.62965
161.6933, 70.64673
162.1754, 70.71239
162.6575, 70.85277
163.1396, 71.31362
163.6217, 71.64176
164.1039, 71.54076
164.5860, 71.01949
165.0681, 70.60530
165.5502, 70.62794
166.0323, 70.85916
166.5145, 71.03874
166.9966, 70.98647
167.4787, 70.91743
167.9608, 70.96970
168.4429, 71.15410
168.9250, 71.36031
169.4072, 71.58545
169.8893, 71.78087
170.3714, 71.87217
170.8535, 71.89806
171.3356, 71.76850
171.8177, 71.31052
172.2999, 70.46048
172.7820, 69.68003
173.2641, 69.37440
173.7462, 69.40596
174.2283, 69.47486
174.7104, 69.44176
175.1926, 69.36306
175.6747, 69.29980
176.1568, 69.25591
176.6389, 69.23093
177.1210, 69.15041
177.6031, 69.06969
178.0853, 69.16013
178.5674, 69.79295
179.0495, 70.59023
179.5316, 70.89054
180.0137, 70.49091
180.4958, 69.92202
180.9780, 69.84539
181.4601, 70.18002
181.9422, 70.51942
182.4243, 70.56980
182.9064, 70.44302
183.3885, 70.37960
183.8707, 70.41026
184.3528, 70.52321
184.8349, 70.77938
185.3170, 71.15417
185.7991, 71.42974
186.2812, 71.35320
186.7633, 71.02857
187.2455, 70.82945
187.7276, 70.83397
188.2097, 70.96382
188.6918, 71.11088
189.1739, 71.27383
189.6560, 71.38802
190.1382, 71.36119
190.6203, 71.22204
191.1024, 71.16328
191.5845, 71.25167
192.0666, 71.41532
192.5487, 71.47509
193.0309, 71.42524
193.5130, 71.35554
193.9951, 71.38574
194.4772, 71.50459
194.9593, 71.45065
195.4414, 71.07369
195.9236, 70.53577
196.4057, 70.47522
196.8878, 70.96988
197.3699, 71.48198
197.8520, 71.40636
198.3341, 70.71525
198.8163, 70.36949
199.2984, 70.71425
199.7805, 71.53755
200.2626, 71.81363
200.7447, 71.43404
201.2268, 70.91731
201.7090, 70.80995
202.1911, 71.16785
202.6732, 71.39140
203.1553, 71.28956
203.6374, 70.92986
204.1195, 70.76161
204.6017, 70.81838
205.0838, 70.97801
205.5659, 71.14507
206.0480, 71.33096
206.5301, 71.45486
207.0122, 71.46170
207.4944, 71.37160
207.9765, 71.44679
208.4586, 71.77256
208.9407, 72.08882
209.4228, 72.07650
209.9049, 71.63219
210.3871, 71.26814
210.8692, 71.12731
211.3513, 71.19934
211.8334, 71.25613
212.3155, 71.33211
212.7976, 71.33757
213.2798, 71.11537
213.7619, 70.53233
214.2440, 70.13612
214.7261, 70.09465
215.2082, 70.41159
215.6903, 70.71889
216.1725, 71.07189
216.6546, 71.33447
217.1367, 71.29431
217.6188, 70.77383
218.1009, 70.41593
218.5830, 70.43060
219.0652, 70.84746
219.5473, 71.06084
220.0294, 70.97192
220.5115, 70.80273
220.9936, 70.84499
221.4757, 71.25857
221.9579, 71.50442
222.4400, 71.38929
222.9221, 70.86531
223.4042, 70.56704
223.8863, 70.56800
224.3684, 70.70702
224.8506, 70.80485
225.3327, 70.84531
225.8148, 70.87991
226.2969, 70.92525
226.7790, 70.98629
227.2611, 71.02357
227.7433, 71.05595
228.2254, 71.04986
228.7075, 70.95658
229.1896, 70.72128
229.6717, 70.50436
230.1538, 70.31001
230.6360, 70.12466
231.1181, 70.15711
231.6002, 70.58463
232.0823, 71.06144
232.5644, 71.15660
233.0465, 70.58549
233.5287, 70.17673
234.0108, 70.18750
234.4929, 70.67470
234.9750, 70.88541
235.4571, 70.66122
235.9392, 70.30925
236.4214, 70.17024
236.9035, 70.38705
237.3856, 70.55162
237.8677, 70.54134
238.3498, 70.33298
238.8319, 70.29237
239.3141, 70.53238
239.7962, 70.83615
240.2783, 70.98500
240.7604, 70.93902
241.2425, 70.80587
241.7246, 70.54282
242.2068, 70.12731
242.6889, 69.99039
243.1710, 70.31645
243.6531, 70.74314
244.1352, 70.89738
244.6173, 70.60384
245.0995, 70.37411
245.5816, 70.34093
246.0637, 70.50967
246.5458, 70.54929
247.0279, 70.40953
247.5100, 70.19180
247.9922, 69.98075
248.4743, 69.73959
248.9564, 69.58318
249.4385, 69.57753
249.9206, 69.71706
250.4027, 69.69712
250.8848, 69.42713
251.3670, 69.10117
251.8491, 68.88084
252.3312, 68.76192
252.8133, 68.76318
253.2954, 68.95082
253.7775, 69.30355
254.2597, 69.45786
254.7418, 69.32719
255.2239, 69.10550
255.7060, 68.92285
256.1881, 68.72831
256.6703, 68.70452
257.1524, 68.97146
257.6345, 69.46938
258.1166, 69.66421
258.5987, 69.44606
259.0808, 69.08688
259.5630, 68.74543
260.0451, 68.36606
260.5272, 68.18526
261.0093, 68.29729
261.4914, 68.64019
261.9735, 68.87605
262.4557, 68.98447
262.9378, 69.01900
263.4199, 68.98918
263.9020, 68.84545
264.3841, 68.82244
264.8662, 69.04400
265.3484, 69.38396
265.8305, 69.30077
266.3126, 68.60300
266.7947, 67.89552
267.2768, 67.58553
267.7589, 67.80038
268.2411, 67.90910
268.7232, 67.83597
269.2053, 67.64937
269.6874, 67.54369
270.1695, 67.52807
270.6516, 67.56676
271.1338, 67.65855
271.6159, 67.82430
272.0980, 67.92687
272.5801, 67.93356
273.0622, 67.89561
273.5443, 67.93549
274.0265, 68.06523
274.5086, 68.21976
274.9907, 68.40759
275.4728, 68.65311
275.9549, 68.67186
276.4370, 68.36770
276.9192, 67.95740
277.4013, 67.88931
277.8834, 68.23403
278.3655, 68.53555
278.8476, 68.58939
279.3297, 68.39066
279.8118, 68.10548
280.2939, 67.67532
280.7761, 67.29064
281.2582, 67.31205
281.7403, 67.78036
282.2224, 68.19898
282.7045, 68.34987
283.1866, 68.25817
283.6688, 68.25043
284.1509, 68.36303
284.6330, 68.44004
285.1151, 68.16753
285.5972, 67.54605
286.0793, 67.19587
286.5615, 67.45676
287.0436, 68.17025
287.5257, 68.62157
288.0078, 68.80550
288.4899, 68.75462
288.9720, 68.34384
289.4542, 67.62572
289.9363, 67.17064
290.4184, 67.25587
290.9005, 67.67226
291.3826, 67.81571
291.8647, 67.67289
292.3469, 67.47671
292.8290, 67.44138
293.3111, 67.53429
293.7932, 67.60114
294.2753, 67.59399
294.7574, 67.55257
295.2396, 67.54505
295.7217, 67.57120
296.2038, 67.63356
296.6859, 67.75661
297.1680, 67.91833
297.6501, 68.07224
298.1323, 68.23443
298.6144, 68.34261
299.0965, 68.25429
299.5786, 67.99967
300.0607, 67.78133
300.5428, 67.72677
301.0250, 67.79360
301.5071, 67.91333
301.9892, 68.08890
302.4713, 68.27773
302.9534, 68.47375
303.4355, 68.65337
303.9177, 68.74685
304.3998, 68.65671
304.8819, 68.47678
305.3640, 68.29796
305.8461, 68.11040
306.3282, 68.02264
306.8104, 68.26820
307.2925, 68.68610
307.7746, 68.93596
308.2567, 68.66908
308.7388, 68.27647
309.2209, 68.15778
309.7031, 68.34628
310.1852, 68.51598
310.6673, 68.39236
311.1494, 68.12101
311.6315, 67.90953
312.1136, 67.88113
312.5958, 67.90351
313.0779, 67.90180
313.5600, 67.87364
314.0421, 67.81512
314.5242, 67.67746
315.0063, 67.52547
315.4885, 67.42310
315.9706, 67.37685
316.4527, 67.39371
316.9348, 67.51366
317.4169, 67.71241
317.8990, 67.88200
318.3812, 67.96131
318.8633, 68.00800
319.3454, 68.06473
319.8275, 68.17534
320.3096, 68.24625
320.7917, 68.28878
321.2739, 68.27652
321.7560, 68.14075
322.2381, 67.60923
322.7202, 67.14915
323.2023, 67.02061
323.6844, 67.43215
324.1666, 67.74217
324.6487, 67.76334
325.1308, 67.62740
325.6129, 67.53858
326.0950, 67.50671
326.5771, 67.53860
327.0593, 67.67242
327.5414, 67.96232
328.0235, 68.12513
328.5056, 68.08021
328.9877, 67.92505
329.4698, 67.75829
329.9520, 67.40348
330.4341, 67.24505
330.9162, 67.46365
331.3983, 68.08107
331.8804, 68.38293
332.3625, 68.13358
332.8447, 67.77189
333.3268, 67.63435
333.8089, 67.91999
334.2910, 68.06518
334.7731, 67.93166
335.2552, 67.59588
335.7374, 67.47918
336.2195, 67.66009
336.7016, 67.93147
337.1837, 68.21273
337.6658, 68.55728
338.1479, 68.69895
338.6301, 68.53541
339.1122, 68.22388
339.5943, 68.14553
340.0764, 68.36305
340.5585, 68.60644
341.0406, 68.76926
341.5228, 68.85419
342.0049, 68.83060
342.4870, 68.66898
342.9691, 68.45963
343.4512, 68.31798
343.9333, 68.24246
344.4155, 68.25048
344.8976, 68.38603
345.3797, 68.61449
345.8618, 68.75602
346.3439, 68.80692
346.8260, 68.80705
347.3082, 68.80892
347.7903, 68.80305
348.2724, 68.70620
348.7545, 68.43041
349.2366, 68.11821
349.7188, 68.11732
350.2009, 68.40665
350.6830, 68.66873
351.1651, 68.59701
351.6472, 68.32821
352.1293, 68.18935
352.6115, 68.25789
353.0936, 68.40958
353.5757, 68.52332
354.0578, 68.60499
354.5399, 68.67702
355.0220, 68.77162
355.5042, 68.85514
355.9863, 68.86742
356.4684, 68.79224
356.9505, 68.72729
357.4326, 68.72746
357.9147, 68.79084
358.3969, 68.91410
358.8790, 69.21841
359.3611, 69.49049
359.8432, 69.51279
360.3253, 69.29750
360.8074, 69.17842
361.2896, 69.51222
361.7717, 69.93457
362.2538, 70.10646
362.7359, 69.30064
363.2180, 69.83019
363.7001, 70.15362
364.1823, 70.28202
364.6644, 69.63119
365.1465, 69.98656
365.6286, 69.93868
366.1107, 69.87428
366.5928, 70.37126
367.0750, 69.83378
367.5571, 70.32186
368.0392, 70.40055
368.5213, 70.66660
369.0034, 70.52693
369.4855, 70.51258
369.9677, 70.90410
370.4498, 71.07088
370.9319, 70.88450
371.4140, 71.16247
371.8961, 70.61080
372.3782, 70.78716
372.8604, 71.27762
373.3425, 71.11164
373.8246, 71.39703
374.3067, 71.51051
374.7888, 70.84277
375.2709, 71.53365
375.7531, 71.63699
376.2352, 71.13701
376.7173, 71.78134
377.1994, 71.61150
377.6815, 71.80710
378.1636, 71.87528
378.6458, 71.48687
379.1279, 71.95937
379.6100, 72.22575
380.0921, 72.29710
380.5742, 71.58923
381.0563, 71.88755
381.5385, 71.78264
382.0206, 71.66119
382.5027, 72.10113
382.9848, 71.50659
383.4669, 71.93764
383.9490, 71.95929
384.4312, 72.16830
384.9133, 71.73737
385.3954, 71.76604
385.8775, 71.81503
386.3596, 71.87456
386.8417, 71.92910
387.3239, 71.93507
387.8060, 71.85575
388.2881, 71.78196
388.7702, 71.87461
389.2523, 72.06851
389.7344, 72.16453
390.2166, 71.96639
390.6987, 71.66684
391.1808, 71.43835
391.6629, 71.29471
392.1450, 71.22934
392.6271, 71.28310
393.1093, 71.40089
393.5914, 71.50980
394.0735, 71.55367
394.5556, 71.61269
395.0377, 71.80112
395.5198, 72.09213
396.0020, 72.19472
396.4841, 71.80434
396.9662, 71.32595
397.4483, 71.02697
397.9304, 71.04504
398.4125, 71.11523
398.8947, 71.27483
399.3768, 71.46142
399.8589, 71.52158
400.3410, 71.30607
400.8231, 71.08935
401.3052, 70.94843
401.7874, 70.89384
402.2695, 70.87036
402.7516, 70.87300
403.2337, 70.90948
403.7158, 71.01179
404.1979, 71.28281
404.6800, 71.38929
405.1621, 71.20571
405.6443, 70.78770
406.1264, 70.55400
406.6085, 70.53818
407.0906, 70.61538
407.5727, 70.73885
408.0548, 70.92126
408.5370, 70.97755
409.0191, 70.85621
409.5012, 70.66324
409.9833, 70.63850
410.4654, 70.77893
410.9475, 70.80625
411.4297, 69.93539
411.9118, 70.46690
412.3939, 70.74247
412.8760, 70.77586
413.3581, 69.84173
413.8402, 70.15696
414.3224, 69.97149
414.8045, 69.76550
415.2866, 70.25657
415.7687, 69.46316
416.2508, 69.94318
416.7329, 69.91486
417.2151, 70.11919
417.6972, 69.81974
418.1793, 69.67590
418.6614, 70.03600
419.1435, 70.11706
419.6256, 69.75962
420.1078, 69.97874
420.5899, 69.16772
421.0720, 69.26067
421.5541, 69.74364
422.0362, 69.41153
422.5183, 69.63986
423.0005, 69.65474
423.4826, 69.21489
423.9647, 69.46640
424.4468, 69.67297
424.9289, 69.67888
425.4110, 69.07753
425.8932, 68.76415
426.3753, 68.96764
426.8574, 69.46329
427.3395, 69.71569
427.8216, 69.53873
428.3037, 69.36287
428.7859, 69.34357
429.2680, 69.51317
429.7501, 69.61797
430.2322, 69.67381
430.7143, 69.64128
431.1964, 69.43279
431.6786, 68.99423
432.1607, 68.67265
432.6428, 68.56717
433.1249, 68.60722
433.6070, 68.56627
434.0891, 68.43986
434.5713, 68.29714
435.0534, 68.18252
435.5355, 68.09182
436.0176, 67.97841
436.4997, 67.82297
436.9818, 67.72045
437.4640, 67.86994
437.9461, 68.18319
438.4282, 68.37521
438.9103, 68.19559
439.3924, 67.91865
439.8745, 67.92052
440.3567, 68.16967
440.8388, 68.40848
441.3209, 68.48017
441.8030, 68.44794
442.2851, 68.35661
442.7672, 68.16090
443.2494, 68.03036
443.7315, 68.14281
444.2136, 68.37276
444.6957, 68.49077
445.1778, 68.29471
445.6599, 68.09012
446.1421, 67.97994
446.6242, 67.97105
447.1063, 68.05695
447.5884, 68.41483
448.0705, 68.76061
448.5526, 68.87659
449.0348, 68.56269
449.5169, 68.30418
449.9990, 68.14749
450.4811, 68.05775
450.9632, 67.91199
451.4453, 67.58984
451.9275, 67.44485
452.4096, 67.71970
452.8917, 68.47375
453.3738, 68.79378
453.8559, 68.56879
454.3380, 68.16820
454.8202, 67.97810
455.3023, 68.00166
455.7844, 68.09396
456.2665, 68.26533
456.7486, 68.44075
457.2307, 68.40241
457.7129, 68.16957
458.1950, 67.99059
458.6771, 68.13122
459.1592, 68.41614
459.6413, 68.45875
460.1234, 68.20804
460.6056, 67.91476
461.0877, 67.75262
461.5698, 67.70644
462.0519, 67.75005
462.5340, 67.94965
463.0161, 68.16521
463.4983, 68.37620
463.9804, 68.54964
464.4625, 68.54326
464.9446, 68.00440
465.4267, 67.48093
465.9088, 67.33560
466.3910, 67.75655
466.8731, 68.15398
467.3552, 68.46053
467.8373, 68.66514
468.3194, 68.75058
468.8015, 68.56893
469.2837, 68.44409
469.7658, 68.42544
470.2479, 68.50613
470.7300, 68.63157
471.2121, 68.82334
471.6942, 69.02376
472.1764, 69.22068
472.6585, 69.43474
473.1406, 69.52415
473.6227, 69.46811
474.1048, 69.31594
474.5869, 69.09023
475.0691, 68.78825
475.5512, 68.61121
476.0333, 68.66232
476.5154, 68.86263
476.9975, 69.01404
477.4796, 69.11928
477.9618, 69.22401
478.4439, 69.38184
478.9260, 69.55824
479.4081, 69.66416
479.8902, 69.66019
480.3723, 69.70499
480.8545, 69.99775
481.3366, 70.42532
481.8187, 70.79306
482.3008, 71.06045
482.7829, 71.20959
483.2650, 71.17339
483.7472, 70.97923
484.2293, 70.83068
484.7114, 70.74519
485.1935, 70.76167
485.6756, 70.91568
486.1577, 71.28506
486.6399, 71.64153
487.1220, 72.00314
487.6041, 72.33170
488.0862, 72.56882
488.5683, 72.70725
489.0504, 72.76412
489.5326, 72.67710
490.0147, 72.48692
490.4968, 72.55903
490.9789, 72.98001
491.4610, 73.43074
491.9431, 73.65919
492.4253, 73.65382
492.9074, 73.89913
493.3895, 74.48421
493.8716, 75.13270
494.3537, 75.50346
494.8358, 75.61465
495.3180, 75.56275
495.8001, 75.21430
496.2822, 74.86767
496.7643, 75.07048
497.2464, 75.74624
497.7285, 76.44289
498.2107, 76.94235
498.6928, 77.28162
499.1749, 77.46478
499.6570, 77.45497
500.1391, 77.47775
500.6212, 77.67208
501.1034, 77.95876
501.5855, 78.24788
502.0676, 78.48695
502.5497, 78.74819
503.0318, 79.09593
503.5139, 79.50156
503.9961, 79.80282
504.4782, 79.85332
504.9603, 79.94156
505.4424, 80.20065
505.9245, 80.70885
506.4066, 81.08633
506.8888, 81.35229
507.3709, 81.46641
507.8530, 81.30356
508.3351, 80.77773
508.8172, 80.51104
509.2993, 80.69740
509.7815, 81.12024
510.2636, 81.19067
510.7457, 80.91432
511.2278, 80.74106
511.7099, 81.06433
512.1920, 81.65065
512.6741, 81.93793
513.1563, 81.90809
513.6384, 81.74088
514.1205, 81.47526
514.6026, 81.20267
515.0847, 81.07457
515.5668, 81.21983
516.0490, 81.35417
516.5311, 81.26897
517.0132, 81.04874
517.4953, 80.86378
517.9774, 80.74870
518.4595, 80.70403
518.9417, 80.82118
519.4238, 81.11977
519.9059, 81.14633
520.3880, 80.54640
520.8701, 79.89624
521.3522, 79.49143
521.8344, 79.35069
522.3165, 79.45238
522.7986, 79.97408
523.2807, 80.58842
523.7628, 80.68571
524.2449, 80.16203
524.7271, 79.69651
525.2092, 79.50246
525.6913, 79.50838
526.1734, 79.45400
526.6555, 79.33855
527.1376, 79.21658
527.6198, 79.17828
528.1019, 79.15766
528.5840, 78.93972
529.0661, 78.47453
529.5482, 78.07403
530.0303, 78.14890
530.5125, 78.44807
530.9946, 78.57968
531.4767, 78.30854
531.9588, 77.95014
532.4409, 77.62401
532.9230, 77.33827
533.4052, 77.10721
533.8873, 76.95803
534.3694, 76.84671
534.8515, 76.75671
535.3336, 76.68424
535.8157, 76.65091
536.2979, 76.74854
536.7800, 76.80524
537.2621, 76.65942
537.7442, 76.13609
538.2263, 75.90958
538.7084, 76.15458
539.1906, 76.58603
539.6727, 76.59611
540.1548, 76.14912
540.6369, 75.75082
541.1190, 75.64353
541.6011, 75.69348
542.0833, 75.43253
542.5654, 74.87794
543.0475, 74.40027
543.5296, 74.44177
544.0117, 74.67867
544.4938, 74.52048
544.9760, 73.82015
545.4581, 73.20406
545.9402, 73.38392
546.4223, 73.84060
546.9044, 73.91093
547.3865, 72.87228
547.8687, 71.94703
548.3508, 71.60690
548.8329, 71.70432
549.3150, 71.76571
549.7971, 71.67781
550.2792, 71.59029
550.7614, 71.58688
551.2435, 71.69318
551.7256, 71.59352
552.2077, 71.19700
552.6898, 70.73751
553.1719, 70.41537
553.6541, 70.26049
554.1362, 69.98448
554.6183, 69.51217
555.1004, 69.01869
555.5825, 68.82907
556.0646, 68.90042
556.5468, 68.97780
557.0289, 68.99855
557.5110, 68.94542
557.9931, 68.75147
558.4752, 68.44009
558.9573, 68.14328
559.4395, 68.03964
559.9216, 67.91915
560.4037, 67.50589
560.8858, 66.71336
561.3679, 66.15736
561.8500, 66.29359
562.3322, 66.66951
562.8143, 66.89373
563.2964, 66.71162
563.7785, 66.61592
564.2606, 66.72649
564.7427, 66.91732
565.2249, 66.93509
565.7070, 66.72200
566.1891, 66.45184
566.6712, 66.12141
567.1533, 65.76746
567.6354, 65.63795
568.1176, 65.76630
568.5997, 65.91179
569.0818, 65.85554
569.5639, 65.66886
570.0460, 65.66526
570.5281, 65.88024
571.0103, 66.14517
571.4924, 66.32002
571.9745, 66.42338
572.4566, 66.49490
572.9387, 66.56809
573.4208, 66.57565
573.9030, 66.45444
574.3851, 66.23583
574.8672, 65.98844
575.3493, 65.64935
575.8314, 65.36728
576.3135, 65.22674
576.7957, 65.23034
577.2778, 65.18987
577.7599, 65.03823
578.2420, 64.91027
578.7241, 64.88557
579.2062, 64.99599
579.6884, 65.06752
580.1705, 65.07388
580.6526, 65.09528
581.1347, 65.29028
581.6168, 65.64906
582.0989, 65.81752
582.5811, 65.67764
583.0632, 65.39407
583.5453, 65.19853
584.0274, 65.07703
584.5095, 64.98422
584.9916, 64.89613
585.4738, 64.82615
585.9559, 64.76515
586.4380, 64.72176
586.9201, 64.75961
587.4022, 65.08291
587.8843, 65.37070
588.3665, 65.34950
588.8486, 64.79429
589.3307, 64.54190
589.8128, 65.02193
590.2949, 65.64606
590.7770, 65.88311
591.2592, 65.53137
591.7413, 65.25414
592.2234, 65.09199
592.7055, 65.05958
593.1876, 65.29159
593.6697, 65.82842
594.1519, 66.11285
594.6340, 65.79176
595.1161, 65.14750
595.5982, 64.89228
596.0803, 64.99633
596.5624, 65.17366
597.0446, 65.27865
597.5267, 65.32391
598.0088, 65.28933
598.4909, 65.16410
598.9730, 64.54755
599.4551, 65.13740
599.9373, 65.47131
600.4194, 65.56304
600.9015, 64.68725
601.3836, 65.06082
601.8657, 64.93370
602.3478, 64.78605
602.8300, 65.33546
603.3121, 64.60039
603.7942, 65.13874
604.2763, 65.16877
604.7584, 65.43145
605.2405, 65.19035
605.7227, 65.10484
606.2048, 65.52328
606.6869, 65.66268
607.1690, 65.03242
607.6511, 65.02500
608.1332, 65.17070
608.6154, 65.28201
609.0975, 65.11736
609.5796, 64.86200
610.0617, 64.79610
610.5438, 65.03204
611.0259, 65.22150
611.5081, 65.14812
611.9902, 64.93102
612.4723, 64.71025
612.9544, 64.37289
613.4365, 64.20815
613.9186, 64.35394
614.4008, 64.69295
614.8829, 64.97534
615.3650, 65.20577
615.8471, 65.36304
616.3292, 65.43716
616.8113, 65.43150
617.2935, 65.35068
617.7756, 65.18051
618.2577, 65.04166
618.7398, 65.02370
619.2219, 65.09777
619.7040, 65.20375
620.1862, 65.34030
620.6683, 65.45045
621.1504, 65.47581
621.6325, 65.45061
622.1146, 65.40257
622.5967, 65.28912
623.0789, 65.26939
623.5610, 65.59180
624.0431, 66.00014
624.5252, 66.12756
625.0073, 65.45028
625.4894, 65.05495
625.9716, 65.25327
626.4537, 65.82695
626.9358, 66.02608
627.4179, 65.69977
627.9000, 65.41021
628.3821, 65.40093
628.8643, 65.61858
629.3464, 65.67516
629.8285, 65.56236
630.3106, 65.53005
630.7927, 65.91549
631.2748, 66.47118
631.7570, 66.69778
632.2391, 66.53240
632.7212, 66.27235
633.2033, 66.11450
633.6854, 65.99301
634.1675, 65.82816
634.6497, 65.50235
635.1318, 65.30734
635.6139, 65.36918
636.0960, 65.59685
636.5781, 65.84606
637.0602, 66.11884
637.5424, 66.41806
638.0245, 66.81840
638.5066, 67.22218
638.9887, 67.28327
639.4708, 66.94946
639.9529, 66.60087
640.4351, 66.35075
640.9172, 66.22348
641.3993, 66.32986
