##NAMES=Plattnerite
##RRUFFID=R070605
##IDEAL CHEMISTRY=Pb^4+^O_2_
##LOCALITY=Ojuela mine, Mapimi, Durango, Mexico
##OWNER=RRUFF
##SOURCE=James Shigley
##DESCRIPTION=Black tarnished metallic prismatic crystals.
##STATUS=The identification of this mineral is confirmed by single-crystal X-ray diffraction and chemical analysis.
##URL=rruff.info/R070605
##MEASURED CHEMISTRY=Pb_1.00_O_2_
87.59052, 3878.295
88.07263, 4146.667
88.55475, 4410.695
89.03687, 4707.437
89.51898, 5043.387
90.00110, 5412.768
90.48322, 5806.079
90.96533, 6219.961
91.44745, 6652.831
91.92957, 7111.336
92.41168, 7594.099
92.89380, 8104.157
93.37592, 8650.819
93.85803, 9228.650
94.34015, 9818.994
94.82227, 10401.72
95.30438, 10955.20
95.78650, 11558.63
96.26862, 12243.78
96.75073, 12955.41
97.23285, 13655.91
97.71497, 14333.22
98.19708, 14985.16
98.67920, 15600.01
99.16132, 16163.66
99.64343, 16724.20
100.1255, 17317.70
100.6077, 17925.19
101.0898, 18426.64
101.5719, 18555.84
102.0540, 18490.36
102.5361, 18447.65
103.0182, 18430.73
103.5004, 18430.39
103.9825, 18434.70
104.4646, 18439.98
104.9467, 18466.58
105.4288, 18548.02
105.9109, 18652.30
106.3931, 18737.25
106.8752, 18774.10
107.3573, 18775.49
107.8394, 18787.85
108.3215, 18788.73
108.8036, 18828.81
109.2858, 18941.81
109.7679, 19109.89
110.2500, 19286.31
110.7321, 19410.67
111.2142, 19447.07
111.6964, 19577.93
112.1785, 19852.41
112.6606, 20172.08
113.1427, 20496.79
113.6248, 20814.23
114.1069, 21124.82
114.5891, 21427.25
115.0712, 21668.58
115.5533, 21976.67
116.0354, 22368.41
116.5175, 22816.03
116.9996, 23293.06
117.4818, 23785.99
117.9639, 24295.36
118.4460, 24825.85
118.9281, 25365.62
119.4102, 25935.85
119.8923, 26538.47
120.3745, 27174.74
120.8566, 27849.14
121.3387, 28567.29
121.8208, 29332.97
122.3029, 30121.89
122.7850, 30943.58
123.2672, 31781.95
123.7493, 32621.43
124.2314, 33461.34
124.7135, 34307.21
125.1956, 35190.80
125.6777, 36093.54
126.1599, 36980.57
126.6420, 37818.41
127.1241, 38625.75
127.6062, 39470.74
128.0883, 40366.23
128.5704, 41298.95
129.0526, 42262.15
129.5347, 43252.03
130.0168, 44257.66
130.4989, 45269.64
130.9810, 46297.33
131.4631, 47323.35
131.9453, 48331.19
132.4274, 49347.50
132.9095, 50398.82
133.3916, 51492.65
133.8737, 52588.62
134.3558, 53651.22
134.8380, 54806.62
135.3201, 55659.73
135.8022, 56117.41
136.2843, 56337.01
136.7664, 56454.05
137.2485, 56534.25
137.7307, 56550.73
138.2128, 56389.64
138.6949, 56021.43
139.1770, 55491.36
139.6591, 54802.43
140.1412, 53954.02
140.6234, 52940.75
141.1055, 51741.74
141.5876, 50362.44
142.0697, 48949.41
142.5518, 47453.46
143.0339, 45972.00
143.5161, 44532.27
143.9982, 43141.86
144.4803, 41822.87
144.9624, 40596.12
145.4445, 39476.17
145.9266, 38384.52
146.4088, 37345.00
146.8909, 36320.45
147.3730, 35261.93
147.8551, 34148.48
148.3372, 33044.96
148.8193, 32022.51
149.3015, 31072.69
149.7836, 30173.73
150.2657, 29312.92
150.7478, 28497.30
151.2299, 27731.43
151.7121, 27029.81
152.1942, 26374.12
152.6763, 25740.47
153.1584, 25127.91
153.6405, 24529.31
154.1226, 23934.82
154.6048, 23341.25
155.0869, 22775.00
155.5690, 22235.84
156.0511, 21731.85
156.5332, 21270.68
157.0153, 20856.13
157.4975, 20474.42
157.9796, 20110.66
158.4617, 19768.01
158.9438, 19431.46
159.4259, 19082.46
159.9080, 18742.96
160.3902, 18436.15
160.8723, 18171.85
161.3544, 17938.59
161.8365, 17706.80
162.3186, 17474.74
162.8007, 17249.37
163.2829, 17036.21
163.7650, 16829.16
164.2471, 16617.56
164.7292, 16394.44
165.2113, 16162.33
165.6934, 15959.10
166.1756, 15803.51
166.6577, 15656.03
167.1398, 15513.11
167.6219, 15371.95
168.1040, 15226.70
168.5861, 15071.63
169.0683, 14905.03
169.5504, 14759.84
170.0325, 14651.50
170.5146, 14547.13
170.9967, 14423.40
171.4788, 14282.79
171.9610, 14150.89
172.4431, 14054.20
172.9252, 14003.46
173.4073, 13941.39
173.8894, 13866.77
174.3715, 13782.20
174.8537, 13680.69
175.3358, 13560.14
175.8179, 13448.53
176.3000, 13391.81
176.7821, 13395.05
177.2642, 13376.81
177.7464, 13310.03
178.2285, 13214.11
178.7106, 13116.50
179.1927, 13018.80
179.6748, 12932.40
180.1569, 12876.21
180.6391, 12849.33
181.1212, 12826.55
181.6033, 12798.22
182.0854, 12764.79
182.5675, 12728.67
183.0496, 12691.11
183.5318, 12649.56
184.0139, 12596.83
184.4960, 12530.23
184.9781, 12474.96
185.4602, 12460.08
185.9423, 12486.11
186.4245, 12499.45
186.9066, 12471.57
187.3887, 12432.96
187.8708, 12407.38
188.3529, 12399.88
188.8350, 12398.97
189.3172, 12395.08
189.7993, 12391.91
190.2814, 12370.76
190.7635, 12306.38
191.2456, 12233.55
191.7277, 12175.55
192.2099, 12140.38
192.6920, 12125.53
193.1741, 12130.69
193.6562, 12172.98
194.1383, 12200.75
194.6204, 12196.28
195.1026, 12177.74
195.5847, 12163.30
196.0668, 12161.71
196.5489, 12168.07
197.0310, 12166.14
197.5131, 12145.49
197.9953, 12129.74
198.4774, 12132.49
198.9595, 12139.68
199.4416, 12130.47
199.9237, 12090.69
200.4058, 12027.37
200.8880, 11988.45
201.3701, 11999.50
201.8522, 12010.70
202.3343, 12010.71
202.8164, 12004.90
203.2985, 12005.11
203.7807, 12020.48
204.2628, 12050.30
204.7449, 12066.97
205.2270, 12058.10
205.7091, 12050.24
206.1912, 12056.04
206.6734, 12070.63
207.1555, 12079.16
207.6376, 12068.47
208.1197, 12036.82
208.6018, 12022.39
209.0839, 12036.67
209.5661, 12054.03
210.0482, 12062.54
210.5303, 12062.54
211.0124, 12060.56
211.4945, 12062.65
211.9766, 12069.46
212.4588, 12070.16
212.9409, 12062.48
213.4230, 12051.06
213.9051, 12035.04
214.3872, 12015.70
214.8693, 12002.33
215.3515, 12006.42
215.8336, 12030.99
216.3157, 12042.83
216.7978, 12029.21
217.2799, 12009.83
217.7620, 12001.08
218.2442, 12005.09
218.7263, 12017.50
219.2084, 12040.47
219.6905, 12073.63
220.1726, 12087.70
220.6547, 12064.87
221.1369, 12027.08
221.6190, 11996.69
222.1011, 11975.84
222.5832, 11967.38
223.0653, 11984.94
223.5474, 12024.19
224.0296, 12049.27
224.5117, 12039.18
224.9938, 12012.44
225.4759, 12003.97
225.9580, 12025.71
226.4401, 12044.85
226.9223, 12014.85
227.4044, 11946.27
227.8865, 11897.38
228.3686, 11911.67
228.8507, 11960.11
229.3328, 11971.41
229.8150, 11919.42
230.2971, 11862.04
230.7792, 11859.68
231.2613, 11901.92
231.7434, 11935.34
232.2255, 11931.36
232.7077, 11897.51
233.1898, 11854.82
233.6719, 11793.50
234.1540, 11743.36
234.6361, 11732.07
235.1182, 11753.41
235.6004, 11775.14
236.0825, 11776.13
236.5646, 11760.14
237.0467, 11748.37
237.5288, 11747.61
238.0109, 11745.48
238.4931, 11733.54
238.9752, 11712.79
239.4573, 11688.92
239.9394, 11663.99
240.4215, 11638.39
240.9036, 11616.91
241.3858, 11603.34
241.8679, 11590.77
242.3500, 11578.21
242.8321, 11564.35
243.3142, 11543.79
243.7963, 11502.95
244.2785, 11442.88
244.7606, 11410.14
245.2427, 11435.19
245.7248, 11462.27
246.2069, 11461.24
246.6890, 11434.59
247.1712, 11401.74
247.6533, 11376.76
248.1354, 11359.72
248.6175, 11348.01
249.0996, 11350.68
249.5817, 11350.17
250.0639, 11333.41
250.5460, 11303.89
251.0281, 11277.72
251.5102, 11270.26
251.9923, 11282.95
252.4744, 11296.15
252.9566, 11316.04
253.4387, 11330.39
253.9208, 11333.88
254.4029, 11326.96
254.8850, 11313.08
255.3671, 11290.89
255.8493, 11258.05
256.3314, 11240.11
256.8135, 11261.19
257.2956, 11277.52
257.7777, 11264.04
258.2599, 11227.81
258.7420, 11197.03
259.2241, 11202.94
259.7062, 11250.74
260.1883, 11278.29
260.6704, 11258.26
261.1526, 11239.88
261.6347, 11247.82
262.1168, 11274.86
262.5989, 11293.92
263.0810, 11274.59
263.5631, 11211.28
264.0453, 11178.54
264.5274, 11210.27
265.0095, 11244.70
265.4916, 11263.69
265.9737, 11267.99
266.4558, 11265.96
266.9380, 11262.62
267.4201, 11257.47
267.9022, 11261.43
268.3843, 11299.96
268.8664, 11324.34
269.3485, 11312.50
269.8307, 11272.82
270.3128, 11226.65
270.7949, 11187.85
271.2770, 11156.07
271.7591, 11144.98
272.2412, 11173.33
272.7234, 11206.54
273.2055, 11242.61
273.6876, 11276.77
274.1697, 11300.60
274.6518, 11306.35
275.1339, 11294.72
275.6161, 11288.14
276.0982, 11294.58
276.5803, 11298.52
277.0624, 11292.09
277.5445, 11280.52
278.0266, 11274.81
278.5088, 11283.97
278.9909, 11305.90
279.4730, 11315.68
279.9551, 11292.28
280.4372, 11278.48
280.9193, 11290.08
281.4015, 11316.47
281.8836, 11340.68
282.3657, 11352.54
282.8478, 11353.14
283.3299, 11348.93
283.8120, 11330.94
284.2942, 11318.67
284.7763, 11320.19
285.2584, 11328.57
285.7405, 11331.30
286.2226, 11319.65
286.7047, 11302.27
287.1869, 11316.27
287.6690, 11404.05
288.1511, 11468.18
288.6332, 11483.97
289.1153, 11471.96
289.5974, 11454.41
290.0796, 11441.72
290.5617, 11433.14
291.0438, 11426.51
291.5259, 11419.89
292.0080, 11418.86
292.4901, 11424.67
292.9723, 11435.48
293.4544, 11450.03
293.9365, 11467.80
294.4186, 11487.89
294.9007, 11509.75
295.3828, 11542.33
295.8650, 11559.46
296.3471, 11546.35
296.8292, 11526.12
297.3113, 11515.74
297.7934, 11520.89
298.2755, 11540.40
298.7577, 11578.20
299.2398, 11658.97
299.7219, 11700.66
300.2040, 11660.96
300.6861, 11610.80
301.1682, 11605.31
301.6504, 11653.60
302.1325, 11716.97
302.6146, 11738.20
303.0967, 11696.25
303.5788, 11677.04
304.0609, 11696.58
304.5431, 11728.91
305.0252, 11769.26
305.5073, 11812.42
305.9894, 11844.81
306.4715, 11842.11
306.9536, 11789.53
307.4358, 11773.03
307.9179, 11835.32
308.4000, 11899.13
308.8821, 11930.72
309.3642, 11932.49
309.8463, 11928.14
310.3285, 11939.24
310.8106, 11966.66
311.2927, 11988.12
311.7748, 12001.85
312.2569, 12010.50
312.7390, 12009.69
313.2212, 12004.13
313.7033, 12004.33
314.1854, 12018.73
314.6675, 12045.80
315.1496, 12074.75
315.6317, 12118.19
316.1139, 12145.26
316.5960, 12136.67
317.0781, 12107.36
317.5602, 12082.36
318.0423, 12077.05
318.5244, 12084.84
319.0066, 12084.37
319.4887, 12072.87
319.9708, 12058.13
320.4529, 12038.96
320.9350, 12019.86
321.4171, 12010.48
321.8993, 12020.13
322.3814, 12028.81
322.8635, 11989.30
323.3456, 11878.13
323.8277, 11790.35
324.3098, 11773.01
324.7920, 11783.99
325.2741, 11791.35
325.7562, 11787.32
326.2383, 11773.34
326.7204, 11749.14
327.2025, 11713.77
327.6847, 11676.34
328.1668, 11636.46
328.6489, 11597.46
329.1310, 11562.41
329.6131, 11531.82
330.0952, 11503.26
330.5774, 11475.43
331.0595, 11448.22
331.5416, 11422.53
332.0237, 11410.44
332.5058, 11385.25
332.9879, 11320.02
333.4701, 11216.85
333.9522, 11114.67
334.4343, 11027.60
334.9164, 10958.35
335.3985, 10922.16
335.8806, 10934.16
336.3628, 10954.10
336.8449, 10950.09
337.3270, 10926.34
337.8091, 10895.85
338.2912, 10866.03
338.7733, 10831.84
339.2555, 10779.18
339.7376, 10701.94
340.2197, 10630.32
340.7018, 10591.32
341.1839, 10575.43
341.6660, 10559.44
342.1482, 10543.39
342.6303, 10522.57
343.1124, 10491.16
343.5945, 10449.43
344.0766, 10403.27
344.5587, 10352.89
345.0409, 10301.80
345.5230, 10258.85
346.0051, 10227.79
346.4872, 10200.44
346.9693, 10177.25
347.4514, 10155.14
347.9336, 10121.90
348.4157, 10069.58
348.8978, 10006.42
349.3799, 9949.841
349.8620, 9897.229
350.3441, 9854.228
350.8263, 9825.483
351.3084, 9806.698
351.7905, 9792.242
352.2726, 9780.705
352.7547, 9770.666
353.2368, 9761.603
353.7190, 9758.125
354.2011, 9740.191
354.6832, 9688.820
355.1653, 9632.016
355.6474, 9598.917
356.1295, 9592.861
356.6117, 9593.751
357.0938, 9580.964
357.5759, 9551.513
358.0580, 9523.530
358.5401, 9494.849
359.0222, 9469.359
359.5044, 9448.253
359.9865, 9432.095
360.4686, 9421.911
360.9507, 9419.313
361.4328, 9423.848
361.9149, 9425.974
362.3971, 9438.145
362.8792, 9434.502
363.3613, 9388.295
363.8434, 9325.687
364.3255, 9289.354
364.8076, 9301.801
365.2898, 9347.927
365.7719, 9381.583
366.2540, 9407.348
366.7361, 9411.230
367.2182, 9373.144
367.7003, 9324.630
368.1825, 9297.535
368.6646, 9300.176
369.1467, 9312.450
369.6288, 9299.499
370.1109, 9243.347
370.5930, 9213.183
371.0752, 9239.502
371.5573, 9268.692
372.0394, 9268.053
372.5215, 9238.964
373.0036, 9206.757
373.4857, 9195.246
373.9679, 9204.903
374.4500, 9213.851
374.9321, 9218.043
375.4142, 9226.522
375.8963, 9249.756
376.3784, 9279.633
376.8606, 9298.965
377.3427, 9295.408
377.8248, 9276.162
378.3069, 9261.229
378.7890, 9253.424
379.2711, 9242.279
379.7533, 9203.382
380.2354, 9165.736
380.7175, 9170.544
381.1996, 9242.980
381.6817, 9326.521
382.1638, 9350.952
382.6460, 9315.880
383.1281, 9288.315
383.6102, 9290.511
384.0923, 9310.102
384.5744, 9333.360
385.0565, 9361.799
385.5387, 9382.968
386.0208, 9384.979
386.5029, 9374.622
386.9850, 9368.243
387.4671, 9368.401
387.9492, 9374.887
388.4314, 9391.030
388.9135, 9415.803
389.3956, 9437.053
389.8777, 9456.306
390.3598, 9468.454
390.8419, 9460.572
391.3241, 9433.976
391.8062, 9416.407
392.2883, 9429.924
392.7704, 9472.316
393.2525, 9509.919
393.7346, 9539.604
394.2168, 9567.902
394.6989, 9605.055
395.1810, 9642.771
395.6631, 9660.425
396.1452, 9646.250
396.6273, 9613.352
397.1095, 9597.133
397.5916, 9608.917
398.0737, 9623.371
398.5558, 9648.658
399.0379, 9671.322
399.5201, 9672.656
400.0022, 9650.870
400.4843, 9626.925
400.9664, 9630.246
401.4485, 9672.613
401.9306, 9701.534
402.4128, 9710.698
402.8949, 9714.354
403.3770, 9721.068
403.8591, 9728.441
404.3412, 9726.640
404.8233, 9705.078
405.3055, 9667.749
405.7876, 9650.140
406.2697, 9657.244
406.7518, 9679.114
407.2339, 9730.678
407.7160, 9787.508
408.1982, 9820.012
408.6803, 9815.694
409.1624, 9785.751
409.6445, 9736.385
410.1266, 9656.612
410.6087, 9614.924
411.0909, 9668.046
411.5730, 9739.109
412.0551, 9769.811
412.5372, 9755.306
413.0193, 9734.763
413.5014, 9742.388
413.9836, 9768.836
414.4657, 9773.981
414.9478, 9746.759
415.4299, 9711.900
415.9120, 9684.427
416.3941, 9664.711
416.8763, 9657.673
417.3584, 9686.252
417.8405, 9714.411
418.3226, 9695.722
418.8047, 9632.158
419.2868, 9570.606
419.7690, 9533.913
420.2511, 9520.410
420.7332, 9521.577
421.2153, 9559.089
421.6974, 9579.438
422.1795, 9548.783
422.6617, 9491.763
423.1438, 9450.005
423.6259, 9437.146
424.1080, 9439.367
424.5901, 9436.557
425.0722, 9429.063
425.5544, 9414.177
426.0365, 9385.278
426.5186, 9354.589
427.0007, 9330.978
427.4828, 9314.148
427.9649, 9298.299
428.4471, 9278.740
428.9292, 9255.616
429.4113, 9232.560
429.8934, 9202.801
430.3755, 9181.037
430.8576, 9178.783
431.3398, 9183.396
431.8219, 9176.225
432.3040, 9148.612
432.7861, 9113.004
433.2682, 9096.109
433.7503, 9108.538
434.2325, 9105.593
434.7146, 9072.137
435.1967, 9026.387
435.6788, 8968.306
436.1609, 8902.330
436.6430, 8853.706
437.1252, 8857.520
437.6073, 8900.029
438.0894, 8908.475
438.5715, 8864.986
439.0536, 8817.422
439.5357, 8800.057
440.0179, 8801.614
440.5000, 8800.833
440.9821, 8795.813
441.4642, 8782.871
441.9463, 8753.632
442.4284, 8710.508
442.9106, 8671.043
443.3927, 8643.479
443.8748, 8623.882
444.3569, 8604.839
444.8390, 8588.937
445.3211, 8567.105
445.8033, 8526.224
446.2854, 8482.717
446.7675, 8459.311
447.2496, 8459.697
447.7317, 8468.863
448.2138, 8472.569
448.6960, 8471.186
449.1781, 8459.326
449.6602, 8432.794
450.1423, 8401.747
450.6244, 8364.533
451.1065, 8326.556
451.5887, 8299.198
452.0708, 8289.853
452.5529, 8290.525
453.0350, 8275.518
453.5171, 8229.626
453.9992, 8195.170
454.4814, 8191.031
454.9635, 8188.962
455.4456, 8162.170
455.9277, 8108.712
456.4098, 8054.799
456.8919, 8031.589
457.3741, 8038.113
457.8562, 8029.838
458.3383, 7994.347
458.8204, 7959.964
459.3026, 7947.476
459.7847, 7947.067
460.2668, 7936.894
460.7489, 7899.209
461.2310, 7857.572
461.7131, 7852.477
462.1953, 7882.303
462.6774, 7885.342
463.1595, 7824.507
463.6416, 7734.041
464.1237, 7676.407
464.6058, 7659.143
465.0880, 7642.821
465.5701, 7607.594
466.0522, 7568.329
466.5343, 7551.218
467.0164, 7559.482
467.4985, 7564.576
467.9807, 7536.614
468.4628, 7472.195
468.9449, 7428.867
469.4270, 7417.948
469.9091, 7412.990
470.3912, 7404.831
470.8734, 7395.521
471.3555, 7391.637
471.8376, 7396.568
472.3197, 7403.393
472.8018, 7395.922
473.2839, 7368.526
473.7661, 7338.263
474.2482, 7296.856
474.7303, 7260.229
475.2124, 7242.184
475.6945, 7240.684
476.1766, 7239.712
476.6588, 7224.803
477.1409, 7198.843
477.6230, 7177.030
478.1051, 7155.950
478.5872, 7146.894
479.0693, 7173.307
479.5515, 7209.769
480.0336, 7220.528
480.5157, 7192.805
480.9978, 7148.426
481.4799, 7094.667
481.9620, 7037.019
482.4442, 7000.217
482.9263, 6994.261
483.4084, 7003.907
483.8905, 7010.642
484.3726, 7013.792
484.8547, 7021.347
485.3369, 7047.074
485.8190, 7067.667
486.3011, 7059.068
486.7832, 7026.761
487.2653, 6996.120
487.7474, 6983.566
488.2296, 6985.805
488.7117, 6987.966
489.1938, 6989.413
489.6759, 6991.514
490.1580, 6991.843
490.6401, 6994.306
491.1223, 7005.607
491.6044, 7025.477
492.0865, 7043.473
492.5686, 7047.429
493.0507, 7036.497
493.5328, 7024.672
494.0150, 7008.973
494.4971, 6996.621
494.9792, 6994.678
495.4613, 6997.106
495.9434, 6992.278
496.4255, 6972.445
496.9077, 6949.862
497.3898, 6940.865
497.8719, 6944.735
498.3540, 6948.389
498.8361, 6948.213
499.3182, 6945.765
499.8004, 6943.196
500.2825, 6940.610
500.7646, 6936.723
501.2467, 6927.699
501.7288, 6919.467
502.2109, 6917.067
502.6931, 6921.006
503.1752, 6932.317
503.6573, 6954.129
504.1394, 6982.541
504.6215, 6994.487
505.1036, 6971.498
505.5858, 6955.492
506.0679, 6959.074
506.5500, 6967.554
507.0321, 6962.737
507.5142, 6942.469
507.9963, 6923.465
508.4785, 6928.740
508.9606, 6961.612
509.4427, 6976.098
509.9248, 6962.349
510.4069, 6941.457
510.8890, 6912.126
511.3712, 6883.877
511.8533, 6872.452
512.3354, 6886.296
512.8175, 6913.214
513.2996, 6944.489
513.7817, 6979.190
514.2639, 7001.414
514.7460, 7007.768
515.2281, 6998.862
515.7102, 6965.330
516.1923, 6907.318
516.6744, 6869.505
517.1566, 6873.727
517.6387, 6892.904
518.1208, 6908.984
518.6029, 6919.574
519.0850, 6921.781
519.5671, 6912.380
520.0493, 6896.208
520.5314, 6890.112
521.0135, 6909.317
521.4956, 6918.541
521.9777, 6913.750
522.4598, 6900.906
522.9420, 6881.470
523.4241, 6857.712
523.9062, 6836.072
524.3883, 6822.768
524.8704, 6817.183
525.3525, 6813.371
525.8347, 6813.738
526.3168, 6811.457
526.7989, 6800.587
527.2810, 6787.142
527.7631, 6778.624
528.2452, 6777.455
528.7274, 6777.871
529.2095, 6776.252
529.6916, 6772.538
530.1737, 6766.741
530.6558, 6759.006
531.1379, 6748.087
531.6201, 6729.530
532.1022, 6703.746
532.5843, 6691.071
533.0664, 6711.311
533.5485, 6724.816
534.0306, 6706.088
534.5128, 6668.110
534.9949, 6634.785
535.4770, 6615.756
535.9591, 6606.621
536.4412, 6601.612
536.9233, 6606.173
537.4055, 6599.885
537.8876, 6568.218
538.3697, 6540.084
538.8518, 6530.823
539.3339, 6535.584
539.8160, 6541.549
540.2982, 6542.430
540.7803, 6539.427
541.2624, 6533.998
541.7445, 6525.865
542.2266, 6518.884
542.7087, 6518.031
543.1909, 6514.838
543.6730, 6498.443
544.1551, 6468.688
544.6372, 6439.273
545.1193, 6414.878
545.6014, 6393.135
546.0836, 6367.788
546.5657, 6340.722
547.0478, 6327.006
547.5299, 6338.806
548.0120, 6365.229
548.4941, 6368.381
548.9763, 6322.247
549.4584, 6285.588
549.9405, 6256.331
550.4226, 6238.927
550.9047, 6243.006
551.3868, 6264.750
551.8690, 6285.814
552.3511, 6289.403
552.8332, 6279.408
553.3153, 6280.662
553.7974, 6303.167
554.2795, 6313.745
554.7617, 6284.706
555.2438, 6245.431
555.7259, 6225.687
556.2080, 6231.527
556.6901, 6240.847
557.1722, 6238.976
557.6544, 6231.697
558.1365, 6231.577
558.6186, 6240.329
559.1007, 6247.031
559.5828, 6242.619
560.0649, 6228.913
560.5471, 6220.091
561.0292, 6214.432
561.5113, 6215.129
561.9934, 6228.582
562.4755, 6245.822
562.9576, 6258.189
563.4398, 6263.427
563.9219, 6262.722
564.4040, 6254.779
564.8861, 6239.608
565.3682, 6237.063
565.8503, 6254.075
566.3325, 6273.473
566.8146, 6290.040
567.2967, 6304.861
567.7788, 6318.199
568.2609, 6329.269
568.7430, 6343.464
569.2252, 6369.348
569.7073, 6401.789
570.1894, 6423.766
570.6715, 6431.423
571.1536, 6438.358
571.6357, 6457.569
572.1179, 6487.505
572.6000, 6506.719
573.0821, 6514.500
573.5642, 6513.483
574.0463, 6492.663
574.5284, 6468.657
575.0106, 6466.446
575.4927, 6490.644
575.9748, 6520.735
576.4569, 6530.740
576.9390, 6518.795
577.4211, 6519.851
577.9033, 6550.402
578.3854, 6571.099
578.8675, 6560.575
579.3496, 6535.902
579.8317, 6519.997
580.3138, 6520.053
580.7960, 6524.282
581.2781, 6525.424
581.7602, 6522.628
582.2423, 6513.497
582.7244, 6497.766
583.2065, 6474.253
583.6887, 6437.959
584.1708, 6390.853
584.6529, 6357.953
