##NAMES=Plattnerite
##RRUFFID=R070605
##IDEAL CHEMISTRY=Pb^4+^O_2_
##LOCALITY=Ojuela mine, Mapimi, Durango, Mexico
##OWNER=RRUFF
##SOURCE=James Shigley
##DESCRIPTION=Black tarnished metallic prismatic crystals.
##STATUS=The identification of this mineral is confirmed by single-crystal X-ray diffraction and chemical analysis.
##URL=rruff.info/R070605
##MEASURED CHEMISTRY=Pb_1.00_O_2_
90.15295, 613.0861
90.63506, 594.4893
91.11718, 581.0422
91.59930, 585.8673
92.08141, 603.5040
92.56352, 620.6644
93.04564, 636.9246
93.52776, 650.2267
94.00987, 654.4537
94.49199, 649.2281
94.97411, 643.1658
95.45622, 644.0480
95.93834, 651.6514
96.42046, 658.4248
96.90257, 661.4799
97.38469, 661.7180
97.86681, 667.5173
98.34892, 681.1974
98.83104, 695.8657
99.31316, 700.0041
99.79527, 689.8416
100.2774, 682.1884
100.7595, 685.2792
101.2416, 704.4577
101.7237, 713.8169
102.2059, 705.2361
102.6880, 688.5540
103.1701, 693.6439
103.6522, 725.3824
104.1343, 772.8934
104.6164, 829.6851
105.0985, 896.1221
105.5807, 972.5139
106.0628, 1061.372
106.5449, 1163.863
107.0270, 1265.291
107.5091, 1348.733
107.9912, 1438.873
108.4734, 1556.557
108.9555, 1703.452
109.4376, 1878.062
109.9197, 2077.408
110.4018, 2299.671
110.8839, 2560.055
111.3661, 2820.886
111.8482, 3124.550
112.3303, 3536.029
112.8124, 4093.720
113.2945, 4744.180
113.7766, 5469.031
114.2588, 6262.330
114.7409, 7129.465
115.2230, 8071.113
115.7051, 9081.681
116.1872, 10150.27
116.6693, 11272.47
117.1515, 12441.26
117.6336, 13650.09
118.1157, 14901.70
118.5978, 16189.13
119.0799, 17515.36
119.5620, 18869.09
120.0442, 20246.36
120.5263, 21666.10
121.0084, 23113.46
121.4905, 24572.33
121.9726, 26038.97
122.4547, 27511.57
122.9369, 28997.14
123.4190, 30485.89
123.9011, 31971.54
124.3832, 33394.51
124.8653, 34788.42
125.3474, 36263.88
125.8296, 37906.54
126.3117, 39694.48
126.7938, 41575.16
127.2759, 43531.95
127.7580, 45592.22
128.2401, 47771.41
128.7223, 50078.35
129.2044, 52511.06
129.6865, 55080.21
130.1686, 57778.90
130.6507, 60482.57
131.1328, 63193.09
131.6150, 65907.58
132.0971, 68540.26
132.5792, 71189.46
133.0613, 73542.66
133.5434, 75242.63
134.0255, 76278.17
134.5076, 76629.80
134.9898, 76212.76
135.4719, 74989.71
135.9540, 73341.96
136.4361, 71212.87
136.9182, 68718.42
137.4003, 66152.83
137.8825, 63440.71
138.3646, 60796.63
138.8467, 58301.45
139.3288, 55928.20
139.8109, 53764.68
140.2930, 51831.61
140.7752, 50126.32
141.2573, 48560.76
141.7394, 47147.47
142.2215, 45875.79
142.7036, 44760.84
143.1857, 43815.55
143.6679, 42957.27
144.1500, 41943.58
144.6321, 40991.77
145.1142, 40050.34
145.5963, 39082.59
146.0784, 38145.13
146.5606, 37329.23
147.0427, 36741.23
147.5248, 36154.47
148.0069, 35508.18
148.4890, 34744.78
148.9711, 34042.78
149.4533, 33423.07
149.9354, 32858.34
150.4175, 32306.18
150.8996, 31759.37
151.3817, 31227.14
151.8638, 30714.73
152.3460, 30221.95
152.8281, 29757.08
153.3102, 29323.63
153.7923, 28918.64
154.2744, 28518.15
154.7565, 28093.40
155.2386, 27685.96
155.7208, 27318.31
156.2029, 27028.46
156.6850, 26748.96
157.1671, 26454.97
157.6492, 26145.27
158.1313, 25851.90
158.6135, 25581.99
159.0956, 25330.61
159.5777, 25091.12
160.0598, 24875.99
160.5419, 24659.93
161.0240, 24423.20
161.5062, 24158.01
161.9883, 23904.06
162.4704, 23698.79
162.9525, 23515.13
163.4346, 23306.18
163.9167, 23009.25
164.3989, 22703.33
164.8810, 22457.60
165.3631, 22308.75
165.8452, 22157.94
166.3273, 21919.43
166.8094, 21621.94
167.2916, 21359.59
167.7737, 21194.83
168.2558, 21084.33
168.7379, 20986.60
169.2200, 20904.53
169.7021, 20814.74
170.1843, 20699.64
170.6664, 20560.71
171.1485, 20400.33
171.6306, 20198.77
172.1127, 19978.88
172.5948, 19779.88
173.0770, 19619.83
173.5591, 19484.12
174.0412, 19357.97
174.5233, 19242.12
175.0054, 19136.87
175.4875, 19048.93
175.9697, 18972.41
176.4518, 18893.80
176.9339, 18815.07
177.4160, 18728.13
177.8981, 18618.31
178.3802, 18481.86
178.8624, 18335.22
179.3445, 18180.27
179.8266, 18022.81
180.3087, 17893.86
180.7908, 17827.94
181.2729, 17802.88
181.7551, 17757.94
182.2372, 17684.58
182.7193, 17596.56
183.2014, 17516.92
183.6835, 17444.04
184.1656, 17366.26
184.6478, 17274.38
185.1299, 17170.00
185.6120, 17056.74
186.0941, 16929.50
186.5762, 16800.14
187.0583, 16689.51
187.5405, 16598.52
188.0226, 16524.87
188.5047, 16478.21
188.9868, 16454.88
189.4689, 16417.98
189.9510, 16353.07
190.4332, 16270.55
190.9153, 16206.06
191.3974, 16162.86
191.8795, 16123.26
192.3616, 16070.74
192.8437, 16004.60
193.3259, 15929.20
193.8080, 15834.03
194.2901, 15726.09
194.7722, 15659.00
195.2543, 15639.23
195.7364, 15644.09
196.2186, 15648.31
196.7007, 15652.39
197.1828, 15650.35
197.6649, 15639.45
198.1470, 15619.59
198.6291, 15589.30
199.1112, 15538.99
199.5934, 15492.81
200.0755, 15503.04
200.5576, 15581.92
201.0397, 15659.17
201.5218, 15698.84
202.0039, 15697.70
202.4861, 15688.33
202.9682, 15663.41
203.4503, 15637.79
203.9324, 15654.30
204.4145, 15724.52
204.8966, 15800.58
205.3788, 15853.28
205.8609, 15877.04
206.3430, 15904.28
206.8251, 15939.87
207.3072, 15980.37
207.7893, 16008.36
208.2715, 16013.99
208.7536, 16028.79
209.2357, 16082.94
209.7178, 16192.23
210.1999, 16279.95
210.6820, 16329.55
211.1642, 16346.81
211.6463, 16375.62
212.1284, 16414.75
212.6105, 16467.95
213.0926, 16539.34
213.5747, 16633.88
214.0569, 16734.71
214.5390, 16842.44
215.0211, 16955.93
215.5032, 17060.46
215.9853, 17150.81
216.4674, 17238.26
216.9496, 17342.38
217.4317, 17485.58
217.9138, 17592.57
218.3959, 17627.43
218.8780, 17576.48
219.3601, 17604.05
219.8423, 17741.29
220.3244, 17928.87
220.8065, 18090.95
221.2886, 18216.91
221.7707, 18335.95
222.2528, 18454.52
222.7349, 18572.69
223.2171, 18695.41
223.6992, 18825.27
224.1813, 18958.81
224.6634, 19093.07
225.1455, 19226.29
225.6276, 19362.28
226.1098, 19500.85
226.5919, 19644.24
227.0740, 19784.95
227.5561, 19922.88
228.0382, 20057.70
228.5203, 20181.41
229.0025, 20273.76
229.4846, 20386.43
229.9667, 20544.30
230.4488, 20777.24
230.9309, 20986.48
231.4130, 21164.37
231.8952, 21320.19
232.3773, 21483.50
232.8594, 21655.12
233.3415, 21835.31
233.8236, 22024.26
234.3057, 22215.30
234.7879, 22426.14
235.2700, 22674.41
235.7521, 22945.16
236.2342, 23177.19
236.7163, 23349.82
237.1984, 23510.57
237.6806, 23686.89
238.1627, 23878.48
238.6448, 24080.80
239.1269, 24288.43
239.6090, 24504.23
240.0911, 24750.60
240.5733, 25050.52
241.0554, 25353.55
241.5375, 25625.31
242.0196, 25848.47
242.5017, 26069.39
242.9838, 26289.54
243.4660, 26509.98
243.9481, 26741.23
244.4302, 26976.11
244.9123, 27230.17
245.3944, 27523.17
245.8765, 27897.78
246.3586, 28227.50
246.8408, 28479.99
247.3229, 28659.99
247.8050, 28887.29
248.2871, 29175.72
248.7692, 29495.81
249.2513, 29829.88
249.7335, 30199.51
250.2156, 30530.87
250.6977, 30802.30
251.1798, 31012.83
251.6619, 31244.78
252.1440, 31514.56
252.6262, 31783.99
253.1083, 32005.55
253.5904, 32138.85
254.0725, 32314.75
254.5546, 32582.45
255.0367, 32952.01
255.5189, 33230.60
256.0010, 33382.23
256.4831, 33487.28
256.9652, 33637.50
257.4473, 33861.46
257.9294, 34067.13
258.4116, 34223.69
258.8937, 34329.90
259.3758, 34442.23
259.8579, 34561.80
260.3400, 34687.05
260.8221, 34823.51
261.3043, 34982.21
261.7864, 35120.27
262.2685, 35222.16
262.7506, 35285.77
263.2327, 35347.66
263.7148, 35420.96
264.1970, 35477.76
264.6791, 35476.75
265.1612, 35403.68
265.6433, 35316.43
266.1254, 35228.89
266.6075, 35141.70
267.0897, 35068.58
267.5718, 35023.62
268.0539, 34973.97
268.5360, 34863.23
269.0181, 34672.23
269.5002, 34490.47
269.9824, 34356.16
270.4645, 34273.96
270.9466, 34166.16
271.4287, 34026.25
271.9108, 33867.39
272.3929, 33716.02
272.8751, 33581.64
273.3572, 33409.28
273.8393, 33166.69
274.3214, 32849.54
274.8035, 32557.31
275.2856, 32296.01
275.7678, 32046.11
276.2499, 31784.80
276.7320, 31512.19
277.2141, 31230.23
277.6962, 30927.39
278.1783, 30603.19
278.6604, 30336.69
279.1425, 30146.37
279.6247, 29968.88
280.1068, 29697.03
280.5889, 29324.79
281.0710, 28956.43
281.5531, 28650.85
282.0352, 28400.96
282.5174, 28092.57
282.9995, 27710.20
283.4816, 27320.43
283.9637, 27039.35
284.4458, 26866.00
284.9279, 26678.40
285.4101, 26403.34
285.8922, 26058.16
286.3743, 25758.29
286.8564, 25515.40
287.3385, 25291.00
287.8206, 25033.79
288.3028, 24746.06
288.7849, 24465.80
289.2670, 24217.39
289.7491, 23991.77
290.2312, 23752.44
290.7133, 23497.55
291.1955, 23239.02
291.6776, 22979.85
292.1597, 22722.31
292.6418, 22488.83
293.1239, 22305.82
293.6060, 22151.10
294.0882, 21971.44
294.5703, 21761.89
295.0524, 21535.81
295.5345, 21296.37
296.0166, 21049.02
296.4987, 20816.30
296.9809, 20615.35
297.4630, 20435.58
297.9451, 20264.02
298.4272, 20101.34
298.9093, 19943.14
299.3914, 19796.58
299.8736, 19653.51
300.3557, 19496.93
300.8378, 19300.93
301.3199, 19093.77
301.8020, 18911.59
302.2841, 18758.74
302.7663, 18610.41
303.2484, 18432.64
303.7305, 18243.31
304.2126, 18081.54
304.6947, 17992.66
305.1768, 17922.75
305.6590, 17819.38
306.1411, 17677.34
306.6232, 17528.43
307.1053, 17379.67
307.5874, 17239.18
308.0695, 17122.20
308.5517, 17073.12
309.0338, 17022.96
309.5159, 16912.38
309.9980, 16737.28
310.4801, 16564.32
310.9622, 16422.30
311.4444, 16307.39
311.9265, 16214.74
312.4086, 16181.13
312.8907, 16138.16
313.3728, 16036.61
313.8549, 15874.10
314.3371, 15726.80
314.8192, 15641.04
315.3013, 15582.96
315.7834, 15520.26
316.2655, 15442.15
316.7477, 15358.37
317.2298, 15271.00
317.7119, 15180.21
318.1940, 15089.05
318.6761, 14988.31
319.1582, 14893.46
319.6404, 14817.80
320.1225, 14772.64
320.6046, 14738.40
321.0867, 14723.36
321.5688, 14725.41
322.0509, 14699.06
322.5330, 14604.66
323.0151, 14498.49
323.4973, 14419.29
323.9794, 14390.05
324.4615, 14366.62
324.9436, 14344.72
325.4257, 14324.25
325.9078, 14306.51
326.3900, 14313.48
326.8721, 14307.47
327.3542, 14265.01
327.8363, 14133.23
328.3184, 14037.61
328.8005, 14002.02
329.2827, 14015.02
329.7648, 14007.66
330.2469, 13965.42
330.7290, 13918.50
331.2111, 13884.94
331.6932, 13870.68
332.1754, 13856.87
332.6575, 13843.86
333.1396, 13830.77
333.6217, 13813.04
334.1038, 13787.58
334.5859, 13762.99
335.0681, 13743.16
335.5502, 13727.40
336.0323, 13718.66
336.5144, 13719.27
336.9965, 13724.91
337.4786, 13725.41
337.9608, 13719.95
338.4429, 13711.46
338.9250, 13701.46
339.4071, 13690.12
339.8892, 13673.41
340.3713, 13648.58
340.8535, 13622.87
341.3356, 13609.43
341.8177, 13608.54
342.2998, 13615.42
342.7819, 13634.17
343.2640, 13661.78
343.7462, 13675.11
344.2283, 13672.51
344.7104, 13661.36
345.1925, 13648.69
345.6746, 13635.06
346.1567, 13624.61
346.6389, 13621.71
347.1210, 13623.22
347.6031, 13622.00
348.0852, 13618.25
348.5673, 13609.41
349.0494, 13578.66
349.5316, 13538.71
350.0137, 13524.15
350.4958, 13576.40
350.9779, 13649.89
351.4600, 13681.05
351.9421, 13670.28
352.4243, 13651.64
352.9064, 13658.21
353.3885, 13673.39
353.8706, 13670.58
354.3527, 13610.15
354.8348, 13553.05
355.3170, 13562.65
355.7991, 13630.18
356.2812, 13676.99
356.7633, 13633.80
357.2454, 13557.66
357.7275, 13505.48
358.2097, 13515.60
358.6918, 13527.18
359.1739, 13513.51
359.6560, 13477.89
360.1381, 13433.86
360.6202, 13370.25
361.1024, 13310.24
361.5845, 13270.49
362.0666, 13274.69
362.5487, 13268.49
363.0308, 13234.62
363.5129, 13180.53
363.9951, 13126.73
364.4772, 13069.78
364.9593, 13020.14
365.4414, 12985.68
365.9235, 12991.23
366.4056, 12966.60
366.8878, 12881.17
367.3699, 12768.93
367.8520, 12689.86
368.3341, 12681.63
368.8162, 12662.92
369.2983, 12604.20
369.7804, 12490.06
370.2625, 12398.88
370.7447, 12339.48
371.2268, 12296.55
371.7089, 12249.40
372.1910, 12198.57
372.6731, 12142.13
373.1552, 12081.76
373.6374, 12017.02
374.1195, 11933.88
374.6016, 11822.27
375.0837, 11710.38
375.5658, 11633.62
376.0479, 11596.95
376.5301, 11547.02
377.0122, 11463.66
377.4943, 11358.79
377.9764, 11288.33
378.4585, 11255.42
378.9406, 11230.31
379.4228, 11193.54
379.9049, 11144.67
380.3870, 11076.36
380.8691, 10980.53
381.3512, 10874.78
381.8333, 10793.44
382.3155, 10734.62
382.7976, 10671.02
383.2797, 10572.78
383.7618, 10460.12
384.2439, 10372.82
384.7260, 10321.48
385.2082, 10285.25
385.6903, 10256.63
386.1724, 10228.28
386.6545, 10179.25
387.1366, 10066.31
387.6187, 9945.088
388.1009, 9878.256
388.5830, 9879.742
389.0651, 9879.056
389.5472, 9821.794
390.0293, 9735.764
390.5114, 9661.081
390.9936, 9624.484
391.4757, 9595.545
391.9578, 9561.593
392.4399, 9521.896
392.9220, 9476.936
393.4041, 9424.625
393.8863, 9368.066
394.3684, 9310.399
394.8505, 9245.669
395.3326, 9187.660
395.8147, 9141.288
396.2968, 9105.753
396.7790, 9070.579
397.2611, 9040.185
397.7432, 9006.066
398.2253, 8963.146
398.7074, 8898.815
399.1895, 8844.563
399.6717, 8804.649
400.1538, 8774.797
400.6359, 8742.957
401.1180, 8711.753
401.6001, 8674.273
402.0822, 8624.432
402.5644, 8555.362
403.0465, 8502.174
403.5286, 8470.043
404.0107, 8447.794
404.4928, 8417.219
404.9749, 8377.197
405.4571, 8337.012
405.9392, 8299.345
406.4213, 8264.622
406.9034, 8233.331
407.3855, 8205.988
407.8676, 8180.729
408.3498, 8155.107
408.8319, 8129.505
409.3140, 8106.808
409.7961, 8083.892
410.2782, 8066.900
410.7603, 8080.476
411.2425, 8121.440
411.7246, 8143.021
412.2067, 8089.671
412.6888, 7996.712
413.1709, 7925.430
413.6530, 7892.941
414.1351, 7878.669
414.6172, 7878.607
415.0994, 7884.440
415.5815, 7870.665
416.0636, 7796.590
416.5457, 7715.022
417.0278, 7668.946
417.5099, 7674.811
417.9921, 7681.957
418.4742, 7667.343
418.9563, 7640.705
419.4384, 7616.591
419.9205, 7602.616
420.4026, 7588.453
420.8848, 7570.590
421.3669, 7548.285
421.8490, 7525.281
422.3311, 7501.438
422.8132, 7477.292
423.2953, 7453.417
423.7775, 7431.212
424.2596, 7406.704
424.7417, 7375.505
425.2238, 7340.104
425.7059, 7318.652
426.1880, 7318.575
426.6702, 7321.838
427.1523, 7318.086
427.6344, 7306.073
428.1165, 7291.596
428.5986, 7273.913
429.0807, 7255.081
429.5629, 7239.214
430.0450, 7226.670
430.5271, 7215.153
431.0092, 7205.104
431.4913, 7195.864
431.9734, 7181.447
432.4556, 7160.696
432.9377, 7139.544
433.4198, 7126.799
433.9019, 7120.260
434.3840, 7110.549
434.8661, 7093.383
435.3483, 7071.817
435.8304, 7045.418
436.3125, 7015.362
436.7946, 6995.917
437.2767, 7012.201
437.7589, 7040.353
438.2410, 7048.184
438.7231, 7017.995
439.2052, 6981.388
439.6873, 6955.800
440.1694, 6939.309
440.6516, 6926.597
441.1337, 6915.587
441.6158, 6907.783
442.0979, 6905.070
442.5800, 6909.859
443.0621, 6912.856
443.5443, 6910.747
444.0264, 6906.165
444.5085, 6902.647
444.9906, 6902.165
445.4727, 6901.198
445.9548, 6899.261
446.4370, 6896.394
446.9191, 6891.626
447.4012, 6878.720
447.8833, 6870.495
448.3654, 6879.417
448.8475, 6915.746
449.3297, 6939.555
449.8118, 6943.633
450.2939, 6933.515
450.7760, 6923.573
451.2581, 6912.508
451.7402, 6908.065
452.2224, 6925.221
452.7045, 6960.077
453.1866, 6955.778
453.6687, 6901.323
454.1508, 6837.550
454.6329, 6826.397
455.1151, 6857.446
455.5972, 6880.990
456.0793, 6864.476
456.5614, 6833.721
457.0435, 6834.944
457.5256, 6866.402
458.0077, 6891.904
458.4898, 6876.115
458.9720, 6840.926
459.4541, 6812.325
459.9362, 6796.579
460.4183, 6790.593
460.9004, 6800.171
461.3825, 6819.367
461.8647, 6831.216
462.3468, 6821.547
462.8289, 6808.744
463.3110, 6803.732
463.7931, 6813.299
464.2752, 6814.349
464.7574, 6798.118
465.2395, 6773.284
465.7216, 6751.115
466.2037, 6730.877
466.6858, 6714.655
467.1679, 6704.205
467.6501, 6699.245
468.1322, 6690.494
468.6143, 6677.146
469.0964, 6661.292
469.5785, 6645.941
470.0606, 6633.217
470.5428, 6606.501
471.0249, 6556.462
471.5070, 6500.522
471.9891, 6481.234
472.4712, 6499.448
472.9533, 6519.951
473.4355, 6524.682
473.9176, 6517.153
474.3997, 6508.122
474.8818, 6497.853
475.3639, 6487.290
475.8460, 6477.911
476.3282, 6468.985
476.8103, 6459.105
477.2924, 6451.034
477.7745, 6438.789
478.2566, 6412.787
478.7387, 6375.958
479.2209, 6343.973
479.7030, 6316.534
480.1851, 6302.473
480.6672, 6312.979
481.1493, 6370.893
481.6314, 6408.716
482.1136, 6397.765
482.5957, 6355.703
483.0778, 6313.878
483.5599, 6256.443
484.0420, 6220.023
484.5241, 6221.585
485.0063, 6266.346
485.4884, 6291.967
485.9705, 6294.843
486.4526, 6282.282
486.9347, 6256.598
487.4168, 6211.000
487.8990, 6175.544
488.3811, 6155.278
488.8632, 6146.687
489.3453, 6142.223
489.8274, 6142.228
490.3095, 6143.018
490.7917, 6144.829
491.2738, 6146.303
491.7559, 6140.332
492.2380, 6126.080
492.7201, 6107.970
493.2022, 6083.965
493.6844, 6059.436
494.1665, 6047.955
494.6486, 6064.145
495.1307, 6087.402
495.6128, 6098.510
496.0949, 6099.120
496.5771, 6097.774
497.0592, 6100.897
497.5413, 6102.869
498.0234, 6096.850
498.5055, 6071.727
498.9876, 6060.542
499.4698, 6086.233
499.9519, 6128.900
500.4340, 6155.728
500.9161, 6152.306
501.3982, 6142.942
501.8803, 6127.493
502.3624, 6105.079
502.8445, 6104.567
503.3267, 6136.831
503.8088, 6177.138
504.2909, 6207.878
504.7730, 6228.715
505.2551, 6242.052
505.7372, 6246.481
506.2194, 6245.497
506.7015, 6245.125
507.1836, 6245.323
507.6657, 6249.542
508.1478, 6261.591
508.6299, 6279.067
509.1121, 6293.217
509.5942, 6303.493
510.0763, 6316.858
510.5584, 6340.724
511.0405, 6372.086
511.5226, 6406.658
512.0048, 6451.490
512.4869, 6488.712
512.9690, 6497.159
513.4511, 6485.402
513.9332, 6482.054
514.4153, 6502.878
514.8975, 6532.615
515.3796, 6565.097
515.8617, 6602.638
516.3438, 6632.710
516.8259, 6644.778
517.3080, 6652.029
517.7902, 6669.470
518.2723, 6702.952
518.7544, 6737.415
519.2365, 6771.604
519.7186, 6805.111
520.2007, 6835.115
520.6829, 6860.510
521.1650, 6885.186
521.6471, 6912.157
522.1292, 6941.230
522.6113, 6969.727
523.0934, 6998.156
523.5756, 7023.229
524.0577, 7035.675
524.5398, 7038.872
525.0219, 7049.991
525.5040, 7084.014
525.9861, 7123.652
526.4683, 7144.827
526.9504, 7149.343
527.4325, 7150.363
527.9146, 7164.129
528.3967, 7174.288
528.8788, 7161.801
529.3610, 7109.970
529.8431, 7067.698
530.3252, 7061.430
530.8073, 7074.421
531.2894, 7080.189
531.7715, 7069.435
532.2537, 7054.919
532.7358, 7039.956
533.2179, 7024.308
533.7000, 7004.103
534.1821, 6976.703
534.6642, 6947.628
535.1464, 6924.851
535.6285, 6915.792
536.1106, 6874.940
536.5927, 6788.128
537.0748, 6685.228
537.5569, 6618.431
538.0391, 6587.235
538.5212, 6566.405
539.0033, 6557.717
539.4854, 6548.269
539.9675, 6502.299
540.4496, 6421.215
540.9318, 6336.876
541.4139, 6268.978
541.8960, 6214.218
542.3781, 6170.922
542.8602, 6145.617
543.3423, 6115.357
543.8245, 6058.972
544.3066, 5989.311
544.7887, 5929.123
545.2708, 5897.856
545.7529, 5866.040
546.2350, 5819.625
546.7172, 5756.689
547.1993, 5708.732
547.6814, 5686.255
548.1635, 5669.059
548.6456, 5645.604
549.1277, 5616.403
549.6099, 5577.923
550.0920, 5525.978
550.5741, 5468.773
551.0562, 5421.234
551.5383, 5383.668
552.0204, 5350.998
552.5026, 5321.154
552.9847, 5294.583
553.4668, 5275.888
553.9489, 5264.618
554.4310, 5252.393
554.9131, 5230.400
555.3953, 5203.898
555.8774, 5182.074
556.3595, 5169.679
556.8416, 5153.629
557.3237, 5120.957
557.8058, 5079.592
558.2880, 5043.002
558.7701, 5016.691
559.2522, 4995.024
559.7343, 4974.439
560.2164, 4954.884
560.6985, 4945.042
561.1807, 4961.725
561.6628, 4972.817
562.1449, 4958.490
562.6270, 4902.697
563.1091, 4864.547
563.5912, 4850.179
564.0734, 4846.674
564.5555, 4833.700
565.0376, 4810.715
565.5197, 4786.772
566.0018, 4763.159
566.4839, 4741.177
566.9661, 4723.683
567.4482, 4710.506
567.9303, 4700.420
568.4124, 4689.132
568.8945, 4681.593
569.3766, 4689.439
569.8587, 4719.666
570.3408, 4738.933
570.8229, 4716.646
571.3051, 4673.512
571.7872, 4636.344
572.2693, 4616.169
572.7514, 4600.345
573.2335, 4588.694
573.7156, 4579.856
574.1978, 4565.319
574.6799, 4542.030
575.1620, 4516.480
575.6441, 4488.484
576.1262, 4453.708
576.6083, 4441.895
577.0905, 4461.725
577.5726, 4487.750
578.0547, 4488.175
578.5368, 4463.755
579.0189, 4441.817
579.5010, 4427.516
579.9832, 4420.212
580.4653, 4420.199
580.9474, 4426.740
581.4295, 4436.364
581.9116, 4455.068
582.3937, 4471.145
582.8759, 4472.262
583.3580, 4457.422
583.8401, 4435.108
584.3222, 4400.514
584.8043, 4365.350
585.2864, 4339.480
585.7686, 4332.158
586.2507, 4325.070
586.7328, 4316.995
587.2149, 4307.741
