##NAMES=Plumbogummite
##RRUFFID=R050458
##IDEAL CHEMISTRY=Pb^2+^Al_3_(PO_4_)(PO_3_OH)(OH)_6_
##LOCALITY=Cornwall, England
##OWNER=RRUFF
##SOURCE=University of Arizona Mineral Museum
##DESCRIPTION=Grayish blue botryoidal crust associated with yellow-green pyromorphite
##STATUS=The identification of this mineral has been confirmed by X-ray diffraction and chemical analysis
##URL=rruff.info/R050458
##MEASURED CHEMISTRY=Pb_1.00_Al_3.00_((P_0.81_As_0.19_)_Î£=1_O_4_)(P_1.00_O_3_OH)(OH)_6_
91.00781, 91.20775
91.48993, 87.18648
91.97205, 85.58134
92.45416, 87.19240
92.93628, 91.16951
93.41840, 95.63716
93.90051, 100.1652
94.38263, 105.2627
94.86475, 111.6431
95.34686, 119.3085
95.82898, 128.4917
96.31110, 139.3148
96.79321, 151.7890
97.27533, 165.7872
97.75745, 181.1425
98.23956, 197.8386
98.72168, 215.0552
99.20380, 232.2768
99.68591, 251.0817
100.1680, 273.0777
100.6501, 298.1151
101.1323, 326.1650
101.6144, 357.2103
102.0965, 391.3293
102.5786, 427.2023
103.0607, 464.6738
103.5428, 504.2934
104.0250, 548.3541
104.5071, 598.6677
104.9892, 649.7470
105.4713, 699.1626
105.9534, 745.9537
106.4355, 793.0673
106.9177, 842.1890
107.3998, 891.6979
107.8819, 938.1105
108.3640, 977.5005
108.8461, 1016.406
109.3282, 1058.415
109.8104, 1105.331
110.2925, 1152.296
110.7746, 1197.849
111.2567, 1242.251
111.7388, 1289.573
112.2209, 1339.695
112.7031, 1392.606
113.1852, 1448.905
113.6673, 1508.815
114.1494, 1571.509
114.6315, 1636.800
115.1136, 1705.232
115.5958, 1776.863
116.0779, 1854.677
116.5600, 1934.889
117.0421, 2012.913
117.5242, 2086.607
118.0063, 2159.011
118.4885, 2233.653
118.9706, 2311.798
119.4527, 2386.667
119.9348, 2453.798
120.4169, 2514.807
120.8990, 2573.702
121.3812, 2633.994
121.8633, 2691.939
122.3454, 2742.729
122.8275, 2784.703
123.3096, 2822.889
123.7917, 2860.550
124.2739, 2897.773
124.7560, 2934.877
125.2381, 2973.681
125.7202, 3012.418
126.2023, 3046.473
126.6844, 3071.603
127.1666, 3096.270
127.6487, 3133.899
128.1308, 3184.056
128.6129, 3236.329
129.0950, 3281.901
129.5771, 3322.776
130.0593, 3366.336
130.5414, 3414.447
131.0235, 3466.340
131.5056, 3516.323
131.9877, 3550.980
132.4698, 3571.081
132.9520, 3598.153
133.4341, 3631.734
133.9162, 3661.124
134.3983, 3681.346
134.8804, 3693.741
135.3625, 3708.070
135.8447, 3724.941
136.3268, 3742.599
136.8089, 3759.163
137.2910, 3774.833
137.7731, 3789.076
138.2552, 3802.165
138.7374, 3814.244
139.2195, 3823.456
139.7016, 3829.747
140.1837, 3833.300
140.6658, 3833.942
141.1479, 3830.426
141.6301, 3826.609
142.1122, 3824.240
142.5943, 3823.800
143.0764, 3822.912
143.5585, 3820.514
144.0406, 3817.580
144.5228, 3818.188
145.0049, 3825.919
145.4870, 3832.682
145.9691, 3833.382
146.4512, 3820.211
146.9333, 3813.984
147.4155, 3818.400
147.8976, 3832.254
148.3797, 3843.566
148.8618, 3852.253
149.3439, 3858.690
149.8260, 3863.117
150.3082, 3861.279
150.7903, 3862.159
151.2724, 3867.883
151.7545, 3878.552
152.2366, 3886.973
152.7188, 3891.016
153.2009, 3893.529
153.6830, 3896.732
154.1651, 3902.822
154.6472, 3907.548
155.1293, 3909.156
155.6115, 3907.124
156.0936, 3906.096
156.5757, 3906.723
157.0578, 3908.812
157.5399, 3912.172
158.0220, 3922.115
158.5042, 3928.933
158.9863, 3927.125
159.4684, 3914.000
159.9505, 3904.265
160.4326, 3904.521
160.9147, 3910.724
161.3969, 3916.828
161.8790, 3919.958
162.3611, 3923.066
162.8432, 3928.617
163.3253, 3938.546
163.8074, 3945.613
164.2896, 3942.296
164.7717, 3933.651
165.2538, 3929.823
165.7359, 3939.718
166.2180, 3953.513
166.7001, 3963.674
167.1823, 3967.507
167.6644, 3970.148
168.1465, 3974.545
168.6286, 3980.221
169.1107, 3985.897
169.5928, 3989.436
170.0750, 3993.205
170.5571, 4000.453
171.0392, 4014.554
171.5213, 4027.835
172.0034, 4033.126
172.4855, 4031.690
172.9677, 4028.903
173.4498, 4026.164
173.9319, 4024.735
174.4140, 4026.606
174.8961, 4033.563
175.3782, 4042.585
175.8604, 4051.531
176.3425, 4060.260
176.8246, 4067.270
177.3067, 4069.085
177.7888, 4068.538
178.2709, 4071.623
178.7531, 4082.435
179.2352, 4095.975
179.7173, 4104.767
180.1994, 4108.985
180.6815, 4111.628
181.1636, 4115.404
181.6458, 4119.745
182.1279, 4122.658
182.6100, 4121.683
183.0921, 4119.678
183.5742, 4123.690
184.0563, 4133.906
184.5385, 4144.791
185.0206, 4151.247
185.5027, 4153.663
185.9848, 4153.532
186.4669, 4149.501
186.9490, 4143.472
187.4312, 4141.231
187.9133, 4143.029
188.3954, 4147.013
188.8775, 4152.113
189.3596, 4158.075
189.8417, 4162.705
190.3239, 4164.761
190.8060, 4164.690
191.2881, 4164.253
191.7702, 4163.265
192.2523, 4162.776
192.7344, 4165.021
193.2166, 4170.022
193.6987, 4173.674
194.1808, 4173.263
194.6629, 4169.343
195.1450, 4168.892
195.6271, 4172.918
196.1093, 4177.859
196.5914, 4177.575
197.0735, 4171.538
197.5556, 4166.547
198.0377, 4166.115
198.5198, 4170.251
199.0020, 4172.825
199.4841, 4173.227
199.9662, 4173.041
200.4483, 4174.651
200.9304, 4178.057
201.4125, 4183.080
201.8947, 4191.131
202.3768, 4202.834
202.8589, 4208.847
203.3410, 4207.367
203.8231, 4202.540
204.3052, 4202.577
204.7874, 4208.683
205.2695, 4214.675
205.7516, 4217.046
206.2337, 4214.843
206.7158, 4215.971
207.1979, 4221.589
207.6801, 4229.549
208.1622, 4235.203
208.6443, 4237.966
209.1264, 4240.391
209.6085, 4243.997
210.0906, 4249.481
210.5728, 4252.581
211.0549, 4251.867
211.5370, 4249.722
212.0191, 4251.917
212.5012, 4259.894
212.9833, 4268.771
213.4655, 4276.029
213.9476, 4280.968
214.4297, 4287.345
214.9118, 4295.997
215.3939, 4305.758
215.8760, 4313.833
216.3581, 4319.528
216.8403, 4324.788
217.3224, 4330.741
217.8045, 4338.337
218.2866, 4343.102
218.7687, 4342.357
219.2508, 4339.575
219.7330, 4344.924
220.2151, 4361.956
220.6972, 4380.253
221.1793, 4394.721
221.6614, 4404.497
222.1435, 4412.597
222.6257, 4418.098
223.1078, 4422.231
223.5899, 4428.826
224.0720, 4439.319
224.5541, 4450.087
225.0362, 4459.629
225.5184, 4467.325
226.0005, 4475.533
226.4826, 4485.411
226.9647, 4495.698
227.4468, 4502.647
227.9289, 4504.037
228.4111, 4505.654
228.8932, 4510.146
229.3753, 4518.206
229.8574, 4527.997
230.3395, 4541.519
230.8216, 4556.243
231.3038, 4564.378
231.7859, 4559.899
232.2680, 4557.553
232.7501, 4565.090
233.2322, 4589.997
233.7143, 4607.229
234.1965, 4612.332
234.6786, 4610.616
235.1607, 4617.621
235.6428, 4638.916
236.1249, 4660.679
236.6070, 4676.726
237.0892, 4684.591
237.5713, 4691.947
238.0534, 4698.782
238.5355, 4705.046
239.0176, 4710.461
239.4997, 4714.048
239.9819, 4718.277
240.4640, 4724.265
240.9461, 4732.837
241.4282, 4741.463
241.9103, 4750.975
242.3924, 4760.322
242.8746, 4766.860
243.3567, 4769.682
243.8388, 4771.173
244.3209, 4771.952
244.8030, 4771.038
245.2851, 4772.237
245.7673, 4776.099
246.2494, 4781.925
246.7315, 4788.478
247.2136, 4797.080
247.6957, 4804.370
248.1778, 4808.809
248.6600, 4809.260
249.1421, 4810.127
249.6242, 4810.924
250.1063, 4812.373
250.5884, 4816.595
251.0705, 4827.031
251.5527, 4834.223
252.0348, 4833.182
252.5169, 4819.693
252.9990, 4813.637
253.4811, 4818.350
253.9632, 4828.212
254.4454, 4833.027
254.9275, 4830.329
255.4096, 4827.290
255.8917, 4826.200
256.3738, 4827.355
256.8560, 4829.309
257.3381, 4832.755
257.8202, 4836.450
258.3023, 4838.545
258.7844, 4838.724
259.2665, 4838.013
259.7487, 4836.639
260.2308, 4834.565
260.7129, 4831.994
261.1950, 4828.379
261.6771, 4824.839
262.1592, 4822.965
262.6414, 4823.142
263.1235, 4824.102
263.6056, 4826.066
264.0877, 4829.286
264.5698, 4829.321
265.0519, 4824.075
265.5341, 4818.522
266.0162, 4819.904
266.4983, 4831.867
266.9804, 4839.212
267.4625, 4836.075
267.9446, 4822.742
268.4268, 4816.860
268.9089, 4820.501
269.3910, 4828.120
269.8731, 4834.898
270.3552, 4841.214
270.8373, 4844.616
271.3195, 4843.150
271.8016, 4837.613
272.2837, 4837.201
272.7658, 4843.492
273.2479, 4851.306
273.7300, 4855.771
274.2122, 4856.312
274.6943, 4857.103
275.1764, 4858.822
275.6585, 4861.489
276.1406, 4865.802
276.6227, 4872.648
277.1049, 4878.375
277.5870, 4879.356
278.0691, 4875.172
278.5512, 4871.153
279.0333, 4867.394
279.5154, 4864.776
279.9976, 4867.944
280.4797, 4878.346
280.9618, 4887.046
281.4439, 4886.214
281.9260, 4875.700
282.4081, 4867.528
282.8903, 4863.142
283.3724, 4861.952
283.8545, 4863.378
284.3366, 4867.648
284.8187, 4872.038
285.3008, 4874.699
285.7830, 4875.788
286.2651, 4876.837
286.7472, 4878.076
287.2293, 4879.164
287.7114, 4879.585
288.1935, 4879.319
288.6757, 4878.236
289.1578, 4874.493
289.6399, 4869.239
290.1220, 4869.604
290.6041, 4877.097
291.0862, 4886.467
291.5684, 4889.485
292.0505, 4886.813
292.5326, 4884.692
293.0147, 4888.191
293.4968, 4894.671
293.9789, 4895.262
294.4611, 4889.028
294.9432, 4881.393
295.4253, 4879.166
295.9074, 4881.234
296.3895, 4882.719
296.8716, 4880.905
297.3538, 4877.322
297.8359, 4874.873
298.3180, 4873.555
298.8001, 4873.150
299.2822, 4874.811
299.7643, 4877.343
300.2465, 4877.432
300.7286, 4871.128
301.2107, 4863.630
301.6928, 4862.870
302.1749, 4868.504
302.6570, 4875.026
303.1392, 4878.329
303.6213, 4879.516
304.1034, 4880.116
304.5855, 4879.007
305.0676, 4879.384
305.5497, 4887.296
306.0319, 4900.916
306.5140, 4911.124
306.9961, 4908.797
307.4782, 4900.701
307.9603, 4894.616
308.4424, 4892.258
308.9246, 4892.378
309.4067, 4895.232
309.8888, 4899.933
310.3709, 4904.081
310.8530, 4905.274
311.3351, 4905.880
311.8173, 4908.181
312.2994, 4913.187
312.7815, 4917.962
313.2636, 4920.885
313.7457, 4922.375
314.2278, 4923.174
314.7100, 4921.221
315.1921, 4920.481
315.6742, 4924.981
316.1563, 4936.491
316.6384, 4944.682
317.1205, 4940.804
317.6027, 4932.158
318.0848, 4927.995
318.5669, 4935.817
319.0490, 4944.530
319.5311, 4949.890
320.0132, 4951.562
320.4954, 4952.042
320.9775, 4949.954
321.4596, 4947.903
321.9417, 4948.144
322.4238, 4954.408
322.9059, 4959.559
323.3881, 4961.225
323.8702, 4959.716
324.3523, 4959.237
324.8344, 4960.004
325.3165, 4962.277
325.7986, 4966.222
326.2808, 4972.980
326.7629, 4980.172
327.2450, 4988.260
327.7271, 4996.862
328.2092, 5004.476
328.6913, 5013.081
329.1735, 5018.931
329.6556, 5020.140
330.1377, 5012.142
330.6198, 5008.112
331.1019, 5009.208
331.5840, 5013.849
332.0662, 5019.327
332.5483, 5026.809
333.0304, 5033.328
333.5125, 5037.610
333.9946, 5039.216
334.4767, 5040.603
334.9589, 5040.405
335.4410, 5041.253
335.9231, 5047.899
336.4052, 5064.501
336.8873, 5075.716
337.3694, 5076.517
337.8516, 5067.608
338.3336, 5059.865
338.8158, 5052.617
339.2979, 5048.147
339.7800, 5049.812
340.2621, 5058.856
340.7442, 5065.546
341.2263, 5067.232
341.7085, 5065.902
342.1906, 5067.968
342.6727, 5073.708
343.1548, 5081.279
343.6369, 5090.476
344.1190, 5101.000
344.6012, 5109.470
345.0833, 5115.084
345.5654, 5119.064
346.0475, 5123.646
346.5296, 5128.694
347.0117, 5133.004
347.4939, 5134.881
347.9760, 5135.341
348.4581, 5137.599
348.9402, 5141.782
349.4223, 5147.774
349.9044, 5157.106
350.3866, 5168.606
350.8687, 5178.349
351.3508, 5184.143
351.8329, 5187.591
352.3150, 5191.021
352.7971, 5194.446
353.2793, 5197.630
353.7614, 5199.907
354.2435, 5201.979
354.7256, 5204.984
355.2077, 5209.277
355.6898, 5214.533
356.1720, 5221.628
356.6541, 5229.897
357.1362, 5236.506
357.6183, 5238.534
358.1004, 5238.921
358.5826, 5240.212
359.0647, 5242.895
359.5468, 5246.451
360.0289, 5251.774
360.5110, 5257.700
360.9931, 5262.024
361.4753, 5261.584
361.9574, 5261.112
362.4395, 5263.907
362.9216, 5271.159
363.4037, 5275.874
363.8858, 5275.472
364.3680, 5271.750
364.8501, 5266.582
365.3322, 5255.784
365.8143, 5248.450
366.2964, 5248.650
366.7785, 5256.250
367.2607, 5261.572
367.7428, 5261.317
368.2249, 5260.244
368.7070, 5261.263
369.1891, 5267.036
369.6712, 5271.377
370.1534, 5273.310
370.6355, 5273.614
371.1176, 5274.762
371.5997, 5276.718
372.0818, 5279.302
372.5639, 5282.239
373.0461, 5285.040
373.5282, 5289.855
374.0103, 5298.396
374.4924, 5307.280
374.9745, 5310.809
375.4566, 5307.315
375.9388, 5303.860
376.4209, 5303.022
376.9030, 5304.540
377.3851, 5302.784
377.8672, 5296.639
378.3493, 5291.122
378.8315, 5292.347
379.3136, 5300.577
379.7957, 5306.488
380.2778, 5307.796
380.7599, 5306.526
381.2420, 5307.544
381.7242, 5310.824
382.2063, 5314.594
382.6884, 5318.405
383.1705, 5321.743
383.6526, 5322.105
384.1347, 5318.452
384.6169, 5314.538
385.0990, 5315.468
385.5811, 5320.143
386.0632, 5325.180
386.5453, 5331.156
387.0274, 5335.587
387.5096, 5333.086
387.9917, 5323.755
388.4738, 5315.925
388.9559, 5317.093
389.4380, 5323.577
389.9201, 5330.822
390.4023, 5339.715
390.8844, 5346.352
391.3665, 5345.396
391.8486, 5339.243
392.3307, 5336.639
392.8128, 5346.422
393.2950, 5358.073
393.7771, 5364.266
394.2592, 5362.158
394.7413, 5358.830
395.2234, 5354.418
395.7055, 5350.500
396.1877, 5349.552
396.6698, 5354.625
397.1519, 5360.312
397.6340, 5366.655
398.1161, 5374.400
398.5982, 5375.692
399.0804, 5361.691
399.5625, 5346.250
400.0446, 5339.659
400.5267, 5350.851
401.0088, 5358.044
401.4909, 5357.625
401.9731, 5351.813
402.4552, 5349.700
402.9373, 5353.925
403.4194, 5357.626
403.9015, 5356.375
404.3836, 5347.270
404.8658, 5345.359
405.3479, 5353.024
405.8300, 5364.526
406.3121, 5371.102
406.7942, 5371.937
407.2763, 5372.919
407.7585, 5375.943
408.2406, 5380.585
408.7227, 5385.034
409.2048, 5389.333
409.6869, 5392.442
410.1690, 5392.159
410.6512, 5389.422
411.1333, 5388.907
411.6154, 5391.732
412.0975, 5396.784
412.5796, 5403.637
413.0617, 5411.765
413.5439, 5418.595
414.0260, 5423.208
414.5081, 5425.560
414.9902, 5424.486
415.4723, 5419.565
415.9544, 5415.460
416.4366, 5416.781
416.9187, 5421.239
417.4008, 5425.369
417.8829, 5428.685
418.3650, 5430.615
418.8471, 5429.276
419.3293, 5425.509
419.8114, 5424.270
420.2935, 5431.741
420.7756, 5439.874
421.2577, 5442.608
421.7398, 5435.127
422.2220, 5429.908
422.7041, 5431.323
423.1862, 5436.479
423.6683, 5440.127
424.1504, 5442.187
424.6325, 5442.153
425.1147, 5438.790
425.5968, 5431.317
426.0789, 5427.294
426.5610, 5427.259
427.0431, 5430.174
427.5252, 5435.712
428.0074, 5445.832
428.4895, 5453.838
428.9716, 5458.331
429.4537, 5460.287
429.9358, 5462.638
430.4179, 5465.335
430.9001, 5468.401
431.3822, 5472.386
431.8643, 5477.331
432.3464, 5479.645
432.8285, 5478.700
433.3106, 5477.181
433.7928, 5479.614
434.2749, 5485.298
434.7570, 5488.071
435.2391, 5484.860
435.7212, 5478.544
436.2033, 5473.781
436.6855, 5470.717
437.1676, 5470.149
437.6497, 5472.554
438.1318, 5477.913
438.6139, 5487.273
439.0960, 5502.165
439.5782, 5516.060
440.0603, 5523.664
440.5424, 5526.450
441.0245, 5527.114
441.5066, 5523.042
441.9887, 5520.290
442.4709, 5524.478
442.9530, 5535.302
443.4351, 5542.516
443.9172, 5536.037
444.3993, 5527.997
444.8814, 5527.479
445.3636, 5544.468
445.8457, 5557.501
446.3278, 5561.161
446.8099, 5558.768
447.2920, 5558.750
447.7741, 5564.677
448.2563, 5569.321
448.7384, 5570.222
449.2205, 5566.887
449.7026, 5564.251
450.1847, 5562.396
450.6668, 5561.308
451.1490, 5561.155
451.6311, 5562.255
452.1132, 5563.087
452.5953, 5562.856
453.0774, 5562.698
453.5595, 5566.856
454.0417, 5575.972
454.5238, 5583.316
455.0059, 5582.535
455.4880, 5575.967
455.9701, 5577.024
456.4522, 5586.820
456.9344, 5599.171
457.4165, 5608.141
457.8986, 5614.403
458.3807, 5619.678
458.8628, 5625.223
459.3449, 5629.314
459.8271, 5629.191
460.3092, 5625.624
460.7913, 5621.933
461.2734, 5618.667
461.7555, 5616.994
462.2376, 5617.999
462.7198, 5622.011
463.2019, 5627.838
463.6840, 5638.336
464.1661, 5649.120
464.6482, 5654.880
465.1303, 5646.438
465.6125, 5640.819
466.0946, 5645.691
466.5767, 5659.441
467.0588, 5666.319
467.5409, 5657.442
468.0230, 5648.331
468.5052, 5646.277
468.9873, 5655.745
469.4694, 5661.180
469.9515, 5661.118
470.4336, 5658.405
470.9157, 5657.362
471.3979, 5659.114
471.8800, 5658.704
472.3621, 5653.729
472.8442, 5645.765
473.3263, 5642.119
473.8084, 5643.029
474.2906, 5646.306
474.7727, 5651.856
475.2548, 5658.782
475.7369, 5662.430
476.2190, 5661.778
476.7011, 5659.816
477.1833, 5660.547
477.6654, 5662.938
478.1475, 5664.157
478.6296, 5660.960
479.1117, 5657.483
479.5938, 5658.295
480.0760, 5662.952
480.5581, 5668.338
481.0402, 5673.382
481.5223, 5678.052
482.0044, 5682.925
482.4865, 5689.534
482.9687, 5692.408
483.4508, 5684.607
483.9329, 5673.288
484.4150, 5668.730
484.8971, 5679.230
485.3792, 5689.743
485.8614, 5697.473
486.3435, 5702.472
486.8256, 5705.019
487.3077, 5701.734
487.7898, 5699.921
488.2719, 5704.370
488.7541, 5718.205
489.2362, 5728.036
489.7183, 5733.484
490.2004, 5735.314
490.6825, 5733.108
491.1646, 5726.104
491.6468, 5722.610
492.1289, 5725.321
492.6110, 5733.064
493.0931, 5744.598
493.5752, 5759.871
494.0573, 5772.556
494.5395, 5776.566
495.0216, 5775.052
495.5037, 5774.223
495.9858, 5774.655
496.4679, 5776.721
496.9500, 5782.618
497.4322, 5790.126
497.9143, 5795.449
498.3964, 5796.302
498.8785, 5795.351
499.3606, 5792.842
499.8427, 5789.379
500.3249, 5787.798
500.8070, 5788.743
501.2891, 5792.081
501.7712, 5798.748
502.2533, 5811.604
502.7354, 5819.786
503.2176, 5819.816
503.6997, 5816.075
504.1818, 5812.726
504.6639, 5809.380
505.1460, 5806.833
505.6281, 5804.487
506.1103, 5802.989
506.5924, 5805.755
507.0745, 5813.863
507.5566, 5822.160
508.0387, 5828.895
508.5208, 5833.938
509.0030, 5834.342
509.4851, 5829.612
509.9672, 5823.091
510.4493, 5818.465
510.9314, 5815.102
511.4135, 5810.262
511.8957, 5801.909
512.3778, 5794.531
512.8599, 5795.555
513.3420, 5802.350
513.8242, 5807.040
514.3063, 5802.925
514.7884, 5797.119
515.2705, 5796.222
515.7526, 5800.724
516.2347, 5802.646
516.7169, 5792.927
517.1990, 5782.753
517.6811, 5780.847
518.1632, 5798.575
518.6453, 5810.877
519.1274, 5810.892
519.6096, 5804.598
520.0917, 5802.842
520.5738, 5807.167
521.0559, 5813.428
521.5380, 5821.351
522.0201, 5830.748
522.5023, 5837.985
522.9844, 5842.593
523.4665, 5846.571
523.9486, 5852.677
524.4307, 5860.640
524.9128, 5862.249
525.3950, 5855.552
525.8771, 5847.073
526.3592, 5845.046
526.8413, 5848.497
527.3234, 5854.159
527.8055, 5863.292
528.2877, 5871.534
528.7698, 5872.957
529.2519, 5868.719
529.7340, 5863.911
530.2161, 5859.613
530.6982, 5857.071
531.1804, 5858.182
531.6625, 5864.091
532.1446, 5868.132
532.6267, 5865.050
533.1088, 5860.708
533.5909, 5860.558
534.0731, 5871.746
534.5552, 5879.270
535.0373, 5880.068
535.5194, 5876.880
536.0015, 5876.684
536.4836, 5880.579
536.9658, 5885.274
537.4479, 5890.343
537.9300, 5895.572
538.4121, 5896.501
538.8942, 5892.075
539.3763, 5887.398
539.8585, 5886.616
540.3406, 5889.296
540.8227, 5893.991
541.3048, 5901.384
541.7869, 5907.588
542.2690, 5905.402
542.7512, 5898.130
543.2333, 5894.142
543.7154, 5901.573
544.1975, 5909.821
544.6796, 5908.419
545.1617, 5899.641
545.6439, 5893.479
546.1260, 5897.813
546.6081, 5903.638
547.0902, 5904.818
547.5723, 5898.725
548.0544, 5896.440
548.5366, 5903.881
549.0187, 5913.333
549.5008, 5917.889
549.9829, 5914.111
550.4650, 5911.860
550.9471, 5912.856
551.4293, 5915.403
551.9114, 5915.224
552.3935, 5911.769
552.8756, 5908.303
553.3577, 5905.548
553.8398, 5903.813
554.3220, 5904.996
554.8041, 5909.188
555.2862, 5914.063
555.7683, 5919.081
556.2504, 5923.251
556.7325, 5923.552
557.2147, 5918.649
557.6968, 5915.030
558.1789, 5919.308
558.6610, 5928.085
559.1431, 5936.306
559.6252, 5942.041
560.1074, 5946.904
560.5895, 5953.161
561.0716, 5959.314
561.5537, 5960.356
562.0358, 5946.955
562.5179, 5936.342
563.0001, 5935.899
563.4822, 5946.867
563.9643, 5954.294
564.4464, 5956.688
564.9285, 5957.698
565.4106, 5960.279
565.8928, 5964.910
566.3749, 5968.032
566.8570, 5969.120
567.3391, 5969.317
567.8212, 5970.003
568.3033, 5971.241
568.7855, 5973.437
569.2676, 5977.051
569.7497, 5981.367
570.2318, 5985.098
570.7139, 5988.471
571.1960, 5992.835
571.6782, 6001.389
572.1603, 6009.553
572.6424, 6013.194
573.1245, 6011.804
573.6066, 6009.139
574.0887, 6003.485
574.5709, 5999.039
575.0530, 5999.171
575.5351, 6011.968
576.0172, 6018.142
576.4993, 6012.609
576.9814, 6002.474
577.4636, 5999.687
577.9457, 6007.211
578.4278, 6014.125
578.9099, 6017.103
579.3920, 6017.673
579.8741, 6022.042
580.3563, 6030.400
580.8384, 6039.546
581.3205, 6049.464
581.8026, 6058.631
582.2847, 6060.991
582.7668, 6056.266
583.2490, 6050.826
583.7311, 6049.081
584.2132, 6050.147
584.6953, 6053.095
585.1774, 6058.214
