##NAMES=Plumbotsumite
##RRUFFID=R110157
##IDEAL CHEMISTRY=Pb^2+^_5_Si_4_O_8_(OH)_10_
##LOCALITY=Blue Bell claims, Baker, San Bernardino County, California, USA
##OWNER=RRUFF
##SOURCE=Donald M Doell
##DESCRIPTION=Glassy pale blue massive, with a well-defined cleavage.
##STATUS=The identification of this mineral has been confirmed by single-crystal X-ray diffraction.
##URL=rruff.info/R110157
105.5849, 826.2220
106.0670, 830.3596
106.5491, 835.5074
107.0313, 840.8182
107.5134, 846.2529
107.9955, 851.8041
108.4776, 857.4952
108.9597, 863.3665
109.4418, 869.0832
109.9240, 874.1124
110.4061, 879.1335
110.8882, 884.8871
111.3703, 891.7380
111.8524, 898.9333
112.3345, 904.4473
112.8167, 907.4400
113.2988, 909.6024
113.7809, 911.4127
114.2630, 912.5745
114.7451, 912.6536
115.2272, 911.3458
115.7094, 908.6903
116.1915, 905.6208
116.6736, 902.2248
117.1557, 898.3783
117.6378, 893.6922
118.1199, 888.3881
118.6021, 883.2188
119.0842, 878.9024
119.5663, 875.5085
120.0484, 871.6403
120.5305, 866.4473
121.0126, 861.2582
121.4948, 857.2805
121.9769, 854.7031
122.4590, 852.8530
122.9411, 851.2542
123.4232, 849.8665
123.9053, 848.7059
124.3875, 847.4166
124.8696, 846.3347
125.3517, 846.4291
125.8338, 848.0442
126.3159, 850.6957
126.7980, 853.6321
127.2802, 856.9835
127.7623, 861.3066
128.2444, 867.0300
128.7265, 874.1425
129.2086, 882.5242
129.6907, 891.7858
130.1729, 902.7480
130.6550, 915.8945
131.1371, 931.2849
131.6192, 948.6606
132.1013, 967.6621
132.5834, 988.7928
133.0656, 1011.248
133.5477, 1035.237
134.0298, 1060.117
134.5119, 1085.868
134.9940, 1112.327
135.4761, 1138.854
135.9583, 1163.727
136.4404, 1187.999
136.9225, 1208.933
137.4046, 1227.295
137.8867, 1242.119
138.3688, 1251.989
138.8510, 1256.449
139.3331, 1255.176
139.8152, 1247.083
140.2973, 1232.977
140.7794, 1213.225
141.2615, 1187.091
141.7437, 1155.139
142.2258, 1119.084
142.7079, 1078.758
143.1900, 1035.220
143.6721, 991.1671
144.1542, 946.0388
144.6364, 901.1423
145.1185, 857.3357
145.6006, 814.4934
146.0827, 773.6279
146.5648, 734.7518
147.0469, 698.1204
147.5291, 664.4180
148.0112, 634.1041
148.4933, 606.6267
148.9754, 580.8281
149.4575, 556.5162
149.9396, 534.3203
150.4218, 514.0930
150.9039, 495.5861
151.3860, 478.6165
151.8681, 463.0395
152.3502, 448.7649
152.8323, 435.8658
153.3145, 425.2920
153.7966, 415.3217
154.2787, 405.6273
154.7608, 396.2379
155.2429, 387.1874
155.7250, 378.4001
156.2072, 369.8416
156.6893, 362.4991
157.1714, 356.7109
157.6535, 351.5100
158.1356, 346.5093
158.6177, 341.7037
159.0999, 337.2693
159.5820, 333.4262
160.0641, 330.2805
160.5462, 327.0105
161.0283, 323.3661
161.5104, 319.7878
161.9926, 316.5143
162.4747, 313.5905
162.9568, 311.1396
163.4389, 309.5276
163.9210, 308.7045
164.4031, 307.7757
164.8853, 306.6618
165.3674, 305.3387
165.8495, 303.7051
166.3316, 301.6250
166.8137, 299.5538
167.2958, 297.9932
167.7780, 296.8233
168.2601, 295.6370
168.7422, 294.2061
169.2243, 292.5927
169.7064, 291.0630
170.1885, 289.6310
170.6707, 288.3257
171.1528, 287.2041
171.6349, 286.2261
172.1170, 285.2211
172.5991, 284.0889
173.0812, 282.8318
173.5634, 281.4016
174.0455, 279.6198
174.5276, 277.7763
175.0097, 275.9207
175.4918, 274.0918
175.9739, 272.3765
176.4561, 270.8604
176.9382, 269.5058
177.4203, 268.4666
177.9024, 267.9630
178.3845, 267.5634
178.8666, 266.9888
179.3488, 266.2378
179.8309, 265.5373
180.3130, 265.2127
180.7951, 265.4210
181.2772, 265.7006
181.7593, 266.2456
182.2415, 266.7314
182.7236, 266.8732
183.2057, 266.6198
183.6878, 266.1664
184.1699, 265.7619
184.6520, 265.1261
185.1342, 265.2377
185.6163, 266.8781
186.0984, 268.9563
186.5805, 270.2410
187.0626, 270.3441
187.5447, 269.8974
188.0269, 269.9183
188.5090, 270.4485
188.9911, 271.1302
189.4732, 271.9252
189.9553, 272.8162
190.4374, 273.8575
190.9196, 275.2020
191.4017, 276.4034
191.8838, 276.6553
192.3659, 275.8904
192.8480, 275.3283
193.3301, 275.9383
193.8123, 277.3027
194.2944, 277.8150
194.7765, 276.7041
195.2586, 275.0080
195.7407, 273.8792
196.2228, 273.3287
196.7050, 272.8625
197.1871, 272.1789
197.6692, 271.2813
198.1513, 270.2339
198.6334, 269.0375
199.1155, 267.6830
199.5977, 266.1940
200.0798, 264.5644
200.5619, 262.7554
201.0440, 260.5690
201.5261, 257.8695
202.0082, 255.6334
202.4904, 254.5962
202.9725, 253.6170
203.4546, 252.0932
203.9367, 249.9695
204.4188, 247.6050
204.9009, 245.4432
205.3831, 243.5646
205.8652, 241.6542
206.3473, 239.9093
206.8294, 237.9871
207.3115, 235.6309
207.7936, 232.8349
208.2758, 229.8131
208.7579, 226.8514
209.2400, 223.8753
209.7221, 221.1641
210.2042, 218.5849
210.6863, 216.3115
211.1685, 214.7032
211.6506, 213.7194
212.1327, 212.7351
212.6148, 210.7758
213.0969, 207.0742
213.5790, 204.0206
214.0612, 201.9062
214.5433, 200.2092
215.0254, 198.4987
215.5075, 196.6877
215.9896, 194.9441
216.4717, 193.5516
216.9539, 192.7560
217.4360, 191.7065
217.9181, 190.2971
218.4002, 188.6721
218.8823, 186.8817
219.3644, 184.9408
219.8466, 183.0302
220.3287, 181.4267
220.8108, 180.1734
221.2929, 178.9257
221.7750, 177.7937
222.2571, 176.5849
222.7393, 174.9707
223.2214, 172.8369
223.7035, 170.5932
224.1856, 168.7445
224.6677, 167.2561
225.1498, 165.9487
225.6320, 165.2507
226.1141, 164.5935
226.5962, 162.8678
227.0783, 159.6282
227.5604, 156.0915
228.0425, 153.4432
228.5247, 151.5220
229.0068, 149.7564
229.4889, 148.1609
229.9710, 146.5674
230.4531, 144.4812
230.9352, 141.6105
231.4174, 138.7818
231.8995, 136.6799
232.3816, 135.1225
232.8637, 133.6598
233.3458, 132.1018
233.8279, 130.4733
234.3101, 128.8071
234.7922, 127.0502
235.2743, 125.3788
235.7564, 123.8626
236.2385, 122.4914
236.7206, 121.2467
237.2028, 120.1933
237.6849, 119.2706
238.1670, 118.1668
238.6491, 116.6559
239.1312, 115.3133
239.6133, 114.5049
240.0955, 113.9794
240.5776, 113.2835
241.0597, 112.0928
241.5418, 110.5375
242.0239, 109.2635
242.5060, 108.3004
242.9882, 107.6219
243.4703, 107.4920
243.9524, 107.5519
244.4345, 107.2516
244.9166, 106.2195
245.3987, 104.6497
245.8809, 103.4878
246.3630, 103.0647
246.8451, 102.6568
247.3272, 102.1430
247.8093, 101.5472
248.2914, 100.9129
248.7736, 100.2631
249.2557, 99.59046
249.7378, 98.86944
250.2199, 97.97968
250.7020, 97.19237
251.1841, 96.58616
251.6663, 96.08757
252.1484, 95.61916
252.6305, 95.14097
253.1126, 94.66429
253.5947, 94.21666
254.0768, 94.02173
254.5590, 93.57113
255.0411, 92.58029
255.5232, 91.41968
256.0053, 90.45235
256.4874, 89.83676
256.9695, 89.53676
257.4517, 89.46688
257.9338, 90.12005
258.4159, 90.40575
258.8980, 90.10317
259.3801, 89.52260
259.8622, 88.91794
260.3444, 88.38451
260.8265, 87.98424
261.3086, 87.84538
261.7907, 88.24411
262.2728, 88.47585
262.7549, 88.37784
263.2371, 88.18413
263.7192, 88.18485
264.2013, 88.44851
264.6834, 88.71453
265.1655, 88.53986
265.6476, 87.51041
266.1298, 87.10417
266.6119, 87.83634
267.0940, 88.93394
267.5761, 89.71326
268.0582, 90.03889
268.5403, 90.12376
269.0225, 90.18839
269.5046, 90.22192
269.9867, 90.29916
270.4688, 90.38972
270.9509, 90.54517
271.4330, 90.85982
271.9152, 91.33248
272.3973, 91.78973
272.8794, 92.03588
273.3615, 92.05363
273.8436, 92.21896
274.3257, 92.77435
274.8079, 93.31335
275.2900, 93.39934
275.7721, 93.04784
276.2542, 92.79221
276.7363, 93.11443
277.2184, 93.92813
277.7006, 94.38352
278.1827, 94.26869
278.6648, 93.95797
279.1469, 93.61084
279.6290, 93.25392
280.1111, 93.06394
280.5933, 93.25957
281.0754, 93.66541
281.5575, 93.69823
282.0396, 93.17951
282.5217, 92.51396
283.0038, 91.97936
283.4860, 91.52933
283.9681, 90.87896
284.4502, 89.77728
284.9323, 88.50253
285.4144, 87.65865
285.8965, 87.42664
286.3787, 87.16518
286.8608, 86.48442
287.3429, 85.47735
287.8250, 84.46080
288.3071, 83.51942
288.7892, 82.63889
289.2714, 81.82023
289.7535, 81.08383
290.2356, 80.27299
290.7177, 79.20110
291.1998, 77.99445
291.6819, 76.99121
292.1641, 76.30608
292.6462, 75.76359
293.1283, 75.19335
293.6104, 74.59908
294.0925, 73.97569
294.5746, 73.39384
295.0568, 72.77163
295.5389, 71.89388
296.0210, 70.65761
296.5031, 69.40165
296.9852, 68.39330
297.4673, 67.58591
297.9495, 66.89854
298.4316, 66.38428
298.9137, 65.94777
299.3958, 65.43642
299.8779, 64.82797
300.3600, 64.23705
300.8422, 63.80622
301.3243, 63.43594
301.8064, 62.94151
302.2885, 62.13350
302.7706, 61.32302
303.2527, 60.96994
303.7349, 61.11581
304.2170, 61.09719
304.6991, 60.47047
305.1812, 59.55260
305.6633, 58.76175
306.1454, 58.15238
306.6276, 57.66760
307.1097, 57.32175
307.5918, 57.10380
308.0739, 56.78444
308.5560, 56.16523
309.0381, 55.53207
309.5203, 55.24711
310.0024, 55.35217
310.4845, 55.44538
310.9666, 55.22742
311.4487, 54.75474
311.9308, 54.27766
312.4130, 53.75554
312.8951, 53.38583
313.3772, 53.42434
313.8593, 53.80737
314.3414, 54.12263
314.8235, 54.18482
315.3057, 54.02817
315.7878, 53.70258
316.2699, 53.14310
316.7520, 52.58220
317.2341, 52.22258
317.7162, 51.99274
318.1984, 51.74105
318.6805, 51.39954
319.1626, 51.01325
319.6447, 50.63953
320.1268, 50.27172
320.6089, 49.95195
321.0911, 49.73560
321.5732, 49.57397
322.0553, 49.38885
322.5374, 49.10972
323.0195, 48.89180
323.5016, 48.95840
323.9838, 49.31261
324.4659, 49.59358
324.9480, 49.61224
325.4301, 49.52108
325.9122, 49.52782
326.3943, 49.66822
326.8765, 49.77382
327.3586, 49.71660
327.8407, 49.51567
328.3228, 49.25200
328.8049, 48.85420
329.2870, 48.53112
329.7692, 48.54232
330.2513, 48.85647
330.7334, 49.13489
331.2155, 49.10083
331.6976, 48.92394
332.1797, 49.07542
332.6619, 49.73908
333.1440, 50.34995
333.6261, 50.24982
334.1082, 49.72163
334.5903, 49.43987
335.0724, 49.82569
335.5546, 50.45679
336.0367, 50.76482
336.5188, 50.71769
337.0009, 50.65849
337.4830, 50.83020
337.9651, 51.10198
338.4473, 51.21058
338.9294, 51.01771
339.4115, 50.83189
339.8936, 50.99458
340.3757, 51.44356
340.8578, 51.69317
341.3400, 51.50739
341.8221, 51.08322
342.3042, 50.69288
342.7863, 50.30428
343.2684, 50.09063
343.7505, 50.33142
344.2327, 50.80318
344.7148, 50.92613
345.1969, 50.50676
345.6790, 49.91072
346.1611, 49.53661
346.6432, 49.34989
347.1254, 49.19972
347.6075, 49.07320
348.0896, 48.95017
348.5717, 48.80840
349.0538, 48.64524
349.5359, 48.46930
350.0181, 48.28205
350.5002, 48.08554
350.9823, 47.89095
351.4644, 47.64031
351.9465, 47.44315
352.4286, 47.46367
352.9108, 47.63824
353.3929, 47.64049
353.8750, 47.25860
354.3571, 46.65908
354.8392, 46.26954
355.3214, 46.17794
355.8035, 46.06373
356.2856, 45.73943
356.7677, 45.32971
357.2498, 45.06934
357.7319, 45.03423
358.2141, 45.11054
358.6962, 45.16506
359.1783, 45.20634
359.6604, 45.17411
360.1425, 44.97925
360.6246, 44.75853
361.1068, 44.64498
361.5889, 44.64774
362.0710, 44.69492
362.5531, 44.74029
363.0352, 44.78041
363.5173, 44.76037
363.9995, 44.57048
364.4816, 44.43383
364.9637, 44.52874
365.4458, 44.76705
365.9279, 44.87756
366.4100, 44.68350
366.8922, 44.34993
367.3743, 44.43673
367.8564, 45.39833
368.3385, 46.10772
368.8206, 46.24970
369.3027, 46.13912
369.7849, 46.12352
370.2670, 46.30150
370.7491, 46.57129
371.2312, 46.79930
371.7133, 46.98118
372.1954, 47.11852
372.6776, 47.02835
373.1597, 47.04636
373.6418, 47.52204
374.1239, 48.34684
374.6060, 49.04488
375.0881, 49.21050
375.5703, 48.86530
376.0524, 48.80126
376.5345, 49.34760
377.0166, 49.79173
377.4987, 49.91237
377.9808, 49.84823
378.4630, 49.80407
378.9451, 49.87410
379.4272, 50.02097
379.9093, 50.15996
380.3914, 50.31036
380.8735, 50.41732
381.3557, 50.45893
381.8378, 50.47584
382.3199, 50.48322
382.8020, 50.49153
383.2841, 50.52547
383.7662, 50.63459
384.2484, 50.84937
384.7305, 50.92515
385.2126, 50.66532
385.6947, 50.45142
386.1768, 50.40145
386.6589, 50.49073
387.1411, 50.68237
387.6232, 50.99558
388.1053, 51.33174
388.5874, 51.30143
389.0695, 50.66862
389.5516, 50.10826
390.0338, 49.85506
390.5159, 49.68893
390.9980, 49.36456
391.4801, 48.81722
391.9622, 48.29020
392.4443, 48.11523
392.9265, 48.33102
393.4086, 48.52660
393.8907, 48.64864
394.3728, 48.74127
394.8549, 48.88255
395.3370, 49.03291
395.8192, 49.04423
396.3013, 48.76671
396.7834, 48.27850
397.2655, 47.81491
397.7476, 47.34293
398.2297, 46.98511
398.7119, 46.88379
399.1940, 46.91008
399.6761, 46.92353
400.1582, 46.91637
400.6403, 46.82560
401.1224, 46.52917
401.6046, 46.04058
402.0867, 45.63958
402.5688, 45.44862
403.0509, 45.33858
403.5330, 45.16292
404.0151, 44.92254
404.4973, 44.64008
404.9794, 44.24970
405.4615, 43.84480
405.9436, 43.61269
406.4257, 43.59172
406.9078, 43.61473
407.3900, 43.54607
407.8721, 43.40570
408.3542, 43.30294
408.8363, 43.23153
409.3184, 43.21252
409.8005, 43.28493
410.2827, 43.42741
410.7648, 43.57509
411.2469, 43.71028
411.7290, 43.81306
412.2111, 43.81618
412.6932, 43.65170
413.1754, 43.57050
413.6575, 43.68866
414.1396, 43.87127
414.6217, 43.96538
415.1038, 43.94989
415.5859, 43.92091
416.0681, 43.97037
416.5502, 44.10340
417.0323, 44.27386
417.5144, 44.59413
417.9965, 44.83001
418.4786, 44.75242
418.9608, 44.53522
419.4429, 44.53549
419.9250, 44.94542
420.4071, 45.61496
420.8892, 46.12470
421.3713, 46.27608
421.8535, 46.56517
422.3356, 47.22329
422.8177, 47.86720
423.2998, 48.10637
423.7819, 47.95252
424.2640, 47.79927
424.7462, 48.08533
425.2283, 48.85194
425.7104, 49.46058
426.1925, 49.84497
426.6746, 50.12621
427.1567, 50.31954
427.6389, 50.43820
428.1210, 50.48207
428.6031, 50.44113
429.0852, 50.36690
429.5673, 50.37633
430.0494, 50.50431
430.5316, 50.59023
431.0137, 50.66726
431.4958, 50.63568
431.9779, 50.38019
432.4600, 49.91060
432.9421, 49.40151
433.4243, 48.99562
433.9064, 48.66268
434.3885, 48.28587
434.8706, 47.89180
435.3527, 47.37382
435.8348, 46.53031
436.3170, 45.53664
436.7991, 44.68049
437.2812, 44.06811
437.7633, 43.56813
438.2454, 43.05645
438.7275, 42.54250
439.2097, 42.10939
439.6918, 41.79554
440.1739, 41.56424
440.6560, 41.41737
441.1381, 41.38142
441.6202, 41.17098
442.1024, 40.49062
442.5845, 39.71343
443.0666, 39.31525
443.5487, 39.32013
444.0308, 39.36389
444.5129, 39.13709
444.9951, 38.69847
445.4772, 38.59171
445.9593, 39.12103
446.4414, 39.57675
446.9235, 39.63599
447.4056, 39.51844
447.8878, 39.58442
448.3699, 39.95345
448.8520, 40.42848
449.3341, 40.69426
449.8162, 40.60265
450.2983, 40.72691
450.7805, 41.23301
451.2626, 41.76691
451.7447, 42.15831
452.2268, 42.42052
452.7089, 42.65343
453.1910, 42.93026
453.6732, 43.21307
454.1553, 43.32592
454.6374, 43.13813
455.1195, 42.99910
455.6016, 43.05854
456.0837, 43.12465
456.5659, 43.02113
457.0480, 42.72198
457.5301, 42.35556
458.0122, 42.06682
458.4943, 41.85160
458.9764, 41.55201
459.4586, 41.15419
459.9407, 40.67901
460.4228, 40.10144
460.9049, 39.47136
461.3870, 38.87138
461.8691, 38.31620
462.3513, 37.82649
462.8334, 37.45082
463.3155, 37.18551
463.7976, 36.94873
464.2797, 36.77477
464.7618, 36.54437
465.2440, 36.04140
465.7261, 35.25632
466.2082, 34.62676
466.6903, 34.40173
467.1724, 34.35347
467.6545, 34.21855
468.1367, 33.97784
468.6188, 33.71156
469.1009, 33.48262
469.5830, 33.14048
470.0651, 32.96355
470.5472, 32.44285
471.0294, 31.99350
471.5115, 31.62577
471.9936, 31.39452
472.4757, 31.47580
472.9578, 31.88177
473.4399, 32.25521
473.9221, 32.13322
474.4042, 31.38804
474.8863, 30.88845
475.3684, 30.78162
475.8505, 30.72818
476.3326, 30.63225
476.8148, 30.49880
477.2969, 30.32413
477.7790, 30.10217
478.2611, 29.92129
478.7432, 30.03834
479.2253, 30.66981
479.7075, 30.97908
480.1896, 30.59292
480.6717, 30.09271
481.1538, 29.76045
481.6359, 29.60209
482.1180, 29.50096
482.6002, 29.39703
483.0823, 29.28800
483.5644, 29.18638
484.0465, 29.12303
484.5286, 28.94803
485.0107, 28.43317
485.4929, 27.85532
485.9750, 27.57182
486.4571, 27.67052
486.9392, 27.80243
487.4213, 27.76931
487.9034, 27.61551
488.3856, 27.41630
488.8677, 27.17219
489.3498, 26.96810
489.8319, 26.92326
490.3140, 27.00919
490.7961, 26.90624
491.2783, 26.45092
491.7604, 25.98082
492.2425, 25.62107
492.7246, 25.35819
493.2067, 25.18691
493.6888, 25.10614
494.1710, 25.03869
494.6531, 24.87416
495.1352, 24.61740
495.6173, 24.23146
496.0994, 23.42711
496.5815, 22.79122
497.0637, 22.76534
497.5458, 23.12297
498.0279, 23.36415
498.5100, 23.20694
498.9921, 22.76398
499.4742, 22.28841
499.9564, 21.72795
500.4385, 21.27242
500.9206, 20.97731
501.4027, 20.76826
501.8848, 20.65036
502.3669, 20.59619
502.8491, 20.50776
503.3312, 20.26154
503.8133, 19.94498
504.2954, 19.83602
504.7775, 19.99072
505.2596, 20.08969
505.7418, 19.97114
506.2239, 19.71564
506.7060, 19.42419
507.1881, 19.08179
507.6702, 18.79107
508.1523, 18.63010
508.6345, 18.54540
509.1166, 18.45208
509.5987, 18.33705
510.0808, 18.21005
510.5629, 18.04975
511.0450, 17.87593
511.5272, 17.88775
512.0093, 18.37092
512.4914, 18.67580
512.9735, 18.46807
513.4556, 18.03361
513.9377, 17.73271
514.4199, 17.66839
514.9020, 17.73846
515.3841, 17.84321
515.8662, 18.01279
516.3483, 18.00958
516.8304, 17.63952
517.3126, 17.29865
517.7947, 17.04461
518.2768, 16.90601
518.7589, 16.95783
519.2410, 17.24047
519.7231, 17.55650
520.2053, 17.60066
520.6874, 17.35294
521.1695, 17.11783
521.6516, 16.91655
522.1337, 16.76108
522.6158, 16.64050
523.0980, 16.56441
523.5801, 16.56870
524.0622, 16.75711
524.5443, 16.94147
525.0264, 16.84197
525.5085, 16.52258
525.9907, 16.39428
526.4728, 16.65002
526.9549, 17.04549
527.4370, 17.21442
527.9191, 17.12510
528.4012, 17.04176
528.8834, 17.05138
529.3655, 17.02247
529.8476, 16.83010
530.3297, 16.51781
530.8118, 16.20205
531.2939, 15.93770
531.7761, 15.75504
532.2582, 15.73343
532.7403, 15.91162
533.2224, 16.19204
533.7045, 16.84854
534.1866, 17.35322
534.6688, 17.29212
535.1509, 16.78685
535.6330, 16.26480
536.1151, 15.99554
536.5972, 15.90993
537.0793, 15.80921
537.5615, 15.66426
538.0436, 15.62693
538.5257, 15.79031
539.0078, 16.04778
539.4899, 16.39030
539.9720, 16.79754
540.4542, 16.99186
540.9363, 16.66610
541.4184, 16.13275
541.9005, 15.82769
542.3826, 15.76153
542.8647, 15.78741
543.3469, 15.84567
543.8290, 15.93029
544.3111, 16.04062
544.7932, 16.24151
545.2753, 16.31618
545.7574, 16.09242
546.2396, 15.83138
546.7217, 15.77946
547.2038, 15.92043
547.6859, 16.06364
548.1680, 16.06480
548.6501, 15.98170
549.1323, 16.08979
549.6144, 16.59893
550.0965, 16.93092
550.5786, 16.99263
551.0607, 16.90577
551.5428, 16.64850
552.0250, 16.29169
552.5071, 16.09064
552.9892, 16.28746
553.4713, 16.75797
553.9534, 17.18817
554.4355, 17.60544
554.9177, 17.82575
555.3998, 17.65398
555.8819, 17.33029
556.3640, 17.16608
556.8461, 17.17210
557.3282, 17.28523
557.8104, 17.53810
558.2925, 17.85221
558.7746, 18.15996
559.2567, 18.44868
559.7388, 18.66922
560.2209, 18.78699
560.7031, 18.82693
561.1852, 18.86838
561.6673, 18.85345
562.1494, 18.92745
562.6315, 19.12601
563.1136, 19.38776
563.5958, 19.68612
564.0779, 20.00895
564.5600, 20.34013
565.0421, 20.67623
565.5242, 21.00048
566.0063, 21.25454
566.4885, 21.42476
566.9706, 21.55912
567.4527, 21.47019
567.9348, 21.50315
568.4169, 21.99913
568.8990, 22.90277
569.3812, 23.75835
569.8633, 24.28698
570.3454, 24.64383
570.8275, 25.05692
571.3096, 25.51921
571.7917, 25.89552
572.2739, 26.09557
572.7560, 26.24008
573.2381, 26.55973
573.7202, 27.10455
574.2023, 27.61945
574.6844, 28.10857
575.1666, 28.53953
575.6487, 28.93309
576.1308, 29.25025
576.6129, 29.37285
577.0950, 29.23176
577.5771, 28.95588
578.0593, 28.85258
578.5414, 29.04524
579.0235, 29.07214
579.5056, 28.87400
579.9877, 28.53472
580.4698, 28.01489
580.9520, 27.38427
581.4341, 26.76356
581.9162, 26.16726
582.3983, 25.68779
582.8804, 25.56782
583.3625, 25.75604
583.8447, 25.67949
584.3268, 25.13895
584.8089, 24.45361
585.2910, 23.94729
585.7731, 23.60165
586.2552, 23.23016
586.7374, 22.75205
587.2195, 22.31242
587.7016, 21.96205
588.1837, 21.70951
588.6658, 21.57554
589.1479, 21.56381
589.6301, 21.64630
590.1122, 21.82071
590.5943, 22.12034
591.0764, 22.18017
591.5585, 21.61655
592.0406, 21.26284
592.5228, 21.54185
593.0049, 22.02739
593.4870, 22.17943
593.9691, 21.86654
594.4512, 21.46806
594.9333, 21.34884
595.4155, 21.44874
595.8976, 21.47980
596.3797, 21.38821
596.8618, 21.40533
597.3439, 21.73634
597.8260, 22.24463
598.3082, 22.58849
598.7903, 22.72621
599.2724, 22.80634
599.7545, 22.79943
600.2366, 22.80629
600.7188, 22.93642
601.2009, 23.19368
601.6830, 23.54240
602.1651, 23.97972
