##NAMES=Plumbotsumite
##RRUFFID=R110157
##IDEAL CHEMISTRY=Pb^2+^_5_Si_4_O_8_(OH)_10_
##LOCALITY=Blue Bell claims, Baker, San Bernardino County, California, USA
##OWNER=RRUFF
##SOURCE=Donald M Doell
##DESCRIPTION=Glassy pale blue massive, with a well-defined cleavage.
##STATUS=The identification of this mineral has been confirmed by single-crystal X-ray diffraction.
##URL=rruff.info/R110157
185.9513, 1515.672
186.4334, 1523.431
186.9155, 1525.933
187.3976, 1525.147
187.8798, 1528.191
188.3619, 1535.791
188.8440, 1545.109
189.3261, 1552.257
189.8082, 1557.412
190.2903, 1562.070
190.7725, 1566.658
191.2546, 1571.332
191.7367, 1577.019
192.2188, 1584.247
192.7009, 1591.333
193.1830, 1594.890
193.6652, 1594.907
194.1473, 1594.581
194.6294, 1595.668
195.1115, 1598.041
195.5936, 1600.372
196.0757, 1602.852
196.5579, 1604.809
197.0400, 1604.819
197.5221, 1602.793
198.0042, 1599.906
198.4863, 1596.678
198.9684, 1593.130
199.4506, 1589.307
199.9327, 1585.365
200.4148, 1581.050
200.8969, 1575.521
201.3790, 1568.460
201.8611, 1561.680
202.3433, 1556.601
202.8254, 1553.457
203.3075, 1549.165
203.7896, 1543.322
204.2717, 1536.412
204.7538, 1529.694
205.2360, 1523.208
205.7181, 1516.647
206.2002, 1509.740
206.6823, 1502.376
207.1644, 1495.153
207.6465, 1487.961
208.1287, 1480.996
208.6108, 1474.829
209.0929, 1469.750
209.5750, 1464.600
210.0571, 1458.505
210.5392, 1451.051
211.0214, 1444.535
211.5035, 1439.420
211.9856, 1435.331
212.4677, 1430.763
212.9498, 1425.590
213.4319, 1420.290
213.9140, 1415.024
214.3962, 1409.685
214.8783, 1404.851
215.3604, 1400.667
215.8425, 1397.031
216.3246, 1393.879
216.8067, 1391.651
217.2889, 1388.987
217.7710, 1384.605
218.2531, 1377.238
218.7352, 1371.961
219.2173, 1370.029
219.6994, 1370.438
220.1816, 1368.571
220.6637, 1363.610
221.1458, 1357.688
221.6279, 1352.257
222.1100, 1347.753
222.5921, 1342.386
223.0743, 1335.673
223.5564, 1327.985
224.0385, 1320.704
224.5206, 1314.184
225.0027, 1307.821
225.4848, 1301.373
225.9670, 1295.202
226.4491, 1288.233
226.9312, 1280.050
227.4133, 1271.006
227.8954, 1262.255
228.3775, 1253.869
228.8597, 1245.933
229.3418, 1238.706
229.8239, 1232.691
230.3060, 1226.179
230.7881, 1218.748
231.2702, 1210.653
231.7524, 1203.525
232.2345, 1197.890
232.7166, 1192.530
233.1987, 1186.765
233.6808, 1180.250
234.1629, 1174.041
234.6451, 1168.103
235.1272, 1162.469
235.6093, 1157.218
236.0914, 1152.409
236.5735, 1147.900
237.0556, 1143.696
237.5378, 1140.175
238.0199, 1136.172
238.5020, 1131.525
238.9841, 1126.363
239.4662, 1121.264
239.9483, 1115.946
240.4305, 1111.135
240.9126, 1107.287
241.3947, 1105.038
241.8768, 1102.378
242.3589, 1098.985
242.8410, 1095.160
243.3232, 1091.857
243.8053, 1089.118
244.2874, 1086.854
244.7695, 1085.095
245.2516, 1084.092
245.7337, 1082.954
246.2159, 1081.676
246.6980, 1080.198
247.1801, 1078.450
247.6622, 1076.625
248.1443, 1074.173
248.6264, 1070.595
249.1086, 1064.681
249.5907, 1060.531
250.0728, 1058.731
250.5549, 1058.593
251.0370, 1058.346
251.5191, 1058.037
252.0013, 1057.586
252.4834, 1056.972
252.9655, 1056.240
253.4476, 1055.256
253.9297, 1053.802
254.4118, 1052.213
254.8940, 1051.247
255.3761, 1051.216
255.8582, 1051.250
256.3403, 1051.010
256.8224, 1050.461
257.3046, 1049.616
257.7867, 1048.141
258.2688, 1046.553
258.7509, 1045.999
259.2330, 1046.973
259.7151, 1047.933
260.1973, 1048.178
260.6794, 1047.402
261.1615, 1047.258
261.6436, 1047.888
262.1257, 1049.037
262.6078, 1050.381
263.0900, 1052.134
263.5721, 1053.582
264.0542, 1054.145
264.5363, 1053.467
265.0184, 1054.769
265.5005, 1058.999
265.9827, 1064.167
266.4648, 1067.256
266.9469, 1067.436
267.4290, 1067.919
267.9111, 1069.937
268.3932, 1073.626
268.8754, 1076.202
269.3575, 1077.267
269.8396, 1077.784
270.3217, 1078.754
270.8038, 1080.008
271.2859, 1082.313
271.7681, 1086.357
272.2502, 1092.005
272.7323, 1095.909
273.2144, 1097.568
273.6965, 1098.343
274.1786, 1099.756
274.6608, 1102.046
275.1429, 1103.715
275.6250, 1104.074
276.1071, 1103.411
276.5892, 1104.273
277.0714, 1107.220
277.5535, 1110.057
278.0356, 1110.365
278.5177, 1107.852
278.9998, 1105.837
279.4819, 1105.247
279.9641, 1105.607
280.4462, 1104.899
280.9283, 1103.017
281.4104, 1100.485
281.8925, 1097.717
282.3746, 1094.723
282.8568, 1091.134
283.3389, 1086.672
283.8210, 1081.794
284.3031, 1077.867
284.7852, 1074.995
285.2673, 1072.311
285.7495, 1069.273
286.2316, 1065.904
286.7137, 1062.269
287.1958, 1058.374
287.6779, 1054.250
288.1600, 1049.714
288.6422, 1044.745
289.1243, 1040.176
289.6064, 1036.638
290.0885, 1033.990
290.5706, 1031.950
291.0527, 1030.709
291.5349, 1029.452
292.0170, 1026.775
292.4991, 1022.769
292.9812, 1018.325
293.4633, 1013.619
293.9454, 1008.846
294.4276, 1004.792
294.9097, 1001.624
295.3918, 998.7989
295.8739, 995.6632
296.3560, 992.3113
296.8381, 989.0193
297.3203, 985.8461
297.8024, 982.8828
298.2845, 980.3174
298.7666, 978.1645
299.2487, 976.2488
299.7308, 974.6314
300.2130, 973.1174
300.6951, 971.1686
301.1772, 968.2968
301.6593, 965.0076
302.1414, 961.8408
302.6235, 958.8245
303.1057, 956.1531
303.5878, 954.3055
304.0699, 952.9086
304.5520, 951.3006
305.0341, 949.0768
305.5162, 946.7357
305.9984, 944.8085
306.4805, 943.2634
306.9626, 941.7458
307.4447, 939.8483
307.9268, 937.8991
308.4089, 936.4133
308.8911, 935.8273
309.3732, 935.2676
309.8553, 933.7911
310.3374, 931.6951
310.8195, 929.9520
311.3016, 929.3541
311.7838, 929.2507
312.2659, 929.0820
312.7480, 928.7542
313.2301, 928.3067
313.7122, 927.9582
314.1943, 927.5038
314.6765, 926.5189
315.1586, 924.1508
315.6407, 921.6676
316.1228, 919.8395
316.6049, 918.8472
317.0870, 918.2263
317.5692, 918.2631
318.0513, 918.4493
318.5334, 918.0698
319.0155, 916.5541
319.4976, 914.7218
319.9797, 912.7538
320.4619, 910.6193
320.9440, 908.9280
321.4261, 907.9007
321.9082, 907.3848
322.3903, 907.2416
322.8724, 908.0154
323.3546, 908.5594
323.8367, 908.4501
324.3188, 907.7059
324.8009, 907.0787
325.2830, 906.5928
325.7651, 906.3389
326.2473, 906.3830
326.7294, 907.0109
327.2115, 907.6537
327.6936, 908.4012
328.1757, 909.1959
328.6578, 909.7226
329.1400, 909.8226
329.6221, 909.8232
330.1042, 909.8545
330.5863, 909.8315
331.0684, 909.9931
331.5505, 910.3496
332.0327, 910.8703
332.5148, 911.4978
332.9969, 912.2529
333.4790, 913.0200
333.9611, 913.6798
334.4432, 914.0530
334.9254, 914.9535
335.4075, 916.6179
335.8896, 918.5481
336.3717, 920.0568
336.8538, 920.9983
337.3359, 921.8154
337.8180, 922.7073
338.3001, 923.6666
338.7823, 923.9211
339.2644, 923.1760
339.7465, 922.3492
340.2286, 922.6345
340.7107, 924.3994
341.1928, 925.1245
341.6750, 924.0405
342.1571, 921.6735
342.6392, 920.2094
343.1213, 919.8223
343.6034, 919.3992
344.0855, 917.8015
344.5677, 915.1233
345.0498, 913.3898
345.5319, 913.0228
346.0140, 913.4335
346.4961, 913.6895
346.9782, 913.7844
347.4604, 913.5302
347.9425, 912.6761
348.4246, 911.3607
348.9067, 910.1293
349.3888, 909.0309
349.8709, 907.9141
350.3531, 906.2963
350.8352, 904.4142
351.3173, 903.1536
351.7994, 903.3503
352.2815, 904.2348
352.7636, 904.5645
353.2458, 904.3292
353.7279, 903.7906
354.2100, 902.9122
354.6921, 901.9064
355.1742, 901.2024
355.6563, 901.4021
356.1385, 901.4282
356.6206, 899.6318
357.1027, 896.4612
357.5848, 894.2018
358.0669, 895.2532
358.5490, 897.3254
359.0312, 898.2077
359.5133, 897.1748
359.9954, 895.6107
360.4775, 893.9044
360.9596, 892.2574
361.4417, 891.1127
361.9239, 891.3124
362.4060, 891.5561
362.8881, 890.9883
363.3702, 889.3215
363.8523, 887.9477
364.3344, 887.5667
364.8166, 887.6323
365.2987, 887.5196
365.7808, 886.2919
366.2629, 885.6705
366.7450, 886.3093
367.2271, 888.2073
367.7093, 890.1121
368.1914, 892.4039
368.6735, 894.3153
369.1556, 895.3417
369.6377, 894.4023
370.1198, 893.8604
370.6020, 893.8406
371.0841, 894.2731
371.5662, 894.9450
372.0483, 896.0051
372.5304, 897.0949
373.0125, 898.0919
373.4947, 899.0301
373.9768, 899.7289
374.4589, 900.1384
374.9410, 900.3557
375.4231, 900.5031
375.9052, 900.5342
376.3874, 900.6694
376.8695, 900.9635
377.3516, 901.4384
377.8337, 902.2868
378.3158, 903.7224
378.7979, 905.0383
379.2801, 905.2866
379.7622, 904.4057
380.2443, 904.1170
380.7264, 904.9827
381.2085, 906.4620
381.6906, 906.9582
382.1728, 906.4408
382.6549, 905.9855
383.1370, 906.4822
383.6191, 907.6647
384.1012, 908.4421
384.5833, 908.6080
385.0655, 908.6278
385.5476, 909.2701
386.0297, 910.3348
386.5118, 911.0892
386.9939, 910.7455
387.4760, 910.0681
387.9582, 910.3807
388.4403, 911.7288
388.9224, 912.9511
389.4045, 913.3170
389.8866, 912.9302
390.3687, 911.8650
390.8509, 909.4406
391.3330, 907.1541
391.8151, 906.4006
392.2972, 906.8091
392.7793, 906.8271
393.2614, 904.8923
393.7436, 902.7867
394.2257, 901.8539
394.7078, 902.8175
395.1899, 903.7627
395.6720, 903.8918
396.1541, 903.5807
396.6363, 903.4395
397.1184, 904.3004
397.6005, 904.7051
398.0826, 903.7977
398.5647, 901.2827
399.0468, 899.6940
399.5290, 900.4725
400.0111, 901.5990
400.4932, 901.4324
400.9753, 898.4742
401.4574, 896.2496
401.9395, 895.4709
402.4217, 895.7600
402.9038, 895.2482
403.3859, 893.2086
403.8680, 891.4433
404.3501, 890.9916
404.8322, 892.4475
405.3144, 893.1470
405.7965, 892.9667
406.2786, 892.1696
406.7607, 890.9407
407.2428, 889.0927
407.7249, 887.8494
408.2071, 887.8368
408.6892, 888.8221
409.1713, 889.2147
409.6534, 888.8890
410.1355, 888.6882
410.6176, 889.6154
411.0998, 891.4498
411.5819, 892.9265
412.0640, 893.8258
412.5461, 894.2072
413.0282, 893.8146
413.5103, 892.8223
413.9925, 892.2531
414.4746, 893.0800
414.9567, 894.5800
415.4388, 895.4845
415.9209, 895.6180
416.4030, 895.9355
416.8852, 897.9142
417.3673, 900.5129
417.8494, 902.0449
418.3315, 900.6521
418.8136, 899.0148
419.2957, 898.9503
419.7779, 900.2753
420.2600, 901.6711
420.7421, 902.6087
421.2242, 903.3648
421.7063, 904.1420
422.1884, 905.1624
422.6706, 905.9091
423.1527, 906.0031
423.6348, 905.7766
424.1169, 905.8515
424.5990, 905.8273
425.0811, 906.5740
425.5633, 908.7352
426.0454, 912.6384
426.5275, 915.5126
427.0096, 917.1077
427.4917, 917.8645
427.9738, 918.0895
428.4560, 917.5436
428.9381, 916.9156
429.4202, 916.2180
429.9023, 915.4988
430.3844, 914.9721
430.8665, 914.7902
431.3487, 914.3746
431.8308, 913.3616
432.3129, 911.7298
432.7950, 910.2368
433.2771, 909.0184
433.7592, 907.6268
434.2414, 905.2073
434.7235, 901.8719
435.2056, 898.9088
435.6877, 896.8212
436.1698, 895.3155
436.6519, 893.8506
437.1341, 892.4221
437.6162, 890.8841
438.0983, 888.8907
438.5804, 886.7592
439.0625, 884.9791
439.5446, 883.5800
440.0268, 882.7214
440.5089, 882.9450
440.9910, 883.8016
441.4731, 884.3703
441.9552, 883.8492
442.4373, 883.2048
442.9195, 883.0732
443.4016, 883.4583
443.8837, 883.8828
444.3658, 884.1187
444.8479, 884.3115
445.3300, 884.5661
445.8122, 884.7932
446.2943, 885.2057
446.7764, 885.7521
447.2585, 886.4979
447.7406, 887.6198
448.2227, 889.6830
448.7049, 891.5739
449.1870, 892.9080
449.6691, 893.5344
450.1512, 894.5336
450.6333, 896.2313
451.1154, 897.9583
451.5976, 898.9943
452.0797, 899.0587
452.5618, 899.4225
453.0439, 900.4083
453.5260, 901.7709
454.0081, 902.8927
454.4903, 903.8195
454.9724, 904.2539
455.4545, 903.8083
455.9366, 902.6243
456.4187, 901.8090
456.9008, 901.4853
457.3830, 901.0201
457.8651, 899.4475
458.3472, 897.0732
458.8293, 895.0086
459.3114, 893.8112
459.7935, 892.8439
460.2757, 891.1840
460.7578, 888.9579
461.2399, 886.8132
461.7220, 885.4833
462.2041, 884.2375
462.6862, 882.2131
463.1684, 879.0419
463.6505, 876.2732
464.1326, 875.3243
464.6147, 875.1095
465.0968, 874.2010
465.5789, 871.3505
466.0611, 868.6469
466.5432, 866.7943
467.0253, 865.7484
467.5074, 864.6474
467.9895, 863.3245
468.4716, 861.9940
468.9538, 860.7676
469.4359, 859.7247
469.9180, 858.6424
470.4001, 857.5530
470.8822, 856.3724
471.3643, 854.7148
471.8465, 851.9379
472.3286, 850.6340
472.8107, 852.1216
473.2928, 855.6732
473.7749, 856.9113
474.2570, 855.4687
474.7392, 853.5598
475.2213, 853.0154
475.7034, 853.5735
476.1855, 853.3195
476.6676, 851.9015
477.1497, 850.1887
477.6319, 849.2346
478.1140, 848.9531
478.5961, 849.0761
479.0782, 849.9294
479.5603, 850.8618
480.0424, 851.0201
480.5246, 850.4818
481.0067, 849.8851
481.4888, 849.6395
481.9709, 849.5020
482.4530, 849.3141
482.9352, 849.1756
483.4173, 848.6350
483.8994, 847.3729
484.3815, 845.6097
484.8636, 843.6987
485.3457, 841.1495
485.8279, 839.0441
486.3100, 837.8923
486.7921, 837.7020
487.2742, 837.1656
487.7563, 836.1004
488.2384, 834.8951
488.7206, 833.7335
489.2027, 832.5179
489.6848, 831.7682
490.1669, 831.8987
490.6490, 832.0738
491.1311, 830.5768
491.6133, 827.0610
492.0954, 824.4206
492.5775, 823.8989
493.0596, 824.8312
493.5417, 824.6207
494.0238, 823.2427
494.5060, 821.8058
494.9881, 821.2082
495.4702, 821.1645
495.9523, 820.9873
496.4344, 820.5824
496.9165, 820.0125
497.3987, 819.3536
497.8808, 818.5698
498.3629, 817.6093
498.8450, 816.5724
499.3271, 815.2578
499.8092, 813.2570
500.2914, 810.7355
500.7735, 808.7261
501.2556, 807.8757
501.7377, 807.4489
502.2198, 807.1202
502.7019, 807.0969
503.1841, 806.5481
503.6662, 804.7130
504.1483, 802.5861
504.6304, 801.3919
505.1125, 802.0920
505.5946, 802.1492
506.0768, 800.7968
506.5589, 798.4533
507.0410, 797.3157
507.5231, 797.7238
508.0052, 798.3555
508.4873, 798.4883
508.9695, 798.1088
509.4516, 797.9902
509.9337, 798.1951
510.4158, 798.3834
510.8979, 798.0475
511.3800, 797.3128
511.8622, 796.8082
512.3443, 796.8515
512.8264, 796.9746
513.3085, 796.4202
513.7906, 795.3728
514.2728, 794.4851
514.7549, 794.5329
515.2370, 794.6456
515.7191, 794.0056
516.2012, 792.5226
516.6833, 790.9568
517.1655, 789.2561
517.6476, 787.8431
518.1297, 787.0847
518.6118, 787.5132
519.0939, 788.0406
519.5760, 788.6876
520.0582, 789.3111
520.5403, 789.5800
521.0224, 789.1448
521.5045, 788.8347
521.9866, 788.9232
522.4688, 789.4052
522.9509, 789.6647
523.4330, 789.6025
523.9151, 789.5245
524.3972, 789.7111
524.8793, 790.1633
525.3615, 790.3941
525.8436, 790.2679
526.3257, 790.1436
526.8078, 790.7830
527.2899, 791.9814
527.7720, 792.7687
528.2542, 792.6935
528.7363, 792.0437
529.2184, 790.9177
529.7005, 789.4445
530.1826, 788.2725
530.6647, 788.1135
531.1469, 788.2520
531.6290, 788.0043
532.1111, 787.1692
532.5932, 786.5381
533.0753, 786.3708
533.5574, 786.6016
534.0396, 787.1638
534.5217, 789.5384
535.0038, 790.5036
535.4859, 788.6502
535.9680, 785.0242
536.4501, 782.9356
536.9323, 783.0694
537.4144, 783.5909
537.8965, 783.9199
538.3786, 784.0508
538.8607, 783.9948
539.3428, 783.6687
539.8250, 783.3821
540.3071, 783.6142
540.7892, 784.2590
541.2713, 784.2688
541.7534, 783.3326
542.2355, 782.1231
542.7177, 781.3539
543.1998, 781.0526
543.6819, 781.3355
544.1640, 783.1165
544.6461, 784.8991
545.1282, 785.0768
545.6104, 783.8652
546.0925, 782.6274
546.5746, 781.8740
547.0567, 781.4830
547.5388, 781.3538
548.0209, 781.4398
548.5031, 781.9251
548.9852, 783.1137
549.4673, 784.5943
549.9494, 785.9679
550.4315, 787.7147
550.9136, 788.5478
551.3958, 788.0042
551.8779, 786.5294
552.3600, 785.3631
552.8421, 784.4045
553.3242, 784.0825
553.8063, 784.9227
554.2885, 786.6854
554.7706, 787.3026
555.2527, 786.6854
555.7348, 785.8891
556.2169, 785.9842
556.6990, 786.6145
557.1812, 786.7574
557.6633, 786.1229
558.1454, 785.5172
558.6275, 785.7305
559.1096, 786.5214
559.5917, 787.4666
560.0739, 788.6578
560.5560, 789.7082
561.0381, 790.4510
561.5202, 790.8889
562.0023, 791.0778
562.4844, 790.5299
562.9666, 790.1548
563.4487, 790.3572
563.9308, 791.1772
564.4129, 792.3300
564.8950, 793.9874
565.3771, 795.7760
565.8593, 797.5606
566.3414, 799.5631
566.8235, 800.4633
567.3056, 799.8206
567.7877, 798.5134
568.2698, 798.0153
568.7520, 798.3112
569.2341, 799.1769
569.7162, 800.6941
570.1983, 802.6344
570.6804, 804.9895
571.1625, 807.6134
571.6447, 809.5087
572.1268, 809.2937
572.6089, 808.4758
573.0910, 808.6122
573.5731, 810.0073
574.0552, 811.3699
574.5374, 812.0858
575.0195, 812.5121
575.5016, 812.9830
575.9837, 813.6075
576.4658, 814.1932
576.9479, 814.7772
577.4301, 815.2731
577.9122, 815.5129
578.3943, 815.3878
578.8764, 815.1744
579.3585, 814.9872
579.8406, 814.7678
580.3228, 814.1703
580.8049, 813.1869
581.2870, 811.8691
581.7691, 809.9484
582.2512, 807.6798
582.7333, 806.1924
583.2155, 805.6301
583.6975, 805.1580
584.1796, 803.9241
584.6617, 802.2620
585.1439, 800.6619
585.6260, 799.0951
586.1081, 797.9477
586.5902, 797.8923
587.0723, 798.3812
587.5544, 798.3566
588.0366, 796.5774
588.5187, 795.1684
589.0008, 795.0241
589.4829, 796.0702
589.9650, 796.6950
590.4471, 796.7317
590.9293, 796.5057
591.4114, 795.9319
591.8935, 794.7699
592.3756, 795.0966
592.8577, 797.3381
593.3398, 799.9110
593.8220, 801.1609
594.3041, 801.2291
594.7862, 801.2585
595.2683, 801.5809
595.7504, 801.6277
596.2325, 799.9113
596.7147, 797.2808
597.1968, 795.9503
597.6789, 798.1165
598.1610, 800.9108
598.6431, 802.3198
599.1252, 802.5584
599.6074, 802.7141
600.0895, 803.1038
600.5716, 803.5668
601.0537, 804.0225
601.5358, 804.4432
602.0179, 804.9451
602.5001, 805.6552
602.9822, 806.3213
603.4643, 806.7181
603.9464, 806.7372
604.4285, 806.9827
604.9106, 807.6124
605.3928, 808.2638
605.8749, 808.1718
606.3570, 807.4223
606.8391, 807.2465
607.3212, 808.4482
607.8033, 809.8596
608.2855, 809.4240
608.7676, 807.5684
609.2497, 805.8645
609.7318, 805.5204
610.2139, 805.4205
610.6960, 804.6462
611.1782, 803.1712
611.6603, 801.7394
612.1424, 800.8225
612.6245, 799.8633
613.1066, 798.5135
613.5887, 796.5965
614.0709, 794.6256
614.5530, 792.5771
615.0351, 790.4980
615.5172, 788.2302
615.9993, 785.4896
616.4814, 783.9065
616.9636, 783.9988
617.4457, 784.9267
617.9278, 785.3087
618.4099, 785.1236
618.8920, 784.2380
619.3741, 782.1682
619.8563, 779.6561
620.3384, 777.7072
620.8205, 776.2862
621.3026, 775.2460
621.7847, 774.8869
622.2668, 774.5883
622.7490, 773.8777
623.2311, 772.6817
623.7132, 771.4460
624.1953, 769.9797
624.6774, 768.7502
625.1595, 768.1158
625.6417, 768.5102
626.1238, 768.7158
626.6059, 768.8058
627.0880, 768.6578
627.5701, 767.9550
628.0522, 766.6101
628.5344, 765.6288
629.0165, 765.2641
629.4986, 765.3097
629.9807, 765.3949
630.4628, 765.5320
630.9449, 765.8027
631.4271, 766.5212
631.9092, 767.2002
632.3913, 767.2111
632.8734, 766.6287
633.3555, 766.0057
633.8376, 765.3889
634.3198, 764.9716
634.8019, 764.9095
635.2840, 765.2816
635.7661, 765.6533
636.2482, 766.1227
636.7303, 766.4666
637.2125, 766.5353
637.6946, 766.3050
638.1767, 765.8704
638.6588, 765.2032
639.1409, 764.4113
639.6230, 763.5834
640.1052, 762.7364
640.5873, 762.1469
641.0694, 761.9936
641.5515, 761.9655
642.0336, 761.4591
642.5157, 760.6726
642.9979, 760.1776
643.4800, 760.5135
643.9621, 761.0264
644.4442, 761.2430
644.9263, 761.2102
645.4084, 761.2578
645.8906, 761.5523
646.3727, 761.8986
646.8548, 762.2574
647.3369, 762.6630
647.8190, 762.8344
648.3011, 762.7802
648.7833, 762.4792
649.2654, 761.7730
649.7475, 760.5822
650.2296, 759.9131
650.7117, 759.8660
651.1938, 760.1501
651.6760, 760.5388
652.1581, 760.9759
652.6402, 761.3100
653.1223, 761.5828
653.6044, 761.5552
654.0865, 760.3812
654.5687, 758.8217
655.0508, 758.3305
655.5329, 760.8747
656.0150, 763.1115
656.4971, 763.7125
656.9792, 762.9012
657.4614, 761.9479
657.9435, 760.4435
658.4256, 759.4718
658.9077, 759.5353
659.3898, 760.5803
659.8719, 761.2783
660.3541, 761.5618
660.8362, 761.8054
661.3183, 762.3759
661.8004, 763.1393
662.2825, 763.5898
662.7646, 763.6966
663.2468, 763.5774
663.7289, 763.0726
664.2110, 762.5137
664.6931, 762.3670
665.1752, 762.8662
665.6573, 763.4554
666.1395, 764.0455
666.6216, 764.5453
667.1037, 764.8405
667.5858, 764.3092
668.0679, 764.3903
668.5500, 765.4511
669.0322, 767.0716
669.5143, 768.3867
669.9964, 769.4283
670.4785, 769.9715
670.9606, 769.6829
671.4427, 769.0256
671.9249, 769.4193
672.4070, 770.7465
672.8891, 772.0887
673.3712, 772.9381
673.8533, 773.4789
674.3354, 773.9135
674.8176, 774.2424
675.2997, 774.3651
675.7818, 774.1693
676.2639, 773.8034
676.7460, 773.3408
677.2281, 772.7856
677.7103, 772.1856
678.1924, 771.4945
678.6745, 770.8111
679.1566, 770.1531
679.6387, 769.4525
680.1208, 769.1559
680.6030, 769.3879
681.0851, 769.7371
681.5672, 769.5857
682.0493, 769.0702
682.5314, 768.7723
