##NAMES=Poldervaartite
##RRUFFID=R080080
##IDEAL CHEMISTRY=Ca_2_(SiO_3_OH)(OH)
##LOCALITY=Wessels mine, Hotazel, Kalahari manganese field, Cape Province, South Africa
##OWNER=RRUFF
##SOURCE=William W. Pinch
##DESCRIPTION=Colorless prismatic crystals
##STATUS=The identification of this mineral has been confirmed by single-crystal X-ray diffraction.
##URL=rruff.info/R080080
93.96979, 218.3298
94.45190, 226.9549
94.93402, 235.8763
95.41614, 242.1394
95.89825, 246.8445
96.38037, 251.8930
96.86249, 257.3334
97.34460, 263.8198
97.82672, 272.7886
98.30884, 281.3638
98.79095, 290.5559
99.27307, 298.8481
99.75519, 303.8058
100.2373, 305.2966
100.7194, 303.1557
101.2015, 297.3898
101.6837, 286.4918
102.1658, 273.5103
102.6479, 259.9486
103.1300, 245.6261
103.6121, 232.1939
104.0942, 220.7505
104.5764, 210.9044
105.0585, 202.8727
105.5406, 196.5389
106.0227, 191.9349
106.5048, 189.4359
106.9869, 189.8069
107.4691, 191.2930
107.9512, 192.7522
108.4333, 194.4149
108.9154, 196.9027
109.3975, 200.8840
109.8796, 206.5627
110.3618, 212.3782
110.8439, 219.3888
111.3260, 225.7049
111.8081, 230.3818
112.2902, 233.3332
112.7723, 235.1325
113.2545, 236.4552
113.7366, 236.4998
114.2187, 237.6585
114.7008, 239.8707
115.1829, 243.0894
115.6650, 247.0352
116.1472, 251.6024
116.6293, 257.3118
117.1114, 265.8759
117.5935, 278.9330
118.0756, 291.2589
118.5577, 304.2392
119.0399, 315.8513
119.5220, 321.0565
120.0041, 316.5566
120.4862, 304.3354
120.9683, 290.3937
121.4504, 273.0659
121.9326, 256.7958
122.4147, 244.8418
122.8968, 237.2718
123.3789, 233.1677
123.8610, 233.7719
124.3431, 237.2425
124.8252, 242.2455
125.3074, 248.3391
125.7895, 255.7869
126.2716, 265.5233
126.7537, 279.1400
127.2358, 292.1441
127.7179, 304.6301
128.2001, 315.4967
128.6822, 323.6446
129.1643, 328.5301
129.6464, 330.0796
130.1285, 327.0067
130.6107, 316.7568
131.0928, 303.8333
131.5749, 287.7469
132.0570, 269.6506
132.5391, 251.3934
133.0212, 234.7087
133.5034, 219.7566
133.9855, 205.1128
134.4676, 189.2722
134.9497, 174.8145
135.4318, 163.3236
135.9139, 154.8978
136.3961, 148.4047
136.8782, 142.8296
137.3603, 138.3089
137.8424, 134.3685
138.3245, 131.0074
138.8066, 128.2157
139.2888, 126.1133
139.7709, 124.8112
140.2530, 123.9141
140.7351, 122.9063
141.2172, 121.7959
141.6993, 120.9631
142.1815, 120.4929
142.6636, 120.4151
143.1457, 120.8891
143.6278, 122.1914
144.1099, 123.8336
144.5920, 125.4685
145.0742, 127.0735
145.5563, 128.5305
146.0384, 129.9279
146.5205, 131.3632
147.0026, 131.8960
147.4847, 130.7552
147.9669, 129.0145
148.4490, 127.0324
148.9311, 124.9392
149.4132, 122.8955
149.8953, 121.0989
150.3774, 119.3706
150.8596, 118.3329
151.3417, 118.4040
151.8238, 118.8317
152.3059, 119.0508
152.7880, 118.8439
153.2701, 118.3428
153.7523, 117.8793
154.2344, 117.1679
154.7165, 116.8637
155.1986, 117.5169
155.6807, 118.4506
156.1628, 118.6629
156.6449, 117.5795
157.1271, 115.6818
157.6092, 114.9944
158.0913, 116.2692
158.5734, 117.6363
159.0555, 118.6061
159.5376, 119.2728
160.0198, 119.8584
160.5019, 120.4158
160.9840, 121.0364
161.4661, 121.9525
161.9482, 123.1146
162.4303, 124.5929
162.9125, 126.5834
163.3946, 129.0629
163.8767, 131.5062
164.3588, 133.7287
164.8409, 135.6412
165.3230, 137.0641
165.8052, 137.5699
166.2873, 137.9266
166.7694, 139.2193
167.2515, 141.7029
167.7336, 144.2794
168.2157, 146.3514
168.6979, 148.2220
169.1800, 150.3527
169.6621, 153.2100
170.1442, 156.2549
170.6263, 157.9592
171.1084, 157.8691
171.5906, 156.9833
172.0727, 155.8099
172.5548, 154.1655
173.0369, 151.7278
173.5190, 148.2083
174.0011, 143.7350
174.4833, 139.3914
174.9654, 135.0487
175.4475, 130.9736
175.9296, 127.1950
176.4117, 123.7367
176.8938, 120.6018
177.3760, 117.8102
177.8581, 115.3664
178.3402, 113.1074
178.8223, 110.9539
179.3044, 109.0357
179.7865, 107.4298
180.2687, 106.1139
180.7508, 105.0176
181.2329, 104.0808
181.7150, 103.3065
182.1971, 102.8549
182.6792, 102.9789
183.1614, 103.1654
183.6435, 103.1645
184.1256, 102.9503
184.6077, 102.5923
185.0898, 102.1942
185.5719, 101.7291
186.0541, 100.8477
186.5362, 98.95824
187.0183, 96.98454
187.5004, 95.83161
187.9825, 95.61274
188.4646, 95.76253
188.9468, 95.80013
189.4289, 95.78367
189.9110, 95.99203
190.3931, 96.73966
190.8752, 97.67390
191.3573, 98.15861
191.8395, 97.96653
192.3216, 97.84600
192.8037, 98.42419
193.2858, 99.50169
193.7679, 100.6913
194.2500, 101.8511
194.7322, 102.9914
195.2143, 104.1325
195.6964, 105.1445
196.1785, 106.3837
196.6606, 108.1271
197.1427, 110.2117
197.6249, 112.2665
198.1070, 114.0569
198.5891, 115.6027
199.0712, 117.1156
199.5533, 118.7414
200.0354, 120.1463
200.5176, 121.2908
200.9997, 122.1273
201.4818, 122.5792
201.9639, 122.6038
202.4460, 122.2070
202.9281, 121.2755
203.4103, 119.5430
203.8924, 117.4746
204.3745, 114.8551
204.8566, 111.9479
205.3387, 109.3958
205.8208, 107.8585
206.3030, 107.5226
206.7851, 106.3750
207.2672, 103.3692
207.7493, 100.6143
208.2314, 98.92278
208.7135, 98.26399
209.1957, 98.24256
209.6778, 98.57163
210.1599, 99.33271
210.6420, 99.77790
211.1241, 99.32133
211.6062, 99.11034
212.0884, 99.84610
212.5705, 101.4585
213.0526, 103.3629
213.5347, 105.0751
214.0168, 106.5652
214.4989, 108.0526
214.9811, 109.5519
215.4632, 111.0411
215.9453, 112.5378
216.4274, 114.0349
216.9095, 115.4162
217.3916, 116.4387
217.8738, 117.1485
218.3559, 118.5678
218.8380, 121.3292
219.3201, 124.4243
219.8022, 126.9570
220.2843, 128.8615
220.7665, 130.6830
221.2486, 132.6757
221.7307, 134.9459
222.2128, 137.8166
222.6949, 141.6539
223.1770, 145.9611
223.6592, 150.0494
224.1413, 153.8131
224.6234, 157.9724
225.1055, 163.1863
225.5876, 169.1523
226.0697, 175.4239
226.5519, 181.7979
227.0340, 188.4339
227.5161, 195.5459
227.9982, 203.1484
228.4803, 211.2020
228.9624, 219.4678
229.4446, 228.1404
229.9267, 237.6489
230.4088, 247.8301
230.8909, 259.1027
231.3730, 272.1334
231.8551, 286.9334
232.3373, 303.5475
232.8194, 321.9554
233.3015, 342.1073
233.7836, 364.3617
234.2657, 389.1455
234.7478, 415.6700
235.2300, 442.5172
235.7121, 471.0304
236.1942, 497.2116
236.6763, 523.5286
237.1584, 546.0566
237.6405, 561.0447
238.1227, 567.0560
238.6048, 564.1534
239.0869, 552.1781
239.5690, 528.3317
240.0511, 499.1131
240.5332, 463.4117
241.0154, 425.0549
241.4975, 387.5035
241.9796, 352.1942
242.4617, 319.4387
242.9438, 290.5135
243.4259, 266.1380
243.9081, 244.9291
244.3902, 226.8910
244.8723, 211.4807
245.3544, 198.5422
245.8365, 187.9113
246.3186, 179.0594
246.8008, 170.6379
247.2829, 162.2048
247.7650, 155.0715
248.2471, 149.5347
248.7292, 145.0800
249.2113, 141.4404
249.6935, 138.4771
250.1756, 135.8906
250.6577, 133.0762
251.1398, 129.5520
251.6219, 126.5499
252.1040, 124.2801
252.5862, 122.4118
253.0683, 120.7126
253.5504, 119.1082
254.0325, 117.5608
254.5146, 115.9867
254.9967, 114.1124
255.4789, 112.8176
255.9610, 112.4016
256.4431, 112.3874
256.9252, 112.4436
257.4073, 112.4738
257.8894, 112.4360
258.3716, 112.2712
258.8537, 111.9397
259.3358, 111.5532
259.8179, 110.9159
260.3000, 110.3388
260.7821, 110.1502
261.2643, 110.3923
261.7464, 110.7550
262.2285, 110.8376
262.7106, 110.5050
263.1927, 110.7322
263.6748, 112.1451
264.1570, 113.7334
264.6391, 114.4977
265.1212, 114.3714
265.6033, 114.2205
266.0854, 114.9011
266.5675, 116.4662
267.0497, 117.7617
267.5318, 118.4436
268.0139, 119.0635
268.4960, 120.1971
268.9781, 121.8376
269.4602, 123.3481
269.9424, 124.3535
270.4245, 124.7643
270.9066, 124.5715
271.3887, 123.0238
271.8708, 121.4374
272.3529, 121.1024
272.8351, 121.9060
273.3172, 122.3499
273.7993, 121.3535
274.2814, 119.3237
274.7635, 117.7652
275.2456, 116.9595
275.7278, 116.3540
276.2099, 115.6000
276.6920, 114.7123
277.1741, 113.8285
277.6562, 113.1049
278.1383, 112.3502
278.6205, 111.2091
279.1026, 109.4931
279.5847, 107.7741
280.0668, 106.4627
280.5489, 105.4951
281.0310, 104.5711
281.5132, 103.7578
281.9953, 102.7363
282.4774, 100.9724
282.9595, 98.29614
283.4416, 95.88262
283.9237, 94.62277
284.4059, 94.27006
284.8880, 93.79326
285.3701, 92.96732
285.8522, 91.90511
286.3343, 90.64552
286.8164, 89.20258
287.2986, 87.93034
287.7807, 87.19495
288.2628, 86.79981
288.7449, 86.08092
289.2270, 84.82598
289.7091, 83.44637
290.1913, 82.20447
290.6734, 81.10151
291.1555, 80.14121
291.6376, 79.35326
292.1197, 78.71317
292.6018, 78.19839
293.0840, 77.90110
293.5661, 77.51295
294.0482, 76.73188
294.5303, 75.73166
295.0124, 74.80393
295.4945, 74.02303
295.9767, 73.40872
296.4588, 73.04980
296.9409, 73.02348
297.4230, 72.98766
297.9051, 72.57903
298.3872, 72.11207
298.8694, 72.00675
299.3515, 72.48638
299.8336, 73.19175
300.3157, 73.65913
300.7978, 73.85944
301.2799, 74.00867
301.7621, 74.07523
302.2442, 74.19046
302.7263, 74.40088
303.2084, 74.67510
303.6905, 75.29374
304.1726, 76.68165
304.6548, 78.86947
305.1369, 81.06204
305.6190, 83.44521
306.1011, 85.43499
306.5832, 86.41539
307.0653, 86.38156
307.5475, 86.20469
308.0296, 86.52791
308.5117, 87.32417
308.9938, 88.26705
309.4759, 89.17391
309.9580, 90.43636
310.4402, 92.38818
310.9223, 94.89708
311.4044, 97.46937
311.8865, 99.74864
312.3686, 101.8120
312.8507, 104.0101
313.3329, 106.2662
313.8150, 108.8251
314.2971, 112.0631
314.7792, 115.6526
315.2613, 118.9759
315.7434, 121.5603
316.2256, 123.8491
316.7077, 126.8262
317.1898, 130.6780
317.6719, 134.7910
318.1540, 139.1417
318.6361, 143.5142
319.1183, 147.4870
319.6004, 150.7161
320.0825, 154.1829
320.5646, 159.4403
321.0467, 166.7649
321.5288, 174.1101
322.0110, 180.5499
322.4931, 186.9497
322.9752, 193.9427
323.4573, 201.6026
323.9394, 209.6838
324.4215, 218.2135
324.9037, 227.1253
325.3858, 235.5359
325.8679, 243.0756
326.3500, 250.2129
326.8321, 257.5600
327.3142, 264.9908
327.7964, 271.6252
328.2785, 277.2977
328.7606, 281.7988
329.2427, 284.1086
329.7248, 283.8477
330.2069, 281.7902
330.6891, 278.2843
331.1712, 273.5707
331.6533, 268.0097
332.1354, 261.2303
332.6175, 253.9743
333.0996, 247.9018
333.5818, 243.3511
334.0639, 238.7963
334.5460, 233.0484
335.0281, 227.0239
335.5102, 221.8187
335.9923, 217.7896
336.4745, 214.4025
336.9566, 211.1799
337.4387, 208.1618
337.9208, 204.8406
338.4029, 200.9851
338.8850, 196.7611
339.3672, 192.3228
339.8493, 187.6516
340.3314, 182.9199
340.8135, 178.3681
341.2956, 173.8920
341.7777, 169.0431
342.2599, 163.5907
342.7420, 157.9474
343.2241, 152.3095
343.7062, 146.7152
344.1883, 141.5284
344.6704, 137.1580
345.1526, 133.2734
345.6347, 129.0490
346.1168, 124.2611
346.5989, 119.7394
347.0810, 116.2030
347.5631, 113.3625
348.0453, 110.8075
348.5274, 108.6143
349.0095, 106.5036
349.4916, 103.9740
349.9737, 101.0152
350.4558, 98.56973
350.9380, 97.40811
351.4201, 96.86091
351.9022, 95.80444
352.3843, 94.05848
352.8664, 92.18107
353.3485, 90.30602
353.8307, 88.55051
354.3128, 87.43346
354.7949, 87.22786
355.2770, 87.50186
355.7591, 87.69981
356.2412, 87.81522
356.7234, 88.11599
357.2055, 88.75343
357.6876, 89.61767
358.1697, 90.54604
358.6518, 91.51881
359.1339, 92.54900
359.6161, 93.61055
360.0982, 94.73370
360.5803, 96.03757
361.0624, 97.83321
361.5445, 99.58915
362.0266, 100.5472
362.5088, 100.8628
362.9909, 101.7674
363.4730, 104.0210
363.9551, 107.3298
364.4372, 110.7073
364.9193, 114.1321
365.4015, 117.6264
365.8836, 121.0341
366.3657, 124.5142
366.8478, 128.3691
367.3299, 132.6574
367.8120, 137.4605
368.2942, 143.0902
368.7763, 149.7276
369.2584, 156.2821
369.7405, 162.5564
370.2226, 168.6851
370.7047, 174.9390
371.1869, 181.3378
371.6690, 187.3212
372.1511, 192.4947
372.6332, 196.8026
373.1153, 200.1225
373.5974, 202.8672
374.0796, 204.3827
374.5617, 204.3169
375.0438, 202.7778
375.5259, 200.0138
376.0080, 196.1394
376.4901, 191.2273
376.9723, 185.4862
377.4544, 177.8261
377.9365, 170.7705
378.4186, 164.8639
378.9007, 159.5491
379.3828, 154.1458
379.8650, 148.4935
380.3471, 143.1136
380.8292, 138.7450
381.3113, 135.5858
381.7934, 132.9491
382.2755, 130.8971
382.7577, 129.2302
383.2398, 127.9132
383.7219, 126.8918
384.2040, 126.0891
384.6861, 125.4481
385.1682, 124.9700
385.6504, 124.7010
386.1325, 124.6112
386.6146, 124.7897
387.0967, 125.1430
387.5788, 125.8157
388.0609, 127.1374
388.5431, 129.2384
389.0252, 131.6504
389.5073, 133.3246
389.9894, 133.4669
390.4715, 134.5794
390.9536, 137.1397
391.4358, 140.2836
391.9179, 143.3650
392.4000, 146.4045
392.8821, 150.0029
393.3642, 154.9088
393.8463, 161.1803
394.3285, 167.0550
394.8106, 171.7178
395.2927, 177.0182
395.7748, 183.7809
396.2569, 191.5252
396.7390, 199.5484
397.2212, 207.5679
397.7033, 215.5184
398.1854, 223.1557
398.6675, 230.4136
399.1496, 237.6449
399.6317, 244.9538
400.1139, 252.3233
400.5960, 259.9408
401.0781, 267.8017
401.5602, 275.1723
402.0423, 281.5148
402.5244, 286.8028
403.0066, 290.8892
403.4887, 293.9556
403.9708, 295.3446
404.4529, 294.8053
404.9350, 292.4782
405.4171, 288.6029
405.8993, 283.0222
406.3814, 276.0931
406.8635, 268.2714
407.3456, 259.5303
407.8277, 249.9387
408.3098, 238.6442
408.7920, 226.8198
409.2741, 216.4927
409.7562, 208.0517
410.2383, 200.2911
410.7204, 192.3790
411.2025, 184.5148
411.6847, 177.1577
412.1668, 170.3502
412.6489, 164.1873
413.1310, 158.9783
413.6131, 154.6549
414.0952, 150.4855
414.5774, 146.2971
415.0595, 142.2379
415.5416, 138.4560
416.0237, 134.9572
416.5058, 131.6880
416.9879, 128.5962
417.4701, 125.7170
417.9522, 123.2252
418.4343, 121.5283
418.9164, 119.6631
419.3985, 117.1400
419.8806, 114.3523
420.3628, 111.8878
420.8449, 109.9269
421.3270, 108.2857
421.8091, 106.7042
422.2912, 105.2099
422.7733, 103.7227
423.2555, 102.0878
423.7376, 100.5952
424.2197, 99.39776
424.7018, 98.50701
425.1839, 97.90974
425.6660, 97.61792
426.1482, 97.59120
426.6303, 97.54949
427.1124, 97.48969
427.5945, 97.41746
428.0766, 97.29147
428.5587, 97.17528
429.0409, 97.18871
429.5230, 97.34913
430.0051, 97.46983
430.4872, 97.31457
430.9693, 96.89362
431.4514, 96.16326
431.9336, 94.96310
432.4157, 93.56493
432.8978, 91.93578
433.3799, 90.18290
433.8620, 88.54008
434.3441, 87.26138
434.8263, 86.11838
435.3084, 84.39098
435.7905, 81.87271
436.2726, 79.35562
436.7547, 77.00349
437.2368, 74.83035
437.7190, 72.88328
438.2011, 71.17287
438.6832, 69.64385
439.1653, 68.28165
439.6474, 67.07339
440.1295, 65.93086
440.6117, 64.83527
441.0938, 63.82343
441.5759, 62.93399
442.0580, 62.15293
442.5401, 61.46299
443.0222, 60.76358
443.5044, 60.22365
443.9865, 60.17525
444.4686, 60.54602
444.9507, 60.64970
445.4328, 60.05630
445.9149, 59.10958
446.3971, 58.64621
446.8792, 58.86905
447.3613, 58.90510
447.8434, 58.32928
448.3255, 57.52557
448.8076, 56.87040
449.2898, 56.44813
449.7719, 56.39063
450.2540, 56.89864
450.7361, 58.01541
451.2182, 58.78704
451.7003, 59.02684
452.1825, 59.18416
452.6646, 59.27783
453.1467, 59.43190
453.6288, 59.91845
454.1109, 60.85938
454.5930, 61.93151
455.0752, 62.46174
455.5573, 62.01472
456.0394, 61.86976
456.5215, 62.15433
457.0036, 62.57825
457.4857, 62.92696
457.9679, 63.24482
458.4500, 63.73990
458.9321, 64.57800
459.4142, 65.72575
459.8963, 67.02760
460.3784, 68.66592
460.8606, 70.12078
461.3427, 71.08748
461.8248, 71.93138
462.3069, 72.98425
462.7890, 74.32955
463.2711, 75.90947
463.7532, 77.61599
464.2354, 79.47225
464.7175, 81.70987
465.1996, 84.52017
465.6817, 87.46174
466.1638, 90.36614
466.6459, 93.16365
467.1281, 95.63718
467.6102, 97.40996
468.0923, 99.09232
468.5744, 101.5779
469.0565, 104.7613
469.5386, 107.3396
470.0208, 108.6760
470.5029, 109.3043
470.9850, 110.2591
471.4671, 111.7477
471.9492, 112.4998
472.4313, 112.1252
472.9135, 110.9013
473.3956, 108.6818
473.8777, 105.6534
474.3598, 103.0563
474.8419, 101.9284
475.3240, 102.0990
475.8062, 101.9033
476.2883, 100.8352
476.7704, 100.0745
477.2525, 99.91222
477.7346, 100.1636
478.2167, 100.5804
478.6989, 101.1058
479.1810, 101.8934
479.6631, 103.1977
480.1452, 105.1272
480.6273, 106.9801
481.1094, 108.5215
481.5916, 110.2201
482.0737, 112.4166
482.5558, 114.8426
483.0379, 117.0569
483.5200, 118.8611
484.0021, 120.3339
484.4843, 121.6311
484.9664, 122.7718
485.4485, 123.6703
485.9306, 124.2637
486.4127, 124.6279
486.8948, 124.9218
487.3770, 125.0833
487.8591, 124.7735
488.3412, 123.6926
488.8233, 122.0480
489.3054, 120.0326
489.7875, 117.5799
490.2697, 115.6104
490.7518, 115.0180
491.2339, 114.9833
491.7160, 113.7298
492.1981, 110.7240
492.6802, 108.0858
493.1624, 106.9031
493.6445, 106.5822
494.1266, 106.1783
494.6087, 105.5391
495.0908, 105.2413
495.5729, 105.8599
496.0551, 107.3873
496.5372, 108.7887
497.0193, 109.6075
497.5014, 110.8397
497.9835, 112.9946
498.4656, 115.6814
498.9478, 118.2869
499.4299, 120.6272
499.9120, 123.0962
500.3941, 126.2612
500.8762, 130.2858
501.3583, 134.4508
501.8405, 138.1367
502.3226, 142.5849
502.8047, 148.4884
503.2868, 155.4537
503.7689, 162.6796
504.2510, 169.8434
504.7332, 176.9925
505.2153, 184.2443
505.6974, 191.6387
506.1795, 199.0008
506.6616, 206.2751
507.1437, 213.4917
507.6259, 221.0606
508.1080, 228.7927
508.5901, 235.3763
509.0722, 240.3579
509.5543, 243.7481
510.0364, 245.5262
510.5186, 245.7002
511.0007, 244.6028
511.4828, 242.5532
511.9649, 239.1157
512.4470, 233.1866
512.9291, 224.2562
513.4113, 215.1277
513.8934, 206.4265
514.3755, 197.9728
514.8576, 189.7106
515.3397, 181.5679
515.8218, 173.4061
516.3040, 165.0089
516.7861, 156.4882
517.2682, 148.7837
517.7503, 142.2756
518.2324, 136.1674
518.7145, 130.0065
519.1967, 124.3925
519.6788, 120.1467
520.1609, 117.2344
520.6430, 114.6025
521.1251, 111.1099
521.6072, 106.7805
522.0894, 103.1852
522.5715, 100.7266
523.0536, 98.36963
523.5357, 95.66350
524.0178, 92.89112
524.4999, 90.45409
524.9821, 88.48373
525.4642, 86.48471
525.9463, 83.88486
526.4284, 80.84135
526.9105, 77.89682
527.3926, 75.02652
527.8748, 72.62389
528.3569, 71.31684
528.8390, 70.76317
529.3211, 69.74433
529.8032, 67.78131
530.2853, 65.74682
530.7675, 64.10303
531.2496, 62.73127
531.7317, 61.38409
532.2138, 59.98209
532.6959, 58.67379
533.1780, 57.67090
533.6602, 57.04140
534.1423, 56.28574
534.6244, 55.17644
535.1065, 54.20229
535.5886, 53.53920
536.0707, 53.13501
536.5529, 52.93286
537.0350, 52.90573
537.5171, 52.96218
537.9992, 53.03553
538.4813, 53.21504
538.9634, 52.92942
539.4456, 51.56275
539.9277, 50.38239
540.4098, 50.14004
540.8919, 50.48280
541.3740, 50.67012
541.8561, 50.35535
542.3383, 49.89538
542.8204, 49.85714
543.3025, 50.16151
543.7846, 49.97188
544.2667, 48.90212
544.7488, 47.63909
545.2310, 47.06831
545.7131, 47.09088
546.1952, 46.72351
546.6773, 45.18420
547.1594, 43.80457
547.6415, 43.70448
548.1237, 44.45329
548.6058, 44.87006
549.0879, 44.46619
549.5700, 43.79097
550.0521, 43.79097
550.5342, 44.83704
551.0164, 45.42255
551.4985, 45.34754
551.9806, 45.09045
552.4627, 44.78333
552.9448, 44.46231
553.4269, 44.13790
553.9091, 43.81184
554.3912, 43.51736
554.8733, 43.30441
555.3554, 43.16908
555.8375, 43.15637
556.3196, 43.48814
556.8018, 43.68563
557.2839, 43.32265
557.7660, 42.59098
558.2481, 42.04033
558.7302, 41.96206
559.2123, 42.03187
559.6945, 41.88886
560.1766, 41.59645
560.6587, 41.48418
561.1408, 41.70419
561.6229, 41.95431
562.1050, 41.79729
562.5872, 41.13323
563.0693, 40.82160
563.5514, 41.12598
564.0335, 41.53023
564.5156, 41.87285
564.9977, 42.10653
565.4799, 42.13441
565.9620, 41.92328
566.4441, 41.64495
566.9262, 41.57629
567.4083, 41.76282
567.8904, 41.97524
568.3726, 42.34846
568.8547, 42.60194
569.3368, 42.67768
569.8189, 42.55849
570.3010, 42.12750
570.7831, 41.25716
571.2653, 40.49097
571.7474, 40.66938
572.2295, 41.64302
572.7116, 42.12303
573.1937, 41.71970
573.6758, 41.25858
574.1580, 41.59398
574.6401, 42.47268
575.1222, 42.89188
575.6043, 42.31127
576.0864, 41.76073
576.5685, 41.89532
577.0507, 42.35283
577.5328, 42.54278
578.0149, 42.31731
578.4970, 41.83315
578.9791, 41.17462
579.4612, 40.30873
579.9434, 40.10384
580.4255, 41.59552
580.9076, 42.53199
581.3897, 42.06702
581.8718, 41.07045
582.3539, 40.48777
582.8361, 40.53033
583.3182, 40.78290
583.8003, 40.77617
584.2824, 40.58202
584.7645, 40.82435
585.2466, 41.73289
585.7288, 42.42518
586.2109, 42.31939
586.6930, 41.79919
587.1751, 41.37014
587.6572, 41.04402
588.1393, 40.90928
588.6215, 41.14997
589.1036, 41.53202
589.5857, 41.77891
590.0678, 41.85656
590.5499, 41.77692
591.0320, 41.52960
