##NAMES=Poldervaartite
##RRUFFID=R080080
##IDEAL CHEMISTRY=Ca_2_(SiO_3_OH)(OH)
##LOCALITY=Wessels mine, Hotazel, Kalahari manganese field, Cape Province, South Africa
##OWNER=RRUFF
##SOURCE=William W. Pinch
##DESCRIPTION=Colorless prismatic crystals
##STATUS=The identification of this mineral has been confirmed by single-crystal X-ray diffraction.
##URL=rruff.info/R080080
92.35352, 15.68255
92.83563, 15.20112
93.31775, 14.99642
93.79987, 15.14190
94.28198, 15.57398
94.76410, 16.12964
95.24622, 16.81097
95.72833, 17.56159
96.21045, 18.14655
96.69257, 18.54481
97.17468, 19.14251
97.65680, 20.35896
98.13892, 22.18713
98.62103, 24.08699
99.10315, 25.89410
99.58527, 27.63992
100.0674, 29.40101
100.5495, 31.11196
101.0316, 32.94947
101.5137, 35.12883
101.9958, 37.73711
102.4780, 40.42999
102.9601, 43.06832
103.4422, 45.61907
103.9243, 48.28773
104.4064, 50.96434
104.8885, 53.84124
105.3707, 57.20289
105.8528, 60.28525
106.3349, 64.90944
106.8170, 72.30325
107.2991, 86.62402
107.7813, 95.69610
108.2634, 95.94485
108.7455, 90.44816
109.2276, 89.51101
109.7097, 98.82413
110.1918, 108.5781
110.6740, 114.7212
111.1561, 113.0558
111.6382, 112.3778
112.1203, 113.0983
112.6024, 115.2368
113.0845, 118.8827
113.5667, 124.9118
114.0488, 131.9517
114.5309, 139.1513
115.0130, 145.4469
115.4951, 152.6516
115.9772, 161.8194
116.4594, 172.9721
116.9415, 183.7568
117.4236, 194.3299
117.9057, 203.7668
118.3878, 211.0486
118.8699, 217.4793
119.3521, 220.4985
119.8342, 217.7212
120.3163, 208.5930
120.7984, 198.2371
121.2805, 187.3123
121.7626, 177.4252
122.2448, 171.3226
122.7269, 173.8114
123.2090, 179.0067
123.6911, 180.5799
124.1732, 177.0574
124.6553, 173.2966
125.1375, 173.5451
125.6196, 177.2177
126.1017, 182.4616
126.5838, 190.5652
127.0659, 199.1466
127.5480, 203.3095
128.0302, 201.0973
128.5123, 197.0049
128.9944, 198.5756
129.4765, 205.0903
129.9586, 209.8291
130.4407, 206.2117
130.9229, 196.2393
131.4050, 188.0224
131.8871, 183.4826
132.3692, 181.4526
132.8513, 179.5535
133.3334, 177.4760
133.8156, 175.1386
134.2977, 173.0428
134.7798, 171.7813
135.2619, 171.6757
135.7440, 173.1678
136.2261, 175.8242
136.7083, 177.5720
137.1904, 178.1549
137.6725, 178.6950
138.1546, 180.5710
138.6367, 184.0977
139.1188, 187.2293
139.6010, 189.4204
140.0831, 190.6682
140.5652, 191.7542
141.0473, 192.2986
141.5294, 193.1959
142.0115, 195.7350
142.4937, 200.5461
142.9758, 205.5389
143.4579, 210.3499
143.9400, 215.1530
144.4221, 218.8573
144.9042, 221.5371
145.3864, 223.1127
145.8685, 223.4185
146.3506, 222.5812
146.8327, 220.3422
147.3148, 216.2981
147.7969, 209.0098
148.2791, 203.2340
148.7612, 199.6523
149.2433, 197.5111
149.7254, 195.0235
150.2075, 191.3022
150.6896, 188.0249
151.1718, 185.8801
151.6539, 186.1332
152.1360, 185.6593
152.6181, 184.2285
153.1002, 182.0123
153.5823, 179.5228
154.0645, 176.2911
154.5466, 173.1324
155.0287, 170.4256
155.5108, 168.3045
155.9929, 166.4592
156.4750, 164.9358
156.9572, 163.6786
157.4393, 162.5069
157.9214, 161.1031
158.4035, 159.9227
158.8856, 159.2440
159.3677, 159.2294
159.8499, 159.6141
160.3320, 160.5181
160.8141, 161.8510
161.2962, 163.0815
161.7783, 163.8063
162.2604, 164.4422
162.7426, 165.3331
163.2247, 166.7777
163.7068, 168.3257
164.1889, 169.8481
164.6710, 171.3236
165.1531, 172.6734
165.6353, 173.6361
166.1174, 174.5235
166.5995, 175.6711
167.0816, 177.8423
167.5637, 179.8344
168.0458, 180.5808
168.5280, 180.0696
169.0101, 179.7803
169.4922, 181.2087
169.9743, 183.3365
170.4564, 184.7323
170.9385, 184.4228
171.4207, 183.3676
171.9028, 182.4198
172.3849, 181.6303
172.8670, 180.5952
173.3491, 178.9346
173.8312, 176.8048
174.3134, 174.4931
174.7955, 171.9958
175.2776, 169.4695
175.7597, 166.9727
176.2418, 164.4376
176.7239, 162.3860
177.2061, 161.5611
177.6882, 161.6055
178.1703, 161.5614
178.6524, 160.5042
179.1345, 159.1702
179.6166, 158.9004
180.0988, 159.8665
180.5809, 161.3528
181.0630, 162.9855
181.5451, 164.6035
182.0272, 165.4896
182.5093, 164.8577
182.9915, 163.2469
183.4736, 162.0275
183.9557, 161.3629
184.4378, 160.7932
184.9199, 159.7079
185.4020, 158.1594
185.8842, 156.3695
186.3663, 154.1602
186.8484, 151.7524
187.3305, 150.0679
187.8126, 149.2212
188.2947, 148.9412
188.7769, 148.9032
189.2590, 149.0993
189.7411, 149.3593
190.2232, 149.5410
190.7053, 149.6813
191.1874, 149.9674
191.6696, 150.3525
192.1517, 151.0130
192.6338, 152.4008
193.1159, 154.5378
193.5980, 156.8057
194.0801, 158.8846
194.5623, 160.7724
195.0444, 162.5119
195.5265, 164.0022
196.0086, 165.4699
196.4907, 167.4549
196.9728, 170.0048
197.4550, 172.6613
197.9371, 175.2023
198.4192, 177.6284
198.9013, 179.8576
199.3834, 181.8136
199.8655, 183.6302
200.3477, 185.8190
200.8298, 188.5320
201.3119, 190.8972
201.7940, 192.2669
202.2761, 192.5443
202.7582, 192.9491
203.2404, 193.6353
203.7225, 194.4815
204.2046, 195.0580
204.6867, 195.2264
205.1688, 195.6069
205.6509, 196.6701
206.1331, 198.5396
206.6152, 200.2954
207.0973, 201.8032
207.5794, 203.1781
208.0615, 204.7576
208.5436, 206.5418
209.0258, 208.5388
209.5079, 210.8167
209.9900, 213.4650
210.4721, 215.8927
210.9542, 217.9340
211.4363, 219.7599
211.9185, 222.1778
212.4006, 225.7591
212.8827, 228.7058
213.3648, 229.6122
213.8469, 227.8142
214.3290, 226.6232
214.8112, 226.9207
215.2933, 227.8645
215.7754, 226.0941
216.2575, 220.3353
216.7396, 214.2478
217.2217, 210.0030
217.7038, 207.9910
218.1860, 206.6710
218.6681, 206.0777
219.1502, 206.0900
219.6323, 206.2218
220.1144, 206.2168
220.5965, 206.7710
221.0787, 208.3835
221.5608, 211.4570
222.0429, 214.4572
222.5250, 217.1336
223.0071, 219.6900
223.4892, 222.8156
223.9714, 226.8411
224.4535, 230.9619
224.9356, 234.7350
225.4177, 237.8113
225.8998, 241.3744
226.3819, 245.7024
226.8641, 250.5458
227.3462, 254.8515
227.8283, 258.2762
228.3104, 261.6763
228.7925, 265.2604
229.2746, 268.3928
229.7568, 273.3490
230.2389, 280.7289
230.7210, 289.9400
231.2031, 298.8098
231.6852, 306.7445
232.1673, 315.1917
232.6495, 324.8534
233.1316, 336.2131
233.6137, 347.7465
234.0958, 359.5526
234.5779, 371.3569
235.0600, 382.4730
235.5422, 394.3462
236.0243, 403.6141
236.5064, 409.0410
236.9885, 411.2917
237.4706, 408.1221
237.9527, 398.6617
238.4349, 384.0547
238.9170, 366.8460
239.3991, 345.5901
239.8812, 323.8856
240.3633, 303.0172
240.8454, 282.6381
241.3276, 263.9417
241.8097, 246.9579
242.2918, 231.8927
242.7739, 219.5439
243.2560, 210.8930
243.7381, 203.4417
244.2203, 196.2666
244.7024, 189.1707
245.1845, 182.9124
245.6666, 177.5478
246.1487, 173.0069
246.6308, 169.0488
247.1130, 165.6392
247.5951, 162.8646
248.0772, 160.8945
248.5593, 159.9854
249.0414, 158.8711
249.5235, 157.3404
250.0057, 155.7381
250.4878, 154.6304
250.9699, 154.2187
251.4520, 153.9411
251.9341, 153.6373
252.4162, 153.2957
252.8984, 152.9632
253.3805, 152.5836
253.8626, 152.2545
254.3447, 152.1014
254.8268, 152.0568
255.3089, 152.3319
255.7911, 153.1243
256.2732, 154.5602
256.7553, 155.3784
257.2374, 155.0627
257.7195, 154.6425
258.2017, 155.5307
258.6838, 158.4598
259.1659, 161.0269
259.6480, 162.4904
260.1301, 162.7751
260.6122, 163.7141
261.0944, 165.6038
261.5765, 167.7903
262.0586, 169.5270
262.5407, 170.5491
263.0228, 171.8471
263.5049, 173.6532
263.9871, 175.9668
264.4692, 178.3751
264.9513, 181.0019
265.4334, 183.5612
265.9155, 185.8699
266.3976, 187.9141
266.8798, 189.6032
267.3619, 190.8323
267.8440, 191.6619
268.3261, 192.4546
268.8082, 193.1418
269.2903, 193.9300
269.7725, 195.1126
270.2546, 196.8649
270.7367, 198.0888
271.2188, 198.4261
271.7009, 198.1432
272.1830, 198.4811
272.6652, 199.6783
273.1473, 200.8326
273.6294, 201.2345
274.1115, 200.7225
274.5936, 200.4742
275.0757, 200.7321
275.5579, 201.2358
276.0400, 201.2674
276.5221, 200.8126
277.0042, 199.9369
277.4863, 198.4602
277.9684, 196.3011
278.4506, 194.7209
278.9327, 193.9641
279.4148, 193.6274
279.8969, 192.9272
280.3790, 191.8614
280.8611, 190.4619
281.3433, 188.7340
281.8254, 186.6702
282.3075, 184.2551
282.7896, 181.3694
283.2717, 178.3712
283.7538, 175.9206
284.2360, 174.0432
284.7181, 172.0757
285.2002, 169.5520
285.6823, 166.5782
286.1644, 164.2400
286.6465, 162.6973
287.1287, 161.2863
287.6108, 159.0700
288.0929, 156.0922
288.5750, 153.1674
289.0571, 150.5327
289.5392, 148.1793
290.0214, 146.2218
290.5035, 144.7085
290.9856, 143.2567
291.4677, 141.3759
291.9498, 139.1476
292.4319, 137.1465
292.9141, 135.6023
293.3962, 134.3483
293.8783, 132.7959
294.3604, 130.9424
294.8425, 129.5791
295.3246, 129.7901
295.8068, 131.1171
296.2889, 131.9772
296.7710, 131.8136
297.2531, 131.2308
297.7352, 131.1980
298.2173, 131.6769
298.6995, 132.3530
299.1816, 132.8538
299.6637, 133.3973
300.1458, 134.4776
300.6279, 136.2978
301.1100, 138.4437
301.5922, 140.3542
302.0743, 142.1107
302.5564, 144.0395
303.0385, 146.5087
303.5206, 149.2174
304.0027, 151.6334
304.4849, 153.5043
304.9670, 155.7426
305.4491, 159.6101
305.9312, 164.5335
306.4133, 169.1394
306.8954, 172.4183
307.3776, 175.2305
307.8597, 178.2060
308.3418, 181.3831
308.8239, 185.1589
309.3060, 189.9715
309.7881, 195.6016
310.2703, 201.5387
310.7524, 208.0356
311.2345, 214.5076
311.7166, 220.2987
312.1987, 225.4338
312.6808, 230.7440
313.1630, 236.8067
313.6451, 243.3011
314.1272, 249.9383
314.6093, 256.7597
315.0914, 263.4798
315.5735, 269.7572
316.0557, 275.6828
316.5378, 281.7488
317.0199, 287.7492
317.5020, 294.1807
317.9841, 301.5855
318.4662, 310.6438
318.9484, 319.6212
319.4305, 327.6804
319.9126, 335.1945
320.3947, 343.1436
320.8768, 351.7613
321.3589, 360.9248
321.8411, 370.7409
322.3232, 381.5193
322.8053, 391.9582
323.2874, 401.7133
323.7695, 410.9898
324.2516, 420.1120
324.7338, 429.9482
325.2159, 438.8821
325.6980, 446.4664
326.1801, 452.6875
326.6622, 457.5994
327.1443, 462.1841
327.6265, 465.0985
328.1086, 464.9696
328.5907, 460.8080
329.0728, 454.7177
329.5549, 446.6024
330.0370, 436.4064
330.5192, 425.8653
331.0013, 414.6280
331.4834, 403.2707
331.9655, 392.0361
332.4476, 380.6740
332.9297, 369.7701
333.4119, 359.1107
333.8940, 348.9453
334.3761, 340.6984
334.8582, 335.3350
335.3403, 330.6225
335.8224, 325.4538
336.3046, 319.5290
336.7867, 314.0402
337.2688, 309.1879
337.7509, 304.6092
338.2330, 299.3063
338.7151, 292.9883
339.1973, 286.9815
339.6794, 281.8304
340.1615, 277.6222
340.6436, 273.2869
341.1257, 268.7621
341.6078, 264.3551
342.0899, 260.5586
342.5721, 257.4908
343.0542, 254.3379
343.5363, 250.7988
344.0184, 247.0334
344.5005, 243.5300
344.9826, 240.2796
345.4648, 237.5719
345.9469, 235.7131
346.4290, 234.6597
346.9111, 234.2733
347.3932, 234.5827
347.8753, 235.4386
348.3575, 236.4097
348.8396, 237.5337
349.3217, 239.3886
349.8038, 242.2114
350.2859, 246.0452
350.7680, 251.0616
351.2502, 257.3399
351.7323, 264.5551
352.2144, 272.3297
352.6965, 280.7680
353.1786, 289.9610
353.6607, 299.9501
354.1429, 310.7380
354.6250, 322.2206
355.1071, 334.3846
355.5892, 347.6457
356.0713, 362.9922
356.5534, 379.5088
357.0356, 395.8388
357.5177, 411.1660
357.9998, 426.4926
358.4819, 442.2687
358.9640, 458.4702
359.4461, 474.5821
359.9283, 489.8461
360.4104, 505.1651
360.8925, 521.2230
361.3746, 537.9081
361.8567, 555.7986
362.3388, 575.2193
362.8210, 595.9326
363.3031, 617.8434
363.7852, 640.6121
364.2673, 664.7828
364.7494, 690.8196
365.2315, 719.1594
365.7137, 748.0231
366.1958, 775.7091
366.6779, 803.9033
367.1600, 834.8427
367.6421, 871.6360
368.1242, 908.2159
368.6064, 944.0105
369.0885, 979.1816
369.5706, 1011.519
370.0527, 1042.961
370.5348, 1070.293
371.0169, 1091.944
371.4991, 1108.635
371.9812, 1118.211
372.4633, 1121.047
372.9454, 1116.628
373.4275, 1103.130
373.9096, 1079.336
374.3918, 1048.250
374.8739, 1011.237
375.3560, 967.1391
375.8381, 920.0692
376.3202, 869.0893
376.8023, 817.0431
377.2845, 768.0933
377.7666, 722.7061
378.2487, 679.8445
378.7308, 639.8986
379.2129, 602.4864
379.6950, 568.8536
380.1772, 538.7537
380.6593, 512.2232
381.1414, 489.4169
381.6235, 470.3101
382.1056, 452.7681
382.5877, 436.5047
383.0699, 421.6472
383.5520, 408.6679
384.0341, 397.3925
384.5162, 387.2442
384.9983, 377.7947
385.4804, 369.1112
385.9626, 361.1391
386.4447, 353.8014
386.9268, 347.5583
387.4089, 343.1943
387.8910, 340.2697
388.3731, 337.9023
388.8553, 335.2905
389.3374, 333.2920
389.8195, 332.9279
390.3016, 334.1483
390.7837, 335.9893
391.2658, 337.6908
391.7480, 339.7656
392.2301, 342.7495
392.7122, 346.8651
393.1943, 351.8050
393.6764, 357.5824
394.1585, 364.1009
394.6407, 370.9547
395.1228, 377.9931
395.6049, 385.3813
396.0870, 393.2423
396.5691, 401.4969
397.0512, 410.3973
397.5334, 420.6024
398.0155, 431.3268
398.4976, 441.4487
398.9797, 451.6497
399.4618, 460.4805
399.9439, 467.7618
400.4261, 473.4901
400.9082, 477.5971
401.3903, 480.1881
401.8724, 481.0435
402.3545, 480.0157
402.8366, 477.0988
403.3188, 472.3768
403.8009, 466.0092
404.2830, 457.7748
404.7651, 446.6797
405.2472, 432.0001
405.7293, 416.8525
406.2115, 402.4622
406.6936, 388.9801
407.1757, 375.3013
407.6578, 361.3664
408.1399, 347.3060
408.6220, 332.4968
409.1042, 316.9921
409.5863, 303.3163
410.0684, 292.3754
410.5505, 283.5245
411.0326, 274.6777
411.5147, 265.8261
411.9969, 257.7972
412.4790, 251.2957
412.9611, 245.9456
413.4432, 241.0214
413.9253, 236.4261
414.4074, 232.0439
414.8896, 227.7317
415.3717, 223.5166
415.8538, 219.4908
416.3359, 215.6015
416.8180, 212.0141
417.3001, 209.0628
417.7823, 206.6946
418.2644, 204.4087
418.7465, 201.4499
419.2286, 198.5791
419.7107, 196.6000
420.1928, 196.2766
420.6750, 196.0782
421.1571, 195.4165
421.6392, 194.4316
422.1213, 193.5048
422.6034, 192.5150
423.0855, 191.7958
423.5677, 191.5722
424.0498, 192.0636
424.5319, 192.3328
425.0140, 191.9387
425.4961, 191.4727
425.9782, 191.5508
426.4604, 192.7088
426.9425, 193.6456
427.4246, 194.2498
427.9067, 194.5104
428.3888, 194.2713
428.8709, 193.3787
429.3531, 192.2640
429.8352, 191.2747
430.3173, 190.6185
430.7994, 188.9645
431.2815, 186.0104
431.7636, 182.4804
432.2458, 179.7057
432.7279, 177.7476
433.2100, 175.4696
433.6921, 172.3759
434.1742, 168.6521
434.6563, 165.0571
435.1385, 161.5493
435.6206, 158.0263
436.1027, 154.0947
436.5848, 150.0601
437.0669, 146.8586
437.5490, 144.8600
438.0312, 143.2439
438.5133, 140.9160
438.9954, 138.1650
439.4775, 135.7894
439.9596, 134.3862
440.4417, 133.4258
440.9239, 132.4981
441.4060, 131.5796
441.8881, 130.6414
442.3702, 129.5732
442.8523, 128.5323
443.3344, 127.6602
443.8166, 126.9862
444.2987, 126.4952
444.7808, 126.3780
445.2629, 126.4642
445.7450, 126.2550
446.2271, 125.1231
446.7093, 124.1398
447.1914, 123.8132
447.6735, 124.4787
448.1556, 124.7280
448.6377, 124.2481
449.1198, 123.5603
449.6020, 123.1637
450.0841, 123.0537
450.5662, 123.2813
451.0483, 123.9828
451.5304, 125.0275
452.0125, 125.8279
452.4947, 126.3817
452.9768, 126.7200
453.4589, 126.6585
453.9410, 126.1752
454.4231, 126.5258
454.9052, 127.9258
455.3874, 129.5506
455.8695, 130.2411
456.3516, 130.1317
456.8337, 130.1917
457.3158, 130.7618
457.7979, 131.6638
458.2801, 132.6557
458.7622, 133.7192
459.2443, 134.7595
459.7264, 135.4361
460.2085, 136.1512
460.6906, 137.5355
461.1728, 139.8081
461.6549, 142.1308
462.1370, 143.6437
462.6191, 144.8500
463.1012, 146.4529
463.5833, 149.1087
464.0655, 151.8517
464.5476, 154.2281
465.0297, 156.2573
465.5118, 158.3000
465.9939, 160.1207
466.4760, 162.1753
466.9582, 164.7668
467.4403, 168.6288
467.9224, 171.7832
468.4045, 173.8084
468.8866, 175.2620
469.3687, 177.0006
469.8509, 179.3297
470.3330, 181.3217
470.8151, 182.6494
471.2972, 183.3979
471.7793, 184.4484
472.2614, 185.8624
472.7436, 187.4447
473.2257, 189.1112
473.7078, 190.8717
474.1899, 192.5625
474.6720, 194.1867
475.1541, 195.7259
475.6363, 196.9505
476.1184, 197.9637
476.6005, 199.4459
477.0826, 201.9132
477.5647, 204.8632
478.0468, 207.4021
478.5290, 209.5973
479.0111, 212.0607
479.4932, 215.8073
479.9753, 219.8140
480.4574, 222.7687
480.9395, 224.1906
481.4217, 225.3918
481.9038, 227.3195
482.3859, 229.4828
482.8680, 231.1329
483.3501, 231.9912
483.8322, 232.3234
484.3144, 232.0172
484.7965, 231.1283
485.2786, 230.3655
485.7607, 229.7929
486.2428, 229.4083
486.7249, 229.1656
487.2071, 228.8169
487.6892, 229.1564
488.1713, 230.3706
488.6534, 232.1442
489.1355, 233.9543
489.6176, 235.5582
490.0998, 237.9908
490.5819, 241.6278
491.0640, 246.3302
491.5461, 251.1966
492.0282, 256.1941
492.5103, 261.8024
492.9925, 268.3862
493.4746, 275.9232
493.9567, 283.7950
494.4388, 292.0981
494.9209, 300.5626
495.4030, 308.6997
495.8852, 316.7963
496.3673, 325.8398
496.8494, 336.4528
497.3315, 347.8073
497.8136, 359.0702
498.2957, 370.4231
498.7779, 382.1539
499.2600, 394.5163
499.7421, 407.4009
500.2242, 420.7422
500.7063, 434.6850
501.1884, 449.0272
501.6706, 463.5442
502.1527, 478.4306
502.6348, 493.6456
503.1169, 509.0727
503.5990, 524.9993
504.0811, 541.8818
504.5633, 559.1959
505.0454, 575.5534
505.5275, 591.2164
506.0096, 605.0058
506.4917, 616.4643
506.9738, 625.6923
507.4560, 632.6376
507.9381, 637.4949
508.4202, 639.5478
508.9023, 638.2794
509.3844, 633.6638
509.8665, 625.0790
510.3487, 612.1262
510.8308, 595.6891
511.3129, 576.4849
511.7950, 554.8318
512.2772, 532.2043
512.7593, 508.4112
513.2414, 484.6286
513.7235, 461.8419
514.2056, 440.0751
514.6877, 419.1944
515.1699, 398.8018
515.6520, 379.4120
516.1341, 361.4987
516.6162, 345.1543
517.0983, 330.2462
517.5804, 316.9384
518.0626, 304.8712
518.5447, 293.4567
519.0268, 282.7204
519.5089, 272.4755
519.9910, 262.6481
520.4731, 253.2288
520.9553, 244.7085
521.4374, 237.3517
521.9195, 230.6374
522.4016, 224.3645
522.8837, 218.6759
523.3658, 212.9907
523.8480, 207.3042
524.3301, 201.6051
524.8122, 195.8621
525.2943, 190.1161
525.7764, 184.5948
526.2585, 179.2623
526.7407, 174.3113
527.2228, 170.1233
527.7049, 166.5948
528.1870, 163.2481
528.6691, 159.6665
529.1512, 156.1230
529.6334, 152.8203
530.1155, 149.7330
530.5976, 147.2296
531.0797, 145.9871
531.5618, 145.1787
532.0439, 143.9939
532.5261, 141.9197
533.0082, 139.8779
533.4903, 137.9996
533.9724, 136.3039
534.4545, 134.7859
534.9366, 133.4633
535.4188, 132.3170
535.9009, 131.3989
536.3830, 130.7042
536.8651, 129.9809
537.3472, 129.2386
537.8293, 128.4583
538.3115, 127.6231
538.7936, 126.7322
539.2757, 125.8769
539.7578, 125.0856
540.2399, 124.2828
540.7220, 123.2746
541.2042, 122.1266
541.6863, 121.1726
542.1684, 120.6555
542.6505, 120.2002
543.1326, 119.1673
543.6147, 117.6963
544.0969, 116.2913
544.5790, 115.2413
545.0611, 114.4147
545.5432, 113.6421
546.0253, 112.8969
546.5074, 112.5392
546.9896, 113.3282
547.4717, 114.2309
547.9538, 114.3984
548.4359, 112.8565
548.9180, 111.7131
549.4001, 111.3691
549.8823, 111.4414
550.3644, 111.2750
550.8465, 110.6950
551.3286, 110.2096
551.8107, 109.9836
552.2928, 109.9695
552.7750, 109.7918
553.2571, 109.4089
553.7392, 109.0645
554.2213, 108.9962
554.7034, 109.1335
555.1855, 109.0319
555.6677, 108.6483
556.1498, 108.1861
556.6319, 107.7388
557.1140, 107.3863
557.5961, 107.3552
558.0782, 107.9589
558.5604, 108.4804
559.0425, 108.1496
559.5246, 107.2940
560.0067, 106.6427
560.4888, 106.7016
560.9709, 106.8481
561.4531, 106.8236
561.9352, 106.6162
562.4173, 106.3476
562.8994, 105.9628
563.3815, 105.5793
563.8636, 105.2391
564.3458, 104.9054
564.8279, 104.7328
565.3100, 104.7644
565.7921, 104.9015
566.2742, 104.9988
566.7563, 105.0408
567.2385, 105.2302
567.7206, 105.6821
568.2027, 106.2151
568.6848, 106.3393
569.1669, 106.1146
569.6490, 105.9755
570.1312, 106.3511
570.6133, 106.8627
571.0954, 106.8909
571.5775, 106.4520
572.0596, 106.0023
572.5417, 105.7173
573.0239, 105.6152
573.5060, 105.7794
573.9881, 106.3979
574.4702, 106.8026
574.9523, 106.3907
575.4344, 105.8073
575.9166, 105.8844
576.3987, 107.8251
576.8808, 108.8694
577.3629, 108.2825
577.8450, 106.6402
578.3271, 105.8788
578.8093, 106.2402
579.2914, 106.7774
579.7735, 107.2520
580.2556, 107.6044
580.7377, 107.1591
581.2198, 105.8234
581.7020, 104.7106
582.1841, 105.0170
582.6662, 106.2184
583.1483, 107.1285
583.6304, 107.5917
584.1125, 107.6734
584.5947, 107.0748
585.0768, 106.2236
585.5589, 105.7515
586.0410, 106.2273
586.5231, 106.7307
587.0052, 106.7482
587.4873, 106.4957
587.9694, 106.5486
588.4515, 107.6927
588.9337, 108.4500
589.4158, 108.1819
