##NAMES=Pollucite
##RRUFFID=R050344
##IDEAL CHEMISTRY=Cs(Si_2_Al)O_6_&#183;nH_2_O
##LOCALITY=Konar Province, Afghanistan
##OWNER=RRUFF
##SOURCE=George Rossman
##DESCRIPTION=Colorless fragment
##STATUS=The identification of this mineral has been confirmed by X-ray diffraction and chemical analysis
##URL=rruff.info/R050344
##MEASURED CHEMISTRY=(Cs_0.78_Na_0.21_Rb_0.01_)_Σ=1_(Si_2.13_Al_0.87_)_Σ=3_O_6_·H_2_O
119.3521, 153.2998
119.8342, 158.6319
120.3163, 165.0341
120.7984, 171.1184
121.2805, 176.1705
121.7626, 180.3241
122.2448, 183.8079
122.7269, 186.0186
123.2090, 187.9545
123.6911, 190.8673
124.1732, 195.1861
124.6553, 199.2354
125.1375, 201.1314
125.6196, 201.3799
126.1017, 201.5818
126.5838, 202.0968
127.0659, 203.2937
127.5480, 205.9924
128.0302, 210.6362
128.5123, 216.1501
128.9944, 221.1228
129.4765, 225.6066
129.9586, 230.0889
130.4407, 234.8181
130.9229, 239.8097
131.4050, 245.1923
131.8871, 250.9396
132.3692, 256.9937
132.8513, 263.3526
133.3334, 269.6520
133.8156, 274.3213
134.2977, 276.5937
134.7798, 277.4983
135.2619, 278.9640
135.7440, 281.5803
136.2261, 285.0585
136.7083, 288.2810
137.1904, 291.2248
137.6725, 294.0684
138.1546, 297.2767
138.6367, 301.1148
139.1188, 303.9987
139.6010, 305.4829
140.0831, 305.5741
140.5652, 305.1777
141.0473, 304.1190
141.5294, 302.8149
142.0115, 301.9879
142.4937, 302.1942
142.9758, 301.5441
143.4579, 299.2664
143.9400, 294.9432
144.4221, 291.0419
144.9042, 287.5433
145.3864, 284.4364
145.8685, 281.8708
146.3506, 280.4906
146.8327, 278.7312
147.3148, 275.9207
147.7969, 271.2116
148.2791, 267.4039
148.7612, 264.7917
149.2433, 263.0482
149.7254, 261.4016
150.2075, 260.2346
150.6896, 258.8519
151.1718, 256.9851
151.6539, 253.9718
152.1360, 251.4479
152.6181, 249.6840
153.1002, 248.4643
153.5823, 247.1527
154.0645, 245.8722
154.5466, 244.3538
155.0287, 242.4657
155.5108, 239.6003
155.9929, 237.0363
156.4750, 234.8995
156.9572, 233.1881
157.4393, 231.9724
157.9214, 231.9577
158.4035, 232.0082
158.8856, 231.4172
159.3677, 228.9212
159.8499, 226.8752
160.3320, 226.2558
160.8141, 226.8273
161.2962, 227.1843
161.7783, 226.3544
162.2604, 225.3244
162.7426, 224.9080
163.2247, 226.3149
163.7068, 227.5380
164.1889, 227.4155
164.6710, 226.0457
165.1531, 224.9014
165.6353, 224.9090
166.1174, 225.4474
166.5995, 225.8480
167.0816, 225.7761
167.5637, 225.5578
168.0458, 225.3776
168.5280, 225.2395
169.0101, 225.1068
169.4922, 224.8889
169.9743, 224.6739
170.4564, 224.5873
170.9385, 224.8204
171.4207, 225.1198
171.9028, 225.2657
172.3849, 225.2468
172.8670, 225.1499
173.3491, 224.8277
173.8312, 224.4794
174.3134, 224.4883
174.7955, 225.5473
175.2776, 226.8303
175.7597, 227.1044
176.2418, 226.1771
176.7239, 225.3864
177.2061, 226.2932
177.6882, 228.3815
178.1703, 230.2267
178.6524, 231.0484
179.1345, 231.2289
179.6166, 231.3253
180.0988, 231.3431
180.5809, 231.4212
181.0630, 231.7419
181.5451, 232.2694
182.0272, 232.8484
182.5093, 233.4408
182.9915, 234.0295
183.4736, 234.5527
183.9557, 235.0001
184.4378, 235.4177
184.9199, 235.8455
185.4020, 236.2833
185.8842, 236.7964
186.3663, 237.3625
186.8484, 238.0206
187.3305, 238.9352
187.8126, 240.1821
188.2947, 241.5489
188.7769, 242.7301
189.2590, 243.7308
189.7411, 244.6334
190.2232, 245.3190
190.7053, 245.8761
191.1874, 246.9639
191.6696, 248.7817
192.1517, 250.8965
192.6338, 252.5638
193.1159, 253.7791
193.5980, 254.7213
194.0801, 255.2311
194.5623, 255.3728
195.0444, 256.2793
195.5265, 258.2922
196.0086, 260.7617
196.4907, 262.1819
196.9728, 262.4308
197.4550, 262.6453
197.9371, 263.5374
198.4192, 265.1159
198.9013, 266.7720
199.3834, 268.5269
199.8655, 270.2477
200.3477, 271.7787
200.8298, 273.2183
201.3119, 273.9820
201.7940, 273.3923
202.2761, 271.2751
202.7582, 269.7874
203.2404, 269.1515
203.7225, 269.2349
204.2046, 269.8914
204.6867, 271.3730
205.1688, 272.5768
205.6509, 272.6325
206.1331, 271.3188
206.6152, 270.4093
207.0973, 270.2973
207.5794, 270.5613
208.0615, 269.7480
208.5436, 267.4857
209.0258, 265.1191
209.5079, 263.6452
209.9900, 263.3843
210.4721, 262.5040
210.9542, 260.7239
211.4363, 258.2689
211.9185, 255.8214
212.4006, 253.2663
212.8827, 250.9441
213.3648, 249.1058
213.8469, 247.7619
214.3290, 246.8356
214.8112, 246.6083
215.2933, 246.7322
215.7754, 245.8963
216.2575, 243.8181
216.7396, 241.3013
217.2217, 238.7953
217.7038, 236.3105
218.1860, 233.8120
218.6681, 231.2606
219.1502, 228.7147
219.6323, 226.4376
220.1144, 224.5368
220.5965, 222.7585
221.0787, 220.9620
221.5608, 219.0778
222.0429, 217.4054
222.5250, 216.0976
223.0071, 215.0065
223.4892, 213.5864
223.9714, 211.5555
224.4535, 209.6250
224.9356, 208.2437
225.4177, 207.8442
225.8998, 206.9578
226.3819, 205.4047
226.8641, 203.3244
227.3462, 201.1776
227.8283, 198.7073
228.3104, 196.5600
228.7925, 195.1685
229.2746, 194.9612
229.7568, 194.5001
230.2389, 193.6951
230.7210, 192.6042
231.2031, 191.4245
231.6852, 190.1135
232.1673, 188.7774
232.6495, 187.4727
233.1316, 186.1957
233.6137, 184.9650
234.0958, 183.8309
234.5779, 182.7478
235.0600, 181.6194
235.5422, 180.4951
236.0243, 179.2363
236.5064, 177.7253
236.9885, 175.6811
237.4706, 174.0158
237.9527, 172.8370
238.4349, 172.0290
238.9170, 171.3462
239.3991, 170.8891
239.8812, 170.4059
240.3633, 169.7792
240.8454, 168.9321
241.3276, 168.1338
241.8097, 167.4113
242.2918, 166.7383
242.7739, 166.0327
243.2560, 165.1173
243.7381, 164.4489
244.2203, 164.3389
244.7024, 165.2902
245.1845, 165.3187
245.6666, 163.9182
246.1487, 161.8390
246.6308, 160.5527
247.1130, 160.5854
247.5951, 160.5451
248.0772, 159.8877
248.5593, 158.3656
249.0414, 157.1205
249.5235, 156.2178
250.0057, 155.5509
250.4878, 154.8708
250.9699, 153.8847
251.4520, 153.4258
251.9341, 154.0187
252.4162, 156.1089
252.8984, 156.9738
253.3805, 156.0282
253.8626, 154.3007
254.3447, 153.4137
254.8268, 153.9357
255.3089, 154.0965
255.7911, 153.2161
256.2732, 151.0894
256.7553, 149.6526
257.2374, 149.0955
257.7195, 149.0418
258.2017, 149.0748
258.6838, 149.2827
259.1659, 149.3697
259.6480, 149.1934
260.1301, 148.7359
260.6122, 148.5883
261.0944, 148.9574
261.5765, 149.3806
262.0586, 149.3440
262.5407, 148.7121
263.0228, 147.9818
263.5049, 147.1507
263.9871, 146.2355
264.4692, 145.8673
264.9513, 146.2144
265.4334, 146.8333
265.9155, 147.3451
266.3976, 147.7209
266.8798, 148.0709
267.3619, 148.4770
267.8440, 148.8947
268.3261, 148.8771
268.8082, 148.2745
269.2903, 147.5526
269.7725, 147.0872
270.2546, 146.9288
270.7367, 146.8185
271.2188, 146.7345
271.7009, 146.6699
272.1830, 146.5352
272.6652, 146.2317
273.1473, 146.1305
273.6294, 146.5159
274.1115, 147.4452
274.5936, 148.5556
275.0757, 149.8844
275.5579, 151.3285
276.0400, 152.5263
276.5221, 153.4240
277.0042, 154.2868
277.4863, 155.1950
277.9684, 156.1276
278.4506, 157.3889
278.9327, 159.0150
279.4148, 160.9594
279.8969, 163.2498
280.3790, 165.9565
280.8611, 168.5220
281.3433, 170.5045
281.8254, 171.9211
282.3075, 173.7489
282.7896, 176.0631
283.2717, 178.7190
283.7538, 181.4546
284.2360, 184.2614
284.7181, 187.3855
285.2002, 191.0948
285.6823, 195.3069
286.1644, 199.2342
286.6465, 202.7758
287.1287, 206.2589
287.6108, 209.8385
288.0929, 213.5487
288.5750, 218.0594
289.0571, 223.7026
289.5392, 230.3722
290.0214, 237.7620
290.5035, 245.9272
290.9856, 254.0930
291.4677, 261.1525
291.9498, 267.3539
292.4319, 274.0152
292.9141, 281.8063
293.3962, 290.2330
293.8783, 298.7046
294.3604, 307.2036
294.8425, 314.2693
295.3246, 318.8123
295.8068, 320.9844
296.2889, 321.2053
296.7710, 319.5044
297.2531, 316.0133
297.7352, 310.7534
298.2173, 303.8207
298.6995, 295.7256
299.1816, 286.5266
299.6637, 276.4813
300.1458, 266.2219
300.6279, 255.5405
301.1100, 245.1588
301.5922, 236.0213
302.0743, 228.0394
302.5564, 220.8923
303.0385, 214.6433
303.5206, 208.9853
304.0027, 203.2935
304.4849, 197.4673
304.9670, 191.9176
305.4491, 187.0212
305.9312, 182.7596
306.4133, 179.0873
306.8954, 176.0540
307.3776, 173.5560
307.8597, 171.7218
308.3418, 170.5996
308.8239, 169.4512
309.3060, 167.6457
309.7881, 165.4535
310.2703, 163.3599
310.7524, 161.2815
311.2345, 159.5493
311.7166, 158.5726
312.1987, 158.3297
312.6808, 158.1533
313.1630, 157.5863
313.6451, 156.9134
314.1272, 156.4369
314.6093, 156.4368
315.0914, 156.4861
315.5735, 156.3988
316.0557, 156.1870
316.5378, 155.9201
317.0199, 155.3740
317.5020, 154.9317
317.9841, 154.9021
318.4662, 155.6824
318.9484, 156.3945
319.4305, 156.5082
319.9126, 156.3109
320.3947, 156.5572
320.8768, 158.7155
321.3589, 160.4279
321.8411, 160.2219
322.3232, 156.7382
322.8053, 154.2395
323.2874, 153.9850
323.7695, 155.1235
324.2516, 156.3073
324.7338, 158.0265
325.2159, 159.1198
325.6980, 158.8969
326.1801, 156.8351
326.6622, 155.7042
327.1443, 156.3748
327.6265, 157.7581
328.1086, 158.7644
328.5907, 158.9506
329.0728, 159.2248
329.5549, 159.8244
330.0370, 160.7578
330.5192, 161.3424
331.0013, 161.1173
331.4834, 160.9386
331.9655, 161.4466
332.4476, 163.2907
332.9297, 164.7010
333.4119, 165.3704
333.8940, 165.4710
334.3761, 165.7419
334.8582, 166.2335
335.3403, 166.8004
335.8224, 167.4041
336.3046, 168.1326
336.7867, 168.6257
337.2688, 168.8474
337.7509, 168.8544
338.2330, 168.6696
338.7151, 168.1366
339.1973, 167.9105
339.6794, 168.3142
340.1615, 169.3730
340.6436, 170.4972
341.1257, 171.7575
341.6078, 172.9141
342.0899, 173.5743
342.5721, 173.6898
343.0542, 173.8427
343.5363, 174.1446
344.0184, 174.6222
344.5005, 175.5973
344.9826, 177.1603
345.4648, 178.5097
345.9469, 178.5700
346.4290, 177.5529
346.9111, 177.1269
347.3932, 177.6662
347.8753, 178.8699
348.3575, 180.4100
348.8396, 182.2291
349.3217, 183.7742
349.8038, 184.4265
350.2859, 184.5193
350.7680, 184.8380
351.2502, 185.4665
351.7323, 186.3507
352.2144, 187.6048
352.6965, 189.1052
353.1786, 190.4417
353.6607, 191.3445
354.1429, 192.0059
354.6250, 192.6015
355.1071, 193.1371
355.5892, 193.7680
356.0713, 194.5799
356.5534, 195.5752
357.0356, 196.7606
357.5177, 198.4267
357.9998, 200.0514
358.4819, 201.0225
358.9640, 201.4897
359.4461, 202.2697
359.9283, 204.0365
360.4104, 206.1655
360.8925, 208.1100
361.3746, 209.5419
361.8567, 211.1268
362.3388, 213.2799
362.8210, 215.7766
363.3031, 218.1589
363.7852, 219.8172
364.2673, 221.6967
364.7494, 224.3754
365.2315, 228.2077
365.7137, 231.7582
366.1958, 234.4611
366.6779, 236.8001
367.1600, 239.3684
367.6421, 242.2951
368.1242, 245.3901
368.6064, 248.5983
369.0885, 251.9295
369.5706, 255.4774
370.0527, 259.1885
370.5348, 263.1782
371.0169, 267.6460
371.4991, 273.2627
371.9812, 278.1092
372.4633, 281.6781
372.9454, 284.4188
373.4275, 287.7868
373.9096, 291.8201
374.3918, 296.4922
374.8739, 301.7479
375.3560, 307.7172
375.8381, 313.9749
376.3202, 320.5550
376.8023, 327.2837
377.2845, 334.0144
377.7666, 340.7905
378.2487, 347.0037
378.7308, 352.0892
379.2129, 356.3246
379.6950, 361.1343
380.1772, 366.6128
380.6593, 372.3732
381.1414, 378.3017
381.6235, 384.3071
382.1056, 389.9704
382.5877, 394.9654
383.0699, 399.8312
383.5520, 406.0396
384.0341, 413.4522
384.5162, 420.0719
384.9983, 424.3865
385.4804, 427.0869
385.9626, 429.6458
386.4447, 432.1988
386.9268, 434.6632
387.4089, 437.2705
387.8910, 439.7443
388.3731, 441.4022
388.8553, 441.5278
389.3374, 440.9630
389.8195, 441.0079
390.3016, 441.5430
390.7837, 440.5007
391.2658, 435.3331
391.7480, 428.4551
392.2301, 422.4637
392.7122, 419.2394
393.1943, 415.4330
393.6764, 409.0554
394.1585, 400.7993
394.6407, 392.7614
395.1228, 386.0661
395.6049, 379.4154
396.0870, 371.8984
396.5691, 362.9648
397.0512, 354.7967
397.5334, 348.6245
398.0155, 343.1477
398.4976, 336.8247
398.9797, 328.0101
399.4618, 319.8705
399.9439, 313.3157
400.4261, 308.3349
400.9082, 302.6887
401.3903, 295.7326
401.8724, 288.7145
402.3545, 282.3969
402.8366, 277.0223
403.3188, 271.9713
403.8009, 267.2924
404.2830, 262.8834
404.7651, 258.3832
405.2472, 253.6372
405.7293, 249.3704
406.2115, 245.9409
406.6936, 243.3955
407.1757, 241.1561
407.6578, 239.3457
408.1399, 237.4956
408.6220, 234.8704
409.1042, 231.4932
409.5863, 228.4021
410.0684, 225.9275
410.5505, 223.8740
411.0326, 221.5378
411.5147, 218.9300
411.9969, 216.6687
412.4790, 215.6390
412.9611, 215.2304
413.4432, 213.7977
413.9253, 210.8578
414.4074, 207.8656
414.8896, 206.6104
415.3717, 206.5182
415.8538, 206.2520
416.3359, 204.9323
416.8180, 203.3117
417.3001, 202.1444
417.7823, 201.4141
418.2644, 200.5930
418.7465, 199.2755
419.2286, 197.7388
419.7107, 196.2543
420.1928, 194.7627
420.6750, 193.4788
421.1571, 192.5965
421.6392, 191.9845
422.1213, 191.3271
422.6034, 190.3023
423.0855, 189.4205
423.5677, 188.9856
424.0498, 189.2486
424.5319, 189.1501
425.0140, 188.1631
425.4961, 186.9931
425.9782, 186.3817
426.4604, 187.0750
426.9425, 187.2014
427.4246, 186.0534
427.9067, 183.9545
428.3888, 183.3725
428.8709, 185.0520
429.3531, 186.9303
429.8352, 187.7659
430.3173, 187.2470
430.7994, 187.2991
431.2815, 188.2012
431.7636, 189.3142
432.2458, 189.3730
432.7279, 188.2880
433.2100, 187.6362
433.6921, 188.1419
434.1742, 189.4824
434.6563, 190.4717
435.1385, 191.1134
435.6206, 191.6644
436.1027, 192.3921
436.5848, 193.2062
437.0669, 193.7600
437.5490, 193.8124
438.0312, 194.0418
438.5133, 195.4271
438.9954, 197.6536
439.4775, 199.8435
439.9596, 201.4865
440.4417, 202.9341
440.9239, 204.2488
441.4060, 205.4364
441.8881, 207.3656
442.3702, 210.9293
442.8523, 215.2682
443.3344, 219.5824
443.8166, 223.3940
444.2987, 227.4561
444.7808, 231.8951
445.2629, 236.7437
445.7450, 242.1462
446.2271, 248.1028
446.7093, 254.5094
447.1914, 261.3580
447.6735, 268.7580
448.1556, 276.2691
448.6377, 283.4293
449.1198, 290.9330
449.6020, 299.4444
450.0841, 308.5385
450.5662, 319.1867
451.0483, 331.7855
451.5304, 346.0916
452.0125, 360.6792
452.4947, 375.6557
452.9768, 390.9564
453.4589, 406.4952
453.9410, 422.3890
454.4231, 439.2073
454.9052, 457.0688
455.3874, 476.2413
455.8695, 497.7134
456.3516, 521.3594
456.8337, 545.2676
457.3158, 568.2239
457.7979, 591.9274
458.2801, 620.0300
458.7622, 652.0338
459.2443, 685.6019
459.7264, 718.6335
460.2085, 752.2111
460.6906, 787.1566
461.1728, 823.4095
461.6549, 861.6013
462.1370, 901.3615
462.6191, 942.9767
463.1012, 985.9923
463.5833, 1029.203
464.0655, 1074.824
464.5476, 1123.333
465.0297, 1174.533
465.5118, 1229.042
465.9939, 1288.445
466.4760, 1349.065
466.9582, 1408.314
467.4403, 1463.957
467.9224, 1523.035
468.4045, 1586.837
468.8866, 1653.285
469.3687, 1720.924
469.8509, 1790.118
470.3330, 1857.903
470.8151, 1924.352
471.2972, 1989.140
471.7793, 2048.590
472.2614, 2103.299
472.7436, 2152.690
473.2257, 2197.648
473.7078, 2238.408
474.1899, 2268.894
474.6720, 2288.561
475.1541, 2298.847
475.6363, 2303.438
476.1184, 2301.374
476.6005, 2286.330
477.0826, 2252.887
477.5647, 2206.682
478.0468, 2155.328
478.5290, 2098.880
479.0111, 2037.823
479.4932, 1971.117
479.9753, 1900.598
480.4574, 1827.993
480.9395, 1753.052
481.4217, 1677.324
481.9038, 1601.984
482.3859, 1527.616
482.8680, 1456.044
483.3501, 1387.366
483.8322, 1322.048
484.3144, 1260.281
484.7965, 1202.492
485.2786, 1146.959
485.7607, 1093.786
486.2428, 1043.275
486.7249, 995.2835
487.2071, 949.8600
487.6892, 908.0254
488.1713, 870.2516
488.6534, 835.8133
489.1355, 803.0782
489.6176, 771.6854
490.0998, 742.7452
490.5819, 716.5791
491.0640, 692.6094
491.5461, 668.3503
492.0282, 643.4866
492.5103, 619.7241
492.9925, 598.9703
493.4746, 580.4722
493.9567, 561.8412
494.4388, 542.4927
494.9209, 523.6882
495.4030, 506.5517
495.8852, 490.9332
496.3673, 475.9882
496.8494, 461.5965
497.3315, 447.7374
497.8136, 434.7201
498.2957, 422.2503
498.7779, 409.6851
499.2600, 395.4851
499.7421, 381.7199
500.2242, 370.0431
500.7063, 360.9397
501.1884, 352.0826
501.6706, 342.8492
502.1527, 333.5461
502.6348, 324.6389
503.1169, 316.3466
503.5990, 308.2740
504.0811, 300.2492
504.5633, 292.4655
505.0454, 285.4418
505.5275, 279.3222
506.0096, 273.9409
506.4917, 269.5308
506.9738, 266.2031
507.4560, 261.8350
507.9381, 256.1084
508.4202, 250.1945
508.9023, 245.3286
509.3844, 241.4611
509.8665, 237.6926
510.3487, 233.7509
510.8308, 230.0295
511.3129, 227.5386
511.7950, 225.9958
512.2772, 224.0795
512.7593, 220.7636
513.2414, 216.8714
513.7235, 213.1974
514.2056, 209.7759
514.6877, 206.7614
515.1699, 204.5386
515.6520, 202.6168
516.1341, 200.5247
516.6162, 198.0017
517.0983, 195.5979
517.5804, 193.5413
518.0626, 191.6898
518.5447, 189.8118
519.0268, 188.1905
519.5089, 186.1765
519.9910, 183.4936
520.4731, 180.1883
520.9553, 177.0862
521.4374, 174.1172
521.9195, 171.5067
522.4016, 169.4250
522.8837, 167.9682
523.3658, 166.6570
523.8480, 165.5106
524.3301, 164.4612
524.8122, 163.6074
525.2943, 162.9152
525.7764, 161.5894
526.2585, 158.9840
526.7407, 156.1263
527.2228, 155.0186
527.7049, 155.4361
528.1870, 156.0802
528.6691, 156.4924
529.1512, 156.5328
529.6334, 155.9523
530.1155, 154.7149
530.5976, 153.2927
531.0797, 151.7087
531.5618, 150.1810
532.0439, 148.9521
532.5261, 148.2384
533.0082, 147.5773
533.4903, 146.7100
533.9724, 145.8170
534.4545, 145.2697
534.9366, 145.5308
535.4188, 145.6595
535.9009, 145.4992
536.3830, 145.0497
536.8651, 144.1493
537.3472, 142.5521
537.8293, 140.9987
538.3115, 140.0641
538.7936, 139.8073
539.2757, 139.4001
539.7578, 138.8035
540.2399, 138.0661
540.7220, 137.1961
541.2042, 136.2225
541.6863, 135.2266
542.1684, 134.1088
542.6505, 133.1153
543.1326, 132.8371
543.6147, 133.0602
544.0969, 132.9581
544.5790, 131.7995
545.0611, 130.2802
545.5432, 128.8603
546.0253, 127.5740
546.5074, 126.6266
546.9896, 126.4306
547.4717, 126.4383
547.9538, 126.2106
548.4359, 125.6454
548.9180, 124.8714
549.4001, 123.4361
549.8823, 121.9345
550.3644, 121.5079
550.8465, 123.0666
551.3286, 123.9363
551.8107, 123.1446
552.2928, 121.0160
552.7750, 120.1308
553.2571, 120.7279
553.7392, 121.3647
554.2213, 121.0472
554.7034, 119.9269
555.1855, 118.8155
555.6677, 117.7386
556.1498, 116.7603
556.6319, 115.9963
557.1140, 115.3834
557.5961, 114.7519
558.0782, 113.8379
558.5604, 113.2532
559.0425, 113.8309
559.5246, 115.1154
560.0067, 116.0925
560.4888, 116.4394
560.9709, 116.2939
561.4531, 115.4531
561.9352, 113.9255
562.4173, 112.8437
562.8994, 112.6154
563.3815, 112.6708
563.8636, 112.7603
564.3458, 112.9597
564.8279, 112.9637
565.3100, 112.6616
565.7921, 112.3055
566.2742, 112.2313
566.7563, 112.4609
567.2385, 112.7844
567.7206, 113.2318
568.2027, 113.6533
568.6848, 113.5186
569.1669, 112.9281
569.6490, 112.6507
570.1312, 113.4987
570.6133, 114.7240
571.0954, 115.1167
571.5775, 114.7100
572.0596, 114.3426
572.5417, 114.7729
573.0239, 115.3540
573.5060, 115.4530
573.9881, 114.7159
574.4702, 114.1730
574.9523, 114.2833
575.4344, 114.6976
575.9166, 114.9724
576.3987, 114.9283
576.8808, 114.9429
577.3629, 115.0750
577.8450, 115.2927
578.3271, 115.5092
578.8093, 115.7494
579.2914, 115.9022
579.7735, 115.8309
580.2556, 115.5979
580.7377, 115.8326
581.2198, 116.5881
581.7020, 117.1981
582.1841, 116.9826
582.6662, 116.2143
583.1483, 115.4596
583.6304, 114.7577
584.1125, 114.3323
584.5947, 114.6359
585.0768, 115.2806
585.5589, 115.7000
586.0410, 115.6723
586.5231, 115.4199
587.0052, 114.8824
587.4873, 114.1816
587.9694, 113.6509
588.4515, 113.4953
588.9337, 113.3726
589.4158, 113.1970
589.8979, 112.9688
590.3800, 112.6834
590.8621, 112.2428
591.3442, 111.9147
591.8264, 111.9951
592.3085, 112.5377
592.7906, 112.5175
593.2727, 111.7786
593.7548, 110.9118
594.2369, 110.6762
594.7191, 110.9128
595.2012, 110.9882
595.6833, 110.6483
596.1654, 110.2818
596.6475, 110.4066
597.1296, 110.8381
597.6118, 111.1511
598.0939, 111.0187
598.5760, 110.8384
599.0581, 110.8777
599.5402, 111.1081
600.0223, 111.2085
600.5045, 110.9613
600.9866, 110.6988
601.4687, 110.5637
601.9508, 110.5701
602.4329, 110.6713
602.9150, 110.9679
603.3972, 111.2181
603.8793, 111.2203
604.3614, 110.9704
604.8435, 110.4337
605.3256, 109.4843
605.8077, 108.5369
606.2899, 108.3592
606.7720, 108.8106
607.2541, 109.2387
607.7362, 109.3223
608.2183, 109.3455
608.7004, 109.7326
609.1826, 110.3667
609.6647, 110.8284
610.1468, 110.7959
610.6289, 110.6214
611.1110, 110.5267
611.5931, 110.5304
612.0753, 110.4564
612.5574, 110.0648
613.0395, 109.7500
613.5216, 109.7818
614.0037, 110.4625
614.4858, 110.6927
614.9680, 110.3486
615.4501, 109.7200
615.9322, 108.9637
