##NAMES=Pollucite
##RRUFFID=R050344
##IDEAL CHEMISTRY=Cs(Si_2_Al)O_6_&#183;nH_2_O
##LOCALITY=Konar Province, Afghanistan
##OWNER=RRUFF
##SOURCE=George Rossman
##DESCRIPTION=Colorless fragment
##STATUS=The identification of this mineral has been confirmed by X-ray diffraction and chemical analysis
##URL=rruff.info/R050344
##MEASURED CHEMISTRY=(Cs_0.78_Na_0.21_Rb_0.01_)_Σ=1_(Si_2.13_Al_0.87_)_Σ=3_O_6_·H_2_O
117.1114, 180.8872
117.5935, 180.4987
118.0756, 180.2626
118.5577, 180.4877
119.0398, 180.9751
119.5220, 181.2077
120.0041, 180.8232
120.4862, 180.1495
120.9683, 179.9301
121.4504, 180.3377
121.9325, 180.8892
122.4147, 181.1805
122.8968, 181.1855
123.3789, 181.2372
123.8610, 181.6730
124.3431, 182.1828
124.8252, 182.4474
125.3074, 182.3171
125.7895, 181.9500
126.2716, 181.6497
126.7537, 181.3747
127.2358, 181.2663
127.7179, 181.3535
128.2001, 181.5989
128.6822, 181.9449
129.1643, 182.3411
129.6464, 182.8030
130.1285, 183.5054
130.6107, 184.9820
131.0928, 186.2054
131.5749, 186.7877
132.0570, 186.8898
132.5391, 186.9099
133.0212, 187.1914
133.5033, 187.7790
133.9855, 188.3730
134.4676, 189.1021
134.9497, 189.7401
135.4318, 189.9164
135.9139, 189.6927
136.3960, 189.7453
136.8782, 190.9993
137.3603, 193.8053
137.8424, 195.9389
138.3245, 197.0111
138.8066, 197.4463
139.2887, 197.6483
139.7709, 197.6605
140.2530, 197.5984
140.7351, 197.6704
141.2172, 197.8677
141.6993, 197.8699
142.1814, 197.5278
142.6636, 196.8783
143.1457, 196.0211
143.6278, 194.8349
144.1099, 193.6035
144.5920, 192.7239
145.0741, 192.1823
145.5563, 191.3586
146.0384, 189.5332
146.5205, 186.5674
147.0026, 183.8287
147.4847, 181.5886
147.9668, 179.6275
148.4490, 177.9629
148.9311, 176.5728
149.4132, 175.2157
149.8953, 173.4892
150.3774, 171.0784
150.8595, 168.9213
151.3417, 167.1148
151.8238, 165.5288
152.3059, 164.1045
152.7880, 162.8207
153.2701, 161.6147
153.7522, 160.3477
154.2344, 158.8487
154.7165, 157.4963
155.1986, 156.3879
155.6807, 155.4072
156.1628, 154.3647
156.6449, 153.1507
157.1271, 151.8755
157.6092, 151.0241
158.0913, 150.8788
158.5734, 150.7427
159.0555, 150.4910
159.5376, 150.1118
160.0198, 149.5405
160.5019, 148.6612
160.9840, 147.6079
161.4661, 146.8626
161.9482, 146.4971
162.4303, 146.3378
162.9125, 146.4235
163.3946, 146.7368
163.8767, 146.8232
164.3588, 146.1443
164.8409, 145.1406
165.3230, 144.5690
165.8052, 144.7434
166.2873, 145.2309
166.7694, 145.5157
167.2515, 145.5977
167.7336, 145.4686
168.2157, 144.9817
168.6979, 144.3342
169.1800, 143.7137
169.6621, 143.1257
170.1442, 142.6707
170.6263, 142.7082
171.1084, 143.7310
171.5906, 144.4550
172.0727, 144.3042
172.5548, 143.6788
173.0369, 143.1417
173.5190, 143.0520
174.0011, 143.3479
174.4833, 143.5105
174.9654, 143.4801
175.4475, 143.3538
175.9296, 143.1315
176.4117, 142.8276
176.8938, 142.4132
177.3760, 141.8191
177.8581, 141.0254
178.3402, 140.8545
178.8223, 141.8294
179.3044, 142.8367
179.7865, 143.5881
180.2687, 144.0484
180.7508, 144.2287
181.2329, 144.0955
181.7150, 143.6076
182.1971, 143.3339
182.6792, 143.3789
183.1614, 143.5155
183.6435, 143.5635
184.1256, 143.5367
184.6077, 143.6585
185.0898, 144.2058
185.5719, 145.2048
186.0541, 145.8821
186.5362, 145.8263
187.0183, 145.6686
187.5004, 146.1587
187.9825, 147.4172
188.4646, 148.5621
188.9468, 148.4619
189.4289, 147.4618
189.9110, 146.9959
190.3931, 147.8802
190.8752, 149.3384
191.3573, 150.0974
191.8395, 149.8608
192.3216, 149.5076
192.8037, 149.7218
193.2858, 150.3349
193.7679, 151.0083
194.2500, 151.7058
194.7322, 152.3598
195.2143, 152.6884
195.6964, 152.3593
196.1785, 152.2299
196.6606, 152.9343
197.1427, 154.1682
197.6249, 155.2583
198.1070, 155.7285
198.5891, 155.6366
199.0712, 155.5802
199.5533, 155.7312
200.0354, 155.7083
200.5176, 155.0482
200.9997, 154.0792
201.4818, 153.5431
201.9639, 154.1874
202.4460, 156.0577
202.9281, 157.2636
203.4103, 157.4558
203.8924, 157.2316
204.3745, 156.5108
204.8566, 155.4706
205.3387, 154.4540
205.8208, 153.7528
206.3030, 153.3852
206.7851, 153.1623
207.2672, 153.5779
207.7493, 153.6731
208.2314, 152.8573
208.7135, 151.3090
209.1957, 149.6815
209.6778, 148.5809
210.1599, 148.1072
210.6420, 147.4071
211.1241, 146.2994
211.6062, 145.1718
212.0884, 144.2387
212.5705, 143.4917
213.0526, 142.7675
213.5347, 141.9043
214.0168, 140.8780
214.4989, 139.9942
214.9811, 139.3177
215.4632, 138.7161
215.9453, 138.1142
216.4274, 137.5037
216.9095, 136.9126
217.3916, 136.3976
217.8737, 135.9467
218.3559, 135.3303
218.8380, 134.5235
219.3201, 133.5593
219.8022, 132.3685
220.2843, 130.9471
220.7664, 129.6088
221.2486, 128.6762
221.7307, 128.0538
222.2128, 127.3559
222.6949, 126.4508
223.1770, 125.4835
223.6591, 124.6273
224.1413, 123.8975
224.6234, 123.1957
225.1055, 122.4540
225.5876, 121.6925
226.0697, 120.9471
226.5518, 120.1965
227.0340, 119.4851
227.5161, 118.9608
227.9982, 118.7313
228.4803, 118.3044
228.9624, 117.0437
229.4445, 115.4925
229.9267, 114.3966
230.4088, 114.2276
230.8909, 114.5073
231.3730, 114.2965
231.8551, 113.4065
232.3372, 112.4983
232.8194, 111.9576
233.3015, 111.5189
233.7836, 110.8151
234.2657, 109.6023
234.7478, 108.1878
235.2299, 107.3158
235.7121, 107.2832
236.1942, 107.2055
236.6763, 106.8413
237.1584, 106.2993
237.6405, 105.6768
238.1227, 105.0068
238.6048, 104.2986
239.0869, 103.5208
239.5690, 102.3522
240.0511, 101.7252
240.5332, 102.3010
241.0154, 103.1993
241.4975, 103.5089
241.9796, 102.8365
242.4617, 101.5428
242.9438, 100.5157
243.4259, 99.80915
243.9081, 99.32351
244.3902, 99.09257
244.8723, 99.02625
245.3544, 99.11276
245.8365, 99.33819
246.3186, 99.56527
246.8008, 99.46120
247.2829, 98.63288
247.7650, 98.03487
248.2471, 97.92290
248.7292, 97.93454
249.2113, 97.69909
249.6935, 97.09886
250.1756, 96.33904
250.6577, 95.82745
251.1398, 95.87684
251.6219, 95.72909
252.1040, 95.28576
252.5862, 94.70933
253.0683, 94.05672
253.5504, 93.36929
254.0325, 92.80289
254.5146, 92.63644
254.9967, 93.23780
255.4789, 93.57336
255.9610, 93.53113
256.4431, 93.29344
256.9252, 92.94621
257.4073, 92.52651
257.8894, 92.16621
258.3716, 92.07645
258.8537, 92.48378
259.3358, 92.52796
259.8179, 91.82407
260.3000, 90.98788
260.7821, 90.59196
261.2643, 90.72414
261.7464, 91.01545
262.2285, 91.03432
262.7106, 90.67542
263.1927, 90.62208
263.6748, 91.17081
264.1570, 91.84628
264.6391, 92.31153
265.1212, 92.51888
265.6033, 92.45614
266.0854, 91.98404
266.5675, 91.09297
267.0497, 90.65862
267.5318, 91.09019
268.0139, 91.71555
268.4960, 91.99349
268.9781, 91.90168
269.4602, 91.73314
269.9424, 91.61777
270.4245, 91.61864
270.9066, 91.95554
271.3887, 93.07397
271.8708, 94.19997
272.3529, 94.62363
272.8351, 94.39854
273.3172, 94.22707
273.7993, 94.51404
274.2814, 95.20203
274.7635, 95.97400
275.2456, 96.89403
275.7278, 97.81612
276.2099, 98.56889
276.6920, 99.18639
277.1741, 99.94880
277.6562, 100.9826
278.1383, 102.2677
278.6205, 103.7180
279.1026, 105.4980
279.5847, 107.1188
280.0668, 108.1239
280.5489, 108.6233
281.0310, 109.2280
281.5132, 110.0938
281.9953, 111.2466
282.4774, 112.7370
282.9595, 114.6401
283.4416, 116.4318
283.9237, 117.5514
284.4059, 118.2217
284.8880, 119.4441
285.3701, 121.6467
285.8522, 124.2339
286.3343, 126.5260
286.8164, 128.5400
287.2986, 130.6692
287.7807, 133.0000
288.2628, 135.6002
288.7449, 138.7591
289.2270, 142.8065
289.7091, 146.9130
290.1913, 150.4047
290.6734, 153.3973
291.1555, 156.3669
291.6376, 159.2858
292.1197, 162.3342
292.6018, 166.1609
293.0840, 171.1434
293.5661, 176.0218
294.0482, 180.1466
294.5303, 183.5835
295.0124, 186.4020
295.4945, 188.7468
295.9767, 190.3900
296.4588, 190.8970
296.9409, 190.1921
297.4230, 188.5909
297.9051, 186.1749
298.3872, 182.9680
298.8694, 178.7698
299.3515, 173.2935
299.8336, 167.1970
300.3157, 161.1948
300.7978, 155.2216
301.2799, 149.5290
301.7621, 144.1309
302.2442, 139.1035
302.7263, 134.5056
303.2084, 130.3380
303.6905, 126.6380
304.1726, 123.5354
304.6548, 121.0601
305.1369, 118.6193
305.6190, 115.9151
306.1011, 113.3297
306.5832, 111.2127
307.0653, 109.5750
307.5475, 108.0664
308.0296, 106.2099
308.5117, 104.0891
308.9938, 102.7756
309.4759, 103.0721
309.9580, 103.4374
310.4402, 102.7254
310.9223, 101.1608
311.4044, 99.64247
311.8865, 98.72342
312.3686, 98.31978
312.8507, 98.10686
313.3329, 98.27818
313.8150, 98.28746
314.2971, 97.68381
314.7792, 96.74520
315.2613, 95.98326
315.7434, 95.67688
316.2256, 95.65603
316.7077, 95.54516
317.1898, 95.28979
317.6719, 95.09412
318.1540, 95.03326
318.6361, 95.08232
319.1183, 95.27856
319.6004, 95.70179
320.0825, 96.08437
320.5646, 95.92681
321.0467, 95.09344
321.5288, 94.59160
322.0110, 95.08351
322.4931, 95.83665
322.9752, 96.29673
323.4573, 96.37413
323.9394, 96.31686
324.4215, 96.30769
324.9037, 96.34706
325.3858, 96.48306
325.8679, 96.83799
326.3500, 97.17505
326.8321, 97.22885
327.3142, 97.06104
327.7964, 97.05437
328.2785, 97.64955
328.7606, 98.67702
329.2427, 99.26416
329.7248, 99.11913
330.2069, 98.95344
330.6891, 99.33561
331.1712, 100.0162
331.6533, 100.4535
332.1354, 100.2532
332.6175, 99.73345
333.0996, 99.53067
333.5818, 99.68873
334.0639, 100.0228
334.5460, 100.5471
335.0281, 101.1589
335.5102, 101.7627
335.9923, 102.3608
336.4745, 102.8913
336.9566, 103.2959
337.4387, 103.5730
337.9208, 103.7132
338.4029, 103.5169
338.8850, 103.3271
339.3671, 103.5096
339.8492, 104.1140
340.3314, 104.8001
340.8135, 105.3891
341.2956, 105.8717
341.7777, 106.1352
342.2598, 106.0684
342.7419, 105.9008
343.2241, 105.7451
343.7062, 105.6287
344.1883, 105.7279
344.6704, 106.2209
345.1525, 106.9721
345.6346, 107.7220
346.1168, 108.4865
346.5989, 109.1525
347.0810, 109.4928
347.5631, 109.6841
348.0452, 110.0552
348.5273, 110.7954
349.0095, 111.6551
349.4916, 112.4072
349.9737, 113.0507
350.4558, 113.4928
350.9379, 113.4945
351.4200, 113.3817
351.9022, 113.7182
352.3843, 114.6957
352.8664, 115.6549
353.3485, 116.0405
353.8306, 116.0109
354.3127, 116.2294
354.7949, 116.9818
355.2770, 117.8733
355.7591, 118.3155
356.2412, 118.3130
356.7233, 118.5370
357.2054, 119.4366
357.6876, 120.6452
358.1697, 121.5314
358.6518, 121.9730
359.1339, 122.3949
359.6160, 123.1434
360.0981, 124.1943
360.5803, 125.3743
361.0624, 126.6332
361.5445, 128.0356
362.0266, 129.8066
362.5087, 131.8710
362.9908, 133.5877
363.4730, 134.4433
363.9551, 134.7926
364.4372, 135.7608
364.9193, 137.6017
365.4014, 139.5633
365.8835, 141.3352
366.3657, 143.0020
366.8478, 144.7233
367.3299, 146.5311
367.8120, 148.4685
368.2941, 150.7077
368.7762, 153.3910
369.2584, 155.7240
369.7405, 157.1974
370.2226, 158.4951
370.7047, 160.2320
371.1868, 162.5068
371.6689, 165.1723
372.1511, 168.2526
372.6332, 171.7709
373.1153, 174.5240
373.5974, 175.6838
374.0795, 176.9937
374.5616, 179.4555
375.0438, 182.7609
375.5259, 186.0950
376.0080, 189.0065
376.4901, 191.5970
376.9722, 194.2001
377.4543, 196.9902
377.9365, 199.5618
378.4186, 201.5513
378.9007, 203.4480
379.3828, 205.8066
379.8649, 208.7708
380.3470, 212.0503
380.8292, 215.2425
381.3113, 218.3116
381.7934, 221.4369
382.2755, 225.0124
382.7576, 228.3060
383.2397, 230.7004
383.7219, 232.3844
384.2040, 234.0465
384.6861, 236.2657
385.1682, 238.9790
385.6503, 241.0888
386.1324, 241.9958
386.6146, 242.9270
387.0967, 244.3672
387.5788, 245.8448
388.0609, 246.7414
388.5430, 246.7907
389.0251, 246.2444
389.5073, 245.6485
389.9894, 245.3146
390.4715, 244.2121
390.9536, 241.8852
391.4357, 239.2064
391.9178, 236.7185
392.4000, 234.4618
392.8821, 232.1255
393.3642, 229.4285
393.8463, 226.3606
394.3284, 223.0283
394.8105, 218.9775
395.2927, 215.1559
395.7748, 212.2511
396.2569, 209.7243
396.7390, 206.6102
397.2211, 202.3419
397.7032, 197.4003
398.1854, 192.8541
398.6675, 188.7335
399.1496, 184.8758
399.6317, 181.5305
400.1138, 178.2258
400.5959, 174.5052
401.0781, 170.3108
401.5602, 166.1931
402.0423, 162.7050
402.5244, 159.8093
403.0065, 157.0166
403.4886, 154.2747
403.9708, 151.6539
404.4529, 149.1746
404.9350, 146.8381
405.4171, 144.6321
405.8992, 142.4702
406.3813, 140.4906
406.8635, 138.9505
407.3456, 137.8826
407.8277, 136.9640
408.3098, 136.3030
408.7919, 135.5373
409.2740, 133.9868
409.7562, 131.2462
410.2383, 128.6803
410.7204, 127.1490
411.2025, 126.4370
411.6846, 125.9520
412.1667, 125.6071
412.6489, 125.2714
413.1310, 124.8109
413.6131, 124.2334
414.0952, 123.4786
414.5773, 122.2882
415.0594, 121.0820
415.5416, 120.3321
416.0237, 120.0104
416.5058, 119.6566
416.9879, 118.9368
417.4700, 117.9471
417.9521, 117.2158
418.4343, 116.6134
418.9164, 116.3658
419.3985, 116.8718
419.8806, 117.6707
420.3627, 118.1116
420.8448, 117.9867
421.3270, 117.4411
421.8091, 116.6409
422.2912, 115.3985
422.7733, 114.4678
423.2554, 113.9211
423.7375, 113.5947
424.2197, 113.5446
424.7018, 113.6563
425.1839, 113.6152
425.6660, 113.1562
426.1481, 112.3871
426.6302, 112.0495
427.1124, 112.6903
427.5945, 113.1101
428.0766, 112.9790
428.5587, 112.6563
429.0408, 112.4673
429.5229, 112.5225
430.0051, 112.7893
430.4872, 113.3074
430.9693, 114.2092
431.4514, 114.7994
431.9335, 114.5770
432.4156, 114.4702
432.8978, 114.9945
433.3799, 115.9504
433.8620, 116.7836
434.3441, 117.0991
434.8262, 117.0919
435.3083, 117.3008
435.7905, 117.7307
436.2726, 118.3648
436.7547, 119.3121
437.2368, 120.4060
437.7189, 121.5244
438.2010, 122.6472
438.6832, 123.7629
439.1653, 124.9152
439.6474, 126.0690
440.1295, 126.9470
440.6116, 127.2385
441.0938, 127.7695
441.5759, 129.4653
442.0580, 131.9972
442.5401, 134.4307
443.0222, 136.3242
443.5043, 138.1211
443.9865, 140.1375
444.4686, 142.3985
444.9507, 145.1987
445.4328, 148.7571
445.9149, 152.8710
446.3970, 157.0677
446.8792, 161.3067
447.3613, 165.6826
447.8434, 170.0617
448.3255, 174.6684
448.8076, 179.8074
449.2897, 185.5428
449.7719, 191.6221
450.2540, 197.7366
450.7361, 203.8828
451.2182, 211.0277
451.7003, 219.4477
452.1824, 228.3865
452.6646, 237.6454
453.1467, 247.2624
453.6288, 257.2861
454.1109, 267.7661
454.5930, 278.5632
455.0751, 289.3866
455.5573, 299.3317
456.0394, 311.2049
456.5215, 325.7749
457.0036, 341.2613
457.4857, 356.9261
457.9678, 372.5829
458.4500, 388.3058
458.9321, 404.0354
459.4142, 419.9068
459.8963, 436.9456
460.3784, 455.6206
460.8605, 474.6094
461.3427, 493.6900
461.8248, 512.9669
462.3069, 532.4413
462.7890, 552.1183
463.2711, 572.6300
463.7532, 594.5935
464.2354, 618.0656
464.7175, 642.0504
465.1996, 666.4035
465.6817, 691.3551
466.1638, 716.7702
466.6459, 742.8393
467.1281, 770.2879
467.6102, 799.7783
468.0923, 830.2507
468.5744, 860.5829
469.0565, 890.9531
469.5386, 920.6991
470.0208, 949.3659
470.5029, 977.5609
470.9850, 1006.485
471.4671, 1036.764
471.9492, 1065.029
472.4313, 1090.582
472.9135, 1113.758
473.3956, 1135.935
473.8777, 1156.772
474.3598, 1173.233
474.8419, 1182.905
475.3240, 1186.041
475.8062, 1184.687
476.2883, 1179.764
476.7704, 1169.965
477.2525, 1154.349
477.7346, 1133.967
478.2167, 1109.783
478.6989, 1082.095
479.1810, 1051.623
479.6631, 1018.682
480.1452, 983.2198
480.6273, 946.5006
481.1094, 906.4795
481.5916, 867.4578
482.0737, 830.9520
482.5558, 796.4138
483.0379, 762.6818
483.5200, 729.0313
484.0021, 695.8759
484.4843, 663.7607
484.9664, 632.3926
485.4485, 602.8077
485.9306, 575.3835
486.4127, 549.8163
486.8948, 526.2144
487.3770, 504.3402
487.8591, 483.5029
488.3412, 463.1603
488.8233, 443.6981
489.3054, 426.0728
489.7875, 410.4828
490.2697, 395.7682
490.7518, 381.3568
491.2339, 367.6651
491.7160, 355.1837
492.1981, 344.2768
492.6802, 333.7050
493.1624, 323.0272
493.6445, 312.4308
494.1266, 302.1706
494.6087, 292.2529
495.0908, 282.7609
495.5729, 273.7066
496.0551, 265.1180
496.5372, 256.9262
497.0193, 249.2622
497.5014, 241.7945
497.9835, 234.1604
498.4656, 226.7240
498.9478, 220.0440
499.4299, 214.2824
499.9120, 209.0298
500.3941, 203.7486
500.8762, 198.3465
501.3583, 193.1394
501.8405, 187.7680
502.3226, 182.9738
502.8047, 179.4450
503.2868, 176.6323
503.7689, 173.6345
504.2510, 169.9845
504.7331, 165.9512
505.2152, 161.8685
505.6974, 157.6210
506.1795, 153.9950
506.6616, 151.5353
507.1437, 149.4266
507.6258, 147.0451
508.1079, 144.4299
508.5901, 141.9834
509.0722, 139.9803
509.5543, 138.2165
510.0364, 136.3916
510.5185, 134.5077
511.0006, 132.6198
511.4828, 130.7236
511.9649, 128.8767
512.4470, 127.2251
512.9291, 125.8058
513.4113, 124.4012
513.8934, 122.9925
514.3755, 121.5594
514.8576, 120.1365
515.3397, 118.6956
515.8218, 117.0525
516.3040, 114.9734
516.7861, 112.6050
517.2682, 111.0417
517.7503, 111.1800
518.2324, 111.0229
518.7145, 110.2182
519.1967, 109.1393
519.6788, 108.1086
520.1609, 107.1981
520.6430, 106.3301
521.1251, 105.4566
521.6072, 104.5682
522.0894, 103.4984
522.5715, 102.0284
523.0536, 100.7263
523.5357, 99.92252
524.0178, 99.30595
524.4999, 98.44678
524.9821, 97.20187
525.4642, 96.07150
525.9463, 95.67104
526.4284, 95.81550
526.9105, 95.62592
527.3926, 94.91824
527.8748, 94.06755
528.3569, 93.26482
528.8390, 92.54996
529.3211, 92.05717
529.8032, 92.11411
530.2853, 92.04119
530.7675, 91.20813
531.2496, 90.02877
531.7317, 89.43591
532.2138, 89.70718
532.6959, 90.12508
533.1780, 89.75984
533.6602, 88.41592
534.1423, 87.50228
534.6244, 87.30518
535.1065, 87.14655
535.5886, 86.75005
536.0707, 86.23302
536.5529, 85.81850
537.0350, 85.59451
537.5171, 85.42448
537.9992, 85.05313
538.4813, 84.40136
538.9634, 83.96899
539.4456, 84.03176
539.9277, 84.03893
540.4098, 83.67471
540.8919, 83.08343
541.3740, 82.57735
541.8561, 82.32358
542.3383, 82.10720
542.8204, 81.66933
543.3025, 81.02517
543.7846, 80.28957
544.2667, 79.41943
544.7488, 78.60765
545.2310, 78.17342
545.7131, 78.06203
546.1952, 77.72410
546.6773, 76.53732
547.1594, 75.60301
547.6415, 76.04436
548.1237, 77.30361
548.6058, 77.91835
549.0879, 77.28500
549.5700, 76.03577
550.0521, 75.19210
550.5342, 74.87327
551.0164, 74.62641
551.4985, 74.51003
551.9806, 74.39647
552.4627, 74.21568
552.9448, 73.99773
553.4269, 73.83553
553.9091, 73.78294
554.3912, 73.70123
554.8733, 73.27096
555.3554, 72.40316
555.8375, 71.78701
556.3196, 71.57703
556.8018, 71.57588
557.2839, 71.76923
557.7660, 72.05735
558.2481, 72.15179
558.7302, 71.82861
559.2123, 71.41468
559.6945, 71.28425
560.1766, 71.36738
560.6587, 71.34922
561.1408, 71.12801
561.6229, 70.79244
562.1050, 70.41582
562.5872, 69.97982
563.0693, 69.69003
563.5514, 69.51263
564.0335, 69.52016
564.5156, 69.95602
564.9977, 70.56034
565.4799, 70.81959
565.9620, 70.53622
566.4441, 70.06564
566.9262, 70.00025
567.4083, 70.47903
567.8904, 70.79836
568.3726, 70.92387
568.8547, 70.91012
569.3368, 70.50130
569.8189, 70.03395
570.3010, 70.14578
570.7831, 71.17040
571.2653, 72.31670
571.7474, 72.55336
572.2295, 72.00159
572.7116, 71.67492
573.1937, 71.79695
573.6758, 72.01024
574.1580, 71.98593
574.6401, 71.80080
575.1222, 71.75791
575.6043, 71.93252
576.0864, 72.20152
576.5685, 72.64963
577.0507, 73.10954
577.5328, 73.25392
578.0149, 73.01474
578.4970, 72.65610
578.9791, 72.45009
579.4612, 72.40048
579.9434, 72.41286
580.4255, 72.73625
580.9076, 72.82320
581.3897, 72.37629
581.8718, 71.74437
582.3539, 71.28955
582.8361, 71.09731
583.3182, 71.04624
583.8003, 71.05228
584.2824, 71.10518
584.7645, 71.13908
585.2466, 71.17007
585.7288, 71.12900
586.2108, 70.85478
586.6929, 70.54824
587.1750, 70.54886
587.6572, 70.96886
588.1393, 71.30382
588.6214, 71.31966
589.1035, 71.12093
589.5856, 70.75102
590.0677, 70.25496
590.5499, 69.90055
591.0320, 69.88377
591.5141, 70.10378
591.9962, 70.18669
592.4783, 69.94618
592.9604, 69.83005
593.4426, 70.00686
593.9247, 70.17405
594.4068, 70.10192
594.8889, 69.82282
595.3710, 69.50484
595.8531, 69.24568
596.3353, 69.04198
596.8174, 68.85403
597.2995, 68.65308
597.7816, 68.65884
598.2637, 69.07174
598.7458, 69.54650
599.2280, 69.84061
599.7101, 69.95377
600.1922, 69.88583
600.6743, 69.38206
601.1564, 68.91635
601.6385, 68.99358
602.1207, 69.44137
602.6028, 69.73973
603.0849, 69.71117
603.5670, 69.52773
604.0491, 69.40311
604.5313, 69.34874
605.0134, 69.28102
605.4955, 69.11899
605.9776, 69.03739
606.4597, 69.28522
606.9418, 69.56202
607.4240, 69.34903
607.9061, 68.54970
608.3882, 67.78322
608.8703, 67.91642
609.3524, 68.85439
609.8345, 69.25414
610.3167, 68.87280
610.7988, 68.52431
611.2809, 68.74732
611.7630, 69.17706
612.2451, 69.28188
612.7272, 68.94106
613.2094, 68.64768
613.6915, 68.72026
