##NAMES=Pollucite
##RRUFFID=R050345
##IDEAL CHEMISTRY=Cs(Si_2_Al)O_6_&#183;nH_2_O
##LOCALITY=Bernic Lake, Manitoba, Canada
##OWNER=RRUFF
##SOURCE=California Institute of Technology
##DESCRIPTION=Colorless to white fragment
##STATUS=The identification of this mineral has been confirmed by X-ray diffraction and chemical analysis
##URL=rruff.info/R050345
##MEASURED CHEMISTRY=(Cs_0.79_Na_0.19_Rb_0.02_)_Σ=1_(Si_2.10_Al_0.90_)_Σ=3_O_6_·H_2_O
116.1471, 378.2188
116.6293, 377.5478
117.1114, 377.2543
117.5935, 377.4416
118.0756, 377.7210
118.5577, 378.1522
119.0398, 378.6200
119.5220, 378.7968
120.0041, 378.3727
120.4862, 377.7041
120.9683, 377.6053
121.4504, 378.3746
121.9325, 379.1925
122.4147, 379.2081
122.8968, 378.3250
123.3789, 377.7876
123.8610, 378.7737
124.3431, 380.2553
124.8252, 381.2529
125.3074, 381.3698
125.7895, 380.9552
126.2716, 380.6297
126.7537, 380.0907
127.2358, 380.2733
127.7179, 382.2407
128.2001, 384.8047
128.6822, 386.3120
129.1643, 385.5332
129.6464, 382.7161
130.1285, 381.0743
130.6106, 382.0778
131.0928, 382.9321
131.5749, 382.7563
132.0570, 381.8588
132.5391, 381.0982
133.0212, 381.2857
133.5033, 382.6484
133.9855, 383.4153
134.4676, 382.9220
134.9497, 382.4940
135.4318, 383.1138
135.9139, 384.7738
136.3960, 386.4784
136.8782, 386.9679
137.3603, 385.8871
137.8424, 385.5170
138.3245, 386.6743
138.8066, 388.3413
139.2887, 389.3441
139.7709, 389.4005
140.2530, 388.8790
140.7351, 388.0677
141.2172, 387.0009
141.6993, 385.9740
142.1814, 385.1822
142.6636, 384.5543
143.1457, 383.8647
143.6278, 383.2736
144.1099, 382.3248
144.5920, 380.6372
145.0741, 378.2221
145.5563, 375.5216
146.0384, 372.7113
146.5205, 369.7116
147.0026, 367.3319
147.4847, 366.5279
147.9668, 365.8723
148.4490, 364.4544
148.9311, 362.1295
149.4132, 359.5673
149.8953, 357.8781
150.3774, 357.7425
150.8595, 357.0699
151.3417, 355.3402
151.8238, 353.3132
152.3059, 351.5259
152.7880, 350.2007
153.2701, 349.2592
153.7522, 348.5338
154.2344, 348.6729
154.7165, 348.2683
155.1986, 346.7625
155.6807, 344.8189
156.1628, 343.2933
156.6449, 342.6373
157.1271, 342.6271
157.6092, 342.3665
158.0913, 341.5682
158.5734, 340.8892
159.0555, 340.7290
159.5376, 340.8667
160.0198, 340.6557
160.5019, 339.5851
160.9840, 337.9845
161.4661, 337.0850
161.9482, 337.2759
162.4303, 337.7147
162.9125, 337.8575
163.3946, 337.7166
163.8767, 337.5786
164.3588, 337.6611
164.8409, 337.8384
165.3230, 337.8925
165.8052, 337.7323
166.2873, 337.4846
166.7694, 337.3852
167.2515, 337.5461
167.7336, 337.4598
168.2157, 336.5868
168.6979, 335.4160
169.1800, 334.4848
169.6621, 333.9835
170.1442, 333.8975
170.6263, 334.2482
171.1084, 335.4034
171.5906, 336.4194
172.0727, 337.0118
172.5548, 337.2988
173.0369, 337.4342
173.5190, 337.4897
174.0011, 337.4777
174.4833, 337.5039
174.9654, 337.4315
175.4475, 337.5524
175.9296, 338.0190
176.4117, 338.7231
176.8938, 339.4984
177.3760, 340.2446
177.8581, 340.9681
178.3402, 341.3936
178.8223, 341.0432
179.3044, 340.8922
179.7865, 341.4653
180.2687, 342.5873
180.7508, 343.6974
181.2329, 344.3266
181.7150, 344.4312
182.1971, 344.3880
182.6792, 343.9743
183.1614, 343.6190
183.6435, 343.3460
184.1256, 343.2443
184.6077, 343.8064
185.0898, 345.7536
185.5719, 349.1717
186.0540, 351.5475
186.5362, 352.1293
187.0183, 352.0444
187.5004, 352.3031
187.9825, 353.0240
188.4646, 353.7841
188.9467, 353.8854
189.4289, 353.5992
189.9110, 354.1751
190.3931, 356.8071
190.8752, 360.1933
191.3573, 362.2067
191.8394, 362.3492
192.3216, 362.0874
192.8037, 362.4984
193.2858, 363.3752
193.7679, 364.2948
194.2500, 365.0823
194.7321, 365.7690
195.2143, 366.4795
195.6964, 367.2863
196.1785, 367.9951
196.6606, 368.4422
197.1427, 368.7261
197.6248, 369.0674
198.1070, 369.7172
198.5891, 370.6119
199.0712, 371.0809
199.5533, 370.6157
200.0354, 370.2660
200.5175, 370.7172
200.9997, 371.6198
201.4818, 372.1741
201.9639, 371.6753
202.4460, 370.0954
202.9281, 368.6534
203.4102, 366.8678
203.8924, 365.7065
204.3745, 366.1180
204.8566, 367.5249
205.3387, 368.4946
205.8208, 367.6559
206.3029, 364.7201
206.7851, 362.6597
207.2672, 362.1434
207.7493, 361.7699
208.2314, 361.1166
208.7135, 360.1367
209.1956, 358.9205
209.6778, 357.5278
210.1599, 355.9309
210.6420, 354.3798
211.1241, 353.0859
211.6062, 351.6529
212.0883, 349.7469
212.5705, 347.4465
213.0526, 345.1370
213.5347, 343.1149
214.0168, 341.4125
214.4989, 340.0948
214.9810, 339.6324
215.4632, 339.1542
215.9453, 337.9162
216.4274, 335.9397
216.9095, 334.0601
217.3916, 333.1488
217.8737, 333.1971
218.3559, 332.4731
218.8380, 330.3310
219.3201, 327.8007
219.8022, 325.7182
220.2843, 324.1475
220.7664, 322.7845
221.2486, 321.3809
221.7307, 319.9849
222.2128, 318.8443
222.6949, 318.2957
223.1770, 317.8608
223.6591, 316.9664
224.1413, 315.5478
224.6234, 314.0107
225.1055, 312.7259
225.5876, 311.5241
226.0697, 310.0582
226.5518, 307.8904
227.0340, 305.5925
227.5161, 304.1110
227.9982, 303.6507
228.4803, 303.2949
228.9624, 302.7594
229.4445, 301.9552
229.9267, 300.6058
230.4088, 298.2591
230.8909, 295.6119
231.3730, 294.1555
231.8551, 294.3854
232.3372, 294.5716
232.8194, 294.0641
233.3015, 293.0926
233.7836, 291.8121
234.2657, 290.1683
234.7478, 288.4414
235.2299, 287.3582
235.7121, 287.3659
236.1942, 287.1090
236.6763, 286.0781
237.1584, 284.6703
237.6405, 283.2692
238.1227, 282.0260
238.6048, 280.9035
239.0869, 279.7819
239.5690, 278.4844
240.0511, 277.5254
240.5332, 277.4727
241.0154, 277.5466
241.4975, 276.8474
241.9796, 274.9799
242.4617, 272.4996
242.9438, 270.8414
243.4259, 270.5994
243.9081, 270.2932
244.3902, 269.7148
244.8723, 269.0224
245.3544, 268.3192
245.8365, 267.6490
246.3186, 267.0822
246.8007, 266.8034
247.2829, 267.2886
247.7650, 267.3541
248.2471, 266.7202
248.7292, 265.7924
249.2113, 264.8816
249.6934, 264.1072
250.1756, 263.4769
250.6577, 263.0061
251.1398, 262.7277
251.6219, 262.5940
252.1040, 262.7321
252.5861, 262.9394
253.0683, 263.1160
253.5504, 263.2122
254.0325, 263.1026
254.5146, 262.5588
254.9967, 261.2414
255.4788, 260.0934
255.9610, 259.1783
256.4431, 258.4004
256.9252, 257.6698
257.4073, 256.9670
257.8894, 256.3328
258.3716, 255.7974
258.8537, 255.2982
259.3358, 255.1799
259.8179, 256.0608
260.3000, 256.9557
260.7821, 256.8170
261.2643, 255.5101
261.7464, 253.9811
262.2285, 253.2455
262.7106, 253.4920
263.1927, 253.8624
263.6748, 254.4917
264.1570, 255.1452
264.6391, 255.7798
265.1212, 256.3561
265.6033, 256.4687
266.0854, 255.5198
266.5675, 253.4617
267.0497, 252.1566
267.5318, 251.9402
268.0139, 252.2891
268.4960, 253.0936
268.9781, 254.2823
269.4602, 255.0883
269.9424, 254.6618
270.4245, 253.2545
270.9066, 252.7565
271.3887, 254.0514
271.8708, 255.6344
272.3529, 256.3176
272.8351, 256.1502
273.3172, 255.8894
273.7993, 255.9026
274.2814, 256.2057
274.7635, 256.6931
275.2456, 257.1927
275.7278, 258.0654
276.2099, 259.8355
276.6920, 262.3799
277.1741, 264.6750
277.6562, 266.1645
278.1383, 267.1198
278.6204, 268.1891
279.1025, 269.4485
279.5847, 270.6783
280.0668, 271.5373
280.5489, 272.1474
281.0310, 273.2947
281.5131, 275.5917
281.9952, 278.2135
282.4774, 279.8276
282.9595, 280.2188
283.4416, 280.8721
283.9237, 282.8415
284.4058, 285.8590
284.8879, 288.8692
285.3701, 291.7132
285.8522, 294.3130
286.3343, 296.4946
286.8164, 298.2823
287.2985, 300.2307
287.7806, 302.6952
288.2628, 305.5655
288.7449, 308.4305
289.2270, 311.1639
289.7091, 314.0444
290.1912, 317.4662
290.6733, 321.2675
291.1555, 324.9547
291.6376, 328.1158
292.1197, 330.9912
292.6018, 334.3427
293.0839, 338.5110
293.5660, 342.3615
294.0482, 344.9414
294.5303, 346.7089
295.0124, 348.5252
295.4945, 351.2720
295.9766, 353.9461
296.4587, 354.7417
296.9409, 353.4794
297.4230, 350.9252
297.9051, 346.9970
298.3872, 342.1293
298.8693, 336.6345
299.3514, 330.4538
299.8336, 323.9270
300.3157, 317.3552
300.7978, 310.6439
301.2799, 304.2256
301.7620, 298.0733
302.2441, 292.3970
302.7263, 287.5099
303.2084, 283.5411
303.6905, 279.8998
304.1726, 275.7484
304.6547, 271.0414
305.1368, 267.1657
305.6190, 264.7419
306.1011, 263.0995
306.5832, 261.9900
307.0653, 261.3521
307.5474, 260.4923
308.0295, 258.6032
308.5117, 255.8054
308.9938, 253.5207
309.4759, 252.1059
309.9580, 251.0855
310.4401, 250.1101
310.9222, 249.2081
311.4044, 248.5108
311.8865, 248.3237
312.3686, 248.4665
312.8507, 248.0783
313.3328, 246.8259
313.8149, 245.5896
314.2971, 244.7800
314.7792, 244.3103
315.2613, 244.0694
315.7434, 244.2161
316.2255, 244.4197
316.7076, 243.8407
317.1898, 242.1358
317.6719, 240.5861
318.1540, 239.4884
318.6361, 238.9350
319.1182, 239.2676
319.6003, 240.8229
320.0825, 242.6348
320.5646, 243.3041
321.0467, 242.6497
321.5288, 242.0041
322.0109, 241.7031
322.4930, 241.6369
322.9752, 241.7770
323.4573, 242.1228
323.9394, 242.5492
324.4215, 243.1314
324.9036, 243.8532
325.3857, 243.9089
325.8679, 242.5118
326.3500, 241.0556
326.8321, 240.5410
327.3142, 240.8928
327.7963, 241.4923
328.2784, 242.0652
328.7606, 242.5795
329.2427, 242.8427
329.7248, 242.6801
330.2069, 242.5500
330.6890, 242.7694
331.1711, 243.2197
331.6533, 243.6773
332.1354, 244.2192
332.6175, 244.6162
333.0996, 244.1409
333.5817, 242.3396
334.0638, 241.1336
334.5460, 242.3092
335.0281, 244.3432
335.5102, 245.4833
335.9923, 245.0656
336.4744, 244.1462
336.9565, 243.9870
337.4387, 244.6372
337.9208, 245.2086
338.4029, 245.3266
338.8850, 245.3000
339.3671, 245.4276
339.8492, 245.7397
340.3314, 246.1073
340.8135, 246.4164
341.2956, 246.6894
341.7777, 247.0512
342.2598, 247.5317
342.7419, 248.1026
343.2241, 248.8583
343.7062, 249.7324
344.1883, 250.3441
344.6704, 250.2848
345.1525, 249.8737
345.6346, 249.8347
346.1168, 250.2867
346.5989, 250.8434
347.0810, 251.2355
347.5631, 251.5373
348.0452, 251.8825
348.5273, 252.3494
349.0095, 252.8339
349.4916, 253.2320
349.9737, 253.5424
350.4558, 253.7623
350.9379, 253.7785
351.4200, 253.7721
351.9022, 253.9548
352.3843, 254.2494
352.8664, 254.9787
353.3485, 256.7340
353.8306, 259.1999
354.3127, 261.1089
354.7949, 262.0562
355.2770, 262.4183
355.7591, 262.4502
356.2412, 262.1404
356.7233, 262.3260
357.2054, 263.5677
357.6876, 265.4072
358.1697, 267.2817
358.6518, 269.1830
359.1339, 270.6372
359.6160, 270.7111
360.0981, 269.8110
360.5803, 270.1380
361.0624, 272.9144
361.5445, 276.2939
362.0266, 278.8850
362.5087, 280.7129
362.9908, 282.1378
363.4730, 283.1942
363.9551, 284.0796
364.4372, 285.4135
364.9193, 287.3873
365.4014, 289.4317
365.8835, 291.1212
366.3657, 292.7243
366.8478, 294.8631
367.3299, 297.7867
367.8120, 301.0933
368.2941, 304.2247
368.7762, 307.1910
369.2584, 309.9511
369.7405, 312.1686
370.2226, 314.3550
370.7047, 317.1753
371.1868, 320.6736
371.6689, 324.0465
372.1511, 326.5294
372.6332, 328.0737
373.1153, 330.0055
373.5974, 332.4939
374.0795, 335.1768
374.5616, 337.9014
375.0438, 340.6846
375.5259, 343.6159
376.0080, 346.7190
376.4901, 350.0132
376.9722, 353.5690
377.4543, 357.9585
377.9365, 361.8583
378.4186, 364.8278
378.9007, 367.3799
379.3828, 369.9411
379.8649, 372.6617
380.3470, 375.6625
380.8292, 379.1882
381.3113, 383.6889
381.7934, 387.3495
382.2755, 389.7350
382.7576, 391.7852
383.2397, 393.7781
383.7219, 395.8818
384.2040, 398.4395
384.6861, 401.8602
385.1682, 406.0142
385.6503, 408.6591
386.1324, 408.2822
386.6146, 407.9897
387.0967, 408.3886
387.5788, 409.1361
388.0609, 409.8894
388.5430, 410.4935
389.0251, 410.7301
389.5073, 410.0935
389.9894, 408.1501
390.4715, 406.1924
390.9536, 404.1946
391.4357, 402.2787
391.9178, 400.8076
392.4000, 399.6256
392.8821, 397.9659
393.3642, 395.0295
393.8463, 390.7770
394.3284, 386.2290
394.8105, 380.7733
395.2927, 375.6958
395.7748, 371.6957
396.2569, 368.3116
396.7390, 364.7592
397.2211, 360.6664
397.7032, 356.1469
398.1854, 351.3717
398.6675, 346.1081
399.1496, 341.2537
399.6317, 337.3569
400.1138, 333.7570
400.5959, 329.9872
401.0780, 325.9750
401.5602, 321.9403
402.0423, 318.1886
402.5244, 314.6836
403.0065, 310.8164
403.4886, 306.0152
403.9707, 301.6294
404.4529, 298.8302
404.9350, 297.1718
405.4171, 295.3893
405.8992, 292.8214
406.3813, 289.8939
406.8634, 287.2541
407.3456, 284.9219
407.8277, 282.6620
408.3098, 280.3697
408.7919, 278.0485
409.2740, 275.6932
409.7561, 273.2348
410.2383, 270.9048
410.7204, 268.8942
411.2025, 267.1140
411.6846, 265.3185
412.1667, 263.4755
412.6488, 261.4880
413.1310, 259.0573
413.6131, 256.1799
414.0952, 253.7694
414.5773, 251.9920
415.0594, 250.7398
415.5415, 250.2728
416.0237, 250.4487
416.5058, 250.1812
416.9879, 248.5830
417.4700, 246.0065
417.9521, 244.3931
418.4342, 244.6252
418.9164, 244.5882
419.3985, 243.4413
419.8806, 241.7531
420.3627, 240.3894
420.8448, 239.6218
421.3269, 239.0855
421.8091, 238.2240
422.2912, 236.8449
422.7733, 235.7018
423.2554, 235.0101
423.7375, 234.3505
424.2196, 233.2546
424.7018, 231.9323
425.1839, 231.1315
425.6660, 231.4729
426.1481, 232.7203
426.6302, 233.2315
427.1123, 231.4478
427.5945, 230.8792
428.0766, 233.5580
428.5587, 236.8223
429.0408, 237.7100
429.5229, 235.4359
430.0050, 231.9380
430.4872, 229.7924
430.9693, 229.1386
431.4514, 229.2816
431.9335, 231.4030
432.4156, 233.2835
432.8977, 233.9015
433.3799, 233.5379
433.8620, 233.0265
434.3441, 232.7994
434.8262, 232.8471
435.3083, 233.1411
435.7904, 233.6662
436.2726, 234.4820
436.7547, 235.8618
437.2368, 237.4157
437.7189, 238.7702
438.2010, 239.8411
438.6831, 240.9359
439.1653, 242.2732
439.6474, 243.8441
440.1295, 245.6400
440.6116, 247.6915
441.0937, 249.9029
441.5758, 252.0080
442.0580, 254.1460
442.5401, 256.8829
443.0222, 260.7936
443.5043, 265.0722
443.9864, 268.7271
444.4685, 271.8648
444.9507, 275.6594
445.4328, 280.8144
445.9149, 286.8169
446.3970, 292.3709
446.8791, 297.0674
447.3612, 302.4777
447.8434, 309.3336
448.3255, 316.9984
448.8076, 324.6571
449.2897, 332.2152
449.7718, 340.0571
450.2539, 348.4687
450.7361, 357.4835
451.2182, 367.5666
451.7003, 378.9184
452.1824, 390.9268
452.6645, 403.3116
453.1466, 416.2705
453.6288, 430.0179
454.1109, 444.6861
454.5930, 460.2201
455.0751, 476.6228
455.5572, 493.6972
456.0393, 512.1606
456.5215, 532.5082
457.0036, 553.5544
457.4857, 574.7596
457.9678, 596.0483
458.4499, 617.7618
458.9320, 640.1592
459.4142, 663.1823
459.8963, 686.7503
460.3784, 710.9552
460.8605, 735.4816
461.3426, 760.1429
461.8247, 785.3080
462.3069, 811.4167
462.7890, 838.5802
463.2711, 866.7418
463.7532, 895.8647
464.2353, 926.0486
464.7174, 956.1529
465.1996, 985.4456
465.6817, 1015.670
466.1638, 1048.629
466.6459, 1083.431
467.1280, 1117.977
467.6101, 1151.194
468.0923, 1184.055
468.5744, 1217.233
469.0565, 1250.947
469.5386, 1284.951
470.0207, 1319.565
470.5028, 1353.930
470.9850, 1386.567
471.4671, 1418.057
471.9492, 1446.472
472.4313, 1471.717
472.9134, 1493.565
473.3955, 1512.280
473.8777, 1527.671
474.3598, 1538.625
474.8419, 1544.381
475.3240, 1544.885
475.8061, 1539.124
476.2882, 1527.533
476.7704, 1510.153
477.2525, 1486.570
477.7346, 1457.333
478.2167, 1422.373
478.6988, 1381.852
479.1809, 1338.130
479.6631, 1293.290
480.1452, 1247.266
480.6273, 1201.834
481.1094, 1157.781
481.5915, 1113.715
482.0736, 1068.240
482.5558, 1022.618
483.0379, 978.8220
483.5200, 937.5751
484.0021, 898.6233
484.4842, 861.4401
484.9663, 825.8878
485.4485, 792.0198
485.9306, 759.6215
486.4127, 729.2900
486.8948, 701.8317
487.3769, 676.9045
487.8590, 653.1726
488.3412, 629.5512
488.8233, 606.7858
489.3054, 586.7214
489.7875, 569.6788
490.2696, 553.3610
490.7517, 536.6777
491.2339, 520.1563
491.7160, 504.4149
492.1981, 489.4205
492.6802, 475.5421
493.1623, 463.6325
493.6444, 452.8040
494.1266, 441.6290
494.6087, 429.8379
495.0908, 418.4432
495.5729, 408.3247
496.0550, 399.4995
496.5371, 390.6374
497.0193, 381.5838
497.5014, 372.6992
497.9835, 363.7629
498.4656, 355.1442
498.9477, 347.4287
499.4298, 340.7769
499.9120, 334.6673
500.3941, 328.4044
500.8762, 321.8564
501.3583, 315.5070
501.8404, 309.4324
502.3225, 303.4964
502.8047, 297.6071
503.2868, 291.8339
503.7689, 286.3875
504.2510, 281.3209
504.7331, 276.6712
505.2152, 272.5369
505.6974, 268.9530
506.1795, 265.6383
506.6616, 263.0385
507.1437, 260.2137
507.6258, 256.0353
508.1079, 250.8145
508.5901, 246.4418
509.0722, 244.2692
509.5543, 243.2512
510.0364, 242.0416
510.5185, 240.6265
511.0006, 238.7384
511.4828, 235.9773
511.9649, 232.9221
512.4470, 231.0105
512.9291, 230.7820
513.4112, 229.6819
513.8933, 226.2222
514.3754, 222.0893
514.8575, 219.0958
515.3397, 217.3264
515.8218, 215.8025
516.3039, 213.7678
516.7860, 211.3387
517.2681, 209.3919
517.7502, 208.5553
518.2324, 207.4256
518.7145, 205.5225
519.1966, 203.4714
519.6787, 201.8764
520.1608, 200.8224
520.6429, 199.9772
521.1251, 199.0688
521.6072, 198.0863
522.0893, 196.8129
522.5714, 194.8691
523.0535, 193.2441
523.5356, 192.5138
524.0178, 192.1320
524.4999, 191.4477
524.9820, 190.2753
525.4641, 189.0085
525.9462, 187.9807
526.4283, 187.1619
526.9105, 186.3936
527.3926, 185.6692
527.8747, 184.9702
528.3568, 184.2915
528.8389, 183.6277
529.3210, 182.9484
529.8032, 182.2164
530.2853, 181.5114
530.7674, 180.8876
531.2495, 180.3227
531.7316, 179.7649
532.2137, 179.1963
532.6959, 178.6759
533.1780, 178.3226
533.6601, 178.2268
534.1422, 177.7047
534.6243, 176.2661
535.1064, 174.9997
535.5886, 174.3907
536.0707, 174.2001
536.5528, 174.1416
537.0349, 174.0875
537.5170, 173.8286
537.9991, 172.8591
538.4813, 170.9112
538.9634, 169.6695
539.4455, 169.9668
539.9276, 170.1514
540.4097, 169.1502
540.8918, 167.5334
541.3740, 166.5331
541.8561, 166.8455
542.3382, 167.5029
542.8203, 167.3877
543.3024, 166.5458
543.7845, 165.3289
544.2667, 163.6178
544.7488, 161.9608
545.2309, 161.0374
545.7130, 160.7683
546.1951, 160.5495
546.6772, 160.4263
547.1594, 160.2049
547.6415, 159.7031
548.1236, 159.0027
548.6057, 158.2551
549.0878, 157.5152
549.5699, 156.9041
550.0521, 156.6859
550.5342, 157.1995
551.0163, 157.0495
551.4984, 155.4742
551.9805, 154.1189
552.4626, 153.7830
552.9448, 154.1808
553.4269, 154.8017
553.9090, 155.4395
554.3911, 155.8180
554.8732, 155.2738
555.3553, 153.6069
555.8375, 152.3806
556.3196, 151.9774
556.8017, 151.8644
557.2838, 151.6877
557.7659, 151.4988
558.2480, 151.4660
558.7302, 151.7798
559.2123, 152.1178
559.6944, 152.1882
560.1765, 152.0058
560.6586, 151.5951
561.1407, 150.9212
561.6229, 150.1510
562.1050, 149.3933
562.5871, 148.6022
563.0692, 148.3980
563.5513, 149.5917
564.0334, 150.5663
564.5156, 150.3402
564.9977, 149.3403
565.4798, 148.3134
565.9619, 147.5688
566.4440, 147.0963
566.9261, 146.9108
567.4083, 147.0800
567.8904, 147.2609
568.3725, 147.5667
568.8546, 147.7601
569.3367, 147.5164
569.8188, 147.1673
570.3010, 147.2879
570.7831, 148.1387
571.2652, 149.2625
571.7473, 150.3521
572.2294, 151.3348
572.7115, 151.5422
573.1937, 150.6386
573.6758, 149.5157
574.1579, 148.9063
574.6400, 148.6962
575.1221, 148.4326
575.6042, 147.9272
576.0864, 147.5269
576.5685, 147.4881
577.0506, 147.6461
577.5327, 147.7314
578.0148, 147.6771
578.4969, 147.5672
578.9791, 147.4758
579.4612, 147.3988
579.9433, 147.4568
580.4254, 147.8914
580.9075, 148.1770
581.3896, 148.1604
581.8718, 147.9777
582.3539, 147.7778
582.8360, 147.5943
583.3181, 147.3686
583.8002, 147.0175
584.2823, 146.5592
584.7645, 146.1220
585.2466, 145.6760
585.7287, 145.3376
586.2108, 145.3175
586.6929, 145.3652
587.1750, 145.0128
587.6572, 144.0501
588.1393, 143.4683
588.6214, 144.1296
589.1035, 145.2217
589.5856, 145.6476
590.0677, 145.3421
590.5499, 144.8297
591.0320, 144.4208
591.5141, 144.1032
591.9962, 143.8372
592.4783, 143.6301
592.9604, 143.4736
593.4426, 143.3903
593.9247, 143.3397
594.4068, 143.3598
594.8889, 143.3949
595.3710, 143.2736
595.8531, 142.8392
596.3353, 142.2780
596.8174, 142.0266
597.2995, 142.1183
597.7816, 142.3847
598.2637, 143.1581
598.7458, 143.6803
599.2280, 143.1204
599.7101, 141.6884
600.1922, 140.5289
600.6743, 139.9926
601.1564, 139.8758
601.6385, 140.2005
602.1207, 140.8144
602.6028, 141.2680
603.0849, 141.4053
603.5670, 141.3941
604.0491, 141.4543
604.5313, 141.6196
605.0134, 141.6383
605.4955, 141.3110
605.9776, 141.0857
606.4597, 141.2970
606.9418, 141.6091
607.4240, 141.5306
607.9061, 140.9453
608.3882, 140.2384
608.8703, 139.7715
609.3524, 139.5488
609.8345, 139.7171
610.3167, 140.5244
610.7988, 141.1098
611.2809, 140.7658
611.7630, 140.0751
