##NAMES=Polylithionite
##RRUFFID=R050132
##IDEAL CHEMISTRY=KLi_2_AlSi_4_O_10_F_2_
##LOCALITY=Brown Derby mine, Ohio City, Gunnison County, Colorado, USA
##OWNER=RRUFF
##SOURCE=Dave Bunk Minerals
##DESCRIPTION=Purple scaly aggregate, polytype 2M1
##STATUS=The identification of this mineral has been confirmed by X-ray diffraction and chemical analysis
##URL=rruff.info/R050132
##MEASURED CHEMISTRY=(K_0.90_Rb_0.10_)(Li_0.62_Al_0.38_)_3_(Si_0.93_Al_0.07_)_4_O_10_(F_0.69_(OH)_0.31_)_2_
93.08527, 0.0000000E+00
93.56738, 585.3282
94.04950, 577.8820
94.53162, 578.0882
95.01373, 580.2377
95.49585, 586.9690
95.97797, 595.1769
96.46008, 601.9678
96.94220, 608.7840
97.42432, 612.8370
97.90643, 613.7491
98.38855, 612.5292
98.87067, 609.5114
99.35278, 605.0059
99.83490, 599.5321
100.3170, 593.8846
100.7991, 586.7001
101.2813, 579.5368
101.7634, 573.0629
102.2455, 566.5074
102.7276, 558.6010
103.2097, 548.4853
103.6918, 536.7877
104.1740, 527.3616
104.6561, 521.0281
105.1382, 515.2859
105.6203, 509.1213
106.1024, 502.6083
106.5845, 496.3436
107.0667, 490.6963
107.5488, 485.6111
108.0309, 480.5545
108.5130, 475.3563
108.9951, 470.1881
109.4772, 465.2368
109.9594, 460.4631
110.4415, 455.9278
110.9236, 451.5446
111.4057, 447.3645
111.8878, 443.5816
112.3699, 440.3696
112.8521, 437.6604
113.3342, 435.1515
113.8163, 433.1097
114.2984, 430.9727
114.7805, 428.2420
115.2626, 425.1104
115.7448, 422.2788
116.2269, 420.6143
116.7090, 420.6885
117.1911, 419.9187
117.6732, 417.7830
118.1553, 415.3233
118.6375, 413.0254
119.1196, 411.0250
119.6017, 409.2228
120.0838, 407.4754
120.5659, 405.7311
121.0480, 404.1442
121.5302, 402.8911
122.0123, 401.7283
122.4944, 400.4149
122.9765, 398.8641
123.4586, 397.0865
123.9407, 395.0511
124.4228, 392.5451
124.9050, 390.2307
125.3871, 388.5309
125.8692, 387.2625
126.3513, 385.7685
126.8334, 383.6779
127.3155, 381.2008
127.7977, 378.8778
128.2798, 376.9360
128.7619, 374.8130
129.2440, 371.6032
129.7261, 367.0331
130.2083, 363.2240
130.6904, 361.7782
131.1725, 361.4431
131.6546, 361.2436
132.1367, 360.9855
132.6188, 360.4852
133.1010, 359.2049
133.5831, 356.5484
134.0652, 354.0517
134.5473, 351.8862
135.0294, 350.1654
135.5115, 349.1200
135.9937, 349.0392
136.4758, 349.8145
136.9579, 349.7186
137.4400, 347.6161
137.9221, 345.6979
138.4042, 344.6205
138.8864, 344.2079
139.3685, 343.8681
139.8506, 343.0385
140.3327, 341.5619
140.8148, 340.8932
141.2969, 341.9695
141.7791, 342.9512
142.2612, 342.5020
142.7433, 340.6317
143.2254, 338.6405
143.7075, 338.0067
144.1896, 339.0237
144.6718, 339.7755
145.1539, 340.1918
145.6360, 340.2865
146.1181, 339.8559
146.6002, 338.7099
147.0823, 337.6776
147.5645, 338.2224
148.0466, 340.1093
148.5287, 341.3655
149.0108, 340.5587
149.4929, 338.3885
149.9750, 337.2192
150.4572, 337.9806
150.9393, 339.2849
151.4214, 339.9068
151.9035, 339.8784
152.3856, 339.7451
152.8677, 339.8536
153.3499, 340.1978
153.8320, 340.8676
154.3141, 342.4374
154.7962, 343.9704
155.2783, 344.8754
155.7604, 345.1166
156.2425, 345.1972
156.7247, 345.7959
157.2068, 347.1344
157.6889, 348.4966
158.1710, 349.7422
158.6531, 351.0474
159.1352, 352.5708
159.6174, 354.3460
160.0995, 356.2617
160.5816, 358.0477
161.0637, 359.0273
161.5458, 360.8642
162.0279, 364.5084
162.5101, 368.6231
162.9922, 371.6364
163.4743, 372.8547
163.9564, 373.0214
164.4385, 374.3309
164.9206, 377.3617
165.4028, 380.6744
165.8849, 384.1888
166.3670, 387.8151
166.8491, 391.4512
167.3312, 395.0529
167.8133, 398.5791
168.2955, 401.8842
168.7776, 404.6812
169.2597, 407.6714
169.7418, 411.0607
170.2239, 414.8728
170.7060, 419.2881
171.1882, 424.8340
171.6703, 430.8795
172.1524, 436.1259
172.6345, 440.0045
173.1166, 443.8297
173.5987, 449.0459
174.0809, 455.8529
174.5630, 462.3933
175.0451, 467.2163
175.5272, 471.4792
176.0093, 476.4707
176.4914, 482.9246
176.9736, 489.5533
177.4557, 494.0831
177.9378, 495.6427
178.4199, 497.2014
178.9020, 500.4414
179.3841, 503.9656
179.8663, 506.3484
180.3484, 506.8955
180.8305, 505.9702
181.3126, 504.6431
181.7947, 502.8527
182.2768, 500.6582
182.7590, 498.4547
183.2411, 495.8087
183.7232, 492.0757
184.2053, 486.8355
184.6874, 480.3233
185.1695, 474.1343
185.6517, 468.1800
186.1338, 462.6887
186.6159, 458.0080
187.0980, 453.7842
187.5801, 449.4040
188.0622, 444.3809
188.5444, 438.8559
189.0265, 434.5879
189.5086, 431.7031
189.9907, 429.6908
190.4728, 428.6200
190.9549, 428.3344
191.4371, 428.4971
191.9192, 428.8774
192.4013, 429.5157
192.8834, 430.6756
193.3655, 432.3650
193.8476, 434.4738
194.3298, 437.3312
194.8119, 440.7575
195.2940, 443.7578
195.7761, 445.6139
196.2582, 446.3555
196.7403, 447.0089
197.2225, 448.0787
197.7046, 448.7040
198.1867, 448.0816
198.6688, 446.1861
199.1509, 443.8419
199.6330, 441.6218
200.1152, 439.3128
200.5973, 436.4451
201.0794, 432.7569
201.5615, 428.5826
202.0436, 424.1499
202.5257, 419.3461
203.0079, 414.8678
203.4900, 411.3061
203.9721, 408.2815
204.4542, 405.3720
204.9363, 402.4019
205.4184, 399.5060
205.9006, 396.8985
206.3827, 394.5652
206.8648, 392.6220
207.3469, 391.3418
207.8290, 390.3682
208.3111, 389.1841
208.7933, 387.3838
209.2754, 385.3842
209.7575, 384.4223
210.2396, 384.8535
210.7217, 385.9042
211.2038, 387.5881
211.6860, 389.5801
212.1681, 391.6696
212.6502, 393.8769
213.1323, 395.8790
213.6144, 396.1375
214.0965, 393.0634
214.5787, 390.0771
215.0608, 388.1904
215.5429, 386.6992
216.0250, 384.6225
216.5071, 381.3602
216.9892, 377.0903
217.4714, 372.7582
217.9535, 368.1678
218.4356, 363.7072
218.9177, 359.4136
219.3998, 355.3002
219.8819, 351.3382
220.3641, 347.4785
220.8462, 343.7797
221.3283, 340.7194
221.8104, 338.8071
222.2925, 336.9169
222.7746, 334.2491
223.2568, 331.4834
223.7389, 329.9852
224.2210, 330.6502
224.7031, 333.0231
225.1852, 334.5470
225.6673, 334.6093
226.1495, 334.7079
226.6316, 335.0909
227.1137, 335.8134
227.5958, 336.9945
228.0779, 338.7111
228.5600, 340.9218
229.0422, 343.3732
229.5243, 345.9213
230.0064, 348.8244
230.4885, 352.4803
230.9706, 356.6199
231.4527, 360.4235
231.9349, 363.2903
232.4170, 365.7963
232.8991, 369.4492
233.3812, 374.7737
233.8633, 380.1327
234.3454, 384.2334
234.8276, 387.4879
235.3097, 391.7344
235.7918, 398.1035
236.2739, 405.5327
236.7560, 411.9500
237.2381, 416.8542
237.7203, 422.2084
238.2024, 429.6233
238.6845, 438.8094
239.1666, 447.6234
239.6487, 454.8427
240.1308, 461.9000
240.6130, 470.3731
241.0951, 480.4356
241.5772, 491.1916
242.0593, 502.5943
242.5414, 514.5314
243.0235, 525.1951
243.5057, 532.8136
243.9878, 540.1149
244.4699, 549.7178
244.9520, 561.7970
245.4341, 573.8056
245.9162, 583.4710
246.3984, 590.8073
246.8805, 598.1381
247.3626, 605.4533
247.8447, 613.2430
248.3268, 621.9059
248.8089, 631.3796
249.2911, 641.1069
249.7732, 650.3304
250.2553, 658.9958
250.7374, 668.6364
251.2195, 679.8633
251.7016, 691.7148
252.1838, 703.7585
252.6659, 715.9706
253.1480, 728.7543
253.6301, 742.2493
254.1122, 756.5024
254.5943, 771.5560
255.0765, 787.6922
255.5586, 804.5411
256.0407, 821.8330
256.5228, 839.7740
257.0049, 858.7861
257.4870, 879.3190
257.9691, 901.3906
258.4513, 924.0084
258.9334, 949.7610
259.4155, 973.6867
259.8976, 994.4664
260.3797, 1012.287
260.8618, 1028.041
261.3440, 1042.664
261.8261, 1056.071
262.3082, 1064.302
262.7903, 1066.780
263.2724, 1063.912
263.7545, 1055.458
264.2367, 1041.604
264.7188, 1022.240
265.2009, 997.1265
265.6830, 966.6884
266.1651, 935.3012
266.6472, 902.3287
267.1294, 868.8271
267.6115, 834.2197
268.0936, 799.3106
268.5757, 764.8288
269.0578, 731.1599
269.5399, 698.5969
270.0221, 668.7323
270.5042, 643.3661
270.9863, 619.0146
271.4684, 595.1650
271.9505, 572.1995
272.4326, 550.5840
272.9148, 530.4232
273.3969, 511.7847
273.8790, 494.9209
274.3611, 480.5209
274.8432, 467.2225
275.3253, 455.3480
275.8075, 444.3764
276.2896, 433.5698
276.7717, 422.6570
277.2538, 412.0583
277.7359, 402.4667
278.2180, 394.0230
278.7002, 386.5833
279.1823, 380.7032
279.6644, 375.5772
280.1465, 370.4501
280.6286, 365.1482
281.1107, 359.8634
281.5929, 354.8841
282.0750, 350.1529
282.5571, 345.9921
283.0392, 342.5883
283.5213, 339.6110
284.0034, 336.8797
284.4856, 334.3339
284.9677, 331.8427
285.4498, 329.2577
285.9319, 326.5450
286.4140, 323.9351
286.8961, 321.6092
287.3783, 319.2414
287.8604, 316.3017
288.3425, 312.9207
288.8246, 310.1131
289.3067, 308.9865
289.7888, 309.5757
290.2710, 308.9521
290.7531, 306.1616
291.2352, 303.1275
291.7173, 300.7867
292.1994, 299.1374
292.6815, 297.9072
293.1637, 297.0063
293.6458, 296.3650
294.1279, 295.5281
294.6100, 294.1026
295.0921, 292.9127
295.5742, 292.6161
296.0564, 292.8647
296.5385, 292.5889
297.0206, 291.0557
297.5027, 288.9229
297.9848, 288.3094
298.4669, 290.1150
298.9491, 291.5638
299.4312, 291.7456
299.9133, 290.9770
300.3954, 289.8055
300.8775, 288.3719
301.3596, 286.7655
301.8418, 285.0387
302.3239, 282.9428
302.8060, 281.5061
303.2881, 281.4994
303.7702, 282.1172
304.2523, 282.1558
304.7345, 281.2936
305.2166, 280.1983
305.6987, 279.8281
306.1808, 280.2689
306.6629, 280.2652
307.1451, 279.4482
307.6272, 278.2138
308.1093, 276.9203
308.5914, 275.6152
309.0735, 274.2856
309.5556, 272.8194
310.0378, 271.2668
310.5199, 270.1899
311.0020, 269.9406
311.4841, 269.9400
311.9662, 269.6870
312.4483, 269.2084
312.9305, 268.9782
313.4126, 269.5001
313.8947, 270.4787
314.3768, 270.6103
314.8589, 269.4201
315.3410, 267.9229
315.8232, 266.3865
316.3053, 264.9139
316.7874, 263.8960
317.2695, 263.5508
317.7516, 263.7329
318.2337, 264.1527
318.7159, 265.0651
319.1980, 265.6177
319.6801, 265.1851
320.1622, 264.2036
320.6443, 263.6066
321.1264, 263.7531
321.6086, 264.1254
322.0907, 263.8577
322.5728, 262.9001
323.0549, 261.9641
323.5370, 260.9441
324.0191, 260.1323
324.5013, 260.1357
324.9834, 261.1037
325.4655, 262.0812
325.9476, 262.0756
326.4297, 261.0628
326.9118, 259.9583
327.3940, 258.8102
327.8761, 257.6160
328.3582, 256.3544
328.8403, 255.0368
329.3224, 253.7314
329.8045, 252.4635
330.2867, 251.2583
330.7688, 250.1847
331.2509, 249.1963
331.7330, 248.3757
332.2151, 248.0624
332.6972, 248.0075
333.1794, 247.3309
333.6615, 245.4520
334.1436, 242.8984
334.6257, 241.1261
335.1078, 240.4087
335.5899, 239.7314
336.0721, 238.7388
336.5542, 237.5982
337.0363, 236.5327
337.5184, 235.5767
338.0005, 234.8729
338.4826, 234.7921
338.9648, 235.6224
339.4469, 235.7729
339.9290, 234.5284
340.4111, 232.8284
340.8932, 231.6504
341.3753, 231.1158
341.8575, 230.5924
342.3396, 229.4419
342.8217, 227.5884
343.3038, 226.1155
343.7859, 224.8992
344.2680, 224.1504
344.7502, 224.0701
345.2323, 224.5909
345.7144, 225.5839
346.1965, 227.1608
346.6786, 229.0493
347.1607, 229.5557
347.6429, 227.5350
348.1250, 225.7986
348.6071, 225.0866
349.0892, 225.1658
349.5713, 225.7494
350.0534, 226.7575
350.5356, 227.9548
351.0177, 228.8715
351.4998, 229.2350
351.9819, 229.8291
352.4640, 230.7592
352.9461, 231.9025
353.4283, 233.3237
353.9104, 234.9738
354.3925, 236.3757
354.8746, 236.8552
355.3567, 236.0150
355.8388, 236.4268
356.3210, 238.9096
356.8031, 241.7319
357.2852, 244.0418
357.7673, 245.8711
358.2494, 247.6624
358.7315, 249.7560
359.2137, 252.0782
359.6958, 253.7366
360.1779, 254.1567
360.6600, 254.6248
361.1421, 255.2886
361.6242, 256.1879
362.1064, 257.3531
362.5885, 258.7920
363.0706, 260.5054
363.5527, 262.5039
364.0348, 265.2815
364.5169, 267.5978
364.9991, 269.1223
365.4812, 270.4369
365.9633, 271.8409
366.4454, 273.4594
366.9275, 275.4649
367.4096, 278.1711
367.8918, 281.8268
368.3739, 284.8061
368.8560, 286.4979
369.3381, 288.1725
369.8202, 290.2796
370.3023, 292.7695
370.7845, 295.3866
371.2666, 297.9542
371.7487, 300.5351
372.2308, 303.5023
372.7129, 307.0851
373.1950, 310.7868
373.6772, 314.8961
374.1593, 318.8996
374.6414, 322.0554
375.1235, 324.1356
375.6056, 325.8568
376.0877, 328.5014
376.5699, 332.5150
377.0520, 336.2157
377.5341, 339.1109
378.0162, 341.9633
378.4983, 345.3558
378.9804, 349.1988
379.4626, 352.8662
379.9447, 355.8341
380.4268, 358.1064
380.9089, 359.9166
381.3910, 360.8804
381.8731, 361.8461
382.3553, 362.8022
382.8374, 364.0299
383.3195, 366.0765
383.8016, 369.4076
384.2837, 373.3360
384.7658, 376.4647
385.2480, 378.6159
385.7301, 380.5053
386.2122, 382.0468
386.6943, 383.5808
387.1764, 385.3333
387.6585, 387.3488
388.1407, 389.6316
388.6228, 392.2171
389.1049, 395.1024
389.5870, 398.1602
390.0691, 401.6635
390.5512, 404.9164
391.0334, 407.2599
391.5155, 408.9155
391.9976, 410.7291
392.4797, 413.1739
392.9618, 416.0029
393.4439, 418.6969
393.9261, 421.1871
394.4082, 423.9701
394.8903, 427.6628
395.3724, 431.7337
395.8545, 435.2523
396.3366, 437.8646
396.8188, 440.4056
397.3009, 443.7977
397.7830, 447.7534
398.2651, 450.9831
398.7472, 452.8848
399.2293, 454.2017
399.7115, 455.9154
400.1936, 458.0066
400.6757, 460.2429
401.1578, 463.0952
401.6399, 465.7982
402.1220, 467.3369
402.6042, 467.5934
403.0863, 467.0682
403.5684, 465.9700
404.0505, 464.3568
404.5326, 463.0363
405.0147, 462.6488
405.4969, 461.9150
405.9790, 460.1440
406.4611, 457.5402
406.9432, 454.6560
407.4253, 451.7231
407.9074, 448.5895
408.3896, 444.9115
408.8717, 440.5620
409.3538, 435.8686
409.8359, 430.3308
410.3180, 424.7635
410.8001, 420.3377
411.2823, 417.0023
411.7644, 413.1950
412.2465, 407.1998
412.7286, 398.6556
413.2107, 391.7008
413.6928, 387.4984
414.1750, 383.3467
414.6571, 378.3011
415.1392, 372.6601
415.6213, 367.0598
416.1034, 361.8170
416.5855, 356.8527
417.0677, 351.9185
417.5498, 346.6334
418.0319, 342.1036
418.5140, 339.0028
418.9961, 336.1430
419.4782, 332.4477
419.9604, 327.9334
420.4425, 323.5923
420.9246, 320.6396
421.4067, 319.1710
421.8888, 316.8083
422.3709, 312.5210
422.8531, 308.5351
423.3352, 305.5627
423.8173, 303.3625
424.2994, 301.5851
424.7815, 300.1910
425.2636, 298.8087
425.7458, 296.4784
426.2279, 292.7553
426.7100, 290.0059
427.1921, 289.9164
427.6742, 290.3298
428.1563, 289.5226
428.6385, 287.4065
429.1206, 285.3947
429.6027, 284.7345
430.0848, 285.0280
430.5669, 284.7100
431.0490, 283.3707
431.5312, 282.1606
432.0133, 282.4423
432.4954, 283.4238
432.9775, 283.4931
433.4596, 281.6479
433.9417, 279.4946
434.4239, 278.5799
434.9060, 278.7124
435.3881, 278.7462
435.8702, 278.2356
436.3523, 277.4389
436.8344, 276.8521
437.3166, 276.5640
437.7987, 275.9794
438.2808, 274.7002
438.7629, 273.1752
439.2450, 271.9700
439.7271, 271.1342
440.2093, 270.2720
440.6914, 269.0249
441.1735, 267.4250
441.6556, 266.0780
442.1377, 265.2141
442.6198, 264.3114
443.1020, 263.0584
443.5841, 261.6785
444.0662, 260.5450
444.5483, 259.7905
445.0304, 259.3045
445.5125, 258.9411
445.9947, 259.0695
446.4768, 258.4201
446.9589, 256.2814
447.4410, 254.0865
447.9231, 252.5967
448.4052, 251.7985
448.8874, 251.4230
449.3695, 251.3657
449.8516, 251.4836
450.3337, 250.8664
450.8158, 248.8633
451.2979, 247.1233
451.7801, 246.0113
452.2622, 245.2412
452.7443, 244.5360
453.2264, 243.8278
453.7085, 243.2826
454.1906, 243.2426
454.6728, 243.7361
455.1549, 243.7518
455.6370, 242.8823
456.1191, 241.9479
456.6012, 241.1965
457.0833, 240.7310
457.5655, 240.8464
458.0476, 242.0548
458.5297, 243.4817
459.0118, 243.6517
459.4939, 242.5232
459.9760, 241.7414
460.4582, 242.2982
460.9403, 243.1377
461.4224, 242.6330
461.9045, 240.6015
462.3866, 238.9156
462.8687, 238.4729
463.3508, 238.7909
463.8329, 239.2772
464.3151, 239.8592
464.7972, 240.2861
465.2793, 240.2798
465.7614, 239.9253
466.2435, 239.9214
466.7256, 240.6504
467.2078, 241.2712
467.6899, 241.4918
468.1720, 241.4026
468.6541, 241.0238
469.1362, 240.3694
469.6183, 239.8072
470.1005, 239.8989
470.5826, 240.8776
471.0647, 241.7757
471.5468, 242.5551
472.0289, 243.3041
472.5110, 244.2322
472.9932, 245.1614
473.4753, 245.6684
473.9574, 245.4756
474.4395, 244.8088
474.9216, 244.3724
475.4037, 244.2809
475.8859, 244.1973
476.3680, 244.1825
476.8501, 244.0820
477.3322, 243.7722
477.8143, 243.2515
478.2964, 242.6205
478.7786, 242.0669
479.2607, 241.5090
479.7428, 240.4499
480.2249, 238.8120
480.7070, 236.8200
481.1891, 234.1388
481.6713, 231.3192
482.1534, 229.1754
482.6355, 228.0512
483.1176, 227.0038
483.5997, 225.1745
484.0818, 222.7472
484.5640, 220.3755
485.0461, 218.1535
485.5282, 216.1653
486.0103, 214.7187
486.4924, 213.7172
486.9745, 212.2123
487.4567, 209.3545
487.9388, 206.5985
488.4209, 205.1114
488.9030, 204.6025
489.3851, 204.1403
489.8672, 203.3376
490.3494, 202.2355
490.8315, 200.9053
491.3136, 199.2953
491.7957, 197.5135
492.2778, 195.0761
492.7599, 192.8492
493.2421, 191.7087
493.7242, 191.4063
494.2063, 190.8662
494.6884, 189.2193
495.1705, 186.8089
495.6526, 185.5225
496.1348, 186.5420
496.6169, 186.7895
497.0990, 185.2914
497.5811, 183.2861
498.0632, 181.7453
498.5453, 180.8432
499.0275, 180.2321
499.5096, 179.6986
499.9917, 179.2141
500.4738, 178.4301
500.9559, 177.0840
501.4380, 175.9714
501.9202, 175.7053
502.4023, 175.8417
502.8844, 175.7752
503.3665, 175.3040
503.8486, 174.8126
504.3307, 174.6795
504.8129, 174.7947
505.2950, 174.6878
505.7771, 174.1523
506.2592, 173.7678
506.7413, 174.3416
507.2234, 175.7918
507.7056, 176.5912
508.1877, 176.1291
508.6698, 175.4706
509.1519, 175.1491
509.6340, 175.1120
510.1161, 175.2573
510.5983, 175.5596
511.0804, 175.8274
511.5625, 175.6732
512.0446, 174.6643
512.5267, 174.3774
513.0089, 175.4231
513.4910, 176.5323
513.9731, 177.1348
514.4552, 177.2437
514.9373, 176.9963
515.4194, 176.4279
515.9016, 175.7437
516.3837, 175.4887
516.8658, 175.7387
517.3479, 176.2168
517.8300, 177.0149
518.3121, 177.9288
518.7943, 179.0377
519.2764, 180.2200
519.7585, 180.9779
520.2406, 180.7020
520.7227, 179.8926
521.2048, 179.6119
521.6870, 179.8889
522.1691, 180.5065
522.6512, 181.6161
523.1333, 182.8407
523.6154, 183.5174
524.0975, 183.4974
524.5797, 183.6308
525.0618, 184.4681
525.5439, 185.5203
526.0260, 186.0341
526.5081, 185.9982
526.9902, 186.1735
527.4724, 187.1991
527.9545, 188.8622
528.4366, 189.8354
528.9187, 189.4194
529.4008, 189.2766
529.8829, 189.6878
530.3651, 190.4218
530.8472, 191.3754
531.3293, 192.4612
531.8114, 193.4320
532.2935, 193.9876
532.7756, 194.1648
533.2578, 194.7946
533.7399, 196.4526
534.2220, 197.6738
534.7041, 197.5724
535.1862, 197.1563
535.6683, 197.5240
536.1505, 198.9138
536.6326, 200.5912
537.1147, 201.8217
537.5968, 202.7445
538.0789, 204.0738
538.5610, 206.0378
539.0432, 207.8699
539.5253, 208.9585
540.0074, 209.5745
540.4895, 210.3456
540.9716, 211.3454
541.4537, 212.4677
541.9359, 213.7267
542.4180, 215.0469
542.9001, 216.2649
543.3822, 217.3496
543.8643, 218.4734
544.3464, 219.8421
544.8286, 221.4684
545.3107, 222.8748
545.7928, 223.4028
546.2749, 224.5272
546.7570, 227.3064
547.2391, 230.5783
547.7213, 232.8478
548.2034, 233.7619
548.6855, 234.2511
549.1676, 235.4399
549.6497, 237.3793
550.1318, 239.2225
550.6140, 241.0199
551.0961, 242.6448
551.5782, 243.7574
552.0603, 244.8063
552.5424, 246.5277
553.0245, 249.2519
553.5067, 251.8507
553.9888, 252.9646
554.4709, 253.0456
554.9530, 253.9604
555.4351, 256.1761
555.9172, 258.4473
556.3994, 259.8455
556.8815, 260.4272
557.3636, 260.7615
557.8457, 260.3377
558.3278, 260.2734
558.8099, 261.6596
559.2921, 263.4408
559.7742, 263.8155
560.2563, 262.4614
560.7384, 260.8671
561.2205, 260.6849
561.7026, 261.9936
562.1848, 262.7090
562.6669, 262.5384
563.1490, 262.0785
563.6311, 261.3690
564.1132, 260.4572
564.5953, 259.3781
565.0775, 258.1403
565.5596, 256.7606
566.0417, 255.3183
566.5238, 253.7867
567.0059, 251.8269
567.4880, 249.3042
567.9702, 246.6615
568.4523, 244.0263
568.9344, 241.4614
569.4165, 239.1236
569.8986, 237.1075
570.3807, 235.0391
570.8629, 232.6919
571.3450, 230.1710
571.8271, 227.7228
572.3092, 225.3623
572.7913, 222.8223
573.2734, 219.7754
573.7556, 216.3608
574.2377, 213.5102
574.7198, 211.4899
575.2019, 209.6382
575.6840, 208.2045
576.1661, 206.6878
576.6483, 204.2760
577.1304, 201.1441
577.6125, 198.5529
578.0946, 197.7444
578.5767, 198.3019
579.0588, 197.8717
579.5410, 196.1058
580.0231, 194.1432
580.5052, 191.9394
580.9873, 189.9015
581.4694, 188.3895
581.9515, 187.4279
582.4337, 186.7457
582.9158, 186.5954
583.3979, 186.4524
583.8800, 185.2671
584.3621, 183.0649
584.8442, 180.9899
585.3264, 179.4533
585.8085, 178.5411
586.2906, 178.6209
586.7727, 180.2387
587.2548, 181.1115
