##NAMES=Polylithionite
##RRUFFID=R060215
##IDEAL CHEMISTRY=KLi_2_AlSi_4_O_10_F_2_
##LOCALITY=Mont Saint-Hilaire, Rouville County, Quebec, Canada
##OWNER=RRUFF
##SOURCE=Royal Ontario Museum
##DESCRIPTION=Tan to colorless micaceous fragment
##STATUS=The identification of this mineral has been confirmed by X-ray diffraction and chemical analysis
##URL=rruff.info/R060215
##MEASURED CHEMISTRY=(K_0.99_Na_0.01_)Li_2.00_(Al_0.88_Ti_0.06_Mg_0.06_)Si_4.00_O_10_(F_0.89_(OH)_0.11_)_2_
92.07813, 19.32864
92.56024, 19.78883
93.04236, 19.47929
93.52448, 18.58602
94.00659, 17.79693
94.48871, 17.53800
94.97083, 17.67900
95.45294, 17.92426
95.93506, 18.31302
96.41718, 18.65117
96.89929, 18.54032
97.38141, 17.97669
97.86353, 17.30723
98.34564, 16.67052
98.82776, 16.08734
99.30988, 15.82617
99.79199, 16.05070
100.2741, 16.58940
100.7562, 16.74419
101.2383, 16.40849
101.7205, 15.98453
102.2026, 15.87516
102.6847, 16.19338
103.1668, 16.38297
103.6489, 16.26134
104.1310, 15.81749
104.6132, 15.63454
105.0953, 15.85095
105.5774, 16.19946
106.0595, 16.32338
106.5416, 15.98717
107.0237, 15.79397
107.5059, 15.97682
107.9880, 16.78526
108.4701, 17.18028
108.9522, 16.85538
109.4343, 16.17716
109.9164, 15.80573
110.3986, 16.16710
110.8807, 16.48340
111.3628, 16.51680
111.8449, 16.09822
112.3270, 15.66328
112.8091, 15.09594
113.2913, 14.51009
113.7734, 14.21665
114.2555, 14.48009
114.7376, 14.90526
115.2197, 15.28071
115.7018, 15.53179
116.1840, 15.77514
116.6661, 16.03977
117.1482, 16.32106
117.6303, 16.59384
118.1124, 16.73173
118.5945, 16.91282
119.0767, 17.28687
119.5588, 17.80573
120.0409, 18.60715
120.5230, 19.92167
121.0051, 21.71443
121.4872, 23.43237
121.9694, 24.60820
122.4515, 25.51634
122.9336, 26.54163
123.4157, 27.68057
123.8978, 29.08603
124.3799, 30.94002
124.8621, 33.26530
125.3442, 35.83412
125.8263, 38.80994
126.3084, 41.92398
126.7905, 44.52876
127.2726, 45.96334
127.7548, 46.74442
128.2369, 47.68534
128.7190, 48.86826
129.2011, 50.12798
129.6832, 51.15452
130.1653, 52.00670
130.6474, 53.09413
131.1296, 54.75113
131.6117, 56.84851
132.0938, 59.01644
132.5759, 61.25024
133.0580, 63.48247
133.5401, 65.40691
134.0223, 67.01630
134.5044, 68.87312
134.9865, 71.47680
135.4686, 74.83300
135.9507, 78.07120
136.4328, 80.89634
136.9150, 83.68328
137.3971, 87.96268
137.8792, 94.18068
138.3613, 100.2629
138.8434, 104.3355
139.3255, 106.0437
139.8077, 107.6753
140.2898, 109.7168
140.7719, 112.0636
141.2540, 113.7928
141.7361, 114.5404
142.2182, 115.2387
142.7004, 116.8727
143.1825, 119.8238
143.6646, 122.7506
144.1467, 125.2882
144.6288, 127.4393
145.1109, 129.6871
145.5931, 132.0117
146.0752, 134.4637
146.5573, 137.1582
147.0394, 140.1603
147.5215, 143.2954
148.0036, 146.5038
148.4858, 149.8964
148.9679, 153.1026
149.4500, 155.8855
149.9321, 158.5676
150.4142, 161.5591
150.8963, 164.4836
151.3785, 168.1324
151.8606, 172.9012
152.3427, 179.8218
152.8248, 185.6358
153.3069, 189.4794
153.7890, 192.2812
154.2712, 195.0640
154.7533, 197.4372
155.2354, 199.9884
155.7175, 202.6362
156.1996, 205.4307
156.6817, 208.1013
157.1639, 210.5970
157.6460, 212.9578
158.1281, 215.2080
158.6102, 216.5414
159.0923, 218.3457
159.5744, 221.3722
160.0566, 226.2922
160.5387, 231.4490
161.0208, 236.4377
161.5029, 241.3066
161.9850, 246.1854
162.4671, 251.1094
162.9493, 256.0768
163.4314, 261.0687
163.9135, 265.8937
164.3956, 270.9939
164.8777, 276.7184
165.3598, 282.9551
165.8420, 289.2426
166.3241, 295.3149
166.8062, 301.3575
167.2883, 307.5513
167.7704, 314.2815
168.2525, 320.8268
168.7346, 326.7202
169.2168, 332.0370
169.6989, 337.2664
170.1810, 342.5671
170.6631, 347.9814
171.1452, 353.5715
171.6273, 358.9322
172.1095, 364.7307
172.5916, 371.6929
173.0737, 379.7575
173.5558, 388.2422
174.0379, 397.0967
174.5201, 405.9562
175.0022, 414.3926
175.4843, 422.2571
175.9664, 429.6715
176.4485, 437.2437
176.9306, 445.0243
177.4128, 450.8297
177.8949, 452.6244
178.3770, 451.0425
178.8591, 447.5217
179.3412, 443.0731
179.8233, 436.8807
180.3055, 427.3665
180.7876, 414.3807
181.2697, 399.5215
181.7518, 383.2907
182.2339, 366.2241
182.7160, 349.4640
183.1982, 333.4331
183.6803, 318.1809
184.1624, 303.8073
184.6445, 290.3268
185.1266, 278.1147
185.6087, 267.7997
186.0909, 259.1539
186.5730, 251.5467
187.0551, 244.6314
187.5372, 238.4979
188.0193, 233.3427
188.5014, 229.2692
188.9836, 225.8036
189.4657, 222.1927
189.9478, 218.5052
190.4299, 215.1922
190.9120, 212.7158
191.3941, 210.9065
191.8763, 208.6690
192.3584, 205.8515
192.8405, 203.0315
193.3226, 201.0693
193.8047, 199.9782
194.2868, 198.9243
194.7690, 197.6057
195.2511, 196.0232
195.7332, 193.9659
196.2153, 191.2667
196.6974, 188.4641
197.1795, 186.5244
197.6617, 185.4634
198.1438, 184.8804
198.6259, 184.9351
199.1080, 185.6277
199.5901, 185.3173
200.0722, 183.7201
200.5544, 181.5049
201.0365, 179.8486
201.5186, 178.7708
202.0007, 178.0334
202.4828, 177.5399
202.9649, 177.2876
203.4471, 177.3423
203.9292, 177.8377
204.4113, 178.4721
204.8934, 178.6098
205.3755, 178.1456
205.8576, 177.5993
206.3398, 177.2319
206.8219, 177.0867
207.3040, 176.8022
207.7861, 176.3155
208.2682, 175.7486
208.7503, 175.3718
209.2325, 175.2375
209.7146, 175.1434
210.1967, 174.9059
210.6788, 174.3882
211.1609, 174.4916
211.6430, 175.5479
212.1252, 176.9936
212.6073, 177.3894
213.0894, 176.2674
213.5715, 175.3199
214.0536, 175.4386
214.5357, 177.0299
215.0179, 178.1829
215.5000, 178.8511
215.9821, 179.1098
216.4642, 178.9585
216.9463, 177.9600
217.4284, 177.4875
217.9105, 178.3875
218.3927, 181.3826
218.8748, 183.2411
219.3569, 183.5031
219.8390, 182.8810
220.3211, 182.9265
220.8032, 183.7749
221.2854, 185.0469
221.7675, 186.7533
222.2496, 189.2369
222.7317, 190.9754
223.2138, 191.5919
223.6959, 191.6457
224.1781, 192.3996
224.6602, 194.1145
225.1423, 196.0651
225.6244, 197.9180
226.1065, 199.6177
226.5886, 201.4650
227.0708, 203.5191
227.5529, 205.7061
228.0350, 207.8416
228.5171, 209.7417
228.9992, 211.9421
229.4813, 214.7629
229.9635, 218.5692
230.4456, 221.7935
230.9277, 224.0757
231.4098, 225.9304
231.8919, 228.4039
232.3740, 231.7821
232.8562, 235.2929
233.3383, 238.6212
233.8204, 241.5872
234.3025, 244.9810
234.7846, 248.9646
235.2667, 253.2963
235.7489, 257.3845
236.2310, 260.7480
236.7131, 264.6393
237.1952, 269.6839
237.6773, 276.2267
238.1594, 282.3206
238.6416, 287.4252
239.1237, 292.4144
239.6058, 298.6932
240.0879, 306.7505
240.5700, 315.4307
241.0521, 324.4038
241.5343, 333.4872
242.0164, 343.3314
242.4985, 354.2237
242.9806, 365.6773
243.4627, 377.1126
243.9448, 389.0655
244.4270, 400.0998
244.9091, 410.0652
245.3912, 419.2533
245.8733, 425.9296
246.3554, 430.3507
246.8375, 432.1185
247.3197, 430.5873
247.8018, 425.0283
248.2839, 417.4333
248.7660, 407.8682
249.2481, 395.9768
249.7302, 384.6797
250.2124, 374.0645
250.6945, 363.8863
251.1766, 353.6337
251.6587, 342.8730
252.1408, 332.8903
252.6229, 323.9427
253.1051, 315.9762
253.5872, 309.0901
254.0693, 303.5318
254.5514, 298.6422
255.0335, 293.6655
255.5156, 288.2875
255.9978, 283.6116
256.4799, 279.8745
256.9620, 277.0592
257.4441, 274.8236
257.9262, 273.2666
258.4083, 272.1511
258.8904, 271.3366
259.3726, 270.9400
259.8547, 270.5243
260.3368, 269.9584
260.8189, 269.2743
261.3010, 268.8568
261.7831, 268.6270
262.2653, 268.7842
262.7474, 269.6164
263.2295, 271.5029
263.7116, 272.9642
264.1937, 273.6661
264.6758, 273.7711
265.1580, 274.2308
265.6401, 275.1057
266.1222, 276.2237
266.6043, 277.5828
267.0864, 279.4073
267.5685, 280.6971
268.0507, 281.2622
268.5328, 281.2550
269.0149, 281.2838
269.4970, 281.4468
269.9791, 281.4167
270.4612, 281.0500
270.9434, 280.3867
271.4255, 279.1489
271.9076, 277.1430
272.3897, 274.6537
272.8718, 272.4229
273.3539, 270.5325
273.8361, 268.6182
274.3182, 266.3751
274.8003, 263.7083
275.2824, 261.5143
275.7645, 259.9086
276.2466, 258.7059
276.7288, 257.5598
277.2109, 256.4614
277.6930, 255.4666
278.1751, 254.4826
278.6572, 253.4690
279.1393, 253.3348
279.6215, 254.3566
280.1036, 255.7345
280.5857, 256.1104
281.0678, 255.3705
281.5499, 254.7661
282.0320, 254.8454
282.5142, 255.5586
282.9963, 256.1701
283.4784, 256.5988
283.9605, 257.1761
284.4426, 258.4979
284.9247, 260.5831
285.4069, 262.3966
285.8890, 263.3945
286.3711, 263.8156
286.8532, 264.9301
287.3353, 266.8018
287.8174, 269.0126
288.2996, 271.1826
288.7817, 273.3184
289.2638, 275.3686
289.7459, 277.2557
290.2280, 279.0778
290.7101, 281.1196
291.1923, 283.3892
291.6744, 285.9177
292.1565, 289.0899
292.6386, 292.6937
293.1207, 295.5809
293.6028, 297.2892
294.0850, 298.4115
294.5671, 300.2416
295.0492, 302.7296
295.5313, 305.0996
296.0134, 306.8161
296.4955, 307.9609
296.9777, 308.7315
297.4598, 309.1266
297.9419, 309.2058
298.4240, 308.7915
298.9061, 308.0139
299.3882, 307.5459
299.8704, 308.3087
300.3525, 309.5810
300.8346, 309.7526
301.3167, 308.4205
301.7988, 307.0189
302.2809, 307.2725
302.7631, 308.7629
303.2452, 310.2490
303.7273, 311.2027
304.2094, 311.7382
304.6915, 311.7447
305.1736, 311.1483
305.6558, 310.8813
306.1379, 312.3942
306.6200, 314.7788
307.1021, 316.3217
307.5842, 315.6912
308.0663, 314.2824
308.5485, 313.4225
309.0306, 313.1029
309.5127, 312.6764
309.9948, 311.3570
310.4769, 309.7614
310.9590, 308.7283
311.4412, 309.6013
311.9233, 310.0637
312.4054, 308.0621
312.8875, 304.0018
313.3696, 300.0707
313.8517, 297.8483
314.3339, 296.1562
314.8160, 293.9350
315.2981, 290.6703
315.7802, 287.2890
316.2623, 284.1359
316.7444, 281.2282
317.2266, 278.5458
317.7087, 276.1855
318.1908, 274.0175
318.6729, 272.0170
319.1550, 270.3603
319.6371, 268.3822
320.1193, 265.4171
320.6014, 262.0580
321.0835, 259.2330
321.5656, 257.5800
322.0477, 256.2244
322.5298, 254.8245
323.0120, 253.3407
323.4941, 251.8498
323.9762, 250.4332
324.4583, 248.9889
324.9404, 247.4077
325.4225, 245.6862
325.9047, 243.7988
326.3868, 241.5958
326.8689, 239.0386
327.3510, 236.9845
327.8331, 235.9104
328.3152, 235.1173
328.7974, 234.1226
329.2795, 232.6531
329.7616, 231.2907
330.2437, 230.0690
330.7258, 228.9929
331.2079, 228.0671
331.6901, 227.3533
332.1722, 226.7243
332.6543, 226.1380
333.1364, 225.7723
333.6185, 225.0915
334.1006, 223.8280
334.5828, 222.3210
335.0649, 221.4502
335.5470, 221.5586
336.0291, 221.6763
336.5112, 221.3306
336.9933, 220.2973
337.4755, 220.0429
337.9576, 220.9541
338.4397, 222.2016
338.9218, 222.5684
339.4039, 221.7636
339.8860, 221.1309
340.3681, 221.1323
340.8503, 221.7052
341.3324, 221.9826
341.8145, 221.9359
342.2966, 221.6853
342.7787, 221.2368
343.2608, 220.5744
343.7430, 220.1800
344.2251, 220.2859
344.7072, 220.6269
345.1893, 220.3048
345.6714, 219.2600
346.1535, 218.2617
346.6357, 218.0232
347.1178, 218.3836
347.5999, 218.4013
348.0820, 217.9897
348.5641, 217.1545
349.0462, 215.4612
349.5284, 213.0919
350.0105, 211.3616
350.4926, 211.4391
350.9747, 212.5850
351.4568, 213.1100
351.9389, 212.8948
352.4211, 212.5408
352.9032, 212.6962
353.3853, 213.1945
353.8674, 213.6299
354.3495, 213.7014
354.8316, 213.7194
355.3138, 214.1317
355.7959, 214.8996
356.2780, 215.6007
356.7601, 215.7125
357.2422, 215.6668
357.7243, 216.0476
358.2065, 217.2050
358.6886, 218.5238
359.1707, 219.6590
359.6528, 220.6245
360.1349, 221.4630
360.6170, 222.3218
361.0992, 222.9767
361.5813, 223.2683
362.0634, 223.1501
362.5455, 222.7250
363.0276, 221.8896
363.5097, 220.7985
363.9919, 219.6829
364.4740, 218.8721
364.9561, 217.8106
365.4382, 216.1867
365.9203, 213.9305
366.4024, 211.7400
366.8846, 209.4871
367.3667, 207.4777
367.8488, 205.9595
368.3309, 205.7742
368.8130, 205.1699
369.2951, 203.6934
369.7773, 201.4841
370.2594, 199.5685
370.7415, 197.9785
371.2236, 196.6432
371.7057, 195.5497
372.1878, 194.9302
372.6700, 194.0893
373.1521, 192.8557
373.6342, 191.4821
374.1163, 190.4632
374.5984, 189.8824
375.0805, 189.5110
375.5627, 189.3036
376.0448, 189.2703
376.5269, 189.2638
377.0090, 189.2982
377.4911, 189.3300
377.9732, 189.2952
378.4554, 189.1757
378.9375, 189.1075
379.4196, 189.1396
379.9017, 189.2349
380.3838, 189.1307
380.8659, 188.7610
381.3481, 188.7195
381.8302, 189.7339
382.3123, 191.6172
382.7944, 192.9432
383.2765, 193.4921
383.7586, 193.6478
384.2408, 193.7949
384.7229, 193.9886
385.2050, 194.5770
385.6871, 195.8880
386.1692, 197.6651
386.6513, 199.5363
387.1335, 201.4813
387.6156, 203.4004
388.0977, 204.9686
388.5798, 206.4422
389.0619, 208.3248
389.5440, 210.8445
390.0262, 213.7632
390.5083, 216.9603
390.9904, 220.4339
391.4725, 224.0438
391.9546, 227.7837
392.4367, 231.5701
392.9189, 235.3908
393.4010, 239.2489
393.8831, 243.0639
394.3652, 246.4156
394.8473, 249.7106
395.3294, 253.6574
395.8116, 258.6523
396.2937, 264.1690
396.7758, 270.1212
397.2579, 276.5450
397.7400, 282.9471
398.2221, 288.6161
398.7043, 294.4883
399.1864, 301.3063
399.6685, 310.4665
400.1506, 319.0207
400.6327, 326.1327
401.1148, 332.2412
401.5970, 339.5210
402.0791, 348.5797
402.5612, 357.9983
403.0433, 367.1758
403.5254, 376.0590
404.0075, 384.8597
404.4897, 393.5869
404.9718, 402.2383
405.4539, 410.9749
405.9360, 420.1707
406.4181, 428.3580
406.9002, 435.0755
407.3824, 440.3910
407.8645, 445.5203
408.3466, 450.5499
408.8287, 455.0605
409.3108, 458.8979
409.7929, 462.0070
410.2751, 463.7094
410.7572, 463.8163
411.2393, 462.6229
411.7214, 460.6979
412.2035, 458.0096
412.6856, 454.3307
413.1678, 449.0257
413.6499, 442.7093
414.1320, 436.8122
414.6141, 431.4140
415.0962, 425.7759
415.5783, 418.9428
416.0605, 411.3717
416.5426, 403.7700
417.0247, 396.2030
417.5068, 388.8739
417.9889, 382.2111
418.4710, 376.0578
418.9532, 369.4965
419.4353, 361.9258
419.9174, 353.8544
420.3995, 345.7690
420.8816, 337.6534
421.3637, 329.5397
421.8459, 321.2550
422.3280, 313.0319
422.8101, 305.1087
423.2922, 297.9282
423.7743, 290.7674
424.2564, 283.4755
424.7386, 276.0735
425.2207, 268.5538
425.7028, 260.2166
426.1849, 252.2957
426.6670, 245.6525
427.1491, 241.4561
427.6313, 236.6731
428.1134, 230.6984
428.5955, 224.1655
429.0776, 218.8911
429.5597, 215.3472
430.0418, 212.0042
430.5240, 208.1652
431.0061, 203.7715
431.4882, 199.8583
431.9703, 196.4634
432.4524, 193.5186
432.9345, 190.9589
433.4167, 188.7906
433.8988, 187.0052
434.3809, 185.7210
434.8630, 184.7541
435.3451, 183.6588
435.8272, 182.4416
436.3094, 181.3081
436.7915, 180.4715
437.2736, 179.8124
437.7557, 179.0528
438.2378, 178.1570
438.7199, 177.2091
439.2020, 176.0069
439.6841, 174.8271
440.1663, 174.2365
440.6484, 175.1282
441.1305, 176.2269
441.6126, 176.2821
442.0947, 175.4787
442.5768, 174.9438
443.0590, 175.4091
443.5411, 176.2960
444.0232, 177.1833
444.5053, 178.0327
444.9874, 178.7828
445.4695, 179.2446
445.9517, 179.6172
446.4338, 180.2283
446.9159, 181.3677
447.3980, 182.5281
447.8801, 183.6087
448.3622, 184.6180
448.8444, 185.4162
449.3265, 185.7176
449.8086, 186.0635
450.2907, 186.9013
450.7728, 188.8438
451.2549, 189.8922
451.7371, 189.7051
452.2192, 188.7148
452.7013, 187.8316
453.1834, 187.0980
453.6655, 186.3421
454.1476, 185.4514
454.6298, 184.4576
455.1119, 183.6463
455.5940, 183.0076
456.0761, 182.6338
456.5582, 182.6926
457.0403, 183.1274
457.5225, 183.6161
458.0046, 184.0131
458.4867, 184.5659
458.9688, 185.7022
459.4509, 187.3387
459.9330, 189.0860
460.4152, 190.8065
460.8973, 192.5072
461.3794, 194.0357
461.8615, 195.3941
462.3436, 197.1342
462.8257, 199.8269
463.3079, 203.0406
463.7900, 206.2889
464.2721, 209.4241
464.7542, 212.6294
465.2363, 215.8336
465.7184, 219.1514
466.2006, 222.9079
466.6827, 227.5133
467.1648, 232.2873
467.6469, 236.9916
468.1290, 241.6639
468.6111, 246.0367
469.0933, 250.2752
469.5754, 254.1370
470.0575, 257.5024
470.5396, 260.5085
471.0217, 262.7517
471.5038, 264.2573
471.9860, 264.9644
472.4681, 264.6946
472.9502, 263.4303
473.4323, 261.2383
473.9144, 258.2118
474.3965, 254.3352
474.8787, 249.1613
475.3608, 242.5351
475.8429, 235.4247
476.3250, 228.8286
476.8071, 222.7186
477.2892, 216.8873
477.7714, 211.1872
478.2535, 205.9857
478.7356, 201.9641
479.2177, 198.9757
479.6998, 196.4731
480.1819, 194.2204
480.6641, 192.2027
481.1462, 190.4505
481.6283, 188.9625
482.1104, 187.6492
482.5925, 186.4846
483.0746, 185.4606
483.5568, 184.5640
484.0389, 183.5994
484.5210, 182.9880
485.0031, 183.1067
485.4852, 183.7082
485.9673, 184.0234
486.4495, 183.7651
486.9316, 183.3567
487.4137, 182.8770
487.8958, 182.2574
488.3779, 181.9193
488.8600, 182.0742
489.3422, 182.2804
489.8243, 182.1356
490.3064, 181.5691
490.7885, 180.8790
491.2706, 180.0580
491.7527, 179.1706
492.2349, 178.3528
492.7170, 177.6148
493.1991, 176.9104
493.6812, 176.1829
494.1633, 175.4754
494.6454, 174.9478
495.1276, 174.6079
495.6097, 174.4079
496.0918, 174.3814
496.5739, 174.4594
497.0560, 174.4945
497.5381, 174.4407
498.0203, 174.3662
498.5024, 174.3347
498.9845, 174.3295
499.4666, 174.3120
499.9487, 174.1022
500.4308, 174.0090
500.9130, 174.2821
501.3951, 174.9258
501.8772, 175.5231
502.3593, 175.8941
502.8414, 176.2057
503.3235, 176.5685
503.8057, 176.9648
504.2878, 177.4546
504.7699, 178.0221
505.2520, 178.6867
505.7341, 179.5089
506.2162, 180.6292
506.6984, 181.6118
507.1805, 182.2842
507.6626, 182.6879
508.1447, 183.2700
508.6268, 184.0884
509.1089, 184.8616
509.5911, 185.2823
510.0732, 185.4032
510.5553, 185.8259
511.0374, 186.6099
511.5195, 187.6537
512.0016, 188.8427
512.4838, 190.1924
512.9659, 191.7368
513.4480, 193.7434
513.9301, 195.7450
514.4122, 197.2006
514.8943, 198.1836
515.3765, 198.9986
515.8586, 199.4414
516.3407, 200.0366
516.8228, 201.2197
517.3049, 203.1155
517.7870, 205.2014
518.2692, 207.3232
518.7513, 209.5165
519.2334, 211.8078
519.7155, 214.4660
520.1976, 216.9083
520.6797, 219.0006
521.1619, 220.8348
521.6440, 222.6253
522.1261, 224.2392
522.6082, 226.0234
523.0903, 228.1846
523.5724, 230.7369
524.0546, 232.8352
524.5367, 234.2340
525.0188, 235.9090
525.5009, 239.1567
525.9830, 243.7973
526.4651, 247.3499
526.9473, 249.2191
527.4294, 250.6621
527.9115, 253.5265
528.3936, 257.4835
528.8757, 261.5167
529.3578, 265.1365
529.8400, 268.5660
530.3221, 271.7516
530.8042, 274.7851
531.2863, 278.4545
531.7684, 283.4462
532.2505, 289.0464
532.7327, 294.6718
533.2148, 300.1450
533.6969, 305.8902
534.1790, 311.8705
534.6611, 318.2113
535.1432, 324.9469
535.6254, 332.0392
536.1075, 339.7545
536.5896, 348.2090
537.0717, 357.3071
537.5538, 366.2018
538.0359, 374.6700
538.5181, 383.6332
539.0002, 393.5610
539.4823, 404.4141
539.9644, 416.0862
540.4465, 428.6664
540.9286, 441.6295
541.4108, 454.1932
541.8929, 466.7053
542.3750, 480.2714
542.8571, 495.2362
543.3392, 510.7969
543.8214, 526.3066
544.3035, 541.7170
544.7856, 557.4407
545.2677, 574.4020
545.7498, 591.1281
546.2319, 606.0281
546.7141, 619.3900
547.1962, 632.9897
547.6783, 648.9536
548.1604, 664.2102
548.6425, 677.4774
549.1246, 688.6146
549.6068, 697.3931
550.0889, 703.7535
550.5710, 707.8007
551.0531, 709.6967
551.5352, 710.0385
552.0173, 706.8673
552.4995, 699.6557
552.9816, 689.0573
553.4637, 676.7857
553.9458, 662.9661
554.4279, 646.5879
554.9100, 626.4868
555.3922, 603.5301
555.8743, 580.8262
556.3564, 558.5626
556.8385, 536.5748
557.3206, 514.2608
557.8027, 492.3943
558.2849, 471.8984
558.7670, 452.9622
559.2491, 435.1307
559.7312, 418.2730
560.2133, 402.4051
560.6954, 387.5938
561.1776, 374.1400
561.6597, 361.6623
562.1418, 349.9594
562.6239, 339.0794
563.1060, 329.4541
563.5881, 321.8437
564.0703, 314.7011
564.5524, 307.3586
565.0345, 299.7792
565.5166, 293.3319
565.9987, 288.2694
566.4808, 283.8972
566.9630, 279.6658
567.4451, 275.5899
567.9272, 271.7647
568.4093, 268.1972
568.8914, 264.7970
569.3735, 261.2394
569.8557, 257.6542
570.3378, 254.4993
570.8199, 252.0297
571.3020, 250.0130
571.7841, 248.3656
572.2662, 246.9935
572.7484, 245.5561
573.2305, 243.6509
573.7126, 241.7635
574.1947, 240.2156
574.6768, 239.0567
575.1589, 238.0246
575.6411, 237.2813
576.1232, 236.4973
576.6053, 235.4293
577.0874, 233.6123
577.5695, 232.2633
578.0516, 231.6830
578.5338, 231.3847
579.0159, 230.5575
579.4980, 228.9550
579.9801, 227.8114
580.4622, 227.6564
580.9443, 227.9872
581.4265, 227.0111
581.9086, 224.7331
582.3907, 222.6914
582.8728, 222.1342
583.3549, 222.3340
583.8370, 221.6277
584.3192, 220.0008
584.8013, 218.2789
585.2834, 217.0060
585.7655, 215.9895
586.2476, 215.0040
586.7297, 213.9781
