##NAMES=Polylithionite
##RRUFFID=R060225
##IDEAL CHEMISTRY=KLi_2_AlSi_4_O_10_F_2_
##LOCALITY=Mont Saint-Hilaire, Rouville County, Quebec, Canada
##OWNER=RRUFF
##SOURCE=Royal Ontario Museum
##DESCRIPTION=Tan colored hexagonal shaped mica
##STATUS=The identification of this mineral is confirmed by single-crystal X-ray diffraction and chemical analysis.
##URL=rruff.info/R060225
##MEASURED CHEMISTRY=(K_0.95_[box]_0.05_)_Σ=1_(Li_1.95_Mg_0.04_Mn_0.01_)_Σ=2_(Al_0.97_Fe^3+^_0.03_)_Σ=1_Si_4.00_O_10_(F_1.40_(OH)_0.60_)_Σ=2_
92.07813, 21.27829
92.56024, 21.20186
93.04236, 21.30913
93.52448, 21.53362
94.00659, 21.62960
94.48871, 21.36099
94.97083, 20.85488
95.45294, 20.45572
95.93506, 20.23478
96.41718, 20.07615
96.89929, 19.69246
97.38141, 19.08161
97.86353, 18.62506
98.34564, 18.78437
98.82776, 19.51617
99.30988, 19.85865
99.79199, 19.53761
100.2741, 18.75833
100.7562, 18.30773
101.2383, 18.25238
101.7205, 18.33991
102.2026, 18.37882
102.6847, 18.38881
103.1668, 18.26351
103.6489, 17.93048
104.1310, 17.38538
104.6132, 16.94711
105.0953, 16.58000
105.5774, 16.35804
106.0595, 16.40308
106.5416, 16.90758
107.0237, 17.39025
107.5059, 17.78967
107.9880, 18.21220
108.4701, 18.19518
108.9522, 17.36957
109.4343, 16.17557
109.9164, 15.39609
110.3986, 15.50908
110.8807, 15.64803
111.3628, 15.51984
111.8449, 14.74159
112.3270, 14.31439
112.8091, 14.52428
113.2913, 15.15981
113.7734, 15.62471
114.2555, 15.78673
114.7376, 15.78351
115.2197, 15.68883
115.7018, 15.55967
116.1840, 15.29247
116.6661, 14.65399
117.1482, 13.76052
117.6303, 13.21843
118.1124, 13.58017
118.5945, 14.24138
119.0767, 14.67901
119.5588, 14.38305
120.0409, 14.11382
120.5230, 14.39904
121.0051, 15.20478
121.4872, 15.85124
121.9694, 15.61889
122.4515, 15.02978
122.9336, 14.80696
123.4157, 15.63604
123.8978, 16.74815
124.3799, 17.37575
124.8621, 17.45298
125.3442, 17.52128
125.8263, 18.16194
126.3084, 19.16969
126.7905, 20.04574
127.2726, 20.29351
127.7548, 20.30410
128.2369, 20.69772
128.7190, 21.53387
129.2011, 22.70246
129.6832, 24.45905
130.1653, 26.62488
130.6474, 28.22680
131.1296, 28.30401
131.6117, 27.26944
132.0938, 26.56220
132.5759, 26.33892
133.0580, 26.51509
133.5401, 27.08165
134.0223, 28.05327
134.5044, 28.95707
134.9865, 29.26184
135.4686, 29.00185
135.9507, 29.29313
136.4328, 30.40267
136.9150, 32.11200
137.3971, 33.65228
137.8792, 34.97264
138.3613, 36.35093
138.8434, 38.19463
139.3255, 40.66746
139.8077, 42.57226
140.2898, 43.67836
140.7719, 44.02308
141.2540, 43.91136
141.7361, 43.06990
142.2182, 42.22438
142.7004, 42.19177
143.1825, 43.42041
143.6646, 44.34674
144.1467, 44.48542
144.6288, 43.75957
145.1109, 43.53346
145.5931, 44.00739
146.0752, 44.81796
146.5573, 45.53194
147.0394, 45.93490
147.5215, 46.55059
148.0036, 47.56569
148.4858, 49.16262
148.9679, 50.49601
149.4500, 51.53965
149.9321, 52.33162
150.4142, 52.90552
150.8963, 52.88980
151.3785, 53.01226
151.8606, 53.50368
152.3427, 54.58391
152.8248, 55.53111
153.3069, 56.01223
153.7890, 56.38799
154.2712, 57.12835
154.7533, 59.03198
155.2354, 60.59992
155.7175, 61.20166
156.1996, 60.40771
156.6817, 59.39462
157.1639, 57.91898
157.6460, 56.32478
158.1281, 55.39837
158.6102, 55.90129
159.0923, 56.65564
159.5744, 57.07283
160.0566, 56.84685
160.5387, 56.61802
161.0208, 56.43396
161.5029, 56.35546
161.9850, 56.56779
162.4671, 57.29939
162.9493, 58.23928
163.4314, 59.20123
163.9135, 60.35377
164.3956, 61.25837
164.8777, 61.57963
165.3598, 61.44902
165.8420, 61.40768
166.3241, 61.65993
166.8062, 62.13447
167.2883, 62.76416
167.7704, 63.46245
168.2525, 64.37232
168.7346, 65.96203
169.2168, 68.05779
169.6989, 69.53163
170.1810, 69.06643
170.6631, 67.79834
171.1452, 67.09097
171.6273, 67.92118
172.1095, 69.07597
172.5916, 69.50017
173.0737, 69.25282
173.5558, 68.99993
174.0379, 69.12064
174.5201, 69.56583
175.0022, 70.26175
175.4843, 71.32066
175.9664, 72.54675
176.4485, 73.62885
176.9306, 74.58002
177.4128, 75.66081
177.8949, 77.13875
178.3770, 78.90712
178.8591, 80.76677
179.3412, 83.13865
179.8233, 85.38895
180.3055, 86.39771
180.7876, 86.13645
181.2697, 85.34953
181.7518, 84.85562
182.2339, 84.47112
182.7160, 83.57531
183.1982, 81.76013
183.6803, 79.28287
184.1624, 76.58232
184.6445, 73.63155
185.1266, 70.75984
185.6087, 68.28963
186.0909, 66.19108
186.5730, 64.44604
187.0551, 63.11247
187.5372, 62.12429
188.0193, 61.29125
188.5014, 60.65979
188.9836, 59.98395
189.4657, 58.72689
189.9478, 56.97068
190.4299, 55.53619
190.9120, 55.05949
191.3941, 55.32889
191.8763, 55.09633
192.3584, 54.22528
192.8405, 53.20074
193.3226, 52.71423
193.8047, 52.77036
194.2868, 52.92824
194.7690, 53.10923
195.2511, 53.28730
195.7332, 53.00813
196.2153, 52.12423
196.6974, 51.09359
197.1795, 50.82320
197.6617, 51.37484
198.1438, 51.85492
198.6259, 51.76849
199.1080, 51.11954
199.5901, 50.63951
200.0722, 50.37089
200.5544, 50.23553
201.0365, 50.07720
201.5186, 49.87412
202.0007, 49.77383
202.4828, 49.96795
202.9649, 50.50726
203.4471, 50.57032
203.9292, 49.99021
204.4113, 49.11393
204.8934, 48.62325
205.3755, 48.58248
205.8576, 48.67884
206.3398, 48.75652
206.8219, 48.78955
207.3040, 49.01550
207.7861, 49.53667
208.2682, 50.15221
208.7503, 50.40852
209.2325, 50.21450
209.7146, 49.94770
210.1967, 49.78535
210.6788, 49.76030
211.1609, 49.68218
211.6430, 49.54032
212.1252, 49.35115
212.6073, 49.11435
213.0894, 48.75451
213.5715, 48.54270
214.0536, 48.68848
214.5357, 49.38548
215.0179, 49.67213
215.5000, 49.34956
215.9821, 48.74247
216.4642, 48.61587
216.9463, 49.15855
217.4284, 49.77778
217.9105, 50.28079
218.3927, 50.74221
218.8748, 50.77107
219.3569, 50.11187
219.8390, 49.16189
220.3211, 48.84414
220.8032, 49.48811
221.2854, 50.14584
221.7675, 50.38485
222.2496, 49.97578
222.7317, 49.87223
223.2138, 50.21296
223.6959, 50.78978
224.1781, 51.14742
224.6602, 51.17798
225.1423, 51.17281
225.6244, 51.21909
226.1065, 51.26081
226.5886, 51.54602
227.0708, 52.23483
227.5529, 53.09024
228.0350, 53.57968
228.5171, 53.41425
228.9992, 53.37523
229.4813, 53.77924
229.9635, 54.75742
230.4456, 55.79917
230.9277, 57.08814
231.4098, 58.33815
231.8919, 58.94684
232.3740, 58.47356
232.8562, 58.06584
233.3383, 58.18485
233.8204, 59.07607
234.3025, 59.67951
234.7846, 59.84793
235.2667, 59.81079
235.7489, 59.96395
236.2310, 60.30033
236.7131, 60.83586
237.1952, 61.60719
237.6773, 62.65340
238.1594, 63.74826
238.6416, 64.85940
239.1237, 66.03963
239.6058, 67.34114
240.0879, 68.64501
240.5700, 70.29160
241.0521, 72.44782
241.5343, 75.20150
242.0164, 77.98753
242.4985, 80.80544
242.9806, 83.65555
243.4627, 86.58042
243.9448, 89.79971
244.4270, 92.72384
244.9091, 95.25551
245.3912, 97.46130
245.8733, 98.97561
246.3554, 100.0366
246.8375, 100.2345
247.3197, 98.93098
247.8018, 95.51730
248.2839, 91.68346
248.7660, 87.74597
249.2481, 83.64684
249.7302, 79.76669
250.2124, 75.89333
250.6945, 72.40342
251.1766, 69.74451
251.6587, 68.29663
252.1408, 66.93218
252.6229, 65.32891
253.1051, 63.42968
253.5872, 62.02646
254.0693, 61.19101
254.5514, 60.73754
255.0335, 60.51508
255.5156, 60.63640
255.9978, 60.75445
256.4799, 60.86123
256.9620, 60.95338
257.4441, 60.69049
257.9262, 59.81929
258.4083, 58.92060
258.8904, 58.55603
259.3726, 58.92608
259.8547, 59.32779
260.3368, 59.65340
260.8189, 59.91106
261.3010, 60.16564
261.7831, 60.43201
262.2653, 60.67162
262.7474, 60.86292
263.2295, 61.03222
263.7116, 61.05439
264.1937, 60.77521
264.6758, 60.31777
265.1580, 60.47817
265.6401, 61.59277
266.1222, 62.69303
266.6043, 62.96482
267.0864, 62.01326
267.5685, 61.73811
268.0507, 62.66772
268.5328, 64.32732
269.0149, 64.81297
269.4970, 63.71086
269.9791, 62.42989
270.4612, 61.86346
270.9434, 62.23298
271.4255, 62.25999
271.9076, 61.78180
272.3897, 60.96576
272.8718, 60.19276
273.3539, 59.42161
273.8361, 58.82418
274.3182, 58.56250
274.8003, 58.69863
275.2824, 58.67259
275.7645, 58.42779
276.2466, 58.05544
276.7288, 57.65864
277.2109, 57.17989
277.6930, 56.95847
278.1751, 57.34331
278.6572, 58.39232
279.1393, 58.79036
279.6215, 58.34435
280.1036, 57.62120
280.5857, 57.57965
281.0678, 58.30112
281.5499, 58.91758
282.0320, 59.02734
282.5142, 58.67439
282.9963, 58.42075
283.4784, 58.27528
283.9605, 58.20230
284.4426, 58.12662
284.9247, 58.04502
285.4069, 58.11507
285.8890, 58.41119
286.3711, 58.90184
286.8532, 59.49762
287.3353, 60.22527
287.8174, 60.91125
288.2996, 61.32030
288.7817, 61.47906
289.2638, 61.67558
289.7459, 62.02448
290.2280, 62.44416
290.7101, 62.63827
291.1923, 62.58812
291.6744, 62.64274
292.1565, 63.21382
292.6386, 64.19415
293.1207, 65.05938
293.6028, 65.74166
294.0850, 66.19923
294.5671, 66.24187
295.0492, 65.89671
295.5313, 65.62670
296.0134, 65.95032
296.4955, 66.62825
296.9777, 66.94337
297.4598, 66.72971
297.9419, 66.22942
298.4240, 65.66862
298.9061, 65.08196
299.3882, 64.63858
299.8704, 64.44824
300.3525, 64.47393
300.8346, 64.76181
301.3167, 65.41727
301.7988, 65.89852
302.2809, 65.41373
302.7631, 64.23740
303.2452, 63.16736
303.7273, 62.68586
304.2094, 62.52531
304.6915, 62.37713
305.1736, 62.22821
305.6558, 62.03289
306.1379, 61.63114
306.6200, 61.16058
307.1021, 60.88132
307.5842, 61.12859
308.0663, 61.47201
308.5485, 61.45329
309.0306, 61.07963
309.5127, 60.71165
309.9948, 60.66517
310.4769, 60.75036
310.9590, 60.72135
311.4412, 60.36567
311.9233, 59.99750
312.4054, 59.89019
312.8875, 59.98927
313.3696, 60.01612
313.8517, 59.76963
314.3339, 59.40839
314.8160, 59.06206
315.2981, 58.75557
315.7802, 58.48664
316.2623, 58.22217
316.7444, 57.99219
317.2266, 57.87210
317.7087, 58.01719
318.1908, 58.20167
318.6729, 58.29612
319.1550, 58.28477
319.6371, 58.17123
320.1193, 57.80378
320.6014, 57.35739
321.0835, 57.11415
321.5656, 57.44567
322.0477, 57.75147
322.5298, 57.73063
323.0120, 57.27591
323.4941, 56.94283
323.9762, 57.01960
324.4583, 57.20841
324.9404, 57.18755
325.4225, 56.50222
325.9047, 56.00602
326.3868, 56.02034
326.8689, 56.56688
327.3510, 56.94546
327.8331, 57.03500
328.3152, 56.98702
328.7974, 56.90541
329.2795, 56.68203
329.7616, 56.55932
330.2437, 56.65180
330.7258, 56.89586
331.2079, 56.93261
331.6901, 56.60920
332.1722, 56.22915
332.6543, 55.90135
333.1364, 55.37223
333.6185, 55.40174
334.1006, 56.32837
334.5828, 57.71870
335.0649, 58.51212
335.5470, 58.46038
336.0291, 58.25527
336.5112, 58.12717
336.9933, 58.07458
337.4755, 58.11481
337.9576, 58.29081
338.4397, 58.51009
338.9218, 58.58062
339.4039, 58.37675
339.8860, 58.50411
340.3681, 59.30965
340.8503, 60.71034
341.3324, 61.40572
341.8145, 61.25808
342.2966, 60.81441
342.7787, 60.58697
343.2608, 60.59361
343.7430, 60.47471
344.2251, 60.12652
344.7072, 59.63244
345.1893, 59.25651
345.6714, 59.00471
346.1535, 58.75390
346.6357, 58.24238
347.1178, 57.58053
347.5999, 57.56769
348.0820, 58.48372
348.5641, 59.61143
349.0462, 59.64337
349.5284, 58.73205
350.0105, 58.03289
350.4926, 58.30006
350.9747, 59.19460
351.4568, 60.01897
351.9389, 60.74713
352.4211, 61.35891
352.9032, 61.77654
353.3853, 62.05111
353.8674, 62.30229
354.3495, 62.43731
354.8316, 62.66102
355.3138, 63.32045
355.7959, 64.37423
356.2780, 65.38007
356.7601, 66.00850
357.2422, 66.42436
357.7243, 66.81986
358.2065, 67.13224
358.6886, 67.60527
359.1707, 68.60684
359.6528, 69.94485
360.1349, 71.03973
360.6170, 71.53849
361.0992, 71.73484
361.5813, 71.87059
362.0634, 72.05830
362.5455, 71.91824
363.0276, 71.25776
363.5097, 70.18098
363.9919, 68.84314
364.4740, 66.78751
364.9561, 64.93181
365.4382, 63.66905
365.9203, 63.05147
366.4024, 62.57465
366.8846, 62.33771
367.3667, 62.09129
367.8488, 61.63366
368.3309, 60.67468
368.8130, 59.80449
369.2951, 59.12292
369.7773, 58.60483
370.2594, 58.07807
370.7415, 57.37313
371.2236, 56.81344
371.7057, 56.56900
372.1878, 56.92675
372.6700, 57.04387
373.1521, 56.81899
373.6342, 56.39770
374.1163, 56.04561
374.5984, 55.74755
375.0805, 55.55494
375.5627, 55.49937
376.0448, 55.59132
376.5269, 55.70247
377.0090, 55.86001
377.4911, 55.98981
377.9732, 56.02660
378.4554, 55.97423
378.9375, 55.76790
379.4196, 55.28557
379.9017, 54.68003
380.3838, 54.64410
380.8659, 55.26853
381.3481, 55.75655
381.8302, 55.25723
382.3123, 53.95989
382.7944, 53.30853
383.2765, 53.55244
383.7586, 54.23157
384.2408, 54.78041
384.7229, 55.18686
385.2050, 55.40390
385.6871, 55.18476
386.1692, 54.81185
386.6513, 54.83659
387.1335, 55.28099
387.6156, 55.92762
388.0977, 56.86438
388.5798, 57.82579
389.0619, 58.29923
389.5440, 57.69745
390.0262, 56.94424
390.5083, 56.82084
390.9904, 57.26389
391.4725, 57.98679
391.9546, 59.21165
392.4367, 60.42345
392.9189, 61.13554
393.4010, 61.07470
393.8831, 60.95533
394.3652, 61.03071
394.8473, 61.28905
395.3294, 61.71610
395.8116, 62.31669
396.2937, 63.07552
396.7758, 64.04060
397.2579, 65.23785
397.7400, 66.38860
398.2221, 67.42606
398.7043, 68.39014
399.1864, 69.30925
399.6685, 69.93584
400.1506, 70.80946
400.6327, 72.12399
401.1148, 73.76906
401.5970, 75.22903
402.0791, 76.38945
402.5612, 77.47632
403.0433, 78.54220
403.5254, 79.45535
404.0075, 80.75753
404.4897, 82.66319
404.9718, 84.77441
405.4539, 86.49129
405.9360, 87.76401
406.4181, 88.80744
406.9002, 89.64280
407.3824, 90.28754
407.8645, 91.00888
408.3466, 91.85177
408.8287, 92.59903
409.3108, 93.13681
409.7929, 93.45110
410.2751, 93.29546
410.7572, 92.53789
411.2393, 91.44650
411.7214, 90.52325
412.2035, 89.74429
412.6856, 88.93240
413.1678, 88.00278
413.6499, 86.96433
414.1320, 85.78938
414.6141, 84.45321
415.0962, 83.14706
415.5783, 82.01346
416.0605, 81.03381
416.5426, 80.15054
417.0247, 79.36794
417.5068, 78.65249
417.9889, 78.03954
418.4710, 77.49494
418.9532, 76.84087
419.4353, 75.96877
419.9174, 74.95836
420.3995, 73.86922
420.8816, 72.66618
421.3637, 71.47058
421.8459, 70.29468
422.3280, 69.16418
422.8101, 68.10241
423.2922, 67.06911
423.7743, 66.15950
424.2564, 65.49875
424.7386, 65.11898
425.2207, 64.53645
425.7028, 63.68397
426.1849, 62.63580
426.6670, 61.42149
427.1491, 59.75074
427.6313, 58.37432
428.1134, 57.32399
428.5955, 56.60091
429.0776, 56.28607
429.5597, 56.67049
430.0418, 56.87559
430.5240, 56.49261
431.0061, 55.46767
431.4882, 54.59692
431.9703, 53.86444
432.4524, 53.33413
432.9345, 53.15411
433.4167, 53.33447
433.8988, 53.46606
434.3809, 53.43673
434.8630, 53.31160
435.3451, 53.21228
435.8272, 53.14109
436.3094, 53.17280
436.7915, 53.52574
437.2736, 54.00711
437.7557, 54.06610
438.2378, 53.59630
438.7199, 53.07399
439.2020, 52.97442
439.6841, 53.17836
440.1663, 53.44136
440.6484, 53.64882
441.1305, 53.88471
441.6126, 54.23492
442.0947, 54.68498
442.5768, 55.13946
443.0590, 55.63459
443.5411, 56.06211
444.0232, 56.29522
444.5053, 56.14488
444.9874, 56.16698
445.4695, 56.76394
445.9517, 57.60325
446.4338, 58.15413
446.9159, 57.86517
447.3980, 57.72650
447.8801, 58.05581
448.3622, 58.88832
448.8444, 59.72347
449.3265, 60.64504
449.8086, 61.49862
450.2907, 62.21408
450.7728, 62.92384
451.2549, 63.21141
451.7371, 63.02016
452.2192, 62.41846
452.7013, 61.42777
453.1834, 59.88878
453.6655, 58.59652
454.1476, 58.05295
454.6298, 58.15131
455.1119, 57.49418
455.5940, 55.94601
456.0761, 54.39153
456.5582, 53.81741
457.0403, 54.05616
457.5225, 54.23775
458.0046, 54.18209
458.4867, 53.99469
458.9688, 53.73388
459.4509, 53.44355
459.9330, 53.31651
460.4152, 53.51207
460.8973, 53.90310
461.3794, 54.39500
461.8615, 54.99170
462.3436, 55.49383
462.8257, 55.73354
463.3079, 55.82782
463.7900, 55.90009
464.2721, 55.82371
464.7542, 55.93186
465.2363, 56.37671
465.7184, 57.11057
466.2006, 57.99804
466.6827, 59.38755
467.1648, 60.59129
467.6469, 61.20927
468.1290, 60.96727
468.6111, 61.14793
469.0933, 62.05625
469.5754, 63.21042
470.0575, 64.21597
470.5396, 65.07806
471.0217, 65.78140
471.5038, 66.33749
471.9860, 66.73489
472.4681, 66.88805
472.9502, 66.70538
473.4323, 66.58951
473.9144, 66.98144
474.3965, 67.83743
474.8787, 67.56800
475.3608, 66.03326
475.8429, 64.04720
476.3250, 62.40551
476.8071, 61.08277
477.2892, 59.98330
477.7714, 59.19885
478.2535, 58.47345
478.7356, 57.24873
479.2177, 55.68398
479.6998, 54.49306
480.1819, 54.42086
480.6641, 54.73173
481.1462, 54.57674
481.6283, 53.85035
482.1104, 53.30738
482.5925, 53.50174
483.0746, 54.05558
483.5568, 54.58226
484.0389, 55.17384
484.5210, 55.49678
485.0031, 55.26435
485.4852, 54.66388
485.9673, 54.27176
486.4495, 54.28355
486.9316, 54.41870
487.4137, 54.60884
487.8958, 54.87764
488.3779, 55.08208
488.8600, 55.22081
489.3422, 55.29653
489.8243, 55.34682
490.3064, 55.44410
490.7885, 55.22866
491.2706, 54.54282
491.7527, 53.60875
492.2349, 52.95025
492.7170, 52.58375
493.1991, 52.36543
493.6812, 52.29960
494.1633, 52.33764
494.6454, 52.26853
495.1276, 52.08973
495.6097, 51.87636
496.0918, 51.62724
496.5739, 51.40197
497.0560, 51.35491
497.5381, 51.58104
498.0203, 51.85676
498.5024, 51.99395
498.9845, 52.02948
499.4666, 52.04837
499.9487, 52.14783
500.4308, 52.19360
500.9130, 52.03829
501.3951, 51.68132
501.8772, 51.46844
502.3593, 51.73468
502.8414, 52.03200
503.3235, 52.06105
503.8057, 51.49197
504.2878, 51.08194
504.7699, 50.88650
505.2520, 50.84712
505.7341, 50.87314
506.2162, 50.98226
506.6984, 51.11674
507.1805, 51.24353
507.6626, 51.37394
508.1447, 51.64942
508.6268, 52.11066
509.1089, 52.56333
509.5911, 52.86112
510.0732, 53.01576
510.5553, 53.15684
511.0374, 53.29282
511.5195, 53.42392
512.0016, 53.51477
512.4838, 53.59533
512.9659, 53.76773
513.4480, 54.15159
513.9301, 54.56887
514.4122, 54.81664
514.8943, 54.91958
515.3765, 54.98079
515.8586, 55.06995
516.3407, 55.13260
516.8228, 55.04346
517.3049, 54.70716
517.7870, 54.67787
518.2692, 55.51940
518.7513, 56.58215
519.2334, 57.23936
519.7155, 56.88291
520.1976, 56.73890
520.6797, 57.02605
521.1619, 57.60549
521.6440, 58.07312
522.1261, 58.31907
522.6082, 58.64663
523.0903, 59.22364
523.5724, 60.05978
524.0546, 60.61159
524.5367, 60.82313
525.0188, 60.91457
525.5009, 61.01466
525.9830, 61.13811
526.4651, 61.46577
526.9473, 62.06129
527.4294, 62.76807
527.9115, 63.35168
528.3936, 63.84554
528.8757, 64.37416
529.3578, 64.98653
529.8400, 65.65775
530.3221, 66.45139
530.8042, 67.31930
531.2863, 68.00761
531.7684, 68.10595
532.2505, 68.13456
532.7327, 68.43678
533.2148, 69.02321
533.6969, 70.01707
534.1790, 72.02666
534.6611, 74.22701
535.1432, 75.65075
535.6254, 75.24223
536.1075, 75.33475
536.5896, 76.39600
537.0717, 78.12101
537.5538, 79.35892
538.0359, 79.88620
538.5181, 80.47414
539.0002, 81.47259
539.4823, 82.87073
539.9644, 84.27461
540.4465, 85.68165
540.9286, 87.10921
541.4108, 88.54963
541.8929, 90.02550
542.3750, 91.54060
542.8571, 93.04361
543.3392, 94.73386
543.8214, 96.98730
544.3035, 99.62521
544.7856, 102.2852
545.2677, 104.7556
545.7498, 107.2247
546.2319, 109.7642
546.7141, 112.3845
547.1962, 115.1381
547.6783, 118.2519
548.1604, 121.3318
548.6425, 124.2281
549.1246, 126.9055
549.6068, 129.3884
550.0889, 131.7306
550.5710, 133.8519
551.0531, 135.7283
551.5352, 137.6315
552.0173, 138.6906
552.4995, 138.6908
552.9816, 137.8593
553.4637, 136.7653
553.9458, 135.4472
554.4279, 133.6051
554.9100, 131.0641
555.3922, 127.9033
555.8743, 124.3822
556.3564, 120.5305
556.8385, 116.3824
557.3206, 111.5804
557.8027, 106.6265
558.2849, 102.3282
558.7670, 98.86972
559.2491, 95.75603
559.7312, 92.86565
560.2133, 90.04316
560.6954, 87.08043
561.1776, 83.60405
561.6597, 80.33503
562.1418, 77.51646
562.6239, 75.09180
563.1060, 72.90997
563.5881, 70.82168
564.0703, 69.08701
564.5524, 67.78497
565.0345, 66.93895
565.5166, 66.42920
565.9987, 66.53107
566.4808, 66.49904
566.9630, 65.60452
567.4451, 63.76041
567.9272, 62.30962
568.4093, 61.39770
568.8914, 60.76588
569.3735, 60.01305
569.8557, 59.19585
570.3378, 58.56641
570.8199, 58.33096
571.3020, 58.20764
571.7841, 57.81923
572.2662, 57.22649
572.7484, 56.65612
573.2305, 56.19614
573.7126, 55.82270
574.1947, 55.54681
574.6768, 55.37766
575.1589, 55.15982
575.6411, 54.89725
576.1232, 54.53792
576.6053, 54.02859
577.0874, 53.02772
577.5695, 52.44250
578.0516, 52.45424
578.5338, 52.76710
579.0159, 52.97848
579.4980, 53.08420
579.9801, 53.08068
580.4622, 52.92890
580.9443, 52.69178
581.4265, 52.56139
581.9086, 52.53778
582.3907, 52.57470
582.8728, 52.71619
583.3549, 52.88324
583.8370, 52.92535
584.3192, 52.83929
584.8013, 52.62822
585.2834, 52.07480
585.7655, 51.49755
