##NAMES=Polyhalite
##RRUFFID=R070209
##IDEAL CHEMISTRY=K_2_Ca_2_Mg(S^6+^O_4_)_4_&#183;2H_2_O
##LOCALITY=West Texas, Texas, USA
##OWNER=RRUFF
##SOURCE=Michael Scott
##DESCRIPTION=Colorless to brick red massive
##STATUS=The identification of this mineral has been confirmed by X-ray diffraction.
##URL=rruff.info/R070209
103.6632, 8.372681
104.1453, 8.338416
104.6274, 8.889693
105.1096, 9.133259
105.5917, 8.574472
106.0738, 7.766756
106.5559, 7.649296
107.0380, 8.673579
107.5201, 9.988438
108.0023, 9.600176
108.4844, 6.893316
108.9665, 5.098526
109.4486, 6.113395
109.9307, 8.971234
110.4128, 10.97843
110.8950, 10.80728
111.3771, 9.812531
111.8592, 10.43184
112.3413, 13.16411
112.8234, 15.85507
113.3055, 16.95362
113.7877, 16.63237
114.2698, 16.46897
114.7519, 17.22567
115.2340, 18.31777
115.7161, 18.77604
116.1982, 18.09004
116.6804, 17.94774
117.1625, 20.88224
117.6446, 27.49034
118.1267, 32.45831
118.6088, 31.67058
119.0909, 29.16522
119.5731, 28.29184
120.0552, 30.24988
120.5373, 33.23255
121.0194, 34.28100
121.5015, 32.48496
121.9836, 31.34034
122.4658, 32.06551
122.9479, 33.82082
123.4300, 35.80087
123.9121, 37.61433
124.3942, 39.69345
124.8763, 43.34893
125.3585, 50.47752
125.8406, 55.89152
126.3227, 57.66344
126.8048, 57.63300
127.2869, 57.84510
127.7690, 59.34216
128.2512, 61.82780
128.7333, 63.97475
129.2154, 64.37025
129.6975, 66.30057
130.1796, 70.49831
130.6617, 76.48354
131.1439, 83.89099
131.6260, 92.72392
132.1081, 102.5646
132.5902, 110.1098
133.0723, 112.9704
133.5544, 115.8382
134.0366, 119.6420
134.5187, 124.0464
135.0008, 128.3296
135.4829, 131.9677
135.9650, 134.9965
136.4471, 138.1690
136.9293, 141.4831
137.4114, 144.9162
137.8935, 149.2107
138.3756, 153.6992
138.8577, 156.9391
139.3398, 157.7913
139.8220, 156.2197
140.3041, 154.3534
140.7862, 152.7160
141.2683, 150.3904
141.7504, 146.6720
142.2325, 141.8196
142.7147, 136.5907
143.1968, 131.1935
143.6789, 125.7406
144.1610, 123.1530
144.6431, 123.4230
145.1252, 126.1477
145.6074, 132.5650
146.0895, 142.0121
146.5716, 150.8293
147.0537, 155.8662
147.5358, 156.9841
148.0179, 159.3894
148.5001, 162.0879
148.9822, 166.7340
149.4643, 176.0738
149.9464, 189.9701
150.4285, 202.9941
150.9106, 210.3479
151.3928, 212.3604
151.8749, 215.4118
152.3570, 221.8607
152.8391, 228.2670
153.3212, 231.1206
153.8033, 230.0883
154.2855, 228.1657
154.7676, 228.5652
155.2497, 230.2025
155.7318, 228.4099
156.2139, 219.1309
156.6960, 207.6929
157.1782, 200.1466
157.6603, 197.0395
158.1424, 196.0258
158.6245, 196.3781
159.1066, 197.5732
159.5887, 198.3506
160.0709, 199.1731
160.5530, 199.1130
161.0351, 196.3186
161.5172, 190.1350
161.9993, 183.5721
162.4814, 177.3952
162.9636, 172.3552
163.4457, 170.4216
163.9278, 175.8417
164.4099, 183.8363
164.8920, 184.1385
165.3741, 173.3298
165.8563, 164.4834
166.3384, 166.9873
166.8205, 176.7406
167.3026, 187.5331
167.7847, 197.7793
168.2668, 207.2266
168.7490, 215.1677
169.2311, 221.1183
169.7132, 226.6953
170.1953, 233.8631
170.6774, 241.1582
171.1595, 246.1193
171.6417, 247.3779
172.1238, 245.6841
172.6059, 243.0210
173.0880, 239.9285
173.5701, 234.5437
174.0522, 224.9978
174.5344, 213.1038
175.0165, 201.3899
175.4986, 190.6015
175.9807, 181.0101
176.4628, 173.4685
176.9449, 169.0026
177.4271, 164.7843
177.9092, 159.6139
178.3913, 154.0188
178.8734, 148.6476
179.3555, 143.6193
179.8376, 139.1297
180.3197, 135.6809
180.8019, 133.3363
181.2840, 132.0768
181.7661, 132.4347
182.2482, 133.4993
182.7303, 134.1410
183.2124, 133.7744
183.6946, 132.7017
184.1767, 131.8457
184.6588, 131.6722
185.1409, 130.8576
185.6230, 128.3600
186.1051, 125.3878
186.5873, 123.3597
187.0694, 123.0027
187.5515, 123.7769
188.0336, 124.3336
188.5157, 124.8716
188.9978, 124.7580
189.4800, 123.7042
189.9621, 122.1237
190.4442, 120.4342
190.9263, 118.8354
191.4084, 117.1839
191.8905, 115.0133
192.3727, 111.5391
192.8548, 108.9887
193.3369, 107.5831
193.8190, 107.1569
194.3011, 107.7579
194.7832, 109.4218
195.2654, 111.6351
195.7475, 113.3113
196.2296, 114.3855
196.7117, 114.9925
197.1938, 115.1469
197.6759, 114.9453
198.1581, 114.1701
198.6402, 112.7895
199.1223, 111.5363
199.6044, 112.0127
200.0865, 115.7585
200.5686, 118.1336
201.0508, 119.2093
201.5329, 118.7845
202.0150, 115.5394
202.4971, 109.4489
202.9792, 103.4130
203.4613, 102.7084
203.9435, 111.1089
204.4256, 116.3440
204.9077, 115.7900
205.3898, 113.8444
205.8719, 113.9767
206.3540, 116.6390
206.8362, 119.2317
207.3183, 117.5092
207.8004, 108.3082
208.2825, 102.9977
208.7646, 104.0452
209.2467, 106.6047
209.7289, 108.2251
210.2110, 108.4725
210.6931, 108.1350
211.1752, 108.0370
211.6573, 108.1350
212.1395, 108.6632
212.6216, 109.4496
213.1037, 110.7620
213.5858, 113.4677
214.0679, 117.0920
214.5500, 119.9742
215.0322, 120.2422
215.5143, 117.3937
215.9964, 115.2436
216.4785, 112.7104
216.9606, 111.8439
217.4427, 114.5567
217.9249, 119.8607
218.4070, 125.0544
218.8891, 127.8346
219.3712, 128.1307
219.8533, 128.5606
220.3354, 129.0504
220.8176, 129.7626
221.2997, 129.9031
221.7818, 130.3153
222.2639, 132.8645
222.7460, 139.2696
223.2281, 149.0007
223.7103, 155.7384
224.1924, 155.3584
224.6745, 156.3751
225.1566, 161.7634
225.6387, 169.4265
226.1208, 176.1949
226.6030, 180.2031
227.0851, 181.9883
227.5672, 183.7519
228.0493, 185.2485
228.5314, 187.0986
229.0135, 190.5556
229.4957, 193.9806
229.9778, 195.0837
230.4599, 192.7486
230.9420, 188.6924
231.4241, 187.1614
231.9062, 189.2738
232.3884, 192.2527
232.8705, 196.9423
233.3526, 201.5439
233.8347, 204.1690
234.3168, 204.2503
234.7989, 203.3700
235.2811, 204.5642
235.7632, 209.6038
236.2453, 212.4467
236.7274, 210.4321
237.2095, 207.8479
237.6916, 208.2952
238.1738, 212.1199
238.6559, 216.0478
239.1380, 216.1274
239.6201, 211.8496
240.1022, 205.4411
240.5843, 195.2918
241.0665, 184.4137
241.5486, 173.4750
242.0307, 162.8954
242.5128, 153.5258
242.9949, 146.3764
243.4770, 141.6007
243.9592, 137.1202
244.4413, 133.4423
244.9234, 129.5358
245.4055, 124.2309
245.8876, 118.2777
246.3697, 113.6171
246.8519, 111.9442
247.3340, 112.8956
247.8161, 113.2782
248.2982, 112.7749
248.7803, 112.0783
249.2624, 111.5278
249.7446, 110.9532
250.2267, 109.8974
250.7088, 107.7402
251.1909, 105.3455
251.6730, 105.6698
252.1551, 110.8437
252.6373, 114.3570
253.1194, 112.8821
253.6015, 109.3783
254.0836, 107.0683
254.5657, 107.2553
255.0478, 108.4904
255.5300, 108.3249
256.0121, 106.2772
256.4942, 104.6613
256.9763, 105.7328
257.4584, 106.5564
257.9406, 104.4042
258.4227, 98.61642
258.9048, 92.19147
259.3869, 88.23397
259.8690, 86.83107
260.3511, 85.80564
260.8333, 84.84907
261.3154, 84.09768
261.7975, 83.60847
262.2796, 83.38902
262.7617, 83.43904
263.2438, 84.13545
263.7260, 85.25284
264.2081, 85.34917
264.6902, 83.71497
265.1723, 81.89082
265.6544, 81.56683
266.1365, 82.14043
266.6187, 81.53267
267.1008, 76.83377
267.5829, 70.63597
268.0650, 69.15728
268.5471, 73.89563
269.0292, 78.92044
269.5114, 79.36668
269.9935, 77.35610
270.4756, 76.49151
270.9577, 79.16726
271.4398, 82.16183
271.9219, 80.92493
272.4041, 75.29494
272.8862, 71.02822
273.3683, 71.83591
273.8504, 75.48651
274.3325, 77.52675
274.8146, 77.37726
275.2968, 76.29794
275.7789, 74.77556
276.2610, 72.93223
276.7431, 71.23477
277.2252, 69.80575
277.7073, 68.66387
278.1895, 67.62559
278.6716, 66.41013
279.1537, 66.34743
279.6358, 69.03257
280.1179, 72.93962
280.6000, 75.34618
281.0822, 75.56904
281.5643, 74.84076
282.0464, 74.63220
282.5285, 75.04099
283.0106, 74.72976
283.4927, 72.52031
283.9749, 70.17831
284.4570, 69.38667
284.9391, 70.22951
285.4212, 71.73385
285.9033, 73.40089
286.3854, 75.14432
286.8676, 75.43505
287.3497, 72.90437
287.8318, 70.38930
288.3139, 69.20395
288.7960, 69.14321
289.2781, 69.60725
289.7603, 70.34336
290.2424, 71.21938
290.7245, 71.65110
291.2066, 71.17077
291.6887, 70.85711
292.1708, 70.58036
292.6530, 70.66074
293.1351, 71.76404
293.6172, 74.09508
294.0993, 76.79258
294.5814, 78.31396
295.0635, 78.05589
295.5457, 77.65008
296.0278, 77.03449
296.5099, 76.33141
296.9920, 75.54335
297.4741, 74.71919
297.9562, 74.06428
298.4384, 73.90723
298.9205, 74.45990
299.4026, 73.98886
299.8847, 70.16718
300.3668, 67.66608
300.8489, 69.40363
301.3310, 73.72726
301.8131, 76.79238
302.2953, 75.72460
302.7774, 71.73476
303.2595, 71.41620
303.7416, 79.63992
304.2237, 84.22969
304.7058, 79.33875
305.1880, 71.39599
305.6701, 67.81003
306.1522, 71.42964
306.6343, 78.00758
307.1164, 80.48436
307.5985, 77.77115
308.0807, 74.96960
308.5628, 71.54858
309.0449, 69.33385
309.5270, 70.36429
310.0091, 74.49422
310.4912, 78.59786
310.9734, 80.05054
311.4555, 79.01768
311.9376, 76.99771
312.4197, 72.92300
312.9018, 69.60670
313.3839, 68.82854
313.8661, 70.05878
314.3482, 72.02377
314.8303, 75.07049
315.3124, 78.09953
315.7945, 78.82046
316.2766, 76.85763
316.7588, 74.79352
317.2409, 74.19363
317.7230, 74.31578
318.2051, 73.91895
318.6872, 72.68487
319.1693, 71.22625
319.6515, 69.30795
320.1336, 67.33443
320.6157, 67.54358
321.0978, 71.66390
321.5799, 76.75936
322.0620, 77.75752
322.5442, 74.18742
323.0263, 70.81683
323.5084, 68.61700
323.9905, 67.51053
324.4726, 67.59531
324.9547, 68.88235
325.4369, 70.77180
325.9190, 72.96495
326.4011, 75.52123
326.8832, 76.63401
327.3653, 75.08056
327.8474, 73.27132
328.3296, 72.28273
328.8117, 72.14696
329.2938, 72.91143
329.7759, 74.79855
330.2580, 77.27429
330.7401, 77.84777
331.2223, 74.33575
331.7044, 71.61821
332.1865, 69.62210
332.6686, 68.91867
333.1507, 70.87180
333.6328, 75.65505
334.1150, 80.95085
334.5971, 83.09714
335.0792, 80.40118
335.5613, 79.09651
336.0434, 81.16418
336.5255, 82.71589
337.0077, 80.73745
337.4898, 76.21327
337.9719, 72.71815
338.4540, 73.45190
338.9361, 77.81547
339.4182, 80.38659
339.9004, 80.27670
340.3825, 79.53873
340.8646, 77.75240
341.3467, 76.12840
341.8288, 76.50725
342.3109, 79.85044
342.7931, 84.10622
343.2752, 86.07478
343.7573, 85.42731
344.2394, 84.83749
344.7215, 85.06120
345.2036, 85.46250
345.6858, 85.42225
346.1679, 84.93156
346.6500, 84.67776
347.1321, 85.58473
347.6142, 87.05391
348.0963, 87.15319
348.5785, 85.23712
349.0606, 83.36996
349.5427, 83.24297
350.0248, 84.47931
350.5069, 86.10458
350.9890, 89.01976
351.4712, 91.42360
351.9533, 91.44695
352.4354, 89.47775
352.9175, 87.43978
353.3996, 86.02477
353.8817, 85.34303
354.3639, 86.04147
354.8460, 89.44515
355.3281, 91.21506
355.8102, 88.22646
356.2923, 84.06869
356.7744, 83.68504
357.2566, 87.92686
357.7387, 92.95498
358.2208, 94.22334
358.7029, 90.59085
359.1850, 89.63338
359.6671, 93.59222
360.1493, 97.57925
360.6314, 99.41898
361.1135, 99.56718
361.5956, 99.35500
362.0777, 99.55488
362.5598, 100.0143
363.0420, 100.2401
363.5241, 100.7314
364.0062, 100.0819
364.4883, 95.25733
364.9704, 91.11326
365.4525, 92.70638
365.9347, 100.6794
366.4168, 110.2178
366.8989, 116.0960
367.3810, 118.1993
367.8631, 119.0927
368.3452, 117.3324
368.8274, 116.2324
369.3095, 118.2183
369.7916, 122.1127
370.2737, 125.1109
370.7558, 126.0859
371.2379, 125.2719
371.7201, 121.9100
372.2022, 115.4788
372.6843, 111.7848
373.1664, 115.6895
373.6485, 122.3061
374.1306, 123.8207
374.6128, 118.5963
375.0949, 113.3515
375.5770, 112.1555
376.0591, 113.3146
376.5412, 113.4936
377.0233, 111.9802
377.5055, 109.7923
377.9876, 108.1832
378.4697, 107.2654
378.9518, 104.4825
379.4339, 96.18009
379.9160, 89.27187
380.3982, 89.67573
380.8803, 95.10731
381.3624, 98.73591
381.8445, 96.70318
382.3266, 90.92941
382.8087, 87.20337
383.2909, 88.41643
383.7730, 87.96194
384.2551, 84.49480
384.7372, 80.11983
385.2193, 76.07883
385.7014, 72.83069
386.1836, 70.77170
386.6657, 70.60522
387.1478, 72.46858
387.6299, 73.59764
388.1120, 73.77260
388.5941, 73.39195
389.0763, 72.40086
389.5584, 71.00916
390.0405, 69.35070
390.5226, 67.24892
391.0047, 65.55405
391.4868, 65.93522
391.9690, 68.64200
392.4511, 71.09212
392.9332, 73.07092
393.4153, 74.03936
393.8974, 72.98713
394.3795, 69.95819
394.8617, 67.80998
395.3438, 69.22807
395.8259, 71.97958
396.3080, 71.66380
396.7901, 67.70396
397.2722, 64.47282
397.7544, 65.78911
398.2365, 70.43227
398.7186, 71.79219
399.2007, 66.19973
399.6828, 61.49523
400.1649, 61.23056
400.6471, 63.72657
401.1292, 66.43501
401.6113, 68.53623
402.0934, 70.09338
402.5755, 71.23112
403.0576, 71.98754
403.5398, 72.10479
404.0219, 71.13040
404.5040, 70.03174
404.9861, 69.06940
405.4682, 68.39642
405.9503, 68.28199
406.4325, 68.95511
406.9146, 70.17392
407.3967, 71.04079
407.8788, 71.28323
408.3609, 71.73470
408.8430, 72.94029
409.3252, 74.15273
409.8073, 74.87909
410.2894, 75.01688
410.7715, 74.56437
411.2536, 72.77979
411.7357, 70.17484
412.2179, 69.88773
412.7000, 73.19785
413.1821, 76.23348
413.6642, 75.72354
414.1463, 73.05795
414.6284, 70.77280
415.1106, 68.68147
415.5927, 67.88267
416.0748, 70.26176
416.5569, 74.72010
417.0390, 77.71018
417.5211, 77.87756
418.0033, 76.66702
418.4854, 76.20309
418.9675, 76.82803
419.4496, 77.04012
419.9317, 75.01071
420.4138, 74.02353
420.8960, 77.61456
421.3781, 84.45400
421.8602, 90.01270
422.3423, 91.29501
422.8244, 89.22291
423.3065, 87.71098
423.7887, 86.32693
424.2708, 86.29393
424.7529, 88.55143
425.2350, 91.52183
425.7171, 93.72269
426.1992, 95.06277
426.6814, 96.77299
427.1635, 100.6326
427.6456, 106.3609
428.1277, 110.0862
428.6098, 111.0303
429.0919, 111.4346
429.5741, 111.7374
430.0562, 112.4446
430.5383, 114.4212
431.0204, 118.0121
431.5025, 122.6032
431.9846, 127.9737
432.4668, 133.9718
432.9489, 139.8459
433.4310, 145.1730
433.9131, 151.1279
434.3952, 159.2804
434.8773, 169.8103
435.3595, 180.5757
435.8416, 191.3518
436.3237, 202.4039
436.8058, 215.4455
437.2879, 228.9448
437.7701, 239.3499
438.2522, 244.7924
438.7343, 246.2731
439.2164, 246.1990
439.6985, 244.0129
440.1806, 241.1558
440.6628, 236.7984
441.1449, 232.5557
441.6270, 229.6975
442.1091, 228.0134
442.5912, 225.8759
443.0733, 220.3627
443.5555, 214.1229
444.0376, 218.7339
444.5197, 238.0536
445.0018, 257.4390
445.4839, 270.7841
445.9660, 281.8599
446.4482, 293.5027
446.9303, 305.6965
447.4124, 320.9464
447.8945, 343.6674
448.3766, 369.9984
448.8587, 391.3764
449.3409, 406.5508
449.8230, 419.9992
450.3051, 436.2595
450.7872, 454.2765
451.2693, 464.8681
451.7514, 460.9440
452.2336, 458.4412
452.7157, 463.5684
453.1978, 472.8867
453.6799, 480.6499
454.1620, 485.4645
454.6441, 491.7662
455.1263, 505.7599
455.6084, 528.9272
456.0905, 551.2650
456.5726, 567.4332
457.0547, 588.2162
457.5368, 618.4641
458.0190, 655.1868
458.5011, 693.0377
458.9832, 729.4919
459.4653, 767.9529
459.9474, 813.9742
460.4295, 867.4493
460.9117, 925.0042
461.3938, 991.4175
461.8759, 1054.196
462.3580, 1101.169
462.8401, 1134.709
463.3222, 1166.626
463.8044, 1203.488
464.2865, 1237.626
464.7686, 1264.094
465.2507, 1282.207
465.7328, 1291.163
466.2149, 1291.496
466.6971, 1279.278
467.1792, 1246.179
467.6613, 1180.591
468.1434, 1116.849
468.6255, 1055.978
469.1076, 995.9270
469.5898, 934.7711
470.0719, 873.5334
470.5540, 815.3296
471.0361, 761.3394
471.5182, 712.8631
472.0003, 673.5294
472.4825, 646.6223
472.9646, 620.6169
473.4467, 592.7372
473.9288, 565.4589
474.4109, 539.2802
474.8930, 514.7731
475.3752, 494.6383
475.8573, 483.0081
476.3394, 475.7350
476.8215, 465.8773
477.3036, 453.2759
477.7857, 439.6857
478.2679, 425.8359
478.7500, 411.6924
479.2321, 397.1585
479.7142, 383.0768
480.1963, 366.9941
480.6784, 346.1718
481.1606, 324.6786
481.6427, 306.0919
482.1248, 290.6041
482.6069, 276.9099
483.0890, 264.1652
483.5711, 252.1018
484.0533, 238.6285
484.5354, 220.3718
485.0175, 206.4357
485.4996, 201.5835
485.9817, 198.5466
486.4638, 190.8327
486.9460, 178.1900
487.4281, 166.1864
487.9102, 159.1912
488.3923, 156.1631
488.8744, 154.4766
489.3565, 154.4488
489.8387, 153.8325
490.3208, 151.6541
490.8029, 148.0214
491.2850, 143.0949
491.7671, 135.9220
492.2492, 130.1819
492.7314, 127.7069
493.2135, 127.0270
493.6956, 127.1584
494.1777, 127.6602
494.6598, 127.2479
495.1419, 124.8084
495.6241, 120.7054
496.1062, 117.2031
496.5883, 114.0462
497.0704, 111.9714
497.5525, 111.8077
498.0346, 112.1649
498.5168, 111.7538
498.9989, 110.5368
499.4810, 109.6048
499.9631, 110.6013
500.4452, 112.5752
500.9273, 111.4344
501.4095, 106.3621
501.8916, 101.6133
502.3737, 99.19925
502.8558, 98.09129
503.3379, 96.31435
503.8200, 93.31225
504.3022, 91.90720
504.7843, 95.30796
505.2664, 99.63422
505.7485, 99.71942
506.2306, 95.68788
506.7127, 91.69425
507.1949, 90.55389
507.6770, 91.58372
508.1591, 91.81210
508.6412, 90.69232
509.1233, 89.52459
509.6054, 87.72094
510.0876, 86.39669
510.5697, 86.68158
511.0518, 88.36237
511.5339, 90.19630
512.0161, 91.58190
512.4982, 92.29531
512.9803, 91.15902
513.4624, 87.65175
513.9445, 85.63173
514.4266, 87.51382
514.9088, 90.62643
515.3909, 91.31886
515.8730, 89.40112
516.3551, 87.69430
516.8372, 87.05920
517.3193, 86.99785
517.8015, 87.83233
518.2836, 88.98506
518.7657, 87.97623
519.2478, 83.16904
519.7299, 76.89027
520.2120, 74.90799
520.6942, 80.55706
521.1763, 84.17140
521.6584, 85.18311
522.1405, 84.95381
522.6226, 83.71101
523.1047, 81.83678
523.5869, 79.99216
524.0690, 78.46315
524.5511, 77.24946
525.0332, 76.56228
525.5153, 76.39525
525.9974, 75.58622
526.4796, 73.35580
526.9617, 71.22057
527.4438, 71.11250
527.9259, 72.76987
528.4080, 74.13268
528.8901, 74.77328
529.3723, 75.18644
529.8544, 76.08061
530.3365, 76.88297
530.8186, 76.05184
531.3007, 73.12252
531.7828, 70.00423
532.2650, 69.72628
532.7471, 73.20423
533.2292, 73.73416
533.7113, 67.29812
534.1934, 62.50880
534.6755, 63.39835
535.1577, 66.90792
535.6398, 68.81009
536.1219, 67.82598
536.6040, 65.88472
537.0861, 64.81845
537.5682, 64.24404
538.0504, 62.62672
538.5325, 59.60462
539.0146, 57.00185
539.4967, 56.10261
539.9788, 56.72015
540.4609, 57.84526
540.9431, 59.74625
541.4252, 61.73755
541.9073, 64.59032
542.3894, 66.88725
542.8715, 66.79564
543.3536, 64.51601
543.8358, 62.02222
544.3179, 60.82579
544.8000, 60.74054
545.2821, 61.05031
545.7642, 61.97009
546.2463, 62.70049
546.7285, 63.25367
547.2106, 63.35679
547.6926, 62.71795
548.1747, 61.36869
548.6569, 59.72554
549.1390, 56.81573
549.6211, 54.52544
550.1032, 55.77534
550.5853, 59.74681
551.0674, 62.69499
551.5496, 63.06092
552.0317, 62.19048
552.5138, 62.28195
552.9959, 63.77556
553.4780, 64.74602
553.9601, 64.47496
554.4423, 64.52904
554.9244, 66.41051
555.4065, 68.76276
555.8886, 69.28064
556.3707, 67.08482
556.8528, 63.91675
557.3350, 61.46823
557.8171, 59.78229
558.2992, 59.32254
558.7813, 60.33316
559.2634, 62.00766
559.7455, 64.64362
560.2277, 67.40004
560.7098, 67.66598
561.1919, 63.33078
561.6740, 60.17614
562.1561, 61.31923
562.6382, 63.73632
563.1204, 63.82976
563.6025, 61.63150
564.0846, 59.88020
564.5667, 60.65908
565.0488, 63.27579
565.5309, 64.91199
566.0131, 64.94715
566.4952, 65.57439
566.9773, 68.55968
567.4594, 71.11139
567.9415, 70.97705
568.4236, 68.65005
568.9058, 66.72150
569.3879, 66.74576
569.8700, 67.21905
570.3521, 66.07404
570.8342, 64.01888
571.3163, 63.85608
571.7985, 66.60478
572.2806, 69.79330
572.7627, 70.27059
573.2448, 67.60829
573.7269, 66.30848
574.2090, 67.58052
574.6912, 68.68371
575.1733, 68.48848
575.6554, 68.00467
576.1375, 68.73069
576.6196, 70.85344
577.1017, 72.61891
577.5839, 72.00938
578.0660, 69.77601
578.5481, 68.29828
579.0302, 67.59054
579.5123, 67.96227
579.9944, 70.20024
580.4766, 73.03991
580.9587, 73.69713
581.4408, 71.48241
581.9229, 70.39231
582.4050, 71.44054
582.8871, 73.35406
583.3693, 76.10443
583.8514, 78.93974
584.3335, 80.19956
584.8156, 79.09186
585.2977, 77.38988
585.7798, 78.26975
586.2620, 82.05547
586.7441, 84.46407
587.2262, 84.40861
587.7083, 84.45176
588.1904, 86.86427
588.6725, 90.12526
589.1547, 91.35001
589.6368, 88.87944
590.1189, 87.78276
590.6010, 91.73162
591.0831, 97.76328
591.5652, 102.5209
592.0474, 105.5676
592.5295, 107.2027
593.0116, 107.4560
593.4937, 106.8771
593.9758, 107.2573
594.4579, 109.2326
594.9401, 110.6488
595.4222, 109.5747
595.9043, 109.5268
596.3864, 113.3221
596.8685, 119.5401
597.3506, 124.3788
597.8328, 125.7901
598.3149, 126.6243
598.7970, 130.2599
599.2791, 135.2694
599.7612, 137.1300
600.2433, 134.9637
600.7255, 133.5514
601.2076, 137.0914
601.6897, 144.9887
602.1718, 152.4058
