##NAMES=Polylithionite
##RRUFFID=R060172
##IDEAL CHEMISTRY=KLi_2_AlSi_4_O_10_F_2_
##LOCALITY=Mont Saint-Hilaire, Quebec, Canada
##OWNER=RRUFF
##SOURCE=Guy Ouellet
##DESCRIPTION=Pseudohexagonal micaceous crystals with small white natrolite, red rhodochrosite and white albite
##STATUS=The identification of this mineral has been confirmed by X-ray diffraction and chemical analysis
##URL=rruff.info/R060172
##MEASURED CHEMISTRY=(K_0.98_Na_0.02_)Li_2.00_(Al_0.84_Ti_0.10_Mg_0.04_Mn_0.02_)(Si_0.99_Al_0.01_)_4_O_10_(F_0.82_(OH)_0.18_)_2_
90.26367, 15.19855
90.74579, 15.19934
91.22791, 15.22143
91.71002, 15.25841
92.19214, 15.25112
92.67426, 15.18624
93.15637, 15.04398
93.63850, 14.76198
94.12061, 14.14579
94.60273, 13.41872
95.08485, 13.08168
95.56696, 13.14535
96.04908, 13.54628
96.53120, 14.58718
97.01331, 16.19149
97.49543, 17.16858
97.97755, 16.57095
98.45966, 14.52372
98.94178, 13.37658
99.42390, 13.36148
99.90602, 13.93663
100.3881, 14.04204
100.8703, 13.54956
101.3524, 13.04093
101.8345, 12.83540
102.3166, 13.02015
102.7987, 13.14564
103.2808, 13.18683
103.7630, 13.14703
104.2451, 13.02092
104.7272, 12.72187
105.2093, 12.44942
105.6914, 12.36635
106.1735, 12.74557
106.6557, 12.83563
107.1378, 12.38773
107.6199, 11.37073
108.1020, 10.75848
108.5841, 10.71999
109.0662, 10.99530
109.5484, 11.35021
110.0305, 11.96963
110.5126, 12.48933
110.9947, 12.85423
111.4768, 13.06493
111.9590, 13.13084
112.4411, 12.94335
112.9232, 12.63738
113.4053, 12.39204
113.8874, 12.19802
114.3695, 12.09992
114.8517, 12.14590
115.3338, 12.41822
115.8159, 12.63597
116.2980, 12.52010
116.7801, 12.28449
117.2622, 12.39109
117.7444, 13.02677
118.2265, 14.05205
118.7086, 15.48372
119.1907, 17.92211
119.6728, 19.88089
120.1549, 20.18988
120.6371, 19.18720
121.1192, 18.23985
121.6013, 18.15911
122.0834, 18.55272
122.5655, 18.97952
123.0477, 19.15471
123.5298, 19.44274
124.0119, 20.26573
124.4940, 21.59324
124.9761, 23.00126
125.4582, 24.17370
125.9404, 25.17706
126.4225, 26.13082
126.9046, 27.14184
127.3867, 28.11316
127.8688, 28.86234
128.3509, 29.37655
128.8331, 29.79341
129.3152, 30.25774
129.7973, 30.75704
130.2794, 31.21736
130.7615, 31.39913
131.2436, 31.48364
131.7258, 32.19169
132.2079, 33.66532
132.6900, 35.42480
133.1721, 36.65358
133.6542, 37.33791
134.1364, 38.14400
134.6185, 39.50716
135.1006, 41.41241
135.5827, 43.26089
136.0648, 45.01166
136.5469, 46.69902
137.0291, 48.39112
137.5112, 50.06614
137.9933, 51.79284
138.4754, 53.79109
138.9575, 56.18330
139.4396, 57.95087
139.9218, 58.85102
140.4039, 59.03651
140.8860, 59.17003
141.3681, 59.17223
141.8502, 59.26350
142.3323, 59.64950
142.8145, 60.47884
143.2966, 61.21086
143.7787, 61.61548
144.2608, 61.71186
144.7429, 62.46737
145.2251, 64.33062
145.7072, 66.46071
146.1893, 68.05337
146.6714, 68.75605
147.1535, 69.44160
147.6356, 70.22339
148.1178, 71.08040
148.5999, 72.15128
149.0820, 73.50586
149.5641, 75.04218
150.0462, 76.63130
150.5283, 78.45705
151.0105, 80.13232
151.4926, 80.78420
151.9747, 80.89238
152.4568, 81.16528
152.9389, 81.62901
153.4210, 82.25652
153.9032, 83.02317
154.3853, 84.24656
154.8674, 85.31614
155.3495, 85.97890
155.8316, 85.97952
156.3138, 86.16485
156.7959, 86.68551
157.2780, 87.46858
157.7601, 88.37707
158.2422, 89.51905
158.7243, 90.68144
159.2065, 91.76912
159.6886, 92.72603
160.1707, 93.67872
160.6528, 94.58949
161.1349, 95.51115
161.6170, 96.58746
162.0992, 98.08424
162.5813, 99.62096
163.0634, 100.9338
163.5455, 101.7976
164.0276, 102.6588
164.5097, 103.7886
164.9919, 105.1079
165.4740, 106.3079
165.9561, 107.0745
166.4382, 107.7275
166.9203, 108.5805
167.4025, 110.0240
167.8846, 111.3817
168.3667, 112.1254
168.8488, 112.3460
169.3309, 112.6237
169.8130, 113.3194
170.2952, 114.2721
170.7773, 115.2723
171.2594, 116.2548
171.7415, 117.2593
172.2236, 118.2784
172.7057, 119.3197
173.1879, 120.5219
173.6700, 122.1833
174.1521, 124.0528
174.6342, 125.7125
175.1163, 126.9308
175.5984, 127.9128
176.0806, 128.9656
176.5627, 130.0990
177.0448, 130.9564
177.5269, 131.3969
178.0090, 131.3372
178.4911, 130.5814
178.9733, 128.8491
179.4554, 126.4491
179.9375, 123.7747
180.4196, 120.8491
180.9017, 117.7505
181.3839, 114.4296
181.8660, 110.9919
182.3481, 107.6812
182.8302, 104.5940
183.3123, 101.7406
183.7944, 99.16016
184.2766, 96.83360
184.7587, 94.75833
185.2408, 92.93114
185.7229, 91.34912
186.2050, 89.89017
186.6871, 88.45040
187.1693, 87.07345
187.6514, 86.06739
188.1335, 85.49001
188.6156, 85.06734
189.0977, 84.29825
189.5798, 83.21162
190.0620, 82.32176
190.5441, 82.02710
191.0262, 82.22164
191.5083, 82.19437
191.9904, 81.88003
192.4725, 81.39301
192.9547, 80.91605
193.4368, 80.44656
193.9189, 79.94531
194.4010, 79.33488
194.8831, 78.63117
195.3652, 78.08524
195.8474, 77.72572
196.3295, 77.51144
196.8116, 77.42606
197.2937, 77.49386
197.7758, 77.47195
198.2579, 77.13425
198.7401, 76.46940
199.2222, 76.03300
199.7043, 75.93398
200.1864, 76.01003
200.6685, 75.85007
201.1507, 75.39556
201.6328, 74.98024
202.1149, 74.82500
202.5970, 74.95428
203.0791, 75.10561
203.5612, 75.30088
204.0434, 75.47250
204.5255, 75.40221
205.0076, 75.03835
205.4897, 74.61382
205.9718, 74.24843
206.4539, 73.93658
206.9361, 73.71437
207.4182, 73.57045
207.9003, 73.52537
208.3824, 73.69594
208.8645, 74.18513
209.3466, 74.62386
209.8288, 74.75941
210.3109, 74.51559
210.7930, 74.29954
211.2751, 74.13777
211.7572, 74.03141
212.2393, 73.98957
212.7215, 74.03446
213.2036, 74.09472
213.6857, 74.13050
214.1678, 74.14431
214.6499, 74.10511
215.1321, 73.93680
215.6142, 73.71737
216.0963, 73.81484
216.5784, 74.33278
217.0605, 74.96516
217.5426, 75.57670
218.0248, 76.26991
218.5069, 76.59422
218.9890, 76.34956
219.4711, 75.69768
219.9532, 75.41405
220.4353, 75.61049
220.9175, 75.98650
221.3996, 76.34327
221.8817, 76.59299
222.3638, 77.04500
222.8459, 77.72726
223.3280, 78.63943
223.8102, 79.78065
224.2923, 81.42978
224.7744, 82.91224
225.2565, 83.69678
225.7386, 83.32332
226.2208, 83.37513
226.7029, 84.10680
227.1850, 85.38998
227.6671, 86.51525
228.1492, 87.35720
228.6313, 88.21866
229.1135, 89.31726
229.5956, 90.87704
230.0777, 92.18050
230.5598, 93.08428
231.0419, 93.68272
231.5240, 94.45186
232.0062, 95.41154
232.4883, 96.51622
232.9704, 97.75224
233.4525, 99.16646
233.9346, 100.5993
234.4167, 101.9964
234.8989, 103.3925
235.3810, 104.9704
235.8631, 106.9238
236.3452, 108.8294
236.8273, 110.3920
237.3095, 111.1947
237.7916, 112.5606
238.2737, 114.7353
238.7558, 117.5423
239.2379, 120.3043
239.7200, 123.0859
240.2022, 125.7358
240.6843, 128.1419
241.1664, 130.0245
241.6485, 132.2954
242.1306, 135.1580
242.6127, 138.4492
243.0949, 141.5268
243.5770, 144.7484
244.0591, 147.2787
244.5412, 148.6561
245.0233, 148.6828
245.5054, 148.0508
245.9876, 146.8030
246.4697, 144.9189
246.9518, 142.1983
247.4339, 138.2137
247.9160, 134.0139
248.3981, 130.0983
248.8803, 126.4164
249.3624, 123.0843
249.8445, 120.1922
250.3266, 117.6242
250.8087, 115.0138
251.2909, 112.1551
251.7730, 109.6168
252.2551, 107.7304
252.7372, 106.7393
253.2193, 105.7181
253.7014, 104.5696
254.1836, 103.4403
254.6657, 102.6843
255.1478, 102.3743
255.6299, 102.3109
256.1120, 102.4409
256.5941, 102.8241
257.0763, 103.2139
257.5584, 103.6182
258.0405, 104.0299
258.5226, 104.4415
259.0047, 104.8987
259.4868, 105.2670
259.9690, 105.4181
260.4511, 105.2203
260.9332, 105.4414
261.4153, 106.2355
261.8974, 107.3164
262.3795, 108.1745
262.8617, 108.7130
263.3438, 109.2791
263.8259, 110.0110
264.3080, 110.9335
264.7901, 111.8647
265.2722, 112.9316
265.7544, 113.8564
266.2365, 114.1566
266.7186, 113.6542
267.2007, 113.0732
267.6829, 112.6366
268.1650, 112.3501
268.6471, 112.0397
269.1292, 111.7435
269.6113, 111.3567
270.0934, 110.7070
270.5756, 109.7090
271.0577, 108.7507
271.5398, 107.9338
272.0219, 107.2497
272.5040, 106.6455
272.9861, 106.1464
273.4683, 105.6879
273.9504, 105.2036
274.4325, 104.6937
274.9146, 104.1555
275.3967, 103.5348
275.8788, 102.8647
276.3610, 102.4686
276.8431, 102.3768
277.3252, 102.4754
277.8073, 102.7491
278.2894, 103.2302
278.7715, 103.4989
279.2537, 103.3831
279.7358, 103.0145
280.2179, 103.0072
280.7000, 103.4418
281.1821, 103.8785
281.6642, 103.8382
282.1464, 103.3162
282.6285, 103.1715
283.1106, 103.6475
283.5927, 104.5002
284.0748, 105.0474
284.5569, 105.2595
285.0391, 105.4424
285.5212, 105.8595
286.0033, 106.4815
286.4854, 106.9685
286.9675, 107.2564
287.4496, 107.4190
287.9318, 107.5424
288.4139, 107.6260
288.8960, 107.8371
289.3781, 108.2954
289.8602, 108.9762
290.3424, 109.8288
290.8245, 110.9409
291.3066, 111.9941
291.7887, 112.3524
292.2708, 112.0874
292.7530, 111.8390
293.2351, 111.5870
293.7172, 112.1211
294.1993, 112.4813
294.6814, 112.6769
295.1635, 112.2151
295.6457, 112.6023
296.1278, 112.6492
296.6099, 112.6822
297.0920, 113.1888
297.5741, 112.8226
298.0562, 113.3217
298.5384, 113.4755
299.0205, 113.7873
299.5026, 113.7567
299.9847, 113.8319
300.4668, 114.1023
300.9489, 114.0286
301.4311, 113.8807
301.9132, 113.8937
302.3953, 113.6710
302.8774, 114.2480
303.3595, 114.6510
303.8416, 114.8894
304.3238, 114.4704
304.8059, 114.9004
305.2880, 114.9901
305.7701, 115.0659
306.2522, 115.6153
306.7343, 115.2919
307.2165, 115.8339
307.6986, 116.0304
308.1807, 116.3005
308.6628, 116.3276
309.1449, 115.9973
309.6270, 114.9573
310.1092, 113.4096
310.5913, 112.0377
311.0734, 111.3155
311.5555, 110.8743
312.0376, 110.4453
312.5197, 110.0355
313.0019, 109.4782
313.4840, 108.5553
313.9661, 107.4124
314.4482, 106.3397
314.9304, 105.6950
315.4125, 104.9929
315.8946, 103.8093
316.3767, 101.9353
316.8588, 100.3836
317.3409, 99.76919
317.8231, 99.65726
318.3052, 99.47539
318.7873, 98.95979
319.2694, 98.41468
319.7515, 97.97498
320.2336, 97.65688
320.7158, 97.31589
321.1979, 96.85449
321.6800, 96.38081
322.1621, 95.99407
322.6442, 96.00235
323.1263, 95.80120
323.6085, 95.07722
324.0906, 93.87887
324.5727, 92.97753
325.0548, 92.70678
325.5369, 92.63210
326.0190, 92.49274
326.5012, 92.28449
326.9833, 91.99281
327.4654, 91.64236
327.9475, 91.21590
328.4296, 90.64218
328.9117, 89.57116
329.3939, 88.66317
329.8760, 87.91881
330.3581, 88.09447
330.8402, 88.09621
331.3223, 87.93340
331.8044, 87.11311
332.2866, 87.14177
332.7687, 86.83022
333.2508, 86.50473
333.7329, 86.65291
334.2150, 85.92825
334.6971, 86.06892
335.1793, 85.86413
335.6614, 85.81746
336.1435, 85.31859
336.6256, 85.52711
337.1077, 85.62753
337.5899, 85.33509
338.0720, 84.52334
338.5541, 84.73037
339.0362, 84.76350
339.5183, 84.63206
340.0005, 83.84313
340.4826, 83.90321
340.9647, 83.62306
341.4468, 83.32895
341.9289, 83.50854
342.4110, 82.47906
342.8932, 82.89152
343.3753, 83.13006
343.8574, 83.20403
344.3395, 82.62054
344.8216, 82.88603
345.3037, 82.81129
345.7859, 82.72260
346.2680, 83.35181
346.7501, 83.44427
347.2322, 83.52279
347.7143, 84.07497
348.1964, 83.75433
348.6786, 84.29903
349.1607, 84.49830
349.6428, 84.85564
350.1249, 84.90331
350.6070, 85.27700
351.0891, 85.50182
351.5713, 85.30521
352.0534, 84.97535
352.5355, 84.95022
353.0176, 85.22398
353.4997, 85.60247
353.9818, 85.99238
354.4640, 86.37419
354.9461, 86.73507
355.4282, 87.13779
355.9103, 87.42740
356.3924, 87.31281
356.8745, 86.91512
357.3567, 86.71407
357.8388, 87.17893
358.3209, 87.84498
358.8030, 88.29433
359.2851, 88.37087
359.7672, 88.43982
360.2494, 88.93967
360.7315, 89.55062
361.2136, 89.67820
361.6957, 88.82492
362.1779, 87.66174
362.6600, 86.41846
363.1421, 85.07887
363.6242, 83.97077
364.1063, 83.26294
364.5884, 82.80244
365.0706, 82.43860
365.5527, 82.28891
366.0348, 82.07752
366.5169, 81.75134
366.9990, 81.30961
367.4811, 80.77242
367.9633, 79.81348
368.4454, 78.98199
368.9275, 78.61179
369.4096, 79.48192
369.8917, 79.73153
370.3738, 78.91368
370.8560, 77.46675
371.3381, 76.63532
371.8202, 76.71536
372.3023, 77.00283
372.7844, 77.28914
373.2665, 77.64023
373.7487, 77.69759
374.2308, 77.33200
374.7129, 76.80355
375.1950, 76.45509
375.6771, 76.32211
376.1592, 76.25475
376.6414, 76.20439
377.1235, 76.18069
377.6056, 76.32093
378.0877, 76.69051
378.5698, 77.01595
379.0519, 76.98296
379.5341, 76.58903
380.0162, 76.35750
380.4983, 76.39437
380.9804, 76.62252
381.4625, 76.86369
381.9446, 77.12180
382.4268, 77.45892
382.9089, 78.01612
383.3910, 78.69176
383.8731, 79.11164
384.3553, 79.19274
384.8374, 79.26823
385.3195, 79.84338
385.8016, 80.75032
386.2837, 81.50467
386.7658, 81.65968
387.2480, 81.64864
387.7301, 82.01517
388.2122, 82.75328
388.6943, 83.68948
389.1764, 84.78577
389.6585, 85.96944
390.1407, 87.12790
390.6228, 88.21949
391.1049, 89.29262
391.5870, 90.34099
392.0691, 91.38175
392.5512, 92.46691
393.0334, 93.64122
393.5155, 94.85300
393.9976, 96.03012
394.4797, 97.09229
394.9618, 98.36732
395.4439, 100.2132
395.9261, 102.2614
396.4082, 104.0150
396.8903, 104.6872
397.3724, 105.7541
397.8545, 107.9043
398.3366, 111.2065
398.8188, 113.9756
399.3009, 115.6832
399.7830, 117.0973
400.2651, 118.6861
400.7472, 120.4125
401.2293, 122.3761
401.7115, 124.6261
402.1936, 127.1203
402.6757, 129.7797
403.1578, 132.8094
403.6399, 135.6636
404.1220, 138.1246
404.6042, 140.2189
405.0863, 141.8134
405.5684, 142.7979
406.0505, 143.4334
406.5326, 144.0527
407.0147, 144.6790
407.4969, 145.1327
407.9790, 145.3933
408.4611, 145.4446
408.9432, 145.2345
409.4254, 144.7682
409.9075, 143.9944
410.3896, 142.7019
410.8717, 141.0166
411.3538, 139.5060
411.8359, 138.2958
412.3181, 137.2190
412.8002, 136.2451
413.2823, 135.2824
413.7644, 133.8902
414.2465, 131.3385
414.7286, 128.4478
415.2108, 126.3518
415.6929, 125.1381
416.1750, 124.0626
416.6571, 122.6438
417.1392, 121.0088
417.6213, 119.2828
418.1035, 117.6060
418.5856, 115.7664
419.0677, 113.5845
419.5498, 111.1199
420.0319, 108.6805
420.5140, 106.2972
420.9962, 104.0133
421.4783, 101.8579
421.9604, 99.87301
422.4425, 97.92885
422.9246, 96.00261
423.4067, 94.12175
423.8889, 92.29743
424.3710, 90.49183
424.8531, 88.79870
425.3352, 87.32195
425.8173, 86.06320
426.2994, 84.66019
426.7816, 82.86369
427.2637, 81.18797
427.7458, 79.99707
428.2279, 79.47665
428.7100, 78.97452
429.1921, 78.49683
429.6743, 77.98988
430.1564, 77.29624
430.6385, 76.34219
431.1206, 75.48723
431.6028, 74.90876
432.0849, 74.59042
432.5670, 74.22810
433.0491, 73.78600
433.5312, 73.44476
434.0133, 73.56348
434.4955, 74.03861
434.9776, 74.12562
435.4597, 73.49801
435.9418, 72.57155
436.4239, 72.01329
436.9060, 71.81052
437.3882, 71.84903
437.8703, 72.25719
438.3524, 72.79130
438.8345, 73.05785
439.3166, 72.97785
439.7987, 72.88442
440.2809, 73.01218
440.7630, 73.30580
441.2451, 73.67749
441.7272, 74.24766
442.2093, 74.74702
442.6914, 74.96326
443.1736, 74.94200
443.6557, 74.99317
444.1378, 75.31069
444.6199, 75.68339
445.1020, 75.96857
445.5841, 76.06303
446.0663, 76.23232
446.5484, 76.61609
447.0305, 77.07580
447.5126, 77.37945
447.9947, 77.39931
448.4768, 77.41741
448.9590, 77.58963
449.4411, 77.92609
449.9232, 77.77744
450.4053, 76.97117
450.8874, 75.92355
451.3695, 74.89878
451.8517, 73.85201
452.3338, 73.00444
452.8159, 72.41383
453.2980, 71.99770
453.7801, 71.54319
454.2622, 71.03822
454.7444, 70.72553
455.2265, 70.78014
455.7086, 71.12731
456.1907, 71.47998
456.6729, 71.84750
457.1550, 72.15646
457.6371, 72.18981
458.1192, 72.12041
458.6013, 72.41935
459.0834, 73.35039
459.5656, 74.40713
460.0477, 75.04157
460.5298, 75.34945
461.0119, 75.58345
461.4940, 75.60888
461.9761, 75.80264
462.4583, 76.56595
462.9404, 77.97785
463.4225, 79.34636
463.9046, 80.31682
464.3867, 81.11949
464.8688, 81.94887
465.3510, 82.83435
465.8331, 83.77927
466.3152, 84.68999
466.7973, 85.63753
467.2794, 86.87700
467.7615, 89.06444
468.2437, 90.93098
468.7258, 91.97090
469.2079, 91.94821
469.6900, 92.17094
470.1721, 92.87322
470.6542, 93.56137
471.1364, 93.71974
471.6185, 93.28854
472.1006, 92.55791
472.5827, 91.56029
473.0648, 90.30755
473.5469, 88.79996
474.0291, 87.02625
474.5112, 85.13420
474.9933, 83.14003
475.4754, 81.08467
475.9575, 79.09496
476.4396, 77.15541
476.9218, 75.43031
477.4039, 73.99608
477.8860, 72.92138
478.3681, 72.46681
478.8503, 73.24326
479.3324, 74.01854
479.8145, 73.24204
480.2966, 71.32346
480.7787, 69.81233
481.2608, 69.88175
481.7430, 70.35403
482.2251, 70.36022
482.7072, 69.69621
483.1893, 69.18710
483.6714, 69.32850
484.1535, 69.67238
484.6357, 69.76673
485.1178, 69.25392
485.5999, 68.81704
486.0820, 68.57646
486.5641, 68.49563
487.0462, 68.44783
487.5284, 68.52863
488.0105, 68.51454
488.4926, 68.28246
488.9747, 67.78207
489.4568, 67.40464
489.9389, 67.17286
490.4211, 67.02901
490.9032, 66.92920
491.3853, 66.87560
491.8674, 66.81035
492.3495, 66.70904
492.8316, 66.60424
493.3138, 66.58769
493.7959, 66.65020
494.2780, 66.69454
494.7601, 66.62165
495.2422, 66.50172
495.7243, 66.51400
496.2065, 66.67389
496.6886, 66.76059
497.1707, 66.39602
497.6528, 65.91186
498.1349, 65.78092
498.6170, 66.34972
499.0992, 66.66800
499.5813, 67.24395
500.0634, 67.64598
500.5455, 67.88345
501.0276, 67.46345
501.5097, 67.89243
501.9919, 67.98122
502.4740, 68.05602
502.9561, 68.60448
503.4382, 68.28012
503.9203, 68.82108
504.4025, 69.01665
504.8846, 69.37029
505.3667, 69.38157
505.8488, 69.49860
506.3309, 69.95808
506.8130, 70.22793
507.2952, 70.19985
507.7773, 70.38223
508.2594, 70.86792
508.7415, 71.43243
509.2236, 71.79575
509.7057, 71.94920
510.1879, 72.01506
510.6700, 72.00998
511.1521, 71.99483
511.6342, 72.17887
512.1163, 72.63090
512.5984, 73.14749
513.0806, 73.47030
513.5627, 73.69892
514.0448, 74.04154
514.5269, 74.76359
515.0090, 75.48640
515.4911, 75.88271
515.9733, 76.00945
516.4554, 76.25140
516.9375, 76.80153
517.4196, 77.48103
517.9017, 78.21600
518.3839, 79.08952
518.8660, 79.79039
519.3481, 80.11927
519.8302, 80.33208
520.3123, 80.70026
520.7944, 81.35206
521.2766, 81.91834
521.7587, 82.26538
522.2408, 82.49602
522.7229, 83.08245
523.2050, 84.13145
523.6871, 85.14698
524.1693, 85.85378
524.6514, 86.26649
525.1335, 86.68958
525.6156, 87.11793
526.0977, 87.60517
526.5798, 88.22612
527.0620, 88.95869
527.5441, 89.71781
528.0262, 90.45655
528.5083, 91.26603
528.9904, 92.21748
529.4725, 93.30509
529.9547, 94.51360
530.4368, 95.87684
530.9189, 97.31326
531.4010, 98.80921
531.8831, 100.3740
532.3652, 101.7853
532.8474, 102.7300
533.3295, 103.6887
533.8116, 104.9862
534.2937, 106.8053
534.7758, 108.7061
535.2579, 110.7393
535.7401, 112.8177
536.2222, 114.6935
536.7043, 116.1478
537.1865, 118.0172
537.6686, 120.6323
538.1507, 123.7943
538.6328, 126.3802
539.1149, 128.3197
539.5970, 130.2907
540.0792, 132.6301
540.5613, 135.3413
541.0434, 138.3782
541.5255, 141.7666
542.0076, 145.1925
542.4897, 148.3993
542.9719, 151.4378
543.4540, 154.4349
543.9361, 157.3270
544.4182, 160.2837
544.9003, 163.5141
545.3824, 166.8732
545.8646, 170.0409
546.3467, 172.5080
546.8288, 175.0933
547.3109, 178.5632
547.7930, 182.9359
548.2751, 186.0892
548.7573, 186.8384
549.2394, 186.9438
549.7215, 187.3854
550.2036, 188.6395
550.6857, 189.2015
551.1678, 189.1951
551.6500, 188.3707
552.1321, 186.3158
552.6142, 182.9300
553.0963, 178.9297
553.5784, 174.4108
554.0605, 169.4473
554.5427, 164.0871
555.0248, 158.3546
555.5069, 152.6651
555.9890, 147.3218
556.4711, 142.2167
556.9532, 137.1747
557.4354, 132.1887
557.9175, 127.3869
558.3996, 122.8566
558.8817, 118.6156
559.3638, 114.6877
559.8459, 111.1095
560.3281, 107.8585
560.8102, 105.0305
561.2923, 102.5307
561.7744, 100.2311
562.2565, 98.22150
562.7386, 96.28957
563.2208, 94.34502
563.7029, 92.42370
564.1850, 90.63339
564.6671, 88.94347
565.1492, 87.47279
565.6313, 86.33115
566.1135, 85.55637
566.5956, 84.70560
567.0777, 83.75468
567.5598, 82.83200
568.0419, 82.10175
568.5240, 81.52831
569.0062, 80.87458
569.4883, 80.06233
569.9704, 79.24615
570.4525, 78.66212
570.9346, 78.23771
571.4167, 77.81273
571.8989, 77.30882
572.3810, 76.77208
572.8631, 76.14664
573.3452, 75.47623
573.8273, 74.99987
574.3094, 75.07035
574.7916, 75.15923
575.2737, 74.94421
575.7558, 74.24664
576.2379, 73.73495
576.7200, 73.56298
577.2021, 73.47180
577.6843, 73.19933
578.1664, 72.61592
578.6485, 72.26054
579.1306, 72.24969
579.6127, 72.42091
580.0948, 72.47175
580.5770, 72.40235
581.0591, 72.23182
581.5412, 71.89232
582.0233, 71.49947
582.5054, 71.36965
582.9875, 71.46641
583.4697, 71.49748
