##NAMES=Polylithionite
##RRUFFID=R060225
##IDEAL CHEMISTRY=KLi_2_AlSi_4_O_10_F_2_
##LOCALITY=Mont Saint-Hilaire, Rouville County, Quebec, Canada
##OWNER=RRUFF
##SOURCE=Royal Ontario Museum
##DESCRIPTION=Tan colored hexagonal shaped mica
##STATUS=The identification of this mineral is confirmed by single-crystal X-ray diffraction and chemical analysis.
##URL=rruff.info/R060225
##MEASURED CHEMISTRY=(K_0.95_[box]_0.05_)_Σ=1_(Li_1.95_Mg_0.04_Mn_0.01_)_Σ=2_(Al_0.97_Fe^3+^_0.03_)_Σ=1_Si_4.00_O_10_(F_1.40_(OH)_0.60_)_Σ=2_
91.82715, 260.5135
92.30927, 267.2980
92.79138, 266.9269
93.27350, 257.1082
93.75562, 243.5816
94.23773, 228.4128
94.71985, 212.3872
95.20197, 197.6547
95.68408, 185.0122
96.16620, 174.0197
96.64832, 164.3773
97.13043, 156.0789
97.61255, 148.8371
98.09467, 142.4869
98.57678, 137.4115
99.05890, 131.7610
99.54102, 124.8934
100.0231, 117.8665
100.5052, 111.6018
100.9874, 106.4830
101.4695, 102.3792
101.9516, 98.90800
102.4337, 96.15820
102.9158, 93.93864
103.3979, 92.46938
103.8801, 91.49424
104.3622, 90.60711
104.8443, 89.49413
105.3264, 88.11646
105.8085, 86.76479
106.2906, 85.72058
106.7728, 84.45381
107.2549, 82.47302
107.7370, 79.79641
108.2191, 77.05003
108.7012, 74.90341
109.1833, 73.37734
109.6655, 72.20045
110.1476, 71.52498
110.6297, 71.13488
111.1118, 70.68135
111.5939, 70.04278
112.0760, 69.45554
112.5582, 69.18519
113.0403, 69.20415
113.5224, 69.30206
114.0045, 69.41954
114.4866, 69.54912
114.9688, 69.52850
115.4509, 69.25308
115.9330, 68.85251
116.4151, 68.35852
116.8972, 67.78361
117.3793, 67.20695
117.8615, 66.77361
118.3436, 66.64050
118.8257, 66.25240
119.3078, 65.15612
119.7899, 64.02827
120.2720, 63.47611
120.7542, 63.73382
121.2363, 64.48333
121.7184, 64.81758
122.2005, 64.43849
122.6826, 63.89551
123.1647, 63.18879
123.6468, 62.34245
124.1290, 61.33276
124.6111, 60.09989
125.0932, 58.71737
125.5753, 57.81740
126.0574, 57.71632
126.5395, 57.65046
127.0217, 57.28362
127.5038, 56.65629
127.9859, 56.03019
128.4680, 55.60096
128.9501, 55.33889
129.4323, 55.01328
129.9144, 54.57189
130.3965, 54.08407
130.8786, 53.63679
131.3607, 53.25134
131.8428, 52.81945
132.3250, 52.15239
132.8071, 51.37488
133.2892, 50.73597
133.7713, 50.46363
134.2534, 50.43105
134.7355, 50.15794
135.2177, 49.38684
135.6998, 48.72917
136.1819, 48.51907
136.6640, 48.65520
137.1461, 48.88066
137.6282, 49.03465
138.1104, 49.12319
138.5925, 49.06872
139.0746, 48.89716
139.5567, 48.55215
140.0388, 47.89175
140.5209, 46.98115
141.0031, 46.04627
141.4852, 45.34955
141.9673, 44.94548
142.4494, 44.67759
142.9315, 44.66716
143.4136, 44.68443
143.8958, 44.53916
144.3779, 44.19875
144.8600, 43.81612
145.3421, 43.64579
145.8242, 43.85604
146.3063, 43.97528
146.7885, 43.98319
147.2706, 43.89248
147.7527, 43.66462
148.2348, 43.25319
148.7169, 42.82148
149.1990, 42.77860
149.6812, 43.24792
150.1633, 43.58217
150.6454, 43.45892
151.1275, 42.99306
151.6096, 42.53988
152.0917, 42.20558
152.5739, 41.97773
153.0560, 41.80198
153.5381, 41.67730
154.0202, 41.60924
154.5023, 41.65378
154.9844, 41.82001
155.4665, 41.89098
155.9487, 41.69006
156.4308, 41.40184
156.9129, 41.12579
157.3950, 40.86294
157.8771, 40.71618
158.3592, 40.92971
158.8414, 41.76318
159.3235, 42.28391
159.8056, 41.99916
160.2877, 41.46992
160.7698, 41.19350
161.2519, 41.39409
161.7341, 41.90937
162.2162, 42.26808
162.6983, 42.41325
163.1804, 42.45292
163.6625, 42.36525
164.1446, 42.20080
164.6268, 41.98006
165.1089, 41.70103
165.5910, 41.41138
166.0731, 41.42706
166.5552, 42.21760
167.0373, 42.80249
167.5195, 42.81115
168.0016, 42.46910
168.4837, 42.25312
168.9658, 42.50352
169.4479, 43.17162
169.9300, 43.48752
170.4122, 43.24109
170.8943, 42.92583
171.3764, 42.75776
171.8585, 42.72008
172.3406, 42.68646
172.8227, 42.56497
173.3049, 42.36307
173.7870, 42.18758
174.2691, 42.03742
174.7512, 41.91285
175.2333, 41.82136
175.7154, 41.76361
176.1976, 41.71572
176.6797, 41.67146
177.1618, 41.62353
177.6439, 41.55444
178.1260, 41.47091
178.6081, 41.36004
179.0903, 41.21336
179.5724, 41.04670
180.0545, 40.79372
180.5366, 40.33305
181.0187, 39.77129
181.5008, 39.28450
181.9830, 38.99645
182.4651, 38.83626
182.9472, 38.57202
183.4293, 38.13133
183.9114, 37.69626
184.3935, 37.36434
184.8757, 37.09142
185.3578, 36.79010
185.8399, 36.37197
186.3220, 35.86158
186.8041, 35.52930
187.2862, 35.44933
187.7684, 35.49536
188.2505, 35.81428
188.7326, 36.23382
189.2147, 36.41243
189.6968, 36.01933
190.1789, 35.01802
190.6611, 34.42266
191.1432, 34.61634
191.6253, 34.83848
192.1074, 34.78266
192.5895, 34.53413
193.0716, 34.38798
193.5538, 34.63160
194.0359, 35.34651
194.5180, 35.76524
195.0001, 35.81342
195.4822, 35.71334
195.9643, 35.46756
196.4465, 35.13594
196.9286, 34.89626
197.4107, 34.95811
197.8928, 35.38996
198.3749, 35.44975
198.8570, 34.77538
199.3392, 34.04270
199.8213, 33.75808
200.3034, 33.93443
200.7855, 34.14264
201.2676, 33.92935
201.7497, 33.27327
202.2319, 32.96650
202.7140, 33.36914
203.1961, 33.94111
203.6782, 34.16610
204.1603, 33.98177
204.6424, 33.66893
205.1246, 33.41022
205.6067, 33.21437
206.0888, 33.14740
206.5709, 33.32190
207.0530, 33.59519
207.5351, 33.77195
208.0173, 33.82633
208.4994, 33.83660
208.9815, 33.87349
209.4636, 33.91497
209.9457, 33.90541
210.4278, 33.78130
210.9100, 33.59724
211.3921, 33.47876
211.8742, 33.45119
212.3563, 33.44114
212.8384, 33.37428
213.3205, 33.29223
213.8027, 33.27283
214.2848, 33.33828
214.7669, 33.49737
215.2490, 33.82188
215.7311, 34.52762
216.2132, 35.05150
216.6954, 35.11591
217.1775, 34.87092
217.6596, 34.57758
218.1417, 34.40510
218.6238, 34.31506
219.1059, 34.05596
219.5881, 33.32011
220.0702, 32.80957
220.5523, 32.85366
221.0344, 33.23359
221.5165, 33.57803
221.9986, 33.61420
222.4808, 33.39925
222.9629, 33.48024
223.4450, 34.39338
223.9271, 35.04091
224.4092, 34.98005
224.8913, 34.51744
225.3735, 34.18624
225.8556, 34.35275
226.3377, 34.96539
226.8198, 35.45360
227.3019, 35.73989
227.7840, 35.97332
228.2662, 36.17025
228.7483, 36.33540
229.2304, 36.44701
229.7125, 36.47805
230.1946, 36.45219
230.6767, 36.63533
231.1589, 37.36112
231.6410, 37.91530
232.1231, 38.00436
232.6052, 37.79686
233.0873, 37.64814
233.5694, 37.78952
234.0516, 38.15644
234.5337, 38.26787
235.0158, 37.84533
235.4979, 37.52572
235.9800, 37.54737
236.4621, 37.81411
236.9443, 38.12738
237.4264, 38.39872
237.9085, 38.61165
238.3906, 38.68683
238.8727, 38.55545
239.3548, 38.39607
239.8370, 38.14695
240.3191, 37.90334
240.8012, 37.94294
241.2833, 38.47325
241.7654, 39.30065
242.2475, 39.85468
242.7297, 40.07643
243.2118, 40.18046
243.6939, 40.31156
244.1760, 40.40488
244.6581, 40.22725
245.1402, 39.59440
245.6224, 38.73820
246.1045, 38.16112
246.5866, 37.99694
247.0687, 37.72346
247.5508, 36.94666
248.0329, 35.81474
248.5151, 34.84875
248.9972, 34.23351
249.4793, 33.85534
249.9614, 33.51339
250.4435, 33.19349
250.9256, 32.96896
251.4078, 32.96899
251.8899, 33.12630
252.3720, 33.13312
252.8541, 32.85715
253.3362, 32.46505
253.8183, 32.13367
254.3005, 31.86126
254.7826, 31.62706
255.2647, 31.37673
255.7468, 31.13876
256.2289, 31.09444
256.7110, 31.44508
257.1931, 31.76896
257.6753, 31.66871
258.1574, 31.20609
258.6395, 30.77468
259.1216, 30.67687
259.6037, 30.84553
260.0858, 30.88441
260.5680, 30.62505
261.0501, 30.41921
261.5322, 30.60166
262.0143, 31.03454
262.4964, 31.29912
262.9785, 30.98833
263.4607, 30.22638
263.9428, 29.75270
264.4249, 29.72002
264.9070, 29.78152
265.3891, 29.78109
265.8712, 29.73705
266.3534, 29.67888
266.8355, 29.57074
267.3176, 29.46691
267.7997, 29.66382
268.2818, 30.56187
268.7639, 31.12795
269.2461, 30.76833
269.7282, 29.93696
270.2103, 29.29858
270.6924, 29.22180
271.1745, 29.55252
271.6566, 29.80559
272.1388, 29.98726
272.6209, 30.06416
273.1030, 29.97349
273.5851, 29.81284
274.0672, 29.69164
274.5493, 29.65878
275.0315, 29.68833
275.5136, 29.70643
275.9957, 29.64897
276.4778, 29.71097
276.9599, 30.09501
277.4420, 30.50741
277.9242, 30.63468
278.4063, 30.36940
278.8884, 29.93252
279.3705, 29.72446
279.8526, 29.79252
280.3347, 30.01487
280.8169, 30.54269
281.2990, 31.08700
281.7811, 31.46205
282.2632, 31.61279
282.7453, 31.56468
283.2274, 31.29226
283.7096, 30.58074
284.1917, 30.19583
284.6738, 30.38995
285.1559, 30.68482
285.6380, 30.79470
286.1201, 30.69390
286.6023, 30.54795
287.0844, 30.55533
287.5665, 30.77134
288.0486, 30.92040
288.5307, 30.97091
289.0128, 30.98860
289.4950, 30.99508
289.9771, 30.99398
290.4592, 30.97980
290.9413, 30.94266
291.4234, 30.87805
291.9055, 30.85102
292.3877, 30.89913
292.8698, 30.94670
293.3519, 30.97125
293.8340, 30.97607
294.3161, 30.97618
294.7982, 30.98468
295.2804, 30.99816
295.7625, 30.97082
296.2446, 30.98731
296.7267, 30.86456
297.2088, 30.47025
297.6909, 29.93256
298.1731, 29.41384
298.6552, 28.99862
299.1373, 28.70242
299.6194, 28.59362
300.1015, 28.93528
300.5836, 29.15406
301.0658, 29.07316
301.5479, 28.90049
302.0300, 28.90792
302.5121, 29.19528
302.9942, 29.57724
303.4763, 29.65805
303.9585, 29.11937
304.4406, 28.74614
304.9227, 28.67932
305.4048, 28.68637
305.8869, 28.53127
306.3690, 28.18245
306.8512, 27.84462
307.3333, 27.82342
307.8154, 28.30624
308.2975, 28.61546
308.7796, 28.70244
309.2617, 28.69024
309.7439, 28.64002
310.2260, 28.56246
310.7081, 28.44128
311.1902, 28.25425
311.6723, 27.98505
312.1544, 27.75981
312.6366, 27.60427
313.1187, 27.45923
313.6008, 27.26148
314.0829, 27.05115
314.5650, 26.92636
315.0471, 26.96388
315.5293, 27.15257
316.0114, 27.34769
316.4935, 27.63688
316.9756, 27.83578
317.4577, 27.87475
317.9398, 27.80431
318.4220, 27.69424
318.9041, 27.57891
319.3862, 27.45851
319.8683, 27.32935
320.3504, 27.06358
320.8326, 26.96520
321.3147, 27.20327
321.7968, 27.53684
322.2789, 27.74179
322.7610, 27.74155
323.2431, 27.59990
323.7253, 27.41635
324.2074, 27.14282
324.6895, 26.92272
325.1716, 26.66886
325.6537, 26.52013
326.1358, 26.63860
326.6180, 27.00125
327.1001, 27.40183
327.5822, 27.62943
328.0643, 27.67904
328.5464, 27.56264
329.0285, 27.03205
329.5107, 26.59399
329.9928, 26.54200
330.4749, 26.77296
330.9570, 26.98844
331.4391, 26.96066
331.9212, 26.70859
332.4034, 26.51351
332.8855, 26.29443
333.3676, 26.22792
333.8497, 26.48521
334.3318, 26.88321
334.8139, 27.16150
335.2961, 27.18660
335.7782, 27.04487
336.2603, 26.99721
336.7424, 27.23923
337.2245, 27.27106
337.7066, 26.83802
338.1888, 26.32116
338.6709, 26.06675
339.1530, 26.16295
339.6351, 26.44408
340.1172, 26.69568
340.5993, 26.99549
341.0815, 27.05124
341.5636, 26.63937
342.0457, 26.20348
342.5278, 25.99352
343.0099, 26.00486
343.4920, 26.07865
343.9742, 26.06548
344.4563, 25.95785
344.9384, 25.90343
345.4205, 26.04882
345.9026, 26.10203
346.3847, 25.85380
346.8669, 25.47058
347.3490, 25.27178
347.8311, 25.47966
348.3132, 25.96297
348.7953, 26.18046
349.2774, 25.91671
349.7596, 25.71528
350.2417, 25.68293
350.7238, 25.75057
351.2059, 25.86910
351.6880, 26.01990
352.1701, 26.16998
352.6523, 26.26279
353.1344, 26.28554
353.6165, 26.28856
354.0986, 26.29518
354.5807, 26.27055
355.0628, 26.16921
355.5450, 26.00170
356.0271, 25.83961
356.5092, 25.76296
356.9913, 25.77616
357.4734, 25.75426
357.9555, 25.63606
358.4377, 25.55291
358.9198, 25.51557
359.4019, 25.55264
359.8840, 25.74239
360.3661, 26.21375
360.8482, 26.80838
361.3304, 27.02821
361.8125, 26.74572
362.2946, 26.35660
362.7767, 25.93662
363.2588, 25.51708
363.7409, 25.08741
364.2231, 24.61921
364.7052, 24.28361
365.1873, 24.41120
365.6694, 25.07680
366.1515, 25.51000
366.6336, 25.36444
367.1158, 25.05588
367.5979, 24.90715
368.0800, 24.91990
368.5621, 24.87213
369.0442, 24.49152
369.5263, 23.88107
370.0085, 23.55775
370.4906, 23.65249
370.9727, 23.87875
371.4548, 24.09456
371.9369, 24.28719
372.4190, 24.42829
372.9012, 24.55623
373.3833, 24.59452
373.8654, 24.32704
374.3475, 23.69815
374.8296, 23.25738
375.3117, 23.42111
375.7939, 23.87418
376.2760, 24.15257
376.7581, 24.19316
377.2402, 24.11670
377.7223, 23.94613
378.2044, 23.71369
378.6866, 23.55466
379.1687, 23.49715
379.6508, 23.54324
380.1329, 23.75442
380.6150, 24.12630
381.0971, 24.39216
381.5793, 24.40257
382.0614, 24.28440
382.5435, 24.18977
383.0256, 24.13292
383.5077, 24.14960
383.9898, 24.30440
384.4720, 24.57250
384.9541, 24.76174
385.4362, 24.76373
385.9183, 24.77803
386.4004, 24.96518
386.8825, 25.27465
387.3647, 25.53765
387.8468, 25.67707
388.3289, 25.71579
388.8110, 25.69224
389.2931, 25.55228
389.7752, 25.47659
390.2574, 25.48529
390.7395, 25.58500
391.2216, 25.81357
391.7037, 26.17325
392.1858, 26.57866
392.6679, 26.95223
393.1501, 27.31716
393.6322, 27.46584
394.1143, 27.18003
394.5964, 26.89545
395.0785, 26.84494
395.5606, 27.00534
396.0428, 27.26353
396.5249, 27.55897
397.0070, 27.87569
397.4891, 28.13681
397.9712, 28.41702
398.4533, 28.54244
398.9355, 28.25644
399.4176, 27.91459
399.8997, 27.97370
400.3818, 28.54992
400.8639, 29.29098
401.3460, 29.65952
401.8282, 29.51965
402.3103, 29.37121
402.7924, 29.10752
403.2745, 28.92945
403.7566, 29.01959
404.2387, 29.29828
404.7209, 29.51606
405.2030, 29.46294
405.6851, 29.18756
406.1672, 29.07235
406.6493, 29.26470
407.1314, 29.41065
407.6136, 29.45500
408.0957, 29.40461
408.5778, 29.25503
409.0599, 29.00403
409.5420, 28.69619
410.0241, 28.37720
410.5063, 28.03550
410.9884, 27.75270
411.4705, 27.60200
411.9526, 27.46533
412.4347, 27.27884
412.9168, 27.04584
413.3990, 26.80120
413.8811, 26.55281
414.3632, 26.31121
414.8453, 26.12748
415.3274, 26.03118
415.8095, 25.91967
416.2917, 25.67781
416.7738, 25.40419
417.2559, 25.26132
417.7380, 25.36735
418.2201, 25.44455
418.7022, 25.14338
419.1844, 24.51170
419.6665, 24.01425
420.1486, 23.81978
420.6307, 23.77844
421.1128, 23.70592
421.5949, 23.60136
422.0771, 23.51986
422.5592, 23.48413
423.0413, 23.48132
423.5234, 23.50266
424.0055, 23.54735
424.4876, 23.60100
424.9698, 23.70690
425.4519, 23.81100
425.9340, 23.64977
426.4161, 22.92384
426.8982, 22.25780
427.3803, 21.92921
427.8625, 21.86408
428.3446, 21.95613
428.8267, 22.18312
429.3088, 22.42057
429.7909, 22.44713
430.2730, 22.14138
430.7552, 21.88358
431.2373, 21.65450
431.7194, 21.49174
432.2015, 21.46004
432.6836, 21.53514
433.1657, 21.60026
433.6479, 21.54881
434.1300, 21.39981
434.6121, 21.41196
435.0942, 21.82732
435.5763, 22.12588
436.0584, 22.16156
436.5406, 22.06471
437.0227, 21.98274
437.5048, 21.96770
437.9869, 21.97939
438.4690, 21.94125
438.9511, 21.80806
439.4333, 21.77329
439.9154, 21.99728
440.3975, 22.17923
440.8796, 22.14955
441.3617, 21.95892
441.8438, 21.76637
442.3260, 21.67704
442.8081, 21.66207
443.2902, 21.63220
443.7723, 21.58871
444.2544, 21.52632
444.7365, 21.47421
445.2187, 21.38589
445.7008, 21.15827
446.1829, 20.75662
446.6650, 20.45182
447.1471, 20.56019
447.6292, 21.00275
448.1114, 21.34403
448.5935, 21.50698
449.0756, 21.58355
449.5577, 21.59743
450.0398, 21.57948
450.5219, 21.63275
451.0041, 21.93179
451.4862, 22.20688
451.9683, 22.10541
452.4504, 21.69094
452.9325, 21.42669
453.4146, 21.58231
453.8968, 21.93087
454.3789, 21.93432
454.8610, 21.46525
455.3431, 21.13526
455.8252, 21.15329
456.3073, 21.34042
456.7895, 21.54381
457.2716, 21.72764
457.7537, 21.85276
458.2358, 21.87482
458.7179, 21.79374
459.2000, 21.75825
459.6822, 21.76796
460.1643, 21.81514
460.6464, 21.94066
461.1285, 22.08860
461.6106, 22.17608
462.0927, 22.17345
462.5748, 22.12602
463.0569, 22.10852
463.5391, 22.13264
464.0212, 22.15553
464.5033, 22.09022
464.9854, 22.10365
465.4675, 22.33540
465.9496, 22.71560
466.4318, 23.07557
466.9139, 23.32535
467.3960, 23.45537
467.8781, 23.41739
468.3602, 23.15041
468.8423, 22.87332
469.3245, 22.60453
469.8066, 22.37716
470.2887, 22.25127
470.7708, 22.23124
471.2529, 22.19053
471.7350, 21.95788
472.2172, 21.61309
472.6993, 21.52598
473.1814, 21.84628
473.6635, 22.07493
474.1456, 21.67307
474.6277, 20.92806
475.1099, 20.49030
475.5920, 20.60574
476.0741, 20.86762
476.5562, 21.06791
477.0383, 21.19409
477.5204, 21.18549
478.0026, 20.99878
478.4847, 20.76201
478.9668, 20.67879
479.4489, 20.80769
479.9310, 20.78904
480.4131, 20.38324
480.8953, 20.01016
481.3774, 20.01396
481.8595, 20.31335
482.3416, 20.61438
482.8237, 20.75309
483.3058, 20.74240
483.7880, 20.61970
484.2701, 20.16808
484.7522, 19.92335
485.2343, 20.07284
485.7164, 20.30366
486.1985, 20.35125
486.6807, 20.20987
487.1628, 20.07368
487.6449, 20.12848
488.1270, 20.35789
488.6091, 20.53351
489.0912, 20.69598
489.5734, 20.73031
490.0555, 20.52158
490.5376, 20.22377
491.0197, 20.00809
491.5018, 19.92271
491.9839, 19.89849
492.4661, 19.88339
492.9482, 19.87439
493.4303, 19.83804
493.9124, 19.74758
494.3945, 19.67175
494.8766, 19.64016
495.3588, 19.66236
495.8409, 19.78810
496.3230, 20.17370
496.8051, 20.53269
497.2872, 20.62676
497.7693, 20.49197
498.2515, 20.21886
498.7336, 19.79878
499.2157, 19.37698
499.6978, 19.18670
500.1799, 19.27133
500.6620, 19.43373
501.1442, 19.84358
501.6263, 20.17839
502.1084, 20.15014
502.5905, 19.83616
503.0726, 19.51707
503.5547, 19.36097
504.0369, 19.33386
504.5190, 19.31648
505.0011, 19.28844
505.4832, 19.30618
505.9653, 19.35271
506.4474, 19.45563
506.9296, 19.73931
507.4117, 20.13624
507.8938, 20.34289
508.3759, 19.98659
508.8580, 19.22803
509.3401, 19.09244
509.8223, 19.91496
510.3044, 20.62424
510.7865, 20.77309
511.2686, 20.65296
511.7507, 20.49389
512.2328, 20.33021
512.7150, 20.20905
513.1971, 20.17542
513.6792, 20.21130
514.1613, 20.27300
514.6434, 20.36254
515.1255, 20.44063
515.6077, 20.43800
516.0898, 20.39985
516.5719, 20.50853
517.0540, 20.93816
517.5361, 21.31196
518.0182, 21.43398
518.5004, 21.39492
518.9825, 21.31434
519.4646, 21.22782
519.9467, 21.19080
520.4288, 21.26768
520.9109, 21.46380
521.3931, 21.74917
521.8752, 22.32097
522.3573, 22.75627
522.8394, 22.81672
523.3215, 22.67179
523.8036, 22.56904
524.2858, 22.60893
524.7679, 22.73571
525.2500, 22.85465
525.7321, 22.94929
526.2142, 23.12090
526.6964, 23.46399
527.1785, 23.78986
527.6606, 23.99581
528.1427, 24.11898
528.6248, 24.25022
529.1069, 24.43786
529.5891, 24.63260
530.0712, 24.73490
530.5533, 24.75486
531.0354, 24.84865
531.5175, 25.01077
531.9996, 25.33772
532.4818, 26.11013
532.9639, 27.28059
533.4460, 28.14424
533.9281, 28.19883
534.4102, 28.19464
534.8923, 28.80289
535.3745, 29.87550
535.8566, 30.89135
536.3387, 31.61495
536.8208, 32.08529
537.3029, 32.35143
537.7850, 32.19610
538.2672, 32.30148
538.7493, 32.98533
539.2314, 33.62135
539.7135, 33.78642
540.1956, 33.59872
540.6777, 33.41602
541.1599, 33.43765
541.6420, 33.65134
542.1241, 34.07687
542.6062, 34.82997
543.0883, 35.42755
543.5704, 35.63932
544.0526, 35.77961
544.5347, 36.07481
545.0168, 36.49015
545.4989, 36.80436
545.9810, 36.86846
546.4631, 36.78330
546.9453, 36.65321
547.4274, 36.48194
547.9095, 36.45241
548.3916, 36.72120
548.8737, 37.06955
549.3558, 37.10667
549.8380, 36.83103
550.3201, 36.41837
550.8022, 35.85833
551.2843, 35.20716
551.7664, 34.41639
552.2485, 33.56039
552.7307, 32.88590
553.2128, 32.54717
553.6949, 32.40832
554.1770, 32.09959
554.6591, 31.67860
555.1412, 30.96116
555.6234, 29.50337
556.1055, 28.16745
556.5876, 27.59739
557.0697, 27.62258
557.5518, 27.61180
558.0339, 27.16610
558.5161, 26.45165
558.9982, 25.82301
559.4803, 25.28111
559.9624, 24.84301
560.4445, 24.60807
560.9266, 24.39187
561.4088, 23.99212
561.8909, 23.42758
562.3730, 22.91665
562.8551, 22.50516
563.3372, 22.20980
563.8193, 22.11776
564.3015, 22.18504
564.7836, 22.18397
565.2657, 22.00399
565.7478, 21.73511
566.2299, 21.53307
566.7120, 21.38940
567.1942, 21.35566
567.6763, 21.56287
568.1584, 21.75748
568.6405, 21.80035
569.1226, 21.71183
569.6047, 21.54816
570.0869, 21.33379
570.5690, 21.12105
571.0511, 21.04213
571.5332, 21.15180
572.0153, 21.18076
572.4974, 21.05890
572.9796, 20.89152
573.4617, 20.71738
573.9438, 20.54264
574.4259, 20.37515
574.9080, 20.20743
575.3901, 20.06408
575.8723, 19.95605
576.3544, 19.89116
576.8365, 19.93575
577.3186, 20.13901
577.8007, 20.36370
578.2828, 20.44667
578.7650, 20.37807
579.2471, 20.33705
579.7292, 20.30928
580.2113, 20.32936
580.6934, 20.45391
581.1755, 20.62531
581.6577, 20.76577
582.1398, 20.84494
582.6219, 20.85233
583.1040, 20.74852
583.5861, 20.50230
584.0682, 20.39920
584.5504, 20.68162
585.0325, 20.81070
585.5146, 20.46310
