##NAMES=Polylithionite
##RRUFFID=R060215
##IDEAL CHEMISTRY=KLi_2_AlSi_4_O_10_F_2_
##LOCALITY=Mont Saint-Hilaire, Rouville County, Quebec, Canada
##OWNER=RRUFF
##SOURCE=Royal Ontario Museum
##DESCRIPTION=Tan to colorless micaceous fragment
##STATUS=The identification of this mineral has been confirmed by X-ray diffraction and chemical analysis
##URL=rruff.info/R060215
##MEASURED CHEMISTRY=(K_0.99_Na_0.01_)Li_2.00_(Al_0.88_Ti_0.06_Mg_0.06_)Si_4.00_O_10_(F_0.89_(OH)_0.11_)_2_
91.82715, 419.0494
92.30927, 422.2611
92.79138, 422.0528
93.27350, 414.2991
93.75562, 404.6278
94.23773, 396.5935
94.71985, 390.5677
95.20197, 384.6156
95.68408, 378.7021
96.16620, 372.4459
96.64832, 365.7261
97.13043, 358.5414
97.61255, 351.2265
98.09467, 344.2614
98.57678, 337.8847
99.05890, 330.3793
99.54102, 322.5122
100.0231, 314.2986
100.5052, 305.5291
100.9874, 295.9569
101.4695, 285.7130
101.9516, 275.8890
102.4337, 265.5798
102.9158, 256.4390
103.3979, 248.8459
103.8801, 242.5447
104.3622, 237.1936
104.8443, 232.5979
105.3264, 228.7913
105.8085, 224.8284
106.2906, 220.3574
106.7728, 215.9617
107.2549, 212.1462
107.7370, 208.9066
108.2191, 205.5759
108.7012, 201.2431
109.1833, 195.7966
109.6655, 191.0290
110.1476, 187.4250
110.6297, 184.5659
111.1118, 181.7608
111.5939, 178.7878
112.0760, 176.1098
112.5582, 174.1979
113.0403, 172.9952
113.5224, 172.1569
114.0045, 171.6898
114.4866, 171.5616
114.9688, 171.1461
115.4509, 169.9738
115.9330, 168.7159
116.4151, 167.7549
116.8972, 167.1521
117.3793, 166.7510
117.8615, 166.3257
118.3436, 165.7775
118.8257, 165.4697
119.3078, 165.4248
119.7899, 165.5901
120.2720, 165.9995
120.7542, 166.6593
121.2363, 167.4417
121.7184, 167.9884
122.2005, 168.4374
122.6826, 168.4225
123.1647, 167.4420
123.6468, 166.0547
124.1290, 165.0942
124.6111, 165.0744
125.0932, 165.8517
125.5753, 166.2071
126.0574, 165.7770
126.5395, 165.3950
127.0217, 165.5179
127.5038, 166.0536
127.9859, 166.4955
128.4680, 166.4556
128.9501, 165.9831
129.4323, 165.5599
129.9144, 165.1987
130.3965, 164.8951
130.8786, 164.6308
131.3607, 164.3959
131.8428, 164.2486
132.3250, 164.5254
132.8071, 164.9344
133.2892, 164.8726
133.7713, 163.6202
134.2534, 161.6281
134.7355, 160.5025
135.2177, 160.8073
135.6998, 161.2788
136.1819, 161.0738
136.6640, 160.4710
137.1461, 160.1940
137.6282, 161.0538
138.1104, 163.2259
138.5925, 164.5752
139.0746, 164.4841
139.5567, 164.0469
140.0388, 163.5264
140.5209, 163.0086
141.0031, 162.5098
141.4852, 161.9975
141.9673, 161.2329
142.4494, 161.1781
142.9315, 162.3317
143.4136, 163.7085
143.8958, 164.5647
144.3779, 164.7512
144.8600, 164.7996
145.3421, 165.6197
145.8242, 168.0467
146.3063, 169.6643
146.7885, 169.5679
147.2706, 168.8768
147.7527, 169.1311
148.2348, 170.9955
148.7169, 173.5191
149.1990, 174.6216
149.6812, 173.9934
150.1633, 173.5136
150.6454, 173.8926
151.1275, 174.9726
151.6096, 176.2369
152.0917, 177.4405
152.5739, 178.8443
153.0560, 180.9317
153.5381, 184.0010
154.0202, 186.7837
154.5023, 187.8178
154.9844, 186.9927
155.4665, 186.8284
155.9487, 188.8265
156.4308, 191.6412
156.9129, 194.3593
157.3950, 196.8028
157.8771, 198.9563
158.3592, 200.6561
158.8414, 201.5043
159.3235, 202.9275
159.8056, 205.4494
160.2877, 208.5205
160.7698, 211.8103
161.2519, 215.1922
161.7341, 218.5328
162.2162, 221.3626
162.6983, 222.9505
163.1804, 225.0294
163.6625, 228.0928
164.1446, 231.6902
164.6268, 235.2566
165.1089, 238.4921
165.5910, 241.4464
166.0731, 244.5274
166.5552, 248.3148
167.0373, 251.6076
167.5195, 253.8864
168.0016, 255.4960
168.4837, 257.1324
168.9658, 259.2581
169.4479, 261.8405
169.9300, 264.1169
170.4122, 265.5150
170.8943, 267.2072
171.3764, 269.6684
171.8585, 272.8734
172.3406, 276.6672
172.8227, 281.0582
173.3049, 285.9967
173.7870, 290.8333
174.2691, 296.0193
174.7512, 300.8282
175.2333, 304.4235
175.7154, 306.7544
176.1976, 309.0043
176.6797, 312.7894
177.1618, 317.1229
177.6439, 319.4242
178.1260, 318.5542
178.6081, 315.5749
179.0903, 312.1298
179.5724, 308.5280
180.0545, 303.5008
180.5366, 295.4472
181.0187, 285.6270
181.5008, 275.9753
181.9830, 267.4159
182.4651, 259.6652
182.9472, 251.6400
183.4293, 242.6616
183.9114, 234.6125
184.3935, 228.2348
184.8757, 223.1823
185.3578, 218.8636
185.8399, 215.0732
186.3220, 211.7502
186.8041, 208.2875
187.2862, 203.7047
187.7684, 200.0849
188.2505, 198.5433
188.7326, 198.4226
189.2147, 198.3989
189.6968, 197.4132
190.1789, 195.4146
190.6611, 193.7476
191.1432, 192.9497
191.6253, 191.9520
192.1074, 190.1758
192.5895, 187.8627
193.0716, 185.6553
193.5538, 184.1234
194.0359, 183.3170
194.5180, 182.7795
195.0001, 183.1176
195.4822, 183.1266
195.9643, 181.8584
196.4465, 179.5655
196.9286, 177.4225
197.4107, 176.5610
197.8928, 177.1984
198.3749, 177.6397
198.8570, 177.9324
199.3392, 178.0191
199.8213, 177.8199
200.3034, 177.3421
200.7855, 176.6997
201.2676, 175.8872
201.7497, 174.9109
202.2319, 174.4016
202.7140, 174.9050
203.1961, 175.5840
203.6782, 175.5197
204.1603, 174.5830
204.6424, 173.6344
205.1246, 173.5175
205.6067, 174.0778
206.0888, 174.6320
206.5709, 175.0692
207.0530, 175.4214
207.5351, 175.7012
208.0173, 175.8816
208.4994, 176.0992
208.9815, 176.5197
209.4636, 177.0609
209.9457, 177.5559
210.4278, 177.8433
210.9100, 178.0557
211.3921, 178.5549
211.8742, 179.5308
212.3563, 180.3847
212.8384, 180.6011
213.3205, 180.4665
213.8027, 180.4985
214.2848, 180.9723
214.7669, 181.8134
215.2490, 182.8016
215.7311, 184.1884
216.2132, 185.3114
216.6954, 185.6639
217.1775, 185.6236
217.6596, 185.8844
218.1417, 187.0272
218.6238, 188.8171
219.1059, 189.7687
219.5881, 188.7758
220.0702, 188.3035
220.5523, 189.2084
221.0344, 191.0752
221.5165, 193.2912
221.9986, 195.5568
222.4808, 197.8030
222.9629, 199.3591
223.4450, 199.0184
223.9271, 199.2330
224.4092, 200.8528
224.8913, 203.3516
225.3735, 205.8170
225.8556, 207.6599
226.3377, 208.9219
226.8198, 210.2027
227.3019, 211.2374
227.7840, 212.5649
228.2662, 214.4379
228.7483, 216.6785
229.2304, 218.9805
229.7125, 221.1695
230.1946, 223.2460
230.6767, 225.1648
231.1589, 226.8863
231.6410, 228.5072
232.1231, 229.8298
232.6052, 231.0777
233.0873, 232.6819
233.5694, 234.9240
234.0516, 237.7241
234.5337, 240.5226
235.0158, 243.6716
235.4979, 246.4688
235.9800, 248.2150
236.4621, 249.4378
236.9443, 251.3067
237.4264, 254.5052
237.9085, 258.8032
238.3906, 263.1566
238.8727, 267.6473
239.3548, 272.0757
239.8370, 276.1588
240.3191, 280.0978
240.8012, 284.3647
241.2833, 289.2046
241.7654, 294.5375
242.2475, 300.1051
242.7297, 305.7285
243.2118, 311.7780
243.6939, 319.2069
244.1760, 327.3009
244.6581, 333.9855
245.1402, 338.5204
245.6224, 340.8820
246.1045, 341.3820
246.5866, 340.0323
247.0687, 337.2112
247.5508, 332.6313
248.0329, 326.6272
248.5151, 320.3319
248.9972, 314.1057
249.4793, 307.6724
249.9614, 300.3856
250.4435, 291.9475
250.9256, 284.3499
251.4078, 278.9902
251.8899, 275.4868
252.3720, 272.0053
252.8541, 268.0782
253.3362, 264.0762
253.8183, 260.3767
254.3005, 256.9674
254.7826, 253.7745
255.2647, 250.6315
255.7468, 247.6272
256.2289, 245.2453
256.7110, 243.7332
257.1931, 242.7117
257.6753, 241.8275
258.1574, 241.0840
258.6395, 240.5004
259.1216, 240.0816
259.6037, 239.8309
260.0858, 239.7661
260.5680, 239.9099
261.0501, 240.2429
261.5322, 240.8132
262.0143, 241.5488
262.4964, 242.2341
262.9785, 242.5044
263.4607, 242.5170
263.9428, 243.3243
264.4249, 245.6535
264.9070, 247.7290
265.3891, 248.5827
265.8712, 248.6009
266.3534, 248.5798
266.8355, 249.1011
267.3176, 249.9438
267.7997, 250.0976
268.2818, 249.0500
268.7639, 248.0673
269.2461, 247.6090
269.7282, 247.5007
270.2103, 247.5402
270.6924, 247.7100
271.1745, 247.8572
271.6566, 247.4203
272.1388, 245.9957
272.6209, 244.6543
273.1030, 243.7386
273.5851, 243.0263
274.0672, 242.2165
274.5493, 241.1383
275.0315, 240.0354
275.5136, 239.5969
275.9957, 240.3626
276.4778, 240.7747
276.9599, 240.2712
277.4420, 239.4962
277.9242, 239.0102
278.4063, 239.0121
278.8884, 239.3629
279.3705, 239.8452
279.8526, 240.5802
280.3347, 241.1816
280.8169, 241.4337
281.2990, 241.6749
281.7811, 242.2049
282.2632, 243.0767
282.7453, 244.0546
283.2274, 244.7280
283.7096, 244.7880
284.1917, 245.3396
284.6738, 246.7288
285.1559, 248.2947
285.6380, 249.5895
286.1201, 250.5993
286.6023, 251.6846
287.0844, 253.3379
287.5665, 255.7893
288.0486, 257.8371
288.5307, 259.3139
289.0128, 260.5674
289.4950, 261.6439
289.9771, 262.6128
290.4592, 263.5792
290.9413, 264.6137
291.4234, 265.6971
291.9055, 267.0734
292.3877, 269.2340
292.8698, 271.1983
293.3519, 272.5843
293.8340, 273.5199
294.3161, 274.3101
294.7982, 275.1519
295.2804, 276.0517
295.7625, 277.0432
296.2446, 278.2065
296.7267, 279.3865
297.2088, 280.6442
297.6909, 281.8819
298.1731, 282.9191
298.6552, 283.6423
299.1373, 284.1590
299.6194, 284.8856
300.1015, 286.5507
300.5836, 287.4984
301.0658, 286.6464
301.5479, 285.4008
302.0300, 285.4965
302.5121, 287.5807
302.9942, 290.6088
303.4763, 292.4119
303.9585, 291.8419
304.4406, 291.6805
304.9227, 292.1248
305.4048, 292.8501
305.8869, 293.7383
306.3690, 294.7005
306.8512, 295.5209
307.3333, 295.9095
307.8154, 295.8329
308.2975, 295.3365
308.7796, 294.0171
309.2617, 292.6721
309.7439, 291.7296
310.2260, 291.2382
310.7081, 291.1180
311.1902, 291.4113
311.6723, 292.3258
312.1544, 292.0668
312.6366, 289.7280
313.1187, 287.2921
313.6008, 285.5628
314.0829, 284.3853
314.5650, 283.1938
315.0471, 281.5695
315.5293, 279.5576
316.0114, 277.7605
316.4935, 276.4125
316.9756, 275.0047
317.4577, 273.2643
317.9398, 271.4376
318.4220, 269.9333
318.9041, 268.9698
319.3862, 268.3671
319.8683, 267.5492
320.3504, 266.5177
320.8326, 265.2344
321.3147, 263.5047
321.7968, 261.6262
322.2789, 259.9126
322.7610, 258.4680
323.2431, 257.0816
323.7253, 255.3665
324.2074, 252.8519
324.6895, 250.9582
325.1716, 250.0133
325.6537, 249.3396
326.1358, 248.4451
326.6180, 247.2932
327.1001, 246.2116
327.5822, 245.6285
328.0643, 245.7763
328.5464, 245.1852
329.0285, 243.0025
329.5107, 240.9970
329.9928, 240.1333
330.4749, 240.1029
330.9570, 239.9640
331.4391, 238.9722
331.9212, 237.2097
332.4034, 235.9011
332.8855, 235.3957
333.3676, 234.9847
333.8497, 234.5674
334.3318, 234.1604
334.8139, 233.8428
335.2961, 233.6620
335.7782, 233.5139
336.2603, 233.0937
336.7424, 232.2095
337.2245, 231.3150
337.7066, 230.1198
338.1888, 229.1045
338.6709, 228.8252
339.1530, 229.3798
339.6351, 230.2602
340.1172, 230.7725
340.5993, 231.0116
341.0815, 230.5882
341.5636, 228.7669
342.0457, 226.9875
342.5278, 226.1950
343.0099, 226.2855
343.4920, 226.4323
343.9742, 225.8005
344.4563, 224.3232
344.9384, 223.3203
345.4205, 223.1682
345.9026, 223.1626
346.3847, 223.2622
346.8669, 223.3658
347.3490, 223.4046
347.8311, 223.3932
348.3132, 223.1808
348.7953, 222.0214
349.2774, 218.5126
349.7596, 216.2872
350.2417, 216.6958
350.7238, 218.2036
351.2059, 219.2928
351.6880, 219.4464
352.1701, 219.2346
352.6523, 219.7054
353.1344, 221.2729
353.6165, 222.2395
354.0986, 221.8921
354.5807, 221.3276
355.0628, 221.0877
355.5450, 221.2480
356.0271, 221.6517
356.5092, 222.2074
356.9913, 222.9188
357.4734, 223.5811
357.9555, 224.0646
358.4377, 224.6510
358.9198, 225.5962
359.4019, 226.7185
359.8840, 227.6725
360.3661, 228.3194
360.8482, 228.6149
361.3304, 228.2919
361.8125, 226.8996
362.2946, 225.9034
362.7767, 226.2114
363.2588, 226.9596
363.7409, 227.2290
364.2231, 226.7057
364.7052, 225.9070
365.1873, 225.5412
365.6694, 225.6719
366.1515, 225.6162
366.6336, 224.9498
367.1158, 224.2661
367.5979, 224.0596
368.0800, 224.3202
368.5621, 224.5946
369.0442, 224.4956
369.5263, 224.1137
370.0085, 223.9232
370.4906, 224.1110
370.9727, 224.2104
371.4548, 223.8116
371.9369, 223.0956
372.4190, 222.4496
372.9012, 221.9727
373.3833, 221.6784
373.8654, 221.6464
374.3475, 221.9073
374.8296, 222.1768
375.3117, 222.3488
375.7939, 222.4276
376.2760, 222.3674
376.7581, 222.0390
377.2402, 221.9027
377.7223, 222.3540
378.2044, 223.2989
378.6866, 224.4677
379.1687, 226.1107
379.6508, 227.4003
380.1329, 226.7813
380.6150, 224.3044
381.0971, 222.8243
381.5793, 224.0674
382.0614, 226.5006
382.5435, 227.9395
383.0256, 228.1134
383.5077, 227.9906
383.9898, 228.2867
384.4720, 228.9581
384.9541, 229.5630
385.4362, 229.9839
385.9183, 230.4285
386.4004, 230.9518
386.8825, 231.5878
387.3647, 232.4916
387.8468, 233.7866
388.3289, 235.3059
388.8110, 236.6009
389.2931, 237.5334
389.7752, 238.6006
390.2574, 239.8188
390.7395, 241.2634
391.2216, 243.2616
391.7037, 245.8384
392.1858, 248.2202
392.6679, 249.3994
393.1501, 249.0184
393.6322, 249.2566
394.1143, 250.1389
394.5964, 251.5541
395.0785, 253.6214
395.5606, 256.1925
396.0428, 258.8688
396.5249, 261.4041
397.0070, 264.2081
397.4891, 266.5214
397.9712, 269.8004
398.4533, 272.8661
398.9355, 275.6545
399.4176, 278.1820
399.8997, 280.2390
400.3818, 281.8341
400.8639, 283.6424
401.3460, 286.8321
401.8282, 292.2466
402.3103, 296.6754
402.7924, 299.3807
403.2745, 301.9308
403.7566, 305.1756
404.2387, 308.9840
404.7209, 312.7401
405.2030, 315.9563
405.6851, 318.7058
406.1672, 321.4206
406.6493, 324.3257
407.1314, 326.8151
407.6136, 328.8578
408.0957, 330.4156
408.5778, 331.5005
409.0599, 332.1153
409.5420, 332.1174
410.0241, 331.0934
410.5063, 328.8070
410.9884, 326.7969
411.4705, 325.7014
411.9526, 324.5958
412.4347, 323.0646
412.9168, 321.0798
413.3990, 318.6895
413.8811, 315.7895
414.3632, 312.5048
414.8453, 309.3307
415.3274, 306.3684
415.8095, 303.2660
416.2917, 299.6008
416.7738, 295.7457
417.2559, 292.2050
417.7380, 289.1458
418.2201, 286.3275
418.7022, 283.5313
419.1844, 280.7604
419.6665, 278.1032
420.1486, 275.8039
420.6307, 273.3438
421.1128, 269.9986
421.5949, 265.7611
422.0771, 261.5563
422.5592, 257.5964
423.0413, 253.9143
423.5234, 250.8264
424.0055, 248.3876
424.4876, 245.3419
424.9698, 240.2404
425.4519, 233.6668
425.9340, 229.2537
426.4161, 228.8375
426.8982, 228.5644
427.3803, 226.4321
427.8625, 223.2224
428.3446, 220.7242
428.8267, 219.6595
429.3088, 219.1050
429.7909, 217.4100
430.2730, 213.6505
430.7552, 210.8587
431.2373, 209.9318
431.7194, 209.3333
432.2015, 207.7781
432.6836, 205.3804
433.1657, 203.2011
433.6479, 202.1297
434.1300, 202.0745
434.6121, 201.7952
435.0942, 201.0340
435.5763, 200.3394
436.0584, 199.8827
436.5406, 199.5017
437.0227, 199.0278
437.5048, 198.3985
437.9869, 197.6174
438.4690, 196.5714
438.9511, 194.9693
439.4333, 194.0607
439.9154, 194.5148
440.3975, 195.0861
440.8796, 195.2991
441.3617, 195.1651
441.8438, 194.8158
442.3260, 194.1909
442.8081, 193.5162
443.2902, 193.7255
443.7723, 195.3519
444.2544, 196.5212
444.7365, 196.1231
445.2187, 195.2213
445.7008, 194.7569
446.1829, 194.9292
446.6650, 195.2679
447.1471, 195.3896
447.6292, 195.3269
448.1114, 195.2813
448.5935, 195.3331
449.0756, 195.3003
449.5577, 194.9039
450.0398, 194.2784
450.5219, 193.8338
451.0041, 193.9871
451.4862, 194.1446
451.9683, 193.5639
452.4504, 192.3689
452.9325, 191.4643
453.4146, 191.3653
453.8968, 191.6555
454.3789, 191.4048
454.8610, 190.5240
455.3431, 189.5593
455.8252, 188.5173
456.3073, 187.5176
456.7895, 186.5773
457.2716, 185.7434
457.7537, 185.3101
458.2358, 185.6082
458.7179, 186.6398
459.2000, 187.3345
459.6822, 187.1830
460.1643, 187.3382
460.6464, 188.4019
461.1285, 189.8753
461.6106, 191.0536
462.0927, 191.6737
462.5748, 191.9638
463.0569, 192.2466
463.5391, 192.3656
464.0212, 192.9108
464.5033, 194.0351
464.9854, 195.4077
465.4675, 197.0124
465.9496, 198.7467
466.4318, 200.4133
466.9139, 201.8666
467.3960, 203.1900
467.8781, 204.7268
468.3602, 206.7182
468.8423, 208.3015
469.3245, 209.0313
469.8066, 209.3858
470.2887, 209.7456
470.7708, 210.1616
471.2529, 210.3402
471.7350, 209.9891
472.2172, 209.2044
472.6993, 208.4817
473.1814, 208.0873
473.6635, 207.0910
474.1456, 204.3891
474.6277, 200.6066
475.1099, 197.1137
475.5920, 194.2436
476.0741, 191.5769
476.5562, 188.6235
477.0383, 185.6338
477.5204, 183.3882
478.0026, 182.2548
478.4847, 181.5841
478.9668, 180.4265
479.4489, 178.5821
479.9310, 177.2640
480.4131, 177.0594
480.8953, 176.9661
481.3774, 176.1773
481.8595, 174.8802
482.3416, 173.8370
482.8237, 173.5226
483.3058, 173.6917
483.7880, 173.4928
484.2701, 172.5531
484.7522, 171.7676
485.2343, 171.1445
485.7164, 170.6903
486.1985, 170.3859
486.6807, 170.2437
487.1628, 170.3540
487.6449, 170.9370
488.1270, 171.9116
488.6091, 172.0953
489.0912, 170.9914
489.5734, 169.8608
490.0555, 169.0062
490.5376, 168.3694
491.0197, 167.9673
491.5018, 167.8224
491.9839, 167.6261
492.4661, 166.9209
492.9482, 165.7917
493.4303, 165.0785
493.9124, 165.0877
494.3945, 165.1607
494.8766, 164.5903
495.3588, 163.6465
495.8409, 163.0844
496.3230, 163.3618
496.8051, 163.8250
497.2872, 163.9326
497.7693, 163.7646
498.2515, 163.6015
498.7336, 163.5346
499.2157, 163.5590
499.6978, 163.7231
500.1799, 164.1518
500.6620, 164.2246
501.1442, 163.5161
501.6263, 162.7627
502.1084, 162.4648
502.5905, 162.5844
503.0726, 162.8997
503.5547, 163.3081
504.0369, 163.7089
504.5190, 163.7198
505.0011, 162.7457
505.4832, 162.3416
505.9653, 163.0193
506.4474, 163.9132
506.9296, 164.4495
507.4117, 164.5673
507.8938, 164.4730
508.3759, 164.2853
508.8580, 164.0308
509.3401, 163.8667
509.8223, 163.7719
510.3044, 163.8131
510.7865, 163.9692
511.2686, 164.2923
511.7507, 164.9557
512.2328, 166.0250
512.7150, 166.9530
513.1971, 167.2884
513.6792, 167.1667
514.1613, 166.8800
514.6434, 166.3786
515.1255, 166.1294
515.6077, 166.5737
516.0898, 167.5866
516.5719, 168.5212
517.0540, 169.3528
517.5361, 170.1083
518.0182, 170.7077
518.5004, 171.2636
518.9825, 172.0503
519.4646, 173.1380
519.9467, 174.1477
520.4288, 174.5714
520.9109, 174.2572
521.3931, 174.3886
521.8752, 174.9719
522.3573, 175.9161
522.8394, 177.3672
523.3215, 179.1027
523.8036, 180.9348
524.2858, 182.7635
524.7679, 184.3198
525.2500, 184.9332
525.7321, 184.2691
526.2142, 184.3595
526.6964, 185.9352
527.1785, 187.6424
527.6606, 188.7844
528.1427, 189.5759
528.6248, 190.5290
529.1069, 191.8416
529.5891, 193.4368
530.0712, 195.2979
530.5533, 197.4057
531.0354, 199.4190
531.5175, 201.1940
531.9996, 202.9145
532.4818, 204.7807
532.9639, 206.7709
533.4460, 208.9463
533.9281, 211.2605
534.4102, 213.8072
534.8923, 216.7602
535.3745, 220.0329
535.8566, 223.4837
536.3387, 227.0701
536.8208, 230.5768
537.3029, 233.4721
537.7850, 235.1729
538.2672, 237.5469
538.7493, 241.1057
539.2314, 244.8090
539.7135, 247.8602
540.1956, 250.5644
540.6777, 253.8919
541.1599, 258.4834
541.6420, 263.8331
542.1241, 268.5885
542.6062, 272.4856
543.0883, 276.7094
543.5704, 281.3603
544.0526, 286.5019
544.5347, 292.3326
545.0168, 298.7711
545.4989, 305.2788
545.9810, 311.8217
546.4631, 318.1767
546.9453, 324.0145
547.4274, 329.3446
547.9095, 334.0818
548.3916, 338.1654
548.8737, 341.6365
549.3558, 344.6457
549.8380, 347.4185
550.3201, 348.8027
550.8022, 348.2086
551.2843, 346.4087
551.7664, 344.2264
552.2485, 341.4562
552.7307, 337.1522
553.2128, 330.6911
553.6949, 322.5963
554.1770, 314.2692
554.6591, 305.5966
555.1412, 296.9017
555.6234, 288.1944
556.1055, 279.4362
556.5876, 270.4815
557.0697, 261.3896
557.5518, 252.3122
558.0339, 243.1106
558.5161, 234.2707
558.9982, 227.1104
559.4803, 221.9238
559.9624, 216.7931
560.4445, 211.0781
560.9266, 205.4215
561.4088, 200.4349
561.8909, 196.0927
562.3730, 191.9323
562.8551, 187.5838
563.3372, 183.4720
563.8193, 180.0880
564.3015, 177.3870
564.7836, 175.1684
565.2657, 173.4358
565.7478, 171.8616
566.2299, 169.7869
566.7120, 166.8191
567.1942, 164.3347
567.6763, 162.3049
568.1584, 160.7941
568.6405, 160.2990
569.1226, 160.3170
569.6047, 159.7009
570.0869, 157.8266
570.5690, 155.3418
571.0511, 153.6520
571.5332, 152.9937
572.0153, 152.1597
572.4974, 150.7828
572.9796, 149.4638
573.4617, 148.5063
573.9438, 147.8540
574.4259, 147.3554
574.9080, 147.0352
575.3901, 146.7155
575.8723, 146.1421
576.3544, 145.3680
576.8365, 144.7087
577.3186, 144.2937
577.8007, 143.8921
578.2828, 143.2402
578.7650, 142.3201
579.2471, 141.3887
579.7292, 140.2272
580.2113, 139.2942
580.6934, 138.9477
581.1755, 138.9319
581.6577, 138.8214
582.1398, 138.4757
582.6219, 138.0549
583.1040, 137.8360
583.5861, 137.9097
584.0682, 137.4592
584.5504, 135.9523
585.0325, 134.5405
585.5146, 133.6725
585.9967, 133.0541
586.4788, 132.2504
