##NAMES=Polydymite
##RRUFFID=R050609
##IDEAL CHEMISTRY=Ni^2+^Ni^3+^_2_S^2-^_4_
##LOCALITY=Dry Nickel mine, Bindura, South Rhodesia, Rhodesia
##OWNER=RRUFF
##SOURCE=University of Arizona Mineral Museum
##DESCRIPTION=Reddish-bronze tarnished metallic fragment associated with green clinochlore and white actinolite
##STATUS=The identification of this mineral has been confirmed by X-ray diffraction.
##URL=rruff.info/R050609
##MEASURED CHEMISTRY=(Ni_0.85_Fe_0.15_)Ni_2.00_S_4.00_
92.06543, 226.1142
92.54755, 221.1311
93.02966, 221.0077
93.51178, 231.1330
93.99390, 236.5942
94.47601, 234.0938
94.95813, 225.6527
95.44025, 215.1168
95.92236, 205.2615
96.40448, 196.0072
96.88660, 188.2945
97.36871, 183.2261
97.85082, 178.6820
98.33294, 173.0603
98.81506, 166.0428
99.29717, 158.6151
99.77929, 152.9844
100.2614, 149.0068
100.7435, 144.1616
101.2256, 137.1984
101.7078, 128.9114
102.1899, 120.9596
102.6720, 113.0243
103.1541, 106.4660
103.6362, 102.2339
104.1183, 100.2680
104.6005, 99.39030
105.0826, 98.96313
105.5647, 99.09052
106.0468, 98.80067
106.5289, 97.98971
107.0110, 96.61012
107.4931, 94.50175
107.9753, 91.61792
108.4574, 88.18627
108.9395, 84.57621
109.4216, 80.35510
109.9037, 76.66430
110.3858, 73.70188
110.8680, 71.21971
111.3501, 68.98653
111.8322, 66.86925
112.3143, 64.89543
112.7964, 63.22171
113.2785, 61.95275
113.7607, 60.83109
114.2428, 59.73240
114.7249, 58.72002
115.2070, 57.97971
115.6891, 57.71102
116.1712, 57.90311
116.6534, 57.87672
117.1355, 57.39075
117.6176, 56.86383
118.0997, 56.60933
118.5818, 56.65713
119.0639, 56.86543
119.5461, 57.09330
120.0282, 57.37094
120.5103, 57.85192
120.9924, 58.76398
121.4745, 59.90437
121.9566, 60.80334
122.4388, 61.35455
122.9209, 61.73018
123.4030, 62.22105
123.8851, 62.72536
124.3672, 62.88188
124.8493, 62.32459
125.3315, 61.00953
125.8136, 59.61781
126.2957, 57.56770
126.7778, 55.93634
127.2599, 55.56566
127.7420, 56.36347
128.2242, 57.31911
128.7063, 56.93855
129.1884, 54.10606
129.6705, 52.22705
130.1526, 51.86277
130.6347, 51.95127
131.1169, 51.76321
131.5990, 51.04349
132.0811, 49.95774
132.5632, 48.86519
133.0453, 47.70895
133.5274, 46.60992
134.0096, 45.37806
134.4917, 44.24596
134.9738, 43.60048
135.4559, 43.66229
135.9380, 44.23564
136.4201, 44.65495
136.9023, 44.90205
137.3844, 45.06593
137.8665, 45.21362
138.3486, 45.32393
138.8307, 45.29026
139.3128, 45.02679
139.7950, 44.57024
140.2771, 44.04674
140.7592, 43.37675
141.2413, 42.72702
141.7234, 42.26937
142.2055, 42.02380
142.6877, 41.87845
143.1698, 41.91705
143.6519, 41.98519
144.1340, 41.88783
144.6161, 41.51223
145.0982, 40.94408
145.5803, 40.38081
146.0625, 39.73249
146.5446, 39.25527
147.0267, 39.00779
147.5088, 38.96095
147.9909, 39.09667
148.4730, 39.46380
148.9552, 40.03805
149.4373, 40.31557
149.9194, 40.05965
150.4015, 39.69521
150.8836, 39.31145
151.3657, 38.90396
151.8479, 38.40908
152.3300, 37.74895
152.8121, 36.85073
153.2942, 36.22645
153.7763, 36.06916
154.2584, 35.95121
154.7406, 35.65496
155.2227, 35.16969
155.7048, 34.61264
156.1869, 34.09731
156.6690, 33.61922
157.1511, 33.25853
157.6333, 33.02571
158.1154, 32.89941
158.5975, 32.87780
159.0796, 32.96189
159.5617, 33.11583
160.0438, 33.35184
160.5260, 33.69160
161.0081, 33.85205
161.4902, 33.65472
161.9723, 33.25105
162.4544, 32.91722
162.9365, 32.73243
163.4187, 32.60184
163.9008, 32.37276
164.3829, 32.04891
164.8650, 31.83899
165.3471, 31.97030
165.8292, 32.37578
166.3113, 32.58952
166.7935, 32.33008
167.2756, 32.02280
167.7577, 32.01716
168.2398, 32.32034
168.7219, 32.68480
169.2040, 32.89670
169.6862, 32.94893
170.1683, 32.89387
170.6504, 32.58129
171.1325, 32.26702
171.6146, 32.09791
172.0967, 32.10030
172.5789, 32.18760
173.0610, 32.23808
173.5431, 32.23154
174.0252, 32.23273
174.5073, 32.39574
174.9894, 32.48141
175.4716, 32.20465
175.9537, 31.50723
176.4358, 30.68543
176.9179, 30.36065
177.4000, 31.11053
177.8821, 31.59024
178.3643, 31.60726
178.8464, 31.41936
179.3285, 31.28177
179.8106, 31.29935
180.2927, 31.40509
180.7748, 31.41573
181.2570, 31.26513
181.7391, 31.10266
182.2212, 30.91485
182.7033, 30.72919
183.1854, 30.58068
183.6675, 30.47985
184.1497, 30.43829
184.6318, 30.51305
185.1139, 30.79678
185.5960, 31.02808
186.0781, 31.08402
186.5602, 31.01056
187.0423, 30.95678
187.5245, 31.03805
188.0066, 31.13166
188.4887, 30.92948
188.9708, 30.17884
189.4529, 29.57176
189.9350, 29.70264
190.4172, 30.49858
190.8993, 31.17743
191.3814, 31.40724
191.8635, 31.28279
192.3456, 30.91324
192.8277, 30.15618
193.3099, 29.46241
193.7920, 29.42439
194.2741, 30.15844
194.7562, 30.67723
195.2383, 30.36020
195.7204, 29.71581
196.2026, 29.10033
196.6847, 28.58017
197.1668, 28.19110
197.6489, 27.99012
198.1310, 27.99618
198.6131, 28.15110
199.0953, 28.63260
199.5774, 29.15210
200.0595, 29.41652
200.5416, 29.30014
201.0237, 28.98112
201.5058, 28.85878
201.9880, 29.05047
202.4701, 29.23943
202.9522, 29.37769
203.4343, 29.47996
203.9164, 29.56777
204.3985, 29.65193
204.8807, 29.71294
205.3628, 29.68650
205.8449, 29.47085
206.3270, 29.29611
206.8091, 29.17433
207.2912, 29.10910
207.7733, 29.10893
208.2555, 29.17931
208.7376, 29.30621
209.2197, 29.43816
209.7018, 29.64055
210.1839, 29.77177
210.6660, 29.75886
211.1482, 29.67787
211.6303, 29.63983
212.1124, 29.70502
212.5945, 29.84044
213.0766, 29.91083
213.5587, 29.82919
214.0409, 29.78978
214.5230, 29.88186
215.0051, 30.03803
215.4872, 30.13302
215.9693, 30.09687
216.4514, 29.96638
216.9336, 29.87360
217.4157, 29.63513
217.8978, 29.59904
218.3799, 29.75500
218.8620, 29.85348
219.3441, 29.89756
219.8263, 29.72432
220.3084, 29.83170
220.7905, 29.82663
221.2726, 29.81694
221.7547, 30.40485
222.2368, 30.90376
222.7190, 31.29300
223.2011, 31.48271
223.6832, 31.34903
224.1653, 31.05755
224.6474, 30.93626
225.1295, 31.02577
225.6117, 31.18149
226.0938, 31.37961
226.5759, 31.60039
227.0580, 31.65847
227.5401, 31.39896
228.0222, 30.99687
228.5043, 30.68436
228.9865, 30.49117
229.4686, 30.31788
229.9507, 30.10371
230.4328, 29.84916
230.9149, 29.51420
231.3970, 28.86402
231.8792, 28.30461
232.3613, 28.25948
232.8434, 28.80998
233.3255, 29.45308
233.8076, 29.66807
234.2897, 29.41491
234.7719, 29.20518
235.2540, 29.22868
235.7361, 29.28117
236.2182, 29.21910
236.7003, 29.02566
237.1824, 28.81501
237.6646, 28.70431
238.1467, 28.70232
238.6288, 28.74975
239.1109, 28.94582
239.5930, 29.11330
240.0751, 29.11918
240.5573, 28.96430
241.0394, 28.79187
241.5215, 28.81850
242.0036, 29.14931
242.4857, 29.24411
242.9678, 28.83876
243.4500, 28.38026
243.9321, 28.05727
244.4142, 27.90290
244.8963, 27.86683
245.3784, 27.92395
245.8605, 28.13170
246.3427, 28.21795
246.8248, 28.10680
247.3069, 27.94810
247.7890, 27.75413
248.2711, 27.56175
248.7532, 27.46502
249.2354, 27.60270
249.7175, 28.09149
250.1996, 28.30073
250.6817, 28.01466
251.1638, 27.67872
251.6459, 27.49666
252.1281, 27.46722
252.6102, 27.47793
253.0923, 27.42663
253.5744, 27.31565
254.0565, 27.11961
254.5386, 26.68469
255.0208, 26.31886
255.5029, 26.16429
255.9850, 26.20942
256.4671, 26.37383
256.9492, 26.60978
257.4313, 26.93573
257.9135, 27.09610
258.3956, 27.00910
258.8777, 26.87709
259.3598, 26.76526
259.8419, 26.67974
260.3240, 26.60017
260.8062, 26.50056
261.2883, 26.38244
261.7704, 26.41311
262.2525, 26.79341
262.7346, 27.08696
263.2167, 27.07693
263.6989, 26.83009
264.1810, 26.53494
264.6631, 26.29909
265.1452, 26.12352
265.6273, 26.01603
266.1094, 25.91867
266.5916, 26.08840
267.0737, 26.20064
267.5558, 26.25849
268.0379, 26.09901
268.5200, 26.22016
269.0021, 26.22884
269.4843, 26.23292
269.9664, 26.39357
270.4485, 26.26570
270.9306, 26.42386
271.4127, 26.46784
271.8948, 26.56408
272.3770, 26.27978
272.8591, 25.88663
273.3412, 25.97116
273.8233, 26.85737
274.3054, 27.45434
274.7875, 27.16444
275.2697, 26.38577
275.7518, 25.87002
276.2339, 25.89561
276.7160, 26.24428
277.1981, 26.59536
277.6802, 27.02977
278.1623, 27.20045
278.6444, 26.76345
279.1266, 26.05190
279.6087, 25.65679
280.0908, 25.76354
280.5729, 26.07960
281.0550, 26.19788
281.5371, 26.11564
282.0193, 26.12208
282.5014, 26.47184
282.9835, 26.89314
283.4656, 26.87933
283.9477, 26.26698
284.4298, 25.66761
284.9120, 25.87833
285.3941, 26.77598
285.8762, 27.47562
286.3583, 27.75480
286.8404, 27.76077
287.3225, 27.59876
287.8047, 27.25481
288.2868, 26.95258
288.7689, 26.86489
289.2510, 26.97001
289.7331, 27.19469
290.2152, 27.75529
290.6974, 28.29383
291.1795, 28.38496
291.6616, 28.01026
292.1437, 27.55561
292.6258, 27.16894
293.1079, 26.89398
293.5901, 26.81565
294.0722, 27.04580
294.5543, 27.36094
295.0364, 27.62775
295.5185, 27.84261
296.0006, 27.90654
296.4828, 27.68294
296.9649, 27.32859
297.4470, 27.12555
297.9291, 27.11658
298.4112, 27.17832
298.8933, 27.30400
299.3755, 27.46136
299.8576, 27.42877
300.3397, 27.02102
300.8218, 26.50729
301.3039, 26.23361
301.7860, 26.21134
302.2682, 26.32471
302.7503, 26.70482
303.2324, 27.20454
303.7145, 27.24057
304.1966, 26.46837
304.6787, 25.57047
305.1609, 25.34594
305.6430, 25.71154
306.1251, 25.99618
306.6072, 25.76233
307.0893, 25.26167
307.5714, 25.08280
308.0536, 25.38352
308.5357, 25.74475
309.0178, 25.81289
309.4999, 25.66152
309.9820, 25.44880
310.4641, 25.11246
310.9463, 24.78882
311.4284, 24.75601
311.9105, 25.08451
312.3926, 25.33797
312.8747, 25.09612
313.3568, 24.60661
313.8390, 24.32031
314.3211, 24.45527
314.8032, 24.68663
315.2853, 24.59437
315.7674, 24.16912
316.2495, 23.83335
316.7317, 23.90628
317.2138, 23.92173
317.6959, 23.88279
318.1780, 23.62652
318.6601, 23.65088
319.1422, 23.56278
319.6243, 23.47007
320.1064, 23.53392
320.5886, 23.30926
321.0707, 23.37063
321.5528, 23.31783
322.0349, 23.31728
322.5170, 23.20358
322.9991, 23.30613
323.4813, 23.36031
323.9634, 23.19717
324.4455, 23.31466
324.9276, 23.31968
325.4097, 23.32009
325.8918, 23.47707
326.3740, 23.34554
326.8561, 23.50004
327.3382, 23.54036
327.8203, 23.63294
328.3024, 23.61235
328.7845, 23.62672
329.2667, 23.81065
329.7488, 24.02673
330.2309, 24.23078
330.7130, 24.44019
331.1951, 24.61188
331.6772, 24.67106
332.1594, 24.61993
332.6415, 24.60070
333.1236, 24.69867
333.6057, 24.87604
334.0878, 25.04562
334.5699, 25.21715
335.0521, 25.35643
335.5342, 25.43792
336.0163, 25.46705
336.4984, 25.45538
336.9805, 25.37172
337.4626, 25.29954
337.9448, 25.36499
338.4269, 25.56963
338.9090, 25.60773
339.3911, 26.00311
339.8732, 26.26052
340.3553, 26.38738
340.8375, 25.99269
341.3196, 26.27148
341.8017, 26.28036
342.2838, 26.27818
342.7659, 26.65177
343.2480, 26.33291
343.7302, 27.17193
344.2123, 27.54190
344.6944, 27.62618
345.1765, 27.58519
345.6586, 27.46891
346.1407, 27.31922
346.6229, 27.34167
347.1050, 27.70520
347.5871, 28.09104
348.0692, 28.36862
348.5513, 28.52157
349.0334, 28.47423
349.5156, 28.14221
349.9977, 27.63550
350.4798, 27.26438
350.9619, 27.09708
351.4440, 26.90217
351.9261, 26.52817
352.4083, 26.09906
352.8904, 25.85361
353.3725, 25.88134
353.8546, 25.99072
354.3367, 25.92871
354.8188, 25.70353
355.3010, 25.25495
355.7831, 24.11612
356.2652, 23.03816
356.7473, 22.63559
357.2294, 22.99309
357.7115, 23.21262
358.1937, 23.30161
358.6758, 22.86901
359.1579, 23.10992
359.6400, 23.08092
360.1221, 23.04085
360.6042, 23.37654
361.0863, 23.01981
361.5685, 23.02020
362.0506, 23.39142
362.5327, 23.62468
363.0148, 23.72739
363.4969, 23.30852
363.9790, 23.56315
364.4612, 23.54789
364.9433, 23.52155
365.4254, 23.87098
365.9075, 23.52797
366.3896, 23.87144
366.8717, 23.94088
367.3539, 24.13575
367.8360, 24.05903
368.3181, 24.06619
368.8002, 23.76817
369.2823, 23.77259
369.7644, 24.03411
370.2466, 24.23818
370.7287, 24.38781
371.2108, 24.32012
371.6929, 24.53307
372.1750, 24.63355
372.6571, 25.31600
373.1393, 25.78074
373.6214, 26.07292
374.1035, 26.29873
374.5856, 26.51860
375.0677, 26.68858
375.5498, 26.64161
376.0320, 26.01530
376.5141, 25.72486
376.9962, 26.11126
377.4783, 26.68344
377.9604, 26.97320
378.4425, 26.88413
378.9247, 26.70929
379.4068, 26.92069
379.8889, 27.74962
380.3710, 28.14800
380.8531, 27.60419
381.3352, 27.08887
381.8174, 27.13245
382.2995, 27.59668
382.7816, 27.97241
383.2637, 27.83176
383.7458, 27.27023
384.2279, 26.96421
384.7101, 27.12486
385.1922, 27.22505
385.6743, 27.01248
386.1564, 26.69176
386.6385, 26.55846
387.1206, 26.76246
387.6028, 27.01214
388.0849, 26.76437
388.5670, 25.87877
389.0491, 25.17128
389.5312, 24.97138
390.0133, 24.91334
390.4955, 24.78432
390.9776, 24.56401
391.4597, 24.31696
391.9418, 24.09140
392.4239, 23.88158
392.9060, 23.66148
393.3882, 23.43568
393.8703, 23.18679
394.3524, 22.87281
394.8345, 22.52926
395.3166, 22.23400
395.7987, 22.01985
396.2809, 21.86625
396.7630, 21.75670
397.2451, 21.69231
397.7272, 21.64500
398.2093, 21.62256
398.6914, 21.59678
399.1736, 21.53788
399.6557, 21.45721
400.1378, 21.30084
400.6199, 20.93399
401.1020, 20.46410
401.5841, 20.21176
402.0662, 20.29293
402.5483, 20.47709
403.0305, 20.48392
403.5126, 20.32670
403.9947, 20.21611
404.4768, 20.22196
404.9589, 20.26852
405.4410, 20.32728
405.9232, 20.38169
406.4053, 20.31923
406.8874, 20.02085
407.3695, 19.55713
407.8516, 19.28726
408.3337, 19.33389
408.8159, 19.40298
409.2980, 19.41166
409.7801, 19.38223
410.2622, 19.38361
410.7443, 19.44305
411.2264, 19.43951
411.7086, 19.14755
412.1907, 18.31129
412.6728, 17.84550
413.1549, 17.97132
413.6370, 18.27726
414.1191, 18.55329
414.6013, 18.75561
415.0834, 18.88310
415.5655, 18.93562
416.0476, 18.91279
416.5297, 18.80328
417.0118, 18.34682
417.4940, 18.10507
417.9761, 18.32791
418.4582, 18.76139
418.9403, 19.11307
419.4224, 19.26932
419.9045, 19.27253
420.3867, 19.16610
420.8688, 18.85819
421.3509, 18.69047
421.8330, 18.82043
422.3151, 18.96459
422.7972, 18.96784
423.2794, 18.84174
423.7615, 18.68624
424.2436, 18.55876
424.7257, 18.46704
425.2078, 18.49563
425.6899, 18.82721
426.1721, 18.94790
426.6542, 18.40292
427.1363, 17.67818
427.6184, 17.40732
428.1005, 17.84400
428.5826, 18.49009
429.0648, 18.71247
429.5469, 18.50584
430.0290, 18.39023
430.5111, 18.53453
430.9932, 18.74309
431.4753, 18.86089
431.9575, 18.89049
432.4396, 18.85445
432.9217, 18.74174
433.4038, 18.57779
433.8859, 18.37747
434.3680, 18.13190
434.8502, 17.95757
435.3323, 17.98805
435.8144, 18.13179
436.2965, 18.11433
436.7786, 17.74253
437.2607, 17.48765
437.7429, 17.79749
438.2250, 18.40347
438.7071, 18.61854
439.1892, 18.18496
439.6713, 17.56107
440.1534, 17.41038
440.6356, 17.87117
441.1177, 18.18995
441.5998, 18.33654
442.0819, 18.32242
442.5640, 17.98263
443.0461, 17.44058
443.5282, 17.16830
444.0103, 17.53303
444.4925, 18.37680
444.9746, 18.80599
445.4567, 18.39066
445.9388, 18.08542
446.4209, 18.08677
446.9030, 18.19486
447.3852, 18.22560
447.8673, 18.12321
448.3494, 17.91042
448.8315, 17.55850
449.3136, 16.96282
449.7957, 16.75890
450.2779, 17.47480
450.7600, 18.06583
451.2421, 18.06406
451.7242, 17.68546
452.2063, 17.37673
452.6884, 17.38748
453.1706, 17.59347
453.6527, 17.71861
454.1348, 17.75937
454.6169, 17.72883
455.0990, 17.49337
455.5811, 17.27857
456.0633, 17.25378
456.5454, 17.43075
457.0275, 17.68103
457.5096, 17.99613
457.9917, 18.31813
458.4738, 18.42080
458.9560, 18.24019
459.4381, 17.98104
459.9202, 17.71370
460.4023, 17.47268
460.8844, 17.33812
461.3665, 17.38208
461.8487, 17.45280
462.3308, 17.42065
462.8129, 17.31757
463.2950, 17.25451
463.7771, 17.26641
464.2592, 17.33377
464.7414, 17.46888
465.2235, 17.70664
465.7056, 17.76992
466.1877, 17.41529
466.6698, 17.03609
467.1519, 16.96849
467.6341, 17.18397
468.1162, 17.45458
468.5983, 17.63904
469.0804, 17.75653
469.5625, 17.88762
470.0446, 18.19005
470.5268, 18.30139
471.0089, 18.06726
471.4910, 17.70286
471.9731, 17.36569
472.4552, 17.10840
472.9373, 16.95941
473.4195, 16.97086
473.9016, 17.15871
474.3837, 17.28674
474.8658, 17.27208
475.3479, 17.28716
475.8300, 17.45994
476.3122, 17.66730
476.7943, 17.69959
477.2764, 17.44912
477.7585, 17.13463
478.2406, 17.16358
478.7227, 17.59927
479.2049, 17.78663
479.6870, 17.36938
480.1691, 16.91539
480.6512, 16.86780
481.1333, 17.16165
481.6154, 17.45503
482.0976, 17.58634
482.5797, 17.61976
483.0618, 17.68406
483.5439, 17.78424
484.0260, 17.73993
484.5081, 17.36175
484.9902, 16.85412
485.4724, 16.68857
485.9545, 17.02769
486.4366, 17.21014
486.9187, 16.72382
487.4008, 16.07644
487.8829, 16.05683
488.3651, 16.75215
488.8472, 17.50341
489.3293, 17.70813
489.8114, 17.37307
490.2935, 17.25486
490.7756, 17.70444
491.2578, 17.92205
491.7399, 17.40832
492.2220, 16.63358
492.7041, 16.29372
493.1862, 16.60254
493.6683, 17.11756
494.1505, 17.15625
494.6326, 16.53550
495.1147, 16.16514
495.5968, 16.10062
496.0789, 16.24599
496.5610, 16.77094
497.0432, 17.45828
497.5253, 17.93085
498.0074, 17.98927
498.4895, 17.74467
498.9716, 17.31665
499.4537, 16.64482
499.9359, 16.17502
500.4180, 16.10567
500.9001, 16.19706
501.3822, 16.22544
501.8643, 16.20321
502.3464, 16.29370
502.8286, 16.71017
503.3107, 17.22470
503.7928, 17.50758
504.2749, 17.54667
504.7570, 17.41254
505.2391, 17.06673
505.7213, 16.62387
506.2034, 16.41154
506.6855, 16.55680
507.1676, 16.60665
507.6497, 16.30036
508.1318, 15.91194
508.6140, 15.80228
509.0961, 15.99220
509.5782, 16.16098
510.0603, 15.98493
510.5424, 15.49967
511.0245, 15.46965
511.5067, 16.52028
511.9888, 17.26957
512.4709, 17.35001
512.9530, 17.08667
513.4351, 16.76734
513.9172, 16.49646
514.3994, 16.33122
514.8815, 16.38957
515.3636, 16.69952
515.8457, 16.85073
516.3278, 16.71012
516.8099, 16.58568
517.2921, 16.66273
517.7742, 16.81908
518.2563, 16.85441
518.7384, 16.68070
519.2205, 16.44492
519.7026, 16.23870
520.1848, 16.08304
520.6669, 16.20836
521.1490, 16.81531
521.6311, 17.40405
522.1132, 17.31331
522.5953, 16.68672
523.0775, 16.30225
523.5596, 16.52304
524.0417, 16.82070
524.5238, 16.81575
525.0059, 16.58352
525.4880, 16.32833
525.9702, 16.12172
526.4523, 16.01510
526.9344, 16.11822
527.4165, 16.57998
527.8986, 16.85713
528.3807, 16.88870
528.8629, 16.81020
529.3450, 16.66619
529.8271, 16.47415
530.3092, 16.22133
530.7913, 15.88679
531.2734, 15.56635
531.7556, 15.53606
532.2377, 15.94725
532.7198, 16.21940
533.2019, 16.05000
533.6840, 15.90088
534.1661, 16.13289
534.6483, 16.65203
535.1304, 17.01106
535.6125, 16.89782
536.0946, 16.50537
536.5767, 16.11811
537.0588, 15.72829
537.5410, 15.51483
538.0231, 15.59510
538.5052, 15.84831
538.9873, 16.12540
539.4694, 16.45450
539.9515, 16.62531
540.4337, 16.44660
540.9158, 16.17249
541.3979, 16.02810
541.8800, 16.02838
542.3621, 16.15066
542.8442, 16.40884
543.3264, 16.72523
543.8085, 16.83139
544.2906, 16.45147
544.7726, 16.24152
545.2548, 16.36355
545.7369, 16.53773
546.2190, 16.52876
546.7011, 16.36178
547.1832, 16.21504
547.6653, 16.20069
548.1475, 16.33401
548.6296, 16.76043
549.1117, 17.72425
549.5938, 18.33548
550.0759, 18.03628
550.5580, 17.47412
551.0402, 17.01927
551.5223, 16.72617
552.0044, 16.70350
552.4865, 17.34299
552.9686, 18.17332
553.4507, 18.21837
553.9329, 17.43521
554.4150, 16.78041
554.8971, 16.85319
555.3792, 17.30446
555.8613, 17.17294
556.3434, 16.11473
556.8256, 15.44767
557.3077, 15.76255
557.7898, 16.33807
558.2719, 16.49159
558.7540, 16.23386
559.2361, 15.99503
559.7183, 16.08601
560.2004, 16.40884
560.6825, 16.54765
561.1646, 16.39504
561.6467, 16.23217
562.1288, 15.97382
562.6110, 15.80299
563.0931, 15.93209
563.5752, 16.30449
564.0573, 16.60766
564.5394, 16.55917
565.0215, 16.32171
565.5037, 16.35771
565.9858, 16.72248
566.4679, 17.00325
566.9500, 17.05841
567.4321, 16.93832
567.9142, 16.65195
568.3964, 16.17257
568.8785, 15.90162
569.3606, 16.21520
569.8427, 16.63634
570.3248, 16.64229
570.8069, 16.27409
571.2891, 15.86092
571.7712, 15.56551
572.2533, 15.39300
572.7354, 15.37023
573.2175, 15.68622
573.6996, 15.81389
574.1818, 15.52640
574.6639, 15.26355
575.1460, 15.30016
575.6281, 15.59204
576.1102, 15.99174
576.5923, 16.44529
577.0745, 16.84614
577.5566, 16.94850
578.0387, 16.72278
578.5208, 16.34308
579.0029, 15.63901
579.4850, 15.00997
579.9672, 14.74025
580.4493, 14.79366
580.9314, 15.00618
581.4135, 15.54810
581.8956, 16.03267
582.3777, 15.94694
582.8599, 15.45245
583.3420, 15.16888
583.8241, 15.31373
584.3062, 15.72468
584.7883, 16.25948
585.2704, 17.03785
585.7526, 17.27260
586.2347, 16.48398
586.7168, 15.70389
