##NAMES=Polylithionite
##RRUFFID=R050132
##IDEAL CHEMISTRY=KLi_2_AlSi_4_O_10_F_2_
##LOCALITY=Brown Derby mine, Ohio City, Gunnison County, Colorado, USA
##OWNER=RRUFF
##SOURCE=Dave Bunk Minerals
##DESCRIPTION=Purple scaly aggregate, polytype 2M1
##STATUS=The identification of this mineral has been confirmed by X-ray diffraction and chemical analysis
##URL=rruff.info/R050132
##MEASURED CHEMISTRY=(K_0.90_Rb_0.10_)(Li_0.62_Al_0.38_)_3_(Si_0.93_Al_0.07_)_4_O_10_(F_0.69_(OH)_0.31_)_2_
93.88477, 57.90647
94.36688, 54.73409
94.84900, 55.79583
95.33112, 60.58747
95.81323, 66.72465
96.29535, 73.66660
96.77747, 81.10155
97.25958, 87.62843
97.74170, 92.76748
98.22382, 97.83717
98.70593, 105.2631
99.18805, 115.1637
99.67017, 126.2312
100.1523, 137.7378
100.6344, 149.6435
101.1165, 161.7332
101.5986, 173.8600
102.0807, 186.1413
102.5629, 198.5274
103.0450, 211.0835
103.5271, 223.8271
104.0092, 236.7797
104.4913, 250.4912
104.9734, 263.2725
105.4556, 274.7861
105.9377, 284.8529
106.4198, 295.4073
106.9019, 306.6973
107.3840, 318.2302
107.8661, 329.1133
108.3483, 338.4169
108.8304, 348.4125
109.3125, 359.5322
109.7946, 371.6288
110.2767, 385.5120
110.7588, 402.8271
111.2410, 421.8171
111.7231, 439.4869
112.2052, 453.6266
112.6873, 468.3790
113.1694, 485.4009
113.6515, 506.8546
114.1337, 527.6157
114.6158, 547.4791
115.0979, 566.1729
115.5800, 583.2808
116.0621, 597.0068
116.5442, 610.0301
117.0264, 623.7865
117.5085, 641.0117
117.9906, 656.8241
118.4727, 669.4606
118.9548, 679.1552
119.4369, 687.4359
119.9191, 694.2803
120.4012, 700.3909
120.8833, 706.4289
121.3654, 712.5363
121.8475, 718.7704
122.3296, 725.4306
122.8118, 732.5264
123.2939, 739.1064
123.7760, 743.9600
124.2581, 747.8956
124.7402, 752.3341
125.2223, 757.4658
125.7045, 763.5453
126.1866, 770.9027
126.6687, 779.6047
127.1508, 789.3012
127.6329, 799.7313
128.1150, 810.8333
128.5972, 822.7942
129.0793, 836.7509
129.5614, 851.4410
130.0435, 863.9661
130.5256, 873.6678
131.0077, 881.9795
131.4899, 890.7587
131.9720, 899.9858
132.4541, 909.0496
132.9362, 914.8038
133.4183, 916.2386
133.9004, 916.4330
134.3826, 914.8525
134.8647, 912.3260
135.3468, 910.8506
135.8289, 910.4804
136.3110, 910.5184
136.7931, 910.7971
137.2753, 911.3620
137.7574, 910.6916
138.2395, 908.0576
138.7216, 903.9370
139.2037, 900.9904
139.6858, 899.4803
140.1680, 898.3420
140.6501, 896.4357
141.1322, 893.5026
141.6143, 890.6052
142.0964, 887.5838
142.5785, 884.3427
143.0607, 883.2467
143.5428, 885.0637
144.0249, 888.0916
144.5070, 890.1915
144.9891, 890.9340
145.4712, 891.6055
145.9534, 892.5616
146.4355, 893.9086
146.9176, 895.1841
147.3997, 896.2939
147.8818, 897.3878
148.3639, 898.7712
148.8461, 900.7410
149.3282, 902.6399
149.8103, 904.1592
150.2924, 904.8201
150.7745, 906.0364
151.2566, 908.3210
151.7388, 911.1712
152.2209, 913.2130
152.7030, 913.9250
153.1851, 914.2549
153.6672, 914.5192
154.1493, 914.1993
154.6315, 914.5112
155.1136, 915.9487
155.5957, 918.1752
156.0778, 919.9675
156.5599, 921.5108
157.0420, 922.3958
157.5242, 922.4132
158.0063, 918.9679
158.4884, 917.3975
158.9705, 919.0986
159.4526, 923.6995
159.9347, 928.9202
160.4169, 935.1207
160.8990, 941.1970
161.3811, 946.3517
161.8632, 949.1617
162.3453, 952.1624
162.8274, 956.0371
163.3096, 960.7883
163.7917, 966.3793
164.2738, 973.3282
164.7559, 980.9039
165.2380, 988.3870
165.7201, 995.4877
166.2023, 1002.478
166.6844, 1009.529
167.1665, 1016.648
167.6486, 1023.858
168.1307, 1030.848
168.6128, 1038.014
169.0950, 1045.869
169.5771, 1055.120
170.0592, 1064.844
170.5413, 1074.653
171.0234, 1084.638
171.5055, 1093.861
171.9877, 1100.186
172.4698, 1105.374
172.9519, 1112.571
173.4340, 1125.458
173.9161, 1139.999
174.3982, 1151.678
174.8804, 1159.844
175.3625, 1167.762
175.8446, 1178.893
176.3267, 1192.038
176.8088, 1204.155
177.2909, 1212.500
177.7731, 1219.231
178.2552, 1227.910
178.7373, 1239.558
179.2194, 1250.826
179.7015, 1258.669
180.1836, 1263.337
180.6658, 1265.672
181.1479, 1265.591
181.6300, 1263.620
182.1121, 1260.978
182.5942, 1258.048
183.0763, 1253.886
183.5585, 1246.577
184.0406, 1236.449
184.5227, 1226.016
185.0048, 1216.666
185.4869, 1208.209
185.9690, 1199.814
186.4511, 1191.447
186.9333, 1183.074
187.4154, 1174.513
187.8975, 1165.719
188.3796, 1157.272
188.8617, 1148.706
189.3438, 1140.489
189.8260, 1134.869
190.3081, 1132.520
190.7902, 1132.451
191.2723, 1132.563
191.7544, 1132.841
192.2365, 1134.010
192.7187, 1137.306
193.2008, 1142.449
193.6829, 1146.421
194.1650, 1148.154
194.6471, 1148.894
195.1292, 1152.519
195.6114, 1159.294
196.0935, 1166.372
196.5756, 1171.431
197.0577, 1174.486
197.5398, 1176.924
198.0219, 1179.115
198.5041, 1180.803
198.9862, 1180.861
199.4683, 1179.135
199.9504, 1176.435
200.4325, 1173.768
200.9146, 1171.250
201.3968, 1166.727
201.8789, 1159.357
202.3610, 1149.689
202.8431, 1140.278
203.3252, 1131.229
203.8073, 1122.458
204.2895, 1113.792
204.7716, 1105.151
205.2537, 1097.379
205.7358, 1090.699
206.2179, 1085.070
206.7000, 1080.171
207.1822, 1076.156
207.6643, 1072.682
208.1464, 1069.129
208.6285, 1065.105
209.1106, 1062.973
209.5927, 1063.653
210.0749, 1066.885
210.5570, 1069.545
211.0391, 1071.273
211.5212, 1073.020
212.0033, 1076.006
212.4854, 1080.828
212.9676, 1084.717
213.4497, 1087.238
213.9318, 1088.366
214.4139, 1087.611
214.8960, 1084.524
215.3781, 1080.234
215.8603, 1075.799
216.3424, 1071.415
216.8245, 1066.506
217.3066, 1061.379
217.7887, 1055.976
218.2708, 1047.442
218.7530, 1034.181
219.2351, 1019.763
219.7172, 1008.341
220.1993, 1000.890
220.6814, 993.4753
221.1635, 985.0023
221.6457, 975.3681
222.1278, 967.7175
222.6099, 962.4141
223.0920, 958.5290
223.5741, 955.2620
224.0562, 952.5788
224.5384, 950.4378
225.0205, 948.6339
225.5026, 947.1539
225.9847, 947.2623
226.4668, 949.6928
226.9489, 952.9227
227.4311, 955.1946
227.9132, 955.7562
228.3953, 957.0569
228.8774, 959.7679
229.3595, 963.9696
229.8416, 967.8558
230.3238, 971.2665
230.8059, 974.5974
231.2880, 978.1940
231.7701, 981.8771
232.2522, 986.2325
232.7343, 991.5734
233.2165, 997.9952
233.6986, 1003.797
234.1807, 1008.258
234.6628, 1012.819
235.1449, 1018.944
235.6270, 1027.263
236.1092, 1035.734
236.5913, 1044.167
237.0734, 1052.523
237.5555, 1060.296
238.0376, 1066.320
238.5197, 1072.933
239.0019, 1082.550
239.4840, 1097.254
239.9661, 1110.987
240.4482, 1122.181
240.9303, 1130.875
241.4124, 1141.942
241.8946, 1156.355
242.3767, 1172.098
242.8588, 1187.210
243.3409, 1201.243
243.8230, 1215.596
244.3051, 1230.775
244.7873, 1246.738
245.2694, 1262.018
245.7515, 1276.221
246.2336, 1290.178
246.7157, 1304.551
247.1978, 1319.416
247.6800, 1334.682
248.1621, 1350.612
248.6442, 1367.198
249.1263, 1382.047
249.6084, 1394.204
250.0905, 1405.993
250.5726, 1419.029
251.0548, 1433.027
251.5369, 1448.949
252.0190, 1466.595
252.5011, 1486.208
252.9832, 1508.541
253.4653, 1534.556
253.9475, 1562.170
254.4296, 1589.827
254.9117, 1616.955
255.3938, 1645.529
255.8759, 1674.980
256.3581, 1706.007
256.8402, 1741.403
257.3223, 1782.950
257.8044, 1826.393
258.2865, 1869.454
258.7686, 1912.071
259.2508, 1953.308
259.7329, 1993.302
260.2150, 2031.531
260.6971, 2069.717
261.1792, 2109.659
261.6613, 2145.721
262.1435, 2175.330
262.6256, 2199.459
263.1077, 2213.494
263.5898, 2216.550
264.0719, 2209.415
264.5540, 2194.335
265.0362, 2170.729
265.5183, 2140.178
266.0004, 2102.567
266.4825, 2057.294
266.9646, 2007.896
267.4467, 1953.800
267.9289, 1895.990
268.4110, 1839.646
268.8931, 1784.161
269.3752, 1729.247
269.8573, 1674.130
270.3394, 1617.306
270.8216, 1565.081
271.3037, 1517.943
271.7858, 1474.906
272.2679, 1436.105
272.7500, 1402.039
273.2321, 1369.977
273.7143, 1339.010
274.1964, 1309.182
274.6785, 1281.150
275.1606, 1255.084
275.6427, 1230.935
276.1248, 1208.431
276.6070, 1187.397
277.0891, 1168.959
277.5712, 1154.216
278.0533, 1143.214
278.5354, 1131.656
279.0175, 1119.261
279.4996, 1106.947
279.9818, 1096.261
280.4639, 1087.410
280.9460, 1079.025
281.4281, 1070.515
281.9102, 1061.979
282.3923, 1054.565
282.8745, 1048.373
283.3566, 1042.956
283.8387, 1037.902
284.3208, 1033.195
284.8029, 1028.711
285.2850, 1024.304
285.7672, 1020.070
286.2493, 1016.615
286.7314, 1014.074
287.2135, 1011.568
287.6956, 1007.721
288.1777, 1002.693
288.6599, 999.1384
289.1420, 998.2977
289.6241, 999.0125
290.1062, 997.6057
290.5883, 993.9147
291.0704, 990.4634
291.5526, 989.9965
292.0347, 991.8938
292.5168, 992.5112
292.9989, 990.6661
293.4810, 987.6935
293.9631, 985.9655
294.4453, 985.4500
294.9274, 985.7185
295.4095, 987.4488
295.8916, 989.8231
296.3737, 989.8734
296.8558, 986.3552
297.3380, 981.9485
297.8201, 980.8527
298.3022, 982.6230
298.7843, 984.4326
299.2664, 984.3489
299.7485, 983.1114
300.2307, 982.3360
300.7128, 982.2772
301.1949, 982.4398
301.6770, 982.5810
302.1591, 982.5723
302.6412, 981.9445
303.1234, 979.8943
303.6055, 977.3063
304.0876, 975.5142
304.5697, 974.7299
305.0518, 974.0421
305.5339, 972.3854
306.0161, 970.2075
306.4982, 968.4818
306.9803, 967.9066
307.4624, 967.8154
307.9445, 967.6959
308.4266, 967.5222
308.9088, 966.9801
309.3909, 965.3940
309.8730, 963.3695
310.3551, 961.7815
310.8372, 961.3325
311.3193, 961.1278
311.8015, 960.6232
312.2836, 959.8104
312.7657, 958.6869
313.2478, 956.8588
313.7299, 954.8969
314.2120, 953.3678
314.6942, 952.8748
315.1763, 952.3583
315.6584, 951.2401
316.1405, 949.6145
316.6226, 947.9042
317.1047, 945.7026
317.5869, 943.8304
318.0690, 942.9374
318.5511, 943.6101
319.0332, 944.4114
319.5153, 945.1464
319.9974, 945.6288
320.4796, 945.4367
320.9617, 943.7587
321.4438, 941.8995
321.9259, 940.5213
322.4080, 939.8835
322.8901, 939.1712
323.3723, 938.3511
323.8544, 937.3235
324.3365, 935.9401
324.8186, 933.6121
325.3007, 931.4899
325.7828, 929.9990
326.2650, 929.2798
326.7471, 928.5457
327.2292, 927.6906
327.7113, 926.8197
328.1934, 926.0275
328.6755, 925.6444
329.1577, 925.0004
329.6398, 923.9525
330.1219, 922.4927
330.6040, 920.9229
331.0861, 918.5264
331.5682, 916.5468
332.0504, 915.9540
332.5325, 918.9303
333.0146, 919.7018
333.4967, 916.7267
333.9788, 911.0077
334.4609, 907.3834
334.9431, 906.8528
335.4252, 906.9591
335.9073, 906.5984
336.3894, 905.9406
336.8715, 904.2502
337.3536, 900.8936
337.8358, 896.9255
338.3179, 894.6775
338.8000, 894.8165
339.2821, 894.9744
339.7642, 894.1718
340.2463, 892.3188
340.7285, 890.5806
341.2106, 888.8442
341.6927, 887.5051
342.1748, 887.4883
342.6569, 889.0268
343.1390, 889.8171
343.6212, 888.8393
344.1033, 886.4196
344.5854, 884.4855
345.0675, 882.9620
345.5496, 882.3046
346.0317, 883.5972
346.5139, 886.6047
346.9960, 888.5125
347.4781, 888.3301
347.9602, 887.0685
348.4423, 887.0662
348.9244, 888.2925
349.4066, 889.7073
349.8887, 890.6390
350.3708, 891.2135
350.8529, 891.5704
351.3350, 891.5371
351.8171, 891.9189
352.2993, 894.2646
352.7814, 898.0909
353.2635, 901.5943
353.7456, 903.6257
354.2277, 904.8557
354.7098, 906.1994
355.1920, 907.7042
355.6741, 909.2828
356.1562, 910.2257
356.6383, 911.2151
357.1204, 913.4821
357.6025, 918.7891
358.0847, 924.6483
358.5668, 929.2487
359.0489, 932.6349
359.5310, 935.1927
360.0131, 936.4422
360.4952, 937.2958
360.9774, 938.6506
361.4595, 940.8028
361.9416, 943.4589
362.4237, 946.9767
362.9058, 950.9982
363.3879, 954.3809
363.8701, 955.6983
364.3522, 956.9939
364.8343, 959.4888
365.3164, 963.7886
365.7985, 968.3026
366.2806, 973.0179
366.7628, 977.6913
367.2449, 981.8629
367.7270, 984.5481
368.2091, 987.6494
368.6912, 992.0195
369.1733, 998.0126
369.6555, 1003.252
370.1376, 1006.956
370.6197, 1010.256
371.1018, 1014.155
371.5839, 1019.134
372.0660, 1024.019
372.5482, 1028.255
373.0303, 1032.042
373.5124, 1037.316
373.9945, 1045.229
374.4766, 1053.059
374.9587, 1059.109
375.4409, 1062.475
375.9230, 1066.709
376.4051, 1072.287
376.8872, 1078.637
377.3693, 1084.573
377.8514, 1090.104
378.3336, 1095.404
378.8157, 1100.523
379.2978, 1105.523
379.7799, 1110.114
380.2620, 1114.243
380.7441, 1118.295
381.2263, 1122.828
381.7084, 1127.806
382.1905, 1132.717
382.6726, 1137.330
383.1547, 1141.760
383.6368, 1146.094
384.1190, 1150.350
384.6011, 1154.763
385.0832, 1159.473
385.5653, 1164.454
386.0474, 1169.693
386.5295, 1175.026
387.0117, 1180.843
387.4938, 1188.207
387.9759, 1196.681
388.4580, 1204.781
388.9401, 1211.280
389.4222, 1217.148
389.9044, 1223.360
390.3865, 1230.033
390.8686, 1237.316
391.3507, 1245.692
391.8328, 1254.717
392.3149, 1263.638
392.7971, 1271.877
393.2792, 1280.085
393.7613, 1288.688
394.2434, 1297.690
394.7255, 1306.481
395.2076, 1314.470
395.6898, 1322.365
396.1719, 1330.706
396.6540, 1339.991
397.1361, 1349.117
397.6182, 1357.410
398.1003, 1365.352
398.5825, 1374.042
399.0646, 1385.277
399.5467, 1395.815
400.0288, 1404.402
400.5109, 1410.429
400.9930, 1416.416
401.4752, 1422.944
401.9573, 1429.145
402.4394, 1434.101
402.9215, 1437.224
403.4036, 1440.137
403.8857, 1443.411
404.3678, 1446.874
404.8499, 1448.686
405.3321, 1448.548
405.8142, 1447.399
406.2963, 1445.940
406.7784, 1444.349
407.2605, 1441.411
407.7426, 1436.819
408.2248, 1431.143
408.7069, 1425.584
409.1890, 1420.315
409.6711, 1414.071
410.1532, 1405.973
410.6353, 1396.334
411.1175, 1387.211
411.5996, 1378.830
412.0817, 1369.745
412.5638, 1357.693
413.0459, 1343.643
413.5280, 1330.337
414.0102, 1318.647
414.4923, 1307.917
414.9744, 1297.300
415.4565, 1286.706
415.9386, 1275.944
416.4207, 1264.753
416.9029, 1253.266
417.3850, 1241.348
417.8671, 1228.613
418.3492, 1216.741
418.8313, 1207.243
419.3134, 1199.265
419.7956, 1191.264
420.2777, 1182.416
420.7598, 1173.574
421.2419, 1164.537
421.7240, 1155.426
422.2061, 1147.711
422.6883, 1142.436
423.1704, 1138.309
423.6525, 1134.360
424.1346, 1130.626
424.6167, 1126.792
425.0988, 1122.610
425.5810, 1118.327
426.0631, 1114.564
426.5452, 1112.237
427.0273, 1109.529
427.5094, 1105.482
427.9915, 1099.450
428.4737, 1095.563
428.9558, 1094.652
429.4379, 1095.090
429.9200, 1095.145
430.4021, 1094.336
430.8842, 1094.893
431.3664, 1098.050
431.8485, 1102.681
432.3306, 1103.787
432.8127, 1100.684
433.2948, 1097.245
433.7769, 1096.099
434.2591, 1097.048
434.7412, 1097.021
435.2233, 1095.518
435.7054, 1094.070
436.1875, 1095.318
436.6696, 1098.751
437.1518, 1101.412
437.6339, 1101.922
438.1160, 1101.118
438.5981, 1100.165
439.0802, 1099.087
439.5623, 1098.190
440.0445, 1097.865
440.5266, 1097.812
441.0087, 1097.739
441.4908, 1097.826
441.9729, 1097.331
442.4550, 1095.047
442.9372, 1091.859
443.4193, 1089.488
443.9014, 1089.357
444.3835, 1089.674
444.8656, 1089.603
445.3477, 1089.079
445.8299, 1088.377
446.3120, 1088.098
446.7941, 1087.366
447.2762, 1085.510
447.7583, 1080.877
448.2404, 1076.944
448.7226, 1074.114
449.2047, 1072.197
449.6868, 1070.839
450.1689, 1070.893
450.6510, 1070.358
451.1331, 1068.553
451.6153, 1065.398
452.0974, 1061.206
452.5795, 1055.044
453.0616, 1049.207
453.5437, 1046.353
454.0258, 1046.961
454.5080, 1047.461
454.9901, 1047.285
455.4722, 1046.427
455.9543, 1044.458
456.4364, 1041.319
456.9185, 1038.631
457.4007, 1037.991
457.8828, 1038.630
458.3649, 1037.839
458.8470, 1035.295
459.3291, 1032.288
459.8112, 1029.874
460.2934, 1028.086
460.7755, 1027.033
461.2576, 1027.301
461.7397, 1027.842
462.2218, 1027.825
462.7039, 1027.284
463.1861, 1026.326
463.6682, 1024.372
464.1503, 1022.427
464.6324, 1021.548
465.1145, 1022.475
465.5966, 1022.525
466.0788, 1019.413
466.5609, 1015.315
467.0430, 1013.074
467.5251, 1014.643
468.0072, 1016.618
468.4893, 1018.452
468.9715, 1020.107
469.4536, 1021.289
469.9357, 1021.504
470.4178, 1021.752
470.8999, 1022.612
471.3820, 1024.439
471.8642, 1025.902
472.3463, 1026.810
472.8284, 1027.541
473.3105, 1028.970
473.7926, 1031.371
474.2747, 1032.750
474.7569, 1031.999
475.2390, 1029.835
475.7211, 1029.602
476.2032, 1031.432
476.6853, 1033.186
477.1674, 1033.096
477.6496, 1031.624
478.1317, 1030.209
478.6138, 1029.120
479.0959, 1027.788
479.5780, 1025.863
480.0602, 1023.207
480.5423, 1019.547
481.0244, 1013.711
481.5065, 1007.593
481.9886, 1002.959
482.4707, 999.6162
482.9529, 995.9962
483.4350, 990.8240
483.9171, 985.3553
484.3992, 980.6078
484.8813, 977.0619
485.3634, 973.4678
485.8456, 969.5349
486.3277, 965.4100
486.8098, 961.3359
487.2919, 957.3556
487.7740, 953.3456
488.2561, 949.1014
488.7383, 944.6486
489.2204, 941.3430
489.7025, 939.7610
490.1846, 938.4623
490.6667, 936.4838
491.1488, 933.6122
491.6310, 931.4473
492.1131, 930.4316
492.5952, 929.4531
493.0773, 926.5001
493.5594, 921.5768
494.0415, 916.8424
494.5237, 912.8864
495.0058, 909.6494
495.4879, 906.9490
495.9700, 904.7911
496.4521, 903.0351
496.9342, 901.5449
497.4164, 900.4010
497.8985, 900.1012
498.3806, 901.0195
498.8627, 901.1860
499.3448, 897.8651
499.8269, 893.1075
500.3091, 889.9633
500.7912, 891.4243
501.2733, 892.9131
501.7554, 892.3460
502.2375, 890.0167
502.7196, 887.7706
503.2018, 885.7599
503.6839, 884.1156
504.1660, 882.8791
504.6481, 881.8975
505.1302, 881.7076
505.6123, 882.9405
506.0945, 884.4925
506.5766, 885.0359
507.0587, 884.0404
507.5408, 883.4550
508.0229, 883.7959
508.5050, 884.7108
508.9872, 884.7233
509.4693, 883.6327
509.9514, 883.0742
510.4335, 883.9932
510.9156, 886.2528
511.3977, 889.6552
511.8799, 894.4752
512.3619, 898.1507
512.8441, 896.7695
513.3262, 892.4107
513.8083, 889.9272
514.2904, 891.3038
514.7725, 893.8146
515.2546, 895.0450
515.7368, 895.3875
516.2189, 895.8973
516.7010, 896.9725
517.1831, 898.4150
517.6652, 900.4773
518.1473, 903.2087
518.6295, 904.9441
519.1116, 904.1316
519.5937, 902.8117
520.0758, 902.4431
520.5579, 903.4499
521.0400, 905.0800
521.5222, 907.8234
522.0043, 911.0178
522.4864, 913.5174
522.9685, 915.4022
523.4506, 916.3885
523.9327, 915.9909
524.4149, 914.5360
524.8970, 914.2963
525.3791, 915.3223
525.8612, 917.3779
526.3433, 921.0811
526.8254, 925.9457
527.3076, 928.9340
527.7897, 929.4294
528.2718, 929.4299
528.7539, 931.1956
529.2360, 934.2522
529.7181, 937.5778
530.2003, 941.5418
530.6824, 944.8352
531.1645, 945.8108
531.6466, 945.0154
532.1287, 944.5434
532.6108, 945.1948
533.0930, 946.6030
533.5751, 948.8157
534.0572, 952.0573
534.5393, 954.8254
535.0214, 956.3417
535.5035, 957.5251
535.9857, 959.1204
536.4678, 961.0583
536.9499, 963.6228
537.4320, 967.0599
537.9141, 971.0485
538.3962, 974.8568
538.8784, 978.6955
539.3605, 981.7100
539.8426, 983.0594
540.3247, 983.1879
540.8068, 985.2651
541.2889, 989.4100
541.7711, 994.0576
542.2532, 997.9208
542.7353, 1001.229
543.2174, 1004.750
543.6995, 1008.688
544.1816, 1012.394
544.6638, 1014.556
545.1459, 1016.118
545.6280, 1018.753
546.1101, 1024.385
546.5922, 1030.161
547.0743, 1033.937
547.5565, 1036.326
548.0386, 1039.661
548.5207, 1046.189
549.0028, 1052.565
549.4849, 1056.782
549.9670, 1057.708
550.4492, 1060.688
550.9313, 1067.190
551.4134, 1074.572
551.8955, 1080.924
552.3776, 1085.930
552.8597, 1090.727
553.3419, 1095.560
553.8240, 1100.107
554.3061, 1103.281
554.7882, 1104.949
555.2703, 1107.552
555.7524, 1112.467
556.2346, 1118.730
556.7167, 1123.992
557.1988, 1128.254
557.6809, 1131.537
558.1630, 1133.724
558.6451, 1134.984
559.1273, 1135.145
559.6094, 1133.927
560.0915, 1133.348
560.5736, 1135.593
561.0557, 1138.841
561.5378, 1140.986
562.0200, 1141.318
562.5021, 1140.572
562.9842, 1138.581
563.4663, 1135.630
563.9484, 1132.465
564.4305, 1128.792
564.9127, 1125.398
565.3948, 1122.799
565.8769, 1121.045
566.3590, 1117.917
566.8411, 1113.134
567.3232, 1107.584
567.8054, 1101.678
568.2875, 1095.400
568.7696, 1089.104
569.2517, 1082.794
569.7338, 1076.389
570.2159, 1069.718
570.6981, 1062.857
571.1802, 1055.539
571.6623, 1047.097
572.1444, 1038.937
572.6265, 1032.762
573.1086, 1028.089
573.5908, 1023.318
574.0729, 1017.825
574.5550, 1011.797
575.0371, 1005.086
575.5192, 997.6803
576.0013, 990.6234
576.4835, 983.7059
576.9656, 977.6175
577.4477, 972.7877
577.9298, 970.0437
578.4119, 966.9811
578.8940, 963.4985
579.3762, 959.8289
579.8583, 956.4152
580.3404, 953.3509
580.8225, 949.7495
581.3046, 945.0927
581.7867, 940.0477
582.2689, 936.4316
582.7510, 934.1981
583.2331, 932.7789
583.7152, 933.0283
584.1973, 933.4265
584.6794, 930.7217
585.1616, 925.0014
585.6437, 919.7811
586.1258, 918.0089
586.6079, 917.6392
587.0900, 916.6525
587.5721, 914.3293
588.0543, 912.3052
588.5364, 911.1371
