##NAMES=Polydymite
##RRUFFID=R050609
##IDEAL CHEMISTRY=Ni^2+^Ni^3+^_2_S^2-^_4_
##LOCALITY=Dry Nickel mine, Bindura, South Rhodesia, Rhodesia
##OWNER=RRUFF
##SOURCE=University of Arizona Mineral Museum
##DESCRIPTION=Reddish-bronze tarnished metallic fragment associated with green clinochlore and white actinolite
##STATUS=The identification of this mineral has been confirmed by X-ray diffraction.
##URL=rruff.info/R050609
##MEASURED CHEMISTRY=(Ni_0.85_Fe_0.15_)Ni_2.00_S_4.00_
91.11523, 5.922859
91.59735, 5.637059
92.07947, 5.925324
92.56158, 6.596056
93.04370, 7.044945
93.52582, 6.848142
94.00793, 6.196260
94.49006, 5.408541
94.97218, 4.412686
95.45429, 3.526726
95.93641, 3.361475
96.41853, 3.901355
96.90064, 4.507885
97.38276, 4.800141
97.86488, 4.785248
98.34699, 4.490455
98.82911, 3.802623
99.31123, 2.899620
99.79334, 2.410662
100.2755, 2.407502
100.7576, 2.584786
101.2397, 2.637294
101.7218, 2.494910
102.2039, 2.590510
102.6861, 3.138287
103.1682, 4.133995
103.6503, 4.640872
104.1324, 4.471232
104.6145, 4.025885
105.0966, 3.780922
105.5788, 3.831670
106.0609, 3.925330
106.5430, 4.028439
107.0251, 4.193734
107.5072, 4.181784
107.9893, 3.960230
108.4715, 3.568519
108.9536, 3.066339
109.4357, 1.704696
109.9178, 0.9011582
110.3999, 1.196306
110.8820, 3.715832
111.3642, 5.475736
111.8463, 6.192786
112.3284, 6.060744
112.8105, 5.639945
113.2926, 4.377177
113.7747, 3.256448
114.2569, 2.794567
114.7390, 3.761853
115.2211, 4.591603
115.7032, 4.793534
116.1853, 4.495895
116.6674, 4.350244
117.1496, 4.835078
117.6317, 5.443068
118.1138, 5.751931
118.5959, 5.054200
119.0780, 4.525633
119.5602, 4.879016
120.0423, 6.075821
120.5244, 7.241503
121.0065, 7.834315
121.4886, 8.113758
121.9707, 8.423540
122.4529, 8.906562
122.9350, 9.472843
123.4171, 10.14579
123.8992, 10.95094
124.3813, 11.54094
124.8634, 11.39305
125.3456, 10.79275
125.8277, 10.38707
126.3098, 10.78898
126.7919, 11.50023
127.2740, 11.63523
127.7561, 10.97179
128.2383, 10.34721
128.7204, 10.99502
129.2025, 12.69462
129.6846, 14.28786
130.1667, 14.92720
130.6488, 14.88791
131.1310, 15.10075
131.6131, 15.76753
132.0952, 16.55868
132.5773, 16.80771
133.0594, 16.50551
133.5415, 16.17348
134.0237, 16.09125
134.5058, 16.26473
134.9879, 16.78332
135.4700, 17.74079
135.9521, 19.00653
136.4343, 20.23000
136.9164, 21.41947
137.3985, 22.54760
137.8806, 23.56475
138.3627, 24.45001
138.8448, 25.46444
139.3270, 26.83880
139.8091, 28.46835
140.2912, 29.23974
140.7733, 28.91807
141.2554, 28.16533
141.7375, 27.62635
142.2197, 27.31928
142.7018, 27.17715
143.1839, 27.26845
143.6660, 27.62792
144.1481, 27.64094
144.6302, 27.01013
145.1124, 26.28413
145.5945, 26.13362
146.0766, 26.60890
146.5587, 27.59878
147.0408, 29.24473
147.5230, 31.86370
148.0051, 33.88649
148.4872, 34.90179
148.9693, 35.18542
149.4514, 35.46484
149.9335, 35.80350
150.4157, 36.07891
150.8978, 36.20935
151.3799, 35.95289
151.8620, 36.06650
152.3441, 37.11723
152.8262, 38.48610
153.3084, 38.97604
153.7905, 37.53865
154.2726, 36.06764
154.7547, 35.29274
155.2368, 36.04952
155.7189, 36.20279
156.2011, 34.98770
156.6832, 32.96193
157.1653, 31.53125
157.6474, 31.50250
158.1295, 31.74058
158.6116, 31.66558
159.0938, 30.93218
159.5759, 30.23121
160.0580, 29.62459
160.5401, 29.15534
161.0222, 28.98024
161.5044, 29.50275
161.9865, 30.12892
162.4686, 30.45050
162.9507, 30.15340
163.4328, 29.78298
163.9149, 29.59198
164.3971, 29.53015
164.8792, 29.35522
165.3613, 28.58782
165.8434, 27.81278
166.3255, 27.56981
166.8076, 28.59085
167.2898, 29.69346
167.7719, 30.22604
168.2540, 30.23209
168.7361, 30.06900
169.2182, 29.70052
169.7003, 29.35190
170.1825, 29.29258
170.6646, 29.92238
171.1467, 30.67288
171.6288, 31.12036
172.1109, 31.26634
172.5931, 31.25438
173.0752, 31.26124
173.5573, 31.17008
174.0394, 30.78882
174.5215, 29.63651
175.0036, 28.36146
175.4858, 27.71494
175.9679, 27.70486
176.4500, 27.98558
176.9321, 28.38811
177.4142, 28.86549
177.8963, 29.30315
178.3785, 29.75186
178.8606, 30.10667
179.3427, 30.17575
179.8248, 29.95009
180.3069, 29.55717
180.7890, 28.98996
181.2712, 28.33089
181.7533, 27.85280
182.2354, 27.76551
182.7175, 27.93867
183.1996, 28.07895
183.6818, 28.16187
184.1639, 28.30832
184.6460, 28.77529
185.1281, 29.48617
185.6102, 30.06006
186.0923, 30.30651
186.5745, 30.26856
187.0566, 29.99774
187.5387, 29.43118
188.0208, 28.85955
188.5029, 28.71786
188.9850, 28.97583
189.4672, 29.25495
189.9493, 29.42837
190.4314, 29.48311
190.9135, 29.28839
191.3956, 28.75965
191.8777, 28.18191
192.3599, 28.08547
192.8420, 28.47385
193.3241, 28.76294
193.8062, 28.54729
194.2883, 27.88116
194.7704, 27.40308
195.2526, 27.15348
195.7347, 27.08502
196.2168, 27.12981
196.6989, 27.28976
197.1810, 27.53035
197.6632, 27.90209
198.1453, 28.40700
198.6274, 28.70773
199.1095, 28.75099
199.5916, 28.63286
200.0737, 28.51850
200.5559, 28.39670
201.0380, 28.34512
201.5201, 28.40758
202.0022, 28.58795
202.4843, 28.87973
202.9664, 29.36978
203.4486, 29.88337
203.9307, 29.96958
204.4128, 29.54830
204.8949, 29.02763
205.3770, 28.57306
205.8591, 28.16226
206.3413, 27.98696
206.8234, 28.09538
207.3055, 28.41480
207.7876, 28.81048
208.2697, 29.34065
208.7519, 29.76166
209.2340, 29.91600
209.7161, 29.74852
210.1982, 29.58758
210.6803, 29.44507
211.1624, 29.32258
211.6446, 29.23244
212.1267, 29.19260
212.6088, 29.14389
213.0909, 29.03414
213.5730, 28.82131
214.0551, 28.72396
214.5373, 28.80399
215.0194, 28.98532
215.5015, 28.99842
215.9836, 28.67882
216.4657, 28.52967
216.9478, 28.93680
217.4300, 30.25807
217.9121, 30.93229
218.3942, 30.63504
218.8763, 29.73679
219.3584, 29.34526
219.8405, 29.66598
220.3227, 30.11964
220.8048, 30.42124
221.2869, 30.52304
221.7690, 30.60660
222.2511, 30.64402
222.7333, 30.67608
223.2154, 30.82769
223.6975, 31.14681
224.1796, 31.50831
224.6617, 31.85413
225.1438, 32.17405
225.6260, 32.52634
226.1081, 33.01811
226.5902, 33.51552
227.0723, 33.57748
227.5544, 32.94307
228.0365, 32.28800
228.5187, 31.93755
229.0008, 32.02664
229.4829, 32.07811
229.9650, 32.00645
230.4471, 31.91568
230.9292, 32.12808
231.4114, 32.92551
231.8935, 33.59720
232.3756, 33.78030
232.8577, 33.17492
233.3398, 32.81291
233.8220, 32.83014
234.3041, 33.04562
234.7862, 32.98568
235.2683, 32.42929
235.7504, 31.94045
236.2325, 31.75973
236.7147, 32.00113
237.1968, 32.28202
237.6789, 32.68079
238.1610, 33.09005
238.6431, 33.24862
239.1252, 32.99170
239.6074, 32.74394
240.0895, 32.69785
240.5716, 32.99368
241.0537, 33.07935
241.5358, 32.86535
242.0179, 32.48430
242.5001, 32.19168
242.9822, 32.00956
243.4643, 31.87772
243.9464, 31.76650
244.4285, 31.64917
244.9106, 31.65732
245.3928, 31.90667
245.8749, 32.21102
246.3570, 32.21077
246.8391, 31.67709
247.3212, 31.23235
247.8034, 31.11486
248.2855, 31.43398
248.7676, 31.61086
249.2497, 31.56645
249.7318, 31.43997
250.2139, 31.45718
250.6961, 31.72551
251.1782, 31.94464
251.6603, 32.04052
252.1424, 32.01293
252.6245, 31.82784
253.1066, 31.30620
253.5888, 30.78617
254.0709, 30.75970
254.5530, 31.52331
255.0351, 32.17543
255.5172, 32.44860
255.9993, 32.30614
256.4815, 32.20322
256.9636, 32.17724
257.4457, 32.15154
257.9278, 32.01198
258.4099, 31.65736
258.8921, 31.42108
259.3742, 31.39489
259.8563, 31.58139
260.3384, 31.82583
260.8205, 32.22426
261.3026, 32.54966
261.7848, 32.53928
262.2669, 32.05904
262.7490, 31.60615
263.2311, 31.24412
263.7132, 30.97795
264.1953, 30.97258
264.6775, 31.36624
265.1596, 31.79682
265.6417, 31.91722
266.1238, 31.62287
266.6059, 31.37146
267.0880, 31.20714
267.5702, 31.14300
268.0523, 31.31250
268.5344, 31.80896
269.0165, 32.35262
269.4986, 32.75602
269.9807, 33.02364
270.4629, 33.12267
270.9450, 32.96923
271.4271, 32.66302
271.9092, 32.65561
272.3913, 33.05000
272.8734, 33.45048
273.3556, 33.56560
273.8377, 33.34725
274.3198, 33.15841
274.8019, 32.99642
275.2840, 32.90906
275.7661, 33.09655
276.2483, 33.64081
276.7304, 34.11654
277.2125, 34.19952
277.6946, 33.85360
278.1768, 33.66785
278.6589, 33.69230
279.1410, 33.87404
279.6231, 34.12456
280.1052, 34.45302
280.5873, 34.80702
281.0695, 35.24776
281.5516, 35.77296
282.0337, 35.87477
282.5158, 35.40297
282.9979, 34.80072
283.4800, 34.86426
283.9622, 35.62602
284.4443, 36.35413
284.9264, 36.67990
285.4085, 36.65313
285.8906, 36.73432
286.3727, 36.92390
286.8549, 37.21773
287.3370, 37.62017
287.8191, 38.12933
288.3012, 38.72345
288.7833, 39.49033
289.2654, 40.32820
289.7476, 40.85090
290.2297, 41.03919
290.7118, 41.06664
291.1939, 41.01083
291.6760, 40.90924
292.1581, 41.00342
292.6403, 41.47533
293.1224, 42.12993
293.6045, 42.53369
294.0866, 42.68302
294.5687, 42.69590
295.0508, 42.61027
295.5330, 42.45778
296.0151, 42.34229
296.4972, 42.26765
296.9793, 42.26464
297.4614, 42.39893
297.9435, 42.66261
298.4257, 42.99217
298.9078, 43.49426
299.3899, 44.01751
299.8720, 44.17142
300.3541, 43.77834
300.8362, 43.24049
301.3184, 43.18684
301.8005, 43.47293
302.2826, 43.50753
302.7647, 42.56123
303.2469, 41.26246
303.7290, 40.60898
304.2111, 40.85328
304.6932, 41.23406
305.1753, 40.98909
305.6574, 40.30558
306.1396, 39.63393
306.6217, 39.13498
307.1038, 38.78666
307.5859, 38.61734
308.0680, 38.64468
308.5501, 38.65037
309.0323, 38.42595
309.5144, 38.07721
309.9965, 37.77362
310.4786, 37.82572
310.9607, 37.77378
311.4428, 37.10537
311.9250, 35.84569
312.4071, 34.76859
312.8892, 34.42505
313.3713, 34.48862
313.8534, 34.61942
314.3355, 34.80347
314.8177, 34.93758
315.2998, 35.00475
315.7819, 34.99241
316.2640, 34.83094
316.7461, 34.33360
317.2282, 33.76256
317.7104, 33.31736
318.1925, 33.12487
318.6746, 32.93975
319.1567, 32.64961
319.6388, 32.29865
320.1209, 32.01305
320.6031, 31.80877
321.0852, 31.69696
321.5673, 31.70362
322.0494, 31.90998
322.5315, 32.05246
323.0136, 32.04194
323.4958, 31.94036
323.9779, 31.84811
324.4600, 31.97196
324.9421, 31.93606
325.4242, 31.52472
325.9064, 30.58403
326.3885, 29.91680
326.8706, 29.70799
327.3527, 29.75431
327.8348, 29.83716
328.3170, 29.92928
328.7991, 30.08215
329.2812, 30.36614
329.7633, 30.79054
330.2454, 31.01556
330.7275, 30.93339
331.2097, 30.73562
331.6918, 30.54205
332.1739, 30.25918
332.6560, 30.14380
333.1381, 30.33528
333.6202, 30.73304
334.1024, 30.82167
334.5845, 30.41031
335.0666, 29.97259
335.5487, 29.74766
336.0308, 29.76960
336.5129, 29.91814
336.9951, 30.22123
337.4772, 30.62912
337.9593, 31.06651
338.4414, 31.55399
338.9235, 32.02144
339.4056, 32.51112
339.8878, 33.04756
340.3699, 33.13265
340.8520, 32.57158
341.3341, 31.93188
341.8162, 32.00722
342.2983, 32.85894
342.7805, 33.77417
343.2626, 34.60812
343.7447, 35.33128
344.2268, 35.65340
344.7089, 35.51215
345.1910, 35.35466
345.6732, 35.66033
346.1553, 36.37220
346.6374, 37.00236
347.1195, 37.45417
347.6016, 37.77629
348.0837, 38.07589
348.5659, 38.35258
349.0480, 38.55157
349.5301, 38.63976
350.0122, 38.62327
350.4944, 38.47304
350.9765, 38.14560
351.4586, 37.82609
351.9407, 37.86742
352.4228, 38.14209
352.9049, 38.22612
353.3871, 37.84083
353.8692, 37.03118
354.3513, 37.03451
354.8334, 36.96265
355.3155, 36.81968
355.7976, 36.39250
356.2798, 36.33228
356.7619, 35.91449
357.2440, 35.58279
357.7261, 35.17587
358.2082, 34.69785
358.6903, 33.93561
359.1725, 33.54027
359.6546, 33.43624
360.1367, 33.66763
360.6188, 33.83184
361.1009, 33.82590
361.5830, 33.71510
362.0652, 33.39916
362.5473, 32.99025
363.0294, 32.76472
363.5115, 33.11578
363.9936, 33.44261
364.4757, 33.39312
364.9579, 32.78303
365.4400, 32.27804
365.9221, 32.08728
366.4042, 32.04992
366.8863, 31.96205
367.3684, 31.62942
367.8506, 31.41269
368.3327, 31.49039
368.8148, 31.90655
369.2969, 32.06224
369.7790, 31.67831
370.2611, 31.22826
370.7433, 31.02942
371.2254, 31.07604
371.7075, 31.39771
372.1896, 32.14883
372.6717, 33.19494
373.1538, 33.96903
373.6360, 34.43183
374.1181, 34.68546
374.6002, 34.70787
375.0823, 34.35750
375.5645, 34.30257
376.0466, 34.62617
376.5287, 35.15246
377.0108, 35.36029
377.4929, 35.79679
377.9750, 36.15814
378.4572, 36.44840
378.9393, 36.45441
379.4214, 36.82738
379.9035, 37.05332
380.3856, 37.27320
380.8677, 37.69785
381.3499, 37.74526
381.8320, 38.67706
382.3141, 38.88395
382.7962, 38.83485
383.2783, 39.11237
383.7604, 39.69333
384.2426, 40.21466
384.7247, 40.26462
385.2068, 40.09211
385.6889, 40.35773
386.1710, 41.21787
386.6531, 42.15612
387.1353, 42.61744
387.6174, 42.72032
388.0995, 42.78009
388.5816, 43.05532
389.0637, 43.29556
389.5458, 43.26656
390.0280, 42.96448
390.5101, 42.44125
390.9922, 41.57160
391.4743, 40.56567
391.9564, 39.64272
392.4385, 38.88079
392.9207, 38.21010
393.4028, 37.60206
393.8849, 37.06218
394.3670, 36.60577
394.8491, 36.41298
395.3312, 36.18269
395.8134, 35.69799
396.2955, 34.78164
396.7776, 34.03178
397.2597, 33.69411
397.7418, 33.56687
398.2239, 33.38482
398.7061, 33.22587
399.1882, 32.89841
399.6703, 32.22018
400.1524, 31.16152
400.6346, 30.48353
401.1167, 30.48286
401.5988, 30.61248
402.0809, 30.48500
402.5630, 29.83279
403.0451, 29.46093
403.5273, 29.53968
404.0094, 29.89974
404.4915, 30.08487
404.9736, 30.10698
405.4557, 29.91921
405.9378, 29.40273
406.4200, 28.50296
406.9021, 27.91677
407.3842, 27.68103
407.8663, 27.68446
408.3484, 27.89596
408.8305, 28.32348
409.3127, 28.55785
409.7948, 28.45805
410.2769, 28.10738
410.7590, 27.61275
411.2411, 26.97129
411.7232, 26.54294
412.2054, 26.82942
412.6875, 27.54623
413.1696, 27.85430
413.6517, 27.57192
414.1338, 27.08475
414.6159, 26.82170
415.0981, 26.71560
415.5802, 26.58712
416.0623, 26.20491
416.5444, 25.83777
417.0265, 25.79048
417.5086, 26.06757
417.9908, 26.44390
418.4729, 26.96717
418.9550, 27.43591
419.4371, 27.61510
419.9192, 27.18149
420.4013, 26.76403
420.8835, 26.76424
421.3656, 27.01174
421.8477, 26.99224
422.3298, 26.09498
422.8119, 25.26826
423.2940, 24.98965
423.7762, 25.49981
424.2583, 25.96447
424.7404, 26.44907
425.2225, 26.77459
425.7047, 26.73633
426.1868, 25.82362
426.6689, 25.22803
427.1510, 25.24750
427.6331, 25.81853
428.1152, 26.19600
428.5974, 26.29550
429.0795, 26.33370
429.5616, 26.45785
430.0437, 26.71540
430.5258, 26.84247
431.0079, 26.78765
431.4901, 26.64618
431.9722, 26.62042
432.4543, 26.73201
432.9364, 26.73423
433.4185, 26.45777
433.9006, 25.98972
434.3828, 25.78104
434.8649, 25.85275
435.3470, 25.92601
435.8291, 25.50810
436.3112, 24.85340
436.7933, 24.92789
437.2755, 26.23657
437.7576, 27.66390
438.2397, 27.52121
438.7218, 26.22338
439.2039, 25.15607
439.6860, 25.31436
440.1682, 25.94991
440.6503, 26.37465
441.1324, 26.54887
441.6145, 26.45333
442.0966, 25.66324
442.5787, 24.75982
443.0609, 24.37338
443.5430, 25.30672
444.0251, 26.13764
444.5072, 26.23976
444.9893, 25.80529
445.4714, 25.53560
445.9536, 25.87992
446.4357, 26.17773
446.9178, 26.12303
447.3999, 25.56192
447.8820, 25.00490
448.3641, 24.20418
448.8463, 23.55642
449.3284, 23.54329
449.8105, 24.69506
450.2926, 25.50425
450.7747, 25.61677
451.2569, 25.15679
451.7390, 24.90199
452.2211, 24.91926
452.7032, 24.96531
453.1853, 24.87739
453.6674, 24.64235
454.1496, 24.48298
454.6317, 24.40640
455.1138, 24.40605
455.5959, 24.51636
456.0780, 24.72415
456.5602, 24.86538
457.0423, 24.81980
457.5244, 24.71168
458.0065, 24.88903
458.4886, 25.31483
458.9707, 25.58895
459.4529, 25.22957
459.9350, 24.58503
460.4171, 24.20241
460.8992, 24.20257
461.3813, 24.31960
461.8634, 24.34790
462.3456, 24.35270
462.8277, 24.44314
463.3098, 24.84904
463.7919, 25.18995
464.2740, 25.24150
464.7561, 25.01465
465.2383, 24.75135
465.7204, 24.46725
466.2025, 24.20640
466.6846, 23.98802
467.1667, 23.69952
467.6488, 23.64142
468.1310, 24.01330
468.6131, 24.57208
469.0952, 24.94925
469.5773, 25.15815
470.0594, 25.15296
470.5415, 24.82747
471.0237, 24.20278
471.5058, 23.86673
471.9879, 23.89585
472.4700, 24.04326
472.9521, 24.14228
473.4342, 24.19254
473.9164, 24.22256
474.3985, 24.24330
474.8806, 24.22823
475.3627, 24.07695
475.8448, 23.81053
476.3270, 23.64954
476.8091, 23.75927
477.2912, 24.00952
477.7733, 24.17671
478.2554, 24.25967
478.7375, 24.23931
479.2197, 23.91370
479.7018, 23.53946
480.1839, 23.52526
480.6660, 24.07994
481.1481, 24.63478
481.6302, 24.80541
482.1124, 24.72607
482.5945, 24.62386
483.0766, 24.60404
483.5587, 24.55850
484.0408, 24.40927
484.5229, 24.16087
485.0051, 23.97783
485.4872, 24.03126
485.9693, 24.05795
486.4514, 23.87293
486.9335, 23.04486
487.4156, 22.77209
487.8978, 23.42752
488.3799, 24.43930
488.8620, 24.87324
489.3441, 24.45139
489.8262, 24.16953
490.3083, 24.42817
490.7905, 25.08250
491.2726, 24.90466
491.7547, 23.72052
492.2368, 22.55490
492.7189, 22.34324
493.2010, 22.91939
493.6832, 23.09888
494.1653, 22.69540
494.6474, 22.19517
495.1295, 22.20974
495.6116, 22.63491
496.0938, 23.15219
496.5759, 23.76493
497.0580, 24.30581
497.5401, 24.65983
498.0222, 24.80566
498.5044, 24.61730
498.9865, 23.53702
499.4686, 22.39845
499.9507, 21.93388
500.4328, 22.42040
500.9149, 22.91407
501.3971, 23.01010
501.8792, 22.97935
502.3613, 23.13515
502.8434, 24.00064
503.3255, 24.52053
503.8076, 24.32490
504.2898, 23.59260
504.7719, 23.14810
505.2540, 23.10772
505.7361, 23.18604
506.2182, 23.30692
506.7003, 23.50315
507.1825, 23.47902
507.6646, 23.14395
508.1467, 22.78255
508.6288, 22.80975
509.1109, 23.22335
509.5930, 23.30035
510.0752, 22.72341
510.5573, 21.99278
511.0394, 22.22357
511.5215, 23.26796
512.0037, 24.19244
512.4858, 24.41013
512.9679, 24.22763
513.4500, 24.00841
513.9321, 23.76901
514.4142, 23.60816
514.8964, 23.70687
515.3785, 23.87023
515.8606, 23.86723
516.3427, 23.48808
516.8248, 23.21163
517.3069, 23.39812
517.7891, 23.79229
518.2712, 23.92135
518.7533, 23.34555
519.2354, 22.83235
519.7175, 22.56888
520.1996, 22.54978
520.6818, 22.78584
521.1639, 23.62133
521.6460, 24.28854
522.1281, 24.19347
522.6102, 22.95179
523.0923, 22.53018
523.5745, 23.23504
524.0566, 24.32946
524.5387, 24.73158
525.0208, 24.44521
525.5029, 24.07087
525.9850, 23.70106
526.4672, 23.42361
526.9493, 23.54620
527.4314, 24.01616
527.9135, 24.35792
528.3956, 24.15590
528.8777, 23.70394
529.3599, 23.40067
529.8420, 23.28282
530.3241, 23.21595
530.8062, 23.08520
531.2883, 22.96435
531.7704, 22.94250
532.2526, 23.15039
532.7347, 23.31847
533.2168, 23.30002
533.6989, 23.18400
534.1810, 23.17828
534.6631, 23.61142
535.1453, 23.84612
535.6274, 23.64875
536.1095, 23.00281
536.5916, 22.45385
537.0737, 21.92451
537.5558, 21.60363
538.0380, 21.69106
538.5201, 22.26966
539.0022, 22.69818
539.4843, 22.93037
539.9664, 23.01685
540.4485, 22.91816
540.9307, 22.67544
541.4128, 22.66335
541.8949, 23.16381
542.3770, 23.80529
542.8591, 23.91964
543.3412, 23.59212
543.8234, 23.28530
544.3055, 23.33435
544.7876, 23.50748
545.2697, 23.60999
545.7518, 23.62553
546.2339, 23.53262
546.7161, 23.17687
547.1982, 22.78518
547.6803, 22.55090
548.1624, 22.56936
548.6445, 22.68212
549.1266, 22.99500
549.6088, 23.37122
550.0909, 23.53127
550.5730, 23.37708
551.0551, 23.15155
551.5372, 22.82507
552.0193, 22.44130
552.5015, 22.55536
552.9836, 23.31602
553.4657, 24.05095
553.9478, 24.27694
554.4299, 24.03794
554.9120, 23.79005
555.3942, 23.56638
555.8763, 23.30132
556.3584, 22.79034
556.8405, 22.17665
557.3226, 21.84753
557.8047, 22.04220
558.2869, 22.37904
558.7690, 22.50673
559.2511, 22.49560
559.7332, 22.52176
560.2154, 22.86621
560.6975, 23.09541
561.1796, 22.82203
561.6617, 22.01710
562.1439, 21.61227
562.6260, 22.18092
563.1081, 22.91421
563.5902, 23.34420
564.0723, 23.31383
564.5544, 23.30766
565.0366, 23.31753
565.5187, 23.35933
566.0008, 23.48092
566.4829, 23.71397
566.9650, 23.84458
567.4471, 23.79425
567.9293, 23.64420
568.4114, 23.65495
568.8935, 23.80704
569.3756, 23.82577
569.8577, 23.42938
570.3398, 22.83813
570.8220, 22.46438
571.3041, 22.30425
571.7862, 22.18224
572.2683, 21.82296
572.7504, 21.51678
573.2325, 21.61778
573.7147, 22.40497
574.1968, 23.03840
574.6789, 23.06965
575.1610, 22.81688
575.6431, 22.69105
576.1252, 22.82547
576.6074, 23.01195
577.0895, 23.29217
577.5716, 23.60820
578.0537, 23.75696
578.5358, 23.76063
579.0179, 23.53279
579.5001, 22.90150
579.9822, 21.91364
580.4643, 21.46505
580.9464, 21.60044
581.4285, 21.96416
581.9106, 22.38752
582.3928, 22.80580
582.8749, 22.94040
583.3570, 22.69398
583.8391, 22.46720
584.3212, 22.77462
584.8033, 23.35118
585.2855, 23.74824
585.7676, 23.81006
