##NAMES=Portlandite
##RRUFFID=R070210
##IDEAL CHEMISTRY=Ca(OH)_2_
##LOCALITY=N'Chwaning II mine, Kalahari Manganese Field, northern Cape Province, South Africa
##OWNER=RRUFF
##SOURCE=Michael Scott
##DESCRIPTION=White flexible platy crystals associated with calcite
##STATUS=The identification of this mineral has been confirmed by X-ray diffraction and chemical analysis
##URL=rruff.info/R070210
##MEASURED CHEMISTRY=Ca_1.00_(OH)_2_
160.2684, 7005.357
160.7505, 7032.885
161.2326, 7058.283
161.7148, 7083.725
162.1969, 7107.737
162.6790, 7133.309
163.1611, 7162.993
163.6432, 7206.386
164.1253, 7247.440
164.6075, 7274.684
165.0896, 7287.601
165.5717, 7302.636
166.0538, 7330.554
166.5359, 7366.132
167.0180, 7401.890
167.5002, 7435.204
167.9823, 7467.533
168.4644, 7498.427
168.9465, 7527.048
169.4286, 7559.843
169.9107, 7610.770
170.3929, 7669.568
170.8750, 7715.950
171.3571, 7729.936
171.8392, 7729.850
172.3213, 7734.206
172.8034, 7745.159
173.2856, 7760.899
173.7677, 7780.929
174.2498, 7804.793
174.7319, 7830.506
175.2140, 7859.168
175.6961, 7888.424
176.1783, 7914.302
176.6604, 7935.036
177.1425, 7953.535
177.6246, 7974.872
178.1067, 7997.958
178.5888, 8017.133
179.0710, 8022.822
179.5531, 8021.307
180.0352, 8027.338
180.5173, 8048.338
180.9994, 8074.433
181.4815, 8087.943
181.9637, 8089.310
182.4458, 8088.641
182.9279, 8094.068
183.4100, 8104.572
183.8921, 8115.634
184.3742, 8121.016
184.8564, 8128.315
185.3385, 8160.271
185.8206, 8218.955
186.3027, 8280.451
186.7848, 8322.840
187.2669, 8347.135
187.7491, 8362.794
188.2312, 8371.259
188.7133, 8373.559
189.1954, 8369.140
189.6775, 8355.117
190.1596, 8347.606
190.6418, 8375.769
191.1239, 8438.364
191.6060, 8489.767
192.0881, 8506.463
192.5702, 8492.541
193.0524, 8480.637
193.5345, 8468.177
194.0166, 8464.347
194.4987, 8490.347
194.9808, 8548.439
195.4629, 8602.391
195.9451, 8633.494
196.4272, 8642.565
196.9093, 8648.267
197.3914, 8649.672
197.8735, 8650.088
198.3556, 8654.997
198.8378, 8664.246
199.3199, 8678.639
199.8020, 8702.277
200.2841, 8736.225
200.7662, 8760.437
201.2483, 8773.028
201.7305, 8775.935
202.2126, 8768.967
202.6947, 8746.906
203.1768, 8734.469
203.6589, 8752.640
204.1410, 8807.291
204.6232, 8848.821
205.1053, 8869.436
205.5874, 8875.629
206.0695, 8890.162
206.5516, 8916.649
207.0337, 8941.986
207.5159, 8955.879
207.9980, 8955.164
208.4801, 8956.430
208.9622, 8960.276
209.4443, 8967.660
209.9264, 8985.821
210.4086, 9020.727
210.8907, 9054.517
211.3728, 9072.205
211.8549, 9069.882
212.3370, 9064.059
212.8191, 9051.503
213.3013, 9035.482
213.7834, 9047.177
214.2655, 9100.444
214.7476, 9159.308
215.2297, 9190.985
215.7118, 9186.743
216.1940, 9179.746
216.6761, 9173.213
217.1582, 9167.488
217.6403, 9173.294
218.1224, 9196.751
218.6045, 9223.464
219.0867, 9239.028
219.5688, 9238.820
220.0509, 9237.697
220.5330, 9236.300
221.0151, 9234.354
221.4972, 9245.745
221.9794, 9279.279
222.4615, 9316.432
222.9436, 9335.445
223.4257, 9323.447
223.9078, 9320.578
224.3899, 9340.949
224.8721, 9388.133
225.3542, 9412.677
225.8363, 9399.727
226.3184, 9378.419
226.8005, 9386.594
227.2827, 9445.236
227.7648, 9493.003
228.2469, 9511.535
228.7290, 9496.148
229.2111, 9486.649
229.6932, 9479.906
230.1754, 9481.671
230.6575, 9502.625
231.1396, 9558.334
231.6217, 9605.409
232.1038, 9631.108
232.5859, 9632.109
233.0681, 9627.995
233.5502, 9611.127
234.0323, 9594.607
234.5144, 9599.541
234.9965, 9640.384
235.4786, 9678.259
235.9608, 9700.976
236.4429, 9705.018
236.9250, 9707.470
237.4071, 9699.027
237.8892, 9694.850
238.3713, 9723.247
238.8535, 9810.434
239.3356, 9886.235
239.8177, 9925.718
240.2998, 9918.274
240.7819, 9915.021
241.2640, 9916.440
241.7462, 9921.708
242.2283, 9928.302
242.7104, 9930.529
243.1925, 9943.646
243.6746, 9976.013
244.1567, 10037.17
244.6389, 10083.98
245.1210, 10106.10
245.6031, 10119.92
246.0852, 10155.78
246.5673, 10225.85
247.0494, 10297.17
247.5316, 10356.61
248.0137, 10397.38
248.4958, 10449.75
248.9779, 10516.56
249.4600, 10593.17
249.9421, 10668.52
250.4243, 10738.27
250.9064, 10815.47
251.3885, 10908.09
251.8706, 11025.70
252.3527, 11130.23
252.8348, 11229.69
253.3170, 11311.13
253.7991, 11349.13
254.2812, 11340.05
254.7633, 11293.70
255.2454, 11205.42
255.7275, 11060.37
256.2097, 10930.60
256.6918, 10816.82
257.1739, 10719.27
257.6560, 10637.95
258.1381, 10574.90
258.6202, 10523.75
259.1024, 10483.07
259.5845, 10455.60
260.0666, 10428.45
260.5487, 10399.39
261.0308, 10372.44
261.5129, 10353.02
261.9951, 10339.98
262.4772, 10337.72
262.9593, 10351.76
263.4414, 10388.25
263.9235, 10412.66
264.4056, 10424.83
264.8878, 10425.25
265.3699, 10409.34
265.8520, 10365.68
266.3341, 10338.11
266.8162, 10351.18
267.2983, 10414.83
267.7805, 10453.29
268.2626, 10459.90
268.7447, 10448.27
269.2268, 10439.70
269.7089, 10433.55
270.1910, 10432.88
270.6732, 10441.88
271.1553, 10462.45
271.6374, 10471.25
272.1195, 10463.00
272.6016, 10450.74
273.0837, 10459.58
273.5659, 10494.86
274.0480, 10523.90
274.5301, 10528.89
275.0122, 10508.39
275.4943, 10507.00
275.9764, 10529.01
276.4586, 10562.02
276.9407, 10589.65
277.4228, 10611.65
277.9049, 10627.75
278.3870, 10634.48
278.8691, 10632.53
279.3513, 10640.42
279.8334, 10661.68
280.3155, 10683.74
280.7976, 10683.08
281.2798, 10658.16
281.7619, 10647.31
282.2440, 10676.83
282.7261, 10738.18
283.2082, 10759.54
283.6903, 10732.84
284.1725, 10695.76
284.6546, 10700.33
285.1367, 10744.73
285.6188, 10781.33
286.1009, 10784.77
286.5830, 10765.95
287.0652, 10776.95
287.5473, 10821.84
288.0294, 10871.58
288.5115, 10894.02
288.9936, 10891.48
289.4757, 10881.93
289.9579, 10863.49
290.4400, 10844.27
290.9221, 10850.32
291.4042, 10883.16
291.8863, 10922.37
292.3684, 10948.91
292.8506, 10964.57
293.3327, 10977.68
293.8148, 10991.69
294.2969, 11004.42
294.7790, 11010.85
295.2611, 11010.96
295.7433, 11009.69
296.2254, 11011.56
296.7075, 11015.49
297.1896, 11018.09
297.6717, 11016.31
298.1538, 11014.55
298.6360, 11021.15
299.1181, 11035.46
299.6002, 11049.23
300.0823, 11053.32
300.5644, 11052.79
301.0465, 11056.60
301.5287, 11064.99
302.0108, 11081.30
302.4929, 11117.83
302.9750, 11170.33
303.4571, 11212.37
303.9392, 11214.87
304.4214, 11199.87
304.9035, 11198.39
305.3856, 11224.31
305.8677, 11255.14
306.3498, 11273.08
306.8319, 11279.70
307.3141, 11280.80
307.7962, 11271.53
308.2783, 11262.17
308.7604, 11264.72
309.2425, 11287.53
309.7246, 11309.41
310.2068, 11311.50
310.6889, 11301.46
311.1710, 11299.12
311.6531, 11323.67
312.1352, 11353.75
312.6173, 11371.73
313.0995, 11369.55
313.5816, 11370.09
314.0637, 11387.78
314.5458, 11415.45
315.0279, 11439.76
315.5100, 11456.17
315.9922, 11467.42
316.4743, 11472.88
316.9564, 11469.89
317.4385, 11471.81
317.9206, 11488.36
318.4027, 11511.23
318.8849, 11528.81
319.3670, 11533.60
319.8491, 11536.43
320.3312, 11540.63
320.8133, 11546.33
321.2954, 11554.27
321.7776, 11565.70
322.2597, 11579.05
322.7418, 11592.61
323.2239, 11604.06
323.7060, 11617.77
324.1881, 11634.86
324.6703, 11655.47
325.1524, 11678.10
325.6345, 11709.38
326.1166, 11738.81
326.5987, 11758.11
327.0808, 11750.44
327.5630, 11752.50
328.0451, 11774.53
328.5272, 11815.10
329.0093, 11842.12
329.4914, 11838.46
329.9735, 11836.16
330.4557, 11858.72
330.9378, 11936.11
331.4199, 11985.06
331.9020, 11987.86
332.3841, 11955.56
332.8662, 11941.45
333.3484, 11947.93
333.8305, 11969.18
334.3126, 12006.46
334.7947, 12069.61
335.2768, 12114.79
335.7589, 12129.21
336.2411, 12130.26
336.7232, 12165.51
337.2053, 12244.08
337.6874, 12329.48
338.1695, 12408.17
338.6516, 12480.00
339.1338, 12536.11
339.6159, 12566.49
340.0980, 12596.05
340.5801, 12673.21
341.0622, 12804.52
341.5443, 12932.26
342.0265, 13033.04
342.5086, 13108.96
342.9907, 13183.04
343.4728, 13250.88
343.9549, 13331.80
344.4370, 13453.46
344.9192, 13612.11
345.4013, 13779.48
345.8834, 13941.34
346.3655, 14104.01
346.8476, 14271.62
347.3297, 14442.70
347.8119, 14638.19
348.2940, 14881.60
348.7761, 15165.32
349.2582, 15461.36
349.7403, 15773.49
350.2225, 16089.89
350.7046, 16381.97
351.1867, 16657.71
351.6688, 16958.63
352.1509, 17328.20
352.6331, 17739.33
353.1152, 18157.57
353.5973, 18591.05
354.0794, 19000.03
354.5615, 19356.83
355.0436, 19661.62
355.5258, 19914.90
356.0079, 20142.37
356.4900, 20304.33
356.9721, 20364.12
357.4542, 20310.03
357.9363, 20174.39
358.4185, 19959.77
358.9006, 19677.49
359.3827, 19347.13
359.8648, 18944.11
360.3469, 18520.53
360.8290, 18096.85
361.3112, 17671.04
361.7933, 17263.46
362.2754, 16873.41
362.7575, 16504.07
363.2396, 16157.42
363.7217, 15836.00
364.2039, 15540.01
364.6860, 15267.46
365.1681, 15017.31
365.6502, 14802.05
366.1323, 14640.50
366.6144, 14501.78
367.0966, 14364.20
367.5787, 14215.29
368.0608, 14083.69
368.5429, 13974.57
369.0250, 13884.89
369.5071, 13802.23
369.9893, 13732.12
370.4714, 13662.96
370.9535, 13586.00
371.4356, 13485.36
371.9177, 13417.04
372.3998, 13395.82
372.8820, 13400.05
373.3641, 13380.24
373.8462, 13327.02
374.3283, 13274.25
374.8104, 13235.41
375.2925, 13210.95
375.7747, 13193.03
376.2568, 13184.38
376.7389, 13176.58
377.2210, 13156.56
377.7031, 13123.35
378.1852, 13091.78
378.6674, 13063.41
379.1495, 13040.38
379.6316, 13035.25
380.1137, 13049.99
380.5958, 13065.10
381.0779, 13061.67
381.5601, 13042.36
382.0422, 13019.53
382.5243, 12991.66
383.0064, 12966.57
383.4885, 12959.26
383.9706, 12968.05
384.4528, 12980.94
384.9349, 12996.42
385.4170, 13009.08
385.8991, 13006.58
386.3812, 12981.59
386.8633, 12959.34
387.3455, 12971.84
387.8276, 13005.47
388.3097, 13029.30
388.7918, 13015.04
389.2739, 12992.58
389.7560, 12985.76
390.2382, 12997.20
390.7203, 13014.91
391.2024, 13042.37
391.6845, 13069.12
392.1666, 13083.40
392.6487, 13068.14
393.1309, 13051.76
393.6130, 13048.02
394.0951, 13055.58
394.5772, 13057.15
395.0593, 13038.17
395.5414, 13018.25
396.0236, 13009.85
396.5057, 13016.67
396.9878, 13032.75
397.4699, 13066.89
397.9520, 13111.19
398.4341, 13140.77
398.9163, 13152.15
399.3984, 13152.21
399.8805, 13140.58
400.3626, 13109.00
400.8447, 13089.66
401.3268, 13080.89
401.8090, 13085.63
402.2911, 13113.36
402.7732, 13178.63
403.2553, 13227.37
403.7374, 13238.99
404.2195, 13216.32
404.7017, 13213.67
405.1838, 13237.22
405.6659, 13264.15
406.1480, 13273.64
406.6301, 13265.59
407.1122, 13250.43
407.5944, 13222.69
408.0765, 13196.53
408.5586, 13215.32
409.0407, 13278.19
409.5228, 13337.98
410.0049, 13361.70
410.4871, 13357.79
410.9692, 13347.56
411.4513, 13331.39
411.9334, 13316.00
412.4155, 13302.55
412.8976, 13294.99
413.3798, 13304.52
413.8619, 13359.45
414.3440, 13420.58
414.8261, 13441.90
415.3082, 13422.68
415.7903, 13401.84
416.2725, 13406.70
416.7546, 13423.30
417.2367, 13436.00
417.7188, 13436.92
418.2009, 13435.92
418.6830, 13438.27
419.1652, 13442.58
419.6473, 13443.71
420.1294, 13428.75
420.6115, 13418.36
421.0937, 13425.38
421.5758, 13461.32
422.0579, 13493.22
422.5400, 13517.68
423.0221, 13535.45
423.5042, 13547.99
423.9864, 13542.33
424.4685, 13546.21
424.9506, 13573.20
425.4327, 13626.70
425.9148, 13652.40
426.3969, 13633.70
426.8791, 13606.10
427.3612, 13602.44
427.8433, 13632.83
428.3254, 13655.18
428.8075, 13662.15
429.2896, 13657.65
429.7718, 13654.94
430.2539, 13654.65
430.7360, 13652.81
431.2181, 13642.77
431.7002, 13625.94
432.1823, 13622.85
432.6645, 13634.67
433.1466, 13659.84
433.6287, 13712.14
434.1108, 13782.29
434.5929, 13822.20
435.0750, 13784.00
435.5572, 13714.88
436.0393, 13702.49
436.5214, 13744.65
437.0035, 13795.60
437.4856, 13813.72
437.9677, 13819.70
438.4499, 13845.04
438.9320, 13912.19
439.4141, 13975.92
439.8962, 14005.02
440.3783, 14005.54
440.8604, 13993.92
441.3426, 13964.18
441.8247, 13934.42
442.3068, 13913.88
442.7889, 13903.52
443.2710, 13902.84
443.7531, 13926.57
444.2353, 13954.11
444.7174, 13963.10
445.1995, 13919.79
445.6816, 13891.06
446.1637, 13892.79
446.6458, 13922.09
447.1280, 13950.15
447.6101, 13979.38
448.0922, 14004.79
448.5743, 14022.63
449.0564, 14029.30
449.5385, 14039.55
450.0207, 14058.06
450.5028, 14076.41
450.9849, 14073.07
451.4670, 14041.46
451.9491, 14022.16
452.4312, 14038.08
452.9134, 14082.78
453.3955, 14102.33
453.8776, 14093.54
454.3597, 14081.95
454.8418, 14099.31
455.3239, 14137.15
455.8061, 14157.62
456.2882, 14145.80
456.7703, 14123.18
457.2524, 14115.65
457.7345, 14122.62
458.2166, 14141.90
458.6988, 14182.55
459.1809, 14229.57
459.6630, 14268.42
460.1451, 14298.60
460.6272, 14315.89
461.1093, 14304.75
461.5915, 14283.08
462.0736, 14273.34
462.5557, 14291.10
463.0378, 14314.04
463.5199, 14337.12
464.0020, 14359.46
464.4842, 14376.63
464.9663, 14388.31
465.4484, 14393.92
465.9305, 14392.48
466.4126, 14376.23
466.8947, 14366.44
467.3769, 14362.72
467.8590, 14365.57
468.3411, 14376.87
468.8232, 14400.84
469.3053, 14425.16
469.7874, 14448.81
470.2696, 14471.28
470.7517, 14482.19
471.2338, 14479.59
471.7159, 14471.44
472.1980, 14460.83
472.6801, 14448.03
473.1623, 14447.06
473.6444, 14462.42
474.1265, 14485.37
474.6086, 14500.06
475.0907, 14508.02
475.5728, 14519.26
476.0550, 14546.69
476.5371, 14578.20
477.0192, 14593.17
477.5013, 14590.91
477.9834, 14581.12
478.4655, 14557.16
478.9477, 14534.50
479.4298, 14534.72
479.9119, 14581.95
480.3940, 14631.03
480.8761, 14658.97
481.3582, 14670.16
481.8404, 14676.79
482.3225, 14682.60
482.8046, 14684.89
483.2867, 14679.52
483.7688, 14660.06
484.2509, 14654.17
484.7331, 14673.29
485.2152, 14702.38
485.6973, 14729.00
486.1794, 14758.73
486.6615, 14775.67
487.1436, 14772.48
487.6258, 14754.65
488.1079, 14747.94
488.5900, 14753.78
489.0721, 14767.08
489.5542, 14786.11
490.0363, 14810.96
490.5185, 14840.67
491.0006, 14877.98
491.4827, 14910.09
491.9648, 14916.18
492.4470, 14900.21
492.9291, 14881.77
493.4112, 14857.47
493.8933, 14843.39
494.3754, 14879.77
494.8575, 14958.09
495.3397, 15022.60
495.8218, 15030.31
496.3039, 15008.75
496.7860, 14983.86
497.2681, 14955.49
497.7502, 14938.89
498.2324, 14945.63
498.7145, 14967.85
499.1966, 14994.98
499.6787, 15037.76
500.1608, 15070.88
500.6429, 15084.03
501.1251, 15078.13
501.6072, 15070.36
502.0893, 15057.04
502.5714, 15046.35
503.0535, 15041.42
503.5356, 15040.10
504.0178, 15050.58
504.4999, 15077.74
504.9820, 15112.23
505.4641, 15140.67
505.9462, 15162.29
506.4283, 15182.11
506.9105, 15204.04
507.3926, 15224.53
507.8747, 15225.66
508.3568, 15206.44
508.8389, 15186.05
509.3210, 15172.10
509.8032, 15167.82
510.2853, 15189.13
510.7674, 15245.27
511.2495, 15295.82
511.7316, 15287.23
512.2137, 15243.01
512.6959, 15211.18
513.1780, 15213.67
513.6601, 15233.41
514.1422, 15268.14
514.6243, 15314.46
515.1064, 15350.80
515.5886, 15369.20
516.0707, 15374.70
516.5528, 15367.08
517.0349, 15330.57
517.5170, 15313.89
517.9991, 15336.04
518.4813, 15375.01
518.9634, 15403.66
519.4455, 15418.15
519.9276, 15428.84
520.4097, 15437.75
520.8918, 15444.49
521.3740, 15444.05
521.8561, 15431.53
522.3382, 15428.05
522.8203, 15456.91
523.3024, 15514.79
523.7845, 15543.87
524.2667, 15536.03
524.7488, 15518.64
525.2309, 15527.76
525.7130, 15556.26
526.1951, 15579.05
526.6772, 15585.32
527.1594, 15583.92
527.6415, 15583.04
528.1236, 15582.85
528.6057, 15583.95
529.0878, 15583.79
529.5699, 15586.97
530.0521, 15600.43
530.5342, 15629.82
531.0163, 15648.08
531.4984, 15627.36
531.9805, 15599.50
532.4626, 15598.24
532.9448, 15664.72
533.4269, 15714.08
533.9090, 15733.83
534.3911, 15729.26
534.8732, 15716.93
535.3553, 15684.34
535.8375, 15667.64
536.3196, 15690.15
536.8017, 15755.12
537.2838, 15792.58
537.7659, 15797.32
538.2480, 15792.91
538.7302, 15808.13
539.2123, 15839.19
539.6944, 15857.97
540.1765, 15855.15
540.6586, 15843.41
541.1407, 15835.58
541.6229, 15832.90
542.1050, 15839.47
542.5871, 15867.63
543.0692, 15899.43
543.5513, 15917.22
544.0334, 15920.02
544.5156, 15922.14
544.9977, 15927.54
545.4798, 15936.57
545.9619, 15949.73
546.4440, 15971.15
546.9261, 15990.67
547.4083, 16004.23
547.8904, 16015.66
548.3725, 16031.83
548.8546, 16056.48
549.3367, 16080.64
549.8188, 16107.20
550.3010, 16133.92
550.7831, 16127.36
551.2652, 16076.23
551.7473, 16029.36
552.2294, 16028.61
552.7115, 16068.64
553.1937, 16095.91
553.6758, 16104.57
554.1579, 16107.14
554.6400, 16113.82
555.1221, 16126.54
555.6042, 16151.57
556.0864, 16205.18
556.5685, 16258.17
557.0506, 16276.26
557.5327, 16267.91
558.0148, 16264.14
558.4969, 16292.13
558.9791, 16320.32
559.4612, 16322.37
559.9433, 16285.93
560.4254, 16274.08
560.9075, 16326.74
561.3896, 16392.89
561.8718, 16427.53
562.3539, 16407.86
562.8360, 16395.00
563.3181, 16393.43
563.8002, 16401.39
564.2823, 16415.78
564.7645, 16437.29
565.2466, 16462.08
565.7287, 16493.32
566.2108, 16526.85
566.6929, 16537.60
567.1750, 16524.63
567.6572, 16507.93
568.1393, 16493.05
568.6214, 16488.46
569.1035, 16518.81
569.5856, 16597.01
570.0677, 16673.87
570.5499, 16716.42
571.0320, 16729.74
571.5141, 16722.44
571.9962, 16671.29
572.4783, 16626.38
572.9604, 16604.15
573.4426, 16604.42
573.9247, 16624.32
574.4068, 16696.17
574.8889, 16757.27
575.3710, 16776.57
575.8531, 16739.76
576.3353, 16738.35
576.8174, 16789.38
577.2995, 16850.52
577.7816, 16881.73
578.2637, 16880.61
578.7458, 16871.44
579.2280, 16854.78
579.7101, 16837.00
580.1922, 16825.88
580.6743, 16822.41
581.1564, 16832.09
581.6385, 16869.87
582.1207, 16915.67
582.6028, 16940.42
583.0849, 16946.36
583.5670, 16952.90
584.0491, 16974.17
584.5313, 16998.82
585.0134, 17017.68
585.4955, 17027.44
585.9776, 17037.55
586.4597, 17050.69
586.9418, 17065.24
587.4240, 17079.05
587.9061, 17088.76
588.3882, 17103.55
588.8703, 17129.19
589.3524, 17159.25
589.8345, 17172.66
590.3167, 17164.92
590.7988, 17158.27
591.2809, 17168.28
591.7630, 17188.28
592.2451, 17172.57
592.7272, 17119.21
593.2094, 17077.39
593.6915, 17096.05
594.1736, 17153.75
594.6557, 17213.17
595.1378, 17269.33
595.6199, 17317.58
596.1021, 17352.57
596.5842, 17377.56
597.0663, 17397.29
597.5485, 17416.11
598.0306, 17426.68
598.5127, 17421.67
598.9948, 17405.06
599.4769, 17393.86
599.9590, 17385.66
600.4412, 17387.04
600.9233, 17403.61
601.4054, 17437.09
601.8875, 17457.45
602.3696, 17458.91
602.8517, 17461.12
603.3339, 17484.69
603.8160, 17527.55
604.2981, 17559.00
604.7802, 17573.57
605.2623, 17582.53
605.7444, 17598.60
606.2266, 17620.56
606.7087, 17644.51
607.1908, 17673.88
607.6729, 17700.17
608.1550, 17712.13
608.6371, 17714.71
609.1193, 17724.54
609.6014, 17749.48
610.0835, 17782.21
610.5656, 17827.02
611.0477, 17889.49
611.5298, 17917.86
612.0120, 17878.53
612.4941, 17836.73
612.9762, 17841.30
613.4583, 17913.23
613.9404, 17952.17
614.4225, 17944.50
614.9047, 17919.61
615.3868, 17919.51
615.8689, 17942.61
616.3510, 17967.64
616.8331, 17987.41
617.3152, 18007.17
617.7974, 18037.69
618.2795, 18076.06
618.7616, 18112.52
619.2437, 18149.92
619.7258, 18177.04
620.2079, 18178.63
620.6901, 18154.36
621.1722, 18139.44
621.6543, 18152.48
622.1364, 18174.38
622.6185, 18193.67
623.1006, 18212.82
623.5828, 18221.70
624.0649, 18213.13
624.5470, 18200.84
625.0291, 18200.49
625.5112, 18212.68
625.9933, 18235.55
626.4755, 18273.03
626.9576, 18314.86
627.4397, 18337.52
627.9218, 18343.11
628.4039, 18347.66
628.8860, 18364.97
629.3682, 18382.70
629.8503, 18376.28
630.3324, 18349.96
630.8145, 18336.00
631.2966, 18362.86
631.7787, 18402.21
632.2609, 18436.06
632.7430, 18463.06
633.2251, 18480.65
633.7072, 18478.16
634.1893, 18472.01
634.6714, 18475.67
635.1536, 18491.94
635.6357, 18511.64
636.1178, 18532.67
636.5999, 18558.11
637.0820, 18601.76
637.5641, 18665.05
638.0463, 18703.40
638.5284, 18690.44
639.0105, 18654.43
639.4926, 18655.30
639.9747, 18687.20
640.4568, 18716.05
640.9390, 18717.61
641.4211, 18709.18
641.9032, 18705.86
642.3853, 18708.76
642.8674, 18713.57
643.3495, 18722.27
643.8317, 18729.81
644.3138, 18731.72
644.7959, 18717.44
645.2780, 18717.98
645.7601, 18742.02
646.2422, 18773.23
646.7244, 18792.68
647.2065, 18798.39
647.6886, 18800.97
648.1707, 18800.84
648.6528, 18800.36
649.1349, 18805.04
649.6171, 18814.24
650.0992, 18823.54
650.5813, 18826.79
651.0634, 18831.55
651.5455, 18852.22
652.0276, 18885.21
652.5098, 18910.16
652.9919, 18916.21
653.4740, 18910.94
653.9561, 18891.39
654.4382, 18850.52
654.9203, 18838.21
655.4025, 18884.59
655.8846, 18941.69
