##NAMES=Posnjakite
##RRUFFID=R110172
##IDEAL CHEMISTRY=Cu^2+^_4_S^6+^O_4_(OH)_6_&#183;H_2_O
##LOCALITY=Yellow Rose of Texas mine, Animas District, San Juan County, Colorado, USA
##OWNER=RRUFF
##SOURCE=George Stevens
##DESCRIPTION=Blocky light blue crystals associated with dark blue linarite
##STATUS=The identification of this mineral has been confirmed by single-crystal X-ray diffraction.
##URL=rruff.info/R110172
216.9539, 40.07843
217.4360, 39.08039
217.9181, 39.45699
218.4002, 40.31815
218.8823, 40.76383
219.3644, 40.57359
219.8466, 40.19550
220.3287, 40.24895
220.8108, 40.81181
221.2929, 41.34919
221.7750, 41.96415
222.2571, 42.45126
222.7393, 42.46131
223.2214, 41.86991
223.7035, 41.11420
224.1856, 40.65887
224.6677, 40.46971
225.1498, 40.61902
225.6320, 41.34282
226.1141, 42.36574
226.5962, 43.24368
227.0783, 43.89415
227.5604, 44.43396
228.0425, 45.05916
228.5247, 45.71912
229.0068, 46.12405
229.4889, 46.01406
229.9710, 45.58032
230.4531, 45.25362
230.9352, 45.11744
231.4174, 45.00240
231.8995, 44.88238
232.3816, 44.70523
232.8637, 44.28954
233.3458, 43.22056
233.8279, 41.81199
234.3101, 41.12864
234.7922, 41.50661
235.2743, 42.13068
235.7564, 42.58909
236.2385, 42.91744
236.7206, 43.18393
237.2028, 43.40354
237.6849, 43.58843
238.1670, 43.82442
238.6491, 44.28453
239.1312, 44.51231
239.6133, 44.03924
240.0955, 43.27478
240.5776, 42.94866
241.0597, 43.64996
241.5418, 45.09153
242.0239, 45.85158
242.5060, 45.51987
242.9882, 45.00799
243.4703, 44.55145
243.9524, 44.11633
244.4345, 43.61609
244.9166, 42.97826
245.3987, 42.26339
245.8809, 41.76561
246.3630, 41.50497
246.8451, 41.47803
247.3272, 41.80237
247.8093, 42.30894
248.2914, 42.84230
248.7736, 43.33905
249.2557, 43.72212
249.7378, 43.65631
250.2199, 42.53007
250.7020, 41.70069
251.1841, 41.54346
251.6663, 41.70758
252.1484, 41.76881
252.6305, 41.52032
253.1126, 41.07418
253.5947, 40.78161
254.0768, 40.96984
254.5590, 40.91459
255.0411, 40.44105
255.5232, 39.75663
256.0053, 39.06885
256.4874, 38.46817
256.9695, 37.93156
257.4517, 37.40170
257.9338, 36.23382
258.4159, 35.91750
258.8980, 37.20502
259.3801, 39.02626
259.8622, 40.31344
260.3444, 40.69316
260.8265, 40.44069
261.3086, 40.05265
261.7907, 39.29878
262.2728, 38.78047
262.7549, 38.66654
263.2371, 38.71050
263.7192, 38.75154
264.2013, 38.73442
264.6834, 38.53145
265.1655, 37.91800
265.6476, 36.64594
266.1298, 35.54689
266.6119, 34.31758
267.0940, 33.43783
267.5761, 33.50774
268.0582, 34.61628
268.5403, 36.15577
269.0225, 37.53588
269.5046, 38.80708
269.9867, 39.39058
270.4688, 38.88374
270.9509, 37.92209
271.4330, 36.92247
271.9152, 35.96244
272.3973, 35.13485
272.8794, 34.50414
273.3615, 34.10125
273.8436, 34.02918
274.3257, 34.68043
274.8079, 35.38691
275.2900, 35.57463
275.7721, 35.23618
276.2542, 34.78731
276.7363, 34.52257
277.2184, 34.42656
277.7006, 34.26805
278.1827, 33.86593
278.6648, 33.54652
279.1469, 33.56778
279.6290, 33.90509
280.1111, 34.37351
280.5933, 34.99236
281.0754, 35.60400
281.5575, 35.76353
282.0396, 35.14843
282.5217, 34.48001
283.0038, 34.25882
283.4860, 34.39930
283.9681, 34.42551
284.4502, 34.03814
284.9323, 33.48220
285.4144, 33.27069
285.8965, 33.49757
286.3787, 33.81497
286.8608, 34.15963
287.3429, 34.46844
287.8250, 34.48248
288.3071, 34.02121
288.7892, 33.35069
289.2714, 32.79774
289.7535, 32.33346
290.2356, 32.12368
290.7177, 32.38752
291.1998, 32.96902
291.6819, 33.47934
292.1641, 33.86423
292.6462, 34.09326
293.1283, 34.14096
293.6104, 34.02398
294.0925, 33.74438
294.5746, 33.00103
295.0568, 32.14566
295.5389, 32.03093
296.0210, 32.99508
296.5031, 33.98157
296.9852, 33.91262
297.4673, 33.11640
297.9495, 32.42603
298.4316, 32.21900
298.9137, 32.23094
299.3958, 32.11730
299.8779, 31.88562
300.3600, 31.43943
300.8422, 30.24547
301.3243, 28.86032
301.8064, 28.36995
302.2885, 29.60558
302.7706, 31.25033
303.2527, 31.63487
303.7349, 30.66095
304.2170, 29.85624
304.6991, 30.04071
305.1812, 30.77911
305.6633, 31.57959
306.1454, 32.55196
306.6276, 33.15858
307.1097, 32.63483
307.5918, 31.06278
308.0739, 29.86221
308.5560, 29.56209
309.0381, 29.82678
309.5203, 30.31693
310.0024, 31.05998
310.4845, 31.67269
310.9666, 31.81375
311.4487, 31.57309
311.9308, 31.35664
312.4130, 31.13741
312.8951, 31.13299
313.3772, 31.86753
313.8593, 33.16790
314.3414, 33.78059
314.8235, 32.34343
315.3057, 29.78764
315.7878, 28.62976
316.2699, 29.46470
316.7520, 30.78250
317.2341, 31.64212
317.7162, 32.13897
318.1984, 32.42178
318.6805, 32.40440
319.1626, 32.26459
319.6447, 32.35544
320.1268, 32.75932
320.6089, 32.97838
321.0911, 32.51628
321.5732, 31.74716
322.0553, 31.17803
322.5374, 30.93753
323.0195, 30.87377
323.5016, 30.76001
323.9838, 30.59185
324.4659, 30.80336
324.9480, 31.96567
325.4301, 33.30050
325.9122, 33.80923
326.3943, 33.32639
326.8765, 32.64126
327.3586, 32.38068
327.8407, 32.43926
328.3228, 32.17039
328.8049, 31.16998
329.2870, 30.16572
329.7692, 29.89361
330.2513, 30.30083
330.7334, 30.93530
331.2155, 31.97339
331.6976, 33.04819
332.1797, 33.14693
332.6619, 31.88273
333.1440, 30.43398
333.6261, 29.64581
334.1082, 29.39533
334.5903, 29.52479
335.0724, 30.38705
335.5546, 31.40738
336.0367, 31.81871
336.5188, 31.58076
337.0009, 31.10747
337.4830, 30.48522
337.9651, 29.82211
338.4473, 29.30775
338.9294, 28.93243
339.4115, 28.75741
339.8936, 28.89488
340.3757, 29.31388
340.8578, 29.81512
341.3400, 30.46739
341.8221, 31.00950
342.3042, 30.99102
342.7863, 30.29242
343.2684, 29.72974
343.7505, 29.98000
344.2327, 30.65188
344.7148, 30.69923
345.1969, 29.73572
345.6790, 28.55904
346.1611, 28.09164
346.6432, 28.22494
347.1254, 28.52518
347.6075, 29.00002
348.0896, 29.52423
348.5717, 29.95523
349.0538, 30.28363
349.5359, 30.51096
350.0181, 30.65533
350.5002, 30.68876
350.9823, 30.54761
351.4644, 30.14509
351.9465, 29.63836
352.4286, 28.96686
352.9108, 28.21905
353.3929, 27.84819
353.8750, 28.18312
354.3571, 28.93018
354.8392, 29.35602
355.3214, 29.39950
355.8035, 29.32793
356.2856, 29.09055
356.7677, 28.82744
357.2498, 28.90361
357.7319, 29.48852
358.2141, 30.05857
358.6962, 29.73722
359.1783, 28.29885
359.6604, 27.42039
360.1425, 27.71634
360.6246, 28.38791
361.1068, 28.70570
361.5889, 28.60394
362.0710, 28.40043
362.5531, 28.35630
363.0352, 28.46949
363.5173, 28.51099
363.9995, 28.47702
364.4816, 28.38392
364.9637, 28.07502
365.4458, 27.70178
365.9279, 27.72180
366.4100, 28.44551
366.8922, 29.55258
367.3743, 29.96778
367.8564, 29.15164
368.3385, 28.46126
368.8206, 28.12447
369.3027, 27.97690
369.7849, 27.84016
370.2670, 27.66366
370.7491, 27.49899
371.2312, 27.42554
371.7133, 27.49628
372.1954, 27.49740
372.6776, 27.11554
373.1597, 26.92583
373.6418, 27.57872
374.1239, 28.85070
374.6060, 29.80171
375.0881, 29.62765
375.5703, 28.37178
376.0524, 27.56724
376.5345, 27.37539
377.0166, 27.42851
377.4987, 28.06923
377.9808, 28.79628
378.4630, 28.78130
378.9451, 27.63663
379.4272, 25.92701
379.9093, 25.01493
380.3914, 25.48274
380.8735, 25.81380
381.3557, 25.61363
381.8378, 25.50253
382.3199, 26.21332
382.8020, 27.68788
383.2841, 28.98525
383.7662, 28.85260
384.2484, 26.93177
384.7305, 26.09761
385.2126, 27.73425
385.6947, 29.15940
386.1768, 29.41349
386.6589, 28.81115
387.1411, 28.06183
387.6232, 27.53980
388.1053, 27.25776
388.5874, 27.35237
389.0695, 28.28790
389.5516, 28.69773
390.0338, 27.68378
390.5159, 26.39867
390.9980, 25.98628
391.4801, 26.75558
391.9622, 27.94161
392.4443, 28.64353
392.9265, 28.82126
393.4086, 28.89589
393.8907, 28.86053
394.3728, 28.77769
394.8549, 28.63610
395.3370, 28.46713
395.8192, 28.37429
396.3013, 28.43504
396.7834, 28.62250
397.2655, 28.81734
397.7476, 28.94914
398.2297, 29.27251
398.7119, 30.31315
399.1940, 31.50821
399.6761, 32.02872
400.1582, 31.44712
400.6403, 30.63229
401.1224, 30.46852
401.6046, 30.92293
402.0867, 31.52262
402.5688, 32.42226
403.0509, 33.05307
403.5330, 32.40497
404.0151, 30.42448
404.4973, 29.30068
404.9794, 30.73426
405.4615, 33.43587
405.9436, 35.20617
406.4257, 35.74878
406.9078, 35.64564
407.3900, 35.06877
407.8721, 34.16879
408.3542, 33.70996
408.8363, 33.97065
409.3184, 34.48517
409.8005, 35.13965
410.2827, 35.83779
410.7648, 36.15590
411.2469, 35.78522
411.7290, 35.17396
412.2111, 35.47380
412.6932, 37.23920
413.1754, 38.39548
413.6575, 38.04676
414.1396, 37.20780
414.6217, 36.97687
415.1038, 37.52131
415.5859, 38.27770
416.0681, 38.71759
416.5502, 38.82188
417.0323, 38.74084
417.5144, 38.38288
417.9965, 37.96893
418.4786, 37.52892
418.9608, 37.10563
419.4429, 36.72393
419.9250, 36.38902
420.4071, 36.17659
420.8892, 36.31366
421.3713, 37.14004
421.8535, 37.81307
422.3356, 38.06999
422.8177, 38.34111
423.2998, 39.18628
423.7819, 40.53548
424.2640, 41.60432
424.7462, 41.42416
425.2283, 39.85791
425.7104, 39.07972
426.1925, 39.71195
426.6746, 40.51704
427.1567, 41.23159
427.6389, 41.86579
428.1210, 42.45325
428.6031, 43.00063
429.0852, 43.55139
429.5673, 44.28935
430.0494, 45.40144
430.5316, 46.03488
431.0137, 45.36158
431.4958, 44.55980
431.9779, 44.43483
432.4600, 45.01101
432.9421, 45.68049
433.4243, 46.08497
433.9064, 46.22154
434.3885, 45.98454
434.8706, 45.13704
435.3527, 44.45816
435.8348, 44.58192
436.3170, 45.18663
436.7991, 45.80351
437.2812, 46.45075
437.7633, 46.88672
438.2454, 46.72565
438.7275, 46.06462
439.2097, 45.61709
439.6918, 45.72331
440.1739, 46.00733
440.6560, 45.75574
441.1381, 44.87703
441.6202, 44.51405
442.1024, 45.57671
442.5845, 46.99517
443.0666, 47.49959
443.5487, 47.00180
444.0308, 46.19216
444.5129, 45.51166
444.9951, 44.97245
445.4772, 44.62761
445.9593, 44.60664
446.4414, 44.59980
446.9235, 44.55001
447.4056, 44.44535
447.8878, 44.30737
448.3699, 44.13948
448.8520, 43.83485
449.3341, 43.18907
449.8162, 41.97107
450.2983, 41.08203
450.7805, 40.70062
451.2626, 40.43121
451.7447, 39.86875
452.2268, 39.22871
452.7089, 39.19621
453.1910, 40.34199
453.6732, 42.22136
454.1553, 42.91045
454.6374, 41.76217
455.1195, 40.46118
455.6016, 38.87392
456.0837, 37.52779
456.5659, 37.09620
457.0480, 37.60460
457.5301, 38.16819
458.0122, 37.76023
458.4943, 36.40258
458.9764, 35.36123
459.4586, 34.89996
459.9407, 34.42179
460.4228, 33.31141
460.9049, 32.01994
461.3870, 31.46358
461.8691, 32.34203
462.3513, 33.45264
462.8334, 33.08906
463.3155, 31.32103
463.7976, 30.00551
464.2797, 29.88607
464.7618, 30.26783
465.2440, 30.18782
465.7261, 29.62924
466.2082, 29.36748
466.6903, 29.92907
467.1724, 30.78334
467.6545, 31.36974
468.1367, 31.63098
468.6188, 31.53189
469.1009, 30.94416
469.5830, 30.00206
470.0651, 29.37396
470.5472, 29.27115
471.0294, 29.17141
471.5115, 28.83715
471.9936, 28.47721
472.4757, 28.35564
472.9578, 28.53918
473.4399, 28.93862
473.9221, 29.50550
474.4042, 30.35224
474.8863, 30.68937
475.3684, 30.29013
475.8505, 29.69187
476.3326, 28.73749
476.8148, 27.79152
477.2969, 27.52552
477.7790, 28.28792
478.2611, 29.52918
478.7432, 30.04386
479.2253, 29.55478
479.7075, 29.11658
480.1896, 28.91693
480.6717, 28.73794
481.1538, 28.37752
481.6359, 27.90274
482.1180, 27.61037
482.6002, 27.79357
483.0823, 28.27473
483.5644, 28.52704
484.0465, 28.47613
484.5286, 28.46622
485.0107, 28.70413
485.4929, 29.03662
485.9750, 29.30960
486.4571, 29.51981
486.9392, 29.59838
487.4213, 29.46291
487.9034, 29.17056
488.3856, 28.75885
488.8677, 28.18830
489.3498, 27.84631
489.8319, 28.15031
490.3140, 29.06110
490.7961, 29.77093
491.2783, 30.25274
491.7604, 30.57160
492.2425, 30.72894
492.7246, 30.75165
493.2067, 30.61591
493.6888, 30.31313
494.1710, 30.06216
494.6531, 30.22533
495.1352, 30.97579
495.6173, 31.60767
496.0994, 32.39194
496.5815, 32.81844
497.0637, 32.29836
497.5458, 31.24749
498.0279, 30.58298
498.5100, 30.85218
498.9921, 31.65705
499.4742, 31.96837
499.9564, 31.55841
500.4385, 31.22660
500.9206, 31.11126
501.4027, 31.08511
501.8848, 31.13035
502.3669, 31.21380
502.8491, 31.22302
503.3312, 30.93227
503.8133, 30.54464
504.2954, 30.74979
504.7775, 31.72363
505.2596, 32.44848
505.7418, 32.33319
506.2239, 31.74796
506.7060, 31.16567
507.1881, 30.54622
507.6702, 30.20627
508.1523, 30.52621
508.6345, 31.15664
509.1166, 31.52030
509.5987, 31.53220
510.0808, 31.39170
510.5629, 31.26423
511.0450, 31.13236
511.5272, 30.81401
512.0093, 30.32688
512.4914, 29.65958
512.9735, 28.43244
513.4556, 27.17403
513.9377, 26.67687
514.4199, 27.11142
514.9020, 27.86995
515.3841, 28.21146
515.8662, 28.09641
516.3483, 27.83707
516.8304, 26.93608
517.3126, 26.42865
517.7947, 27.05137
518.2768, 28.11975
518.7589, 28.57516
519.2410, 27.97727
519.7231, 26.97820
520.2053, 26.62665
520.6874, 27.00322
521.1695, 26.80767
521.6516, 25.50242
522.1337, 24.05059
522.6158, 22.97962
523.0980, 22.27904
523.5801, 21.93640
524.0622, 22.06574
524.5443, 22.43698
525.0264, 22.92333
525.5085, 23.48424
525.9907, 23.87147
526.4728, 24.02180
526.9549, 23.90848
527.4370, 23.32261
527.9191, 22.07964
528.4012, 21.52992
528.8834, 22.33820
529.3655, 23.42529
529.8476, 24.24488
530.3297, 24.71403
530.8118, 24.69570
531.2939, 24.07963
531.7761, 23.17222
532.2582, 22.77108
532.7403, 23.22478
533.2224, 23.55755
533.7045, 23.61081
534.1866, 23.67685
534.6688, 24.12218
535.1509, 24.75804
535.6330, 24.97050
536.1151, 24.22676
536.5972, 22.96352
537.0793, 22.42123
537.5615, 22.80772
538.0436, 23.07485
538.5257, 22.93953
539.0078, 22.53840
539.4899, 21.78071
539.9720, 20.71760
540.4542, 20.11892
540.9363, 20.87019
541.4184, 22.05482
541.9005, 22.21193
542.3826, 21.34779
542.8647, 20.57785
543.3469, 20.43508
543.8290, 20.80489
544.3111, 21.50665
544.7932, 22.93421
545.2753, 23.73277
545.7574, 23.35502
546.2396, 22.53025
546.7217, 21.77654
547.2038, 21.17144
547.6859, 20.66252
548.1680, 20.21312
548.6501, 19.82192
549.1323, 19.43995
549.6144, 18.67559
550.0965, 18.64712
550.5786, 20.15474
551.0607, 21.81727
551.5428, 22.62060
552.0250, 22.54264
552.5071, 22.18621
552.9892, 21.82019
553.4713, 21.55626
553.9534, 21.91098
554.4355, 23.10667
554.9177, 23.75165
555.3998, 22.88646
555.8819, 21.46878
556.3640, 20.79251
556.8461, 20.93874
557.3282, 21.30264
557.8104, 22.15792
558.2925, 22.81187
558.7746, 21.96156
559.2567, 19.80499
559.7388, 18.42740
560.2209, 19.26694
560.7031, 21.47167
561.1852, 22.31774
561.6673, 20.09635
562.1494, 18.91428
562.6315, 19.68944
563.1136, 20.84279
563.5958, 21.35533
564.0779, 21.16237
564.5600, 20.50693
565.0421, 19.41814
565.5242, 18.24427
566.0063, 18.35050
566.4885, 20.35800
566.9706, 21.82639
567.4527, 21.69768
567.9348, 21.18338
568.4169, 21.02179
568.8990, 21.24158
569.3812, 21.61376
569.8633, 22.40117
570.3454, 23.06966
570.8275, 22.54180
571.3096, 20.91809
571.7917, 19.72760
572.2739, 19.68545
572.7560, 20.28604
573.2381, 20.65089
573.7202, 20.72250
574.2023, 20.81163
574.6844, 20.93462
575.1666, 21.09532
575.6487, 21.23785
576.1308, 21.42058
576.6129, 21.86469
577.0950, 22.70849
577.5771, 23.63227
578.0593, 23.90941
578.5414, 23.34661
579.0235, 22.66166
579.5056, 21.61051
579.9877, 20.70113
580.4698, 20.12876
580.9520, 19.88485
581.4341, 19.91628
581.9162, 20.23206
582.3983, 20.74615
582.8804, 21.54324
583.3625, 22.55530
583.8447, 22.92889
584.3268, 22.26422
584.8089, 21.37345
585.2910, 21.11822
585.7731, 21.43488
586.2552, 21.66699
586.7374, 21.39141
587.2195, 21.40221
587.7016, 22.49333
588.1837, 24.05172
588.6658, 24.99640
589.1479, 25.00926
589.6301, 24.52741
590.1122, 23.99312
590.5943, 23.33817
591.0764, 23.31744
591.5585, 24.71644
592.0406, 25.84371
592.5228, 26.29990
593.0049, 26.27340
593.4870, 25.84868
593.9691, 25.07049
594.4512, 24.42174
594.9333, 24.52062
595.4155, 25.16333
595.8976, 25.40698
596.3797, 25.11246
596.8618, 24.81630
597.3439, 24.86738
597.8260, 25.11649
598.3082, 25.18795
598.7903, 25.02321
599.2724, 24.83052
599.7545, 24.62630
600.2366, 24.45827
600.7188, 24.43856
601.2009, 24.53258
601.6830, 24.49850
602.1651, 24.13452
602.6472, 23.61038
603.1293, 23.60827
603.6115, 24.71437
604.0936, 25.25130
604.5757, 24.71150
605.0578, 23.98148
605.5399, 23.54359
606.0220, 23.39575
606.5042, 23.33658
606.9863, 23.24681
607.4684, 23.19973
607.9505, 23.36683
608.4326, 23.74100
608.9147, 24.03623
609.3969, 24.21015
609.8790, 24.21950
610.3611, 23.84103
610.8432, 23.13072
611.3253, 22.90151
611.8074, 23.85733
612.2896, 24.66793
612.7717, 24.43595
613.2538, 23.64032
613.7359, 23.15860
614.2180, 23.23340
614.7001, 23.39410
615.1823, 23.04903
615.6644, 22.16147
616.1465, 21.52025
616.6286, 21.06827
617.1107, 20.97417
617.5928, 21.63821
618.0750, 22.45000
618.5571, 22.73088
619.0392, 22.36661
619.5213, 21.88759
620.0034, 21.60514
620.4855, 21.51567
620.9677, 21.65741
621.4498, 22.03810
621.9319, 22.47600
622.4140, 22.96852
622.8961, 23.37183
623.3782, 23.29789
623.8604, 22.52553
624.3425, 22.03839
624.8246, 22.10691
625.3067, 22.35312
625.7888, 22.63454
626.2709, 22.87436
626.7531, 22.99866
627.2352, 22.97321
627.7173, 22.73769
628.1994, 22.00072
628.6815, 20.51637
629.1636, 19.92924
629.6458, 20.99980
630.1279, 22.12358
630.6100, 22.65149
631.0921, 22.65221
631.5742, 22.14727
632.0563, 20.94964
632.5385, 19.83633
633.0206, 19.25730
633.5027, 19.18669
633.9848, 19.88551
634.4669, 21.35195
634.9490, 22.32596
635.4312, 21.78374
635.9133, 20.07727
636.3954, 18.86456
636.8775, 18.50892
637.3596, 18.19431
637.8417, 17.68426
638.3239, 17.38291
638.8060, 17.76346
639.2881, 18.63681
639.7702, 19.36389
640.2523, 19.54651
640.7344, 19.41243
641.2166, 19.44274
641.6987, 19.65695
642.1808, 19.50895
642.6629, 18.58740
643.1450, 17.77205
643.6271, 18.08671
644.1093, 19.21541
644.5914, 20.02085
645.0735, 20.16306
645.5556, 20.16204
646.0377, 20.53368
646.5198, 20.79671
647.0020, 19.87418
647.4841, 17.77529
647.9662, 16.04929
648.4483, 16.17549
648.9304, 17.84754
649.4125, 18.91468
649.8947, 19.23812
650.3768, 19.18153
650.8589, 18.36583
651.3410, 17.56337
651.8231, 17.42143
652.3052, 17.84668
652.7874, 18.17185
653.2695, 17.94778
653.7516, 17.56934
654.2337, 17.55187
654.7158, 17.81994
655.1979, 17.97180
655.6801, 17.85469
656.1622, 17.85126
656.6443, 18.52802
657.1264, 19.96700
657.6085, 20.42661
658.0906, 18.97111
658.5728, 17.85116
659.0549, 17.91929
659.5370, 18.38676
660.0191, 18.33937
660.5012, 17.70652
660.9833, 17.16127
661.4655, 17.30286
661.9476, 17.92268
662.4297, 18.32691
662.9118, 18.46026
663.3939, 18.89667
663.8760, 20.26510
664.3582, 21.46101
664.8403, 20.69155
665.3224, 18.15484
665.8045, 16.61272
666.2866, 17.10969
666.7687, 18.06886
667.2509, 18.90757
667.7330, 19.52625
668.2151, 19.69461
668.6972, 19.40807
669.1793, 19.14189
669.6614, 19.47611
670.1436, 20.32944
670.6257, 20.48736
671.1078, 19.57038
671.5899, 18.74385
672.0720, 18.31406
672.5541, 18.10782
673.0363, 18.10479
673.5184, 18.25978
674.0005, 18.24369
674.4826, 17.56874
674.9647, 16.93693
675.4468, 17.34674
675.9290, 18.39511
676.4111, 18.69995
676.8932, 17.81617
677.3753, 16.78336
677.8574, 16.87704
678.3395, 18.15609
678.8217, 19.03467
679.3038, 19.37313
679.7859, 19.46218
680.2680, 19.15973
680.7501, 18.75756
681.2322, 18.48984
681.7144, 18.38998
682.1965, 18.39180
682.6786, 18.52131
683.1607, 18.68019
683.6428, 18.65740
684.1249, 18.48329
684.6071, 18.49341
685.0892, 18.87523
685.5713, 19.13238
686.0534, 18.57035
686.5355, 17.10778
687.0176, 16.36027
687.4998, 16.58664
687.9819, 17.12779
688.4640, 18.06561
688.9461, 19.08289
689.4282, 20.05318
689.9103, 20.83790
690.3925, 21.04369
690.8746, 20.19132
691.3567, 18.73045
691.8388, 17.63592
692.3209, 16.90314
692.8030, 16.74624
693.2852, 17.50591
693.7673, 18.31659
694.2494, 18.00639
694.7315, 16.71067
695.2136, 16.50019
695.6957, 18.79013
696.1779, 20.55203
696.6600, 20.46382
697.1421, 19.47791
697.6242, 18.40799
698.1063, 17.52769
698.5884, 17.09437
699.0706, 17.40349
699.5527, 18.12661
700.0348, 18.12822
700.5169, 17.16758
700.9990, 17.17043
701.4811, 19.24760
701.9633, 21.35098
702.4454, 21.50227
702.9275, 20.22191
703.4096, 19.18496
703.8917, 18.82058
704.3738, 18.44339
704.8560, 17.49796
705.3381, 16.53319
705.8202, 16.26559
706.3023, 16.69884
706.7844, 17.33908
707.2665, 17.86398
707.7487, 18.29861
708.2308, 18.81484
708.7129, 19.59954
709.1950, 19.49642
709.6771, 17.50566
710.1592, 15.75131
710.6414, 15.88810
711.1235, 17.18391
711.6056, 18.09256
712.0877, 18.21429
712.5698, 18.27673
713.0519, 18.95390
