##NAMES=Potassic-fluoro-pargasite
##RRUFFID=R110065
##IDEAL CHEMISTRY=KCa_2_(Mg_4_Al)Si_6_Al_2_O_22_F_2_
##LOCALITY=Tranomaro, Fort Dauphine area, Madagascar
##OWNER=RRUFF
##SOURCE=Renato & Adriana Pagano
##DESCRIPTION=Black blocky euhedral single-crystal, from the original find
##STATUS=The identification of this mineral has been confirmed by single-crystal X-ray diffraction.
##URL=rruff.info/R110065
169.7064, 1289.016
170.1885, 1285.486
170.6707, 1281.923
171.1528, 1277.025
171.6349, 1271.424
172.1170, 1267.609
172.5991, 1268.633
173.0812, 1274.813
173.5634, 1278.983
174.0455, 1277.983
174.5276, 1277.073
175.0097, 1278.631
175.4918, 1282.543
175.9739, 1287.178
176.4561, 1290.745
176.9382, 1292.910
177.4203, 1295.186
177.9024, 1296.482
178.3845, 1298.674
178.8666, 1303.206
179.3488, 1309.995
179.8309, 1317.672
180.3130, 1324.229
180.7951, 1328.662
181.2772, 1334.267
181.7593, 1340.885
182.2415, 1348.566
182.7236, 1357.867
183.2057, 1368.749
183.6878, 1379.919
184.1699, 1389.359
184.6520, 1395.777
185.1342, 1402.932
185.6163, 1412.324
186.0984, 1421.865
186.5805, 1429.208
187.0626, 1433.620
187.5447, 1436.291
188.0269, 1439.323
188.5090, 1443.416
188.9911, 1445.344
189.4732, 1444.270
189.9553, 1440.563
190.4374, 1434.608
190.9196, 1426.080
191.4017, 1416.051
191.8838, 1405.830
192.3659, 1395.461
192.8480, 1384.973
193.3301, 1374.285
193.8123, 1363.466
194.2944, 1352.699
194.7765, 1342.013
195.2586, 1331.449
195.7407, 1320.750
196.2228, 1309.928
196.7050, 1299.853
197.1871, 1291.202
197.6692, 1283.946
198.1513, 1277.455
198.6334, 1271.966
199.1155, 1267.013
199.5977, 1262.045
200.0798, 1257.089
200.5619, 1252.932
201.0440, 1250.658
201.5261, 1250.604
202.0082, 1250.155
202.4904, 1247.588
202.9725, 1245.580
203.4546, 1245.786
203.9367, 1248.273
204.4188, 1251.691
204.9009, 1254.161
205.3831, 1254.842
205.8652, 1257.223
206.3473, 1262.920
206.8294, 1269.047
207.3115, 1273.685
207.7936, 1276.654
208.2758, 1279.328
208.7579, 1283.619
209.2400, 1290.180
209.7221, 1297.064
210.2042, 1303.911
210.6863, 1311.218
211.1685, 1319.427
211.6506, 1328.589
212.1327, 1338.339
212.6148, 1348.209
213.0969, 1357.758
213.5790, 1368.360
214.0612, 1380.960
214.5433, 1393.906
215.0254, 1405.985
215.5075, 1416.842
215.9896, 1427.167
216.4717, 1437.684
216.9539, 1447.966
217.4360, 1459.970
217.9181, 1474.633
218.4002, 1490.600
218.8823, 1506.423
219.3644, 1521.700
219.8466, 1537.681
220.3287, 1556.436
220.8108, 1578.650
221.2929, 1600.199
221.7750, 1620.048
222.2571, 1639.147
222.7393, 1658.256
223.2214, 1677.313
223.7035, 1697.513
224.1856, 1721.452
224.6677, 1748.759
225.1498, 1774.370
225.6320, 1795.938
226.1141, 1815.264
226.5962, 1835.717
227.0783, 1858.531
227.5604, 1880.457
228.0425, 1898.614
228.5247, 1913.431
229.0068, 1925.659
229.4889, 1935.878
229.9710, 1943.563
230.4531, 1947.478
230.9352, 1947.173
231.4174, 1943.455
231.8995, 1935.977
232.3816, 1925.748
232.8637, 1915.349
233.3458, 1906.273
233.8279, 1898.009
234.3101, 1888.572
234.7922, 1877.258
235.2743, 1866.009
235.7564, 1855.682
236.2385, 1846.220
236.7206, 1837.546
237.2028, 1830.451
237.6849, 1824.219
238.1670, 1815.515
238.6491, 1803.178
239.1312, 1789.881
239.6133, 1776.893
240.0955, 1763.822
240.5776, 1749.733
241.0597, 1733.915
241.5418, 1716.730
242.0239, 1700.283
242.5060, 1684.878
242.9882, 1669.789
243.4703, 1654.409
243.9524, 1639.194
244.4345, 1624.772
244.9166, 1611.548
245.3987, 1599.334
245.8809, 1587.545
246.3630, 1576.362
246.8451, 1565.426
247.3272, 1554.611
247.8093, 1543.980
248.2914, 1533.621
248.7736, 1523.542
249.2557, 1513.850
249.7378, 1505.088
250.2199, 1497.710
250.7020, 1490.779
251.1841, 1484.958
251.6663, 1479.287
252.1484, 1472.442
252.6305, 1463.715
253.1126, 1454.015
253.5947, 1446.000
254.0768, 1441.573
254.5590, 1436.782
255.0411, 1430.959
255.5232, 1424.813
256.0053, 1419.300
256.4874, 1414.836
256.9695, 1410.730
257.4517, 1405.314
257.9338, 1396.139
258.4159, 1388.550
258.8980, 1382.770
259.3801, 1378.484
259.8622, 1375.625
260.3444, 1374.135
260.8265, 1373.365
261.3086, 1372.137
261.7907, 1370.557
262.2728, 1368.166
262.7549, 1364.426
263.2371, 1360.111
263.7192, 1355.658
264.2013, 1351.221
264.6834, 1347.447
265.1655, 1345.371
265.6476, 1345.769
266.1298, 1346.241
266.6119, 1347.035
267.0940, 1347.734
267.5761, 1347.834
268.0582, 1347.265
268.5403, 1346.510
269.0225, 1346.052
269.5046, 1345.887
269.9867, 1346.387
270.4688, 1348.594
270.9509, 1350.841
271.4330, 1351.460
271.9152, 1350.319
272.3973, 1348.816
272.8794, 1348.219
273.3615, 1348.627
273.8436, 1349.139
274.3257, 1349.506
274.8079, 1350.133
275.2900, 1351.599
275.7721, 1353.855
276.2542, 1355.936
276.7363, 1357.230
277.2184, 1357.632
277.7006, 1357.411
278.1827, 1355.892
278.6648, 1354.279
279.1469, 1353.568
279.6290, 1353.651
280.1111, 1353.659
280.5933, 1353.352
281.0754, 1352.406
281.5575, 1350.139
282.0396, 1345.378
282.5217, 1340.750
283.0038, 1338.160
283.4860, 1337.254
283.9681, 1336.108
284.4502, 1333.786
284.9323, 1330.753
285.4144, 1328.115
285.8965, 1326.150
286.3787, 1323.915
286.8608, 1320.017
287.3429, 1315.220
287.8250, 1312.471
288.3071, 1313.414
288.7892, 1315.939
289.2714, 1317.128
289.7535, 1316.997
290.2356, 1315.954
290.7177, 1313.669
291.1998, 1310.593
291.6819, 1307.823
292.1641, 1305.479
292.6462, 1303.747
293.1283, 1303.076
293.6104, 1303.329
294.0925, 1303.462
294.5746, 1302.626
295.0568, 1301.464
295.5389, 1301.441
296.0210, 1303.038
296.5031, 1304.839
296.9852, 1305.665
297.4673, 1305.744
297.9495, 1305.547
298.4316, 1305.598
298.9137, 1305.318
299.3958, 1303.377
299.8779, 1299.312
300.3600, 1295.721
300.8422, 1294.779
301.3243, 1295.450
301.8064, 1296.054
302.2885, 1295.787
302.7706, 1295.740
303.2527, 1297.988
303.7349, 1302.823
304.2170, 1305.788
304.6991, 1302.975
305.1812, 1297.891
305.6633, 1295.427
306.1454, 1296.837
306.6276, 1299.266
307.1097, 1299.911
307.5918, 1298.930
308.0739, 1299.316
308.5560, 1303.301
309.0381, 1307.946
309.5203, 1309.740
310.0024, 1308.367
310.4845, 1306.606
310.9666, 1306.279
311.4487, 1307.152
311.9308, 1308.018
312.4130, 1308.346
312.8951, 1309.081
313.3772, 1311.079
313.8593, 1314.210
314.3414, 1317.717
314.8235, 1321.683
315.3057, 1325.733
315.7878, 1328.676
316.2699, 1329.811
316.7520, 1331.277
317.2341, 1334.796
317.7162, 1339.786
318.1984, 1345.207
318.6805, 1351.120
319.1626, 1357.043
319.6447, 1362.087
320.1268, 1366.094
320.6089, 1370.035
321.0911, 1374.568
321.5732, 1379.376
322.0553, 1383.910
322.5374, 1387.747
323.0195, 1391.840
323.5016, 1397.653
323.9838, 1405.240
324.4659, 1411.791
324.9480, 1415.480
325.4301, 1418.062
325.9122, 1421.578
326.3943, 1426.218
326.8765, 1431.519
327.3586, 1437.502
327.8407, 1444.019
328.3228, 1450.125
328.8049, 1455.563
329.2870, 1460.548
329.7692, 1465.562
330.2513, 1470.542
330.7334, 1474.608
331.2155, 1476.619
331.6976, 1477.456
332.1797, 1479.134
332.6619, 1481.900
333.1440, 1485.401
333.6261, 1490.031
334.1082, 1495.234
334.5903, 1499.643
335.0724, 1501.792
335.5546, 1503.422
336.0367, 1507.297
336.5188, 1513.690
337.0009, 1519.397
337.4830, 1522.644
337.9651, 1523.877
338.4473, 1523.858
338.9294, 1521.885
339.4115, 1519.915
339.8936, 1520.044
340.3757, 1521.910
340.8578, 1522.678
341.3400, 1520.923
341.8221, 1517.907
342.3042, 1515.682
342.7863, 1514.391
343.2684, 1512.989
343.7505, 1510.717
344.2327, 1507.961
344.7148, 1505.753
345.1969, 1504.466
345.6790, 1503.335
346.1611, 1501.009
346.6432, 1497.727
347.1254, 1495.614
347.6075, 1496.231
348.0896, 1497.822
348.5717, 1498.207
349.0538, 1497.178
349.5359, 1495.767
350.0181, 1494.718
350.5002, 1493.901
350.9823, 1492.747
351.4644, 1490.650
351.9465, 1488.707
352.4286, 1487.648
352.9108, 1487.387
353.3929, 1487.593
353.8750, 1488.315
354.3571, 1489.195
354.8392, 1489.261
355.3214, 1488.010
355.8035, 1487.178
356.2856, 1487.448
356.7677, 1488.546
357.2498, 1490.299
357.7319, 1492.824
358.2141, 1495.049
358.6962, 1494.874
359.1783, 1491.495
359.6604, 1490.871
360.1425, 1496.581
360.6246, 1503.555
361.1068, 1506.778
361.5889, 1505.933
362.0710, 1504.072
362.5531, 1503.513
363.0352, 1504.321
363.5173, 1505.852
363.9995, 1508.858
364.4816, 1511.782
364.9637, 1513.811
365.4458, 1515.153
365.9279, 1516.372
366.4100, 1517.739
366.8922, 1519.226
367.3743, 1520.750
367.8564, 1522.837
368.3385, 1524.215
368.8206, 1523.879
369.3027, 1523.099
369.7849, 1523.767
370.2670, 1526.310
370.7491, 1528.956
371.2312, 1529.190
371.7133, 1526.103
372.1954, 1523.111
372.6776, 1520.451
373.1597, 1517.699
373.6418, 1514.183
374.1239, 1510.203
374.6060, 1506.963
375.0881, 1505.557
375.5703, 1505.908
376.0524, 1504.950
376.5345, 1501.182
377.0166, 1497.862
377.4987, 1496.043
377.9808, 1495.038
378.4630, 1493.806
378.9451, 1491.866
379.4272, 1489.488
379.9093, 1487.323
380.3914, 1485.655
380.8735, 1483.697
381.3557, 1480.372
381.8378, 1477.496
382.3199, 1477.184
382.8020, 1479.260
383.2841, 1481.081
383.7662, 1479.523
384.2484, 1474.043
384.7305, 1468.887
385.2126, 1464.793
385.6947, 1460.266
386.1768, 1454.483
386.6589, 1447.908
387.1411, 1441.472
387.6232, 1435.699
388.1053, 1430.460
388.5874, 1425.500
389.0695, 1421.523
389.5516, 1416.437
390.0338, 1408.770
390.5159, 1400.459
390.9980, 1393.580
391.4801, 1388.669
391.9622, 1384.023
392.4443, 1377.066
392.9265, 1367.435
393.4086, 1359.229
393.8907, 1354.495
394.3728, 1349.899
394.8549, 1343.179
395.3370, 1334.808
395.8192, 1326.911
396.3013, 1321.190
396.7834, 1316.963
397.2655, 1311.804
397.7476, 1305.089
398.2297, 1299.103
398.7119, 1296.013
399.1940, 1294.065
399.6761, 1291.016
400.1582, 1286.113
400.6403, 1280.385
401.1224, 1274.766
401.6046, 1269.202
402.0867, 1263.541
402.5688, 1257.420
403.0509, 1251.554
403.5330, 1246.488
404.0151, 1242.180
404.4973, 1239.147
404.9794, 1238.620
405.4615, 1239.232
405.9436, 1238.766
406.4257, 1236.996
406.9078, 1233.961
407.3900, 1229.032
407.8721, 1222.700
408.3542, 1217.480
408.8363, 1213.680
409.3184, 1210.941
409.8005, 1209.599
410.2827, 1209.275
410.7648, 1208.666
411.2469, 1207.156
411.7290, 1205.138
412.2111, 1203.478
412.6932, 1202.222
413.1754, 1201.131
413.6575, 1200.176
414.1396, 1199.358
414.6217, 1198.752
415.1038, 1198.343
415.5859, 1197.896
416.0681, 1197.172
416.5502, 1196.141
417.0323, 1195.091
417.5144, 1193.391
417.9965, 1192.313
418.4786, 1193.114
418.9608, 1194.837
419.4429, 1195.349
419.9250, 1193.463
420.4071, 1190.465
420.8892, 1190.088
421.3713, 1196.243
421.8535, 1199.019
422.3356, 1195.214
422.8177, 1190.221
423.2998, 1188.427
423.7819, 1190.203
424.2640, 1192.792
424.7462, 1193.239
425.2283, 1191.335
425.7104, 1190.405
426.1925, 1191.671
426.6746, 1192.617
427.1567, 1192.673
427.6389, 1191.910
428.1210, 1190.247
428.6031, 1187.463
429.0852, 1184.513
429.5673, 1183.630
430.0494, 1185.543
430.5316, 1186.882
431.0137, 1186.053
431.4958, 1184.951
431.9779, 1185.239
432.4600, 1186.839
432.9421, 1187.604
433.4243, 1185.131
433.9064, 1180.304
434.3885, 1177.252
434.8706, 1177.029
435.3527, 1176.535
435.8348, 1173.209
436.3170, 1168.353
436.7991, 1163.983
437.2812, 1160.422
437.7633, 1157.745
438.2454, 1156.413
438.7275, 1156.222
439.2097, 1155.889
439.6918, 1155.157
440.1739, 1153.818
440.6560, 1150.970
441.1381, 1146.320
441.6202, 1143.322
442.1024, 1144.890
442.5845, 1147.543
443.0666, 1146.852
443.5487, 1142.591
444.0308, 1138.071
444.5129, 1135.681
444.9951, 1135.276
445.4772, 1135.108
445.9593, 1135.664
446.4414, 1135.865
446.9235, 1134.855
447.4056, 1133.440
447.8878, 1132.967
448.3699, 1133.879
448.8520, 1135.343
449.3341, 1136.119
449.8162, 1136.088
450.2983, 1135.618
450.7805, 1133.769
451.2626, 1132.407
451.7447, 1133.034
452.2268, 1135.014
452.7089, 1136.551
453.1910, 1136.397
453.6732, 1134.957
454.1553, 1133.886
454.6374, 1133.063
455.1195, 1132.876
455.6016, 1134.497
456.0837, 1135.983
456.5659, 1135.209
457.0480, 1131.990
457.5301, 1128.615
458.0122, 1127.497
458.4943, 1128.594
458.9764, 1130.037
459.4586, 1132.437
459.9407, 1134.134
460.4228, 1133.738
460.9049, 1132.223
461.3870, 1131.459
461.8691, 1132.602
462.3513, 1133.918
462.8334, 1132.669
463.3155, 1128.999
463.7976, 1126.922
464.2797, 1128.729
464.7618, 1131.400
465.2440, 1130.522
465.7261, 1126.009
466.2082, 1122.906
466.6903, 1124.176
467.1724, 1127.069
467.6545, 1128.281
468.1367, 1127.595
468.6188, 1126.273
469.1009, 1124.846
469.5830, 1123.554
470.0651, 1123.586
470.5472, 1126.231
471.0294, 1128.370
471.5115, 1128.967
471.9936, 1128.723
472.4757, 1128.146
472.9578, 1127.476
473.4399, 1127.585
473.9221, 1129.832
474.4042, 1135.026
474.8863, 1137.563
475.3684, 1135.690
475.8505, 1133.375
476.3326, 1131.664
476.8148, 1130.594
477.2969, 1130.154
477.7790, 1130.368
478.2611, 1130.792
478.7432, 1130.264
479.2253, 1128.006
479.7075, 1127.035
480.1896, 1129.109
480.6717, 1131.386
481.1538, 1132.008
481.6359, 1131.284
482.1180, 1131.041
482.6002, 1133.048
483.0823, 1136.264
483.5644, 1137.483
484.0465, 1136.097
484.5286, 1134.925
485.0107, 1135.504
485.4929, 1136.815
485.9750, 1137.627
486.4571, 1137.718
486.9392, 1137.822
487.4213, 1138.053
487.9034, 1138.664
488.3856, 1140.542
488.8677, 1144.006
489.3498, 1147.363
489.8319, 1149.129
490.3140, 1149.340
490.7961, 1149.535
491.2783, 1149.683
491.7604, 1149.848
492.2425, 1149.633
492.7246, 1149.536
493.2067, 1150.673
493.6888, 1153.433
494.1710, 1156.865
494.6531, 1159.488
495.1352, 1161.085
495.6173, 1162.498
496.0994, 1163.838
496.5815, 1164.918
497.0637, 1165.010
497.5458, 1164.812
498.0279, 1165.829
498.5100, 1168.985
498.9921, 1173.479
499.4742, 1177.264
499.9564, 1179.762
500.4385, 1183.004
500.9206, 1188.396
501.4027, 1193.742
501.8848, 1197.114
502.3669, 1198.879
502.8491, 1201.394
503.3312, 1207.133
503.8133, 1214.600
504.2954, 1219.591
504.7775, 1221.727
505.2596, 1223.035
505.7418, 1223.453
506.2239, 1224.132
506.7060, 1226.970
507.1881, 1232.635
507.6702, 1238.020
508.1523, 1241.334
508.6345, 1243.442
509.1166, 1245.523
509.5987, 1247.758
510.0808, 1250.697
510.5629, 1255.093
511.0450, 1260.712
511.5272, 1265.049
512.0093, 1266.835
512.4914, 1269.043
512.9735, 1273.488
513.4556, 1278.474
513.9377, 1281.377
514.4199, 1281.642
514.9020, 1281.513
515.3841, 1284.103
515.8662, 1290.192
516.3483, 1293.617
516.8304, 1292.872
517.3126, 1290.943
517.7947, 1287.104
518.2768, 1283.049
518.7589, 1281.501
519.2410, 1283.647
519.7231, 1286.855
520.2053, 1287.250
520.6874, 1284.636
521.1695, 1281.853
521.6516, 1278.508
522.1337, 1276.084
522.6158, 1275.925
523.0980, 1277.399
523.5801, 1278.703
524.0622, 1279.054
524.5443, 1279.114
525.0264, 1279.498
525.5085, 1280.193
525.9907, 1281.108
526.4728, 1282.264
526.9549, 1283.543
527.4370, 1284.653
527.9191, 1285.466
528.4012, 1287.049
528.8834, 1290.904
529.3655, 1294.375
529.8476, 1295.169
530.3297, 1293.960
530.8118, 1292.843
531.2939, 1292.912
531.7761, 1293.920
532.2582, 1295.284
532.7403, 1297.247
533.2224, 1299.091
533.7045, 1300.716
534.1866, 1302.274
534.6688, 1303.818
535.1509, 1305.367
535.6330, 1306.933
536.1151, 1308.482
536.5972, 1310.104
537.0793, 1312.360
537.5615, 1315.700
538.0436, 1317.770
538.5257, 1316.800
539.0078, 1315.100
539.4899, 1314.631
539.9720, 1315.433
540.4542, 1316.598
540.9363, 1318.440
541.4184, 1320.022
541.9005, 1319.395
542.3826, 1316.662
542.8647, 1314.802
543.3469, 1315.671
543.8290, 1318.084
544.3111, 1318.971
544.7932, 1317.932
545.2753, 1316.573
545.7574, 1314.898
546.2396, 1313.126
546.7217, 1311.519
547.2038, 1310.017
547.6859, 1308.296
548.1680, 1306.076
548.6501, 1303.529
549.1323, 1301.472
549.6144, 1300.531
550.0965, 1298.995
550.5786, 1296.188
551.0607, 1293.176
551.5428, 1291.016
552.0250, 1289.560
552.5071, 1287.556
552.9892, 1283.774
553.4713, 1278.874
553.9534, 1274.803
554.4355, 1271.741
554.9177, 1268.580
555.3998, 1264.484
555.8819, 1260.358
556.3640, 1257.466
556.8461, 1255.972
557.3282, 1254.512
557.8104, 1252.383
558.2925, 1250.097
558.7746, 1248.651
559.2567, 1247.875
559.7388, 1246.100
560.2209, 1242.054
560.7031, 1236.691
561.1852, 1233.063
561.6673, 1233.754
562.1494, 1232.474
562.6315, 1227.063
563.1136, 1221.286
563.5958, 1218.037
564.0779, 1217.076
564.5600, 1216.525
565.0421, 1215.132
565.5242, 1213.023
566.0063, 1210.448
566.4885, 1207.006
566.9706, 1204.301
567.4527, 1203.641
567.9348, 1203.164
568.4169, 1200.980
568.8990, 1197.426
569.3812, 1195.235
569.8633, 1197.497
570.3454, 1201.099
570.8275, 1201.272
571.3096, 1198.185
571.7917, 1194.813
572.2739, 1192.345
572.7560, 1190.298
573.2381, 1187.696
573.7202, 1184.202
574.2023, 1181.473
574.6844, 1180.210
575.1666, 1179.276
575.6487, 1178.064
576.1308, 1176.515
576.6129, 1174.630
577.0950, 1172.385
577.5771, 1169.969
578.0593, 1167.803
578.5414, 1166.008
579.0235, 1164.127
579.5056, 1160.904
579.9877, 1158.759
580.4698, 1160.010
580.9520, 1163.151
581.4341, 1164.641
581.9162, 1162.551
582.3983, 1158.860
582.8804, 1155.868
583.3625, 1153.562
583.8447, 1152.053
584.3268, 1151.564
584.8089, 1151.437
585.2910, 1151.156
585.7731, 1150.708
586.2552, 1149.874
586.7374, 1148.533
587.2195, 1146.916
587.7016, 1145.413
588.1837, 1143.655
588.6658, 1140.802
589.1479, 1136.654
589.6301, 1132.097
590.1122, 1128.067
590.5943, 1124.493
591.0764, 1122.179
591.5585, 1122.124
592.0406, 1122.202
592.5228, 1122.165
593.0049, 1121.864
593.4870, 1121.017
593.9691, 1119.571
594.4512, 1118.129
594.9333, 1117.497
595.4155, 1117.390
595.8976, 1116.305
596.3797, 1113.819
596.8618, 1111.955
597.3439, 1112.434
597.8260, 1114.156
598.3082, 1114.311
598.7903, 1112.146
599.2724, 1110.336
599.7545, 1109.752
600.2366, 1109.943
600.7188, 1110.830
601.2009, 1112.151
601.6830, 1112.914
602.1651, 1112.366
602.6472, 1110.959
603.1293, 1110.448
603.6115, 1111.796
604.0936, 1112.244
604.5757, 1111.068
605.0578, 1109.513
605.5399, 1108.019
606.0220, 1106.796
606.5042, 1106.198
606.9863, 1106.592
607.4684, 1107.460
607.9505, 1107.889
608.4326, 1107.898
608.9147, 1108.347
609.3969, 1109.693
609.8790, 1111.127
610.3611, 1111.694
610.8432, 1111.475
611.3253, 1111.335
611.8074, 1111.295
612.2896, 1111.432
612.7717, 1111.328
613.2538, 1111.558
613.7359, 1113.510
614.2180, 1117.459
614.7001, 1121.632
615.1823, 1123.976
615.6644, 1124.426
616.1465, 1124.232
616.6286, 1122.166
617.1107, 1121.184
617.5928, 1122.875
618.0750, 1125.456
618.5571, 1126.838
619.0392, 1126.693
619.5213, 1126.943
620.0034, 1129.412
620.4855, 1133.223
620.9677, 1136.436
621.4498, 1138.951
621.9319, 1141.410
622.4140, 1144.103
622.8961, 1146.958
623.3782, 1149.850
623.8604, 1152.796
624.3425, 1155.727
624.8246, 1157.909
625.3067, 1160.693
625.7888, 1165.312
626.2709, 1171.272
626.7531, 1177.538
627.2352, 1183.587
627.7173, 1189.138
628.1994, 1193.359
628.6815, 1195.867
629.1636, 1199.135
629.6458, 1202.921
630.1279, 1208.002
630.6100, 1215.759
631.0921, 1224.698
631.5742, 1231.744
632.0563, 1235.187
632.5385, 1239.540
633.0206, 1249.237
633.5027, 1261.836
633.9848, 1272.384
634.4669, 1280.188
634.9490, 1287.692
635.4312, 1296.778
635.9133, 1305.036
636.3954, 1313.357
636.8775, 1323.045
637.3596, 1330.994
637.8417, 1340.630
638.3239, 1351.145
638.8060, 1362.086
639.2881, 1373.396
639.7702, 1385.103
640.2523, 1397.238
640.7344, 1409.739
641.2166, 1422.896
641.6987, 1436.875
642.1808, 1448.464
642.6629, 1455.952
643.1450, 1462.750
643.6271, 1471.438
644.1093, 1481.904
644.5914, 1494.048
645.0735, 1510.492
645.5556, 1525.531
646.0377, 1535.156
646.5198, 1542.320
647.0020, 1551.648
647.4841, 1563.696
647.9662, 1575.154
648.4483, 1582.889
648.9304, 1587.478
649.4125, 1593.506
649.8947, 1602.460
650.3768, 1609.952
650.8589, 1614.465
651.3410, 1617.918
651.8231, 1621.835
652.3052, 1626.009
652.7874, 1628.928
653.2695, 1628.994
653.7516, 1628.229
654.2337, 1629.213
654.7158, 1631.597
655.1979, 1633.911
655.6801, 1635.820
656.1622, 1637.041
656.6443, 1637.133
657.1264, 1636.020
657.6085, 1635.221
658.0906, 1635.647
658.5728, 1635.224
659.0549, 1632.764
659.5370, 1629.637
660.0191, 1627.330
660.5012, 1625.988
660.9833, 1624.684
661.4655, 1622.857
661.9476, 1620.382
662.4297, 1616.578
662.9118, 1611.196
663.3939, 1606.653
663.8760, 1604.501
664.3582, 1602.551
664.8403, 1598.461
665.3224, 1592.364
665.8045, 1584.461
666.2866, 1572.419
