##NAMES=Potassic-magnesio-fluoro-arfvedsonite
##RRUFFID=R060915
##IDEAL CHEMISTRY=KNa_2_(Mg_4_Fe^3+^)Si_8_O_22_F_2_
##LOCALITY=Kipawa, Quebec, Canada
##OWNER=RRUFF
##SOURCE=Royal Ontario Museum
##DESCRIPTION=Dark blue-green amphibole with pronounced cleavage, associated with white albite and red eudialyte
##STATUS=The identification of this mineral has been confirmed by X-ray diffraction and chemical analysis
##URL=rruff.info/R060915
##MEASURED CHEMISTRY=(K_0.44_Na_0.41_[box]_0.15_)_Σ=1_(Na_1.79_Ca_0.21_)_Σ=2_(Mg_3.10_Fe^3+^_0.82_Fe^2+^_0.54_Ca_0.27_Mn_0.15_Al_0.11_Ti_0.01_)_Σ=5_Si_8.00_O_22_(F_1.52_(OH)_0.48_)_Σ=2_
159.1325, 1570.337
159.6146, 1571.359
160.0968, 1578.773
160.5789, 1599.924
161.0610, 1622.191
161.5431, 1633.147
162.0252, 1632.383
162.5073, 1633.165
162.9895, 1648.956
163.4716, 1682.050
163.9537, 1712.493
164.4358, 1736.147
164.9179, 1759.065
165.4000, 1788.438
165.8822, 1825.055
166.3643, 1860.817
166.8464, 1887.529
167.3285, 1904.665
167.8106, 1920.915
168.2927, 1940.984
168.7749, 1958.449
169.2570, 1964.706
169.7391, 1958.069
170.2212, 1948.667
170.7033, 1947.492
171.1854, 1954.247
171.6676, 1957.590
172.1497, 1954.927
172.6318, 1948.404
173.1139, 1940.627
173.5960, 1932.047
174.0781, 1921.249
174.5603, 1905.432
175.0424, 1885.121
175.5245, 1866.188
176.0066, 1850.395
176.4887, 1836.383
176.9708, 1821.439
177.4530, 1804.419
177.9351, 1790.077
178.4172, 1785.202
178.8993, 1788.222
179.3814, 1790.973
179.8635, 1793.710
180.3457, 1794.221
180.8278, 1787.150
181.3099, 1769.889
181.7920, 1752.832
182.2741, 1748.782
182.7562, 1754.936
183.2384, 1759.907
183.7205, 1757.136
184.2026, 1752.167
184.6847, 1755.527
185.1668, 1770.682
185.6489, 1786.116
186.1311, 1789.520
186.6132, 1783.564
187.0953, 1776.444
187.5774, 1764.132
188.0595, 1753.901
188.5416, 1761.879
189.0238, 1794.894
189.5059, 1828.774
189.9880, 1840.150
190.4701, 1834.354
190.9522, 1825.629
191.4343, 1813.992
191.9165, 1803.417
192.3986, 1800.937
192.8807, 1808.042
193.3628, 1820.257
193.8449, 1837.335
194.3270, 1857.350
194.8092, 1873.666
195.2913, 1881.570
195.7734, 1885.328
196.2555, 1891.823
196.7376, 1901.734
197.2197, 1913.579
197.7019, 1928.632
198.1840, 1945.242
198.6661, 1958.030
199.1482, 1964.036
199.6303, 1965.750
200.1124, 1967.331
200.5946, 1969.508
201.0767, 1969.448
201.5588, 1958.587
202.0409, 1943.072
202.5230, 1938.147
203.0051, 1958.785
203.4873, 1988.415
203.9694, 2001.333
204.4515, 1993.627
204.9336, 1983.627
205.4157, 1987.274
205.8978, 1998.416
206.3800, 2003.754
206.8621, 1993.338
207.3442, 1978.335
207.8263, 1975.622
208.3084, 1987.403
208.7905, 1997.738
209.2727, 1991.218
209.7548, 1975.926
210.2369, 1968.613
210.7190, 1978.408
211.2011, 1994.327
211.6832, 2003.458
212.1654, 2005.098
212.6475, 2006.952
213.1296, 2016.039
213.6117, 2028.054
214.0938, 2033.830
214.5760, 2025.226
215.0581, 2015.662
215.5402, 2019.192
216.0223, 2036.098
216.5044, 2056.434
216.9865, 2077.953
217.4687, 2098.470
217.9508, 2113.785
218.4329, 2119.834
218.9150, 2124.761
219.3971, 2139.594
219.8792, 2163.445
220.3614, 2176.547
220.8435, 2163.072
221.3256, 2135.240
221.8077, 2119.157
222.2898, 2118.400
222.7719, 2125.026
223.2541, 2137.892
223.7362, 2155.435
224.2183, 2166.465
224.7004, 2163.743
225.1825, 2153.216
225.6646, 2148.387
226.1468, 2153.334
226.6289, 2155.167
227.1110, 2142.001
227.5931, 2118.358
228.0752, 2101.954
228.5573, 2101.272
229.0395, 2108.882
229.5216, 2111.512
230.0037, 2108.718
230.4858, 2103.400
230.9679, 2095.003
231.4500, 2084.976
231.9322, 2077.785
232.4143, 2076.182
232.8964, 2075.138
233.3785, 2064.675
233.8606, 2042.682
234.3427, 2024.418
234.8249, 2017.429
235.3070, 2016.702
235.7891, 2014.329
236.2712, 2008.619
236.7533, 1999.759
237.2354, 1986.729
237.7176, 1968.799
238.1997, 1952.891
238.6818, 1939.211
239.1639, 1928.612
239.6460, 1922.536
240.1281, 1921.321
240.6103, 1923.340
241.0924, 1929.286
241.5745, 1940.834
242.0566, 1940.464
242.5387, 1913.010
243.0208, 1881.564
243.5030, 1870.148
243.9851, 1880.319
244.4672, 1892.172
244.9493, 1886.981
245.4314, 1862.328
245.9135, 1842.706
246.3957, 1826.352
246.8778, 1816.174
247.3599, 1818.359
247.8420, 1830.629
248.3241, 1841.096
248.8062, 1840.466
249.2884, 1828.828
249.7705, 1819.713
250.2526, 1816.994
250.7347, 1812.579
251.2168, 1799.738
251.6989, 1781.861
252.1811, 1769.018
252.6632, 1768.623
253.1453, 1777.803
253.6274, 1776.203
254.1095, 1755.523
254.5916, 1735.005
255.0738, 1718.044
255.5559, 1704.525
256.0380, 1694.364
256.5201, 1687.683
257.0022, 1683.447
257.4843, 1678.393
257.9665, 1671.127
258.4486, 1664.774
258.9307, 1663.063
259.4128, 1660.930
259.8949, 1651.813
260.3770, 1633.500
260.8592, 1610.595
261.3413, 1591.685
261.8234, 1580.281
262.3055, 1567.568
262.7876, 1551.768
263.2697, 1535.881
263.7519, 1522.266
264.2340, 1511.390
264.7161, 1502.146
265.1982, 1493.417
265.6803, 1485.728
266.1624, 1476.846
266.6446, 1463.985
267.1267, 1452.396
267.6088, 1445.638
268.0909, 1443.171
268.5730, 1441.767
269.0551, 1438.778
269.5373, 1434.292
270.0194, 1427.216
270.5015, 1416.241
270.9836, 1403.596
271.4657, 1389.218
271.9478, 1373.594
272.4300, 1357.127
272.9121, 1338.529
273.3942, 1319.464
273.8763, 1310.104
274.3584, 1315.313
274.8405, 1324.289
275.3227, 1338.728
275.8048, 1353.044
276.2869, 1358.267
276.7690, 1347.548
277.2511, 1330.261
277.7332, 1330.103
278.2154, 1357.095
278.6975, 1373.961
279.1796, 1355.317
279.6617, 1328.016
280.1438, 1319.269
280.6259, 1338.951
281.1081, 1364.643
281.5902, 1367.123
282.0723, 1344.105
282.5544, 1326.313
283.0365, 1323.411
283.5186, 1327.834
284.0008, 1334.706
284.4829, 1343.834
284.9650, 1350.799
285.4471, 1353.446
285.9292, 1351.532
286.4113, 1342.030
286.8935, 1318.540
287.3756, 1296.845
287.8577, 1292.602
288.3398, 1303.929
288.8219, 1318.599
289.3040, 1334.454
289.7862, 1349.753
290.2683, 1359.788
290.7504, 1362.580
291.2325, 1368.465
291.7146, 1391.194
292.1967, 1425.922
292.6789, 1448.669
293.1610, 1446.758
293.6431, 1438.155
294.1252, 1436.371
294.6073, 1441.602
295.0894, 1451.447
295.5716, 1466.053
296.0537, 1483.861
296.5358, 1497.388
297.0179, 1503.651
297.5000, 1509.306
297.9821, 1515.144
298.4643, 1522.277
298.9464, 1534.708
299.4285, 1555.179
299.9106, 1578.196
300.3927, 1590.352
300.8748, 1582.421
301.3570, 1578.666
301.8391, 1584.457
302.3212, 1594.113
302.8033, 1602.093
303.2854, 1606.936
303.7675, 1609.974
304.2497, 1612.820
304.7318, 1614.714
305.2139, 1618.861
305.6960, 1625.156
306.1781, 1633.461
306.6602, 1645.695
307.1424, 1660.451
307.6245, 1673.367
308.1066, 1680.540
308.5887, 1681.877
309.0708, 1681.901
309.5529, 1678.737
310.0351, 1676.145
310.5172, 1674.672
310.9993, 1674.470
311.4814, 1675.557
311.9635, 1677.884
312.4456, 1681.664
312.9278, 1688.423
313.4099, 1702.439
313.8920, 1711.026
314.3741, 1707.269
314.8562, 1699.956
315.3383, 1697.897
315.8205, 1703.777
316.3026, 1711.236
316.7847, 1710.104
317.2668, 1698.500
317.7489, 1694.300
318.2310, 1706.524
318.7132, 1722.261
319.1953, 1732.538
319.6774, 1737.253
320.1595, 1742.214
320.6416, 1752.238
321.1237, 1765.769
321.6059, 1777.879
322.0880, 1789.801
322.5701, 1796.682
323.0522, 1789.669
323.5343, 1774.071
324.0164, 1764.498
324.4986, 1768.427
324.9807, 1778.349
325.4628, 1787.171
325.9449, 1794.748
326.4270, 1799.612
326.9091, 1799.537
327.3913, 1796.580
327.8734, 1797.651
328.3555, 1808.479
328.8376, 1815.399
329.3197, 1807.269
329.8018, 1791.159
330.2840, 1783.883
330.7661, 1792.984
331.2482, 1806.957
331.7303, 1804.233
332.2124, 1773.659
332.6945, 1752.054
333.1767, 1749.017
333.6588, 1751.415
334.1409, 1748.096
334.6230, 1737.506
335.1051, 1724.011
335.5872, 1711.202
336.0694, 1698.635
336.5515, 1691.194
337.0336, 1689.723
337.5157, 1691.736
337.9979, 1700.630
338.4800, 1712.106
338.9621, 1717.483
339.4442, 1710.814
339.9263, 1695.899
340.4084, 1687.927
340.8906, 1691.357
341.3727, 1694.804
341.8548, 1694.603
342.3369, 1694.446
342.8190, 1699.563
343.3011, 1711.269
343.7833, 1722.238
344.2654, 1719.410
344.7475, 1699.569
345.2296, 1692.269
345.7117, 1710.634
346.1938, 1734.196
346.6760, 1750.807
347.1581, 1760.919
347.6402, 1770.003
348.1223, 1782.891
348.6044, 1797.200
349.0865, 1805.061
349.5687, 1803.846
350.0508, 1804.227
350.5329, 1816.984
351.0150, 1836.028
351.4971, 1848.592
351.9792, 1849.890
352.4614, 1846.678
352.9435, 1839.263
353.4256, 1830.142
353.9077, 1833.519
354.3898, 1859.481
354.8719, 1895.495
355.3541, 1913.420
355.8362, 1909.650
356.3183, 1902.688
356.8004, 1891.850
357.2825, 1882.165
357.7646, 1880.730
358.2468, 1888.564
358.7289, 1899.808
359.2110, 1908.666
359.6931, 1915.122
360.1752, 1918.580
360.6573, 1916.615
361.1395, 1914.543
361.6216, 1917.624
362.1037, 1922.437
362.5858, 1918.955
363.0679, 1899.387
363.5500, 1871.666
364.0322, 1868.428
364.5143, 1911.839
364.9964, 1945.726
365.4785, 1959.291
365.9606, 1962.941
366.4427, 1964.335
366.9249, 1965.798
367.4070, 1968.174
367.8891, 1973.647
368.3712, 1982.699
368.8533, 1987.644
369.3354, 1985.400
369.8176, 1981.415
370.2997, 1977.115
370.7818, 1973.518
371.2639, 1973.853
371.7460, 1982.339
372.2281, 1994.828
372.7103, 2003.489
373.1924, 2007.663
373.6745, 2012.920
374.1566, 2024.851
374.6387, 2038.798
375.1208, 2044.689
375.6030, 2038.604
376.0851, 2030.476
376.5672, 2023.632
377.0493, 2018.690
377.5314, 2018.405
378.0135, 2024.316
378.4957, 2030.614
378.9778, 2028.735
379.4599, 2015.051
379.9420, 2004.163
380.4241, 2001.202
380.9063, 1997.127
381.3884, 1985.197
381.8705, 1966.146
382.3526, 1943.820
382.8347, 1920.139
383.3168, 1896.185
383.7990, 1882.171
384.2811, 1893.880
384.7632, 1896.712
385.2453, 1876.067
385.7274, 1848.840
386.2095, 1835.501
386.6917, 1842.324
387.1738, 1855.197
387.6559, 1852.851
388.1380, 1832.093
388.6201, 1815.792
389.1022, 1810.443
389.5844, 1805.824
390.0665, 1793.001
390.5486, 1775.010
391.0307, 1764.015
391.5128, 1773.401
391.9949, 1792.204
392.4771, 1796.828
392.9592, 1785.402
393.4413, 1771.921
393.9234, 1761.970
394.4055, 1755.494
394.8876, 1752.296
395.3698, 1755.107
395.8519, 1755.922
396.3340, 1747.651
396.8161, 1734.899
397.2982, 1727.459
397.7803, 1728.211
398.2625, 1732.125
398.7446, 1733.227
399.2267, 1730.870
399.7088, 1727.541
400.1909, 1726.729
400.6730, 1721.882
401.1552, 1705.616
401.6373, 1681.827
402.1194, 1660.945
402.6015, 1649.807
403.0836, 1646.073
403.5657, 1640.418
404.0479, 1630.009
404.5300, 1622.189
405.0121, 1624.066
405.4942, 1624.749
405.9763, 1610.254
406.4584, 1579.820
406.9406, 1552.773
407.4227, 1555.862
407.9048, 1587.417
408.3869, 1598.269
408.8690, 1573.244
409.3511, 1547.719
409.8333, 1544.021
410.3154, 1555.139
410.7975, 1566.598
411.2796, 1574.339
411.7617, 1579.910
412.2438, 1584.713
412.7260, 1588.714
413.2081, 1591.919
413.6902, 1594.645
414.1723, 1596.063
414.6544, 1593.124
415.1365, 1583.152
415.6187, 1579.016
416.1008, 1578.993
416.5829, 1588.430
417.0650, 1624.677
417.5471, 1682.465
418.0292, 1722.966
418.5114, 1710.521
418.9935, 1648.742
419.4756, 1610.621
419.9577, 1616.804
420.4398, 1623.370
420.9219, 1626.128
421.4041, 1624.067
421.8862, 1614.436
422.3683, 1596.702
422.8504, 1578.196
423.3325, 1570.707
423.8146, 1576.265
424.2968, 1577.515
424.7789, 1573.989
425.2610, 1564.479
425.7431, 1545.157
426.2252, 1519.288
426.7073, 1496.631
427.1895, 1483.685
427.6716, 1474.809
428.1537, 1462.107
428.6358, 1445.588
429.1179, 1429.341
429.6000, 1414.958
430.0822, 1402.008
430.5643, 1389.273
431.0464, 1376.009
431.5285, 1364.959
432.0106, 1359.548
432.4927, 1355.254
432.9749, 1347.189
433.4570, 1334.783
433.9391, 1319.122
434.4212, 1299.519
434.9033, 1276.287
435.3854, 1267.324
435.8676, 1291.295
436.3497, 1307.888
436.8318, 1307.307
437.3139, 1295.872
437.7960, 1278.180
438.2781, 1256.436
438.7603, 1238.151
439.2424, 1236.658
439.7245, 1254.334
440.2066, 1266.230
440.6887, 1269.965
441.1708, 1267.695
441.6530, 1258.759
442.1351, 1245.223
442.6172, 1232.937
443.0993, 1225.769
443.5814, 1219.613
444.0635, 1206.325
444.5457, 1187.163
445.0278, 1176.896
445.5099, 1183.595
445.9920, 1199.255
446.4741, 1210.042
446.9562, 1217.154
447.4384, 1217.263
447.9205, 1202.933
448.4026, 1186.131
448.8847, 1177.414
449.3668, 1177.000
449.8489, 1179.966
450.3311, 1183.165
450.8132, 1186.206
451.2953, 1186.391
451.7774, 1184.044
452.2595, 1178.013
452.7416, 1160.807
453.2238, 1144.469
453.7059, 1142.150
454.1880, 1155.782
454.6701, 1172.408
455.1522, 1178.561
455.6343, 1175.370
456.1165, 1174.501
456.5986, 1178.063
457.0807, 1180.607
457.5628, 1176.982
458.0449, 1170.174
458.5270, 1165.740
459.0092, 1166.642
459.4913, 1167.303
459.9734, 1161.233
460.4555, 1152.002
460.9376, 1149.487
461.4197, 1156.962
461.9019, 1168.229
462.3840, 1175.682
462.8661, 1178.784
463.3482, 1179.763
463.8303, 1175.975
464.3124, 1172.872
464.7946, 1174.574
465.2767, 1178.701
465.7588, 1179.746
466.2409, 1174.762
466.7230, 1167.639
467.2051, 1167.722
467.6873, 1178.631
468.1694, 1184.299
468.6515, 1175.037
469.1336, 1166.521
469.6157, 1170.036
470.0978, 1183.195
470.5800, 1193.674
471.0621, 1192.900
471.5442, 1186.668
472.0263, 1182.413
472.5084, 1180.184
472.9905, 1183.801
473.4727, 1198.552
473.9548, 1216.516
474.4369, 1218.554
474.9190, 1198.692
475.4011, 1184.392
475.8832, 1181.637
476.3654, 1185.653
476.8475, 1195.630
477.3296, 1209.230
477.8117, 1218.892
478.2938, 1218.050
478.7759, 1209.599
479.2581, 1210.483
479.7402, 1228.550
480.2223, 1243.623
480.7044, 1254.996
481.1865, 1260.944
481.6686, 1257.010
482.1508, 1243.868
482.6329, 1232.016
483.1150, 1233.042
483.5971, 1242.387
484.0792, 1243.493
484.5613, 1234.395
485.0435, 1223.794
485.5256, 1217.436
486.0077, 1212.670
486.4898, 1202.256
486.9719, 1180.595
487.4540, 1163.588
487.9362, 1161.305
488.4183, 1165.465
488.9004, 1164.506
489.3825, 1156.774
489.8646, 1148.869
490.3467, 1146.932
490.8289, 1150.924
491.3110, 1155.510
491.7931, 1162.192
492.2752, 1167.634
492.7573, 1172.685
493.2394, 1175.560
493.7216, 1172.349
494.2037, 1162.490
494.6858, 1154.130
495.1679, 1157.246
495.6500, 1170.099
496.1321, 1180.303
496.6143, 1186.732
497.0964, 1191.252
497.5785, 1193.495
498.0606, 1194.867
498.5427, 1198.905
499.0248, 1207.990
499.5070, 1216.685
499.9891, 1222.615
500.4712, 1226.343
500.9533, 1227.624
501.4355, 1226.667
501.9176, 1227.038
502.3997, 1233.211
502.8818, 1245.768
503.3639, 1252.970
503.8460, 1248.985
504.3282, 1246.119
504.8103, 1246.117
505.2924, 1249.062
505.7745, 1255.626
506.2566, 1265.955
506.7387, 1277.169
507.2209, 1287.762
507.7030, 1297.173
508.1851, 1299.875
508.6672, 1292.580
509.1493, 1285.792
509.6314, 1285.878
510.1136, 1292.010
510.5957, 1302.447
511.0778, 1325.138
511.5599, 1340.903
512.0420, 1332.864
512.5241, 1314.922
513.0062, 1309.012
513.4883, 1319.673
513.9705, 1336.814
514.4526, 1350.178
514.9347, 1359.668
515.4168, 1369.398
515.8989, 1382.250
516.3810, 1391.633
516.8632, 1392.654
517.3453, 1391.230
517.8274, 1394.538
518.3095, 1404.301
518.7916, 1415.153
519.2737, 1421.893
519.7559, 1425.260
520.2380, 1428.025
520.7201, 1429.866
521.2022, 1433.305
521.6843, 1440.788
522.1664, 1451.092
522.6486, 1459.622
523.1307, 1464.765
523.6128, 1470.669
524.0949, 1478.063
524.5770, 1487.245
525.0591, 1501.317
525.5413, 1519.178
526.0234, 1531.730
526.5055, 1528.921
526.9876, 1513.176
527.4697, 1512.923
527.9518, 1542.905
528.4340, 1563.888
528.9161, 1556.769
529.3982, 1544.653
529.8803, 1551.562
530.3624, 1580.079
530.8445, 1606.638
531.3267, 1612.824
531.8088, 1606.754
532.2909, 1602.686
532.7730, 1601.289
533.2551, 1609.325
533.7372, 1635.426
534.2194, 1669.171
534.7015, 1679.056
535.1836, 1642.470
535.6657, 1627.114
536.1478, 1654.781
536.6299, 1694.408
537.1121, 1726.361
537.5942, 1747.958
538.0763, 1761.372
538.5584, 1767.219
539.0405, 1768.023
539.5226, 1771.179
540.0048, 1777.606
540.4869, 1783.011
540.9690, 1788.204
541.4511, 1790.323
541.9332, 1785.511
542.4153, 1774.744
542.8975, 1766.086
543.3796, 1764.555
543.8617, 1764.791
544.3438, 1761.480
544.8259, 1755.564
545.3080, 1750.513
545.7902, 1747.667
546.2723, 1746.543
546.7544, 1746.694
547.2365, 1749.336
547.7186, 1749.134
548.2007, 1744.469
548.6829, 1738.956
549.1650, 1733.469
549.6471, 1728.200
550.1292, 1722.498
550.6113, 1715.743
551.0934, 1711.498
551.5756, 1717.531
552.0577, 1731.527
552.5398, 1736.252
553.0219, 1727.751
553.5040, 1714.649
553.9861, 1701.198
554.4683, 1688.361
554.9504, 1680.152
555.4325, 1674.508
555.9146, 1676.079
556.3967, 1698.014
556.8788, 1721.832
557.3610, 1722.176
557.8431, 1697.405
558.3252, 1668.759
558.8073, 1654.997
559.2894, 1654.727
559.7715, 1659.112
560.2537, 1675.220
560.7358, 1680.608
561.2179, 1660.983
561.7000, 1632.384
562.1821, 1604.874
562.6642, 1579.546
563.1464, 1561.590
563.6285, 1559.725
564.1106, 1562.733
564.5927, 1555.748
565.0748, 1540.263
565.5569, 1527.794
566.0391, 1524.074
566.5212, 1524.991
567.0033, 1522.372
567.4854, 1514.993
567.9675, 1506.851
568.4496, 1498.465
568.9318, 1488.910
569.4139, 1474.129
569.8960, 1458.546
570.3781, 1451.388
570.8602, 1457.824
571.3423, 1467.918
571.8245, 1471.182
572.3066, 1467.858
572.7887, 1457.010
573.2708, 1435.839
573.7529, 1418.024
574.2350, 1417.448
574.7172, 1430.981
575.1993, 1433.019
575.6814, 1417.572
576.1635, 1398.958
576.6456, 1372.431
577.1277, 1349.464
577.6099, 1345.625
578.0920, 1360.025
578.5741, 1375.371
579.0562, 1377.944
579.5383, 1369.406
580.0204, 1355.699
580.5026, 1335.617
580.9847, 1314.332
581.4668, 1290.107
581.9489, 1268.415
582.4310, 1256.128
582.9132, 1253.123
583.3953, 1249.109
583.8774, 1244.190
584.3596, 1234.529
584.8417, 1210.059
585.3238, 1178.895
585.8059, 1162.926
586.2880, 1170.557
586.7701, 1185.787
587.2523, 1185.394
587.7344, 1167.877
588.2165, 1143.772
588.6986, 1100.196
589.1807, 1067.213
589.6628, 1060.608
590.1450, 1067.925
590.6271, 1074.459
591.1092, 1077.974
591.5913, 1074.670
592.0734, 1058.233
592.5555, 1034.870
593.0377, 1012.453
593.5198, 992.3145
594.0019, 979.6617
594.4840, 979.0087
594.9661, 985.6060
595.4482, 984.7350
595.9304, 966.0408
596.4125, 957.9990
596.8946, 972.0209
597.3767, 985.2584
597.8588, 981.1311
598.3409, 966.0284
598.8231, 958.4907
599.3052, 970.1924
599.7873, 984.3762
600.2694, 978.2286
600.7515, 956.5005
601.2336, 940.3672
601.7158, 934.1566
602.1979, 932.5183
602.6800, 931.5475
603.1621, 931.1933
603.6442, 930.6938
604.1263, 927.7164
604.6085, 927.6678
605.0906, 934.3143
605.5727, 942.2215
606.0548, 947.9905
606.5369, 950.4362
607.0190, 947.9083
607.5012, 936.3676
607.9833, 921.8630
608.4654, 920.2200
608.9475, 931.7363
609.4296, 937.7068
609.9117, 930.6673
610.3939, 920.2130
610.8760, 917.5823
611.3581, 923.4467
611.8402, 926.7663
612.3223, 925.9609
612.8044, 924.0827
613.2866, 920.7488
613.7687, 917.7617
614.2508, 917.9236
614.7329, 921.5551
615.2150, 925.7950
615.6971, 928.6633
616.1793, 929.7792
616.6614, 925.3965
617.1435, 913.3680
617.6256, 906.9709
618.1077, 914.3325
618.5898, 926.9738
619.0720, 931.5632
619.5541, 927.0958
620.0362, 926.1895
620.5183, 937.6176
621.0004, 946.6331
621.4825, 939.7195
621.9647, 924.8156
622.4468, 917.7267
622.9289, 923.7479
623.4110, 934.2319
623.8931, 936.9751
624.3752, 932.3271
624.8574, 937.5449
625.3395, 959.0939
625.8216, 972.8305
626.3037, 962.4821
626.7858, 940.5778
627.2679, 927.2274
627.7501, 923.8600
628.2322, 923.5305
628.7143, 926.5707
629.1964, 930.1736
629.6785, 932.5682
630.1606, 933.6506
630.6428, 932.8017
631.1249, 929.7544
631.6070, 927.6122
632.0891, 931.7806
632.5712, 942.6412
633.0533, 953.9029
633.5355, 967.8264
634.0176, 977.2825
634.4997, 975.7058
634.9818, 968.2227
635.4639, 962.9424
635.9460, 960.6122
636.4282, 959.4932
636.9103, 957.5262
637.3924, 957.7004
637.8745, 966.1198
638.3566, 979.1793
638.8387, 985.5252
639.3209, 979.2854
639.8030, 968.2144
640.2851, 967.1562
640.7672, 977.5192
641.2493, 981.4344
641.7314, 973.1068
642.2136, 967.4153
642.6957, 976.8555
643.1778, 993.3112
643.6599, 1001.747
644.1420, 997.7812
644.6241, 995.3414
645.1063, 1000.823
645.5884, 1008.626
646.0705, 1014.337
646.5526, 1017.670
647.0347, 1018.774
647.5168, 1017.542
647.9990, 1016.565
648.4811, 1022.470
648.9632, 1036.486
649.4453, 1040.761
649.9274, 1028.103
