##NAMES=Potassic-arfvedsonite
##RRUFFID=R050516
##IDEAL CHEMISTRY=KNa_2_Fe^2+^_4_Fe^3+^Si_8_O_22_(OH)_2_
##LOCALITY=Red Wine complex, Labrador, Newfoundland, Canada
##OWNER=RRUFF
##SOURCE=Frank Hawthorne
##DESCRIPTION=Black fragments, structure is published in Can Min 14 (1976) 346-356
##STATUS=The identification of this mineral is confirmed by single-crystal X-ray diffraction and chemical analysis.
##URL=rruff.info/R050516
##MEASURED CHEMISTRY=(K_0.72_Na_0.25_[box]_0.03_)Na_2.00_(Fe^2+^_3.75_Ca_0.15_Mg_0.10_)_Î£=4_(Fe^3+^_0.55_Al_0.30_Ti_0.10_Mn_0.05_)Si_8_O_22_(OH)_2_
90.92609, 0.0000000E+00
91.40820, 17.92971
91.89032, 18.23826
92.37244, 18.11821
92.85455, 17.62764
93.33667, 17.11440
93.81879, 16.83333
94.30090, 16.72865
94.78302, 16.63408
95.26514, 16.54682
95.74725, 16.42376
96.22937, 16.11895
96.71149, 15.61863
97.19360, 15.12342
97.67572, 14.81349
98.15784, 14.69247
98.63995, 14.67500
99.12207, 14.79381
99.60419, 15.01956
100.0863, 15.11992
100.5684, 15.11486
101.0505, 14.94269
101.5327, 14.29868
102.0148, 12.83871
102.4969, 12.10889
102.9790, 12.95813
103.4611, 15.89013
103.9432, 17.50341
104.4253, 17.28666
104.9075, 16.01562
105.3896, 15.23550
105.8717, 15.18620
106.3538, 15.29298
106.8359, 15.34052
107.3180, 15.25734
107.8002, 15.23298
108.2823, 15.16435
108.7644, 15.13360
109.2465, 15.44654
109.7286, 16.67481
110.2107, 17.83109
110.6929, 18.51031
111.1750, 18.19976
111.6571, 17.96075
112.1392, 17.62781
112.6213, 17.30166
113.1034, 17.70026
113.5856, 19.69416
114.0677, 22.06110
114.5498, 23.91221
115.0319, 24.40121
115.5140, 25.00133
115.9961, 26.14386
116.4783, 27.83542
116.9604, 29.72876
117.4425, 31.76131
117.9246, 33.93378
118.4067, 36.22675
118.8888, 38.67706
119.3710, 41.23589
119.8531, 43.81972
120.3352, 46.38950
120.8173, 49.22402
121.2994, 52.84248
121.7815, 56.80409
122.2637, 60.35693
122.7458, 62.89418
123.2279, 64.93534
123.7100, 66.98509
124.1921, 69.13343
124.6742, 71.13575
125.1564, 72.69191
125.6385, 73.89397
126.1206, 75.03835
126.6027, 75.64561
127.0848, 76.40604
127.5669, 78.70930
128.0491, 83.11091
128.5312, 88.39282
129.0133, 92.92329
129.4954, 96.73058
129.9775, 100.4551
130.4596, 104.6919
130.9418, 109.2325
131.4239, 113.3508
131.9060, 116.7062
132.3881, 119.7640
132.8702, 123.7666
133.3523, 128.8131
133.8345, 133.7402
134.3166, 137.3747
134.7987, 139.7561
135.2808, 142.2510
135.7629, 145.1826
136.2450, 148.5063
136.7272, 152.0529
137.2093, 155.9905
137.6914, 159.7015
138.1735, 162.5116
138.6556, 164.2966
139.1377, 165.7481
139.6199, 167.1784
140.1020, 168.5723
140.5841, 168.8156
141.0662, 167.4598
141.5483, 165.5540
142.0304, 164.3030
142.5126, 163.6135
142.9947, 163.7597
143.4768, 164.4628
143.9589, 165.5120
144.4410, 166.6269
144.9231, 167.7011
145.4053, 168.9081
145.8874, 170.5813
146.3695, 173.0365
146.8516, 175.5025
147.3337, 177.8167
147.8158, 180.3855
148.2980, 181.8873
148.7801, 181.4704
149.2622, 180.1647
149.7443, 180.0509
150.2264, 182.3041
150.7085, 184.6729
151.1907, 186.3422
151.6728, 186.5820
152.1549, 187.4146
152.6370, 189.2595
153.1191, 191.7382
153.6012, 193.8764
154.0834, 195.6052
154.5655, 196.9721
155.0476, 198.0417
155.5297, 199.1978
156.0118, 199.5177
156.4939, 198.3625
156.9761, 196.1592
157.4582, 194.3632
157.9403, 193.1252
158.4224, 192.4819
158.9045, 192.4684
159.3866, 193.5690
159.8688, 194.7372
160.3509, 195.4557
160.8330, 195.9051
161.3151, 196.9341
161.7972, 199.3051
162.2793, 202.1299
162.7615, 204.7408
163.2436, 207.7151
163.7257, 209.7286
164.2078, 209.7418
164.6899, 208.0241
165.1720, 206.4664
165.6541, 206.1619
166.1363, 206.3938
166.6184, 206.4548
167.1005, 206.0588
167.5826, 205.4575
168.0647, 204.7580
168.5468, 203.9646
169.0290, 203.1359
169.5111, 202.2393
169.9932, 201.3441
170.4753, 200.5392
170.9574, 200.5203
171.4395, 200.1982
171.9217, 198.2476
172.4038, 194.6774
172.8859, 191.3014
173.3680, 189.4626
173.8501, 188.7790
174.3322, 188.5405
174.8144, 188.9382
175.2965, 189.4082
175.7786, 189.1346
176.2607, 188.0826
176.7428, 186.9573
177.2249, 186.2141
177.7071, 185.8710
178.1892, 185.9560
178.6713, 187.1560
179.1534, 188.6031
179.6355, 188.6858
180.1176, 187.2519
180.5998, 185.4291
181.0819, 184.2295
181.5640, 183.5909
182.0461, 183.2551
182.5282, 183.1779
183.0103, 183.3112
183.4925, 183.5381
183.9746, 183.8417
184.4567, 184.2977
184.9388, 185.2479
185.4209, 186.5735
185.9030, 187.4894
186.3852, 187.4346
186.8673, 186.6510
187.3494, 185.9640
187.8315, 185.4238
188.3136, 184.9408
188.7957, 184.1662
189.2779, 183.1604
189.7600, 182.6702
190.2421, 183.5323
190.7242, 185.4194
191.2063, 186.3291
191.6884, 185.9536
192.1706, 185.1276
192.6527, 185.2090
193.1348, 186.2106
193.6169, 187.2471
194.0990, 187.9319
194.5811, 188.2679
195.0633, 188.3291
195.5454, 188.0329
196.0275, 187.6220
196.5096, 187.5589
196.9917, 187.8615
197.4738, 188.2854
197.9560, 188.9491
198.4381, 189.8584
198.9202, 189.8204
199.4023, 188.5181
199.8844, 186.6318
200.3665, 185.5782
200.8487, 185.4747
201.3308, 185.4712
201.8129, 185.1364
202.2950, 184.4471
202.7771, 183.7035
203.2592, 182.8006
203.7414, 181.9639
204.2235, 181.8890
204.7056, 182.8698
205.1877, 183.4743
205.6698, 182.6744
206.1519, 180.1142
206.6341, 178.5089
207.1162, 178.1480
207.5983, 178.6184
208.0804, 179.0628
208.5625, 179.4754
209.0446, 179.8634
209.5268, 180.3190
210.0089, 180.9641
210.4910, 181.0347
210.9731, 180.2802
211.4552, 179.1009
211.9373, 178.4884
212.4195, 178.6071
212.9016, 178.8800
213.3837, 178.9649
213.8658, 178.6776
214.3479, 178.9438
214.8300, 180.0119
215.3121, 181.5117
215.7943, 182.5022
216.2764, 182.7649
216.7585, 182.9558
217.2406, 183.4526
217.7227, 184.5132
218.2048, 184.9903
218.6870, 184.6808
219.1691, 183.8771
219.6512, 183.1914
220.1333, 182.4774
220.6154, 182.1483
221.0975, 182.5256
221.5797, 184.0938
222.0618, 184.9105
222.5439, 184.7023
223.0260, 183.8765
223.5081, 183.3226
223.9902, 183.1187
224.4724, 183.0676
224.9545, 183.0739
225.4366, 183.0637
225.9187, 183.3856
226.4008, 184.3461
226.8829, 185.5019
227.3651, 185.8392
227.8472, 184.8627
228.3293, 183.8976
228.8114, 183.5295
229.2935, 184.0981
229.7757, 184.1731
230.2578, 183.4539
230.7399, 182.3824
231.2220, 181.8490
231.7041, 182.1444
232.1862, 182.5132
232.6684, 182.6883
233.1505, 182.6087
233.6326, 182.5329
234.1147, 182.5170
234.5968, 182.4737
235.0789, 182.2190
235.5611, 181.5801
236.0432, 181.0166
236.5253, 180.7263
237.0074, 180.8645
237.4895, 180.7178
237.9716, 180.1681
238.4538, 179.4078
238.9359, 178.7463
239.4180, 178.2264
239.9001, 177.7261
240.3822, 177.2039
240.8643, 176.6548
241.3465, 176.1208
241.8286, 175.5406
242.3107, 175.0173
242.7928, 174.7831
243.2749, 175.3115
243.7570, 175.2905
244.2392, 174.1366
244.7213, 171.5239
245.2034, 169.7801
245.6855, 169.2806
246.1676, 169.3208
246.6497, 169.0457
247.1319, 168.4021
247.6140, 167.5354
248.0961, 166.3885
248.5782, 164.8963
249.0603, 163.7221
249.5424, 162.9337
250.0246, 162.3908
250.5067, 161.9741
250.9888, 161.8494
251.4709, 161.5164
251.9530, 160.7863
252.4351, 159.6218
252.9173, 158.6769
253.3994, 157.9254
253.8815, 157.3942
254.3636, 157.1739
254.8457, 157.5115
255.3278, 157.6051
255.8100, 157.2580
256.2921, 156.4776
256.7742, 155.6935
257.2563, 154.8524
257.7384, 154.0799
258.2205, 153.5275
258.7026, 153.3223
259.1848, 153.0094
259.6669, 152.5007
260.1490, 151.8171
260.6311, 151.1552
261.1132, 150.5024
261.5953, 149.8996
262.0775, 149.4235
262.5596, 149.1723
263.0417, 148.7226
263.5238, 147.8858
264.0059, 146.8090
264.4880, 146.2416
264.9702, 146.4194
265.4523, 146.6498
265.9344, 146.4912
266.4165, 145.8622
266.8986, 145.0861
267.3807, 144.0203
267.8629, 142.8787
268.3450, 142.4749
268.8271, 143.1416
269.3092, 143.7198
269.7913, 143.4693
270.2734, 142.1585
270.7556, 141.2029
271.2377, 140.7726
271.7198, 140.6434
272.2019, 140.2953
272.6840, 139.6999
273.1661, 138.9940
273.6483, 138.1319
274.1304, 137.0430
274.6125, 136.4389
275.0946, 136.4564
275.5767, 136.7948
276.0588, 136.9566
276.5410, 136.9284
277.0231, 136.7724
277.5052, 136.4532
277.9873, 135.9615
278.4694, 135.6141
278.9515, 135.4167
279.4337, 135.3421
279.9158, 135.4633
280.3979, 135.8245
280.8800, 135.9013
281.3621, 135.3778
281.8442, 134.3386
282.3264, 133.5996
282.8085, 133.1973
283.2906, 132.9795
283.7727, 132.7513
284.2548, 132.5125
284.7369, 132.4677
285.2191, 132.7648
285.7012, 133.2936
286.1833, 133.6566
286.6654, 133.8649
287.1475, 133.8379
287.6296, 133.2796
288.1118, 132.2692
288.5939, 131.6916
289.0760, 131.8732
289.5581, 132.5211
290.0402, 132.9285
290.5223, 133.0904
291.0045, 133.1742
291.4866, 133.1911
291.9687, 133.2027
292.4508, 133.5886
292.9329, 134.6020
293.4150, 135.7305
293.8972, 136.0258
294.3793, 135.5462
294.8614, 134.9554
295.3435, 134.5488
295.8256, 134.3694
296.3077, 134.6396
296.7899, 135.4965
297.2720, 136.4782
297.7541, 136.9576
298.2362, 137.0023
298.7183, 136.9186
299.2004, 136.7475
299.6826, 136.5874
300.1647, 136.6132
300.6468, 136.8386
301.1289, 137.2353
301.6110, 137.9671
302.0931, 138.8692
302.5753, 139.5317
303.0574, 139.5092
303.5395, 139.2431
304.0216, 139.3642
304.5037, 139.8955
304.9858, 140.4273
305.4680, 140.5141
305.9501, 140.3823
306.4322, 140.4199
306.9143, 140.8899
307.3964, 141.5044
307.8785, 142.1216
308.3607, 142.7142
308.8428, 143.0476
309.3249, 142.4778
309.8070, 141.7336
310.2891, 141.7217
310.7712, 143.1905
311.2534, 144.8219
311.7355, 145.7127
312.2176, 146.0003
312.6997, 146.1663
313.1818, 146.3241
313.6639, 146.5434
314.1461, 146.9128
314.6282, 147.5458
315.1103, 148.1135
315.5924, 148.4499
316.0745, 148.6018
316.5566, 148.6711
317.0388, 148.6036
317.5209, 148.5344
318.0030, 148.5977
318.4851, 148.8931
318.9672, 148.9764
319.4493, 148.3549
319.9315, 147.5254
320.4136, 147.1401
320.8957, 148.0869
321.3778, 148.8769
321.8599, 148.9002
322.3420, 148.0633
322.8242, 147.1991
323.3063, 146.1619
323.7884, 145.3243
324.2705, 145.0111
324.7526, 146.0949
325.2347, 146.8394
325.7169, 146.7504
326.1990, 145.8954
326.6811, 145.1309
327.1632, 144.6187
327.6453, 144.1422
328.1274, 143.5810
328.6096, 142.6327
329.0917, 141.9705
329.5738, 141.7374
330.0559, 141.8177
330.5380, 141.8403
331.0201, 141.7766
331.5023, 141.6872
331.9844, 141.6155
332.4665, 141.6543
332.9486, 141.4649
333.4307, 140.8936
333.9128, 140.1739
334.3950, 139.7011
334.8771, 139.4822
335.3592, 139.5011
335.8413, 139.8766
336.3234, 140.6950
336.8055, 140.9355
337.2877, 140.3021
337.7698, 139.4967
338.2519, 139.3352
338.7340, 139.9855
339.2161, 140.6270
339.6982, 141.0533
340.1803, 141.3211
340.6624, 141.7963
341.1446, 142.5544
341.6267, 143.2895
342.1088, 143.6903
342.5909, 143.7336
343.0730, 144.0746
343.5551, 144.8901
344.0373, 145.9417
344.5194, 146.6943
345.0015, 147.1501
345.4836, 147.3894
345.9657, 147.2739
346.4478, 146.9184
346.9300, 147.0242
347.4121, 147.7145
347.8942, 148.5743
348.3763, 149.0274
348.8584, 149.1366
349.3405, 149.2791
349.8227, 149.6743
350.3048, 150.2120
350.7869, 150.6786
351.2690, 151.0745
351.7511, 151.4000
352.2332, 151.8410
352.7154, 152.2031
353.1975, 152.0343
353.6796, 150.9302
354.1617, 149.5017
354.6438, 148.2989
355.1259, 147.3289
355.6081, 146.6409
356.0902, 146.5463
356.5723, 146.6259
357.0544, 146.3683
357.5365, 145.5717
358.0186, 144.6604
358.5008, 143.8822
358.9829, 143.2030
359.4650, 142.5505
359.9471, 142.0740
360.4292, 141.4828
360.9113, 140.4342
361.3935, 138.8009
361.8756, 137.5212
362.3577, 137.3479
362.8398, 137.6086
363.3219, 137.5390
363.8040, 136.6334
364.2862, 135.6594
364.7683, 134.7806
365.2504, 134.0102
365.7325, 133.4829
366.2146, 133.3691
366.6967, 133.4080
367.1789, 133.4375
367.6610, 133.7819
368.1431, 133.7096
368.6252, 132.8648
369.1073, 131.5213
369.5894, 130.5588
370.0716, 129.9669
370.5537, 129.7602
371.0358, 130.0396
371.5179, 131.0998
372.0000, 131.7409
372.4821, 131.8309
372.9643, 131.5861
373.4464, 131.2445
373.9285, 130.6653
374.4106, 130.3130
374.8927, 130.4518
375.3748, 131.0420
375.8570, 130.8734
376.3391, 129.5924
376.8212, 128.2851
377.3033, 127.9539
377.7854, 128.7526
378.2675, 129.3970
378.7497, 129.6898
379.2318, 129.7566
379.7139, 130.0110
380.1960, 130.4902
380.6781, 130.7054
381.1602, 130.3217
381.6424, 129.4027
382.1245, 128.2245
382.6066, 126.6969
383.0887, 125.3104
383.5708, 124.8169
384.0529, 125.0609
384.5351, 125.2688
385.0172, 125.1423
385.4993, 124.7807
385.9814, 124.2550
386.4635, 123.5809
386.9456, 123.0043
387.4278, 122.8151
387.9099, 122.8417
388.3920, 122.8385
388.8741, 122.8392
389.3562, 122.6197
389.8383, 121.7558
390.3205, 120.4704
390.8026, 119.4159
391.2847, 119.1927
391.7668, 119.1682
392.2489, 118.9036
392.7310, 118.3546
393.2132, 117.5062
393.6953, 115.9334
394.1774, 114.2014
394.6595, 112.9851
395.1416, 112.8510
395.6237, 112.9376
396.1059, 113.0973
396.5880, 113.2983
397.0701, 113.2010
397.5522, 112.5294
398.0343, 111.6800
398.5164, 110.8851
398.9986, 110.1013
399.4807, 109.4576
399.9628, 108.9790
400.4449, 108.6404
400.9270, 108.4046
401.4091, 108.5282
401.8913, 108.4199
402.3734, 107.7743
402.8555, 106.4079
403.3376, 105.5735
403.8197, 105.4758
404.3018, 105.6692
404.7840, 105.6743
405.2661, 105.4262
405.7482, 105.2149
406.2303, 105.1118
406.7124, 105.0814
407.1945, 104.9774
407.6767, 104.7974
408.1588, 104.5479
408.6409, 104.0182
409.1230, 103.2719
409.6051, 103.3987
410.0872, 104.7042
410.5694, 106.2642
411.0515, 106.4795
411.5336, 105.5670
412.0157, 104.8649
412.4978, 105.3257
412.9799, 106.2921
413.4621, 106.3201
413.9442, 105.4304
414.4263, 104.4785
414.9084, 104.0855
415.3905, 104.1075
415.8727, 104.3240
416.3548, 104.7456
416.8369, 105.2366
417.3190, 105.7087
417.8011, 106.1610
418.2832, 106.6000
418.7654, 107.2859
419.2475, 107.7743
419.7296, 107.6115
420.2117, 106.6215
420.6938, 105.8115
421.1759, 105.8277
421.6581, 106.1269
422.1402, 106.1332
422.6223, 105.2394
423.1044, 104.5349
423.5865, 104.2834
424.0686, 104.4613
424.5508, 104.8480
425.0329, 105.9222
425.5150, 106.7962
425.9971, 107.0267
426.4792, 106.1516
426.9613, 105.6166
427.4435, 105.7203
427.9256, 106.0043
428.4077, 105.6690
428.8898, 104.3251
429.3719, 103.2183
429.8540, 102.6878
430.3362, 102.7039
430.8183, 102.9147
431.3004, 103.4201
431.7825, 103.8292
432.2646, 103.8110
432.7467, 103.3667
433.2289, 102.6651
433.7110, 101.6015
434.1931, 100.5343
434.6752, 100.2046
435.1573, 100.5602
435.6394, 101.0384
436.1216, 101.5355
436.6036, 101.9156
437.0858, 101.7246
437.5679, 100.9383
438.0500, 100.1968
438.5321, 100.1847
439.0142, 100.5780
439.4963, 100.8195
439.9785, 100.6542
440.4606, 100.4118
440.9427, 100.4652
441.4248, 100.6804
441.9069, 100.6549
442.3890, 100.1115
442.8712, 99.32534
443.3533, 98.30266
443.8354, 96.88760
444.3175, 96.06385
444.7996, 96.61816
445.2817, 97.74362
445.7639, 98.60126
446.2460, 98.89368
446.7281, 99.07317
447.2102, 99.28724
447.6923, 99.48975
448.1744, 99.33585
448.6566, 98.35706
449.1387, 97.50991
449.6208, 97.28352
450.1029, 98.00564
450.5850, 98.32790
451.0671, 98.07730
451.5493, 97.60126
452.0314, 97.39864
452.5135, 97.52782
452.9956, 97.66619
453.4777, 97.63304
453.9598, 97.55851
454.4420, 98.26220
454.9241, 99.85623
455.4062, 101.1512
455.8883, 100.8560
456.3704, 99.39305
456.8525, 98.75520
457.3347, 99.27570
457.8168, 100.2253
458.2989, 100.9284
458.7810, 101.3551
459.2631, 101.3951
459.7452, 100.6272
460.2274, 99.67266
460.7095, 99.24777
461.1916, 99.29663
461.6737, 99.44387
462.1558, 99.51164
462.6379, 99.54503
463.1201, 99.60989
463.6022, 99.79851
464.0843, 99.82862
464.5664, 99.35460
465.0485, 98.69243
465.5306, 98.34677
466.0128, 98.76501
466.4949, 99.18677
466.9770, 99.39807
467.4591, 99.38668
467.9412, 99.30846
468.4233, 99.12656
468.9055, 98.91626
469.3876, 98.71420
469.8697, 98.50473
470.3518, 98.33008
470.8339, 98.13843
471.3160, 98.02232
471.7982, 98.19766
472.2803, 98.74577
472.7624, 99.26762
473.2445, 99.64677
473.7266, 99.88792
474.2087, 99.93542
474.6909, 99.75696
475.1730, 99.64900
475.6551, 100.0509
476.1372, 100.7814
476.6193, 101.0288
477.1014, 100.5818
477.5836, 99.90022
478.0657, 99.46239
478.5478, 99.24007
479.0299, 99.15812
479.5120, 99.34251
479.9941, 99.54143
480.4763, 99.36341
480.9584, 98.87008
481.4405, 98.69186
481.9226, 99.43587
482.4047, 100.4874
482.8868, 101.3964
483.3690, 102.1747
483.8511, 102.5750
484.3332, 102.1904
484.8153, 101.4504
485.2974, 101.0468
485.7795, 101.3947
486.2617, 101.7595
486.7438, 102.0043
487.2259, 102.1301
487.7080, 102.1520
488.1901, 101.8463
488.6722, 101.7268
489.1544, 102.2358
489.6365, 103.6890
490.1186, 104.4664
490.6007, 104.3307
491.0828, 103.7832
491.5649, 103.6327
492.0471, 103.9014
492.5292, 104.0895
493.0113, 104.0207
493.4934, 103.7636
493.9755, 103.4617
494.4576, 103.1198
494.9398, 102.8049
495.4219, 102.4029
495.9040, 102.1006
496.3861, 102.2793
496.8682, 103.0194
497.3503, 104.0312
497.8325, 105.5488
498.3146, 107.0846
498.7967, 107.9127
499.2788, 107.1561
499.7609, 106.1681
500.2430, 105.4842
500.7252, 105.1019
501.2073, 104.9710
501.6894, 105.2903
502.1715, 105.6918
502.6536, 105.9798
503.1357, 106.0262
503.6179, 106.2938
504.1000, 107.0748
504.5821, 107.8946
505.0642, 108.2555
505.5463, 107.9247
506.0284, 107.6229
506.5106, 107.3649
506.9927, 107.2346
507.4748, 107.6266
507.9569, 108.6690
508.4390, 109.6043
508.9211, 109.9709
509.4033, 109.8474
509.8854, 109.8832
510.3675, 110.0841
510.8496, 110.3935
511.3317, 110.8331
511.8138, 111.3415
512.2960, 111.7189
512.7781, 111.8583
513.2602, 112.0028
513.7423, 112.5123
514.2244, 113.2345
514.7065, 113.7975
515.1887, 113.8429
515.6708, 113.8129
516.1529, 113.9612
516.6350, 114.2994
517.1171, 114.7854
517.5992, 115.5607
518.0814, 116.3698
518.5635, 117.0382
519.0456, 117.4173
519.5277, 117.8697
520.0098, 118.4815
520.4919, 119.1433
520.9741, 119.6789
521.4562, 119.9829
521.9383, 120.3634
522.4204, 120.9134
522.9025, 121.5997
523.3846, 122.2158
523.8668, 122.7464
524.3489, 123.2493
524.8310, 123.7706
525.3131, 124.3052
525.7952, 124.7773
526.2773, 125.1754
526.7595, 125.5742
527.2416, 126.1514
527.7237, 126.7949
528.2058, 127.2114
528.6879, 127.2312
529.1700, 127.1036
529.6522, 126.9491
530.1343, 126.8297
530.6164, 126.9186
531.0985, 127.7686
531.5806, 128.4900
532.0627, 128.3115
532.5449, 127.1124
533.0270, 126.3595
533.5091, 126.8938
533.9912, 127.7486
534.4733, 128.2349
534.9554, 128.0208
535.4376, 127.8129
535.9197, 127.4576
536.4018, 127.1812
536.8839, 127.4693
537.3660, 128.6147
537.8481, 129.5311
538.3303, 129.8836
538.8124, 129.7752
539.2945, 129.7788
539.7766, 129.9111
540.2587, 130.0147
540.7408, 129.9435
541.2230, 129.7508
541.7051, 129.6701
542.1872, 129.7380
542.6693, 129.7585
543.1514, 129.4184
543.6335, 128.9121
544.1157, 128.5723
544.5978, 128.4200
545.0799, 128.5828
545.5620, 129.5551
546.0441, 130.9333
546.5262, 131.7186
547.0084, 130.9740
547.4905, 130.0677
547.9726, 129.4514
548.4547, 129.1477
548.9368, 129.3372
549.4189, 130.6554
549.9011, 131.9573
550.3832, 132.5716
550.8653, 132.1940
551.3474, 131.7924
551.8295, 131.2759
552.3116, 130.8597
552.7938, 130.9099
553.2759, 131.4650
553.7580, 132.1296
554.2401, 132.8768
554.7222, 133.6022
555.2043, 134.0195
555.6865, 134.1430
556.1686, 134.1612
556.6507, 134.3203
557.1328, 134.3964
557.6149, 133.8016
558.0970, 132.4989
558.5792, 131.6173
559.0613, 132.4400
559.5434, 133.8601
560.0255, 134.7348
560.5076, 134.4769
560.9897, 134.2167
561.4719, 134.3035
561.9540, 134.6229
562.4361, 134.9813
562.9182, 135.3044
563.4003, 135.7309
563.8824, 136.4140
564.3646, 137.2680
564.8467, 137.7131
565.3288, 137.6659
565.8109, 137.3725
566.2930, 136.7824
566.7751, 135.8646
567.2573, 135.7050
567.7394, 136.4251
568.2215, 137.3323
568.7036, 137.7240
569.1857, 137.6987
569.6678, 137.6063
570.1500, 137.4670
570.6321, 137.4161
571.1142, 137.7640
571.5963, 138.3210
572.0784, 138.6581
572.5605, 138.5291
573.0427, 138.1774
573.5248, 137.6041
574.0069, 136.8781
574.4890, 136.3698
574.9711, 136.4926
575.4532, 136.6313
575.9354, 136.4918
576.4175, 136.0244
576.8996, 135.3819
577.3817, 134.3310
577.8638, 133.3413
578.3459, 132.9198
578.8281, 133.2999
579.3102, 133.3045
579.7923, 132.7587
580.2744, 131.8510
580.7565, 130.8162
581.2386, 129.6735
581.7208, 128.7973
582.2029, 128.5089
582.6850, 128.4404
583.1671, 127.8183
