##NAMES=Potassic-arfvedsonite
##RRUFFID=R050516
##IDEAL CHEMISTRY=KNa_2_Fe^2+^_4_Fe^3+^Si_8_O_22_(OH)_2_
##LOCALITY=Red Wine complex, Labrador, Newfoundland, Canada
##OWNER=RRUFF
##SOURCE=Frank Hawthorne
##DESCRIPTION=Black fragments, structure is published in Can Min 14 (1976) 346-356
##STATUS=The identification of this mineral is confirmed by single-crystal X-ray diffraction and chemical analysis.
##URL=rruff.info/R050516
##MEASURED CHEMISTRY=(K_0.72_Na_0.25_[box]_0.03_)Na_2.00_(Fe^2+^_3.75_Ca_0.15_Mg_0.10_)_Î£=4_(Fe^3+^_0.55_Al_0.30_Ti_0.10_Mn_0.05_)Si_8_O_22_(OH)_2_
92.37695, 328.1172
92.85907, 326.0822
93.34119, 326.9072
93.82330, 328.0273
94.30542, 327.2143
94.78754, 323.9586
95.26965, 319.1094
95.75177, 314.1571
96.23389, 309.7396
96.71600, 305.5937
97.19812, 301.6721
97.68024, 298.0211
98.16235, 294.6437
98.64447, 291.5600
99.12659, 288.2463
99.60870, 285.5432
100.0908, 282.1278
100.5729, 278.8908
101.0551, 276.0186
101.5372, 273.5603
102.0193, 271.4118
102.5014, 269.2756
102.9835, 265.9532
103.4656, 263.8137
103.9478, 263.9733
104.4299, 265.5968
104.9120, 267.1779
105.3941, 267.5463
105.8762, 266.5948
106.3583, 265.1724
106.8405, 263.0935
107.3226, 260.7257
107.8047, 258.0718
108.2868, 255.1966
108.7689, 252.4666
109.2510, 250.2458
109.7332, 248.5279
110.2153, 247.5099
110.6974, 247.5682
111.1795, 248.2532
111.6616, 248.9525
112.1437, 249.5924
112.6259, 250.0935
113.1080, 250.2639
113.5901, 250.1324
114.0722, 250.1635
114.5543, 250.8926
115.0364, 252.2655
115.5185, 253.0759
116.0007, 252.3989
116.4828, 251.5621
116.9649, 251.5488
117.4470, 252.4742
117.9291, 253.4945
118.4112, 253.2977
118.8934, 251.0280
119.3755, 249.6417
119.8576, 249.7544
120.3397, 250.5673
120.8218, 251.6079
121.3039, 252.6720
121.7861, 253.6666
122.2682, 254.3332
122.7503, 254.7472
123.2324, 254.6536
123.7145, 253.6177
124.1966, 252.1213
124.6788, 250.8399
125.1609, 250.1588
125.6430, 250.0218
126.1251, 249.9417
126.6072, 250.0210
127.0893, 250.0428
127.5715, 249.7760
128.0536, 249.3028
128.5357, 249.0775
129.0178, 249.6408
129.4999, 250.7698
129.9821, 251.1475
130.4642, 249.9936
130.9463, 248.4554
131.4284, 247.8857
131.9105, 248.5494
132.3926, 249.1560
132.8748, 248.3693
133.3569, 246.8128
133.8390, 245.6076
134.3211, 245.5891
134.8032, 246.3480
135.2853, 246.4244
135.7674, 245.4088
136.2496, 244.2034
136.7317, 243.2194
137.2138, 242.4287
137.6959, 241.7457
138.1780, 241.2374
138.6601, 240.9755
139.1423, 240.1292
139.6244, 238.0502
140.1065, 235.9023
140.5886, 233.9555
141.0707, 232.3183
141.5528, 231.0632
142.0350, 230.3706
142.5171, 230.6997
142.9992, 230.3624
143.4813, 228.7055
143.9634, 226.9561
144.4455, 225.9482
144.9277, 225.8801
145.4098, 226.3189
145.8919, 226.5797
146.3740, 226.5533
146.8561, 226.5278
147.3382, 226.4756
147.8204, 226.4407
148.3025, 226.5154
148.7846, 226.7564
149.2667, 227.0293
149.7488, 227.0022
150.2309, 226.5829
150.7131, 226.2545
151.1952, 226.5034
151.6773, 227.0521
152.1594, 226.9012
152.6415, 225.2358
153.1236, 223.1116
153.6058, 222.2080
154.0879, 222.8350
154.5700, 223.7416
155.0521, 223.9910
155.5342, 223.5672
156.0163, 222.8741
156.4985, 221.6809
156.9806, 220.4712
157.4627, 219.7029
157.9448, 219.5376
158.4269, 219.5998
158.9090, 219.3409
159.3912, 218.6831
159.8733, 217.8721
160.3554, 216.7219
160.8375, 215.5791
161.3196, 214.8050
161.8017, 214.5821
162.2839, 214.6901
162.7660, 214.4576
163.2481, 213.4584
163.7302, 212.6808
164.2123, 212.5856
164.6944, 212.6970
165.1766, 212.3748
165.6587, 211.2262
166.1408, 209.4227
166.6229, 208.0704
167.1050, 207.5374
167.5871, 207.0509
168.0693, 206.4623
168.5514, 205.8051
169.0335, 205.1946
169.5156, 204.7355
169.9977, 204.3929
170.4798, 203.7094
170.9620, 202.2909
171.4441, 200.9797
171.9262, 200.2676
172.4083, 200.0566
172.8904, 199.8238
173.3725, 199.1447
173.8547, 198.0847
174.3368, 197.3162
174.8189, 196.9275
175.3010, 196.7596
175.7831, 196.7775
176.2652, 196.9864
176.7474, 197.1252
177.2295, 196.9156
177.7116, 196.4841
178.1937, 196.1440
178.6758, 195.9792
179.1579, 195.9339
179.6401, 195.9977
180.1222, 196.2712
180.6043, 196.3450
181.0864, 195.8593
181.5685, 195.0249
182.0506, 194.1477
182.5328, 193.2958
183.0149, 192.5101
183.4970, 191.9531
183.9791, 191.8419
184.4612, 191.6241
184.9433, 190.8756
185.4255, 189.8830
185.9076, 189.1713
186.3897, 189.2285
186.8718, 189.9405
187.3539, 190.0349
187.8360, 188.7905
188.3182, 187.6460
188.8003, 187.0131
189.2824, 186.8031
189.7645, 186.8021
190.2466, 186.8961
190.7287, 187.1025
191.2109, 186.9658
191.6930, 186.1439
192.1751, 185.3096
192.6572, 184.6390
193.1393, 184.1397
193.6214, 183.7515
194.1036, 183.4285
194.5857, 183.1695
195.0678, 182.9868
195.5499, 182.9022
196.0320, 182.8534
196.5141, 182.9655
196.9963, 183.1453
197.4784, 183.0163
197.9605, 182.1073
198.4426, 180.2320
198.9247, 179.3338
199.4068, 180.4070
199.8890, 181.6050
200.3711, 181.4676
200.8532, 179.9693
201.3353, 178.4561
201.8174, 178.2448
202.2995, 179.4421
202.7817, 180.2862
203.2638, 180.4283
203.7459, 180.3582
204.2280, 180.6096
204.7101, 181.2594
205.1922, 181.8261
205.6744, 181.8291
206.1565, 181.3546
206.6386, 180.7664
207.1207, 179.7264
207.6028, 178.7662
208.0849, 178.8510
208.5671, 180.3433
209.0492, 181.7721
209.5313, 181.6806
210.0134, 180.6291
210.4955, 179.7387
210.9776, 179.5063
211.4598, 179.7018
211.9419, 179.8559
212.4240, 180.0231
212.9061, 180.0053
213.3882, 179.6833
213.8703, 179.1201
214.3525, 178.3841
214.8346, 177.2781
215.3167, 176.0272
215.7988, 175.5891
216.2809, 176.6668
216.7630, 177.4697
217.2451, 176.9576
217.7273, 175.7090
218.2094, 174.7573
218.6915, 174.8543
219.1736, 175.7703
219.6557, 176.1005
220.1378, 175.3482
220.6200, 174.5725
221.1021, 174.0190
221.5842, 173.6741
222.0663, 173.5125
222.5484, 173.5600
223.0305, 173.7771
223.5127, 173.7774
223.9948, 173.3294
224.4769, 172.8911
224.9590, 172.6977
225.4411, 172.5674
225.9232, 172.1195
226.4054, 171.0301
226.8875, 169.4117
227.3696, 168.5445
227.8517, 169.4560
228.3338, 170.0722
228.8159, 169.8588
229.2981, 169.0414
229.7802, 168.0708
230.2623, 167.2351
230.7444, 166.5062
231.2265, 165.5801
231.7086, 163.9416
232.1908, 162.6773
232.6729, 162.2163
233.1550, 162.3247
233.6371, 162.5940
234.1192, 162.8240
234.6013, 162.9627
235.0835, 162.5725
235.5656, 161.1804
236.0477, 159.8831
236.5298, 158.8042
237.0119, 158.0586
237.4940, 157.9615
237.9762, 158.8184
238.4583, 160.3320
238.9404, 161.0852
239.4225, 160.7874
239.9046, 160.2296
240.3867, 159.6181
240.8689, 158.9436
241.3510, 158.1311
241.8331, 157.0573
242.3152, 155.9231
242.7973, 155.2915
243.2794, 155.1675
243.7616, 155.4151
244.2437, 156.4774
244.7258, 157.9592
245.2079, 158.5544
245.6900, 157.4454
246.1721, 155.4597
246.6543, 154.3335
247.1364, 154.3303
247.6185, 154.3676
248.1006, 153.8624
248.5827, 152.9436
249.0648, 152.0314
249.5470, 151.1673
250.0291, 150.5028
250.5112, 150.2760
250.9933, 150.5480
251.4754, 150.8213
251.9576, 150.9653
252.4397, 150.9232
252.9218, 150.3768
253.4039, 148.9540
253.8860, 147.3542
254.3681, 146.3575
254.8503, 145.9558
255.3324, 145.6810
255.8145, 145.1066
256.2966, 144.3619
256.7787, 144.2215
257.2608, 145.3645
257.7430, 146.4132
258.2251, 146.0179
258.7072, 144.3945
259.1893, 142.9711
259.6714, 142.9616
260.1535, 144.0529
260.6357, 144.4258
261.1178, 143.4573
261.5999, 142.3416
262.0820, 141.8437
262.5641, 141.8341
263.0462, 141.9025
263.5284, 141.8553
264.0105, 141.6880
264.4926, 141.3199
264.9747, 140.4634
265.4568, 139.8379
265.9389, 139.9561
266.4211, 140.5245
266.9032, 140.9395
267.3853, 140.7794
267.8674, 140.1855
268.3495, 139.7709
268.8316, 139.5985
269.3138, 139.5293
269.7959, 139.5195
270.2780, 139.5588
270.7601, 139.6538
271.2422, 139.8436
271.7243, 140.0557
272.2065, 140.0233
272.6886, 139.5797
273.1707, 139.1651
273.6528, 138.9463
274.1349, 138.8019
274.6170, 138.5800
275.0992, 138.2011
275.5813, 137.7525
276.0634, 137.4431
276.5455, 137.2655
277.0276, 137.2629
277.5097, 137.7233
277.9919, 138.1892
278.4740, 138.1592
278.9561, 137.4581
279.4382, 136.4547
279.9203, 135.8466
280.4024, 135.8371
280.8846, 135.8146
281.3667, 135.6904
281.8488, 135.5471
282.3309, 135.4805
282.8130, 135.5011
283.2951, 135.4984
283.7773, 135.2872
284.2594, 134.7504
284.7415, 134.2928
285.2236, 133.7763
285.7057, 133.4368
286.1878, 133.5190
286.6700, 133.9911
287.1521, 134.5536
287.6342, 134.8927
288.1163, 135.0122
288.5984, 134.8574
289.0805, 134.0302
289.5627, 133.3040
290.0448, 133.0843
290.5269, 133.3172
291.0090, 133.6900
291.4911, 133.9378
291.9732, 134.0595
292.4554, 134.0617
292.9375, 133.7274
293.4196, 133.4902
293.9017, 133.7289
294.3838, 134.1834
294.8659, 134.2659
295.3481, 133.5104
295.8302, 131.9970
296.3123, 130.8507
296.7944, 129.9747
297.2765, 129.6066
297.7586, 130.1947
298.2408, 131.2517
298.7229, 132.0888
299.2050, 132.3229
299.6871, 132.0670
300.1692, 131.7466
300.6513, 131.3702
301.1335, 130.9086
301.6156, 130.2642
302.0977, 129.5772
302.5798, 128.9787
303.0619, 128.5244
303.5440, 128.2054
304.0262, 127.9981
304.5083, 127.9085
304.9904, 127.9487
305.4725, 128.4664
305.9546, 128.8936
306.4367, 128.6344
306.9189, 127.6099
307.4010, 126.3579
307.8831, 125.6488
308.3652, 125.7569
308.8473, 125.7164
309.3294, 125.4578
309.8116, 125.1326
310.2937, 124.7282
310.7758, 124.3095
311.2579, 124.0860
311.7400, 124.3198
312.2221, 125.1348
312.7043, 125.5166
313.1864, 125.2288
313.6685, 124.8130
314.1506, 124.4150
314.6327, 124.0621
315.1148, 123.7530
315.5970, 123.4876
316.0791, 123.2663
316.5612, 123.0887
317.0433, 123.0557
317.5254, 122.9538
318.0075, 122.6242
318.4897, 122.2213
318.9718, 122.0498
319.4539, 122.2826
319.9360, 122.6962
320.4181, 122.5521
320.9002, 120.7559
321.3824, 119.7965
321.8645, 120.5567
322.3466, 121.8309
322.8287, 122.4242
323.3108, 121.9437
323.7929, 120.8484
324.2751, 119.8666
324.7572, 118.6883
325.2393, 118.3019
325.7214, 119.5189
326.2035, 120.8165
326.6856, 120.9954
327.1678, 120.0199
327.6499, 118.8310
328.1320, 118.4755
328.6141, 119.1640
329.0962, 119.6626
329.5783, 120.0812
330.0605, 120.2400
330.5426, 119.8173
331.0247, 119.0396
331.5068, 118.4900
331.9889, 118.6571
332.4710, 119.4742
332.9532, 119.8514
333.4353, 119.3435
333.9174, 118.8556
334.3995, 118.5449
334.8816, 118.3637
335.3637, 118.2130
335.8459, 118.0417
336.3280, 117.8973
336.8101, 117.9485
337.2922, 118.5450
337.7743, 118.8013
338.2564, 118.4041
338.7386, 117.8086
339.2206, 117.3933
339.7028, 117.2688
340.1849, 117.3312
340.6670, 117.4243
341.1491, 117.5195
341.6312, 117.7239
342.1133, 118.2931
342.5955, 118.7468
343.0776, 118.7452
343.5597, 118.3355
344.0418, 117.8283
344.5239, 117.4876
345.0060, 117.3128
345.4882, 117.3111
345.9703, 117.8946
346.4524, 118.2475
346.9345, 118.0504
347.4166, 117.4706
347.8987, 116.7727
348.3809, 116.0727
348.8630, 115.4579
349.3451, 115.3420
349.8272, 116.1870
350.3093, 116.8228
350.7914, 116.8699
351.2736, 116.6997
351.7557, 116.6989
352.2378, 117.0010
352.7199, 117.4226
353.2020, 117.7025
353.6841, 117.8974
354.1663, 117.7611
354.6484, 116.9678
355.1305, 116.0736
355.6126, 115.2564
356.0947, 114.6059
356.5768, 114.3018
357.0590, 114.7232
357.5411, 115.9159
358.0232, 116.5880
358.5053, 116.3513
358.9874, 115.9852
359.4695, 115.7535
359.9517, 115.6471
360.4338, 115.6233
360.9159, 115.6863
361.3980, 115.7949
361.8801, 115.7961
362.3622, 115.5919
362.8444, 115.5011
363.3265, 115.8320
363.8086, 116.2386
364.2907, 116.3276
364.7728, 115.9524
365.2549, 115.3985
365.7371, 114.9652
366.2192, 114.6367
366.7013, 114.5727
367.1834, 115.0936
367.6655, 115.6696
368.1476, 115.8954
368.6298, 115.7650
369.1119, 115.5467
369.5940, 115.4020
370.0761, 115.3254
370.5582, 115.3042
371.0403, 115.3745
371.5225, 115.4339
372.0046, 115.4020
372.4867, 115.3079
372.9688, 115.2192
373.4509, 115.2331
373.9330, 115.2227
374.4152, 114.9292
374.8973, 114.3094
375.3794, 113.7931
375.8615, 113.7821
376.3436, 113.9141
376.8257, 113.5674
377.3079, 112.4499
377.7900, 111.4432
378.2721, 111.3947
378.7542, 112.0630
379.2363, 112.3459
379.7184, 111.7958
380.2006, 110.9885
380.6827, 110.7688
381.1648, 111.1299
381.6469, 111.2024
382.1290, 110.5354
382.6111, 109.4875
383.0933, 108.5161
383.5754, 107.6666
384.0575, 106.9359
384.5396, 106.2928
385.0217, 105.7721
385.5038, 105.4690
385.9860, 105.6655
386.4681, 105.8310
386.9502, 105.5778
387.4323, 105.0068
387.9144, 104.4367
388.3965, 103.9756
388.8787, 103.6816
389.3608, 103.7814
389.8429, 104.5401
390.3250, 105.0663
390.8071, 105.0403
391.2892, 104.7455
391.7714, 104.5088
392.2535, 104.4060
392.7356, 104.3490
393.2177, 104.2659
393.6998, 104.1934
394.1819, 103.8252
394.6641, 102.7341
395.1462, 101.7540
395.6283, 101.3642
396.1104, 101.4987
396.5925, 101.9412
397.0746, 102.6200
397.5568, 103.3958
398.0389, 103.4853
398.5210, 102.1507
399.0031, 101.0011
399.4852, 100.1636
399.9673, 99.61659
400.4495, 99.32455
400.9316, 99.27651
401.4137, 99.47987
401.8958, 100.0557
402.3779, 101.4771
402.8600, 101.9391
403.3422, 100.6675
403.8243, 99.26772
404.3064, 98.37814
404.7885, 98.07059
405.2706, 98.28331
405.7527, 99.09032
406.2349, 100.3576
406.7170, 100.9529
407.1991, 100.4428
407.6812, 99.83241
408.1633, 99.24100
408.6454, 98.73790
409.1276, 98.37498
409.6097, 98.17080
410.0918, 98.15427
410.5739, 98.46103
411.0560, 99.19508
411.5381, 99.68751
412.0203, 99.60149
412.5024, 99.43417
412.9845, 99.52070
413.4666, 99.81391
413.9487, 100.0035
414.4308, 99.72995
414.9130, 99.16273
415.3951, 99.04231
415.8772, 99.63796
416.3593, 100.0161
416.8414, 99.22378
417.3235, 98.02354
417.8057, 97.50546
418.2878, 98.14040
418.7699, 99.10204
419.2520, 99.73372
419.7341, 100.0311
420.2162, 99.87299
420.6984, 98.95803
421.1805, 97.91701
421.6626, 97.66859
422.1447, 98.21118
422.6268, 98.57040
423.1089, 98.23451
423.5911, 97.58398
424.0732, 97.08578
424.5553, 96.79087
425.0374, 96.70274
425.5195, 96.93496
426.0016, 97.39905
426.4838, 97.51175
426.9659, 96.94675
427.4480, 96.38697
427.9301, 96.23218
428.4122, 96.30125
428.8943, 96.15600
429.3765, 95.60600
429.8586, 94.95126
430.3407, 94.73664
430.8228, 95.29000
431.3049, 95.57989
431.7870, 95.37127
432.2692, 95.06799
432.7513, 95.11599
433.2334, 95.41898
433.7155, 95.38537
434.1976, 94.46654
434.6797, 92.75573
435.1619, 91.60326
435.6440, 91.24592
436.1261, 91.20170
436.6082, 91.67855
437.0903, 92.31198
437.5724, 92.68983
438.0546, 92.66902
438.5367, 92.42475
439.0188, 92.22977
439.5009, 92.12180
439.9830, 91.93916
440.4651, 91.41309
440.9473, 91.04797
441.4294, 91.28572
441.9115, 91.90950
442.3936, 92.29914
442.8757, 91.99387
443.3578, 91.18199
443.8400, 90.44400
444.3221, 89.66708
444.8042, 89.24886
445.2863, 89.69747
445.7684, 90.37325
446.2505, 90.65223
446.7327, 90.38869
447.2148, 90.05002
447.6969, 90.15871
448.1790, 90.59437
448.6611, 90.62353
449.1432, 89.96436
449.6254, 89.21777
450.1075, 88.90636
450.5896, 88.92795
451.0717, 89.01099
451.5538, 89.23862
452.0359, 89.38618
452.5181, 89.17068
453.0002, 88.63841
453.4823, 88.06896
453.9644, 87.49025
454.4465, 87.06814
454.9286, 87.33215
455.4108, 88.64259
455.8929, 89.44103
456.3750, 88.88696
456.8571, 87.90693
457.3392, 87.55251
457.8214, 87.94738
458.3035, 88.51983
458.7856, 88.79238
459.2677, 88.76284
459.7498, 88.58936
460.2319, 87.89024
460.7141, 87.50568
461.1962, 87.91975
461.6783, 88.71462
462.1604, 89.31245
462.6425, 89.49147
463.1246, 89.41194
463.6068, 89.33540
464.0889, 89.27266
464.5710, 89.18481
465.0531, 89.11320
465.5352, 88.98115
466.0173, 88.68423
466.4995, 88.29104
466.9816, 87.97459
467.4637, 87.85683
467.9458, 87.88493
468.4279, 87.89825
468.9100, 87.90432
469.3922, 87.87570
469.8743, 87.68154
470.3564, 87.52443
470.8385, 87.64971
471.3206, 88.08520
471.8027, 88.45193
472.2849, 88.31145
472.7670, 87.83852
473.2491, 87.73445
473.7312, 88.14452
474.2133, 88.68256
474.6954, 89.07944
475.1776, 89.39822
475.6597, 89.80740
476.1418, 90.65907
476.6239, 91.20328
477.1060, 90.65901
477.5881, 89.36156
478.0703, 88.26357
478.5524, 87.67210
479.0345, 87.46008
479.5166, 87.52376
479.9987, 87.96190
480.4808, 88.20902
480.9630, 87.98057
481.4451, 87.76526
481.9272, 87.93598
482.4093, 88.42609
482.8914, 88.97963
483.3735, 89.46629
483.8557, 89.84205
484.3378, 89.94333
484.8199, 89.43664
485.3020, 89.12637
485.7841, 89.05801
486.2662, 89.17479
486.7484, 89.56191
487.2305, 90.14143
487.7126, 90.57814
488.1947, 90.47850
488.6768, 89.90181
489.1589, 89.83797
489.6411, 90.70660
490.1232, 91.42798
490.6053, 91.50774
491.0874, 91.35137
491.5695, 91.50536
492.0516, 92.15309
492.5338, 92.71339
493.0159, 92.41975
493.4980, 91.38842
493.9801, 90.72134
494.4622, 90.75417
494.9443, 90.83646
495.4265, 90.12099
495.9086, 88.98470
496.3907, 88.57258
496.8728, 89.70280
497.3549, 91.17699
497.8370, 92.12314
498.3192, 92.59041
498.8013, 92.68738
499.2834, 92.37943
499.7655, 91.92724
500.2476, 91.76399
500.7297, 91.98106
501.2119, 92.16224
501.6940, 92.28544
502.1761, 92.36245
502.6582, 92.33492
503.1403, 92.25916
503.6224, 92.30737
504.1045, 92.59797
504.5866, 93.05817
505.0688, 93.44333
505.5509, 93.93356
506.0330, 94.03634
506.5151, 93.25635
506.9972, 92.46387
507.4793, 92.45253
507.9615, 93.15514
508.4436, 93.79585
508.9257, 93.63895
509.4078, 92.85691
509.8899, 92.54546
510.3720, 92.91501
510.8542, 93.29662
511.3363, 93.35702
511.8184, 93.34805
512.3005, 93.53669
512.7827, 93.98373
513.2648, 94.48103
513.7469, 94.95469
514.2290, 95.35698
514.7111, 95.52065
515.1932, 95.39045
515.6754, 95.17812
516.1575, 94.98880
516.6396, 94.85007
517.1217, 94.85705
517.6038, 95.15640
518.0859, 95.43641
518.5681, 95.51231
519.0502, 95.48715
519.5323, 95.55743
520.0144, 95.77684
520.4965, 96.00877
520.9786, 96.08409
521.4608, 95.97659
521.9429, 95.86762
522.4250, 95.84126
522.9071, 95.72179
523.3892, 95.21257
523.8713, 94.63688
524.3535, 94.57533
524.8356, 95.25726
525.3177, 96.18612
525.7998, 96.43062
526.2819, 95.75766
526.7640, 95.58423
527.2462, 96.59577
527.7283, 97.49112
528.2104, 97.66260
528.6925, 97.24053
529.1746, 96.49426
529.6567, 95.26620
530.1389, 94.20261
530.6210, 94.48566
531.1031, 96.01476
531.5852, 96.95893
532.0673, 96.59351
532.5494, 95.76057
533.0316, 95.50349
533.5137, 95.77953
533.9958, 95.97546
534.4779, 95.89012
534.9600, 95.74482
535.4421, 95.64454
535.9243, 95.62638
536.4064, 95.81367
536.8885, 96.28748
537.3706, 96.88171
537.8527, 97.23655
538.3348, 97.20895
538.8170, 97.22088
539.2991, 97.31362
539.7812, 97.40579
540.2633, 97.49854
540.7454, 97.55122
541.2275, 97.47306
541.7097, 97.19693
542.1918, 96.79369
542.6739, 96.43085
543.1560, 96.08611
543.6381, 95.84680
544.1202, 95.63940
544.6024, 95.63008
545.0845, 96.17528
545.5666, 97.11721
546.0487, 97.64915
546.5308, 96.98405
547.0129, 95.84221
547.4951, 95.34305
547.9772, 95.47421
548.4593, 95.89848
548.9414, 96.65658
549.4235, 97.41752
549.9056, 97.47431
550.3878, 96.72462
550.8699, 96.09203
551.3520, 95.78872
551.8341, 95.63838
552.3162, 95.47144
552.7983, 95.31686
553.2805, 95.38825
553.7626, 95.85043
554.2447, 96.45666
554.7268, 96.44291
555.2089, 95.12130
555.6910, 94.41198
556.1732, 94.92396
556.6553, 95.49984
557.1374, 95.32361
557.6195, 94.55284
558.1016, 93.89829
558.5837, 93.83970
559.0659, 94.13018
559.5480, 94.16121
560.0301, 93.87090
560.5122, 93.69263
560.9943, 93.81200
561.4764, 94.03220
561.9586, 94.20711
562.4407, 94.32800
562.9228, 94.29787
563.4049, 94.02366
563.8870, 93.62113
564.3691, 93.15910
564.8513, 92.66460
565.3334, 92.22963
565.8155, 91.87827
566.2976, 91.66610
566.7797, 91.74012
567.2618, 92.41484
567.7440, 92.61400
568.2261, 91.93247
568.7082, 91.15195
569.1903, 90.62963
569.6724, 90.38643
570.1545, 90.41576
570.6367, 90.73764
571.1188, 91.11732
571.6009, 90.97517
572.0830, 90.09583
572.5651, 89.51760
573.0472, 89.59188
573.5294, 89.76175
574.0115, 89.80942
574.4936, 89.71080
574.9757, 89.42737
575.4578, 88.87660
575.9399, 88.22559
576.4221, 87.61467
576.9042, 87.05787
577.3863, 86.65266
577.8684, 86.46209
578.3505, 86.33133
578.8326, 86.07268
579.3148, 85.67337
579.7969, 85.34697
580.2790, 85.16926
580.7611, 84.99405
581.2432, 84.74489
581.7253, 84.45232
582.2075, 84.13742
582.6896, 83.81727
583.1717, 83.57038
583.6538, 83.53604
584.1359, 83.76216
584.6180, 83.85349
