##NAMES=Poudretteite
##RRUFFID=R080009
##IDEAL CHEMISTRY=KNa_2_(B_3_Si_12_)O_30_
##LOCALITY=Pyant-gyi mine, near Pein-pyit, Mogok, Sagaing Region, Mandalay Division, Burma
##OWNER=RRUFF
##SOURCE=William W. Pinch
##DESCRIPTION=Pale pink gem fragment
##STATUS=The identification of this mineral has been confirmed by single-crystal X-ray diffraction.
##URL=rruff.info/R080009
94.51007, 0.0000000E+00
94.99219, 437.5825
95.47430, 434.3694
95.95642, 436.2908
96.43854, 442.8739
96.92065, 453.0510
97.40277, 464.4161
97.88489, 478.5792
98.36700, 491.8958
98.84912, 509.6422
99.33124, 523.8755
99.81335, 529.0087
100.2955, 523.7849
100.7776, 509.6545
101.2597, 486.2929
101.7418, 449.5269
102.2239, 415.4739
102.7061, 386.8940
103.1882, 363.5091
103.6703, 344.8797
104.1524, 331.5417
104.6345, 322.5915
105.1166, 315.3698
105.5988, 310.0395
106.0809, 305.8620
106.5630, 302.5125
107.0451, 300.1192
107.5272, 297.4544
108.0093, 293.0701
108.4915, 288.4869
108.9736, 285.0943
109.4557, 283.4968
109.9378, 283.2244
110.4199, 283.0455
110.9020, 283.1159
111.3842, 283.0308
111.8663, 282.6567
112.3484, 282.0755
112.8305, 281.3537
113.3126, 280.4787
113.7947, 279.4229
114.2769, 279.0410
114.7590, 279.9933
115.2411, 280.9280
115.7232, 281.2792
116.2053, 281.1207
116.6874, 280.9352
117.1696, 281.2328
117.6517, 282.1891
118.1338, 282.8931
118.6159, 282.6333
119.0980, 282.5318
119.5801, 283.7422
120.0623, 286.5591
120.5444, 289.9490
121.0265, 292.2446
121.5086, 293.3550
121.9907, 295.3792
122.4728, 299.3371
122.9550, 304.6791
123.4371, 309.9678
123.9192, 314.5725
124.4013, 319.4112
124.8834, 325.6087
125.3655, 333.2581
125.8476, 340.7610
126.3298, 346.5832
126.8119, 350.5248
127.2940, 354.8137
127.7761, 361.7787
128.2582, 368.2281
128.7404, 371.8893
129.2225, 372.1537
129.7046, 370.6092
130.1867, 369.6944
130.6688, 368.8906
131.1509, 369.9789
131.6331, 373.5592
132.1152, 378.5707
132.5973, 384.0474
133.0794, 389.4878
133.5615, 395.1363
134.0436, 401.9323
134.5258, 411.8846
135.0079, 420.8663
135.4900, 427.9895
135.9721, 433.8000
136.4542, 439.0500
136.9363, 444.0028
137.4185, 448.8635
137.9006, 456.2842
138.3827, 466.4559
138.8648, 478.3740
139.3469, 491.5416
139.8290, 505.9498
140.3112, 522.0616
140.7933, 540.3398
141.2754, 560.9506
141.7575, 583.0064
142.2396, 605.8505
142.7217, 630.4020
143.2039, 656.7371
143.6860, 684.4283
144.1681, 716.3367
144.6502, 757.8068
145.1323, 805.3639
145.6144, 852.2849
146.0966, 905.8641
146.5787, 957.7726
147.0608, 981.3900
147.5429, 969.4979
148.0250, 933.0641
148.5071, 874.1200
148.9893, 798.5734
149.4714, 721.7186
149.9535, 653.3788
150.4356, 593.4297
150.9177, 543.6194
151.3998, 508.8754
151.8820, 481.8061
152.3641, 461.2112
152.8462, 446.4754
153.3283, 436.7781
153.8104, 431.6156
154.2925, 432.6730
154.7747, 433.9305
155.2568, 433.7376
155.7389, 434.8129
156.2210, 438.6977
156.7031, 445.7458
157.1852, 455.4658
157.6673, 467.0618
158.1495, 479.8542
158.6316, 496.4517
159.1137, 513.1349
159.5958, 535.0906
160.0779, 569.2855
160.5600, 618.5629
161.0422, 676.5729
161.5243, 733.7748
162.0064, 802.9069
162.4885, 844.8322
162.9706, 845.9388
163.4527, 814.0768
163.9349, 760.3297
164.4170, 681.7746
164.8991, 593.4892
165.3812, 522.1034
165.8633, 467.3988
166.3454, 424.3413
166.8276, 392.1876
167.3097, 370.3035
167.7918, 352.9665
168.2739, 339.1533
168.7560, 328.7872
169.2381, 321.6979
169.7203, 318.4247
170.2024, 316.8416
170.6845, 314.9912
171.1666, 312.8397
171.6487, 310.6661
172.1308, 308.5775
172.6130, 306.5070
173.0951, 304.1445
173.5772, 301.2670
174.0593, 298.7482
174.5414, 298.3685
175.0235, 301.3748
175.5057, 303.9820
175.9878, 305.5326
176.4699, 306.3232
176.9520, 306.4011
177.4341, 305.7271
177.9162, 304.7585
178.3984, 304.9367
178.8805, 307.2112
179.3626, 309.5460
179.8447, 311.0752
180.3268, 312.6727
180.8089, 315.6149
181.2911, 320.6718
181.7732, 327.3799
182.2553, 333.1688
182.7374, 337.2741
183.2195, 341.3311
183.7016, 346.3748
184.1838, 351.5555
184.6659, 355.5855
185.1480, 357.8563
185.6301, 358.2030
186.1122, 354.8271
186.5943, 346.2880
187.0765, 336.5278
187.5586, 325.9156
188.0407, 315.0686
188.5228, 305.5936
189.0049, 298.6201
189.4870, 294.1796
189.9692, 290.7352
190.4513, 289.3758
190.9334, 288.0542
191.4155, 284.9613
191.8976, 280.2422
192.3797, 276.1298
192.8619, 274.1962
193.3440, 274.0859
193.8261, 274.5432
194.3082, 276.6898
194.7903, 278.5298
195.2724, 277.2767
195.7546, 272.4052
196.2367, 267.9212
196.7188, 266.7918
197.2009, 267.5985
197.6830, 268.7580
198.1651, 270.0331
198.6473, 271.2437
199.1294, 272.2220
199.6115, 273.2137
200.0936, 273.2691
200.5757, 271.1422
201.0578, 268.1134
201.5400, 265.7763
202.0221, 264.9665
202.5042, 265.2759
202.9863, 265.5927
203.4684, 266.1907
203.9505, 266.2828
204.4327, 265.3472
204.9148, 263.8984
205.3969, 262.5495
205.8790, 261.5405
206.3611, 260.9742
206.8432, 261.4305
207.3254, 264.3046
207.8075, 266.5706
208.2896, 267.1789
208.7717, 266.8400
209.2538, 266.6519
209.7359, 267.3443
210.2181, 268.7799
210.7002, 269.6527
211.1823, 269.9163
211.6644, 269.6092
212.1465, 268.3047
212.6286, 266.4546
213.1108, 264.7429
213.5929, 263.6024
214.0750, 263.0240
214.5571, 262.9319
215.0392, 263.8157
215.5213, 264.6157
216.0035, 265.1723
216.4856, 265.4225
216.9677, 265.2711
217.4498, 264.6339
217.9319, 263.5383
218.4140, 262.2792
218.8962, 259.6883
219.3783, 258.1292
219.8604, 259.3548
220.3425, 262.5511
220.8246, 265.2578
221.3067, 265.8940
221.7889, 264.6429
222.2710, 263.3598
222.7531, 261.0262
223.2352, 259.5924
223.7173, 260.4747
224.1994, 263.3146
224.6816, 266.4289
225.1637, 269.0513
225.6458, 271.0399
226.1279, 272.2718
226.6100, 272.2668
227.0921, 272.0003
227.5743, 272.1503
228.0564, 272.6698
228.5385, 273.0574
229.0206, 272.9023
229.5027, 272.4932
229.9848, 272.4874
230.4670, 273.1811
230.9491, 273.9384
231.4312, 274.2080
231.9133, 273.9890
232.3954, 273.6211
232.8775, 272.9935
233.3597, 272.4489
233.8418, 272.5019
234.3239, 273.4331
234.8060, 274.5292
235.2881, 274.9160
235.7702, 274.4913
236.2524, 274.3198
236.7345, 274.8759
237.2166, 275.8669
237.6987, 277.2250
238.1808, 279.0527
238.6629, 280.7350
239.1451, 281.1761
239.6272, 279.9802
240.1093, 279.6644
240.5914, 281.8790
241.0735, 284.7712
241.5556, 287.2166
242.0378, 288.9625
242.5199, 290.1227
243.0020, 290.3527
243.4841, 288.8762
243.9662, 289.4300
244.4483, 294.8723
244.9305, 301.1115
245.4126, 305.5696
245.8947, 307.6698
246.3768, 308.6281
246.8589, 309.7908
247.3410, 310.7990
247.8232, 313.2113
248.3053, 318.3700
248.7874, 324.0251
249.2695, 329.0679
249.7516, 333.2063
250.2337, 336.5565
250.7159, 339.2764
251.1980, 341.4149
251.6801, 342.7129
252.1622, 344.4398
252.6443, 344.5273
253.1264, 341.1356
253.6086, 334.3920
254.0907, 326.2768
254.5728, 319.2670
255.0549, 313.8431
255.5370, 307.9819
256.0191, 301.1326
256.5013, 294.3534
256.9834, 287.7246
257.4655, 281.5802
257.9476, 276.8469
258.4297, 274.7839
258.9118, 276.3456
259.3940, 276.6702
259.8761, 275.2402
260.3582, 273.3083
260.8403, 271.2028
261.3224, 269.1275
261.8045, 267.3867
262.2867, 266.3054
262.7688, 266.0045
263.2509, 265.5873
263.7330, 264.9760
264.2151, 264.3517
264.6972, 263.4778
265.1794, 262.5844
265.6615, 262.4109
266.1436, 263.7269
266.6257, 266.6511
267.1078, 268.2646
267.5899, 267.6990
268.0721, 267.0042
268.5542, 266.9854
269.0363, 267.5789
269.5184, 268.3975
270.0005, 269.1646
270.4826, 269.9083
270.9648, 270.9977
271.4469, 272.9630
271.9290, 274.6459
272.4111, 274.8900
272.8932, 274.4538
273.3753, 275.2849
273.8575, 278.6796
274.3396, 284.0842
274.8217, 288.6384
275.3038, 291.5838
275.7859, 294.7325
276.2680, 299.4013
276.7502, 304.6514
277.2323, 308.6554
277.7144, 310.6048
278.1965, 310.6996
278.6786, 309.2970
279.1607, 306.8596
279.6429, 302.7469
280.1250, 295.4260
280.6071, 286.4651
281.0892, 278.6056
281.5713, 272.7327
282.0534, 268.5717
282.5356, 266.0377
283.0177, 265.5932
283.4998, 264.7699
283.9819, 262.2999
284.4640, 259.2563
284.9461, 257.4909
285.4283, 257.6471
285.9104, 258.4142
286.3925, 257.6695
286.8746, 255.1956
287.3567, 253.6711
287.8388, 254.1416
288.3210, 255.6565
288.8031, 257.2044
289.2852, 258.6747
289.7673, 259.6702
290.2494, 259.3170
290.7315, 257.7228
291.2137, 257.1555
291.6958, 258.9466
292.1779, 261.3994
292.6600, 262.5732
293.1421, 262.2590
293.6242, 261.6216
294.1064, 261.2493
294.5885, 261.3136
295.0706, 262.5073
295.5527, 265.6795
296.0348, 269.4715
296.5169, 272.7472
296.9991, 275.4916
297.4812, 278.2645
297.9633, 281.8150
298.4454, 285.4816
298.9275, 287.4488
299.4096, 286.4474
299.8918, 285.0886
300.3739, 285.2654
300.8560, 286.7956
301.3381, 288.3745
301.8202, 289.3592
302.3023, 290.0983
302.7845, 291.2224
303.2666, 292.5908
303.7487, 294.6265
304.2308, 298.0381
304.7129, 302.4108
305.1950, 306.1390
305.6772, 308.2758
306.1593, 310.1984
306.6414, 313.9012
307.1235, 319.4359
307.6056, 325.5579
308.0877, 331.9368
308.5699, 338.5233
309.0520, 345.0435
309.5341, 351.1675
310.0162, 357.9287
310.4983, 366.3312
310.9804, 376.2217
311.4626, 387.7030
311.9447, 400.5895
312.4268, 415.1465
312.9089, 431.9815
313.3910, 451.3817
313.8731, 472.5030
314.3553, 497.0262
314.8374, 523.1617
315.3195, 545.0098
315.8016, 564.4409
316.2837, 577.2716
316.7658, 579.0594
317.2480, 569.6879
317.7301, 550.4023
318.2122, 517.5665
318.6943, 475.6948
319.1764, 436.3598
319.6585, 398.7436
320.1407, 365.9464
320.6228, 341.3906
321.1049, 324.4451
321.5870, 310.2419
322.0691, 297.0110
322.5512, 285.5454
323.0334, 276.8345
323.5155, 271.3807
323.9976, 267.0578
324.4797, 262.8592
324.9618, 258.9377
325.4439, 255.8701
325.9261, 253.9585
326.4082, 252.6676
326.8903, 251.3778
327.3724, 250.1061
327.8545, 248.6865
328.3366, 246.5013
328.8188, 244.2858
329.3009, 243.5468
329.7830, 244.7721
330.2651, 246.2143
330.7472, 246.0438
331.2293, 244.5441
331.7115, 243.1670
332.1936, 242.0735
332.6757, 241.2790
333.1578, 240.8094
333.6399, 240.6659
334.1220, 240.8508
334.6042, 241.6855
335.0863, 242.8070
335.5684, 242.9615
336.0505, 241.4068
336.5326, 239.5996
337.0147, 238.5941
337.4969, 238.1950
337.9790, 237.4161
338.4611, 235.5669
338.9432, 233.3445
339.4253, 232.2363
339.9074, 232.3546
340.3896, 233.0614
340.8717, 234.8083
341.3538, 236.8944
341.8359, 237.7459
342.3180, 236.7480
342.8001, 235.0376
343.2823, 234.0646
343.7644, 233.7708
344.2465, 234.2062
344.7286, 236.1165
345.2107, 238.3907
345.6928, 239.8622
346.1750, 240.3711
346.6571, 240.1812
347.1392, 239.3160
347.6213, 237.7635
348.1034, 236.8091
348.5855, 236.5503
349.0677, 236.8022
349.5498, 237.6452
350.0319, 238.9632
350.5140, 240.3146
350.9961, 241.5040
351.4782, 242.4872
351.9604, 243.0572
352.4425, 242.6689
352.9246, 242.5969
353.4067, 243.6770
353.8888, 245.2745
354.3709, 246.0735
354.8531, 245.4887
355.3352, 244.4144
355.8173, 244.6305
356.2994, 246.9082
356.7815, 248.6847
357.2636, 249.6065
357.7458, 250.0094
358.2279, 249.8596
358.7100, 249.2707
359.1921, 249.1505
359.6742, 250.6443
360.1563, 254.1920
360.6385, 256.6840
361.1206, 257.3887
361.6027, 257.8197
362.0848, 258.5724
362.5669, 259.7348
363.0490, 261.3561
363.5312, 263.5033
364.0133, 266.1086
364.4954, 268.6004
364.9775, 271.0575
365.4596, 273.3099
365.9417, 275.3740
366.4239, 277.1881
366.9060, 278.9003
367.3881, 280.5689
367.8702, 281.6118
368.3523, 280.7499
368.8344, 276.1508
369.3166, 272.5593
369.7987, 270.4229
370.2808, 268.8748
370.7629, 267.6514
371.2450, 266.4984
371.7271, 264.7245
372.2093, 261.3333
372.6914, 255.7332
373.1735, 252.2623
373.6556, 253.3158
374.1377, 253.9780
374.6198, 251.9532
375.1020, 248.1849
375.5841, 244.8289
376.0662, 243.2487
376.5483, 243.1941
377.0304, 243.5732
377.5125, 245.0383
377.9947, 245.9781
378.4768, 246.4992
378.9589, 246.2486
379.4410, 244.2120
379.9231, 240.1857
380.4052, 236.2320
380.8874, 236.0284
381.3695, 241.2030
381.8516, 244.7783
382.3337, 244.9176
382.8158, 244.4228
383.2979, 244.6128
383.7801, 245.5227
384.2622, 246.5265
384.7443, 247.1205
385.2264, 247.3312
385.7085, 247.5312
386.1906, 247.8741
386.6728, 247.9628
387.1549, 247.5845
387.6370, 246.9043
388.1191, 246.1334
388.6012, 245.2997
389.0833, 244.5415
389.5655, 244.1194
390.0476, 244.0700
390.5297, 244.1972
391.0118, 244.8908
391.4939, 245.4519
391.9760, 245.1148
392.4582, 243.7582
392.9403, 242.4332
393.4224, 242.2153
393.9045, 242.8773
394.3866, 242.8368
394.8687, 241.2012
395.3509, 239.9823
395.8330, 241.3881
396.3151, 244.6284
396.7972, 247.1173
397.2793, 247.3481
397.7614, 246.5196
398.2436, 246.3866
398.7257, 247.0256
399.2078, 247.5143
399.6899, 247.0730
400.1720, 246.2468
400.6541, 246.1036
401.1363, 246.5218
401.6184, 247.9409
402.1005, 252.0453
402.5826, 257.4529
403.0647, 259.8966
403.5468, 257.5123
404.0290, 253.2906
404.5111, 251.6539
404.9932, 252.8313
405.4753, 253.2704
405.9574, 251.9740
406.4395, 249.8843
406.9217, 247.5892
407.4038, 245.2366
407.8859, 243.4191
408.3680, 242.7024
408.8501, 242.9948
409.3322, 243.0009
409.8144, 242.6377
410.2965, 242.1316
410.7786, 241.3998
411.2607, 240.6092
411.7428, 240.0739
412.2249, 239.9341
412.7071, 239.9813
413.1892, 239.7791
413.6713, 238.8252
414.1534, 238.5815
414.6355, 239.7314
415.1176, 241.0583
415.5998, 241.5266
416.0819, 241.1844
416.5640, 240.8797
417.0461, 241.3820
417.5282, 242.6977
418.0103, 244.1137
418.4925, 245.5849
418.9746, 247.2095
419.4567, 249.2863
419.9388, 251.4497
420.4209, 253.1274
420.9030, 254.0378
421.3852, 254.6409
421.8673, 255.8106
422.3494, 257.5385
422.8315, 259.8969
423.3136, 263.1901
423.7957, 266.8668
424.2779, 270.7767
424.7600, 274.8271
425.2421, 278.7639
425.7242, 282.4449
426.2063, 285.8653
426.6884, 288.8626
427.1706, 291.5732
427.6527, 293.5720
428.1348, 294.8951
428.6169, 295.4445
429.0990, 294.9327
429.5811, 293.0469
430.0633, 290.6087
430.5454, 288.5392
431.0275, 286.8399
431.5096, 285.2988
431.9917, 282.9014
432.4738, 281.7452
432.9560, 284.3858
433.4381, 290.7718
433.9202, 296.7934
434.4023, 300.5219
434.8844, 302.6001
435.3665, 303.9445
435.8487, 304.5939
436.3308, 304.9785
436.8129, 305.5469
437.2950, 306.0694
437.7771, 305.7654
438.2592, 304.7644
438.7414, 302.7660
439.2235, 299.2497
439.7056, 294.6141
440.1877, 289.5898
440.6698, 284.2933
441.1519, 279.3766
441.6341, 275.9568
442.1162, 274.6433
442.5983, 273.1236
443.0804, 270.9222
443.5625, 268.7618
444.0446, 266.8582
444.5268, 265.4216
445.0089, 265.0937
445.4910, 266.5781
445.9731, 269.5613
446.4552, 270.9958
446.9373, 269.1674
447.4195, 267.8353
447.9016, 267.8380
448.3837, 268.4717
448.8658, 268.9647
449.3479, 269.0751
449.8300, 269.0373
450.3122, 269.1545
450.7943, 269.4117
451.2764, 269.8826
451.7585, 271.3475
452.2406, 272.2841
452.7227, 271.2917
453.2049, 269.2970
453.6870, 268.4050
454.1691, 270.0076
454.6512, 273.2999
455.1333, 276.3810
455.6154, 279.3270
456.0976, 281.8120
456.5797, 283.8374
457.0618, 285.2775
457.5439, 285.7199
458.0260, 285.1166
458.5081, 284.6356
458.9903, 285.7562
459.4724, 287.7953
459.9545, 287.9090
460.4366, 285.0602
460.9187, 282.3436
461.4008, 282.6367
461.8830, 284.8768
462.3651, 286.5074
462.8472, 286.1659
463.3293, 286.0776
463.8114, 287.7888
464.2935, 291.1358
464.7756, 295.6323
465.2578, 301.2097
465.7399, 307.5599
466.2220, 313.9039
466.7041, 319.7753
467.1862, 327.5821
467.6683, 337.4535
468.1505, 349.4896
468.6326, 363.7372
469.1147, 380.2307
469.5968, 398.7310
470.0789, 419.0704
470.5610, 441.4362
471.0432, 466.7345
471.5253, 497.5478
472.0074, 528.4058
472.4895, 560.4454
472.9716, 591.3810
473.4537, 618.9097
473.9359, 642.4411
474.4180, 662.7653
474.9001, 679.9874
475.3822, 693.3705
475.8643, 708.9448
476.3464, 726.7692
476.8286, 746.9523
477.3107, 768.9934
477.7928, 793.4889
478.2749, 821.4647
478.7570, 853.4923
479.2391, 888.8215
479.7213, 925.6434
480.2034, 963.8115
480.6855, 1005.759
481.1676, 1051.845
481.6497, 1103.124
482.1318, 1159.624
482.6140, 1221.573
483.0961, 1288.822
483.5782, 1360.238
484.0603, 1437.537
484.5424, 1523.103
485.0245, 1616.771
485.5067, 1722.081
485.9888, 1842.119
486.4709, 1975.210
486.9530, 2115.644
487.4351, 2270.741
487.9172, 2416.990
488.3994, 2558.805
488.8815, 2682.791
489.3636, 2777.575
489.8457, 2839.289
490.3278, 2849.829
490.8099, 2789.782
491.2921, 2658.245
491.7742, 2488.942
492.2563, 2259.745
492.7384, 2026.161
493.2205, 1793.053
493.7026, 1570.635
494.1848, 1370.155
494.6669, 1196.598
495.1490, 1049.187
495.6311, 927.4360
496.1132, 835.7425
496.5953, 757.0819
497.0775, 696.0335
497.5596, 643.6869
498.0417, 597.6857
498.5238, 557.7509
499.0059, 524.5094
499.4880, 498.9628
499.9702, 478.5645
500.4523, 458.2958
500.9344, 437.7809
501.4165, 419.4698
501.8986, 404.6341
502.3807, 392.0285
502.8629, 380.7049
503.3450, 370.6469
503.8271, 361.3170
504.3092, 352.2987
504.7913, 343.9185
505.2734, 336.9904
505.7556, 331.5460
506.2377, 326.3045
506.7198, 320.5256
507.2019, 314.3988
507.6840, 308.4710
508.1661, 302.2673
508.6483, 297.1016
509.1304, 293.8760
509.6125, 291.5746
510.0946, 289.0455
510.5767, 286.1188
511.0588, 283.4361
511.5410, 281.7696
512.0231, 281.1023
512.5052, 278.7642
512.9873, 272.0262
513.4694, 266.8424
513.9515, 265.5562
514.4337, 265.8671
514.9158, 265.2639
515.3979, 262.9857
515.8800, 259.8206
516.3621, 256.4288
516.8442, 252.7035
517.3264, 249.9965
517.8085, 248.5733
518.2906, 247.8942
518.7727, 248.4318
519.2548, 249.3028
519.7369, 248.8544
520.2191, 246.1049
520.7012, 242.9622
521.1833, 241.7600
521.6654, 242.2313
522.1475, 242.1737
522.6296, 240.7814
523.1118, 239.3101
523.5939, 239.3036
524.0760, 240.5585
524.5581, 241.7706
525.0402, 242.8455
525.5223, 243.7057
526.0045, 244.0768
526.4866, 244.1687
526.9687, 244.5695
527.4508, 245.5302
527.9329, 246.6204
528.4150, 248.0855
528.8972, 250.0017
529.3793, 252.0701
529.8614, 254.6792
530.3435, 257.7218
530.8256, 260.8649
531.3077, 264.4024
531.7899, 269.0602
532.2720, 275.3065
532.7541, 282.7634
533.2362, 290.5891
533.7183, 299.1121
534.2004, 307.1608
534.6826, 314.1960
535.1647, 320.9811
535.6468, 328.3104
536.1289, 335.9304
536.6110, 342.3969
537.0931, 345.8513
537.5753, 348.0965
538.0574, 352.2289
538.5395, 358.2653
539.0216, 365.9916
539.5037, 375.8881
539.9858, 386.9704
540.4680, 397.2968
540.9501, 406.5525
541.4322, 417.3033
541.9143, 430.8123
542.3964, 445.8045
542.8785, 460.8970
543.3607, 476.1219
543.8428, 492.4837
544.3249, 510.5402
544.8070, 530.1893
545.2891, 551.0231
545.7712, 571.4277
546.2534, 595.5791
546.7355, 625.8915
547.2176, 657.9620
547.6997, 688.6955
548.1818, 717.7738
548.6639, 747.4547
549.1461, 780.3676
549.6282, 814.1954
550.1103, 839.3421
550.5924, 856.8224
551.0745, 863.1790
551.5566, 855.3430
552.0388, 836.6549
552.5209, 806.8304
553.0030, 766.2877
553.4851, 722.4479
553.9672, 677.6786
554.4493, 632.7374
554.9315, 587.4252
555.4136, 541.7223
555.8957, 500.5164
556.3778, 466.9263
556.8599, 439.5152
557.3420, 415.2907
557.8242, 394.1787
558.3063, 375.5657
558.7884, 360.0327
559.2705, 346.5488
559.7526, 334.5579
560.2347, 323.8930
560.7169, 314.1879
561.1990, 305.2134
561.6811, 297.0753
562.1632, 290.4552
562.6453, 286.5568
563.1274, 282.1774
563.6096, 276.5200
564.0917, 270.6953
564.5738, 265.2655
565.0559, 260.3742
565.5380, 256.1640
566.0201, 252.8406
566.5023, 250.2126
566.9844, 248.0025
567.4665, 246.3574
567.9486, 244.0681
568.4307, 240.2253
568.9128, 235.9003
569.3950, 232.4297
569.8771, 229.7928
570.3592, 227.9397
570.8413, 227.5181
571.3234, 227.4082
571.8055, 226.3309
572.2877, 224.4065
572.7698, 222.5676
573.2519, 221.3058
573.7340, 220.5369
574.2161, 220.0975
574.6982, 220.5204
575.1804, 220.3139
575.6625, 219.0912
576.1446, 217.6158
576.6267, 216.1275
577.1088, 214.7875
577.5909, 213.8013
578.0731, 213.2896
578.5552, 213.2248
579.0373, 213.7690
579.5194, 215.1607
580.0015, 215.8250
580.4836, 215.3052
580.9658, 214.0693
581.4479, 212.1414
581.9300, 209.7630
582.4121, 207.9584
582.8942, 207.4266
583.3763, 207.3584
583.8585, 206.9297
584.3406, 206.2829
584.8227, 205.9891
585.3048, 206.2775
585.7869, 206.8258
586.2690, 207.2092
586.7512, 207.3967
587.2333, 207.5535
587.7154, 208.1327
588.1975, 208.2071
588.6796, 206.5867
589.1617, 204.4379
589.6439, 203.7592
590.1260, 205.2413
590.6081, 207.5663
591.0902, 208.8815
591.5723, 209.0766
