##NAMES=Poudretteite
##RRUFFID=R080009
##IDEAL CHEMISTRY=KNa_2_(B_3_Si_12_)O_30_
##LOCALITY=Pyant-gyi mine, near Pein-pyit, Mogok, Sagaing Region, Mandalay Division, Burma
##OWNER=RRUFF
##SOURCE=William W. Pinch
##DESCRIPTION=Pale pink gem fragment
##STATUS=The identification of this mineral has been confirmed by single-crystal X-ray diffraction.
##URL=rruff.info/R080009
93.40625, 68.32515
93.88837, 65.39959
94.37048, 68.02052
94.85260, 74.72552
95.33472, 81.29049
95.81683, 86.68999
96.29895, 91.47908
96.78107, 96.50143
97.26318, 101.6855
97.74530, 108.1474
98.22742, 117.6866
98.70953, 130.2737
99.19165, 142.2148
99.67377, 152.3205
100.1559, 160.6801
100.6380, 168.3822
101.1201, 175.0984
101.6022, 181.6744
102.0844, 189.5549
102.5665, 199.5104
103.0486, 208.2818
103.5307, 214.1037
104.0128, 215.9792
104.4949, 219.6083
104.9771, 225.4296
105.4592, 232.8147
105.9413, 240.5275
106.4234, 248.2999
106.9055, 256.6735
107.3876, 265.8558
107.8698, 276.9193
108.3519, 287.2473
108.8340, 295.9403
109.3161, 303.6287
109.7982, 313.2541
110.2803, 326.4301
110.7624, 340.5910
111.2446, 354.3661
111.7267, 367.6292
112.2088, 380.8118
112.6909, 394.2569
113.1730, 408.0306
113.6551, 420.9647
114.1373, 432.2276
114.6194, 442.8529
115.1015, 453.8117
115.5836, 467.3445
116.0657, 479.3565
116.5478, 487.4843
117.0300, 491.3998
117.5121, 496.0835
117.9942, 503.9535
118.4763, 513.4869
118.9584, 522.6810
119.4405, 531.0217
119.9227, 538.7759
120.4048, 545.2972
120.8869, 549.8228
121.3690, 556.3761
121.8511, 568.2723
122.3332, 584.0367
122.8154, 600.5649
123.2975, 615.9635
123.7796, 631.3817
124.2617, 648.0793
124.7438, 665.7379
125.2259, 685.2307
125.7081, 707.1292
126.1902, 731.0943
126.6723, 753.7103
127.1544, 778.8829
127.6365, 805.9156
128.1186, 828.9081
128.6008, 845.6584
129.0829, 858.8846
129.5650, 871.9476
130.0471, 884.8498
130.5292, 897.3763
131.0113, 909.3527
131.4935, 920.8176
131.9756, 931.8822
132.4577, 942.1782
132.9398, 952.1868
133.4219, 962.7128
133.9040, 973.7175
134.3862, 985.7267
134.8683, 999.5078
135.3504, 1015.068
135.8325, 1030.551
136.3146, 1044.736
136.7967, 1057.938
137.2789, 1073.630
137.7610, 1091.598
138.2431, 1112.661
138.7252, 1138.713
139.2073, 1170.434
139.6894, 1204.038
140.1716, 1236.561
140.6537, 1266.656
141.1358, 1307.645
141.6179, 1359.737
142.1000, 1422.955
142.5821, 1496.358
143.0643, 1580.641
143.5464, 1674.593
144.0285, 1781.765
144.5106, 1911.373
144.9927, 2031.415
145.4748, 2155.368
145.9570, 2267.014
146.4391, 2312.818
146.9212, 2278.924
147.4033, 2198.057
147.8854, 2081.172
148.3675, 1896.811
148.8497, 1726.246
149.3318, 1569.321
149.8139, 1428.072
150.2960, 1314.020
150.7781, 1236.250
151.2602, 1179.392
151.7424, 1136.007
152.2245, 1113.417
152.7066, 1095.466
153.1887, 1081.386
153.6708, 1071.298
154.1529, 1065.467
154.6351, 1063.494
155.1172, 1065.879
155.5993, 1072.888
156.0814, 1085.798
156.5635, 1102.062
157.0456, 1119.157
157.5278, 1136.948
158.0099, 1164.281
158.4920, 1200.293
158.9741, 1247.837
159.4562, 1309.492
159.9383, 1391.057
160.4205, 1481.963
160.9026, 1596.859
161.3847, 1740.133
161.8668, 1834.322
162.3489, 1849.518
162.8310, 1802.742
163.3132, 1713.742
163.7953, 1543.250
164.2774, 1367.926
164.7595, 1223.925
165.2416, 1114.609
165.7237, 1029.710
166.2059, 969.8252
166.6880, 929.1656
167.1701, 898.9701
167.6522, 880.2327
168.1343, 867.5350
168.6164, 857.6071
169.0986, 850.3140
169.5807, 844.5284
170.0628, 840.3469
170.5449, 837.1125
171.0270, 833.5770
171.5091, 827.6650
171.9913, 821.8794
172.4734, 818.8861
172.9555, 819.5036
173.4376, 821.3817
173.9197, 823.1878
174.4018, 824.7719
174.8840, 825.6844
175.3661, 825.3537
175.8482, 824.2950
176.3303, 822.6756
176.8124, 819.7366
177.2945, 818.1616
177.7767, 821.7982
178.2588, 829.7039
178.7409, 837.8390
179.2230, 842.7592
179.7051, 846.3500
180.1872, 852.0388
180.6694, 860.6178
181.1515, 871.2009
181.6336, 883.3734
182.1157, 896.8676
182.5978, 909.7233
183.0799, 921.3556
183.5621, 931.4849
184.0442, 939.7174
184.5263, 947.4152
185.0084, 951.4127
185.4905, 944.7793
185.9726, 927.8177
186.4547, 907.8787
186.9369, 889.4901
187.4190, 872.4972
187.9011, 857.0804
188.3832, 843.1948
188.8653, 830.7579
189.3474, 819.0862
189.8296, 808.0277
190.3117, 799.1178
190.7938, 794.3391
191.2759, 793.2643
191.7580, 792.6381
192.2401, 791.9922
192.7223, 791.1757
193.2044, 789.5737
193.6865, 787.0799
194.1686, 784.4759
194.6507, 782.3440
195.1328, 780.6734
195.6150, 779.5920
196.0971, 779.2747
196.5792, 779.5303
197.0613, 779.5656
197.5434, 779.2925
198.0255, 779.1666
198.5077, 780.1473
198.9898, 782.3398
199.4719, 782.9249
199.9540, 780.5298
200.4361, 775.9439
200.9182, 773.7176
201.4004, 774.3981
201.8825, 775.8385
202.3646, 775.3353
202.8467, 772.4434
203.3288, 771.6469
203.8109, 775.1965
204.2931, 782.2205
204.7752, 784.4391
205.2573, 780.3371
205.7394, 775.0732
206.2215, 774.5736
206.7036, 779.9196
207.1858, 784.2805
207.6679, 785.6453
208.1500, 784.2627
208.6321, 784.1519
209.1142, 785.8238
209.5963, 787.8065
210.0785, 788.3219
210.5606, 786.8612
211.0427, 785.8668
211.5248, 786.1910
212.0069, 787.7853
212.4890, 788.1169
212.9712, 786.5182
213.4533, 784.6957
213.9354, 784.7504
214.4175, 787.3900
214.8996, 789.7633
215.3817, 791.1521
215.8639, 791.5415
216.3460, 792.0950
216.8281, 792.9183
217.3102, 793.7566
217.7923, 794.4308
218.2744, 795.1916
218.7566, 795.0271
219.2387, 792.9698
219.7208, 788.8795
220.2029, 788.3157
220.6850, 793.1857
221.1671, 799.3176
221.6493, 801.7120
222.1314, 798.4257
222.6135, 795.8840
223.0956, 795.5291
223.5777, 797.4047
224.0598, 800.4084
224.5420, 805.5837
225.0241, 810.7686
225.5062, 813.4675
225.9883, 812.2139
226.4704, 811.5738
226.9525, 812.9683
227.4347, 816.5711
227.9168, 818.1283
228.3989, 816.4811
228.8810, 814.0270
229.3631, 813.4640
229.8452, 816.2010
230.3274, 817.9662
230.8095, 817.2992
231.2916, 814.0364
231.7737, 813.1533
232.2558, 815.8683
232.7379, 819.6993
233.2201, 822.0531
233.7022, 822.0121
234.1843, 822.3285
234.6664, 823.8494
235.1485, 826.5939
235.6306, 827.9700
236.1128, 826.9927
236.5949, 825.6663
237.0770, 825.7750
237.5591, 827.2843
238.0412, 830.3845
238.5233, 836.0344
239.0055, 844.2513
239.4876, 849.2459
239.9697, 849.1310
240.4518, 847.9015
240.9339, 849.2316
241.4160, 854.7833
241.8982, 859.5684
242.3803, 862.2788
242.8624, 863.0259
243.3445, 865.3117
243.8266, 869.4432
244.3087, 874.7686
244.7909, 880.8495
245.2730, 888.0220
245.7551, 895.3177
246.2372, 903.0197
246.7193, 910.9730
247.2014, 916.7960
247.6836, 918.3664
248.1657, 920.2837
248.6478, 926.5942
249.1299, 940.8732
249.6120, 951.8659
250.0941, 958.1260
250.5762, 959.9039
251.0584, 958.9562
251.5405, 954.5200
252.0226, 948.4147
252.5047, 942.0881
252.9868, 936.2543
253.4689, 928.3912
253.9511, 917.5192
254.4332, 904.2404
254.9153, 892.0414
255.3974, 880.5060
255.8795, 870.7291
256.3617, 863.6847
256.8438, 860.0306
257.3259, 857.2813
257.8080, 855.2958
258.2901, 854.0832
258.7722, 853.7295
259.2544, 854.6520
259.7365, 855.7135
260.2186, 856.2853
260.7007, 856.1974
261.1828, 856.0074
261.6649, 855.4995
262.1471, 854.9601
262.6292, 855.5488
263.1113, 858.1381
263.5934, 860.0266
264.0755, 859.3406
264.5576, 854.7521
265.0398, 852.4346
265.5219, 853.1487
266.0040, 855.7960
266.4861, 857.7047
266.9682, 858.2503
267.4503, 859.6212
267.9325, 863.1429
268.4146, 869.5835
268.8967, 874.8457
269.3788, 878.6219
269.8609, 881.5526
270.3430, 884.5399
270.8252, 887.3514
271.3073, 890.9946
271.7894, 896.1580
272.2715, 903.0635
272.7536, 908.8231
273.2357, 912.7911
273.7179, 916.4467
274.2000, 922.3229
274.6821, 930.8281
275.1642, 939.5454
275.6463, 947.4977
276.1284, 954.6744
276.6106, 963.6708
277.0927, 976.1989
277.5748, 986.8231
278.0569, 988.1429
278.5390, 979.4912
279.0211, 967.1772
279.5032, 951.7156
279.9854, 933.8466
280.4675, 918.9125
280.9496, 907.0830
281.4317, 897.6400
281.9138, 889.9956
282.3959, 884.1654
282.8781, 879.9173
283.3602, 877.7218
283.8423, 876.9850
284.3244, 874.9410
284.8065, 871.3439
285.2886, 867.9113
285.7708, 866.0917
286.2529, 865.8470
286.7350, 866.6874
287.2171, 868.9157
287.6992, 871.8771
288.1813, 873.7936
288.6635, 874.6527
289.1456, 874.8210
289.6277, 874.2169
290.1098, 872.9938
290.5919, 872.2781
291.0740, 872.3584
291.5562, 872.8380
292.0383, 872.6489
292.5204, 871.8525
293.0025, 871.7864
293.4846, 873.7375
293.9667, 877.2026
294.4489, 880.3846
294.9310, 882.9567
295.4131, 885.4431
295.8952, 888.0286
296.3773, 890.9193
296.8594, 895.3905
297.3416, 902.9987
297.8237, 912.6963
298.3058, 922.2658
298.7879, 931.7653
299.2700, 940.4414
299.7521, 946.9050
300.2343, 951.6306
300.7164, 955.8036
301.1985, 959.6219
301.6806, 963.4154
302.1627, 967.3508
302.6448, 971.3991
303.1270, 976.4589
303.6091, 984.2367
304.0912, 993.6031
304.5733, 1002.588
305.0554, 1008.915
305.5375, 1015.165
306.0197, 1024.653
306.5018, 1037.166
306.9839, 1049.881
307.4660, 1059.238
307.9481, 1067.711
308.4302, 1078.663
308.9124, 1092.562
309.3945, 1110.085
309.8766, 1132.593
310.3587, 1159.750
310.8408, 1188.709
311.3229, 1216.190
311.8051, 1245.561
312.2872, 1279.770
312.7693, 1321.319
313.2514, 1365.093
313.7335, 1411.706
314.2156, 1458.968
314.6978, 1501.098
315.1799, 1545.579
315.6620, 1577.789
316.1441, 1586.485
316.6262, 1568.772
317.1083, 1531.242
317.5905, 1465.878
318.0726, 1383.987
318.5547, 1304.192
319.0368, 1228.168
319.5189, 1160.143
320.0010, 1102.862
320.4832, 1056.412
320.9653, 1019.328
321.4474, 994.4435
321.9295, 977.6268
322.4116, 964.0420
322.8937, 954.7948
323.3759, 946.5671
323.8580, 938.2617
324.3401, 929.8590
324.8222, 922.6711
325.3043, 917.7736
325.7864, 913.6978
326.2686, 909.3112
326.7507, 902.8309
327.2328, 897.8832
327.7149, 895.5397
328.1970, 895.5695
328.6791, 895.1910
329.1613, 894.1390
329.6434, 892.8439
330.1255, 891.4748
330.6076, 889.0794
331.0897, 888.0008
331.5718, 888.8752
332.0540, 891.0760
332.5361, 892.9419
333.0182, 895.2809
333.5003, 896.2379
333.9824, 894.6545
334.4645, 889.0526
334.9467, 885.4697
335.4288, 884.5070
335.9109, 885.1696
336.3930, 886.0065
336.8751, 887.2789
337.3572, 888.1035
337.8394, 887.8859
338.3215, 886.5213
338.8036, 886.8083
339.2857, 889.4271
339.7678, 892.5179
340.2499, 893.8683
340.7321, 893.0826
341.2142, 892.8380
341.6963, 893.9916
342.1784, 896.1205
342.6605, 897.2111
343.1426, 897.1534
343.6248, 896.5037
344.1069, 895.3458
344.5890, 893.7386
345.0711, 892.8957
345.5532, 893.0750
346.0353, 894.0010
346.5175, 895.3185
346.9996, 897.0286
347.4817, 898.5640
347.9638, 899.3356
348.4459, 899.6161
348.9280, 900.4553
349.4102, 901.9965
349.8923, 903.8098
350.3744, 905.3687
350.8565, 906.7167
351.3386, 908.0529
351.8207, 909.2946
352.3029, 910.6325
352.7850, 912.7454
353.2671, 915.6785
353.7492, 918.0714
354.2313, 918.4910
354.7134, 917.6061
355.1956, 916.5320
355.6777, 915.1447
356.1598, 914.2253
356.6419, 914.3701
357.1240, 915.5776
357.6061, 917.8220
358.0883, 922.4749
358.5704, 927.5215
359.0525, 930.6312
359.5346, 930.1329
360.0167, 930.0194
360.4988, 932.7051
360.9810, 937.4702
361.4631, 942.7355
361.9452, 949.3761
362.4273, 955.1613
362.9094, 958.5134
363.3915, 958.7623
363.8737, 958.8729
364.3558, 958.7870
364.8379, 959.4022
365.3200, 961.7811
365.8021, 970.0908
366.2842, 976.3401
366.7664, 976.8644
367.2485, 971.5616
367.7306, 968.4388
368.2127, 971.3896
368.6948, 974.9972
369.1769, 975.6934
369.6591, 971.1798
370.1412, 966.4376
370.6233, 961.2697
371.1054, 955.9616
371.5875, 951.6287
372.0696, 949.0568
372.5518, 946.5506
373.0339, 943.1152
373.5160, 937.6128
373.9981, 934.5851
374.4802, 935.0708
374.9623, 937.1616
375.4445, 937.6238
375.9266, 935.6558
376.4087, 934.3136
376.8908, 934.7235
377.3729, 936.8090
377.8550, 938.0610
378.3372, 938.0817
378.8193, 938.3001
379.3014, 940.9470
379.7835, 946.2621
380.2656, 948.8050
380.7477, 946.6078
381.2299, 941.8691
381.7120, 940.0104
382.1941, 941.0737
382.6762, 943.4082
383.1583, 947.2210
383.6404, 951.6567
384.1226, 952.6045
384.6047, 948.9661
385.0868, 944.3817
385.5689, 943.3320
386.0510, 945.2620
386.5331, 948.0261
387.0153, 951.6530
387.4974, 955.1156
387.9795, 956.4352
388.4616, 955.6120
388.9437, 955.0466
389.4258, 956.9609
389.9080, 960.2349
390.3901, 963.2766
390.8722, 965.7908
391.3543, 967.7045
391.8364, 969.6714
392.3185, 971.1699
392.8007, 970.3422
393.2828, 963.3586
393.7649, 955.5951
394.2470, 951.0551
394.7291, 951.3185
395.2112, 952.1286
395.6934, 952.4443
396.1755, 952.2580
396.6576, 951.5660
397.1397, 948.5090
397.6218, 946.6862
398.1039, 947.7104
398.5861, 951.9014
399.0682, 955.7625
399.5503, 958.9034
400.0324, 961.6419
400.5145, 964.1730
400.9966, 966.0584
401.4788, 968.4486
401.9609, 972.1716
402.4430, 976.5458
402.9251, 978.7593
403.4072, 977.6788
403.8893, 976.1791
404.3714, 975.9120
404.8535, 977.8090
405.3357, 976.4712
405.8178, 970.1024
406.2999, 962.8908
406.7820, 961.4852
407.2641, 966.8857
407.7462, 972.3199
408.2284, 975.9249
408.7105, 977.9036
409.1926, 979.6048
409.6747, 981.0717
410.1568, 981.9760
410.6389, 981.5826
411.1211, 980.2029
411.6032, 979.4935
412.0853, 979.6315
412.5674, 980.7809
413.0495, 983.7618
413.5316, 988.2497
414.0138, 992.4764
414.4959, 994.3665
414.9780, 995.8386
415.4601, 1000.471
415.9422, 1008.705
416.4243, 1016.578
416.9065, 1020.251
417.3886, 1021.646
417.8707, 1023.509
418.3528, 1026.084
418.8349, 1030.130
419.3170, 1036.006
419.7992, 1043.796
420.2813, 1053.470
420.7634, 1066.498
421.2455, 1080.598
421.7276, 1094.206
422.2097, 1106.875
422.6919, 1119.812
423.1740, 1132.603
423.6561, 1146.044
424.1382, 1161.697
424.6203, 1180.633
425.1024, 1200.556
425.5846, 1223.026
426.0667, 1248.446
426.5488, 1267.188
427.0309, 1282.011
427.5130, 1287.906
427.9951, 1280.932
428.4773, 1257.269
428.9594, 1228.306
429.4415, 1191.315
429.9236, 1151.270
430.4057, 1120.275
430.8878, 1099.567
431.3700, 1084.798
431.8521, 1075.133
432.3342, 1070.578
432.8163, 1066.781
433.2984, 1063.700
433.7805, 1061.559
434.2627, 1060.571
434.7448, 1060.738
435.2269, 1062.305
435.7090, 1066.208
436.1911, 1070.664
436.6732, 1072.411
437.1554, 1071.524
437.6375, 1068.485
438.1196, 1061.916
438.6017, 1053.869
439.0838, 1047.757
439.5659, 1044.106
440.0481, 1041.519
440.5302, 1038.843
441.0123, 1036.370
441.4944, 1034.602
441.9765, 1034.766
442.4586, 1034.850
442.9408, 1032.692
443.4229, 1028.772
443.9050, 1026.898
444.3871, 1030.505
444.8692, 1035.486
445.3513, 1039.185
445.8335, 1040.763
446.3156, 1041.794
446.7977, 1042.256
447.2798, 1042.383
447.7619, 1042.581
448.2440, 1042.948
448.7262, 1043.289
449.2083, 1043.314
449.6904, 1042.950
450.1725, 1043.810
450.6546, 1046.595
451.1367, 1049.717
451.6189, 1052.177
452.1010, 1054.247
452.5831, 1054.369
453.0652, 1051.271
453.5473, 1047.245
454.0294, 1047.644
454.5116, 1052.839
454.9937, 1059.617
455.4758, 1067.959
455.9579, 1077.041
456.4400, 1081.948
456.9221, 1082.450
457.4043, 1081.275
457.8864, 1080.840
458.3685, 1080.866
458.8506, 1080.626
459.3327, 1080.167
459.8148, 1078.963
460.2970, 1075.666
460.7791, 1070.908
461.2612, 1066.884
461.7433, 1065.080
462.2254, 1064.372
462.7076, 1063.617
463.1897, 1062.614
463.6718, 1062.830
464.1539, 1065.337
464.6360, 1069.318
465.1181, 1073.929
465.6003, 1077.092
466.0824, 1082.885
466.5645, 1092.645
467.0466, 1105.918
467.5287, 1120.945
468.0108, 1138.605
468.4930, 1156.991
468.9751, 1174.440
469.4572, 1188.601
469.9393, 1210.271
470.4214, 1240.615
470.9035, 1277.246
471.3857, 1317.956
471.8678, 1363.427
472.3499, 1411.182
472.8320, 1462.188
473.3141, 1515.323
473.7962, 1568.193
474.2784, 1621.140
474.7605, 1671.440
475.2426, 1716.802
475.7247, 1758.051
476.2068, 1797.608
476.6889, 1835.216
477.1711, 1874.795
477.6532, 1920.417
478.1353, 1971.490
478.6174, 2026.341
479.0995, 2084.247
479.5816, 2146.159
480.0638, 2210.639
480.5459, 2278.988
481.0280, 2355.267
481.5101, 2439.027
481.9922, 2533.727
482.4743, 2640.774
482.9565, 2760.709
483.4386, 2894.079
483.9207, 3040.132
484.4028, 3198.859
484.8849, 3370.434
485.3670, 3559.286
485.8492, 3753.635
486.3313, 3958.962
486.8134, 4170.460
487.2955, 4368.040
487.7776, 4562.038
488.2597, 4725.216
488.7419, 4854.969
489.2240, 4962.346
489.7061, 4978.286
490.1882, 4896.803
490.6703, 4732.340
491.1524, 4484.221
491.6346, 4139.899
492.1167, 3786.564
492.5988, 3426.182
493.0809, 3072.737
493.5630, 2765.155
494.0451, 2500.739
494.5273, 2276.796
495.0094, 2095.063
495.4915, 1949.854
495.9736, 1829.100
496.4557, 1733.038
496.9378, 1653.028
497.4200, 1587.520
497.9021, 1532.604
498.3842, 1483.771
498.8663, 1439.650
499.3484, 1400.265
499.8305, 1365.917
500.3127, 1336.253
500.7948, 1310.460
501.2769, 1289.419
501.7590, 1270.840
502.2411, 1253.628
502.7232, 1237.407
503.2054, 1223.448
503.6875, 1214.942
504.1696, 1206.939
504.6517, 1195.722
505.1338, 1177.187
505.6159, 1162.685
506.0981, 1153.704
506.5802, 1148.809
507.0623, 1145.393
507.5444, 1144.376
508.0265, 1141.598
508.5086, 1134.609
508.9908, 1124.163
509.4729, 1116.861
509.9550, 1113.046
510.4371, 1109.872
510.9192, 1104.651
511.4013, 1097.965
511.8835, 1092.214
512.3655, 1087.885
512.8477, 1084.089
513.3298, 1079.933
513.8119, 1075.523
514.2940, 1071.093
514.7761, 1065.824
515.2582, 1061.312
515.7404, 1059.203
516.2225, 1059.204
516.7046, 1059.078
517.1867, 1057.253
517.6688, 1055.362
518.1509, 1054.582
518.6331, 1055.704
519.1152, 1056.359
519.5973, 1055.636
520.0794, 1054.417
520.5615, 1053.851
521.0436, 1054.583
521.5258, 1054.895
522.0079, 1054.375
522.4900, 1053.193
522.9721, 1052.187
523.4542, 1051.371
523.9363, 1050.719
524.4185, 1049.756
524.9006, 1048.504
525.3827, 1049.965
525.8648, 1054.550
526.3469, 1059.847
526.8290, 1063.302
527.3112, 1065.261
527.7933, 1066.803
528.2754, 1067.563
528.7575, 1069.246
529.2396, 1074.695
529.7217, 1082.923
530.2039, 1090.894
530.6860, 1095.615
531.1681, 1100.639
531.6502, 1109.018
532.1323, 1120.861
532.6144, 1132.963
533.0966, 1142.177
533.5787, 1152.459
534.0608, 1166.923
534.5429, 1188.965
535.0250, 1210.299
535.5071, 1229.809
535.9893, 1248.205
536.4714, 1265.947
536.9535, 1282.403
537.4356, 1299.364
537.9177, 1317.068
538.3998, 1335.593
538.8820, 1354.408
539.3641, 1373.185
539.8462, 1392.707
540.3283, 1412.557
540.8104, 1432.988
541.2925, 1456.460
541.7747, 1482.905
542.2568, 1512.832
542.7389, 1546.915
543.2210, 1584.894
543.7031, 1626.180
544.1852, 1670.486
544.6674, 1718.117
545.1495, 1769.805
545.6316, 1824.671
546.1137, 1880.512
546.5958, 1937.383
547.0779, 1994.095
547.5601, 2051.707
548.0422, 2110.372
548.5243, 2162.725
549.0064, 2211.544
549.4885, 2250.339
549.9706, 2275.843
550.4528, 2293.234
550.9349, 2287.831
551.4170, 2257.607
551.8991, 2206.093
552.3812, 2135.263
552.8633, 2040.662
553.3455, 1944.225
553.8276, 1849.002
554.3097, 1756.787
554.7918, 1671.938
555.2739, 1595.830
555.7560, 1528.861
556.2382, 1473.684
556.7203, 1427.774
557.2024, 1385.840
557.6845, 1347.641
558.1666, 1313.594
558.6487, 1284.459
559.1309, 1259.774
559.6130, 1239.890
560.0951, 1226.534
560.5772, 1214.319
561.0593, 1200.413
561.5414, 1185.884
562.0236, 1172.834
562.5057, 1162.397
562.9878, 1152.671
563.4699, 1142.867
563.9520, 1133.134
564.4341, 1124.640
564.9163, 1117.698
565.3984, 1111.527
565.8805, 1105.568
566.3626, 1099.582
566.8447, 1095.208
567.3268, 1092.657
567.8090, 1090.937
568.2911, 1089.483
568.7732, 1088.129
569.2553, 1085.185
569.7374, 1079.595
570.2195, 1073.690
570.7017, 1071.135
571.1838, 1070.979
571.6659, 1070.255
572.1480, 1066.616
572.6301, 1062.422
573.1122, 1059.299
573.5944, 1057.281
574.0765, 1056.499
574.5586, 1059.341
575.0407, 1061.710
575.5228, 1060.588
576.0049, 1053.528
576.4871, 1048.934
576.9692, 1049.450
577.4513, 1051.430
577.9334, 1051.369
578.4155, 1048.008
578.8976, 1045.619
579.3798, 1044.900
579.8619, 1045.282
580.3440, 1045.470
580.8261, 1045.448
581.3082, 1045.511
581.7903, 1046.054
582.2725, 1046.700
582.7546, 1045.900
583.2367, 1043.792
583.7188, 1042.212
584.2009, 1043.712
584.6830, 1046.041
585.1652, 1045.434
585.6473, 1040.735
586.1294, 1037.710
586.6115, 1041.539
587.0936, 1047.972
587.5757, 1052.498
588.0579, 1053.383
588.5400, 1052.940
589.0221, 1050.376
589.5042, 1046.829
589.9863, 1045.006
590.4684, 1046.205
