##NAMES=Poughite
##RRUFFID=R080026
##IDEAL CHEMISTRY=Fe^3+^_2_(Te^4+^O_3_)_2_S^6+^O_4_&#183;3H_2_O
##LOCALITY=Mina Candelaria, Moctezuma, Sonora, Mexico
##OWNER=RRUFF
##SOURCE=William W. Pinch
##DESCRIPTION=Bright-yellow to honey-yellow drusy crusts associated with green emmonsite
##STATUS=The identification of this mineral has been confirmed only by X-ray diffraction
##URL=rruff.info/R080026
138.6633, 5373.708
139.1454, 5391.777
139.6275, 5403.482
140.1097, 5404.401
140.5918, 5396.767
141.0739, 5393.822
141.5560, 5396.036
142.0381, 5401.617
142.5202, 5409.787
143.0023, 5421.789
143.4845, 5432.350
143.9666, 5438.754
144.4487, 5440.925
144.9308, 5451.188
145.4129, 5473.991
145.8951, 5500.681
146.3772, 5523.000
146.8593, 5539.747
147.3414, 5554.042
147.8235, 5566.583
148.3056, 5577.823
148.7878, 5585.847
149.2699, 5590.682
149.7520, 5592.365
150.2341, 5591.030
150.7162, 5587.548
151.1983, 5580.149
151.6805, 5566.676
152.1626, 5541.957
152.6447, 5524.532
153.1268, 5518.587
153.6089, 5519.076
154.0910, 5517.796
154.5732, 5514.876
155.0553, 5509.566
155.5374, 5500.907
156.0195, 5485.565
156.5016, 5473.552
156.9837, 5468.174
157.4659, 5467.059
157.9480, 5465.212
158.4301, 5460.101
158.9122, 5455.192
159.3943, 5452.560
159.8764, 5455.476
160.3586, 5455.800
160.8407, 5451.722
161.3228, 5443.505
161.8049, 5431.837
162.2870, 5412.979
162.7691, 5393.140
163.2513, 5376.180
163.7334, 5362.552
164.2155, 5352.357
164.6976, 5347.658
165.1797, 5347.056
165.6618, 5345.152
166.1440, 5336.086
166.6261, 5326.120
167.1082, 5320.729
167.5903, 5323.620
168.0724, 5329.147
168.5545, 5334.795
169.0367, 5340.521
169.5188, 5345.933
170.0009, 5349.226
170.4830, 5352.627
170.9651, 5358.747
171.4472, 5367.700
171.9293, 5380.332
172.4115, 5398.002
172.8936, 5420.538
173.3757, 5445.698
173.8578, 5470.742
174.3399, 5497.255
174.8220, 5527.901
175.3042, 5562.473
175.7863, 5602.158
176.2684, 5650.228
176.7505, 5706.542
177.2326, 5765.724
177.7147, 5821.483
178.1969, 5876.446
178.6790, 5935.085
179.1611, 5999.824
179.6432, 6068.923
180.1253, 6139.856
180.6074, 6211.944
181.0896, 6286.021
181.5717, 6360.975
182.0538, 6437.560
182.5359, 6521.315
183.0180, 6617.538
183.5001, 6720.807
183.9823, 6816.813
184.4644, 6903.494
184.9465, 6991.331
185.4286, 7092.468
185.9107, 7205.612
186.3928, 7319.027
186.8750, 7429.506
187.3571, 7536.056
187.8392, 7635.961
188.3213, 7726.994
188.8034, 7817.362
189.2855, 7917.254
189.7677, 8025.440
190.2498, 8134.767
190.7319, 8240.502
191.2140, 8343.541
191.6961, 8448.521
192.1782, 8555.173
192.6604, 8664.075
193.1425, 8775.925
193.6246, 8890.276
194.1067, 9002.321
194.5888, 9110.322
195.0709, 9213.249
195.5531, 9308.708
196.0352, 9396.800
196.5173, 9479.334
196.9994, 9558.142
197.4815, 9632.746
197.9636, 9708.744
198.4458, 9788.800
198.9279, 9872.872
199.4100, 9961.318
199.8921, 10053.73
200.3742, 10151.81
200.8563, 10259.12
201.3385, 10377.26
201.8206, 10500.38
202.3027, 10632.31
202.7848, 10776.00
203.2669, 10897.94
203.7490, 11001.29
204.2311, 11079.24
204.7133, 11120.72
205.1954, 11128.06
205.6775, 11090.70
206.1596, 10997.60
206.6417, 10842.76
207.1238, 10668.55
207.6060, 10469.29
208.0881, 10256.66
208.5702, 10052.86
209.0523, 9854.912
209.5344, 9674.614
210.0165, 9515.741
210.4987, 9375.921
210.9808, 9266.873
211.4629, 9192.039
211.9450, 9145.407
212.4271, 9115.232
212.9092, 9101.975
213.3914, 9103.680
213.8735, 9121.243
214.3556, 9157.489
214.8377, 9199.487
215.3198, 9250.939
215.8019, 9305.630
216.2841, 9347.030
216.7662, 9373.822
217.2483, 9391.276
217.7304, 9404.428
218.2125, 9419.837
218.6946, 9409.135
219.1768, 9365.888
219.6589, 9299.213
220.1410, 9228.213
220.6231, 9151.978
221.1052, 9072.822
221.5873, 8990.682
222.0695, 8906.056
222.5516, 8819.281
223.0337, 8730.075
223.5158, 8639.147
223.9979, 8542.307
224.4800, 8435.967
224.9622, 8331.203
225.4443, 8234.353
225.9264, 8147.026
226.4085, 8061.607
226.8906, 7978.269
227.3727, 7896.714
227.8549, 7810.315
228.3370, 7712.513
228.8191, 7622.062
229.3012, 7546.433
229.7833, 7490.629
230.2654, 7438.136
230.7476, 7387.567
231.2297, 7341.274
231.7118, 7305.324
232.1939, 7284.419
232.6760, 7266.408
233.1581, 7245.273
233.6402, 7216.339
234.1224, 7197.384
234.6045, 7189.282
235.0866, 7190.588
235.5687, 7198.426
236.0508, 7213.944
236.5329, 7233.835
237.0151, 7256.255
237.4972, 7279.478
237.9793, 7310.156
238.4614, 7350.518
238.9435, 7397.523
239.4256, 7446.337
239.9078, 7498.587
240.3899, 7549.204
240.8720, 7595.757
241.3541, 7636.301
241.8362, 7679.920
242.3183, 7728.381
242.8005, 7779.630
243.2826, 7831.079
243.7647, 7884.504
244.2468, 7934.679
244.7289, 7981.126
245.2110, 8025.843
245.6932, 8058.859
246.1753, 8079.661
246.6574, 8089.073
247.1395, 8087.626
247.6216, 8072.103
248.1037, 8051.165
248.5859, 8027.265
249.0680, 8001.086
249.5501, 7968.181
250.0322, 7924.259
250.5143, 7876.804
250.9964, 7835.503
251.4786, 7800.191
251.9607, 7771.225
252.4428, 7748.968
252.9249, 7734.063
253.4070, 7721.690
253.8891, 7709.371
254.3713, 7701.975
254.8534, 7704.989
255.3355, 7718.213
255.8176, 7742.695
256.2997, 7782.011
256.7818, 7836.799
257.2639, 7885.620
257.7461, 7923.157
258.2282, 7960.916
258.7103, 8011.491
259.1924, 8080.993
259.6745, 8150.280
260.1566, 8214.324
260.6388, 8274.021
261.1209, 8333.152
261.6030, 8393.646
262.0851, 8451.712
262.5672, 8503.596
263.0493, 8550.070
263.5315, 8590.240
264.0136, 8626.280
264.4957, 8656.928
264.9778, 8670.569
265.4599, 8666.264
265.9420, 8646.635
266.4242, 8612.395
266.9063, 8560.251
267.3884, 8503.025
267.8705, 8441.290
268.3526, 8376.057
268.8347, 8309.614
269.3169, 8240.317
269.7990, 8174.294
270.2811, 8114.956
270.7632, 8063.031
271.2453, 8015.499
271.7274, 7970.505
272.2096, 7929.876
272.6917, 7898.647
273.1738, 7878.108
273.6559, 7862.158
274.1380, 7847.388
274.6201, 7833.520
275.1023, 7821.604
275.5844, 7810.968
276.0665, 7803.135
276.5486, 7803.690
277.0307, 7815.496
277.5128, 7824.250
277.9950, 7822.237
278.4771, 7809.010
278.9592, 7791.784
279.4413, 7769.608
279.9234, 7745.037
280.4055, 7724.284
280.8877, 7708.241
281.3698, 7688.626
281.8519, 7659.417
282.3340, 7620.669
282.8161, 7586.319
283.2982, 7556.659
283.7804, 7530.521
284.2625, 7507.595
284.7446, 7487.841
285.2267, 7467.626
285.7088, 7444.474
286.1909, 7419.137
286.6731, 7397.087
287.1552, 7378.375
287.6373, 7362.553
288.1194, 7352.177
288.6015, 7346.592
289.0836, 7335.005
289.5658, 7310.148
290.0479, 7277.118
290.5300, 7254.901
291.0121, 7244.493
291.4942, 7237.944
291.9763, 7226.737
292.4585, 7212.149
292.9406, 7201.523
293.4227, 7198.785
293.9048, 7199.865
294.3869, 7194.541
294.8690, 7182.752
295.3512, 7172.091
295.8333, 7170.154
296.3154, 7174.533
296.7975, 7177.511
297.2796, 7177.772
297.7617, 7175.443
298.2439, 7168.001
298.7260, 7156.522
299.2081, 7148.795
299.6902, 7153.496
300.1723, 7165.600
300.6544, 7174.590
301.1366, 7178.529
301.6187, 7179.982
302.1008, 7183.780
302.5829, 7188.328
303.0650, 7187.589
303.5471, 7170.511
304.0293, 7148.421
304.5114, 7138.805
304.9935, 7144.448
305.4756, 7155.687
305.9577, 7168.495
306.4398, 7180.162
306.9220, 7184.728
307.4041, 7174.027
307.8862, 7157.672
308.3683, 7143.685
308.8504, 7132.456
309.3326, 7125.624
309.8147, 7129.202
310.2968, 7137.183
310.7789, 7140.685
311.2610, 7131.964
311.7431, 7120.543
312.2252, 7112.681
312.7073, 7108.438
313.1895, 7106.724
313.6716, 7108.629
314.1537, 7112.150
314.6358, 7115.200
315.1179, 7116.959
315.6000, 7118.413
316.0822, 7119.892
316.5643, 7121.468
317.0464, 7123.364
317.5285, 7124.358
318.0106, 7126.458
318.4927, 7130.983
318.9749, 7138.134
319.4570, 7147.767
319.9391, 7162.796
320.4212, 7180.226
320.9033, 7193.486
321.3854, 7207.376
321.8676, 7211.186
322.3497, 7198.273
322.8318, 7163.536
323.3139, 7124.839
323.7960, 7080.319
324.2781, 7035.562
324.7603, 6997.880
325.2424, 6979.577
325.7245, 6958.237
326.2066, 6926.289
326.6887, 6881.664
327.1708, 6837.783
327.6530, 6793.073
328.1351, 6751.158
328.6172, 6714.804
329.0993, 6687.310
329.5814, 6662.029
330.0635, 6639.465
330.5457, 6619.452
331.0278, 6596.158
331.5099, 6565.256
331.9920, 6534.353
332.4741, 6508.644
332.9562, 6487.440
333.4384, 6472.028
333.9205, 6465.091
334.4026, 6464.047
334.8847, 6459.109
335.3668, 6448.201
335.8489, 6436.221
336.3311, 6424.532
336.8132, 6410.610
337.2953, 6404.224
337.7774, 6406.993
338.2595, 6416.050
338.7416, 6426.462
339.2238, 6438.708
339.7059, 6450.956
340.1880, 6461.450
340.6701, 6469.974
341.1522, 6484.931
341.6343, 6508.666
342.1165, 6534.183
342.5986, 6552.685
343.0807, 6563.438
343.5628, 6575.465
344.0449, 6591.036
344.5270, 6609.892
345.0092, 6632.230
345.4913, 6658.616
345.9734, 6685.921
346.4555, 6711.655
346.9376, 6735.853
347.4197, 6760.800
347.9019, 6786.202
348.3840, 6813.017
348.8661, 6845.249
349.3482, 6882.328
349.8303, 6919.096
350.3124, 6951.419
350.7946, 6981.119
351.2767, 7013.245
351.7588, 7048.774
352.2409, 7086.390
352.7230, 7125.282
353.2051, 7165.427
353.6873, 7207.584
354.1694, 7251.806
354.6515, 7298.098
355.1336, 7345.565
355.6157, 7394.823
356.0978, 7447.835
356.5800, 7508.190
357.0621, 7573.577
357.5442, 7640.465
358.0263, 7705.716
358.5084, 7773.621
358.9905, 7850.577
359.4727, 7934.612
359.9548, 8017.318
360.4369, 8087.056
360.9190, 8156.332
361.4011, 8235.598
361.8832, 8329.682
362.3654, 8428.775
362.8475, 8531.294
363.3296, 8635.643
363.8117, 8738.941
364.2938, 8833.578
364.7759, 8931.018
365.2581, 9036.636
365.7402, 9151.962
366.2223, 9270.987
366.7044, 9395.966
367.1865, 9522.302
367.6686, 9647.040
368.1508, 9765.817
368.6329, 9885.322
369.1150, 10005.62
369.5971, 10126.69
370.0792, 10253.49
370.5613, 10388.86
371.0435, 10526.69
371.5256, 10663.15
372.0077, 10799.84
372.4898, 10933.39
372.9719, 11064.44
373.4540, 11193.56
373.9361, 11323.70
374.4182, 11457.35
374.9004, 11585.79
375.3825, 11705.97
375.8646, 11817.29
376.3467, 11920.27
376.8288, 12018.19
377.3109, 12104.58
377.7931, 12172.26
378.2752, 12221.17
378.7573, 12251.64
379.2394, 12265.07
379.7215, 12260.58
380.2036, 12231.34
380.6858, 12176.95
381.1679, 12102.34
381.6500, 12010.69
382.1321, 11901.78
382.6142, 11783.48
383.0963, 11657.17
383.5785, 11520.90
384.0606, 11362.68
384.5427, 11186.67
385.0248, 11007.09
385.5069, 10832.92
385.9890, 10662.92
386.4712, 10497.64
386.9533, 10337.44
387.4354, 10182.47
387.9175, 10038.23
388.3996, 9902.818
388.8817, 9770.994
389.3639, 9638.396
389.8460, 9511.432
390.3281, 9395.670
390.8102, 9291.269
391.2923, 9193.622
391.7744, 9095.830
392.2566, 9004.085
392.7387, 8923.825
393.2208, 8861.116
393.7029, 8803.550
394.1850, 8743.263
394.6671, 8682.824
395.1493, 8628.268
395.6314, 8581.549
396.1135, 8541.727
396.5956, 8508.506
397.0777, 8482.224
397.5598, 8459.917
398.0420, 8440.871
398.5241, 8425.416
399.0062, 8413.923
399.4883, 8407.099
399.9704, 8403.373
400.4525, 8403.516
400.9347, 8407.309
401.4168, 8410.157
401.8989, 8408.808
402.3810, 8409.285
402.8631, 8415.672
403.3452, 8432.953
403.8274, 8445.518
404.3095, 8447.557
404.7916, 8446.727
405.2737, 8462.640
405.7558, 8502.417
406.2379, 8541.475
406.7201, 8569.630
407.2022, 8586.305
407.6843, 8608.583
408.1664, 8637.906
408.6485, 8668.887
409.1306, 8694.282
409.6128, 8714.226
410.0949, 8735.529
410.5770, 8760.317
411.0591, 8787.305
411.5412, 8811.272
412.0233, 8832.539
412.5055, 8857.177
412.9876, 8892.611
413.4697, 8934.623
413.9518, 8972.687
414.4339, 9005.479
414.9160, 9032.942
415.3982, 9053.823
415.8803, 9068.825
416.3624, 9080.845
416.8445, 9091.706
417.3266, 9099.667
417.8087, 9102.806
418.2909, 9101.125
418.7730, 9096.581
419.2551, 9096.136
419.7372, 9090.809
420.2193, 9070.917
420.7014, 9027.467
421.1836, 8979.307
421.6657, 8935.077
422.1478, 8892.666
422.6299, 8846.105
423.1120, 8793.047
423.5941, 8736.238
424.0763, 8676.950
424.5584, 8613.148
425.0405, 8552.521
425.5226, 8498.264
426.0047, 8446.353
426.4868, 8393.401
426.9690, 8336.857
427.4511, 8282.473
427.9332, 8231.921
428.4153, 8184.799
428.8974, 8138.385
429.3795, 8090.815
429.8617, 8047.428
430.3438, 8010.938
430.8259, 7981.167
431.3080, 7958.886
431.7901, 7946.397
432.2722, 7938.264
432.7544, 7926.094
433.2365, 7909.738
433.7186, 7891.608
434.2007, 7871.083
434.6828, 7849.642
435.1649, 7832.740
435.6470, 7820.387
436.1292, 7811.823
436.6113, 7808.243
437.0934, 7808.043
437.5755, 7805.829
438.0576, 7799.748
438.5397, 7793.696
439.0219, 7793.205
439.5040, 7796.802
439.9861, 7800.159
440.4682, 7797.407
440.9503, 7795.713
441.4324, 7804.737
441.9146, 7824.735
442.3967, 7842.308
442.8788, 7843.988
443.3609, 7841.685
443.8430, 7847.711
444.3251, 7871.431
444.8073, 7895.890
445.2894, 7915.623
445.7715, 7931.645
446.2536, 7946.587
446.7357, 7965.377
447.2178, 7979.292
447.7000, 7982.593
448.1821, 7970.461
448.6642, 7965.215
449.1463, 7973.977
449.6284, 7985.361
450.1105, 7989.192
450.5927, 7983.504
451.0748, 7973.626
451.5569, 7960.580
452.0390, 7943.894
452.5211, 7920.419
453.0032, 7889.234
453.4854, 7854.750
453.9675, 7819.021
454.4496, 7781.914
454.9317, 7745.361
455.4138, 7709.479
455.8959, 7674.970
456.3781, 7643.228
456.8602, 7613.950
457.3423, 7584.465
457.8244, 7551.306
458.3065, 7520.140
458.7886, 7505.441
459.2708, 7505.431
459.7529, 7506.786
460.2350, 7497.905
460.7171, 7485.608
461.1992, 7479.712
461.6813, 7481.967
462.1635, 7487.705
462.6456, 7494.586
463.1277, 7502.341
463.6098, 7510.651
464.0919, 7518.441
464.5740, 7527.506
465.0562, 7539.937
465.5383, 7554.996
466.0204, 7568.391
466.5025, 7577.654
466.9846, 7585.935
467.4667, 7595.529
467.9489, 7610.334
468.4310, 7618.865
468.9131, 7611.573
469.3952, 7601.083
469.8773, 7604.351
470.3594, 7632.086
470.8416, 7656.647
471.3237, 7671.456
471.8058, 7677.857
472.2879, 7688.268
472.7700, 7703.339
473.2521, 7720.966
473.7343, 7740.358
474.2164, 7761.737
474.6985, 7782.090
475.1806, 7800.998
475.6627, 7819.801
476.1448, 7841.437
476.6270, 7865.472
477.1091, 7888.131
477.5912, 7907.194
478.0733, 7924.544
478.5554, 7943.368
479.0375, 7963.668
479.5197, 7984.937
480.0018, 8010.014
480.4839, 8034.704
480.9660, 8053.694
481.4481, 8065.883
481.9302, 8073.303
482.4124, 8076.942
482.8945, 8076.733
483.3766, 8072.677
483.8587, 8065.584
484.3408, 8053.929
484.8229, 8037.022
485.3051, 8014.866
485.7872, 7988.424
486.2693, 7954.525
486.7514, 7918.602
487.2335, 7883.948
487.7156, 7852.152
488.1978, 7817.435
488.6799, 7780.862
489.1620, 7740.144
489.6441, 7691.311
490.1262, 7628.628
490.6083, 7571.685
491.0905, 7525.624
491.5726, 7488.926
492.0547, 7454.416
492.5368, 7422.884
493.0189, 7391.526
493.5010, 7357.350
493.9832, 7321.609
494.4653, 7290.426
494.9474, 7264.660
495.4295, 7242.127
495.9116, 7221.208
496.3937, 7201.487
496.8758, 7182.346
497.3579, 7162.917
497.8401, 7144.294
498.3222, 7126.979
498.8043, 7111.037
499.2864, 7096.700
499.7685, 7084.396
500.2506, 7073.267
500.7328, 7062.548
501.2149, 7051.897
501.6970, 7042.923
502.1791, 7034.827
502.6612, 7029.370
503.1433, 7028.244
503.6255, 7043.496
504.1076, 7049.230
504.5897, 7036.565
505.0718, 7012.150
505.5539, 6995.431
506.0360, 6991.758
506.5182, 6987.688
507.0003, 6977.020
507.4824, 6958.901
507.9645, 6950.611
508.4466, 6954.580
508.9287, 6962.909
509.4109, 6969.456
509.8930, 6974.180
510.3751, 6975.327
510.8572, 6971.669
511.3393, 6966.004
511.8214, 6961.575
512.3036, 6958.694
512.7857, 6959.385
513.2678, 6970.044
513.7499, 6982.142
514.2321, 6981.548
514.7142, 6969.173
515.1963, 6957.190
515.6784, 6955.474
516.1605, 6957.124
516.6426, 6955.422
517.1248, 6948.106
517.6069, 6940.201
518.0890, 6931.955
518.5711, 6924.938
519.0532, 6921.464
519.5353, 6929.543
520.0175, 6933.255
520.4996, 6925.539
520.9817, 6908.521
521.4638, 6898.552
521.9459, 6901.397
522.4280, 6903.651
522.9102, 6897.435
523.3923, 6879.211
523.8744, 6870.200
524.3565, 6873.191
524.8386, 6879.448
525.3207, 6878.514
525.8029, 6870.396
526.2849, 6859.828
526.7670, 6846.736
527.2491, 6833.435
527.7313, 6824.284
528.2134, 6819.060
528.6955, 6816.834
529.1776, 6819.361
529.6597, 6823.491
530.1418, 6825.356
530.6240, 6824.749
531.1061, 6822.470
531.5882, 6819.560
532.0703, 6814.966
532.5524, 6806.854
533.0345, 6790.083
533.5167, 6778.447
533.9988, 6781.914
534.4809, 6792.557
534.9630, 6796.851
535.4451, 6786.397
535.9272, 6776.659
536.4094, 6771.566
536.8915, 6770.673
537.3736, 6767.008
537.8557, 6758.025
538.3378, 6750.534
538.8199, 6749.202
539.3021, 6755.197
539.7842, 6758.413
540.2663, 6758.448
540.7484, 6756.641
541.2305, 6754.181
541.7126, 6751.151
542.1948, 6748.423
542.6769, 6746.295
543.1590, 6744.532
543.6411, 6741.977
544.1232, 6739.306
544.6053, 6739.006
545.0875, 6744.362
545.5696, 6751.567
546.0517, 6758.162
546.5338, 6763.988
547.0159, 6766.481
547.4980, 6763.065
547.9802, 6756.727
548.4623, 6749.107
548.9444, 6735.934
549.4265, 6729.624
549.9086, 6733.575
550.3907, 6744.931
550.8729, 6760.272
551.3550, 6785.349
551.8371, 6804.276
552.3192, 6812.833
552.8013, 6812.413
553.2834, 6809.755
553.7656, 6803.623
554.2477, 6799.302
554.7298, 6801.552
555.2119, 6809.260
555.6940, 6809.974
556.1761, 6802.738
556.6583, 6795.884
557.1404, 6800.513
557.6225, 6811.858
558.1046, 6817.891
558.5867, 6814.198
559.0688, 6808.987
559.5510, 6809.001
560.0331, 6813.099
560.5152, 6818.912
560.9973, 6831.247
561.4794, 6839.916
561.9615, 6837.206
562.4437, 6824.498
562.9258, 6815.169
563.4079, 6812.549
563.8900, 6813.309
564.3721, 6816.343
564.8542, 6822.884
565.3364, 6827.220
565.8185, 6828.156
566.3006, 6828.163
566.7827, 6830.116
567.2648, 6834.584
567.7469, 6837.362
568.2291, 6837.429
568.7112, 6836.211
569.1933, 6836.788
569.6754, 6839.026
570.1575, 6840.757
570.6396, 6839.036
571.1218, 6837.277
571.6039, 6842.033
572.0860, 6852.590
572.5681, 6863.730
573.0502, 6871.840
573.5323, 6878.744
574.0145, 6886.334
574.4966, 6894.928
574.9787, 6902.815
575.4608, 6908.925
575.9429, 6913.888
576.4250, 6918.245
576.9072, 6920.306
577.3893, 6923.779
577.8714, 6929.983
578.3535, 6937.366
578.8356, 6942.147
579.3177, 6943.505
579.7999, 6944.382
580.2820, 6945.513
580.7641, 6947.031
581.2462, 6949.371
581.7283, 6952.599
582.2104, 6956.994
582.6926, 6964.458
583.1747, 6973.327
583.6568, 6977.162
584.1389, 6974.993
584.6210, 6974.206
585.1031, 6985.044
585.5853, 7000.620
586.0674, 7010.802
586.5495, 7011.074
587.0316, 7008.228
587.5137, 7000.772
587.9958, 6993.114
588.4780, 6993.679
588.9601, 7013.137
589.4422, 7032.155
589.9243, 7046.478
590.4064, 7056.174
590.8885, 7060.793
591.3707, 7056.408
591.8528, 7053.202
592.3349, 7056.894
592.8170, 7068.380
593.2991, 7076.752
593.7813, 7081.441
594.2634, 7085.337
594.7455, 7091.543
595.2276, 7099.557
595.7097, 7106.897
596.1918, 7112.990
596.6740, 7118.733
597.1561, 7124.523
597.6382, 7130.757
598.1203, 7138.125
598.6024, 7147.819
599.0845, 7157.919
599.5667, 7168.173
600.0488, 7178.092
600.5309, 7185.737
601.0130, 7186.183
601.4951, 7188.177
601.9772, 7197.430
602.4594, 7215.603
602.9415, 7225.692
603.4236, 7222.612
603.9057, 7218.039
604.3878, 7220.437
604.8699, 7231.143
605.3521, 7240.240
605.8342, 7246.996
606.3163, 7253.138
606.7984, 7260.793
607.2805, 7269.880
607.7626, 7280.447
608.2448, 7293.567
608.7269, 7306.414
609.2090, 7314.463
609.6911, 7319.359
610.1732, 7325.959
610.6553, 7339.289
611.1375, 7352.675
611.6196, 7360.521
612.1017, 7363.417
612.5838, 7368.594
613.0659, 7378.228
613.5480, 7390.409
614.0302, 7405.001
614.5123, 7423.220
614.9944, 7437.666
615.4765, 7445.886
615.9586, 7453.251
616.4407, 7465.077
616.9229, 7481.874
617.4050, 7497.647
617.8871, 7511.874
618.3692, 7525.013
618.8513, 7538.028
619.3334, 7550.659
619.8156, 7562.227
620.2977, 7572.995
620.7798, 7581.647
621.2619, 7584.299
621.7440, 7583.230
622.2261, 7585.130
622.7083, 7598.662
623.1904, 7611.642
623.6725, 7616.837
624.1546, 7613.989
624.6367, 7609.688
625.1188, 7605.453
625.6010, 7599.806
626.0831, 7591.174
626.5652, 7577.346
627.0473, 7569.375
627.5294, 7568.488
628.0115, 7571.500
628.4937, 7575.651
628.9758, 7580.939
629.4579, 7586.426
629.9400, 7591.606
630.4221, 7597.897
630.9042, 7606.707
631.3864, 7618.280
631.8685, 7633.233
632.3506, 7652.727
632.8327, 7674.785
633.3148, 7697.802
633.7969, 7722.121
634.2791, 7748.271
634.7612, 7779.562
635.2433, 7810.200
