##NAMES=Poughite
##RRUFFID=R080026
##IDEAL CHEMISTRY=Fe^3+^_2_(Te^4+^O_3_)_2_S^6+^O_4_&#183;3H_2_O
##LOCALITY=Mina Candelaria, Moctezuma, Sonora, Mexico
##OWNER=RRUFF
##SOURCE=William W. Pinch
##DESCRIPTION=Bright-yellow to honey-yellow drusy crusts associated with green emmonsite
##STATUS=The identification of this mineral has been confirmed only by X-ray diffraction
##URL=rruff.info/R080026
136.0440, 1916.410
136.5262, 1920.927
137.0083, 1924.944
137.4904, 1927.634
137.9725, 1929.460
138.4546, 1930.869
138.9367, 1932.011
139.4189, 1932.151
139.9010, 1929.633
140.3831, 1922.695
140.8652, 1916.081
141.3473, 1909.922
141.8294, 1904.622
142.3116, 1900.831
142.7937, 1898.884
143.2758, 1898.315
143.7579, 1897.053
144.2400, 1893.918
144.7221, 1891.345
145.2043, 1889.938
145.6864, 1889.317
146.1685, 1888.769
146.6506, 1887.774
147.1327, 1886.439
147.6148, 1886.179
148.0970, 1888.317
148.5791, 1890.049
149.0612, 1889.764
149.5433, 1887.745
150.0254, 1885.697
150.5075, 1884.924
150.9896, 1885.396
151.4718, 1885.704
151.9539, 1886.383
152.4360, 1886.562
152.9181, 1884.959
153.4002, 1881.257
153.8823, 1877.633
154.3645, 1876.156
154.8466, 1876.101
155.3287, 1876.252
155.8108, 1876.844
156.2929, 1877.299
156.7750, 1876.147
157.2572, 1872.658
157.7393, 1868.630
158.2214, 1864.692
158.7035, 1861.056
159.1856, 1858.277
159.6677, 1857.529
160.1499, 1858.592
160.6320, 1857.569
161.1141, 1853.710
161.5962, 1848.166
162.0783, 1840.255
162.5604, 1830.805
163.0426, 1821.956
163.5247, 1815.941
164.0068, 1813.466
164.4889, 1810.487
164.9710, 1806.462
165.4531, 1802.470
165.9353, 1798.730
166.4174, 1795.437
166.8995, 1792.867
167.3816, 1791.391
167.8637, 1791.247
168.3458, 1791.820
168.8280, 1793.835
169.3101, 1795.981
169.7922, 1797.003
170.2743, 1796.719
170.7564, 1796.262
171.2385, 1797.304
171.7207, 1800.337
172.2028, 1803.939
172.6849, 1807.911
173.1670, 1812.451
173.6491, 1818.259
174.1312, 1825.783
174.6133, 1833.405
175.0955, 1837.485
175.5776, 1837.265
176.0597, 1838.742
176.5418, 1844.067
177.0239, 1852.345
177.5060, 1862.034
177.9882, 1873.573
178.4703, 1884.999
178.9524, 1893.139
179.4345, 1897.564
179.9166, 1903.057
180.3987, 1913.029
180.8809, 1927.043
181.3630, 1941.104
181.8451, 1954.049
182.3272, 1966.758
182.8093, 1979.823
183.2914, 1993.251
183.7736, 2007.309
184.2557, 2022.809
184.7378, 2040.069
185.2199, 2055.996
185.7020, 2069.757
186.1841, 2081.866
186.6663, 2091.880
187.1484, 2099.795
187.6305, 2107.076
188.1126, 2115.682
188.5947, 2125.596
189.0768, 2136.857
189.5590, 2150.606
190.0411, 2164.766
190.5232, 2177.779
191.0053, 2189.212
191.4874, 2200.141
191.9695, 2212.793
192.4517, 2228.312
192.9338, 2243.716
193.4159, 2259.202
193.8980, 2274.454
194.3801, 2289.592
194.8622, 2304.668
195.3443, 2318.963
195.8265, 2330.860
196.3086, 2337.439
196.7907, 2344.884
197.2728, 2353.298
197.7549, 2362.589
198.2370, 2372.967
198.7192, 2384.542
199.2013, 2396.644
199.6834, 2407.212
200.1655, 2414.424
200.6476, 2422.829
201.1297, 2434.153
201.6119, 2446.968
202.0940, 2459.419
202.5761, 2471.087
203.0582, 2480.929
203.5403, 2486.013
204.0224, 2487.455
204.5046, 2484.033
204.9867, 2474.919
205.4688, 2460.602
205.9509, 2441.745
206.4330, 2417.715
206.9151, 2390.280
207.3973, 2362.692
207.8794, 2334.018
208.3615, 2307.696
208.8436, 2286.227
209.3257, 2269.140
209.8078, 2253.263
210.2900, 2236.596
210.7721, 2221.810
211.2542, 2211.772
211.7363, 2207.028
212.2184, 2205.275
212.7005, 2205.786
213.1827, 2208.575
213.6648, 2210.383
214.1469, 2209.230
214.6290, 2207.305
215.1111, 2206.232
215.5932, 2206.208
216.0754, 2207.198
216.5575, 2210.235
217.0396, 2216.078
217.5217, 2218.804
218.0038, 2215.395
218.4859, 2209.160
218.9680, 2201.398
219.4502, 2192.439
219.9323, 2182.811
220.4144, 2173.052
220.8965, 2163.076
221.3786, 2153.200
221.8607, 2143.889
222.3429, 2134.406
222.8250, 2124.435
223.3071, 2113.820
223.7892, 2102.478
224.2713, 2090.021
224.7534, 2075.531
225.2356, 2062.125
225.7177, 2050.489
226.1998, 2039.382
226.6819, 2027.977
227.1640, 2016.150
227.6461, 2004.307
228.1283, 1993.148
228.6104, 1982.627
229.0925, 1972.964
229.5746, 1963.758
230.0567, 1955.498
230.5388, 1948.358
231.0210, 1942.447
231.5031, 1937.920
231.9852, 1935.135
232.4673, 1935.765
232.9494, 1934.818
233.4315, 1930.024
233.9137, 1925.208
234.3958, 1923.644
234.8779, 1925.938
235.3600, 1929.890
235.8421, 1932.350
236.3242, 1931.814
236.8064, 1933.479
237.2885, 1938.452
237.7706, 1944.914
238.2527, 1951.597
238.7348, 1958.198
239.2169, 1964.565
239.6991, 1970.381
240.1812, 1975.449
240.6633, 1980.885
241.1454, 1987.100
241.6275, 1993.510
242.1096, 1999.837
242.5918, 2005.981
243.0739, 2011.568
243.5560, 2016.110
244.0381, 2019.562
244.5202, 2021.997
245.0023, 2022.988
245.4845, 2023.191
245.9666, 2023.777
246.4487, 2024.999
246.9308, 2024.822
247.4129, 2020.662
247.8950, 2012.854
248.3772, 2004.789
248.8593, 1996.065
249.3414, 1987.749
249.8235, 1981.661
250.3056, 1978.196
250.7877, 1974.588
251.2699, 1967.128
251.7520, 1957.460
252.2341, 1950.904
252.7162, 1950.600
253.1983, 1953.038
253.6804, 1953.559
254.1626, 1951.607
254.6447, 1950.368
255.1268, 1952.668
255.6089, 1957.173
256.0910, 1961.738
256.5731, 1965.580
257.0552, 1969.427
257.5374, 1974.198
258.0195, 1979.913
258.5016, 1986.448
258.9837, 1994.784
259.4658, 2003.669
259.9479, 2011.644
260.4301, 2018.318
260.9122, 2023.943
261.3943, 2028.805
261.8764, 2032.908
262.3585, 2036.305
262.8406, 2039.441
263.3228, 2041.644
263.8049, 2042.131
264.2870, 2040.666
264.7691, 2037.525
265.2512, 2033.397
265.7333, 2028.612
266.2155, 2021.115
266.6976, 2008.744
267.1797, 1994.069
267.6618, 1978.081
268.1439, 1960.949
268.6260, 1944.162
269.1082, 1929.753
269.5903, 1918.085
270.0724, 1906.707
270.5545, 1894.400
271.0366, 1882.769
271.5187, 1872.994
272.0009, 1865.213
272.4830, 1858.502
272.9651, 1851.867
273.4472, 1845.264
273.9293, 1839.033
274.4114, 1833.294
274.8936, 1827.889
275.3757, 1822.732
275.8578, 1817.852
276.3399, 1813.257
276.8220, 1809.047
277.3041, 1805.311
277.7863, 1801.465
278.2684, 1796.414
278.7505, 1792.207
279.2326, 1790.428
279.7147, 1790.444
280.1968, 1790.188
280.6790, 1787.917
281.1611, 1783.579
281.6432, 1778.695
282.1253, 1771.891
282.6074, 1765.857
283.0895, 1761.792
283.5717, 1759.138
284.0538, 1756.682
284.5359, 1753.520
285.0180, 1749.744
285.5001, 1746.423
285.9822, 1743.550
286.4644, 1741.236
286.9465, 1740.350
287.4286, 1739.878
287.9107, 1738.164
288.3928, 1734.110
288.8749, 1728.398
289.3571, 1724.069
289.8392, 1722.192
290.3213, 1720.419
290.8034, 1718.535
291.2855, 1716.480
291.7676, 1714.153
292.2498, 1711.508
292.7319, 1708.697
293.2140, 1706.112
293.6961, 1703.836
294.1782, 1701.673
294.6603, 1699.492
295.1425, 1697.473
295.6246, 1695.768
296.1067, 1694.428
296.5888, 1693.407
297.0709, 1692.630
297.5530, 1692.152
298.0351, 1691.856
298.5172, 1692.350
298.9994, 1692.578
299.4815, 1691.674
299.9636, 1689.575
300.4457, 1686.987
300.9278, 1684.789
301.4099, 1683.189
301.8921, 1681.298
302.3742, 1678.920
302.8563, 1676.453
303.3384, 1673.960
303.8205, 1671.526
304.3026, 1669.383
304.7848, 1667.846
305.2669, 1667.030
305.7490, 1665.427
306.2311, 1662.991
306.7132, 1659.875
307.1953, 1655.264
307.6775, 1649.974
308.1596, 1645.803
308.6417, 1644.164
309.1238, 1644.714
309.6059, 1643.828
310.0880, 1639.565
310.5702, 1635.928
311.0523, 1633.562
311.5344, 1632.281
312.0165, 1631.895
312.4986, 1632.345
312.9807, 1633.301
313.4629, 1633.746
313.9450, 1633.847
314.4271, 1633.084
314.9092, 1631.112
315.3913, 1628.447
315.8734, 1625.240
316.3556, 1621.622
316.8377, 1618.283
317.3198, 1616.614
317.8019, 1618.395
318.2840, 1618.597
318.7661, 1616.395
319.2483, 1613.416
319.7304, 1610.839
320.2125, 1608.807
320.6946, 1606.620
321.1767, 1603.377
321.6588, 1598.617
322.1410, 1594.536
322.6231, 1592.086
323.1052, 1589.323
323.5873, 1584.885
324.0694, 1579.192
324.5515, 1573.939
325.0337, 1570.697
325.5158, 1569.482
325.9979, 1566.158
326.4800, 1558.671
326.9621, 1551.263
327.4442, 1544.889
327.9264, 1539.348
328.4085, 1534.282
328.8906, 1529.519
329.3727, 1524.951
329.8548, 1520.121
330.3369, 1514.284
330.8191, 1509.215
331.3012, 1505.118
331.7833, 1501.834
332.2654, 1499.436
332.7475, 1497.907
333.2296, 1496.634
333.7118, 1494.332
334.1939, 1489.800
334.6760, 1486.584
335.1581, 1485.274
335.6402, 1484.705
336.1223, 1484.036
336.6045, 1483.177
337.0866, 1482.679
337.5687, 1483.472
338.0508, 1486.255
338.5329, 1486.890
339.0150, 1482.623
339.4972, 1478.888
339.9793, 1478.022
340.4614, 1479.584
340.9435, 1481.906
341.4256, 1483.775
341.9077, 1485.244
342.3898, 1486.953
342.8719, 1489.155
343.3541, 1491.360
343.8362, 1493.782
344.3183, 1496.066
344.8004, 1497.501
345.2825, 1497.659
345.7646, 1497.385
346.2468, 1499.018
346.7289, 1503.873
347.2110, 1508.220
347.6931, 1511.206
348.1752, 1513.780
348.6573, 1516.573
349.1395, 1519.787
349.6216, 1523.424
350.1037, 1527.587
350.5858, 1532.374
351.0679, 1537.192
351.5500, 1542.565
352.0322, 1547.443
352.5143, 1550.753
352.9964, 1552.927
353.4785, 1555.605
353.9606, 1560.203
354.4427, 1566.647
354.9249, 1573.510
355.4070, 1581.506
355.8891, 1588.985
356.3712, 1594.966
356.8533, 1600.201
357.3354, 1605.831
357.8176, 1612.366
358.2997, 1619.789
358.7818, 1628.158
359.2639, 1638.027
359.7460, 1647.626
360.2281, 1655.563
360.7103, 1663.517
361.1924, 1673.377
361.6745, 1685.647
362.1566, 1698.325
362.6387, 1708.709
363.1208, 1716.593
363.6030, 1725.027
364.0851, 1734.770
364.5672, 1745.032
365.0493, 1755.476
365.5314, 1765.986
366.0135, 1776.293
366.4957, 1785.744
366.9778, 1794.665
367.4599, 1804.754
367.9420, 1816.352
368.4241, 1828.552
368.9063, 1840.985
369.3884, 1853.567
369.8705, 1866.281
370.3526, 1879.192
370.8347, 1892.086
371.3168, 1905.037
371.7990, 1918.199
372.2811, 1930.135
372.7632, 1939.113
373.2453, 1947.160
373.7274, 1956.922
374.2095, 1969.148
374.6917, 1981.016
375.1738, 1990.800
375.6559, 1998.534
376.1380, 2004.402
376.6201, 2008.253
377.1022, 2010.526
377.5844, 2012.012
378.0665, 2012.704
378.5486, 2011.470
379.0307, 2008.652
379.5128, 2003.363
379.9949, 1993.451
380.4771, 1978.344
380.9592, 1962.262
381.4413, 1948.311
381.9234, 1935.779
382.4055, 1922.201
382.8876, 1907.937
383.3698, 1891.948
383.8519, 1872.715
384.3340, 1850.953
384.8161, 1829.034
385.2982, 1807.954
385.7803, 1787.527
386.2624, 1767.834
386.7445, 1748.719
387.2267, 1730.305
387.7088, 1712.391
388.1909, 1695.186
388.6730, 1679.082
389.1551, 1664.087
389.6372, 1650.119
390.1194, 1637.151
390.6015, 1625.383
391.0836, 1613.830
391.5657, 1600.896
392.0478, 1589.585
392.5299, 1582.691
393.0121, 1579.263
393.4942, 1575.826
393.9763, 1570.098
394.4584, 1562.670
394.9405, 1556.656
395.4226, 1553.064
395.9048, 1549.555
396.3869, 1545.782
396.8690, 1541.894
397.3511, 1537.690
397.8332, 1533.210
398.3153, 1529.389
398.7975, 1527.883
399.2796, 1530.171
399.7617, 1530.957
400.2438, 1529.025
400.7259, 1526.889
401.2080, 1525.957
401.6902, 1526.154
402.1723, 1526.652
402.6544, 1526.771
403.1365, 1526.584
403.6186, 1526.955
404.1007, 1527.900
404.5829, 1529.478
405.0650, 1532.309
405.5471, 1535.525
406.0292, 1538.094
406.5113, 1539.615
406.9934, 1540.524
407.4756, 1541.257
407.9577, 1541.094
408.4398, 1542.997
408.9219, 1549.512
409.4040, 1556.322
409.8861, 1561.199
410.3683, 1564.106
410.8504, 1566.150
411.3325, 1567.884
411.8146, 1569.431
412.2967, 1571.728
412.7788, 1575.136
413.2610, 1578.719
413.7431, 1582.793
414.2252, 1586.590
414.7073, 1588.857
415.1894, 1588.864
415.6715, 1587.992
416.1537, 1588.176
416.6358, 1589.493
417.1179, 1590.318
417.6000, 1590.064
418.0821, 1589.207
418.5642, 1588.486
419.0464, 1587.901
419.5285, 1586.440
420.0106, 1583.133
420.4927, 1578.630
420.9748, 1574.341
421.4569, 1570.413
421.9391, 1566.640
422.4212, 1563.676
422.9033, 1560.735
423.3854, 1555.250
423.8675, 1544.523
424.3496, 1533.506
424.8318, 1525.935
425.3139, 1521.019
425.7960, 1515.871
426.2781, 1509.175
426.7602, 1502.000
427.2423, 1496.647
427.7245, 1493.648
428.2066, 1490.241
428.6887, 1484.806
429.1708, 1479.412
429.6529, 1476.474
430.1350, 1476.133
430.6172, 1476.448
431.0992, 1475.733
431.5814, 1473.974
432.0635, 1472.740
432.5456, 1472.860
433.0277, 1472.479
433.5098, 1470.642
433.9919, 1467.997
434.4741, 1465.421
434.9562, 1463.277
435.4383, 1461.755
435.9204, 1461.395
436.4025, 1463.801
436.8846, 1464.260
437.3668, 1461.100
437.8489, 1457.674
438.3310, 1456.125
438.8131, 1456.333
439.2952, 1456.900
439.7773, 1456.713
440.2595, 1455.839
440.7416, 1454.961
441.2237, 1454.243
441.7058, 1453.256
442.1879, 1450.989
442.6700, 1448.822
443.1522, 1448.690
443.6343, 1451.286
444.1164, 1454.445
444.5985, 1455.144
445.0806, 1453.155
445.5627, 1451.739
446.0449, 1451.845
446.5270, 1452.131
447.0091, 1452.058
447.4912, 1451.491
447.9733, 1450.017
448.4554, 1447.112
448.9376, 1443.290
449.4197, 1439.430
449.9018, 1435.524
450.3839, 1431.496
450.8660, 1427.299
451.3481, 1422.939
451.8303, 1418.768
452.3124, 1415.394
452.7945, 1410.367
453.2766, 1400.987
453.7587, 1389.285
454.2408, 1379.507
454.7230, 1372.700
455.2051, 1366.552
455.6872, 1358.455
456.1693, 1348.241
456.6514, 1339.911
457.1335, 1333.730
457.6157, 1329.202
458.0978, 1326.887
458.5799, 1326.040
459.0620, 1325.032
459.5441, 1323.121
460.0262, 1320.393
460.5084, 1317.057
460.9905, 1312.007
461.4726, 1308.115
461.9547, 1306.087
462.4368, 1304.672
462.9189, 1302.858
463.4011, 1300.676
463.8832, 1299.008
464.3653, 1298.804
464.8474, 1299.894
465.3295, 1299.411
465.8116, 1295.495
466.2938, 1292.379
466.7759, 1291.602
467.2580, 1291.711
467.7401, 1290.904
468.2222, 1288.648
468.7043, 1286.326
469.1865, 1286.280
469.6686, 1288.816
470.1507, 1289.488
470.6328, 1286.854
471.1149, 1283.409
471.5970, 1279.787
472.0792, 1276.487
472.5613, 1274.776
473.0434, 1275.863
473.5255, 1278.207
474.0076, 1279.667
474.4897, 1280.230
474.9719, 1280.231
475.4540, 1279.497
475.9361, 1278.523
476.4182, 1278.236
476.9003, 1278.819
477.3824, 1278.773
477.8645, 1277.048
478.3466, 1274.591
478.8288, 1272.612
479.3109, 1271.255
479.7930, 1270.406
480.2751, 1270.160
480.7572, 1270.375
481.2393, 1269.857
481.7215, 1268.620
482.2036, 1266.771
482.6857, 1263.908
483.1678, 1260.613
483.6499, 1257.732
484.1320, 1255.487
484.6142, 1253.288
485.0963, 1250.368
485.5784, 1246.612
486.0605, 1242.634
486.5426, 1238.855
487.0247, 1234.404
487.5069, 1228.567
487.9890, 1221.888
488.4711, 1215.242
488.9532, 1209.085
489.4353, 1203.323
489.9174, 1197.725
490.3996, 1192.061
490.8817, 1187.440
491.3638, 1185.491
491.8459, 1183.496
492.3280, 1180.037
492.8102, 1175.149
493.2923, 1169.511
493.7744, 1162.582
494.2565, 1155.501
494.7386, 1151.247
495.2207, 1150.321
495.7029, 1149.100
496.1850, 1145.708
496.6671, 1141.184
497.1492, 1137.024
497.6313, 1133.164
498.1134, 1130.147
498.5956, 1128.848
499.0777, 1128.340
499.5598, 1127.231
500.0419, 1125.311
500.5240, 1122.721
501.0061, 1119.306
501.4883, 1115.223
501.9704, 1112.470
502.4525, 1112.405
502.9346, 1111.931
503.4167, 1109.689
503.8988, 1106.646
504.3810, 1104.143
504.8631, 1102.567
505.3452, 1101.372
505.8273, 1099.858
506.3094, 1097.997
506.7915, 1095.983
507.2737, 1093.470
507.7558, 1091.171
508.2379, 1089.356
508.7200, 1087.904
509.2021, 1086.679
509.6842, 1085.644
510.1664, 1084.563
510.6485, 1082.795
511.1306, 1080.116
511.6127, 1078.406
512.0948, 1078.829
512.5769, 1079.378
513.0590, 1078.708
513.5411, 1077.036
514.0233, 1075.219
514.5054, 1073.516
514.9875, 1071.963
515.4696, 1070.583
515.9517, 1069.386
516.4338, 1068.731
516.9160, 1069.264
517.3981, 1069.799
517.8802, 1067.953
518.3623, 1063.382
518.8444, 1059.274
519.3265, 1055.999
519.8087, 1053.718
520.2908, 1053.335
520.7729, 1054.370
521.2550, 1054.468
521.7371, 1051.955
522.2192, 1047.611
522.7014, 1044.535
523.1835, 1043.867
523.6656, 1043.038
524.1477, 1041.673
524.6298, 1040.324
525.1119, 1039.488
525.5941, 1039.144
526.0762, 1038.917
526.5583, 1038.582
527.0404, 1038.069
527.5225, 1036.768
528.0046, 1033.914
528.4868, 1031.782
528.9689, 1032.267
529.4510, 1033.051
529.9331, 1031.610
530.4152, 1027.543
530.8973, 1023.470
531.3795, 1021.642
531.8616, 1021.382
532.3437, 1020.702
532.8258, 1019.396
533.3079, 1017.926
533.7900, 1016.446
534.2722, 1015.047
534.7543, 1013.988
535.2364, 1013.551
535.7185, 1012.963
536.2006, 1011.781
536.6827, 1010.297
537.1649, 1008.711
537.6470, 1007.124
538.1291, 1006.227
538.6112, 1006.930
539.0933, 1009.273
539.5754, 1009.829
540.0576, 1007.267
540.5397, 1004.627
541.0218, 1002.191
541.5039, 1000.174
541.9860, 998.9073
542.4681, 998.4222
542.9503, 998.2373
543.4324, 997.8375
543.9145, 997.2188
544.3966, 996.5173
544.8787, 995.9604
545.3608, 994.9455
545.8430, 992.4070
546.3251, 989.5865
546.8072, 988.4189
547.2893, 989.7076
547.7714, 991.3387
548.2535, 991.4796
548.7357, 990.4627
549.2178, 989.4229
549.6999, 988.5704
550.1820, 987.5817
550.6641, 985.7956
551.1462, 983.5099
551.6284, 982.8068
552.1105, 985.4291
552.5926, 987.6899
553.0747, 987.9567
553.5568, 986.9901
554.0389, 985.7998
554.5211, 984.6838
555.0032, 983.6245
555.4853, 982.5798
555.9674, 981.5292
556.4495, 980.7274
556.9316, 980.5507
557.4138, 980.1914
557.8959, 979.2192
558.3780, 978.0751
558.8601, 977.2724
559.3422, 976.9650
559.8243, 976.9821
560.3065, 977.6132
560.7886, 978.7258
561.2707, 977.9032
561.7528, 973.9778
562.2349, 970.2517
562.7170, 969.1389
563.1992, 969.4692
563.6813, 969.5119
564.1634, 968.8570
564.6455, 968.2010
565.1276, 968.1035
565.6097, 968.2823
566.0919, 968.2087
566.5740, 967.7826
567.0561, 967.0828
567.5382, 966.0744
568.0203, 964.7892
568.5024, 964.0117
568.9846, 964.4376
569.4667, 964.4092
569.9488, 962.8751
570.4309, 961.0785
570.9130, 960.6171
571.3951, 961.6346
571.8773, 962.8114
572.3594, 962.9542
572.8415, 962.0699
573.3236, 960.0344
573.8057, 955.4966
574.2878, 952.2968
574.7700, 952.9324
575.2521, 954.7031
575.7342, 954.9181
576.2163, 953.1202
576.6984, 951.0057
577.1805, 949.8585
577.6627, 949.2025
578.1448, 947.7479
578.6269, 945.3471
579.1090, 943.6564
579.5911, 943.9854
580.0732, 945.5091
580.5554, 945.7051
581.0375, 943.9406
581.5196, 942.3994
582.0017, 941.2122
582.4838, 940.6082
582.9659, 941.3429
583.4481, 943.0211
583.9302, 944.0139
584.4123, 943.1124
584.8944, 940.8874
585.3765, 939.4664
585.8586, 939.2820
586.3408, 939.0143
586.8229, 937.9698
587.3050, 937.2502
587.7871, 937.9249
588.2692, 939.6562
588.7513, 941.0282
589.2334, 941.3731
589.7155, 940.7853
590.1976, 938.9669
590.6797, 935.9553
591.1619, 933.7461
591.6440, 933.1249
592.1261, 933.3349
592.6082, 933.6244
593.0903, 934.0085
593.5724, 933.9631
594.0546, 933.0596
594.5367, 932.0422
595.0188, 931.2851
595.5009, 930.7728
595.9830, 930.3896
596.4651, 930.0887
596.9473, 930.0330
597.4294, 930.6381
597.9115, 932.2944
598.3936, 932.6917
598.8757, 929.9096
599.3578, 927.8883
599.8400, 928.6248
600.3221, 930.5251
600.8042, 931.1926
601.2863, 929.8130
601.7684, 928.0519
602.2505, 927.8467
602.7327, 928.7817
603.2148, 928.7956
603.6969, 927.4239
604.1790, 926.2204
604.6611, 926.2015
605.1432, 927.1654
605.6254, 928.3105
606.1075, 929.8943
606.5896, 931.1838
607.0717, 931.5309
607.5538, 931.7146
608.0359, 932.7899
608.5181, 934.6818
609.0002, 936.4077
609.4823, 937.2669
609.9644, 937.3300
610.4465, 936.8040
610.9286, 934.9022
611.4108, 933.9600
611.8929, 934.7423
612.3750, 936.0572
612.8571, 937.3258
613.3392, 938.4619
613.8214, 939.4908
614.3035, 940.3838
614.7856, 941.2181
615.2677, 942.1739
615.7498, 943.2267
616.2319, 943.9942
616.7141, 944.2675
617.1962, 944.4444
617.6783, 944.9481
618.1604, 945.7881
618.6425, 946.8353
619.1246, 948.3613
619.6068, 949.7951
620.0889, 951.1783
620.5710, 952.1998
621.0531, 952.1903
621.5352, 951.0653
622.0173, 949.7398
622.4995, 949.3538
622.9816, 949.9082
623.4637, 949.8878
623.9458, 949.3505
624.4279, 948.1016
624.9100, 945.7704
625.3922, 942.9591
625.8743, 940.0904
626.3564, 937.2304
626.8385, 934.7356
627.3206, 932.6870
627.8027, 931.1907
628.2849, 930.6622
628.7670, 931.0343
629.2491, 931.1849
629.7312, 930.4657
630.2133, 929.4560
630.6954, 929.2816
631.1776, 930.2853
631.6597, 931.2987
632.1418, 931.9316
632.6239, 932.9523
