##NAMES=Powellite
##RRUFFID=R050355
##IDEAL CHEMISTRY=CaMo^6+^O_4_
##LOCALITY=Nasik, India
##OWNER=RRUFF
##SOURCE=George Rossman
##DESCRIPTION=Light brown fragment
##STATUS=The identification of this mineral has been confirmed by X-ray diffraction and chemical analysis
##URL=rruff.info/R050355
##MEASURED CHEMISTRY=Ca_1.00_Mo_1.00_O_4_
127.2358, 1722.363
127.7179, 1715.931
128.2001, 1703.220
128.6822, 1687.632
129.1643, 1670.523
129.6464, 1652.317
130.1285, 1639.403
130.6106, 1631.583
131.0928, 1629.827
131.5749, 1638.956
132.0570, 1655.081
132.5391, 1670.053
133.0212, 1676.201
133.5033, 1671.569
133.9855, 1671.625
134.4676, 1673.114
134.9497, 1680.588
135.4318, 1699.308
135.9139, 1728.634
136.3960, 1760.556
136.8782, 1784.388
137.3603, 1796.974
137.8424, 1821.544
138.3245, 1858.925
138.8066, 1909.066
139.2887, 1970.829
139.7709, 2042.917
140.2530, 2129.896
140.7351, 2250.300
141.2172, 2400.244
141.6993, 2535.091
142.1814, 2657.760
142.6636, 2754.920
143.1457, 2773.636
143.6278, 2678.755
144.1099, 2519.080
144.5920, 2327.273
145.0741, 2106.690
145.5563, 1895.958
146.0384, 1727.363
146.5205, 1603.118
147.0026, 1504.314
147.4847, 1437.637
147.9668, 1390.457
148.4490, 1362.936
148.9311, 1353.718
149.4132, 1352.161
149.8953, 1341.566
150.3774, 1314.198
150.8595, 1293.560
151.3417, 1281.535
151.8238, 1275.480
152.3059, 1274.622
152.7880, 1278.427
153.2701, 1285.031
153.7522, 1289.720
154.2344, 1293.662
154.7165, 1293.714
155.1986, 1286.351
155.6807, 1275.938
156.1628, 1267.467
156.6449, 1263.339
157.1271, 1263.274
157.6092, 1266.676
158.0913, 1280.408
158.5734, 1289.479
159.0555, 1283.664
159.5376, 1268.961
160.0198, 1262.472
160.5019, 1276.988
160.9840, 1305.055
161.4661, 1318.271
161.9482, 1307.876
162.4303, 1292.727
162.9125, 1284.001
163.3946, 1281.542
163.8767, 1282.496
164.3588, 1287.484
164.8409, 1294.309
165.3230, 1299.068
165.8052, 1299.454
166.2873, 1299.020
166.7694, 1302.682
167.2515, 1311.431
167.7336, 1321.013
168.2157, 1331.775
168.6979, 1341.547
169.1800, 1346.988
169.6621, 1345.086
170.1442, 1339.102
170.6263, 1338.931
171.1084, 1350.143
171.5906, 1358.273
172.0727, 1353.529
172.5548, 1344.208
173.0369, 1342.759
173.5190, 1358.359
174.0011, 1388.261
174.4833, 1409.135
174.9654, 1407.626
175.4475, 1409.924
175.9296, 1423.191
176.4117, 1444.293
176.8938, 1466.317
177.3760, 1483.475
177.8581, 1495.389
178.3402, 1517.800
178.8223, 1563.904
179.3044, 1606.375
179.7865, 1629.748
180.2687, 1639.499
180.7508, 1652.801
181.2329, 1683.966
181.7150, 1734.874
182.1971, 1791.225
182.6792, 1855.882
183.1614, 1922.566
183.6435, 1987.957
184.1256, 2051.730
184.6077, 2115.759
185.0898, 2182.810
185.5719, 2252.756
186.0540, 2316.130
186.5362, 2368.413
187.0183, 2416.406
187.5004, 2465.684
187.9825, 2516.973
188.4646, 2568.732
188.9467, 2622.824
189.4289, 2677.213
189.9110, 2723.167
190.3931, 2747.476
190.8752, 2765.458
191.3573, 2803.043
191.8394, 2866.861
192.3216, 2937.130
192.8037, 2998.286
193.2858, 3053.657
193.7679, 3111.184
194.2500, 3170.575
194.7321, 3234.264
195.2143, 3311.574
195.6964, 3405.241
196.1785, 3509.968
196.6606, 3616.118
197.1427, 3728.638
197.6248, 3857.704
198.1070, 4012.444
198.5891, 4191.127
199.0712, 4375.315
199.5533, 4551.433
200.0354, 4751.357
200.5175, 4987.953
200.9997, 5255.531
201.4818, 5543.745
201.9639, 5855.050
202.4460, 6191.821
202.9281, 6465.423
203.4102, 6689.082
203.8924, 6827.678
204.3745, 6869.068
204.8566, 6813.094
205.3387, 6658.507
205.8208, 6397.561
206.3029, 6018.998
206.7851, 5624.376
207.2672, 5182.505
207.7493, 4754.506
208.2314, 4355.551
208.7135, 3992.822
209.1956, 3676.027
209.6778, 3415.970
210.1599, 3218.670
210.6420, 3046.161
211.1241, 2901.602
211.6062, 2773.863
212.0883, 2659.489
212.5705, 2557.568
213.0526, 2465.905
213.5347, 2382.493
214.0168, 2308.372
214.4989, 2242.628
214.9810, 2190.024
215.4632, 2141.091
215.9453, 2092.343
216.4274, 2042.620
216.9095, 1987.317
217.3916, 1919.095
217.8737, 1838.069
218.3559, 1771.625
218.8380, 1726.150
219.3201, 1691.009
219.8022, 1659.368
220.2843, 1630.696
220.7664, 1601.102
221.2486, 1564.949
221.7307, 1524.660
222.2128, 1491.935
222.6949, 1472.422
223.1770, 1459.138
223.6591, 1445.293
224.1413, 1430.780
224.6234, 1414.943
225.1055, 1395.016
225.5876, 1373.598
226.0697, 1355.835
226.5518, 1344.969
227.0340, 1337.569
227.5161, 1328.544
227.9982, 1317.308
228.4803, 1306.456
228.9624, 1298.245
229.4445, 1291.229
229.9267, 1283.316
230.4088, 1273.236
230.8909, 1262.366
231.3730, 1253.590
231.8551, 1247.638
232.3372, 1242.025
232.8194, 1233.363
233.3015, 1225.051
233.7836, 1221.752
234.2657, 1226.428
234.7478, 1235.545
235.2299, 1241.374
235.7121, 1243.555
236.1942, 1242.829
236.6763, 1237.712
237.1584, 1231.021
237.6405, 1225.390
238.1227, 1221.812
238.6048, 1220.358
239.0869, 1221.973
239.5690, 1231.204
240.0511, 1235.173
240.5332, 1227.140
241.0154, 1215.435
241.4975, 1208.162
241.9796, 1208.773
242.4617, 1215.198
242.9438, 1223.120
243.4259, 1238.672
243.9081, 1245.248
244.3902, 1235.054
244.8723, 1218.974
245.3544, 1206.608
245.8365, 1201.721
246.3186, 1202.570
246.8007, 1205.372
247.2829, 1212.399
247.7650, 1218.112
248.2471, 1221.769
248.7292, 1224.355
249.2113, 1226.018
249.6934, 1226.984
250.1756, 1228.681
250.6577, 1234.309
251.1398, 1252.706
251.6219, 1261.555
252.1040, 1250.887
252.5861, 1236.367
253.0683, 1233.953
253.5504, 1247.701
254.0325, 1267.063
254.5146, 1274.348
254.9967, 1257.724
255.4788, 1250.739
255.9610, 1260.924
256.4431, 1276.289
256.9252, 1286.449
257.4073, 1289.016
257.8894, 1288.524
258.3716, 1291.396
258.8537, 1300.737
259.3358, 1304.546
259.8179, 1295.056
260.3000, 1284.680
260.7821, 1284.032
261.2643, 1294.957
261.7464, 1313.129
262.2285, 1335.597
262.7106, 1364.505
263.1927, 1385.281
263.6748, 1391.831
264.1570, 1393.831
264.6391, 1400.453
265.1212, 1412.373
265.6033, 1422.024
266.0854, 1421.216
266.5675, 1409.252
267.0497, 1400.562
267.5318, 1394.669
268.0139, 1392.714
268.4960, 1399.641
268.9781, 1414.786
269.4602, 1424.698
269.9424, 1416.330
270.4245, 1392.481
270.9066, 1377.368
271.3887, 1375.914
271.8708, 1380.029
272.3529, 1384.173
272.8351, 1388.358
273.3172, 1394.075
273.7993, 1402.317
274.2814, 1413.038
274.7635, 1425.446
275.2456, 1444.118
275.7278, 1459.296
276.2099, 1461.948
276.6920, 1453.426
277.1741, 1444.354
277.6562, 1437.896
278.1383, 1435.543
278.6204, 1439.120
279.1025, 1451.029
279.5847, 1463.728
280.0668, 1472.671
280.5489, 1478.197
281.0310, 1481.441
281.5131, 1480.135
281.9952, 1479.639
282.4774, 1487.726
282.9595, 1505.713
283.4416, 1524.207
283.9237, 1537.827
284.4058, 1547.305
284.8879, 1555.015
285.3701, 1558.774
285.8522, 1564.915
286.3343, 1581.048
286.8164, 1606.630
287.2985, 1632.191
287.7806, 1652.027
288.2628, 1667.835
288.7449, 1685.717
289.2270, 1708.936
289.7091, 1729.810
290.1912, 1738.968
290.6733, 1739.832
291.1555, 1745.281
291.6376, 1763.300
292.1197, 1789.847
292.6018, 1814.933
293.0839, 1835.744
293.5660, 1860.692
294.0482, 1899.720
294.5303, 1946.155
295.0124, 1988.128
295.4945, 2016.045
295.9766, 2039.143
296.4587, 2073.991
296.9409, 2122.233
297.4230, 2176.850
297.9051, 2237.017
298.3872, 2301.093
298.8693, 2367.239
299.3514, 2433.533
299.8336, 2504.255
300.3157, 2585.456
300.7978, 2678.211
301.2799, 2778.081
301.7620, 2887.351
302.2441, 3001.817
302.7263, 3119.632
303.2084, 3241.212
303.6905, 3362.653
304.1726, 3477.832
304.6547, 3585.873
305.1368, 3703.663
305.6190, 3842.511
306.1011, 3988.059
306.5832, 4126.795
307.0653, 4258.269
307.5474, 4394.170
308.0295, 4543.214
308.5117, 4704.718
308.9938, 4875.297
309.4759, 5057.166
309.9580, 5245.490
310.4401, 5435.438
310.9222, 5627.194
311.4044, 5822.522
311.8865, 6021.071
312.3686, 6222.730
312.8507, 6430.392
313.3328, 6643.357
313.8149, 6864.262
314.2971, 7088.006
314.7792, 7321.302
315.2613, 7579.463
315.7434, 7875.235
316.2255, 8197.788
316.7076, 8523.581
317.1898, 8852.765
317.6719, 9193.378
318.1540, 9558.438
318.6361, 9933.536
319.1182, 10307.33
319.6003, 10683.05
320.0825, 11043.24
320.5646, 11375.15
321.0467, 11684.39
321.5288, 11929.44
322.0109, 12078.58
322.4930, 12164.06
322.9752, 12206.94
323.4573, 12210.23
323.9394, 12163.94
324.4215, 12050.95
324.9036, 11872.87
325.3857, 11666.08
325.8679, 11421.78
326.3500, 11163.64
326.8321, 10915.77
327.3142, 10674.01
327.7963, 10413.57
328.2784, 10118.96
328.7606, 9792.158
329.2427, 9439.260
329.7248, 9058.346
330.2069, 8654.411
330.6890, 8214.694
331.1711, 7757.170
331.6533, 7317.475
332.1354, 6907.950
332.6175, 6528.094
333.0996, 6182.831
333.5817, 5878.940
334.0638, 5582.438
334.5460, 5268.799
335.0281, 4956.315
335.5102, 4667.289
335.9923, 4405.354
336.4744, 4169.012
336.9565, 3956.890
337.4387, 3770.481
337.9208, 3597.069
338.4029, 3437.132
338.8850, 3286.178
339.3671, 3137.296
339.8492, 2988.468
340.3314, 2854.448
340.8135, 2752.137
341.2956, 2676.344
341.7777, 2599.800
342.2598, 2515.887
342.7419, 2432.975
343.2241, 2356.027
343.7062, 2284.906
344.1883, 2221.845
344.6704, 2171.282
345.1525, 2128.913
345.6346, 2083.865
346.1168, 2033.026
346.5989, 1987.950
347.0810, 1964.746
347.5631, 1952.801
348.0452, 1932.965
348.5273, 1893.342
349.0095, 1850.141
349.4916, 1824.057
349.9737, 1815.611
350.4558, 1804.475
350.9379, 1776.672
351.4200, 1743.689
351.9022, 1725.454
352.3843, 1728.386
352.8664, 1730.837
353.3485, 1716.402
353.8306, 1689.014
354.3127, 1663.261
354.7949, 1641.077
355.2770, 1625.395
355.7591, 1622.694
356.2412, 1632.655
356.7233, 1639.507
357.2054, 1636.835
357.6876, 1627.809
358.1697, 1615.959
358.6518, 1601.110
359.1339, 1587.789
359.6160, 1579.900
360.0981, 1577.104
360.5803, 1577.559
361.0624, 1584.407
361.5445, 1591.945
362.0266, 1594.511
362.5087, 1592.755
362.9908, 1592.465
363.4730, 1597.554
363.9551, 1605.948
364.4372, 1610.328
364.9193, 1603.054
365.4014, 1604.381
365.8835, 1627.694
366.3657, 1664.939
366.8478, 1700.010
367.3299, 1727.262
367.8120, 1751.401
368.2941, 1777.551
368.7762, 1801.903
369.2584, 1843.736
369.7405, 1915.625
370.2226, 2000.256
370.7047, 2077.922
371.1868, 2147.518
371.6689, 2225.704
372.1511, 2331.510
372.6332, 2466.666
373.1153, 2581.999
373.5974, 2676.275
374.0795, 2755.399
374.5616, 2819.100
375.0438, 2870.040
375.5259, 2912.714
376.0080, 2947.822
376.4901, 2979.691
376.9722, 3023.870
377.4543, 3087.846
377.9365, 3153.985
378.4186, 3219.464
378.9007, 3286.780
379.3828, 3356.009
379.8649, 3427.828
380.3470, 3507.442
380.8292, 3602.100
381.3113, 3715.130
381.7934, 3836.892
382.2755, 3963.807
382.7576, 4101.251
383.2397, 4250.556
383.7219, 4412.940
384.2040, 4586.712
384.6861, 4767.859
385.1682, 4958.358
385.6503, 5186.040
386.1324, 5467.564
386.6146, 5770.164
387.0967, 6082.960
387.5788, 6413.767
388.0609, 6783.313
388.5430, 7198.830
389.0251, 7633.078
389.5073, 8048.031
389.9894, 8509.021
390.4715, 8801.640
390.9536, 8949.023
391.4357, 8928.443
391.9178, 8697.833
392.4000, 8269.938
392.8821, 7712.229
393.3642, 7062.136
393.8463, 6314.238
394.3284, 5614.875
394.8105, 4931.855
395.2927, 4337.731
395.7748, 3866.432
396.2569, 3494.868
396.7390, 3182.771
397.2211, 2913.464
397.7032, 2685.895
398.1854, 2503.089
398.6675, 2372.014
399.1496, 2263.230
399.6317, 2178.770
400.1138, 2106.595
400.5959, 2040.614
401.0780, 1979.670
401.5602, 1921.152
402.0423, 1860.923
402.5244, 1799.971
403.0065, 1748.758
403.4886, 1712.233
403.9707, 1680.961
404.4529, 1649.864
404.9350, 1618.465
405.4171, 1584.857
405.8992, 1544.717
406.3813, 1503.871
406.8634, 1472.372
407.3456, 1451.089
407.8277, 1430.777
408.3098, 1406.632
408.7919, 1380.571
409.2740, 1355.899
409.7561, 1332.759
410.2383, 1310.912
410.7204, 1289.428
411.2025, 1268.942
411.6846, 1250.630
412.1667, 1234.209
412.6488, 1221.522
413.1310, 1217.828
413.6131, 1222.876
414.0952, 1222.028
414.5773, 1206.101
415.0594, 1187.703
415.5415, 1180.204
416.0237, 1183.040
416.5058, 1185.036
416.9879, 1178.952
417.4700, 1165.939
417.9521, 1152.489
418.4342, 1133.191
418.9164, 1119.854
419.3985, 1117.509
419.8806, 1122.528
420.3627, 1131.596
420.8448, 1143.548
421.3269, 1154.102
421.8091, 1156.690
422.2912, 1148.505
422.7733, 1139.442
423.2554, 1127.134
423.7375, 1116.074
424.2196, 1110.030
424.7018, 1107.928
425.1839, 1105.542
425.6660, 1099.554
426.1481, 1090.940
426.6302, 1086.423
427.1123, 1093.674
427.5945, 1095.532
428.0766, 1084.002
428.5587, 1069.195
429.0408, 1061.615
429.5229, 1064.281
430.0050, 1071.952
430.4872, 1078.171
430.9693, 1083.403
431.4514, 1085.164
431.9335, 1079.847
432.4156, 1074.040
432.8977, 1071.145
433.3799, 1069.945
433.8620, 1066.448
434.3441, 1056.502
434.8262, 1043.937
435.3083, 1041.730
435.7904, 1055.185
436.2726, 1064.276
436.7547, 1055.503
437.2368, 1042.470
437.7189, 1038.132
438.2010, 1045.365
438.6831, 1054.002
439.1653, 1055.433
439.6474, 1050.719
440.1295, 1045.412
440.6116, 1040.112
441.0937, 1034.805
441.5758, 1026.879
442.0580, 1018.336
442.5401, 1016.636
443.0222, 1030.967
443.5043, 1048.168
443.9864, 1054.310
444.4685, 1050.335
444.9507, 1045.331
445.4328, 1043.118
445.9149, 1042.879
446.3970, 1042.883
446.8791, 1043.326
447.3612, 1043.438
447.8434, 1042.938
448.3255, 1042.029
448.8076, 1041.091
449.2897, 1040.151
449.7718, 1038.596
450.2539, 1035.622
450.7361, 1031.098
451.2182, 1028.073
451.7003, 1029.247
452.1824, 1028.765
452.6645, 1022.787
453.1466, 1014.072
453.6288, 1006.917
454.1109, 1003.187
454.5930, 1002.604
455.0751, 1005.162
455.5572, 1015.191
456.0393, 1019.652
456.5215, 1013.699
457.0036, 1007.241
457.4857, 1006.125
457.9678, 1010.012
458.4499, 1015.726
458.9320, 1021.775
459.4142, 1027.264
459.8963, 1026.438
460.3784, 1015.131
460.8605, 1004.839
461.3426, 994.2951
461.8247, 988.2471
462.3069, 994.8948
462.7890, 1016.213
463.2711, 1036.803
463.7532, 1037.994
464.2353, 1021.385
464.7174, 1009.532
465.1996, 1006.477
465.6817, 1006.177
466.1638, 1003.303
466.6459, 999.5737
467.1280, 999.8912
467.6101, 1010.757
468.0923, 1021.934
468.5744, 1018.968
469.0565, 1003.585
469.5386, 994.3101
470.0207, 1000.688
470.5028, 1013.981
470.9850, 1018.644
471.4671, 1013.920
471.9492, 1008.020
472.4313, 1001.421
472.9134, 995.5650
473.3955, 991.9117
473.8777, 990.6016
474.3598, 991.5975
474.8419, 995.7708
475.3240, 1002.308
475.8061, 1002.861
476.2882, 990.2069
476.7704, 981.3094
477.2525, 983.2019
477.7346, 989.0923
478.2167, 989.9224
478.6988, 983.6373
479.1809, 976.4575
479.6631, 977.3753
480.1452, 989.5362
480.6273, 993.5067
481.1094, 976.5515
481.5915, 964.4395
482.0736, 969.9719
482.5558, 985.4077
483.0379, 996.8970
483.5200, 997.7043
484.0021, 991.9966
484.4842, 987.3332
484.9663, 983.9122
485.4485, 980.4880
485.9306, 975.7921
486.4127, 971.9800
486.8948, 969.9921
487.3769, 970.0122
487.8590, 972.5629
488.3412, 982.0801
488.8233, 993.0677
489.3054, 992.5007
489.7875, 978.9466
490.2696, 967.4121
490.7517, 966.2997
491.2339, 971.7857
491.7160, 975.5311
492.1981, 977.2130
492.6802, 978.0599
493.1623, 978.7802
493.6444, 978.8887
494.1266, 977.3763
494.6087, 974.1028
495.0908, 970.1301
495.5729, 965.6637
496.0550, 960.8367
496.5371, 961.2302
497.0193, 975.1469
497.5014, 983.8664
497.9835, 977.1620
498.4656, 963.3790
498.9477, 954.6478
499.4298, 954.8391
499.9120, 958.4785
500.3941, 956.9741
500.8762, 947.2983
501.3583, 944.5825
501.8404, 956.6805
502.3225, 967.7621
502.8047, 973.0175
503.2868, 973.0118
503.7689, 968.6255
504.2510, 959.5993
504.7331, 949.3370
505.2152, 943.7908
505.6974, 943.1714
506.1795, 946.1230
506.6616, 956.4395
507.1437, 966.3950
507.6258, 969.5060
508.1079, 966.7941
508.5901, 964.2737
509.0722, 966.8603
509.5543, 970.3383
510.0364, 967.4387
510.5185, 958.2457
511.0006, 949.3379
511.4828, 942.3649
511.9649, 938.9340
512.4470, 943.6337
512.9291, 959.3287
513.4112, 971.8961
513.8933, 975.8173
514.3754, 975.9666
514.8575, 978.0625
515.3397, 982.1075
515.8218, 983.2797
516.3039, 977.5269
516.7860, 965.9865
517.2681, 957.0089
517.7502, 949.1925
518.2324, 945.9526
518.7145, 953.8489
519.1966, 962.7008
519.6787, 960.6068
520.1608, 947.0803
520.6429, 933.4995
521.1251, 931.9230
521.6072, 941.9621
522.0893, 950.2593
522.5714, 959.1602
523.0535, 962.2408
523.5356, 952.3845
524.0178, 938.5692
524.4999, 931.8322
524.9820, 935.3953
525.4641, 941.3411
525.9462, 943.4235
526.4283, 941.9155
526.9105, 937.1373
527.3926, 927.7487
527.8747, 919.2515
528.3568, 915.3032
528.8389, 915.8040
529.3210, 920.4731
529.8032, 935.3607
530.2853, 947.5071
530.7674, 947.2921
531.2495, 939.7505
531.7316, 934.5585
532.2137, 934.5244
532.6959, 937.2166
533.1780, 940.3308
533.6601, 944.8018
534.1422, 943.4828
534.6243, 930.6371
535.1064, 919.1880
535.5886, 913.3063
536.0707, 912.1984
536.5528, 914.7950
537.0349, 920.5587
537.5170, 928.0657
537.9991, 936.0272
538.4813, 945.6030
538.9634, 949.4862
539.4455, 942.9174
539.9276, 935.2963
540.4097, 928.9537
540.8918, 925.0064
541.3740, 926.6595
541.8561, 938.6179
542.3382, 949.2946
542.8203, 939.2554
543.3024, 911.4756
543.7845, 895.8731
544.2667, 903.0533
544.7488, 918.0428
545.2309, 925.0688
545.7130, 925.0302
546.1951, 925.1378
546.6772, 928.7101
547.1594, 930.6481
547.6415, 926.1116
548.1236, 917.3126
548.6057, 909.1456
549.0878, 903.4964
549.5699, 901.0740
550.0521, 903.7843
550.5342, 915.1691
551.0163, 920.6710
551.4984, 917.2330
551.9805, 911.9889
552.4626, 906.2193
552.9448, 901.2653
553.4269, 899.0451
553.9090, 900.5502
554.3911, 904.3161
554.8732, 907.2706
555.3553, 908.7839
555.8375, 914.4739
556.3196, 931.4233
556.8017, 945.1437
557.2838, 943.9083
557.7659, 932.3821
558.2480, 923.7586
558.7302, 923.9447
559.2123, 927.5190
559.6944, 930.6512
560.1765, 932.8404
560.6586, 930.6745
561.1407, 921.8611
561.6229, 912.7321
562.1050, 912.4564
562.5871, 923.1968
563.0692, 926.6037
563.5513, 915.6630
564.0334, 904.1986
564.5156, 898.1853
564.9977, 896.9043
565.4798, 899.8792
565.9619, 906.7252
566.4440, 912.8745
566.9261, 909.6239
567.4083, 892.7045
567.8904, 883.7346
568.3725, 888.7529
568.8546, 895.9304
569.3367, 903.2762
569.8188, 909.6084
570.3010, 913.6489
570.7831, 915.1056
571.2652, 913.4407
571.7473, 904.2645
572.2294, 889.4912
572.7115, 886.4076
573.1937, 902.0649
573.6758, 919.0955
574.1579, 923.0451
574.6400, 916.2006
575.1221, 907.3707
575.6042, 891.5858
576.0864, 880.5498
576.5685, 884.3073
577.0506, 895.4836
577.5327, 901.0725
578.0148, 898.0669
578.4969, 893.8206
578.9791, 896.7099
579.4612, 907.2011
579.9433, 913.0992
580.4254, 910.9345
580.9075, 908.1024
581.3896, 905.2891
581.8718, 902.8062
582.3539, 901.0406
582.8360, 900.0078
583.3181, 899.1359
583.8002, 897.3685
584.2823, 895.0338
584.7645, 894.9424
585.2466, 897.9968
585.7287, 900.7398
586.2108, 901.5012
586.6929, 900.8889
587.1750, 899.7044
587.6572, 897.9578
588.1393, 895.8111
588.6214, 891.3718
589.1035, 887.5608
589.5856, 890.6797
590.0677, 900.0669
590.5499, 905.2833
591.0320, 898.5952
591.5141, 884.0760
591.9962, 876.9656
592.4783, 886.3817
592.9604, 890.5604
593.4426, 884.4241
593.9247, 877.0582
594.4068, 874.6940
594.8889, 876.9814
595.3710, 880.6603
595.8531, 884.2555
596.3353, 886.6169
596.8174, 883.4606
597.2995, 873.0076
597.7816, 867.6409
598.2637, 872.8759
598.7458, 881.2259
599.2280, 886.4899
599.7101, 889.0865
600.1922, 891.3675
600.6743, 895.1129
601.1564, 897.9250
601.6385, 896.8545
602.1207, 893.1381
602.6028, 890.1777
603.0849, 889.0439
603.5670, 890.0014
604.0491, 894.4507
604.5313, 904.3472
605.0134, 905.1567
605.4955, 887.3352
605.9776, 872.6468
606.4597, 870.1962
606.9418, 873.8627
607.4240, 875.3566
607.9061, 872.3754
608.3882, 868.9313
608.8703, 869.8917
609.3524, 874.9000
609.8345, 879.8125
610.3167, 886.0200
610.7988, 888.4290
611.2809, 878.2443
611.7630, 865.6454
612.2451, 866.7010
612.7272, 886.3724
613.2094, 902.3084
613.6915, 901.1840
614.1736, 892.5027
614.6557, 887.9877
615.1378, 888.1239
615.6199, 887.9621
616.1021, 884.3850
616.5842, 878.7870
617.0663, 875.2241
617.5484, 875.3103
618.0305, 874.6906
618.5126, 871.5378
618.9948, 869.4216
619.4769, 872.7187
619.9590, 878.5457
620.4411, 879.5529
620.9232, 871.1965
621.4053, 859.7411
621.8875, 855.9553
622.3696, 859.6813
622.8517, 861.0461
623.3338, 858.1187
623.8159, 853.0375
624.2980, 845.0276
624.7802, 836.0491
625.2623, 833.0400
