##NAMES=Powellite
##RRUFFID=R050355
##IDEAL CHEMISTRY=CaMo^6+^O_4_
##LOCALITY=Nasik, India
##OWNER=RRUFF
##SOURCE=George Rossman
##DESCRIPTION=Light brown fragment
##STATUS=The identification of this mineral has been confirmed by X-ray diffraction and chemical analysis
##URL=rruff.info/R050355
##MEASURED CHEMISTRY=Ca_1.00_Mo_1.00_O_4_
128.0302, 1545.949
128.5123, 1560.368
128.9944, 1565.083
129.4765, 1561.537
129.9586, 1563.180
130.4407, 1579.810
130.9229, 1609.792
131.4050, 1647.605
131.8871, 1693.490
132.3692, 1744.410
132.8513, 1792.487
133.3334, 1834.554
133.8156, 1868.455
134.2977, 1900.245
134.7798, 1936.197
135.2619, 1967.225
135.7440, 1986.836
136.2261, 1999.964
136.7083, 2034.780
137.1904, 2095.302
137.6725, 2164.340
138.1546, 2222.160
138.6367, 2264.810
139.1188, 2318.957
139.6010, 2388.656
140.0831, 2473.313
140.5652, 2584.671
141.0473, 2722.071
141.5294, 2887.254
142.0115, 3093.386
142.4937, 3380.140
142.9758, 3622.531
143.4579, 3807.546
143.9400, 3960.191
144.4221, 3924.935
144.9042, 3628.626
145.3864, 3189.619
145.8685, 2811.210
146.3506, 2489.909
146.8327, 2226.788
147.3148, 2022.559
147.7969, 1895.346
148.2791, 1787.802
148.7612, 1699.457
149.2433, 1630.564
149.7254, 1581.253
150.2075, 1566.021
150.6896, 1557.879
151.1718, 1547.167
151.6539, 1528.488
152.1360, 1515.096
152.6181, 1510.282
153.1002, 1511.360
153.5823, 1510.327
154.0645, 1505.816
154.5466, 1499.654
155.0287, 1492.658
155.5108, 1483.059
155.9929, 1474.686
156.4750, 1465.209
156.9572, 1456.383
157.4393, 1455.872
157.9214, 1473.073
158.4035, 1494.308
158.8856, 1511.089
159.3677, 1527.661
159.8499, 1533.635
160.3320, 1517.754
160.8141, 1484.526
161.2962, 1461.088
161.7783, 1466.052
162.2604, 1480.836
162.7426, 1490.113
163.2247, 1485.452
163.7068, 1477.799
164.1889, 1469.830
164.6710, 1461.954
165.1531, 1458.170
165.6353, 1462.265
166.1174, 1470.842
166.5995, 1480.245
167.0816, 1493.379
167.5637, 1503.799
168.0458, 1505.181
168.5280, 1497.497
169.0101, 1490.766
169.4922, 1488.587
169.9743, 1491.831
170.4564, 1501.810
170.9385, 1530.674
171.4207, 1559.583
171.9028, 1568.387
172.3849, 1555.467
172.8670, 1541.484
173.3491, 1543.036
173.8312, 1554.778
174.3134, 1566.540
174.7955, 1573.691
175.2776, 1578.295
175.7597, 1581.779
176.2418, 1583.924
176.7239, 1587.649
177.2061, 1596.721
177.6882, 1609.814
178.1703, 1623.107
178.6524, 1633.643
179.1345, 1643.631
179.6166, 1656.571
180.0988, 1672.878
180.5809, 1691.598
181.0630, 1711.654
181.5451, 1733.322
182.0272, 1756.860
182.5093, 1782.117
182.9915, 1809.624
183.4736, 1840.802
183.9557, 1876.631
184.4378, 1913.845
184.9199, 1944.401
185.4020, 1969.863
185.8842, 2005.733
186.3663, 2069.135
186.8484, 2151.517
187.3305, 2218.337
187.8126, 2265.566
188.2947, 2302.454
188.7769, 2342.928
189.2590, 2386.824
189.7411, 2430.347
190.2232, 2475.270
190.7053, 2519.754
191.1874, 2551.236
191.6696, 2566.011
192.1517, 2573.307
192.6338, 2589.684
193.1159, 2615.318
193.5980, 2645.113
194.0801, 2676.112
194.5623, 2708.291
195.0444, 2742.907
195.5265, 2778.250
196.0086, 2818.229
196.4907, 2870.514
196.9728, 2935.147
197.4550, 3011.309
197.9371, 3099.304
198.4192, 3199.158
198.9013, 3307.101
199.3834, 3422.282
199.8655, 3545.262
200.3477, 3677.401
200.8298, 3816.795
201.3119, 3973.576
201.7940, 4165.667
202.2761, 4398.298
202.7582, 4609.455
203.2404, 4797.424
203.7225, 4958.182
204.2046, 5086.010
204.6867, 5187.293
205.1688, 5234.618
205.6509, 5211.110
206.1331, 5115.635
206.6152, 4954.287
207.0973, 4711.519
207.5794, 4411.522
208.0615, 4122.458
208.5436, 3839.179
209.0258, 3579.058
209.5079, 3354.827
209.9900, 3168.961
210.4721, 3011.364
210.9542, 2885.564
211.4363, 2785.990
211.9185, 2694.236
212.4006, 2609.333
212.8827, 2533.677
213.3648, 2470.926
213.8469, 2421.928
214.3290, 2380.451
214.8112, 2348.842
215.2933, 2323.915
215.7754, 2293.272
216.2575, 2255.962
216.7396, 2214.541
217.2217, 2169.581
217.7038, 2118.633
218.1860, 2072.489
218.6681, 2034.590
219.1502, 2001.879
219.6323, 1962.414
220.1144, 1911.482
220.5965, 1862.497
221.0787, 1823.698
221.5608, 1797.607
222.0429, 1775.473
222.5250, 1758.948
223.0071, 1745.882
223.4892, 1727.842
223.9714, 1699.059
224.4535, 1674.161
224.9356, 1662.311
225.4177, 1671.396
225.8998, 1674.472
226.3819, 1668.268
226.8641, 1655.393
227.3462, 1645.633
227.8283, 1642.645
228.3104, 1637.198
228.7925, 1622.959
229.2746, 1590.783
229.7568, 1570.441
230.2389, 1565.833
230.7210, 1573.059
231.2031, 1580.526
231.6852, 1589.823
232.1673, 1596.991
232.6495, 1599.596
233.1316, 1594.971
233.6137, 1591.895
234.0958, 1591.846
234.5779, 1593.235
235.0600, 1591.187
235.5422, 1582.784
236.0243, 1575.148
236.5064, 1571.733
236.9885, 1575.051
237.4706, 1576.866
237.9527, 1575.781
238.4349, 1573.543
238.9170, 1575.310
239.3991, 1585.980
239.8812, 1593.294
240.3633, 1590.241
240.8454, 1567.630
241.3276, 1558.192
241.8097, 1568.518
242.2918, 1589.691
242.7739, 1602.262
243.2560, 1603.557
243.7381, 1600.358
244.2203, 1594.206
244.7024, 1582.465
245.1845, 1575.181
245.6666, 1572.616
246.1487, 1574.398
246.6308, 1580.259
247.1130, 1592.500
247.5951, 1605.177
248.0772, 1617.128
248.5593, 1630.282
249.0414, 1634.941
249.5235, 1624.753
250.0057, 1610.061
250.4878, 1609.257
250.9699, 1631.962
251.4520, 1651.389
251.9341, 1657.825
252.4162, 1648.122
252.8984, 1641.235
253.3805, 1637.826
253.8626, 1636.711
254.3447, 1635.600
254.8268, 1631.901
255.3089, 1633.658
255.7911, 1645.681
256.2732, 1670.379
256.7553, 1684.635
257.2374, 1683.538
257.7195, 1676.853
258.2017, 1677.066
258.6838, 1687.794
259.1659, 1697.058
259.6480, 1700.839
260.1301, 1698.720
260.6122, 1701.577
261.0944, 1710.437
261.5765, 1723.073
262.0586, 1737.908
262.5407, 1756.396
263.0228, 1772.925
263.5049, 1785.633
263.9871, 1794.811
264.4692, 1804.857
264.9513, 1816.328
265.4334, 1827.939
265.9155, 1840.018
266.3976, 1854.666
266.8798, 1861.639
267.3619, 1857.145
267.8440, 1842.694
268.3261, 1829.849
268.8082, 1817.074
269.2903, 1809.110
269.7725, 1813.343
270.2546, 1834.660
270.7367, 1844.263
271.2188, 1833.253
271.7009, 1808.304
272.1830, 1799.958
272.6652, 1814.176
273.1473, 1828.808
273.6294, 1825.534
274.1115, 1799.729
274.5936, 1785.347
275.0757, 1788.597
275.5579, 1803.217
276.0400, 1810.383
276.5221, 1808.056
277.0042, 1806.440
277.4863, 1813.385
277.9684, 1829.894
278.4506, 1840.671
278.9327, 1843.825
279.4148, 1841.848
279.8969, 1837.907
280.3790, 1831.041
280.8611, 1829.024
281.3433, 1838.854
281.8254, 1860.456
282.3075, 1876.136
282.7896, 1885.252
283.2717, 1888.914
283.7538, 1885.568
284.2360, 1874.740
284.7181, 1869.316
285.2002, 1877.827
285.6823, 1898.448
286.1644, 1914.772
286.6465, 1926.330
287.1287, 1934.737
287.6108, 1940.325
288.0929, 1943.347
288.5750, 1948.805
289.0571, 1960.012
289.5392, 1975.212
290.0214, 1986.516
290.5035, 1993.418
290.9856, 2000.224
291.4677, 2010.946
291.9498, 2025.445
292.4319, 2042.851
292.9141, 2065.830
293.3962, 2090.119
293.8783, 2103.715
294.3604, 2106.410
294.8425, 2108.586
295.3246, 2120.300
295.8068, 2139.113
296.2889, 2155.834
296.7710, 2165.837
297.2531, 2175.907
297.7352, 2198.307
298.2173, 2231.974
298.6995, 2269.055
299.1816, 2304.042
299.6637, 2338.165
300.1458, 2373.055
300.6279, 2409.209
301.1100, 2446.454
301.5922, 2482.415
302.0743, 2518.262
302.5564, 2558.637
303.0385, 2607.620
303.5206, 2662.492
304.0027, 2719.898
304.4849, 2778.235
304.9670, 2841.564
305.4491, 2914.049
305.9312, 2993.990
306.4133, 3077.346
306.8954, 3160.144
307.3776, 3246.610
307.8597, 3341.284
308.3418, 3445.979
308.8239, 3551.547
309.3060, 3644.440
309.7881, 3735.881
310.2703, 3840.440
310.7524, 3976.021
311.2345, 4119.459
311.7166, 4251.389
312.1987, 4372.008
312.6808, 4495.442
313.1630, 4625.216
313.6451, 4764.839
314.1272, 4919.327
314.6093, 5097.089
315.0914, 5281.466
315.5735, 5464.181
316.0557, 5645.400
316.5378, 5826.210
317.0199, 5996.776
317.5020, 6172.256
317.9841, 6367.024
318.4662, 6586.944
318.9484, 6816.573
319.4305, 7060.065
319.9126, 7310.256
320.3947, 7548.299
320.8768, 7761.986
321.3589, 7967.328
321.8411, 8176.004
322.3232, 8398.078
322.8053, 8596.714
323.2874, 8769.053
323.7695, 8912.854
324.2516, 9024.563
324.7338, 9095.184
325.2159, 9141.403
325.6980, 9168.044
326.1801, 9175.836
326.6622, 9161.862
327.1443, 9132.273
327.6265, 9078.396
328.1086, 8991.066
328.5907, 8879.882
329.0728, 8725.805
329.5549, 8520.324
330.0370, 8262.079
330.5192, 7983.714
331.0013, 7668.578
331.4834, 7345.534
331.9655, 7031.411
332.4476, 6733.023
332.9297, 6429.599
333.4119, 6114.109
333.8940, 5792.605
334.3761, 5495.604
334.8582, 5231.556
335.3403, 4988.438
335.8224, 4761.961
336.3046, 4551.745
336.7867, 4357.944
337.2688, 4180.331
337.7509, 4017.899
338.2330, 3865.176
338.7151, 3723.953
339.1973, 3590.219
339.6794, 3460.329
340.1615, 3335.099
340.6436, 3219.757
341.1257, 3115.060
341.6078, 3021.214
342.0899, 2940.320
342.5721, 2874.381
343.0542, 2813.003
343.5363, 2753.490
344.0184, 2696.880
344.5005, 2647.196
344.9826, 2605.399
345.4648, 2566.509
345.9469, 2525.532
346.4290, 2482.812
346.9111, 2445.617
347.3932, 2415.380
347.8753, 2390.634
348.3575, 2370.457
348.8396, 2354.624
349.3217, 2339.999
349.8038, 2324.565
350.2859, 2308.861
350.7680, 2294.846
351.2502, 2283.335
351.7323, 2271.157
352.2144, 2252.944
352.6965, 2230.628
353.1786, 2210.590
353.6607, 2195.194
354.1429, 2184.240
354.6250, 2179.617
355.1071, 2181.652
355.5892, 2182.328
356.0713, 2172.187
356.5534, 2157.443
357.0356, 2147.291
357.5177, 2148.208
357.9998, 2152.273
358.4819, 2155.564
358.9640, 2157.761
359.4461, 2156.879
359.9283, 2150.031
360.4104, 2140.623
360.8925, 2131.125
361.3746, 2120.514
361.8567, 2112.560
362.3388, 2109.178
362.8210, 2109.583
363.3031, 2111.908
363.7852, 2117.339
364.2673, 2123.116
364.7494, 2127.653
365.2315, 2130.092
365.7137, 2133.853
366.1958, 2141.757
366.6779, 2150.538
367.1600, 2156.425
367.6421, 2157.884
368.1242, 2157.578
368.6064, 2152.368
369.0885, 2141.604
369.5706, 2143.279
370.0527, 2163.231
370.5348, 2191.082
371.0169, 2220.621
371.4991, 2251.306
371.9812, 2283.951
372.4633, 2317.552
372.9454, 2353.368
373.4275, 2395.197
373.9096, 2445.088
374.3918, 2498.331
374.8739, 2551.335
375.3560, 2603.522
375.8381, 2662.532
376.3202, 2732.978
376.8023, 2803.393
377.2845, 2851.235
377.7666, 2870.302
378.2487, 2899.043
378.7308, 2952.721
379.2129, 3027.538
379.6950, 3091.772
380.1772, 3144.108
380.6593, 3195.308
381.1414, 3254.321
381.6235, 3320.731
382.1056, 3395.864
382.5877, 3479.373
383.0699, 3571.741
383.5520, 3673.177
384.0341, 3784.580
384.5162, 3905.429
384.9983, 4030.777
385.4804, 4167.113
385.9626, 4331.924
386.4447, 4529.099
386.9268, 4742.924
387.4089, 4954.363
387.8910, 5170.944
388.3731, 5404.809
388.8553, 5674.335
389.3374, 5956.148
389.8195, 6246.212
390.3016, 6536.813
390.7837, 6774.229
391.2658, 6954.164
391.7480, 7047.437
392.2301, 7022.505
392.7122, 6855.748
393.1943, 6591.276
393.6764, 6211.458
394.1585, 5744.031
394.6407, 5275.896
395.1228, 4780.380
395.6049, 4333.267
396.0870, 3973.312
396.5691, 3724.458
397.0512, 3507.891
397.5334, 3305.492
398.0155, 3127.518
398.4976, 2989.243
398.9797, 2911.882
399.4618, 2851.677
399.9439, 2803.267
400.4261, 2766.558
400.9082, 2735.685
401.3903, 2717.156
401.8724, 2698.199
402.3545, 2670.114
402.8366, 2628.546
403.3188, 2588.040
403.8009, 2550.210
404.2830, 2513.571
404.7651, 2473.154
405.2472, 2426.872
405.7293, 2383.977
406.2115, 2349.353
406.6936, 2323.580
407.1757, 2296.267
407.6578, 2267.406
408.1399, 2236.854
408.6220, 2202.195
409.1042, 2163.611
409.5863, 2129.029
410.0684, 2099.994
410.5505, 2076.788
411.0326, 2061.715
411.5147, 2054.379
411.9969, 2044.730
412.4790, 2019.424
412.9611, 1986.655
413.4432, 1968.313
413.9253, 1969.622
414.4074, 1975.691
414.8896, 1969.311
415.3717, 1955.170
415.8538, 1944.307
416.3359, 1948.561
416.8180, 1954.291
417.3001, 1945.367
417.7823, 1922.067
418.2644, 1904.448
418.7465, 1911.232
419.2286, 1925.635
419.7107, 1930.839
420.1928, 1913.345
420.6750, 1898.397
421.1571, 1897.950
421.6392, 1907.473
422.1213, 1915.280
422.6034, 1918.198
423.0855, 1918.814
423.5677, 1918.887
424.0498, 1919.952
424.5319, 1915.367
425.0140, 1897.102
425.4961, 1876.522
425.9782, 1865.000
426.4604, 1866.060
426.9425, 1871.592
427.4246, 1885.188
427.9067, 1904.082
428.3888, 1905.853
428.8709, 1880.483
429.3531, 1855.728
429.8352, 1848.357
430.3173, 1862.544
430.7994, 1873.748
431.2815, 1881.531
431.7636, 1885.755
432.2458, 1883.826
432.7279, 1875.116
433.2100, 1870.776
433.6921, 1877.792
434.1742, 1891.723
434.6563, 1895.601
435.1385, 1889.274
435.6206, 1879.370
436.1027, 1867.859
436.5848, 1857.093
437.0669, 1854.901
437.5490, 1865.417
438.0312, 1878.260
438.5133, 1882.567
438.9954, 1879.808
439.4775, 1874.016
439.9596, 1862.622
440.4417, 1852.112
440.9239, 1848.660
441.4060, 1852.635
441.8881, 1859.815
442.3702, 1872.919
442.8523, 1885.646
443.3344, 1892.020
443.8166, 1888.795
444.2987, 1880.895
444.7808, 1863.967
445.2629, 1842.704
445.7450, 1830.816
446.2271, 1840.858
446.7093, 1852.482
447.1914, 1857.042
447.6735, 1850.369
448.1556, 1849.739
448.6377, 1861.398
449.1198, 1874.893
449.6020, 1878.750
450.0841, 1866.008
450.5662, 1858.342
451.0483, 1860.770
451.5304, 1870.690
452.0125, 1876.223
452.4947, 1876.460
452.9768, 1875.262
453.4589, 1874.040
453.9410, 1872.742
454.4231, 1874.905
454.9052, 1881.970
455.3874, 1888.039
455.8695, 1883.109
456.3516, 1868.874
456.8337, 1858.117
457.3158, 1855.724
457.7979, 1858.446
458.2801, 1860.410
458.7622, 1861.927
459.2443, 1865.310
459.7264, 1876.621
460.2085, 1889.027
460.6906, 1892.077
461.1728, 1882.615
461.6549, 1871.854
462.1370, 1866.921
462.6191, 1866.116
463.1012, 1867.094
463.5833, 1870.906
464.0655, 1874.499
464.5476, 1876.747
465.0297, 1877.609
465.5118, 1877.162
465.9939, 1872.762
466.4760, 1868.952
466.9582, 1868.444
467.4403, 1874.311
467.9224, 1878.250
468.4045, 1878.216
468.8866, 1876.936
469.3687, 1878.738
469.8509, 1886.822
470.3330, 1891.973
470.8151, 1890.868
471.2972, 1884.397
471.7793, 1882.638
472.2614, 1887.565
472.7436, 1891.831
473.2257, 1888.813
473.7078, 1878.317
474.1899, 1872.818
474.6720, 1874.387
475.1541, 1877.906
475.6363, 1873.207
476.1184, 1862.205
476.6005, 1857.443
477.0826, 1867.824
477.5647, 1885.125
478.0468, 1896.909
478.5290, 1903.355
479.0111, 1906.088
479.4932, 1902.690
479.9753, 1897.756
480.4574, 1897.509
480.9395, 1904.690
481.4217, 1911.172
481.9038, 1911.776
482.3859, 1908.488
482.8680, 1904.163
483.3501, 1897.574
483.8322, 1892.188
484.3144, 1889.170
484.7965, 1888.522
485.2786, 1889.467
485.7607, 1894.908
486.2428, 1899.476
486.7249, 1899.564
487.2071, 1888.201
487.6892, 1888.151
488.1713, 1907.815
488.6534, 1932.936
489.1355, 1942.244
489.6176, 1931.030
490.0998, 1917.568
490.5819, 1904.855
491.0640, 1893.391
491.5461, 1886.019
492.0282, 1882.874
492.5103, 1882.608
492.9925, 1886.736
493.4746, 1893.737
493.9567, 1893.326
494.4388, 1883.106
494.9209, 1874.305
495.4030, 1885.393
495.8852, 1908.117
496.3673, 1921.625
496.8494, 1911.068
497.3315, 1894.515
497.8136, 1887.626
498.2957, 1889.233
498.7779, 1894.902
499.2600, 1907.720
499.7421, 1920.037
500.2242, 1926.414
500.7063, 1925.589
501.1884, 1921.884
501.6706, 1912.253
502.1527, 1902.368
502.6348, 1898.142
503.1169, 1907.074
503.5990, 1913.725
504.0811, 1916.085
504.5633, 1914.940
505.0454, 1912.390
505.5275, 1904.949
506.0096, 1902.372
506.4917, 1911.330
506.9738, 1933.759
507.4560, 1943.757
507.9381, 1938.813
508.4202, 1928.199
508.9023, 1919.430
509.3844, 1912.660
509.8665, 1911.317
510.3487, 1917.302
510.8308, 1926.664
511.3129, 1934.663
511.7950, 1940.837
512.2772, 1942.982
512.7593, 1933.839
513.2414, 1923.280
513.7235, 1926.054
514.2056, 1941.714
514.6877, 1954.881
515.1699, 1952.370
515.6520, 1944.583
516.1341, 1941.684
516.6162, 1949.862
517.0983, 1955.197
517.5804, 1949.427
518.0626, 1938.629
518.5447, 1932.784
519.0268, 1938.143
519.5089, 1943.650
519.9910, 1947.539
520.4731, 1949.765
520.9553, 1948.799
521.4374, 1941.801
521.9195, 1935.888
522.4016, 1935.717
522.8837, 1942.747
523.3658, 1947.638
523.8480, 1949.599
524.3301, 1951.014
524.8122, 1958.236
525.2943, 1970.395
525.7764, 1971.175
526.2585, 1949.627
526.7407, 1921.805
527.2228, 1921.091
527.7049, 1943.118
528.1870, 1962.251
528.6691, 1956.587
529.1512, 1942.991
529.6334, 1943.490
530.1155, 1960.103
530.5976, 1974.280
531.0797, 1974.279
531.5618, 1966.732
532.0439, 1957.813
532.5261, 1944.251
533.0082, 1936.165
533.4903, 1938.570
533.9724, 1947.839
534.4545, 1956.333
534.9366, 1965.139
535.4188, 1970.975
535.9009, 1971.743
536.3830, 1967.643
536.8651, 1967.323
537.3472, 1972.822
537.8293, 1978.164
538.3115, 1978.873
538.7936, 1974.568
539.2757, 1971.693
539.7578, 1970.975
540.2399, 1970.629
540.7220, 1967.612
541.2042, 1962.530
541.6863, 1958.593
542.1684, 1956.554
542.6505, 1956.364
543.1326, 1960.990
543.6147, 1968.289
544.0969, 1970.111
544.5790, 1951.190
545.0611, 1931.721
545.5432, 1932.327
546.0253, 1955.757
546.5074, 1974.234
546.9896, 1967.055
547.4717, 1954.992
547.9538, 1955.227
548.4359, 1991.186
548.9180, 2011.291
549.4001, 2000.848
549.8823, 1975.721
550.3644, 1962.950
550.8465, 1968.740
551.3286, 1975.125
551.8107, 1977.946
552.2928, 1977.640
552.7750, 1977.027
553.2571, 1975.940
553.7392, 1975.366
554.2213, 1975.514
554.7034, 1976.579
555.1855, 1980.671
555.6677, 1988.367
556.1498, 1995.449
556.6319, 1997.826
557.1140, 1996.214
557.5961, 1991.129
558.0782, 1978.904
558.5604, 1969.693
559.0425, 1976.373
559.5246, 1992.333
560.0067, 2002.838
560.4888, 1996.744
560.9709, 1988.405
561.4531, 1983.620
561.9352, 1982.651
562.4173, 1983.672
562.8994, 1988.813
563.3815, 1993.987
563.8636, 1997.288
564.3458, 1998.536
564.8279, 1997.860
565.3100, 1993.326
565.7921, 1989.320
566.2742, 1992.835
566.7563, 2004.932
567.2385, 2014.403
567.7206, 2018.741
568.2027, 2019.203
568.6848, 2016.611
569.1669, 2011.561
569.6490, 2008.827
570.1312, 2015.643
570.6133, 2024.155
571.0954, 2020.476
571.5775, 2005.138
572.0596, 1991.458
572.5417, 1988.286
573.0239, 1990.226
573.5060, 1993.293
573.9881, 1997.983
574.4702, 2000.477
574.9523, 1996.570
575.4344, 1990.996
575.9166, 1989.762
576.3987, 1995.193
576.8808, 2002.676
577.3629, 2014.554
577.8450, 2027.884
578.3271, 2032.724
578.8093, 2027.393
579.2914, 2018.245
579.7735, 2004.843
580.2556, 1988.983
580.7377, 1985.300
581.2198, 1994.602
581.7020, 2007.479
582.1841, 2018.769
582.6662, 2027.425
583.1483, 2030.036
583.6304, 2025.235
584.1125, 2019.142
584.5947, 2015.531
585.0768, 2014.550
585.5589, 2016.528
586.0410, 2026.783
586.5231, 2034.251
587.0052, 2031.472
587.4873, 2022.218
587.9694, 2016.608
588.4515, 2016.708
588.9337, 2020.800
589.4158, 2031.961
589.8979, 2050.318
590.3800, 2054.137
590.8621, 2036.756
591.3442, 2016.506
591.8264, 2004.113
592.3085, 1999.630
592.7906, 2001.264
593.2727, 2010.035
593.7548, 2020.877
594.2369, 2028.478
594.7191, 2033.260
595.2012, 2037.282
595.6833, 2042.398
596.1654, 2044.295
596.6475, 2032.134
597.1296, 2013.046
597.6118, 2003.257
598.0939, 2021.565
598.5760, 2041.052
599.0581, 2044.549
599.5402, 2033.701
600.0223, 2027.558
600.5045, 2035.086
600.9866, 2044.269
601.4687, 2049.980
601.9508, 2051.854
602.4329, 2051.783
602.9150, 2049.313
603.3972, 2045.521
603.8793, 2039.788
604.3614, 2031.248
604.8435, 2030.735
605.3256, 2041.744
605.8077, 2055.861
606.2899, 2058.573
606.7720, 2052.064
607.2541, 2046.500
607.7362, 2045.527
608.2183, 2047.413
608.7004, 2052.717
609.1826, 2059.782
609.6647, 2062.674
610.1468, 2052.181
610.6289, 2041.684
611.1110, 2040.615
611.5931, 2049.790
612.0753, 2057.510
612.5574, 2061.888
613.0395, 2063.864
613.5216, 2063.815
614.0037, 2060.573
614.4858, 2058.499
614.9680, 2058.431
615.4501, 2058.375
615.9322, 2053.537
616.4143, 2043.157
616.8964, 2043.646
617.3785, 2061.907
617.8607, 2085.233
618.3428, 2090.187
618.8249, 2080.286
619.3070, 2070.224
619.7891, 2064.047
620.2712, 2063.007
620.7534, 2073.512
621.2355, 2092.245
621.7176, 2103.270
622.1997, 2091.035
622.6818, 2075.345
623.1639, 2067.597
623.6461, 2069.941
624.1282, 2072.033
624.6103, 2071.992
625.0924, 2072.113
625.5745, 2074.292
626.0566, 2080.644
