##NAMES=Prehnite
##RRUFFID=R050410
##IDEAL CHEMISTRY=Ca_2_Al(Si_3_Al)O_10_(OH)_2_
##LOCALITY=Topel, Namibia
##OWNER=RRUFF
##SOURCE=John Lucking
##DESCRIPTION=Aggregate of pale green prismatic crystals
##STATUS=The identification of this mineral has been confirmed by X-ray diffraction and chemical analysis
##URL=rruff.info/R050410
##MEASURED CHEMISTRY=Ca_1.98_Al_0.99_(Si_3.02_Al_0.99_)O_10_(OH)_2
92.35352, 26.13551
92.83563, 25.35596
93.31775, 25.02452
93.79987, 25.31233
94.28198, 26.07108
94.76410, 26.87825
95.24622, 27.63459
95.72833, 28.40946
96.21045, 29.31479
96.69257, 30.35398
97.17468, 31.52793
97.65680, 32.73921
98.13892, 33.99797
98.62103, 35.65324
99.10315, 37.77684
99.58527, 40.35675
100.0674, 43.24004
100.5495, 46.41079
101.0316, 49.86664
101.5137, 53.46293
101.9958, 57.09444
102.4780, 61.32174
102.9601, 66.35033
103.4422, 72.25777
103.9243, 78.42671
104.4064, 84.88268
104.8885, 91.61574
105.3707, 98.79437
105.8528, 106.5118
106.3349, 114.4620
106.8170, 122.5690
107.2991, 131.4116
107.7813, 139.2916
108.2634, 145.6306
108.7455, 150.9576
109.2276, 156.8141
109.7097, 163.3243
110.1918, 170.3369
110.6740, 177.8013
111.1561, 186.4978
111.6382, 194.7686
112.1203, 202.1181
112.6024, 208.8022
113.0845, 215.9600
113.5667, 223.6002
114.0488, 231.8356
114.5309, 240.8367
115.0130, 250.7185
115.4951, 261.2164
115.9772, 272.3913
116.4594, 284.3251
116.9415, 296.5638
117.4236, 308.9479
117.9057, 321.5622
118.3878, 334.4412
118.8699, 347.1861
119.3521, 360.6475
119.8342, 375.4179
120.3163, 391.5419
120.7984, 408.8594
121.2805, 429.9583
121.7626, 452.0188
122.2448, 470.2203
122.7269, 481.9211
123.2090, 488.8550
123.6911, 492.2904
124.1732, 492.0609
124.6553, 489.5862
125.1375, 485.6078
125.6196, 480.3172
126.1017, 474.3208
126.5838, 466.4837
127.0659, 458.4063
127.5480, 452.8570
128.0302, 450.2193
128.5123, 450.1400
128.9944, 452.9335
129.4765, 458.3799
129.9586, 464.4199
130.4407, 469.0097
130.9229, 472.7820
131.4050, 478.6208
131.8871, 487.7001
132.3692, 498.4376
132.8513, 506.7344
133.3334, 511.5826
133.8156, 514.0414
134.2977, 517.4640
134.7798, 523.5104
135.2619, 528.4525
135.7440, 531.1782
136.2261, 532.1951
136.7083, 533.9375
137.1904, 536.4003
137.6725, 539.6039
138.1546, 543.8800
138.6367, 549.5083
139.1188, 554.8188
139.6010, 559.6431
140.0831, 563.9813
140.5652, 566.8054
141.0473, 567.4368
141.5294, 567.5546
142.0115, 569.2164
142.4937, 572.4924
142.9758, 577.0190
143.4579, 582.3910
143.9400, 588.0348
144.4221, 597.0587
144.9042, 610.0206
145.3864, 625.9437
145.8685, 643.3160
146.3506, 665.5193
146.8327, 684.8228
147.3148, 698.7427
147.7969, 705.4258
148.2791, 710.7662
148.7612, 714.1204
149.2433, 716.2070
149.7254, 718.7278
150.2075, 722.5203
150.6896, 726.0242
151.1718, 728.5798
151.6539, 728.6486
152.1360, 730.0400
152.6181, 733.1077
153.1002, 737.5804
153.5823, 742.6400
154.0645, 747.8049
154.5466, 753.8795
155.0287, 761.2470
155.5108, 771.8373
155.9929, 781.5631
156.4750, 787.9783
156.9572, 792.4028
157.4393, 800.1591
157.9214, 812.2328
158.4035, 828.0900
158.8856, 847.4025
159.3677, 868.5340
159.8499, 894.7241
160.3320, 925.3220
160.8141, 960.7281
161.2962, 1004.430
161.7783, 1057.992
162.2604, 1119.853
162.7426, 1188.722
163.2247, 1281.092
163.7068, 1365.681
164.1889, 1447.040
164.6710, 1520.741
165.1531, 1536.316
165.6353, 1435.147
166.1174, 1274.414
166.5995, 1115.652
167.0816, 961.2184
167.5637, 830.1273
168.0458, 738.2496
168.5280, 686.3837
169.0101, 652.6734
169.4922, 630.8532
169.9743, 617.5391
170.4564, 608.2097
170.9385, 602.7050
171.4207, 599.3627
171.9028, 596.9630
172.3849, 595.4918
172.8670, 594.6332
173.3491, 594.1187
173.8312, 594.0325
174.3134, 594.5399
174.7955, 595.4535
175.2776, 597.1053
175.7597, 600.0040
176.2418, 604.2690
176.7239, 609.2455
177.2061, 614.4813
177.6882, 620.0597
178.1703, 626.0887
178.6524, 633.2634
179.1345, 640.8451
179.6166, 647.3741
180.0988, 652.7169
180.5809, 657.6392
181.0630, 663.1129
181.5451, 669.0040
182.0272, 674.5398
182.5093, 679.1763
182.9915, 683.2321
183.4736, 687.3340
183.9557, 691.5268
184.4378, 695.8810
184.9199, 700.2321
185.4020, 704.6377
185.8842, 710.1392
186.3663, 717.8851
186.8484, 727.2974
187.3305, 736.1899
187.8126, 744.6654
188.2947, 752.1512
188.7769, 757.5067
189.2590, 760.8052
189.7411, 763.4424
190.2232, 765.5330
190.7053, 767.3698
191.1874, 770.8262
191.6696, 776.1001
192.1517, 783.0338
192.6338, 791.7501
193.1159, 802.2980
193.5980, 813.3233
194.0801, 824.4550
194.5623, 835.5710
195.0444, 845.7843
195.5265, 855.2570
196.0086, 863.3154
196.4907, 868.3976
196.9728, 870.3789
197.4550, 870.4338
197.9371, 868.3002
198.4192, 863.9125
198.9013, 861.4235
199.3834, 861.3708
199.8655, 863.2093
200.3477, 866.2401
200.8298, 870.9008
201.3119, 874.7200
201.7940, 876.0126
202.2761, 874.5869
202.7582, 872.9193
203.2404, 871.3568
203.7225, 869.6042
204.2046, 866.8903
204.6867, 863.2378
205.1688, 858.5620
205.6509, 853.0222
206.1331, 846.7334
206.6152, 838.6263
207.0973, 828.2580
207.5794, 816.1986
208.0615, 803.9198
208.5436, 791.0651
209.0258, 778.8699
209.5079, 767.8994
209.9900, 757.9217
210.4721, 750.3591
210.9542, 745.3806
211.4363, 742.8632
211.9185, 742.5703
212.4006, 744.8325
212.8827, 748.6178
213.3648, 752.9493
213.8469, 757.2530
214.3290, 764.4579
214.8112, 775.6345
215.2933, 789.6412
215.7754, 802.7274
216.2575, 814.3273
216.7396, 826.1112
217.2217, 839.4035
217.7038, 855.3805
218.1860, 869.3410
218.6681, 881.5645
219.1502, 891.4047
219.6323, 896.3505
220.1144, 896.5197
220.5965, 891.5565
221.0787, 880.7194
221.5608, 862.3746
222.0429, 842.6341
222.5250, 821.3866
223.0071, 799.0692
223.4892, 777.9105
223.9714, 757.1735
224.4535, 738.4664
224.9356, 722.4875
225.4177, 709.7822
225.8998, 698.7286
226.3819, 689.1563
226.8641, 681.1459
227.3462, 675.5270
227.8283, 673.4163
228.3104, 671.9808
228.7925, 669.6428
229.2746, 665.2698
229.7568, 662.5303
230.2389, 661.9435
230.7210, 662.9759
231.2031, 664.0259
231.6852, 665.2075
232.1673, 666.2289
232.6495, 666.8341
233.1316, 666.4872
233.6137, 666.9213
234.0958, 668.2411
234.5779, 670.3473
235.0600, 673.0522
235.5422, 676.9417
236.0243, 680.6323
236.5064, 683.4020
236.9885, 684.4773
237.4706, 686.4105
237.9527, 689.7007
238.4349, 693.6937
238.9170, 696.5701
239.3991, 697.2379
239.8812, 698.4243
240.3633, 701.6327
240.8454, 708.6740
241.3276, 713.1700
241.8097, 714.2805
242.2918, 713.0992
242.7739, 712.0892
243.2560, 712.1597
243.7381, 710.9963
244.2203, 707.5455
244.7024, 700.9720
245.1845, 694.4758
245.6666, 688.1756
246.1487, 681.9124
246.6308, 675.0991
247.1130, 666.9208
247.5951, 659.4991
248.0772, 653.7371
248.5593, 649.9883
249.0414, 646.4669
249.5235, 643.0939
250.0057, 639.9976
250.4878, 637.3698
250.9699, 635.4098
251.4520, 633.5311
251.9341, 631.3888
252.4162, 628.6673
252.8984, 627.2144
253.3805, 627.3781
253.8626, 628.5491
254.3447, 629.9012
254.8268, 631.6578
255.3089, 633.1883
255.7911, 634.3109
256.2732, 635.0209
256.7553, 635.2952
257.2374, 634.5309
257.7195, 633.9327
258.2017, 635.2253
258.6838, 639.5167
259.1659, 643.1686
259.6480, 645.0150
260.1301, 644.9357
260.6122, 645.9646
261.0944, 648.5080
261.5765, 651.6727
262.0586, 654.5200
262.5407, 656.8902
263.0228, 659.3479
263.5049, 661.8298
263.9871, 664.3939
264.4692, 667.9775
264.9513, 673.0234
265.4334, 678.4349
265.9155, 683.0923
266.3976, 686.3752
266.8798, 690.8138
267.3619, 697.3148
267.8440, 705.5248
268.3261, 711.9478
268.8082, 716.0161
269.2903, 719.4675
269.7725, 723.6315
270.2546, 728.5820
270.7367, 733.6574
271.2188, 738.7982
271.7009, 743.9312
272.1830, 748.9432
272.6652, 753.8827
273.1473, 758.4543
273.6294, 762.2853
274.1115, 765.1516
274.5936, 768.7036
275.0757, 773.3605
275.5579, 778.6523
276.0400, 782.7191
276.5221, 785.0477
277.0042, 788.1945
277.4863, 794.0544
277.9684, 802.8502
278.4506, 811.2079
278.9327, 818.8278
279.4148, 825.9920
279.8969, 833.2684
280.3790, 840.6751
280.8611, 848.1011
281.3433, 855.9421
281.8254, 864.2150
282.3075, 870.4791
282.7896, 874.3195
283.2717, 877.0302
283.7538, 880.7888
284.2360, 885.6567
284.7181, 890.1071
285.2002, 893.3374
285.6823, 895.4707
286.1644, 897.9149
286.6465, 900.9432
287.1287, 903.2001
287.6108, 903.1993
288.0929, 900.9366
288.5750, 896.3448
289.0571, 888.7666
289.5392, 878.7776
290.0214, 869.0732
290.5035, 859.8498
290.9856, 849.7034
291.4677, 836.1637
291.9498, 819.8527
292.4319, 805.0912
292.9141, 793.3441
293.3962, 783.7644
293.8783, 774.1067
294.3604, 764.4011
294.8425, 756.0992
295.3246, 750.4789
295.8068, 747.2291
296.2889, 745.3707
296.7710, 744.5956
297.2531, 745.1527
297.7352, 747.5043
298.2173, 751.5920
298.6995, 757.1118
299.1816, 764.2076
299.6637, 772.5305
300.1458, 781.2312
300.6279, 790.3004
301.1100, 799.5377
301.5922, 808.5303
302.0743, 817.3527
302.5564, 826.2994
303.0385, 835.9227
303.5206, 845.6780
304.0027, 854.7692
304.4849, 862.7671
304.9670, 871.0432
305.4491, 880.6206
305.9312, 891.3864
306.4133, 903.0763
306.8954, 915.7401
307.3776, 929.2033
307.8597, 942.9496
308.3418, 957.0316
308.8239, 972.0521
309.3060, 988.1297
309.7881, 1005.671
310.2703, 1024.767
310.7524, 1044.046
311.2345, 1066.163
311.7166, 1093.924
312.1987, 1127.174
312.6808, 1160.948
313.1630, 1190.667
313.6451, 1220.408
314.1272, 1254.877
314.6093, 1301.112
315.0914, 1346.737
315.5735, 1386.687
316.0557, 1420.930
316.5378, 1449.337
317.0199, 1475.492
317.5020, 1493.625
317.9841, 1499.673
318.4662, 1491.100
318.9484, 1472.372
319.4305, 1442.294
319.9126, 1402.895
320.3947, 1359.484
320.8768, 1309.123
321.3589, 1258.542
321.8411, 1210.300
322.3232, 1164.020
322.8053, 1123.123
323.2874, 1089.096
323.7695, 1060.717
324.2516, 1036.053
324.7338, 1015.501
325.2159, 997.9680
325.6980, 983.1935
326.1801, 971.1533
326.6622, 961.7148
327.1443, 955.9518
327.6265, 952.2308
328.1086, 948.8962
328.5907, 944.0281
329.0728, 941.7164
329.5549, 943.3939
330.0370, 949.1226
330.5192, 954.2518
331.0013, 959.8890
331.4834, 964.0462
331.9655, 965.4077
332.4476, 963.5553
332.9297, 959.5847
333.4119, 953.4869
333.8940, 945.3444
334.3761, 935.4997
334.8582, 924.1222
335.3403, 911.1285
335.8224, 896.0124
336.3046, 877.2715
336.7867, 860.6954
337.2688, 846.2819
337.7509, 834.0466
338.2330, 823.8167
338.7151, 815.8441
339.1973, 809.3236
339.6794, 803.8646
340.1615, 799.4963
340.6436, 796.7272
341.1257, 795.8136
341.6078, 796.0280
342.0899, 796.6317
342.5721, 797.6471
343.0542, 798.7728
343.5363, 799.9091
344.0184, 801.0900
344.5005, 802.4072
344.9826, 803.8267
345.4648, 805.5858
345.9469, 807.9346
346.4290, 810.8542
346.9111, 813.9879
347.3932, 817.3668
347.8753, 820.7899
348.3575, 823.5155
348.8396, 825.6135
349.3217, 828.2049
349.8038, 832.2300
350.2859, 837.2603
350.7680, 842.2866
351.2502, 847.1676
351.7323, 852.0785
352.2144, 856.9250
352.6965, 861.9342
353.1786, 867.6533
353.6607, 874.6450
354.1429, 882.3904
354.6250, 890.1564
355.1071, 897.9075
355.5892, 906.2474
356.0713, 916.3318
356.5534, 927.1791
357.0356, 937.3381
357.5177, 946.4982
357.9998, 954.6637
358.4819, 962.2225
358.9640, 968.9303
359.4461, 973.1464
359.9283, 973.7178
360.4104, 971.5792
360.8925, 967.4469
361.3746, 961.2531
361.8567, 953.4534
362.3388, 942.5151
362.8210, 930.0947
363.3031, 919.7059
363.7852, 912.7933
364.2673, 907.8885
364.7494, 904.2733
365.2315, 901.7129
365.7137, 901.0169
366.1958, 902.3055
366.6779, 905.5613
367.1600, 910.7778
367.6421, 918.7526
368.1242, 927.8615
368.6064, 937.6261
369.0885, 948.0573
369.5706, 960.1803
370.0527, 975.3757
370.5348, 991.2690
371.0169, 1006.471
371.4991, 1019.803
371.9812, 1034.265
372.4633, 1050.847
372.9454, 1068.745
373.4275, 1084.852
373.9096, 1099.266
374.3918, 1112.030
374.8739, 1122.173
375.3560, 1128.514
375.8381, 1138.260
376.3202, 1152.130
376.8023, 1168.305
377.2845, 1183.929
377.7666, 1198.578
378.2487, 1214.269
378.7308, 1231.116
379.2129, 1249.388
379.6950, 1269.422
380.1772, 1291.399
380.6593, 1315.012
381.1414, 1339.988
381.6235, 1366.261
382.1056, 1395.584
382.5877, 1428.465
383.0699, 1464.016
383.5520, 1500.985
384.0341, 1539.572
384.5162, 1578.336
384.9983, 1618.085
385.4804, 1657.503
385.9626, 1695.785
386.4447, 1733.961
386.9268, 1764.996
387.4089, 1783.936
387.8910, 1790.420
388.3731, 1783.147
388.8553, 1759.704
389.3374, 1723.462
389.8195, 1674.177
390.3016, 1613.228
390.7837, 1550.165
391.2658, 1488.759
391.7480, 1429.985
392.2301, 1374.996
392.7122, 1325.747
393.1943, 1278.179
393.6764, 1229.726
394.1585, 1181.500
394.6407, 1137.582
395.1228, 1099.129
395.6049, 1065.160
396.0870, 1035.073
396.5691, 1009.410
397.0512, 986.3600
397.5334, 965.6141
398.0155, 947.1955
398.4976, 931.3895
398.9797, 919.5168
399.4618, 908.6871
399.9439, 898.2705
400.4261, 888.2614
400.9082, 879.4971
401.3903, 872.3029
401.8724, 866.0189
402.3545, 860.2651
402.8366, 855.2936
403.3188, 850.4379
403.8009, 845.7643
404.2830, 841.1422
404.7651, 836.0653
405.2472, 830.2405
405.7293, 824.9393
406.2115, 820.5276
406.6936, 817.0306
407.1757, 815.2159
407.6578, 815.5404
408.1399, 816.3167
408.6220, 815.4523
409.1042, 812.9872
409.5863, 810.6398
410.0684, 808.9352
410.5505, 807.5831
411.0326, 805.5410
411.5147, 802.8403
411.9969, 800.6683
412.4790, 800.3549
412.9611, 801.1515
413.4432, 801.2186
413.9253, 800.2119
414.4074, 798.8691
414.8896, 798.0916
415.3717, 797.6010
415.8538, 796.7401
416.3359, 794.6327
416.8180, 792.3806
417.3001, 790.9560
417.7823, 790.3559
418.2644, 790.2740
418.7465, 790.5617
419.2286, 791.2398
419.7107, 792.3837
420.1928, 794.7997
420.6750, 796.6130
421.1571, 796.6556
421.6392, 795.5147
422.1213, 794.7172
422.6034, 794.0541
423.0855, 794.3392
423.5677, 796.3151
424.0498, 800.8390
424.5319, 804.1273
425.0140, 805.2650
425.4961, 805.3763
425.9782, 805.5739
426.4604, 805.7586
426.9425, 806.1901
427.4246, 806.7734
427.9067, 807.6000
428.3888, 809.3313
428.8709, 812.3934
429.3531, 815.6017
429.8352, 818.2307
430.3173, 820.0143
430.7994, 822.4429
431.2815, 825.7440
431.7636, 829.3627
432.2458, 832.3026
432.7279, 834.5164
433.2100, 836.6490
433.6921, 838.7092
434.1742, 840.8908
434.6563, 843.9352
435.1385, 847.8895
435.6206, 852.2429
436.1027, 856.7690
436.5848, 861.3708
437.0669, 865.8424
437.5490, 870.2650
438.0312, 874.2948
438.5133, 877.4686
438.9954, 879.9762
439.4775, 882.3268
439.9596, 885.4283
440.4417, 888.1046
440.9239, 889.3398
441.4060, 889.0841
441.8881, 887.7017
442.3702, 885.3484
442.8523, 882.0143
443.3344, 877.6553
443.8166, 871.8881
444.2987, 865.5203
444.7808, 858.2863
445.2629, 850.5574
445.7450, 843.3793
446.2271, 836.5966
446.7093, 830.8788
447.1914, 826.7291
447.6735, 824.7223
448.1556, 822.3541
448.6377, 818.9700
449.1198, 815.6818
449.6020, 813.6340
450.0841, 813.2097
450.5662, 813.3304
451.0483, 813.9523
451.5304, 815.0039
452.0125, 816.1442
452.4947, 817.3846
452.9768, 818.7086
453.4589, 820.0328
453.9410, 821.3577
454.4231, 823.1968
454.9052, 825.6818
455.3874, 828.3369
455.8695, 830.1627
456.3516, 831.4066
456.8337, 833.9308
457.3158, 839.1255
457.7979, 845.3263
458.2801, 849.4323
458.7622, 851.6625
459.2443, 853.6621
459.7264, 856.5765
460.2085, 859.9157
460.6906, 862.9982
461.1728, 865.7003
461.6549, 868.3046
462.1370, 870.9562
462.6191, 873.6195
463.1012, 876.1776
463.5833, 878.7266
464.0655, 881.0355
464.5476, 882.5871
465.0297, 883.5392
465.5118, 885.3260
465.9939, 889.3322
466.4760, 893.4918
466.9582, 896.6241
467.4403, 898.0146
467.9224, 899.5233
468.4045, 901.3593
468.8866, 903.2524
469.3687, 904.8683
469.8509, 906.2337
470.3330, 907.1981
470.8151, 907.4858
471.2972, 907.2366
471.7793, 908.0172
472.2614, 910.2004
472.7436, 912.4445
473.2257, 913.5574
473.7078, 913.5150
474.1899, 914.2956
474.6720, 916.0007
475.1541, 918.6836
475.6363, 922.7261
476.1184, 927.9653
476.6005, 933.3882
477.0826, 938.6798
477.5647, 943.8427
478.0468, 948.7655
478.5290, 953.5179
479.0111, 958.7375
479.4932, 965.4761
479.9753, 972.6771
480.4574, 979.1722
480.9395, 984.7986
481.4217, 989.5978
481.9038, 993.5463
482.3859, 996.6190
482.8680, 998.7098
483.3501, 1000.222
483.8322, 1000.308
484.3144, 998.2828
484.7965, 994.2623
485.2786, 989.8702
485.7607, 984.2082
486.2428, 979.1618
486.7249, 975.6367
487.2071, 973.9700
487.6892, 973.1969
488.1713, 973.5205
488.6534, 974.6105
489.1355, 975.8364
489.6176, 976.7899
490.0998, 979.2311
490.5819, 983.8039
491.0640, 990.2543
491.5461, 997.1064
492.0282, 1004.380
492.5103, 1012.279
492.9925, 1020.988
493.4746, 1030.515
493.9567, 1039.847
494.4388, 1048.812
494.9209, 1058.782
495.4030, 1071.715
495.8852, 1086.934
496.3673, 1103.164
496.8494, 1120.088
497.3315, 1137.439
497.8136, 1154.275
498.2957, 1171.159
498.7779, 1189.751
499.2600, 1210.997
499.7421, 1234.457
500.2242, 1260.067
500.7063, 1288.380
501.1884, 1317.488
501.6706, 1345.153
502.1527, 1373.929
502.6348, 1405.959
503.1169, 1442.316
503.5990, 1481.072
504.0811, 1521.938
504.5633, 1564.668
505.0454, 1609.590
505.5275, 1656.258
506.0096, 1704.572
506.4917, 1754.174
506.9738, 1805.451
507.4560, 1858.622
507.9381, 1913.853
508.4202, 1970.510
508.9023, 2027.894
509.3844, 2086.036
509.8665, 2145.557
510.3487, 2206.646
510.8308, 2269.042
511.3129, 2332.749
511.7950, 2397.556
512.2772, 2462.417
512.7593, 2526.236
513.2414, 2589.994
513.7235, 2656.556
514.2056, 2725.796
514.6877, 2794.162
515.1699, 2859.856
515.6520, 2923.367
516.1341, 2985.626
516.6162, 3049.452
517.0983, 3107.012
517.5804, 3157.780
518.0626, 3200.665
518.5447, 3233.896
519.0268, 3258.652
519.5089, 3271.933
519.9910, 3275.472
520.4731, 3268.802
520.9553, 3241.690
521.4374, 3190.153
521.9195, 3124.792
522.4016, 3050.095
522.8837, 2965.947
523.3658, 2876.525
523.8480, 2781.193
524.3301, 2681.754
524.8122, 2579.738
525.2943, 2475.922
525.7764, 2375.456
526.2585, 2278.974
526.7407, 2187.649
527.2228, 2101.691
527.7049, 2020.753
528.1870, 1945.419
528.6691, 1874.020
529.1512, 1808.372
529.6334, 1751.180
530.1155, 1702.219
530.5976, 1657.956
531.0797, 1615.247
531.5618, 1575.922
532.0439, 1542.354
532.5261, 1516.168
533.0082, 1493.648
533.4903, 1473.646
533.9724, 1456.407
534.4545, 1441.999
534.9366, 1431.816
535.4188, 1423.059
535.9009, 1415.471
536.3830, 1409.042
536.8651, 1402.696
537.3472, 1396.147
537.8293, 1390.320
538.3115, 1386.603
538.7936, 1385.354
539.2757, 1381.643
539.7578, 1375.165
540.2399, 1366.511
540.7220, 1356.389
541.2042, 1344.789
541.6863, 1330.951
542.1684, 1314.192
542.6505, 1295.387
543.1326, 1275.766
543.6147, 1255.219
544.0969, 1232.751
544.5790, 1206.844
545.0611, 1179.901
545.5432, 1153.789
546.0253, 1128.774
546.5074, 1104.410
546.9896, 1079.708
547.4717, 1056.293
547.9538, 1035.496
548.4359, 1018.385
548.9180, 1002.781
549.4001, 988.6589
549.8823, 975.7642
550.3644, 963.7582
550.8465, 952.6924
551.3286, 942.1766
551.8107, 931.9319
552.2928, 922.0699
552.7750, 913.9766
553.2571, 907.8887
553.7392, 902.1993
554.2213, 895.3975
554.7034, 887.9459
555.1855, 882.6379
555.6677, 879.8527
556.1498, 877.3084
556.6319, 871.5158
557.1140, 864.3120
557.5961, 859.8695
558.0782, 861.0400
558.5604, 862.5042
559.0425, 859.4194
559.5246, 853.3624
560.0067, 847.8410
560.4888, 844.1609
560.9709, 841.4987
561.4531, 840.0054
561.9352, 839.6428
562.4173, 838.5345
562.8994, 835.7484
563.3815, 832.7112
563.8636, 830.0697
564.3458, 827.8635
564.8279, 826.0566
565.3100, 824.7921
565.7921, 823.7328
566.2742, 822.4946
566.7563, 821.0729
567.2385, 819.4360
567.7206, 817.4098
568.2027, 815.3917
568.6848, 814.4789
569.1669, 814.5343
569.6490, 814.6378
570.1312, 814.1047
570.6133, 813.4039
571.0954, 813.2347
571.5775, 813.5886
572.0596, 814.1406
572.5417, 815.0932
573.0239, 815.9116
573.5060, 815.9584
573.9881, 814.6373
574.4702, 813.9005
574.9523, 814.6808
575.4344, 816.2407
575.9166, 817.6339
576.3987, 818.4822
576.8808, 819.6017
577.3629, 821.1483
577.8450, 823.0280
578.3271, 825.0009
578.8093, 827.1467
579.2914, 829.0897
579.7735, 830.4056
580.2556, 831.2531
580.7377, 833.1429
581.2198, 836.1019
581.7020, 839.6281
582.1841, 843.7501
582.6662, 848.0558
583.1483, 851.4154
583.6304, 853.4279
584.1125, 855.5912
584.5947, 859.4844
585.0768, 864.3146
585.5589, 868.9186
586.0410, 872.5902
586.5231, 876.3408
587.0052, 880.4645
587.4873, 884.9984
587.9694, 889.9315
588.4515, 895.6093
588.9337, 901.4113
