##NAMES=Prehnite
##RRUFFID=R130046
##IDEAL CHEMISTRY=Ca_2_Al(Si_3_Al)O_10_(OH)_2_
##LOCALITY=Eagle Head (Deep Cove), Cape Breton County, Nova Scotia, Canada
##OWNER=RRUFF
##SOURCE=Don Doell
##DESCRIPTION=Colorless bladed crystals
##STATUS=The identification of this mineral has been confirmed by single-crystal X-ray diffraction.
##URL=rruff.info/R130046
8.975323e+001, 0.000000e+000
9.023535e+001, 1.181268e+003
9.071747e+001, 1.175098e+003
9.119958e+001, 1.168386e+003
9.168170e+001, 1.182569e+003
9.216382e+001, 1.191314e+003
9.264594e+001, 1.190902e+003
9.312805e+001, 1.185120e+003
9.361017e+001, 1.177605e+003
9.409229e+001, 1.167001e+003
9.457440e+001, 1.150223e+003
9.505651e+001, 1.135523e+003
9.553863e+001, 1.123405e+003
9.602074e+001, 1.113729e+003
9.650286e+001, 1.106899e+003
9.698498e+001, 1.102387e+003
9.746709e+001, 1.097166e+003
9.794921e+001, 1.090686e+003
9.843133e+001, 1.082769e+003
9.891344e+001, 1.074572e+003
9.939556e+001, 1.065311e+003
9.987768e+001, 1.055479e+003
1.003598e+002, 1.046839e+003
1.008419e+002, 1.040306e+003
1.013240e+002, 1.035919e+003
1.018061e+002, 1.032574e+003
1.022883e+002, 1.029884e+003
1.027704e+002, 1.028266e+003
1.032525e+002, 1.028423e+003
1.037346e+002, 1.030566e+003
1.042167e+002, 1.033069e+003
1.046988e+002, 1.035678e+003
1.051810e+002, 1.037614e+003
1.056631e+002, 1.037352e+003
1.061452e+002, 1.033602e+003
1.066273e+002, 1.027004e+003
1.071094e+002, 1.020071e+003
1.075915e+002, 1.011748e+003
1.080737e+002, 1.004396e+003
1.085558e+002, 9.987529e+002
1.090379e+002, 9.947086e+002
1.095200e+002, 9.919960e+002
1.100021e+002, 9.905456e+002
1.104842e+002, 9.905789e+002
1.109664e+002, 9.907669e+002
1.114485e+002, 9.909877e+002
1.119306e+002, 9.914424e+002
1.124127e+002, 9.926710e+002
1.128948e+002, 9.945162e+002
1.133769e+002, 9.960574e+002
1.138591e+002, 9.959213e+002
1.143412e+002, 9.928916e+002
1.148233e+002, 9.901393e+002
1.153054e+002, 9.878477e+002
1.157875e+002, 9.857119e+002
1.162696e+002, 9.832352e+002
1.167517e+002, 9.801834e+002
1.172339e+002, 9.771177e+002
1.177160e+002, 9.755406e+002
1.181981e+002, 9.757139e+002
1.186802e+002, 9.763029e+002
1.191623e+002, 9.764948e+002
1.196444e+002, 9.767186e+002
1.201266e+002, 9.783949e+002
1.206087e+002, 9.828514e+002
1.210908e+002, 9.886241e+002
1.215729e+002, 9.929423e+002
1.220550e+002, 9.960742e+002
1.225371e+002, 9.973087e+002
1.230193e+002, 9.953744e+002
1.235014e+002, 9.899323e+002
1.239835e+002, 9.841830e+002
1.244656e+002, 9.792521e+002
1.249477e+002, 9.749627e+002
1.254298e+002, 9.713534e+002
1.259120e+002, 9.686869e+002
1.263941e+002, 9.664644e+002
1.268762e+002, 9.635162e+002
1.273583e+002, 9.592090e+002
1.278404e+002, 9.552322e+002
1.283225e+002, 9.517012e+002
1.288047e+002, 9.488048e+002
1.292868e+002, 9.469434e+002
1.297689e+002, 9.465599e+002
1.302510e+002, 9.474938e+002
1.307331e+002, 9.473439e+002
1.312152e+002, 9.449187e+002
1.316974e+002, 9.424866e+002
1.321795e+002, 9.402496e+002
1.326616e+002, 9.384211e+002
1.331437e+002, 9.373711e+002
1.336258e+002, 9.375362e+002
1.341079e+002, 9.392401e+002
1.345901e+002, 9.399727e+002
1.350722e+002, 9.381162e+002
1.355543e+002, 9.367447e+002
1.360364e+002, 9.379968e+002
1.365185e+002, 9.419150e+002
1.370006e+002, 9.467153e+002
1.374828e+002, 9.505081e+002
1.379649e+002, 9.531866e+002
1.384470e+002, 9.549850e+002
1.389291e+002, 9.558595e+002
1.394112e+002, 9.558925e+002
1.398933e+002, 9.550323e+002
1.403755e+002, 9.531681e+002
1.408576e+002, 9.508063e+002
1.413397e+002, 9.485484e+002
1.418218e+002, 9.463926e+002
1.423039e+002, 9.441551e+002
1.427860e+002, 9.414207e+002
1.432681e+002, 9.384620e+002
1.437503e+002, 9.363799e+002
1.442324e+002, 9.360948e+002
1.447145e+002, 9.359803e+002
1.451966e+002, 9.344996e+002
1.456787e+002, 9.316429e+002
1.461608e+002, 9.285128e+002
1.466430e+002, 9.262591e+002
1.471251e+002, 9.250426e+002
1.476072e+002, 9.230627e+002
1.480893e+002, 9.185992e+002
1.485714e+002, 9.141008e+002
1.490535e+002, 9.108560e+002
1.495357e+002, 9.091569e+002
1.500178e+002, 9.084968e+002
1.504999e+002, 9.083295e+002
1.509820e+002, 9.092005e+002
1.514641e+002, 9.093273e+002
1.519462e+002, 9.079650e+002
1.524284e+002, 9.062732e+002
1.529105e+002, 9.052382e+002
1.533926e+002, 9.052207e+002
1.538747e+002, 9.057550e+002
1.543568e+002, 9.056749e+002
1.548389e+002, 9.042341e+002
1.553211e+002, 9.030191e+002
1.558032e+002, 9.020067e+002
1.562853e+002, 9.012814e+002
1.567674e+002, 9.008597e+002
1.572495e+002, 9.007255e+002
1.577316e+002, 9.010038e+002
1.582138e+002, 9.023300e+002
1.586959e+002, 9.055157e+002
1.591780e+002, 9.086654e+002
1.596601e+002, 9.107151e+002
1.601422e+002, 9.123285e+002
1.606243e+002, 9.151453e+002
1.611065e+002, 9.202699e+002
1.615886e+002, 9.272689e+002
1.620707e+002, 9.337891e+002
1.625528e+002, 9.431243e+002
1.630349e+002, 9.490828e+002
1.635170e+002, 9.468358e+002
1.639991e+002, 9.369897e+002
1.644813e+002, 9.252598e+002
1.649634e+002, 9.137642e+002
1.654455e+002, 9.031850e+002
1.659276e+002, 8.947917e+002
1.664097e+002, 8.892858e+002
1.668918e+002, 8.855348e+002
1.673740e+002, 8.825742e+002
1.678561e+002, 8.805426e+002
1.683382e+002, 8.786647e+002
1.688203e+002, 8.760501e+002
1.693024e+002, 8.734192e+002
1.697845e+002, 8.718439e+002
1.702667e+002, 8.722900e+002
1.707488e+002, 8.737143e+002
1.712309e+002, 8.734872e+002
1.717130e+002, 8.703758e+002
1.721951e+002, 8.678832e+002
1.726772e+002, 8.676110e+002
1.731594e+002, 8.686515e+002
1.736415e+002, 8.697331e+002
1.741236e+002, 8.700836e+002
1.746057e+002, 8.698715e+002
1.750878e+002, 8.701124e+002
1.755699e+002, 8.712048e+002
1.760521e+002, 8.723604e+002
1.765342e+002, 8.734581e+002
1.770163e+002, 8.744637e+002
1.774984e+002, 8.753131e+002
1.779805e+002, 8.759280e+002
1.784626e+002, 8.763068e+002
1.789448e+002, 8.769694e+002
1.794269e+002, 8.780963e+002
1.799090e+002, 8.793251e+002
1.803911e+002, 8.804517e+002
1.808732e+002, 8.815733e+002
1.813553e+002, 8.829166e+002
1.818375e+002, 8.846594e+002
1.823196e+002, 8.868004e+002
1.828017e+002, 8.894332e+002
1.832838e+002, 8.924587e+002
1.837659e+002, 8.959101e+002
1.842480e+002, 9.002742e+002
1.847301e+002, 9.052861e+002
1.852123e+002, 9.098585e+002
1.856944e+002, 9.129584e+002
1.861765e+002, 9.143491e+002
1.866586e+002, 9.153467e+002
1.871407e+002, 9.162881e+002
1.876228e+002, 9.166299e+002
1.881050e+002, 9.153611e+002
1.885871e+002, 9.124885e+002
1.890692e+002, 9.099902e+002
1.895513e+002, 9.100097e+002
1.900334e+002, 9.125233e+002
1.905155e+002, 9.149777e+002
1.909977e+002, 9.167723e+002
1.914798e+002, 9.185334e+002
1.919619e+002, 9.210488e+002
1.924440e+002, 9.244941e+002
1.929261e+002, 9.282822e+002
1.934082e+002, 9.323814e+002
1.938904e+002, 9.365507e+002
1.943725e+002, 9.396416e+002
1.948546e+002, 9.408522e+002
1.953367e+002, 9.408312e+002
1.958188e+002, 9.407153e+002
1.963009e+002, 9.403785e+002
1.967831e+002, 9.404423e+002
1.972652e+002, 9.414061e+002
1.977473e+002, 9.430855e+002
1.982294e+002, 9.450783e+002
1.987115e+002, 9.474509e+002
1.991936e+002, 9.500470e+002
1.996758e+002, 9.521550e+002
2.001579e+002, 9.536122e+002
2.006400e+002, 9.547354e+002
2.011221e+002, 9.558905e+002
2.016042e+002, 9.569186e+002
2.020863e+002, 9.574223e+002
2.025685e+002, 9.571819e+002
2.030506e+002, 9.561972e+002
2.035327e+002, 9.544512e+002
2.040148e+002, 9.517890e+002
2.044969e+002, 9.483961e+002
2.049790e+002, 9.443270e+002
2.054612e+002, 9.396265e+002
2.059433e+002, 9.342772e+002
2.064254e+002, 9.280133e+002
2.069075e+002, 9.207256e+002
2.073896e+002, 9.146458e+002
2.078717e+002, 9.099289e+002
2.083539e+002, 9.063751e+002
2.088360e+002, 9.041759e+002
2.093181e+002, 9.031827e+002
2.098002e+002, 9.030829e+002
2.102823e+002, 9.036526e+002
2.107644e+002, 9.049271e+002
2.112466e+002, 9.065753e+002
2.117287e+002, 9.079633e+002
2.122108e+002, 9.102476e+002
2.126929e+002, 9.141111e+002
2.131750e+002, 9.193658e+002
2.136571e+002, 9.253904e+002
2.141393e+002, 9.316741e+002
2.146214e+002, 9.382814e+002
2.151035e+002, 9.447713e+002
2.155856e+002, 9.521254e+002
2.160677e+002, 9.585823e+002
2.165498e+002, 9.636340e+002
2.170320e+002, 9.670845e+002
2.175141e+002, 9.688318e+002
2.179962e+002, 9.689166e+002
2.184783e+002, 9.672939e+002
2.189604e+002, 9.620976e+002
2.194425e+002, 9.510838e+002
2.199247e+002, 9.387708e+002
2.204068e+002, 9.272903e+002
2.208889e+002, 9.169423e+002
2.213710e+002, 9.077228e+002
2.218531e+002, 8.997945e+002
2.223352e+002, 8.932905e+002
2.228174e+002, 8.867448e+002
2.232995e+002, 8.796416e+002
2.237816e+002, 8.728525e+002
2.242637e+002, 8.668465e+002
2.247458e+002, 8.616738e+002
2.252279e+002, 8.576774e+002
2.257100e+002, 8.555603e+002
2.261922e+002, 8.551168e+002
2.266743e+002, 8.541567e+002
2.271564e+002, 8.520886e+002
2.276385e+002, 8.497432e+002
2.281206e+002, 8.478572e+002
2.286027e+002, 8.464730e+002
2.290849e+002, 8.453596e+002
2.295670e+002, 8.443957e+002
2.300491e+002, 8.436000e+002
2.305312e+002, 8.430107e+002
2.310133e+002, 8.427061e+002
2.314954e+002, 8.425781e+002
2.319776e+002, 8.425584e+002
2.324597e+002, 8.426696e+002
2.329418e+002, 8.427335e+002
2.334239e+002, 8.425980e+002
2.339060e+002, 8.423452e+002
2.343881e+002, 8.420547e+002
2.348703e+002, 8.415020e+002
2.353524e+002, 8.411257e+002
2.358345e+002, 8.417449e+002
2.363166e+002, 8.436627e+002
2.367987e+002, 8.453182e+002
2.372808e+002, 8.449342e+002
2.377630e+002, 8.441382e+002
2.382451e+002, 8.451008e+002
2.387272e+002, 8.493431e+002
2.392093e+002, 8.543840e+002
2.396914e+002, 8.559324e+002
2.401735e+002, 8.529532e+002
2.406557e+002, 8.497806e+002
2.411378e+002, 8.481130e+002
2.416199e+002, 8.470735e+002
2.421020e+002, 8.459072e+002
2.425841e+002, 8.443712e+002
2.430662e+002, 8.425889e+002
2.435484e+002, 8.405950e+002
2.440305e+002, 8.380255e+002
2.445126e+002, 8.363004e+002
2.449947e+002, 8.366420e+002
2.454768e+002, 8.375009e+002
2.459589e+002, 8.376430e+002
2.464410e+002, 8.366555e+002
2.469232e+002, 8.347877e+002
2.474053e+002, 8.322510e+002
2.478874e+002, 8.285208e+002
2.483695e+002, 8.254152e+002
2.488516e+002, 8.235355e+002
2.493337e+002, 8.221501e+002
2.498159e+002, 8.207913e+002
2.502980e+002, 8.193007e+002
2.507801e+002, 8.176992e+002
2.512622e+002, 8.159030e+002
2.517443e+002, 8.135244e+002
2.522264e+002, 8.118991e+002
2.527086e+002, 8.119659e+002
2.531907e+002, 8.121708e+002
2.536728e+002, 8.111700e+002
2.541549e+002, 8.087215e+002
2.546370e+002, 8.058698e+002
2.551191e+002, 8.042610e+002
2.556013e+002, 8.046158e+002
2.560834e+002, 8.047255e+002
2.565655e+002, 8.043049e+002
2.570476e+002, 8.038459e+002
2.575297e+002, 8.037244e+002
2.580118e+002, 8.039804e+002
2.584940e+002, 8.043279e+002
2.589761e+002, 8.043534e+002
2.594582e+002, 8.038227e+002
2.599403e+002, 8.035714e+002
2.604224e+002, 8.038553e+002
2.609045e+002, 8.041619e+002
2.613867e+002, 8.042553e+002
2.618688e+002, 8.040693e+002
2.623509e+002, 8.035590e+002
2.628330e+002, 8.025585e+002
2.633151e+002, 8.006406e+002
2.637972e+002, 7.998883e+002
2.642794e+002, 8.009814e+002
2.647615e+002, 8.024239e+002
2.652436e+002, 8.034465e+002
2.657257e+002, 8.040029e+002
2.662078e+002, 8.044584e+002
2.666899e+002, 8.051892e+002
2.671721e+002, 8.062802e+002
2.676542e+002, 8.070656e+002
2.681363e+002, 8.075222e+002
2.686184e+002, 8.077683e+002
2.691005e+002, 8.076930e+002
2.695826e+002, 8.074114e+002
2.700648e+002, 8.072792e+002
2.705469e+002, 8.076339e+002
2.710290e+002, 8.085016e+002
2.715111e+002, 8.089362e+002
2.719932e+002, 8.082374e+002
2.724753e+002, 8.078767e+002
2.729575e+002, 8.086986e+002
2.734396e+002, 8.104112e+002
2.739217e+002, 8.121853e+002
2.744038e+002, 8.135002e+002
2.748859e+002, 8.143701e+002
2.753680e+002, 8.148916e+002
2.758501e+002, 8.145934e+002
2.763322e+002, 8.145398e+002
2.768144e+002, 8.149096e+002
2.772965e+002, 8.157912e+002
2.777786e+002, 8.175093e+002
2.782607e+002, 8.204067e+002
2.787428e+002, 8.240330e+002
2.792249e+002, 8.263996e+002
2.797071e+002, 8.268763e+002
2.801892e+002, 8.271364e+002
2.806713e+002, 8.278205e+002
2.811534e+002, 8.285447e+002
2.816355e+002, 8.285550e+002
2.821176e+002, 8.274771e+002
2.825998e+002, 8.256742e+002
2.830819e+002, 8.240248e+002
2.835640e+002, 8.222631e+002
2.840461e+002, 8.210783e+002
2.845282e+002, 8.207755e+002
2.850103e+002, 8.210956e+002
2.854925e+002, 8.219932e+002
2.859746e+002, 8.235911e+002
2.864567e+002, 8.249156e+002
2.869388e+002, 8.240272e+002
2.874209e+002, 8.202172e+002
2.879030e+002, 8.168673e+002
2.883852e+002, 8.144909e+002
2.888673e+002, 8.128624e+002
2.893494e+002, 8.121427e+002
2.898315e+002, 8.124244e+002
2.903136e+002, 8.124205e+002
2.907957e+002, 8.102934e+002
2.912779e+002, 8.057202e+002
2.917600e+002, 8.015153e+002
2.922421e+002, 7.978811e+002
2.927242e+002, 7.947689e+002
2.932063e+002, 7.921204e+002
2.936884e+002, 7.899182e+002
2.941706e+002, 7.882392e+002
2.946527e+002, 7.871754e+002
2.951348e+002, 7.867841e+002
2.956169e+002, 7.868472e+002
2.960990e+002, 7.874434e+002
2.965811e+002, 7.884327e+002
2.970633e+002, 7.900017e+002
2.975454e+002, 7.920544e+002
2.980275e+002, 7.937589e+002
2.985096e+002, 7.944367e+002
2.989917e+002, 7.942134e+002
2.994738e+002, 7.942228e+002
2.999560e+002, 7.944150e+002
3.004381e+002, 7.948750e+002
3.009202e+002, 7.956651e+002
3.014023e+002, 7.967718e+002
3.018844e+002, 7.981691e+002
3.023665e+002, 7.999293e+002
3.028487e+002, 8.019219e+002
3.033308e+002, 8.037477e+002
3.038129e+002, 8.052768e+002
3.042950e+002, 8.068698e+002
3.047771e+002, 8.084181e+002
3.052592e+002, 8.101321e+002
3.057414e+002, 8.126379e+002
3.062235e+002, 8.162864e+002
3.067056e+002, 8.206240e+002
3.071877e+002, 8.246158e+002
3.076698e+002, 8.279153e+002
3.081519e+002, 8.321062e+002
3.086341e+002, 8.381706e+002
3.091162e+002, 8.453551e+002
3.095983e+002, 8.521672e+002
3.100804e+002, 8.580717e+002
3.105625e+002, 8.641109e+002
3.110446e+002, 8.714832e+002
3.115268e+002, 8.800820e+002
3.120089e+002, 8.901830e+002
3.124910e+002, 9.026067e+002
3.129731e+002, 9.162038e+002
3.134552e+002, 9.302386e+002
3.139373e+002, 9.446329e+002
3.144195e+002, 9.581639e+002
3.149016e+002, 9.707792e+002
3.153837e+002, 9.819828e+002
3.158658e+002, 9.872445e+002
3.163479e+002, 9.844773e+002
3.168300e+002, 9.768253e+002
3.173121e+002, 9.660020e+002
3.177943e+002, 9.522319e+002
3.182764e+002, 9.367734e+002
3.187585e+002, 9.196103e+002
3.192406e+002, 9.015341e+002
3.197227e+002, 8.856744e+002
3.202048e+002, 8.726718e+002
3.206870e+002, 8.610734e+002
3.211691e+002, 8.502410e+002
3.216512e+002, 8.402098e+002
3.221333e+002, 8.308594e+002
3.226154e+002, 8.221014e+002
3.230975e+002, 8.141561e+002
3.235797e+002, 8.077536e+002
3.240618e+002, 8.029979e+002
3.245439e+002, 7.991022e+002
3.250260e+002, 7.963115e+002
3.255081e+002, 7.941121e+002
3.259902e+002, 7.913104e+002
3.264724e+002, 7.873646e+002
3.269545e+002, 7.833317e+002
3.274366e+002, 7.810212e+002
3.279187e+002, 7.806258e+002
3.284008e+002, 7.803116e+002
3.288829e+002, 7.799631e+002
3.293651e+002, 7.794242e+002
3.298472e+002, 7.784593e+002
3.303293e+002, 7.770260e+002
3.308114e+002, 7.753738e+002
3.312935e+002, 7.736824e+002
3.317756e+002, 7.719492e+002
3.322578e+002, 7.703548e+002
3.327399e+002, 7.689040e+002
3.332220e+002, 7.676003e+002
3.337041e+002, 7.664492e+002
3.341862e+002, 7.654525e+002
3.346683e+002, 7.645808e+002
3.351505e+002, 7.638270e+002
3.356326e+002, 7.631912e+002
3.361147e+002, 7.626465e+002
3.365968e+002, 7.625024e+002
3.370789e+002, 7.621189e+002
3.375610e+002, 7.611882e+002
3.380432e+002, 7.598141e+002
3.385253e+002, 7.582218e+002
3.390074e+002, 7.564919e+002
3.394895e+002, 7.546735e+002
3.399716e+002, 7.528818e+002
3.404537e+002, 7.509518e+002
3.409359e+002, 7.493383e+002
3.414180e+002, 7.479561e+002
3.419001e+002, 7.469980e+002
3.423822e+002, 7.470173e+002
3.428643e+002, 7.481744e+002
3.433464e+002, 7.494695e+002
3.438286e+002, 7.494620e+002
3.443107e+002, 7.475281e+002
3.447928e+002, 7.459738e+002
3.452749e+002, 7.448075e+002
3.457570e+002, 7.440357e+002
3.462391e+002, 7.438303e+002
3.467213e+002, 7.441208e+002
3.472034e+002, 7.445007e+002
3.476855e+002, 7.446506e+002
3.481676e+002, 7.445687e+002
3.486497e+002, 7.440909e+002
3.491318e+002, 7.426691e+002
3.496140e+002, 7.414742e+002
3.500961e+002, 7.412359e+002
3.505782e+002, 7.416351e+002
3.510603e+002, 7.417736e+002
3.515424e+002, 7.410451e+002
3.520245e+002, 7.398426e+002
3.525067e+002, 7.398915e+002
3.529888e+002, 7.424559e+002
3.534709e+002, 7.446962e+002
3.539530e+002, 7.460305e+002
3.544351e+002, 7.469541e+002
3.549172e+002, 7.481358e+002
3.553994e+002, 7.497921e+002
3.558815e+002, 7.515080e+002
3.563636e+002, 7.525587e+002
3.568457e+002, 7.524007e+002
3.573278e+002, 7.526571e+002
3.578099e+002, 7.538538e+002
3.582920e+002, 7.550284e+002
3.587741e+002, 7.554354e+002
3.592563e+002, 7.550786e+002
3.597384e+002, 7.545363e+002
3.602205e+002, 7.544322e+002
3.607026e+002, 7.548867e+002
3.611847e+002, 7.545801e+002
3.616668e+002, 7.528451e+002
3.621490e+002, 7.511005e+002
3.626311e+002, 7.494833e+002
3.631132e+002, 7.482273e+002
3.635953e+002, 7.477609e+002
3.640774e+002, 7.483876e+002
3.645595e+002, 7.498543e+002
3.650417e+002, 7.510759e+002
3.655238e+002, 7.516908e+002
3.660059e+002, 7.525579e+002
3.664880e+002, 7.536736e+002
3.669701e+002, 7.551158e+002
3.674522e+002, 7.569986e+002
3.679344e+002, 7.593383e+002
3.684165e+002, 7.619977e+002
3.688986e+002, 7.648114e+002
3.693807e+002, 7.678489e+002
3.698628e+002, 7.708450e+002
3.703449e+002, 7.744176e+002
3.708271e+002, 7.774474e+002
3.713092e+002, 7.789666e+002
3.717913e+002, 7.792385e+002
3.722734e+002, 7.795641e+002
3.727555e+002, 7.812906e+002
3.732376e+002, 7.843458e+002
3.737198e+002, 7.862374e+002
3.742019e+002, 7.857058e+002
3.746840e+002, 7.855441e+002
3.751661e+002, 7.866844e+002
3.756482e+002, 7.887682e+002
3.761303e+002, 7.912695e+002
3.766125e+002, 7.940257e+002
3.770946e+002, 7.968671e+002
3.775767e+002, 7.991836e+002
3.780588e+002, 8.003645e+002
3.785409e+002, 8.027787e+002
3.790230e+002, 8.073096e+002
3.795052e+002, 8.131586e+002
3.799873e+002, 8.200637e+002
3.804694e+002, 8.279511e+002
3.809515e+002, 8.361664e+002
3.814336e+002, 8.436246e+002
3.819157e+002, 8.503791e+002
3.823979e+002, 8.586556e+002
3.828800e+002, 8.689690e+002
3.833621e+002, 8.807647e+002
3.838442e+002, 8.944520e+002
3.843263e+002, 9.093105e+002
3.848084e+002, 9.231775e+002
3.852906e+002, 9.358040e+002
3.857727e+002, 9.463434e+002
3.862548e+002, 9.534444e+002
3.867369e+002, 9.576170e+002
3.872190e+002, 9.563723e+002
3.877011e+002, 9.458330e+002
3.881833e+002, 9.294026e+002
3.886654e+002, 9.109792e+002
3.891475e+002, 8.901592e+002
3.896296e+002, 8.695539e+002
3.901117e+002, 8.512111e+002
3.905938e+002, 8.350092e+002
3.910760e+002, 8.206675e+002
3.915581e+002, 8.084210e+002
3.920402e+002, 7.976876e+002
3.925223e+002, 7.873846e+002
3.930044e+002, 7.773821e+002
3.934865e+002, 7.687703e+002
3.939687e+002, 7.625753e+002
3.944508e+002, 7.578658e+002
3.949329e+002, 7.533044e+002
3.954150e+002, 7.486595e+002
3.958971e+002, 7.441655e+002
3.963792e+002, 7.397458e+002
3.968614e+002, 7.355604e+002
3.973435e+002, 7.326779e+002
3.978256e+002, 7.319954e+002
3.983077e+002, 7.318463e+002
3.987898e+002, 7.314284e+002
3.992719e+002, 7.306660e+002
3.997540e+002, 7.293557e+002
4.002361e+002, 7.273008e+002
4.007183e+002, 7.247803e+002
4.012004e+002, 7.226488e+002
4.016825e+002, 7.211846e+002
4.021646e+002, 7.195485e+002
4.026467e+002, 7.172145e+002
4.031288e+002, 7.148074e+002
4.036110e+002, 7.130671e+002
4.040931e+002, 7.121634e+002
4.045752e+002, 7.118210e+002
4.050573e+002, 7.118903e+002
4.055394e+002, 7.127106e+002
4.060215e+002, 7.120630e+002
4.065037e+002, 7.086229e+002
4.069858e+002, 7.051827e+002
4.074679e+002, 7.028104e+002
4.079500e+002, 7.015659e+002
4.084321e+002, 7.014756e+002
4.089142e+002, 7.027156e+002
4.093964e+002, 7.047274e+002
4.098785e+002, 7.049286e+002
4.103606e+002, 7.012106e+002
4.108427e+002, 6.983341e+002
4.113248e+002, 6.968514e+002
4.118069e+002, 6.962689e+002
4.122891e+002, 6.964033e+002
4.127712e+002, 6.970770e+002
4.132533e+002, 6.976652e+002
4.137354e+002, 6.972259e+002
4.142175e+002, 6.954028e+002
4.146996e+002, 6.939669e+002
4.151818e+002, 6.932131e+002
4.156639e+002, 6.925929e+002
