##NAMES=Prehnite
##RRUFFID=R040047
##IDEAL CHEMISTRY=Ca_2_Al(Si_3_Al)O_10_(OH)_2_
##LOCALITY=Mohave County, Arizona, USA
##OWNER=RRUFF
##SOURCE=University of Arizona Mineral Museum
##DESCRIPTION=Green coarsely crystalline massive
##STATUS=The identification of this mineral has been confirmed by X-ray diffraction and chemical analysis
##URL=rruff.info/R040047
##MEASURED CHEMISTRY=Light bands: Ca_2.01_(Al_1.61_Fe_0.43_)Si_3.08_O_10_(OH)_2_; Dark bands: Ca_1.99_(Al_1.82_Fe_0.19_)Si_3.04_O_10_(OH)_2_
144.1114, 2756.526
144.5935, 2753.406
145.0756, 2772.318
145.5577, 2804.676
146.0399, 2819.709
146.5220, 2799.469
147.0041, 2775.866
147.4862, 2772.647
147.9683, 2789.639
148.4504, 2817.352
148.9326, 2852.149
149.4147, 2895.638
149.8968, 2931.472
150.3789, 2953.466
150.8610, 2968.367
151.3431, 2976.081
151.8252, 2977.040
152.3074, 2977.747
152.7895, 2989.793
153.2716, 3022.022
153.7537, 3046.507
154.2358, 3054.098
154.7179, 3056.967
155.2001, 3065.516
155.6822, 3084.266
156.1643, 3110.408
156.6464, 3135.148
157.1285, 3151.427
157.6106, 3175.238
158.0928, 3208.023
158.5749, 3249.166
159.0570, 3295.588
159.5391, 3344.281
160.0212, 3397.487
160.5033, 3480.426
160.9855, 3612.596
161.4676, 3749.776
161.9497, 3887.810
162.4318, 4021.440
162.9139, 4143.728
163.3960, 4255.000
163.8782, 4352.196
164.3603, 4382.714
164.8424, 4342.071
165.3245, 4247.817
165.8066, 4092.287
166.2887, 3878.551
166.7709, 3654.235
167.2530, 3459.022
167.7351, 3293.426
168.2172, 3146.971
168.6993, 3018.848
169.1814, 2909.398
169.6636, 2819.775
170.1457, 2751.068
170.6278, 2699.015
171.1099, 2663.563
171.5920, 2641.868
172.0741, 2626.339
172.5563, 2617.047
173.0384, 2611.956
173.5205, 2603.446
174.0026, 2583.343
174.4847, 2570.345
174.9668, 2586.402
175.4490, 2628.886
175.9311, 2664.284
176.4132, 2661.863
176.8953, 2622.914
177.3774, 2596.601
177.8595, 2598.877
178.3417, 2611.142
178.8238, 2623.339
179.3059, 2634.222
179.7880, 2644.570
180.2701, 2653.290
180.7522, 2658.043
181.2344, 2671.517
181.7165, 2705.398
182.1986, 2742.080
182.6807, 2772.581
183.1628, 2794.086
183.6449, 2806.936
184.1271, 2808.178
184.6092, 2781.555
185.0913, 2777.129
185.5734, 2816.743
186.0555, 2868.038
186.5376, 2901.093
187.0198, 2903.916
187.5019, 2890.032
187.9840, 2895.460
188.4661, 2944.103
188.9482, 2983.133
189.4303, 3006.782
189.9125, 3019.508
190.3946, 3025.919
190.8767, 3028.303
191.3588, 3027.076
191.8409, 3024.124
192.3230, 3015.463
192.8052, 3009.496
193.2873, 3010.714
193.7694, 3015.489
194.2515, 3018.252
194.7336, 3016.142
195.2157, 3008.921
195.6979, 2992.781
196.1800, 2961.636
196.6621, 2930.143
197.1442, 2900.406
197.6263, 2874.021
198.1084, 2854.631
198.5906, 2844.678
199.0727, 2844.717
199.5548, 2851.318
200.0369, 2877.135
200.5190, 2898.244
201.0011, 2899.540
201.4833, 2881.654
201.9654, 2855.316
202.4475, 2823.462
202.9296, 2788.849
203.4117, 2768.606
203.8938, 2782.739
204.3760, 2799.359
204.8581, 2784.215
205.3402, 2733.842
205.8223, 2683.607
206.3044, 2663.641
206.7865, 2667.444
207.2687, 2672.792
207.7508, 2677.268
208.2329, 2680.411
208.7150, 2680.742
209.1971, 2677.289
209.6792, 2674.421
210.1614, 2676.221
210.6435, 2681.276
211.1256, 2686.853
211.6077, 2690.217
212.0898, 2693.594
212.5719, 2702.647
213.0541, 2719.978
213.5362, 2738.323
214.0183, 2754.737
214.5004, 2768.605
214.9825, 2777.676
215.4646, 2779.276
215.9468, 2774.684
216.4289, 2768.748
216.9110, 2759.798
217.3931, 2752.148
217.8752, 2753.553
218.3573, 2759.255
218.8395, 2755.660
219.3216, 2724.879
219.8037, 2670.318
220.2858, 2636.157
220.7679, 2643.763
221.2500, 2650.163
221.7322, 2636.405
222.2143, 2604.594
222.6964, 2564.425
223.1785, 2519.791
223.6606, 2470.072
224.1427, 2429.869
224.6249, 2407.912
225.1070, 2388.637
225.5891, 2365.432
226.0712, 2339.215
226.5533, 2314.919
227.0354, 2296.833
227.5176, 2285.290
227.9997, 2278.168
228.4818, 2280.397
228.9639, 2283.015
229.4460, 2282.711
229.9281, 2279.404
230.4103, 2274.494
230.8924, 2267.771
231.3745, 2256.323
231.8566, 2256.729
232.3387, 2285.177
232.8208, 2311.032
233.3030, 2321.551
233.7851, 2315.515
234.2672, 2297.309
234.7493, 2269.119
235.2314, 2223.950
235.7135, 2195.133
236.1957, 2187.233
236.6778, 2188.646
237.1599, 2197.144
237.6420, 2210.444
238.1241, 2223.861
238.6062, 2231.349
239.0884, 2229.319
239.5705, 2233.475
240.0526, 2251.519
240.5347, 2268.603
241.0168, 2273.542
241.4989, 2266.541
241.9811, 2257.804
242.4632, 2260.234
242.9453, 2281.645
243.4274, 2288.990
243.9095, 2276.076
244.3916, 2256.028
244.8738, 2231.433
245.3559, 2205.315
245.8380, 2187.239
246.3201, 2190.941
246.8022, 2230.430
247.2843, 2244.782
247.7665, 2216.296
248.2486, 2177.782
248.7307, 2149.362
249.2128, 2134.742
249.6949, 2130.347
250.1770, 2133.407
250.6592, 2147.718
251.1413, 2156.080
251.6234, 2155.813
252.1055, 2151.814
252.5876, 2145.827
253.0697, 2138.767
253.5519, 2133.659
254.0340, 2134.139
254.5161, 2141.875
254.9982, 2149.799
255.4803, 2162.938
255.9624, 2172.984
256.4445, 2169.333
256.9267, 2151.792
257.4088, 2135.259
257.8909, 2137.014
258.3730, 2163.123
258.8551, 2176.291
259.3372, 2164.750
259.8194, 2147.828
260.3015, 2139.324
260.7836, 2141.189
261.2657, 2151.305
261.7478, 2170.171
262.2299, 2199.838
262.7121, 2219.767
263.1942, 2222.917
263.6763, 2220.626
264.1584, 2221.740
264.6405, 2227.138
265.1227, 2232.622
265.6048, 2231.966
266.0869, 2224.944
266.5690, 2232.296
267.0511, 2272.131
267.5332, 2314.746
268.0154, 2331.046
268.4975, 2320.139
268.9796, 2308.986
269.4617, 2320.918
269.9438, 2356.446
270.4259, 2386.205
270.9081, 2401.390
271.3902, 2416.237
271.8723, 2444.822
272.3544, 2487.170
272.8365, 2527.982
273.3186, 2555.415
273.8008, 2569.990
274.2829, 2586.520
274.7650, 2615.801
275.2471, 2639.257
275.7292, 2635.971
276.2113, 2608.020
276.6935, 2584.395
277.1756, 2584.847
277.6577, 2608.322
278.1398, 2632.997
278.6219, 2659.544
279.1040, 2686.889
279.5862, 2717.668
280.0683, 2750.683
280.5504, 2775.181
281.0325, 2779.896
281.5146, 2771.315
281.9967, 2777.180
282.4789, 2811.320
282.9610, 2846.990
283.4431, 2864.325
283.9252, 2866.673
284.4073, 2872.894
284.8894, 2893.059
285.3716, 2924.565
285.8537, 2957.886
286.3358, 3003.284
286.8179, 3037.738
287.3000, 3039.802
287.7821, 3017.172
288.2643, 3004.065
288.7464, 3024.960
289.2285, 3056.705
289.7106, 3042.010
290.1927, 2959.495
290.6748, 2874.292
291.1570, 2820.558
291.6391, 2789.132
292.1212, 2751.480
292.6033, 2694.341
293.0854, 2628.076
293.5675, 2573.958
294.0497, 2533.604
294.5318, 2496.749
295.0139, 2459.289
295.4960, 2422.262
295.9781, 2387.801
296.4602, 2356.383
296.9424, 2328.298
297.4245, 2303.749
297.9066, 2280.706
298.3887, 2266.140
298.8708, 2267.280
299.3529, 2277.387
299.8351, 2284.275
300.3172, 2284.140
300.7993, 2282.407
301.2814, 2286.744
301.7635, 2296.955
302.2456, 2309.929
302.7278, 2324.524
303.2099, 2341.617
303.6920, 2362.623
304.1741, 2387.948
304.6562, 2416.052
305.1383, 2448.021
305.6205, 2484.455
306.1026, 2512.006
306.5847, 2514.563
307.0668, 2515.102
307.5489, 2540.376
308.0310, 2593.806
308.5132, 2654.143
308.9953, 2702.209
309.4774, 2737.361
309.9595, 2775.643
310.4416, 2813.937
310.9237, 2858.193
311.4059, 2919.335
311.8880, 2995.359
312.3701, 3065.035
312.8522, 3109.222
313.3343, 3129.619
313.8164, 3166.446
314.2986, 3237.649
314.7807, 3308.321
315.2628, 3360.467
315.7449, 3394.694
316.2270, 3418.394
316.7091, 3436.552
317.1913, 3447.072
317.6734, 3440.070
318.1555, 3404.644
318.6376, 3366.456
319.1197, 3343.366
319.6018, 3325.097
320.0840, 3282.914
320.5661, 3198.742
321.0482, 3089.447
321.5303, 3013.806
322.0124, 2989.848
322.4945, 2968.447
322.9767, 2940.887
323.4588, 2909.368
323.9409, 2874.309
324.4230, 2834.997
324.9051, 2798.895
325.3872, 2781.738
325.8694, 2796.613
326.3515, 2807.647
326.8336, 2810.698
327.3157, 2809.518
327.7978, 2808.282
328.2799, 2807.983
328.7621, 2806.315
329.2442, 2800.305
329.7263, 2790.163
330.2084, 2773.479
330.6905, 2743.177
331.1726, 2711.746
331.6548, 2691.308
332.1369, 2681.426
332.6190, 2669.343
333.1011, 2641.627
333.5832, 2595.490
334.0653, 2548.195
334.5475, 2497.603
335.0296, 2448.045
335.5117, 2397.438
335.9938, 2349.058
336.4759, 2311.411
336.9580, 2292.715
337.4402, 2292.544
337.9223, 2283.065
338.4044, 2251.232
338.8865, 2224.598
339.3686, 2213.869
339.8507, 2212.760
340.3329, 2209.781
340.8150, 2198.096
341.2971, 2180.272
341.7792, 2167.342
342.2613, 2164.584
342.7434, 2160.391
343.2256, 2150.338
343.7077, 2139.573
344.1898, 2133.246
344.6719, 2133.406
345.1540, 2139.249
345.6361, 2149.905
346.1183, 2169.012
346.6004, 2185.924
347.0825, 2202.027
347.5646, 2214.637
348.0467, 2220.644
348.5288, 2219.906
349.0110, 2216.478
349.4931, 2212.687
349.9752, 2204.602
350.4573, 2211.990
350.9394, 2251.692
351.4215, 2293.629
351.9037, 2328.183
352.3858, 2353.195
352.8679, 2367.033
353.3500, 2360.727
353.8321, 2335.534
354.3142, 2336.594
354.7964, 2385.202
355.2785, 2435.679
355.7606, 2473.311
356.2427, 2499.236
356.7248, 2516.208
357.2069, 2521.927
357.6891, 2522.053
358.1712, 2533.918
358.6533, 2563.049
359.1354, 2591.737
359.6175, 2612.507
360.0996, 2629.097
360.5818, 2645.727
361.0639, 2664.272
361.5460, 2681.973
362.0281, 2697.207
362.5102, 2710.928
362.9923, 2713.306
363.4745, 2688.528
363.9566, 2659.138
364.4387, 2648.081
364.9208, 2659.123
365.4029, 2676.842
365.8850, 2689.356
366.3672, 2698.303
366.8493, 2713.466
367.3314, 2738.763
367.8135, 2768.269
368.2956, 2798.263
368.7777, 2828.505
369.2599, 2852.508
369.7420, 2857.826
370.2241, 2857.750
370.7062, 2878.887
371.1883, 2927.589
371.6704, 2977.486
372.1526, 3003.312
372.6347, 3009.809
373.1168, 3024.543
373.5989, 3060.043
374.0810, 3098.304
374.5631, 3120.144
375.0453, 3127.965
375.5274, 3144.705
376.0095, 3187.584
376.4916, 3248.954
376.9737, 3295.258
377.4558, 3320.970
377.9380, 3340.303
378.4201, 3353.671
378.9022, 3364.755
379.3843, 3381.344
379.8664, 3406.938
380.3485, 3437.242
380.8307, 3462.719
381.3128, 3478.594
381.7949, 3498.739
382.2770, 3531.670
382.7591, 3565.106
383.2412, 3583.822
383.7234, 3586.392
384.2055, 3587.492
384.6876, 3606.367
385.1697, 3652.684
385.6518, 3674.105
386.1339, 3664.170
386.6161, 3640.264
387.0982, 3608.671
387.5803, 3570.291
388.0624, 3524.776
388.5445, 3471.536
389.0266, 3410.668
389.5088, 3344.691
389.9909, 3276.632
390.4730, 3198.942
390.9551, 3098.810
391.4372, 2992.523
391.9193, 2900.292
392.4015, 2830.987
392.8836, 2777.541
393.3657, 2726.888
393.8478, 2683.010
394.3299, 2632.770
394.8120, 2560.246
395.2942, 2490.901
395.7763, 2445.048
396.2584, 2424.422
396.7405, 2411.359
397.2226, 2388.531
397.7047, 2355.957
398.1869, 2324.233
398.6690, 2292.765
399.1511, 2263.956
399.6332, 2236.698
400.1153, 2212.652
400.5974, 2196.453
401.0796, 2195.980
401.5617, 2203.488
402.0438, 2198.684
402.5259, 2176.786
403.0080, 2161.853
403.4901, 2182.531
403.9723, 2214.045
404.4544, 2214.905
404.9365, 2159.839
405.4186, 2103.066
405.9007, 2098.155
406.3828, 2135.154
406.8650, 2158.254
407.3471, 2142.975
407.8292, 2110.929
408.3113, 2097.621
408.7934, 2105.085
409.2755, 2115.459
409.7577, 2126.086
410.2398, 2135.364
410.7219, 2139.596
411.2040, 2138.123
411.6861, 2136.791
412.1682, 2141.774
412.6504, 2154.103
413.1325, 2164.712
413.6146, 2176.733
414.0967, 2184.378
414.5788, 2181.590
415.0609, 2171.279
415.5431, 2161.615
416.0252, 2157.340
416.5073, 2158.094
416.9894, 2162.166
417.4715, 2175.174
417.9536, 2184.835
418.4358, 2188.067
418.9179, 2188.279
419.4000, 2187.994
419.8821, 2188.332
420.3642, 2190.978
420.8463, 2198.707
421.3285, 2212.640
421.8106, 2228.677
422.2927, 2255.155
422.7748, 2276.297
423.2569, 2280.781
423.7390, 2271.865
424.2212, 2262.306
424.7033, 2261.806
425.1854, 2268.994
425.6675, 2274.680
426.1496, 2273.642
426.6317, 2280.443
427.1139, 2310.096
427.5960, 2346.542
428.0781, 2368.390
428.5602, 2365.923
429.0423, 2353.023
429.5244, 2345.187
430.0066, 2342.460
430.4887, 2343.291
430.9708, 2350.456
431.4529, 2357.995
431.9350, 2359.654
432.4171, 2355.289
432.8993, 2348.101
433.3814, 2338.459
433.8635, 2327.316
434.3456, 2316.414
434.8277, 2306.093
435.3098, 2295.265
435.7920, 2282.511
436.2741, 2268.038
436.7562, 2255.071
437.2383, 2241.968
437.7204, 2232.010
438.2025, 2231.258
438.6847, 2235.701
439.1668, 2232.608
439.6489, 2214.554
440.1310, 2188.399
440.6131, 2173.007
441.0952, 2187.588
441.5774, 2185.581
442.0595, 2150.605
442.5416, 2106.444
443.0237, 2072.306
443.5058, 2052.593
443.9879, 2044.537
444.4701, 2047.573
444.9522, 2065.035
445.4343, 2069.635
445.9164, 2050.610
446.3985, 2029.342
446.8806, 2008.820
447.3628, 1991.412
447.8449, 1980.320
448.3270, 1977.628
448.8091, 1981.248
449.2912, 1987.080
449.7733, 1997.194
450.2555, 2003.629
450.7376, 1998.207
451.2197, 1992.133
451.7018, 1995.059
452.1839, 2008.444
452.6660, 2023.295
453.1482, 2032.011
453.6303, 2035.950
454.1124, 2040.973
454.5945, 2047.322
455.0766, 2055.896
455.5587, 2071.055
456.0409, 2089.793
456.5230, 2101.969
457.0051, 2095.225
457.4872, 2088.801
457.9693, 2105.802
458.4514, 2141.456
458.9336, 2166.819
459.4156, 2165.823
459.8978, 2148.693
460.3799, 2143.201
460.8620, 2157.792
461.3441, 2166.020
461.8262, 2158.699
462.3083, 2145.229
462.7905, 2135.435
463.2726, 2131.048
463.7547, 2127.688
464.2368, 2120.139
464.7189, 2107.172
465.2010, 2100.935
465.6832, 2114.011
466.1653, 2120.047
466.6474, 2102.721
467.1295, 2074.193
467.6116, 2053.895
468.0938, 2051.716
468.5759, 2063.307
469.0580, 2081.376
469.5401, 2110.955
470.0222, 2132.777
470.5043, 2134.498
470.9865, 2133.889
471.4686, 2143.835
471.9507, 2164.392
472.4328, 2183.979
472.9149, 2194.510
473.3970, 2197.124
473.8792, 2194.642
474.3613, 2185.243
474.8434, 2176.556
475.3255, 2173.161
475.8076, 2174.109
476.2897, 2177.533
476.7719, 2180.897
477.2540, 2189.597
477.7361, 2212.713
478.2182, 2244.797
478.7003, 2269.686
479.1824, 2281.861
479.6646, 2284.306
480.1467, 2279.781
480.6288, 2263.937
481.1109, 2255.310
481.5930, 2261.251
482.0751, 2269.707
482.5573, 2271.992
483.0394, 2268.433
483.5215, 2264.304
484.0036, 2263.666
484.4857, 2265.490
484.9678, 2262.590
485.4500, 2244.285
485.9321, 2235.824
486.4142, 2244.482
486.8963, 2261.827
487.3784, 2282.406
487.8605, 2303.903
488.3427, 2321.880
488.8248, 2328.430
489.3069, 2322.778
489.7890, 2324.375
490.2711, 2335.677
490.7532, 2352.883
491.2354, 2375.435
491.7175, 2401.562
492.1996, 2427.654
492.6817, 2453.421
493.1638, 2477.285
493.6459, 2494.220
494.1281, 2505.217
494.6102, 2524.641
495.0923, 2561.301
495.5744, 2605.143
496.0565, 2636.242
496.5386, 2650.168
497.0208, 2673.580
497.5029, 2717.563
497.9850, 2770.931
498.4671, 2822.075
498.9492, 2870.261
499.4313, 2923.167
499.9135, 2988.537
500.3956, 3064.314
500.8777, 3126.125
501.3598, 3148.041
501.8419, 3186.873
502.3240, 3259.099
502.8062, 3349.393
503.2883, 3440.205
503.7704, 3526.351
504.2525, 3616.559
504.7346, 3729.107
505.2167, 3869.496
505.6989, 3987.550
506.1810, 4057.041
506.6631, 4132.622
507.1452, 4240.820
507.6273, 4374.066
508.1094, 4514.645
508.5916, 4654.194
509.0737, 4798.553
509.5558, 4959.459
510.0379, 5135.549
510.5200, 5304.799
511.0021, 5459.112
511.4843, 5603.253
511.9664, 5743.879
512.4485, 5880.956
512.9306, 6016.203
513.4127, 6156.795
513.8948, 6290.788
514.3770, 6406.779
514.8591, 6504.253
515.3412, 6587.613
515.8233, 6660.512
516.3054, 6721.921
516.7875, 6763.072
517.2697, 6788.293
517.7518, 6786.446
518.2339, 6758.140
518.7160, 6701.195
519.1981, 6610.294
519.6802, 6485.781
520.1624, 6338.552
520.6445, 6176.922
521.1266, 6000.594
521.6087, 5822.394
522.0908, 5646.384
522.5729, 5463.609
523.0551, 5262.950
523.5372, 5055.938
524.0193, 4862.444
524.5014, 4690.079
524.9835, 4527.146
525.4656, 4358.366
525.9478, 4187.853
526.4299, 4035.426
526.9120, 3910.361
527.3941, 3795.995
527.8762, 3671.124
528.3583, 3534.910
528.8405, 3413.104
529.3226, 3309.812
529.8047, 3219.656
530.2868, 3138.681
530.7689, 3067.487
531.2510, 3009.253
531.7332, 2966.137
532.2153, 2933.425
532.6974, 2899.953
533.1795, 2866.733
533.6616, 2830.746
534.1437, 2792.036
534.6259, 2750.863
535.1080, 2704.774
535.5901, 2655.813
536.0722, 2610.530
536.5543, 2572.065
537.0364, 2541.662
537.5186, 2525.991
538.0007, 2528.769
538.4828, 2532.390
538.9649, 2537.060
539.4470, 2534.745
539.9291, 2514.883
540.4113, 2475.073
540.8934, 2430.315
541.3755, 2383.615
541.8576, 2338.351
542.3397, 2303.615
542.8218, 2279.844
543.3040, 2251.415
543.7861, 2204.973
544.2682, 2143.417
544.7503, 2091.699
545.2324, 2050.033
545.7145, 2016.310
546.1967, 1996.525
546.6788, 1981.516
547.1609, 1961.644
547.6430, 1934.916
548.1251, 1905.487
548.6072, 1877.762
549.0894, 1851.761
549.5715, 1824.863
550.0536, 1789.537
550.5357, 1764.644
551.0178, 1761.168
551.4999, 1769.290
551.9821, 1776.232
552.4642, 1778.674
552.9463, 1778.139
553.4284, 1778.243
553.9105, 1776.987
554.3926, 1764.619
554.8748, 1737.174
555.3569, 1706.221
555.8390, 1680.784
556.3211, 1661.208
556.8032, 1648.340
557.2853, 1646.523
557.7675, 1646.776
558.2496, 1647.399
558.7317, 1646.658
559.2138, 1639.491
559.6959, 1624.464
560.1780, 1610.324
560.6602, 1612.731
561.1423, 1639.350
561.6244, 1651.830
562.1065, 1634.970
562.5886, 1618.383
563.0707, 1614.447
563.5529, 1617.651
564.0350, 1616.553
564.5171, 1605.316
564.9992, 1590.819
565.4813, 1582.689
565.9634, 1580.485
566.4456, 1577.385
566.9277, 1572.716
567.4098, 1565.176
567.8919, 1548.552
568.3740, 1524.472
568.8561, 1513.154
569.3383, 1526.707
569.8204, 1545.420
570.3025, 1560.611
570.7846, 1570.599
571.2667, 1570.227
571.7488, 1557.052
572.2310, 1540.653
572.7131, 1539.286
573.1952, 1561.181
573.6773, 1575.940
574.1594, 1580.885
574.6415, 1581.821
575.1237, 1578.966
575.6058, 1574.180
576.0879, 1571.083
576.5700, 1572.253
577.0521, 1573.721
577.5342, 1565.656
578.0164, 1547.961
578.4985, 1543.736
578.9806, 1566.026
579.4627, 1591.923
579.9448, 1595.326
580.4269, 1578.954
580.9091, 1563.539
581.3912, 1551.472
581.8733, 1542.972
582.3554, 1537.725
582.8375, 1536.111
583.3196, 1539.546
583.8018, 1548.708
584.2839, 1561.337
584.7660, 1573.802
585.2481, 1586.625
585.7302, 1597.615
586.2123, 1605.492
586.6945, 1612.975
587.1766, 1622.075
587.6587, 1631.526
588.1408, 1637.817
588.6229, 1638.006
589.1050, 1638.699
589.5872, 1651.517
590.0693, 1675.980
590.5514, 1697.122
591.0335, 1712.694
591.5156, 1722.772
591.9977, 1723.202
592.4799, 1715.894
592.9620, 1716.584
593.4441, 1738.372
593.9262, 1757.845
594.4083, 1755.178
594.8904, 1741.204
595.3726, 1738.003
595.8547, 1753.315
596.3368, 1779.222
596.8189, 1806.576
597.3010, 1839.113
597.7831, 1854.989
598.2653, 1829.196
598.7474, 1812.656
599.2295, 1827.730
599.7116, 1860.523
600.1937, 1890.537
600.6758, 1911.027
601.1580, 1923.690
601.6401, 1925.303
602.1222, 1919.197
602.6043, 1923.826
603.0864, 1944.892
603.5685, 1966.437
604.0507, 1976.240
604.5328, 1974.259
605.0149, 1967.285
605.4970, 1944.712
605.9791, 1929.588
606.4612, 1939.492
606.9434, 1957.101
607.4255, 1959.593
607.9076, 1942.334
608.3897, 1916.776
608.8718, 1893.822
609.3539, 1873.508
609.8361, 1858.352
610.3182, 1851.647
610.8003, 1844.582
611.2824, 1837.914
611.7645, 1827.632
612.2466, 1806.247
612.7288, 1771.519
613.2109, 1740.707
613.6930, 1733.153
614.1751, 1734.677
614.6572, 1715.003
615.1393, 1672.164
615.6215, 1633.062
616.1036, 1614.724
616.5857, 1612.169
617.0678, 1606.942
617.5499, 1594.881
618.0320, 1585.995
618.5142, 1580.697
618.9963, 1578.708
619.4784, 1582.164
619.9605, 1589.133
620.4426, 1593.702
620.9247, 1591.454
621.4069, 1584.490
621.8890, 1576.416
622.3711, 1565.613
622.8532, 1564.607
623.3353, 1588.273
623.8174, 1610.987
624.2996, 1600.480
624.7817, 1559.502
625.2638, 1531.807
625.7459, 1540.652
626.2280, 1556.948
626.7101, 1557.981
627.1923, 1547.919
627.6744, 1538.629
628.1565, 1534.763
628.6386, 1536.323
629.1207, 1544.894
629.6028, 1564.611
630.0850, 1574.570
630.5671, 1567.568
631.0492, 1557.703
631.5313, 1547.791
632.0134, 1538.276
632.4955, 1528.663
632.9777, 1518.256
633.4598, 1511.053
633.9419, 1516.207
634.4240, 1528.085
634.9061, 1525.206
635.3882, 1502.989
635.8704, 1479.299
636.3525, 1466.061
636.8346, 1462.657
637.3167, 1465.350
637.7988, 1481.740
638.2809, 1493.286
