##NAMES=Prehnite
##RRUFFID=R040047
##IDEAL CHEMISTRY=Ca_2_Al(Si_3_Al)O_10_(OH)_2_
##LOCALITY=Mohave County, Arizona, USA
##OWNER=RRUFF
##SOURCE=University of Arizona Mineral Museum
##DESCRIPTION=Green coarsely crystalline massive
##STATUS=The identification of this mineral has been confirmed by X-ray diffraction and chemical analysis
##URL=rruff.info/R040047
##MEASURED CHEMISTRY=Light bands: Ca_2.01_(Al_1.61_Fe_0.43_)Si_3.08_O_10_(OH)_2_; Dark bands: Ca_1.99_(Al_1.82_Fe_0.19_)Si_3.04_O_10_(OH)_2_
145.1974, 8168.216
145.6795, 8259.640
146.1616, 8315.104
146.6437, 8316.738
147.1258, 8326.064
147.6079, 8337.235
148.0901, 8356.242
148.5722, 8399.334
149.0543, 8497.720
149.5364, 8592.762
150.0185, 8657.839
150.5006, 8614.795
150.9828, 8588.097
151.4649, 8669.816
151.9470, 8730.227
152.4291, 8770.471
152.9112, 8730.153
153.3933, 8793.865
153.8755, 8815.894
154.3576, 8836.206
154.8397, 8914.560
155.3218, 8885.959
155.8039, 8962.572
156.2860, 8995.430
156.7682, 9016.395
157.2503, 9043.515
157.7324, 9099.927
158.2145, 9224.699
158.6966, 9353.007
159.1787, 9450.415
159.6609, 9483.842
160.1430, 9552.354
160.6251, 9695.327
161.1072, 9894.747
161.5893, 10111.45
162.0714, 10383.19
162.5536, 10636.70
163.0357, 10825.54
163.5178, 10973.10
163.9999, 11017.35
164.4820, 10898.55
164.9641, 10634.37
165.4463, 10334.34
165.9284, 10012.53
166.4105, 9696.415
166.8926, 9415.602
167.3747, 9170.086
167.8568, 8969.998
168.3390, 8828.906
168.8211, 8751.433
169.3032, 8700.721
169.7853, 8660.404
170.2674, 8630.424
170.7495, 8610.810
171.2317, 8610.988
171.7138, 8617.037
172.1959, 8614.061
172.6780, 8598.469
173.1601, 8581.552
173.6422, 8568.536
174.1244, 8561.159
174.6065, 8564.887
175.0886, 8588.485
175.5707, 8623.895
176.0528, 8659.687
176.5349, 8693.514
177.0171, 8726.340
177.4992, 8762.367
177.9813, 8800.237
178.4634, 8831.889
178.9455, 8842.755
179.4276, 8841.962
179.9098, 8851.518
180.3919, 8885.902
180.8740, 8930.106
181.3561, 8956.827
181.8382, 8964.845
182.3203, 8973.306
182.8025, 9005.530
183.2846, 9055.992
183.7667, 9103.488
184.2488, 9133.028
184.7309, 9153.047
185.2130, 9186.535
185.6951, 9236.291
186.1773, 9293.069
186.6594, 9357.326
187.1415, 9426.130
187.6236, 9469.229
188.1057, 9450.678
188.5878, 9386.146
189.0700, 9352.986
189.5521, 9364.712
190.0342, 9400.018
190.5163, 9417.744
190.9984, 9416.614
191.4805, 9422.090
191.9627, 9461.508
192.4448, 9530.756
192.9269, 9581.375
193.4090, 9602.188
193.8911, 9600.631
194.3732, 9595.211
194.8554, 9584.520
195.3375, 9578.072
195.8196, 9594.134
196.3017, 9633.920
196.7838, 9649.358
197.2659, 9616.652
197.7481, 9546.603
198.2302, 9515.464
198.7123, 9532.646
199.1944, 9562.718
199.6765, 9559.275
200.1586, 9517.375
200.6408, 9481.107
201.1229, 9469.704
201.6050, 9483.734
202.0871, 9483.392
202.5692, 9462.824
203.0513, 9436.487
203.5335, 9431.185
204.0156, 9451.712
204.4977, 9472.029
204.9798, 9483.875
205.4619, 9488.522
205.9440, 9468.176
206.4262, 9407.705
206.9083, 9332.149
207.3904, 9313.953
207.8725, 9373.630
208.3546, 9433.754
208.8367, 9443.449
209.3189, 9387.308
209.8010, 9344.962
210.2831, 9324.188
210.7652, 9321.893
211.2473, 9324.731
211.7294, 9332.604
212.2116, 9346.349
212.6937, 9370.400
213.1758, 9413.062
213.6579, 9440.026
214.1400, 9441.616
214.6221, 9420.370
215.1043, 9411.201
215.5864, 9418.810
216.0685, 9432.240
216.5506, 9440.290
217.0327, 9440.615
217.5148, 9442.578
217.9970, 9451.890
218.4791, 9469.886
218.9612, 9465.924
219.4433, 9425.262
219.9254, 9377.042
220.4075, 9366.980
220.8897, 9426.797
221.3718, 9457.574
221.8539, 9418.189
222.3360, 9285.303
222.8181, 9193.853
223.3002, 9160.851
223.7824, 9159.062
224.2645, 9138.432
224.7466, 9083.054
225.2287, 9036.103
225.7108, 9015.429
226.1929, 9030.258
226.6750, 9047.335
227.1572, 9071.752
227.6393, 9097.017
228.1214, 9104.129
228.6035, 9080.173
229.0856, 9057.369
229.5677, 9052.594
230.0499, 9075.618
230.5320, 9093.602
231.0141, 9100.845
231.4962, 9101.568
231.9783, 9115.517
232.4604, 9153.993
232.9426, 9190.700
233.4247, 9209.169
233.9068, 9199.302
234.3889, 9190.978
234.8710, 9185.376
235.3531, 9182.990
235.8353, 9190.093
236.3174, 9217.513
236.7995, 9242.452
237.2816, 9244.046
237.7637, 9198.401
238.2458, 9176.823
238.7280, 9199.726
239.2101, 9266.104
239.6922, 9304.800
240.1743, 9301.438
240.6564, 9284.621
241.1385, 9280.614
241.6207, 9295.195
242.1028, 9312.325
242.5849, 9331.019
243.0670, 9351.979
243.5491, 9365.469
244.0313, 9374.063
244.5134, 9373.061
244.9955, 9352.912
245.4776, 9290.802
245.9597, 9249.815
246.4418, 9252.937
246.9240, 9312.354
247.4061, 9345.535
247.8882, 9347.469
248.3703, 9326.739
248.8524, 9290.854
249.3345, 9219.812
249.8167, 9168.255
250.2988, 9155.603
250.7809, 9192.425
251.2630, 9226.170
251.7451, 9254.066
252.2272, 9280.017
252.7094, 9311.580
253.1915, 9353.135
253.6736, 9392.837
254.1557, 9428.417
254.6378, 9464.660
255.1199, 9480.258
255.6021, 9463.169
256.0842, 9431.156
256.5663, 9425.901
257.0484, 9463.909
257.5305, 9500.138
258.0126, 9510.998
258.4948, 9479.169
258.9769, 9474.136
259.4590, 9511.404
259.9411, 9570.795
260.4232, 9594.490
260.9053, 9565.153
261.3875, 9532.186
261.8696, 9517.166
262.3517, 9517.567
262.8338, 9547.332
263.3159, 9617.913
263.7980, 9715.812
264.2802, 9791.430
264.7623, 9837.427
265.2444, 9876.765
265.7265, 9925.143
266.2086, 9986.267
266.6907, 10038.19
267.1729, 10075.60
267.6550, 10102.23
268.1371, 10133.72
268.6192, 10170.93
269.1013, 10209.93
269.5834, 10249.28
270.0656, 10289.97
270.5477, 10323.34
271.0298, 10345.46
271.5119, 10359.62
271.9940, 10382.55
272.4761, 10418.73
272.9583, 10452.28
273.4404, 10465.98
273.9225, 10453.08
274.4046, 10460.26
274.8867, 10499.75
275.3688, 10563.90
275.8510, 10622.42
276.3331, 10677.42
276.8152, 10719.55
277.2973, 10733.18
277.7794, 10713.76
278.2615, 10710.55
278.7437, 10738.62
279.2258, 10789.34
279.7079, 10818.21
280.1900, 10818.45
280.6721, 10823.31
281.1542, 10874.86
281.6364, 10976.47
282.1185, 11048.30
282.6006, 11060.41
283.0827, 11032.65
283.5648, 11050.08
284.0469, 11119.26
284.5291, 11199.97
285.0112, 11252.74
285.4933, 11278.44
285.9754, 11307.16
286.4575, 11352.07
286.9396, 11403.72
287.4217, 11427.41
287.9038, 11421.12
288.3860, 11399.58
288.8681, 11381.20
289.3502, 11363.39
289.8323, 11321.42
290.3144, 11239.63
290.7965, 11131.83
291.2787, 11034.20
291.7608, 10946.32
292.2429, 10869.66
292.7250, 10815.49
293.2071, 10777.38
293.6892, 10721.20
294.1714, 10622.57
294.6535, 10505.81
295.1356, 10423.92
295.6177, 10377.75
296.0998, 10347.75
296.5819, 10314.37
297.0641, 10281.39
297.5462, 10261.43
298.0283, 10259.02
298.5104, 10272.00
298.9925, 10306.18
299.4746, 10361.91
299.9568, 10408.69
300.4389, 10379.96
300.9210, 10320.38
301.4031, 10292.45
301.8852, 10400.24
302.3673, 10486.73
302.8495, 10553.06
303.3316, 10538.83
303.8137, 10628.61
304.2958, 10676.72
304.7779, 10723.10
305.2600, 10827.54
305.7422, 10825.02
306.2243, 10928.54
306.7064, 10989.72
307.1885, 11070.28
307.6706, 11108.88
308.1527, 11160.45
308.6349, 11253.99
309.1170, 11324.28
309.5991, 11322.26
310.0812, 11372.76
310.5633, 11421.78
311.0454, 11470.71
311.5276, 11534.78
312.0097, 11633.68
312.4918, 11748.87
312.9739, 11860.99
313.4560, 11965.36
313.9381, 12062.49
314.4203, 12147.16
314.9024, 12221.62
315.3845, 12299.21
315.8666, 12398.77
316.3487, 12499.15
316.8308, 12580.38
317.3130, 12688.53
317.7951, 12728.15
318.2772, 12622.44
318.7593, 12385.32
319.2414, 12175.02
319.7235, 12055.75
320.2057, 11978.35
320.6878, 11903.93
321.1699, 11808.92
321.6520, 11730.86
322.1341, 11695.34
322.6162, 11696.26
323.0984, 11672.25
323.5805, 11585.30
324.0626, 11485.30
324.5447, 11405.88
325.0268, 11353.94
325.5089, 11320.09
325.9911, 11306.66
326.4732, 11312.60
326.9553, 11325.51
327.4374, 11359.57
327.9195, 11390.09
328.4016, 11402.89
328.8838, 11375.52
329.3659, 11357.70
329.8480, 11354.47
330.3301, 11363.75
330.8122, 11374.99
331.2943, 11407.99
331.7765, 11423.24
332.2586, 11394.93
332.7407, 11285.92
333.2228, 11201.40
333.7049, 11157.94
334.1870, 11143.92
334.6692, 11108.10
335.1513, 11037.25
335.6334, 10965.95
336.1155, 10916.00
336.5976, 10896.30
337.0797, 10868.02
337.5619, 10825.20
338.0440, 10774.22
338.5261, 10732.49
339.0082, 10697.83
339.4903, 10678.44
339.9724, 10683.67
340.4546, 10716.91
340.9367, 10746.09
341.4188, 10771.98
341.9009, 10790.48
342.3830, 10787.53
342.8651, 10760.50
343.3473, 10738.82
343.8294, 10743.22
344.3115, 10771.51
344.7936, 10791.00
345.2757, 10798.81
345.7578, 10801.92
346.2400, 10811.64
346.7221, 10827.60
347.2042, 10843.48
347.6863, 10850.17
348.1684, 10853.62
348.6505, 10876.52
349.1327, 10922.61
349.6148, 10974.71
350.0969, 11012.06
350.5790, 11037.25
351.0611, 11061.36
351.5432, 11086.08
352.0254, 11113.46
352.5075, 11147.41
352.9896, 11187.90
353.4717, 11233.83
353.9538, 11282.93
354.4359, 11336.76
354.9181, 11397.04
355.4002, 11472.27
355.8823, 11550.08
356.3644, 11621.61
356.8465, 11686.89
357.3286, 11741.93
357.8108, 11777.63
358.2929, 11804.03
358.7750, 11834.89
359.2571, 11891.50
359.7392, 11940.54
360.2213, 11954.17
360.7035, 11935.27
361.1856, 11928.10
361.6677, 11979.14
362.1498, 12037.30
362.6319, 12058.87
363.1140, 11975.92
363.5962, 11911.62
364.0783, 11909.44
364.5604, 11962.01
365.0425, 12016.46
365.5246, 12062.17
366.0067, 12105.13
366.4889, 12149.03
366.9710, 12187.87
367.4531, 12235.71
367.9352, 12296.88
368.4173, 12369.12
368.8994, 12442.54
369.3815, 12518.44
369.8636, 12593.88
370.3458, 12667.69
370.8279, 12750.18
371.3100, 12813.23
371.7921, 12843.22
372.2742, 12856.98
372.7563, 12899.07
373.2385, 12988.05
373.7206, 13073.91
374.2027, 13134.35
374.6848, 13162.08
375.1669, 13193.03
375.6490, 13227.44
376.1312, 13264.74
376.6133, 13304.28
377.0954, 13345.74
377.5775, 13391.41
378.0596, 13443.16
378.5417, 13500.14
379.0239, 13561.71
379.5060, 13628.00
379.9881, 13697.25
380.4702, 13767.78
380.9523, 13839.99
381.4344, 13908.10
381.9166, 13971.69
382.3987, 14029.41
382.8808, 14082.38
383.3629, 14130.21
383.8450, 14169.32
384.3271, 14185.95
384.8093, 14188.92
385.2914, 14209.84
385.7735, 14286.99
386.2556, 14358.58
386.7377, 14327.59
387.2198, 14203.42
387.7020, 14054.15
388.1841, 13929.06
388.6662, 13810.10
389.1483, 13668.09
389.6304, 13481.58
390.1125, 13296.47
390.5947, 13151.01
391.0768, 13034.46
391.5589, 12917.35
392.0410, 12781.14
392.5231, 12641.53
393.0052, 12505.41
393.4874, 12367.98
393.9695, 12251.12
394.4516, 12167.81
394.9337, 12109.09
395.4158, 12058.69
395.8979, 12012.27
396.3801, 11972.53
396.8622, 11943.03
397.3443, 11927.95
397.8264, 11907.54
398.3085, 11882.71
398.7906, 11849.94
399.2728, 11804.77
399.7549, 11727.65
400.2370, 11660.05
400.7191, 11611.00
401.2012, 11581.64
401.6833, 11555.13
402.1655, 11526.90
402.6476, 11506.76
403.1297, 11507.39
403.6118, 11545.02
404.0939, 11562.95
404.5760, 11544.62
405.0582, 11499.27
405.5403, 11477.31
406.0224, 11482.31
406.5045, 11500.57
406.9866, 11527.22
407.4688, 11563.16
407.9509, 11590.53
408.4330, 11607.81
408.9151, 11615.12
409.3972, 11602.28
409.8793, 11569.30
410.3615, 11555.37
410.8436, 11604.01
411.3257, 11692.12
411.8078, 11732.68
412.2899, 11712.49
412.7720, 11681.17
413.2542, 11707.21
413.7363, 11772.40
414.2184, 11823.04
414.7005, 11819.65
415.1826, 11795.34
415.6647, 11788.31
416.1469, 11799.82
416.6290, 11815.13
417.1111, 11820.88
417.5932, 11824.59
418.0753, 11835.93
418.5574, 11863.74
419.0396, 11894.77
419.5217, 11930.11
420.0038, 11966.40
420.4859, 11984.29
420.9680, 11958.19
421.4501, 11921.82
421.9323, 11898.25
422.4144, 11885.42
422.8965, 11893.82
423.3786, 11946.81
423.8607, 12025.21
424.3428, 12073.74
424.8250, 12060.69
425.3071, 12042.65
425.7892, 12037.25
426.2713, 12042.69
426.7534, 12067.91
427.2355, 12130.79
427.7177, 12202.29
428.1998, 12234.43
428.6819, 12204.02
429.1640, 12185.73
429.6461, 12207.48
430.1282, 12267.27
430.6104, 12293.42
431.0925, 12277.36
431.5746, 12248.04
432.0567, 12229.25
432.5388, 12220.64
433.0209, 12231.23
433.5031, 12271.63
433.9852, 12325.37
434.4673, 12355.60
434.9494, 12362.62
435.4315, 12350.75
435.9136, 12318.00
436.3958, 12269.16
436.8779, 12214.43
437.3600, 12154.53
437.8421, 12093.92
438.3242, 12025.56
438.8063, 11958.88
439.2885, 11920.03
439.7706, 11955.63
440.2527, 12005.52
440.7348, 12006.77
441.2169, 11949.32
441.6990, 11898.21
442.1812, 11895.29
442.6633, 11916.93
443.1454, 11934.86
443.6275, 11950.02
444.1096, 11950.15
444.5917, 11919.57
445.0739, 11861.36
445.5560, 11820.94
446.0381, 11823.41
446.5202, 11835.40
447.0023, 11837.35
447.4844, 11806.66
447.9666, 11794.25
448.4487, 11814.34
448.9308, 11852.14
449.4129, 11864.64
449.8950, 11830.85
450.3771, 11806.35
450.8593, 11816.66
451.3413, 11869.57
451.8235, 11912.07
452.3056, 11943.39
452.7877, 11965.80
453.2698, 11980.37
453.7519, 11986.17
454.2340, 11993.57
454.7162, 12003.36
455.1983, 12017.48
455.6804, 12047.77
456.1625, 12095.33
456.6446, 12140.84
457.1267, 12162.23
457.6089, 12168.40
458.0910, 12188.54
458.5731, 12237.70
459.0552, 12286.07
459.5373, 12294.84
460.0194, 12271.87
460.5016, 12242.95
460.9837, 12211.43
461.4658, 12187.38
461.9479, 12183.50
462.4300, 12204.92
462.9121, 12225.75
463.3943, 12235.52
463.8764, 12236.18
464.3585, 12230.02
464.8406, 12210.21
465.3227, 12191.05
465.8048, 12177.47
466.2870, 12169.55
466.7691, 12161.95
467.2512, 12152.57
467.7333, 12144.16
468.2154, 12137.74
468.6975, 12125.79
469.1797, 12128.21
469.6618, 12149.61
470.1439, 12184.69
470.6260, 12222.36
471.1081, 12268.62
471.5902, 12302.36
472.0724, 12306.94
472.5545, 12279.09
473.0366, 12280.65
473.5187, 12317.92
474.0008, 12366.65
474.4829, 12399.44
474.9651, 12417.03
475.4472, 12426.44
475.9293, 12423.32
476.4114, 12418.20
476.8935, 12433.79
477.3756, 12469.21
477.8578, 12512.83
478.3399, 12566.43
478.8220, 12620.10
479.3041, 12656.63
479.7862, 12666.57
480.2683, 12674.83
480.7505, 12707.67
481.2326, 12752.48
481.7147, 12782.87
482.1968, 12765.63
482.6789, 12749.32
483.1610, 12766.92
483.6432, 12826.50
484.1253, 12864.95
484.6074, 12834.41
485.0895, 12791.55
485.5716, 12785.37
486.0537, 12873.75
486.5359, 12933.88
487.0180, 12941.23
487.5001, 12909.54
487.9822, 12903.40
488.4643, 12932.43
488.9464, 12971.49
489.4286, 13009.98
489.9107, 13047.63
490.3928, 13083.28
490.8749, 13112.78
491.3570, 13148.59
491.8391, 13220.27
492.3213, 13327.20
492.8034, 13415.62
493.2855, 13454.41
493.7676, 13465.85
494.2497, 13506.83
494.7318, 13576.79
495.2140, 13657.71
495.6961, 13732.61
496.1782, 13809.02
496.6603, 13898.95
497.1424, 14012.35
497.6245, 14126.30
498.1067, 14219.84
498.5888, 14300.55
499.0709, 14386.93
499.5530, 14471.80
500.0351, 14576.51
500.5172, 14717.69
500.9994, 14897.65
501.4815, 15087.56
501.9636, 15300.50
502.4457, 15511.49
502.9278, 15697.70
503.4099, 15819.38
503.8921, 15967.82
504.3742, 16160.81
504.8563, 16387.95
505.3384, 16604.21
505.8205, 16802.72
506.3026, 17005.35
506.7848, 17220.50
507.2669, 17450.31
507.7490, 17698.67
508.2311, 17971.61
508.7132, 18252.25
509.1953, 18521.14
509.6775, 18778.40
510.1596, 19038.59
510.6417, 19297.65
511.1238, 19565.01
511.6059, 19872.97
512.0880, 20217.67
512.5701, 20544.99
513.0522, 20816.23
513.5344, 21050.55
514.0165, 21278.11
514.4986, 21516.19
514.9807, 21710.80
515.4628, 21816.12
515.9449, 21857.68
516.4271, 21877.84
516.9092, 21920.78
517.3913, 21918.64
517.8734, 21838.91
518.3555, 21679.10
518.8376, 21497.03
519.3198, 21304.72
519.8019, 21088.61
520.2840, 20839.32
520.7661, 20569.36
521.2482, 20242.77
521.7303, 19832.41
522.2125, 19377.17
522.6946, 18973.90
523.1767, 18630.74
523.6588, 18294.67
524.1409, 17940.62
524.6230, 17577.24
525.1052, 17216.41
525.5873, 16855.09
526.0694, 16518.77
526.5515, 16244.00
527.0336, 16017.18
527.5157, 15800.50
527.9979, 15586.13
528.4800, 15385.73
528.9621, 15219.19
529.4442, 15080.31
529.9263, 14945.42
530.4084, 14783.68
530.8906, 14636.29
531.3727, 14543.52
531.8548, 14514.84
532.3369, 14477.22
532.8190, 14399.79
533.3011, 14305.00
533.7833, 14214.49
534.2654, 14114.92
534.7475, 14038.31
535.2296, 13991.67
535.7117, 13969.63
536.1938, 13956.48
536.6760, 13963.57
537.1581, 13957.85
537.6402, 13920.27
538.1223, 13847.64
538.6044, 13789.92
539.0865, 13750.49
539.5687, 13714.98
540.0508, 13669.54
540.5329, 13614.04
541.0150, 13550.16
541.4971, 13477.72
541.9792, 13398.27
542.4614, 13312.06
542.9435, 13220.81
543.4256, 13132.28
543.9077, 13044.58
544.3898, 12965.55
544.8719, 12907.39
545.3541, 12874.36
545.8362, 12838.10
546.3183, 12781.73
546.8004, 12715.74
547.2825, 12651.07
547.7646, 12579.18
548.2468, 12521.91
548.7289, 12487.28
549.2110, 12471.60
549.6931, 12461.05
550.1752, 12468.80
550.6573, 12463.50
551.1395, 12425.61
551.6216, 12345.04
552.1037, 12296.70
552.5858, 12289.94
553.0679, 12294.50
553.5500, 12271.07
554.0322, 12221.45
554.5143, 12183.57
554.9964, 12168.41
555.4785, 12167.37
555.9606, 12168.11
556.4427, 12170.20
556.9249, 12171.00
557.4070, 12169.37
557.8891, 12165.24
558.3712, 12155.54
558.8533, 12138.64
559.3354, 12129.21
559.8176, 12144.16
560.2997, 12166.47
560.7818, 12178.72
561.2639, 12160.58
561.7460, 12149.23
562.2281, 12163.74
562.7103, 12192.83
563.1924, 12193.35
563.6745, 12138.94
564.1566, 12090.87
564.6387, 12075.34
565.1208, 12097.53
565.6030, 12098.59
566.0851, 12070.71
566.5672, 12040.58
567.0493, 12038.47
567.5314, 12063.17
568.0135, 12084.26
568.4957, 12096.56
568.9778, 12102.05
569.4599, 12106.19
569.9420, 12107.09
570.4241, 12096.36
570.9063, 12048.94
571.3884, 12000.18
571.8705, 11988.63
572.3526, 12015.81
572.8347, 12048.99
573.3168, 12081.48
573.7990, 12106.50
574.2811, 12116.83
574.7632, 12089.73
575.2453, 12078.35
575.7274, 12108.16
576.2095, 12156.20
576.6917, 12174.86
577.1738, 12140.47
577.6559, 12115.52
578.1380, 12118.62
578.6201, 12148.04
579.1022, 12177.00
579.5844, 12205.28
580.0665, 12233.54
580.5486, 12266.27
581.0307, 12301.42
581.5128, 12319.64
581.9949, 12315.18
582.4771, 12306.35
582.9592, 12318.77
583.4413, 12344.75
583.9234, 12365.27
584.4055, 12368.06
584.8876, 12365.82
585.3698, 12365.48
585.8519, 12367.67
586.3340, 12375.29
586.8161, 12400.50
587.2982, 12423.35
587.7803, 12429.88
588.2625, 12406.47
588.7446, 12399.08
589.2267, 12415.49
589.7088, 12444.46
590.1909, 12473.54
590.6730, 12498.76
591.1552, 12535.09
591.6373, 12589.29
592.1194, 12653.46
592.6015, 12707.55
593.0836, 12751.95
593.5657, 12780.28
594.0479, 12773.77
594.5300, 12749.97
595.0121, 12760.67
595.4942, 12807.68
595.9763, 12861.08
596.4584, 12896.48
596.9406, 12922.76
597.4227, 12954.79
597.9048, 13011.99
598.3869, 13047.57
598.8690, 13011.39
599.3511, 12941.81
599.8333, 12912.75
600.3154, 12987.91
600.7975, 13055.63
601.2796, 13081.87
601.7617, 13068.17
602.2438, 13068.82
602.7260, 13090.31
603.2081, 13115.78
603.6902, 13134.70
604.1723, 13146.93
604.6544, 13159.21
605.1365, 13172.14
605.6187, 13184.71
606.1008, 13202.86
606.5829, 13221.47
607.0650, 13216.02
607.5471, 13158.01
608.0292, 13095.37
608.5114, 13099.78
608.9935, 13151.52
609.4756, 13181.13
609.9577, 13139.47
610.4398, 13073.39
610.9219, 13003.82
611.4041, 12928.65
611.8862, 12876.00
612.3683, 12879.17
612.8504, 12888.33
613.3325, 12863.04
613.8146, 12768.35
614.2968, 12709.34
614.7789, 12704.13
615.2610, 12725.19
615.7431, 12718.31
616.2252, 12681.04
616.7073, 12640.01
617.1895, 12596.02
617.6716, 12558.95
618.1537, 12569.16
618.6358, 12622.52
619.1179, 12666.66
619.6000, 12660.35
620.0822, 12625.65
620.5643, 12583.10
621.0464, 12531.02
621.5285, 12495.84
622.0106, 12498.30
622.4927, 12522.78
622.9749, 12552.68
623.4570, 12609.99
623.9391, 12641.70
624.4212, 12623.21
624.9033, 12576.02
625.3854, 12556.94
625.8676, 12581.86
626.3497, 12599.32
626.8318, 12584.29
627.3139, 12542.58
627.7960, 12537.14
628.2781, 12571.82
628.7603, 12610.24
629.2424, 12624.11
629.7245, 12618.62
630.2066, 12604.89
630.6887, 12582.07
631.1708, 12562.18
631.6530, 12557.80
632.1351, 12562.92
632.6172, 12568.50
633.0993, 12572.63
633.5814, 12575.41
634.0635, 12575.98
634.5457, 12575.19
635.0278, 12576.24
635.5099, 12587.64
635.9920, 12591.62
636.4741, 12579.74
636.9562, 12550.46
637.4384, 12531.44
637.9205, 12524.71
638.4026, 12521.66
638.8847, 12512.98
639.3668, 12500.04
