##NAMES=Prehnite
##RRUFFID=R040047
##IDEAL CHEMISTRY=Ca_2_Al(Si_3_Al)O_10_(OH)_2_
##LOCALITY=Mohave County, Arizona, USA
##OWNER=RRUFF
##SOURCE=University of Arizona Mineral Museum
##DESCRIPTION=Green coarsely crystalline massive
##STATUS=The identification of this mineral has been confirmed by X-ray diffraction and chemical analysis
##URL=rruff.info/R040047
##MEASURED CHEMISTRY=Light bands: Ca_2.01_(Al_1.61_Fe_0.43_)Si_3.08_O_10_(OH)_2_; Dark bands: Ca_1.99_(Al_1.82_Fe_0.19_)Si_3.04_O_10_(OH)_2_
159.500, 1245.844
160.000, 1260.951
160.500, 1242.275
161.000, 1257.092
161.500, 1258.539
162.000, 1266.105
162.500, 1260.421
163.000, 1258.829
163.500, 1270.492
164.000, 1274.816
164.500, 1267.606
165.000, 1275.561
165.500, 1256.422
166.000, 1261.059
166.500, 1275.953
167.000, 1269.410
167.500, 1277.607
168.000, 1280.190
168.500, 1257.261
169.000, 1278.700
169.500, 1280.952
170.000, 1263.501
170.500, 1270.431
171.000, 1280.235
171.500, 1271.832
172.000, 1274.694
172.500, 1280.696
173.000, 1286.699
173.500, 1287.569
174.000, 1282.167
174.500, 1275.346
175.000, 1270.369
175.500, 1281.773
176.000, 1296.993
176.500, 1316.801
177.000, 1325.736
177.500, 1335.993
178.000, 1358.889
178.500, 1400.209
179.000, 1405.011
179.500, 1425.087
180.000, 1454.594
180.500, 1520.700
181.000, 1565.522
181.500, 1585.954
182.000, 1631.932
182.500, 1680.400
183.000, 1705.040
183.500, 1743.953
184.000, 1798.707
184.500, 1843.647
185.000, 1890.331
185.500, 1960.125
186.000, 2025.206
186.500, 2085.302
187.000, 2164.747
187.500, 2244.705
188.000, 2305.359
188.500, 2371.222
189.000, 2442.337
189.500, 2505.810
190.000, 2565.899
190.500, 2617.042
191.000, 2676.195
191.500, 2742.982
192.000, 2791.869
192.500, 2832.284
193.000, 2849.754
193.500, 2890.723
194.000, 2952.695
194.500, 3017.342
195.000, 3080.541
195.500, 3136.565
196.000, 3160.029
196.500, 3156.419
197.000, 3151.207
197.500, 3148.754
198.000, 3156.585
198.500, 3118.550
199.000, 3045.056
199.500, 2955.225
200.000, 2871.284
200.500, 2810.970
201.000, 2734.460
201.500, 2646.509
202.000, 2559.672
202.500, 2476.267
203.000, 2402.081
203.500, 2341.096
204.000, 2288.623
204.500, 2234.539
205.000, 2179.624
205.500, 2145.267
206.000, 2095.139
206.500, 2084.282
207.000, 2058.740
207.500, 2038.332
208.000, 2029.888
208.500, 2046.867
209.000, 2077.085
209.500, 2119.304
210.000, 2151.772
210.500, 2206.278
211.000, 2234.624
211.500, 2329.043
212.000, 2430.492
212.500, 2516.783
213.000, 2577.700
213.500, 2700.929
214.000, 2841.920
214.500, 2873.925
215.000, 2893.244
215.500, 2893.848
216.000, 2845.217
216.500, 2787.556
217.000, 2804.464
217.500, 2779.467
218.000, 2700.266
218.500, 2608.860
219.000, 2513.583
219.500, 2415.034
220.000, 2318.252
220.500, 2223.444
221.000, 2141.331
221.500, 2062.228
222.000, 1983.889
222.500, 1912.990
223.000, 1849.299
223.500, 1788.884
224.000, 1731.931
224.500, 1686.587
225.000, 1650.815
225.500, 1623.003
226.000, 1593.035
226.500, 1568.993
227.000, 1564.761
227.500, 1551.334
228.000, 1531.358
228.500, 1513.095
229.000, 1496.634
229.500, 1484.528
230.000, 1467.116
230.500, 1464.707
231.000, 1453.665
231.500, 1461.144
232.000, 1467.803
232.500, 1466.350
233.000, 1460.826
233.500, 1451.140
234.000, 1440.569
234.500, 1428.463
235.000, 1421.975
235.500, 1418.451
236.000, 1425.724
236.500, 1428.504
237.000, 1424.872
237.500, 1426.303
238.000, 1427.267
238.500, 1426.943
239.000, 1432.071
239.500, 1432.200
240.000, 1441.891
240.500, 1452.364
241.000, 1457.251
241.500, 1481.873
242.000, 1460.055
242.500, 1454.915
243.000, 1456.945
243.500, 1475.733
244.000, 1475.845
244.500, 1461.282
245.000, 1430.153
245.500, 1411.246
246.000, 1431.271
246.500, 1430.441
247.000, 1416.502
247.500, 1386.168
248.000, 1362.699
248.500, 1355.417
249.000, 1358.675
249.500, 1366.891
250.000, 1361.430
250.500, 1360.709
251.000, 1367.990
251.500, 1371.318
252.000, 1371.938
252.500, 1357.965
253.000, 1350.783
253.500, 1352.603
254.000, 1362.977
254.500, 1374.248
255.000, 1376.068
255.500, 1379.965
256.000, 1386.040
256.500, 1407.461
257.000, 1427.119
257.500, 1427.727
258.000, 1427.666
258.500, 1427.058
259.000, 1437.435
259.500, 1445.530
260.000, 1443.707
260.500, 1459.752
261.000, 1487.125
261.500, 1490.352
262.000, 1504.928
262.500, 1545.072
263.000, 1562.531
263.500, 1569.564
264.000, 1587.204
264.500, 1608.148
265.000, 1634.305
265.500, 1657.745
266.000, 1682.500
266.500, 1727.513
267.000, 1767.810
267.500, 1802.482
268.000, 1852.466
268.500, 1904.052
269.000, 1946.022
269.500, 1980.041
270.000, 2006.838
270.500, 2040.044
271.000, 2077.159
271.500, 2124.054
272.000, 2201.368
272.500, 2299.303
273.000, 2349.803
273.500, 2398.481
274.000, 2448.421
274.500, 2473.950
275.000, 2487.364
275.500, 2501.371
276.000, 2510.702
276.500, 2512.529
277.000, 2513.000
277.500, 2513.061
278.000, 2513.671
278.500, 2519.204
279.000, 2530.516
279.500, 2543.261
280.000, 2556.385
280.500, 2569.783
281.000, 2587.766
281.500, 2609.717
282.000, 2627.901
282.500, 2656.854
283.000, 2679.705
283.500, 2695.032
284.000, 2727.219
284.500, 2729.976
285.000, 2741.425
285.500, 2728.190
286.000, 2738.107
286.500, 2682.426
287.000, 2654.343
287.500, 2626.530
288.000, 2599.091
288.500, 2577.326
289.000, 2551.548
289.500, 2491.182
290.000, 2425.896
290.500, 2355.688
291.000, 2330.213
291.500, 2297.402
292.000, 2214.374
292.500, 2153.168
293.000, 2107.382
293.500, 2048.282
294.000, 2002.079
294.500, 1986.206
295.000, 1960.051
295.500, 1928.725
296.000, 1893.315
296.500, 1879.785
297.000, 1899.345
297.500, 1885.857
298.000, 1865.758
298.500, 1871.870
299.000, 1865.455
299.500, 1845.895
300.000, 1843.521
300.500, 1849.413
301.000, 1844.031
301.500, 1874.719
302.000, 1856.993
302.500, 1891.197
303.000, 1915.117
303.500, 1909.005
304.000, 1937.845
304.500, 1984.394
305.000, 2047.351
305.500, 2109.110
306.000, 2169.086
306.500, 2259.314
307.000, 2353.432
307.500, 2413.064
308.000, 2532.601
308.500, 2712.533
309.000, 2897.215
309.500, 3079.972
310.000, 3253.784
310.500, 3483.029
311.000, 3749.854
311.500, 4100.286
312.000, 4408.542
312.500, 4623.616
313.000, 4845.323
313.500, 5064.435
314.000, 5200.465
314.500, 5316.947
315.000, 5407.525
315.500, 5367.958
316.000, 5267.807
316.500, 5028.842
317.000, 4828.661
317.500, 4662.603
318.000, 4470.628
318.500, 4259.687
319.000, 4004.784
319.500, 3768.587
320.000, 3543.295
320.500, 3368.667
321.000, 3211.073
321.500, 3082.239
322.000, 2957.615
322.500, 2835.720
323.000, 2724.063
323.500, 2643.621
324.000, 2596.995
324.500, 2548.854
325.000, 2508.057
325.500, 2494.561
326.000, 2477.456
326.500, 2457.824
327.000, 2444.657
327.500, 2430.567
328.000, 2414.002
328.500, 2424.864
329.000, 2443.939
329.500, 2414.491
330.000, 2400.429
330.500, 2405.951
331.000, 2373.166
331.500, 2332.747
332.000, 2298.391
332.500, 2262.994
333.000, 2226.753
333.500, 2209.243
334.000, 2187.818
334.500, 2153.419
335.000, 2113.687
335.500, 2071.501
336.000, 2034.032
336.500, 2010.988
337.000, 2008.531
337.500, 2006.555
338.000, 2001.162
338.500, 1992.804
339.000, 1966.953
339.500, 1970.639
340.000, 1952.694
340.500, 1937.491
341.000, 1935.649
341.500, 1935.797
342.000, 1937.041
342.500, 1938.886
343.000, 1938.782
343.500, 1935.707
344.000, 1956.309
344.500, 1950.787
345.000, 1963.818
345.500, 1959.230
346.000, 1963.535
346.500, 1977.732
347.000, 1996.747
347.500, 1991.864
348.000, 2019.001
348.500, 1992.978
349.000, 1991.748
349.500, 2004.277
350.000, 2001.761
350.500, 2034.650
351.000, 2025.989
351.500, 2053.700
352.000, 2073.404
352.500, 2085.719
353.000, 2121.759
353.500, 2150.167
354.000, 2150.783
354.500, 2156.985
355.000, 2166.532
355.500, 2188.700
356.000, 2215.906
356.500, 2250.670
357.000, 2298.444
357.500, 2348.836
358.000, 2393.225
358.500, 2438.926
359.000, 2474.994
359.500, 2515.879
360.000, 2538.236
360.500, 2569.698
361.000, 2593.104
361.500, 2616.085
362.000, 2640.746
362.500, 2664.106
363.000, 2685.684
363.500, 2728.469
364.000, 2779.206
364.500, 2842.168
365.000, 2893.392
365.500, 2986.140
366.000, 3053.552
366.500, 3177.933
367.000, 3304.325
367.500, 3401.259
368.000, 3489.820
368.500, 3636.123
369.000, 3796.990
369.500, 3975.384
370.000, 4140.907
370.500, 4315.228
371.000, 4531.286
371.500, 4760.901
372.000, 4999.788
372.500, 5192.015
373.000, 5399.826
373.500, 5638.096
374.000, 5801.987
374.500, 5947.102
375.000, 6151.431
375.500, 6400.190
376.000, 6693.775
376.500, 6931.869
377.000, 7135.357
377.500, 7262.673
378.000, 7377.254
378.500, 7486.535
379.000, 7660.823
379.500, 7820.233
380.000, 7958.057
380.500, 8055.843
381.000, 8131.401
381.500, 8230.586
382.000, 8234.053
382.500, 8367.714
383.000, 8458.903
383.500, 8489.098
384.000, 8395.658
384.500, 8311.367
385.000, 8239.961
385.500, 8262.238
386.000, 8191.340
386.500, 8016.219
387.000, 7751.049
387.500, 7461.226
388.000, 7141.288
388.500, 6778.891
389.000, 6390.994
389.500, 6014.742
390.000, 5665.284
390.500, 5357.359
391.000, 5126.271
391.500, 4925.807
392.000, 4770.295
392.500, 4575.207
393.000, 4424.181
393.500, 4242.495
394.000, 4142.521
394.500, 4034.097
395.000, 3936.572
395.500, 3846.442
396.000, 3784.708
396.500, 3746.356
397.000, 3670.307
397.500, 3640.142
398.000, 3545.231
398.500, 3485.680
399.000, 3411.198
399.500, 3328.718
400.000, 3270.407
400.500, 3180.368
401.000, 3044.676
401.500, 2952.805
402.000, 2877.638
402.500, 2826.771
403.000, 2786.192
403.500, 2753.315
404.000, 2672.196
404.500, 2593.605
405.000, 2523.505
405.500, 2537.875
406.000, 2570.922
406.500, 2521.914
407.000, 2479.578
407.500, 2443.597
408.000, 2446.149
408.500, 2456.397
409.000, 2475.007
409.500, 2456.154
410.000, 2422.084
410.500, 2423.327
411.000, 2427.414
411.500, 2434.867
412.000, 2419.146
412.500, 2407.696
413.000, 2423.224
413.500, 2433.681
414.000, 2440.084
414.500, 2389.152
415.000, 2361.281
415.500, 2366.871
416.000, 2345.669
416.500, 2318.043
417.000, 2291.956
417.500, 2288.935
418.000, 2269.589
418.500, 2275.229
419.000, 2256.775
419.500, 2256.153
420.000, 2263.502
420.500, 2271.092
421.000, 2264.873
421.500, 2261.331
422.000, 2260.087
422.500, 2269.254
423.000, 2283.209
423.500, 2305.597
424.000, 2319.104
424.500, 2330.178
425.000, 2350.726
425.500, 2363.488
426.000, 2368.463
426.500, 2374.356
427.000, 2371.583
427.500, 2377.311
428.000, 2380.810
428.500, 2382.359
429.000, 2387.340
429.500, 2388.839
430.000, 2386.349
430.500, 2424.020
431.000, 2458.424
431.500, 2464.027
432.000, 2479.736
432.500, 2499.479
433.000, 2487.649
433.500, 2474.728
434.000, 2460.406
434.500, 2460.594
435.000, 2453.049
435.500, 2409.408
436.000, 2393.389
436.500, 2394.034
437.000, 2395.904
437.500, 2389.119
438.000, 2385.845
438.500, 2371.281
439.000, 2373.688
439.500, 2362.467
440.000, 2358.750
440.500, 2359.998
441.000, 2373.688
441.500, 2377.819
442.000, 2367.208
442.500, 2334.880
443.000, 2306.699
443.500, 2321.056
444.000, 2328.827
444.500, 2331.944
445.000, 2336.904
445.500, 2348.777
446.000, 2371.873
446.500, 2361.945
447.000, 2354.789
447.500, 2404.726
448.000, 2434.240
448.500, 2448.598
449.000, 2461.135
449.500, 2485.398
450.000, 2529.719
450.500, 2596.161
451.000, 2668.957
451.500, 2740.117
452.000, 2808.495
452.500, 2874.749
453.000, 3009.659
453.500, 3129.306
454.000, 3218.052
454.500, 3370.306
455.000, 3529.479
455.500, 3623.854
456.000, 3785.205
456.500, 3998.330
457.000, 4140.359
457.500, 4269.269
458.000, 4379.889
458.500, 4438.988
459.000, 4470.953
459.500, 4446.580
460.000, 4367.730
460.500, 4247.100
461.000, 4184.969
461.500, 4072.848
462.000, 3871.343
462.500, 3757.623
463.000, 3665.744
463.500, 3552.476
464.000, 3453.172
464.500, 3364.310
465.000, 3268.137
465.500, 3184.000
466.000, 3120.169
466.500, 3089.913
467.000, 3072.089
467.500, 3067.083
468.000, 3024.070
468.500, 2953.981
469.000, 2931.995
469.500, 2919.732
470.000, 2921.610
470.500, 2904.628
471.000, 2890.310
471.500, 2907.231
472.000, 2916.256
472.500, 2920.142
473.000, 2955.229
473.500, 2994.406
474.000, 3039.519
474.500, 3035.789
475.000, 3023.052
475.500, 3018.667
476.000, 3056.623
476.500, 3119.587
477.000, 3144.053
477.500, 3189.521
478.000, 3262.828
478.500, 3299.590
479.000, 3321.548
479.500, 3319.666
480.000, 3348.547
480.500, 3395.200
481.000, 3459.190
481.500, 3491.425
482.000, 3485.779
482.500, 3489.867
483.000, 3507.450
483.500, 3515.286
484.000, 3532.969
484.500, 3555.093
485.000, 3579.874
485.500, 3614.848
486.000, 3660.523
486.500, 3692.675
487.000, 3739.665
487.500, 3824.650
488.000, 3906.344
488.500, 3983.434
489.000, 4035.712
489.500, 4094.101
490.000, 4158.046
490.500, 4224.617
491.000, 4300.401
491.500, 4393.697
492.000, 4472.213
492.500, 4541.013
493.000, 4584.195
493.500, 4668.364
494.000, 4784.206
494.500, 4816.757
495.000, 4865.535
495.500, 4944.157
496.000, 5076.597
496.500, 5208.056
497.000, 5279.077
497.500, 5324.304
498.000, 5354.957
498.500, 5479.514
499.000, 5598.417
499.500, 5709.818
500.000, 5862.679
500.500, 6022.361
501.000, 6178.851
501.500, 6344.025
502.000, 6517.415
502.500, 6740.444
503.000, 6923.530
503.500, 7063.670
504.000, 7357.712
504.500, 7627.520
505.000, 7798.213
505.500, 8186.049
506.000, 8643.520
506.500, 8980.647
507.000, 9400.062
507.500, 9890.134
508.000, 10303.550
508.500, 10788.510
509.000, 11406.580
509.500, 12026.210
510.000, 12682.610
510.500, 13427.401
511.000, 14187.911
511.500, 15028.490
512.000, 15889.290
512.500, 16807.551
513.000, 17803.881
513.500, 18812.250
514.000, 19642.961
514.500, 20391.334
515.000, 20964.904
515.500, 21557.939
516.000, 21798.980
516.500, 22045.840
517.000, 22298.760
517.500, 21687.631
518.000, 21206.480
518.500, 21196.480
519.000, 20484.980
519.500, 19560.180
520.000, 18870.779
520.500, 17948.561
521.000, 16844.900
521.500, 16074.280
522.000, 15253.730
522.500, 14344.150
523.000, 13467.910
523.500, 12634.310
524.000, 11921.020
524.500, 11205.450
525.000, 10495.440
525.500, 9905.753
526.000, 9377.430
526.500, 8918.315
527.000, 8421.496
527.500, 7975.031
528.000, 7654.976
528.500, 7312.571
529.000, 6992.491
529.500, 6755.305
530.000, 6537.307
530.500, 6348.341
531.000, 6226.087
531.500, 6114.952
532.000, 6012.673
532.500, 5896.513
533.000, 5785.908
533.500, 5706.502
534.000, 5625.294
534.500, 5545.265
535.000, 5500.875
535.500, 5455.281
536.000, 5408.362
536.500, 5348.197
537.000, 5269.065
537.500, 5151.856
538.000, 5028.089
538.500, 4903.328
539.000, 4786.390
539.500, 4662.531
540.000, 4533.450
540.500, 4411.832
541.000, 4267.482
541.500, 4156.904
542.000, 4018.334
542.500, 3881.690
543.000, 3768.564
543.500, 3638.940
544.000, 3504.916
544.500, 3410.186
545.000, 3328.945
545.500, 3260.656
546.000, 3150.057
546.500, 3059.780
547.000, 3013.162
547.500, 2926.849
548.000, 2841.098
548.500, 2807.073
549.000, 2753.843
549.500, 2689.316
550.000, 2645.456
550.500, 2610.312
551.000, 2585.565
551.500, 2550.987
552.000, 2511.131
552.500, 2462.136
553.000, 2427.806
553.500, 2401.464
554.000, 2388.835
554.500, 2353.414
555.000, 2300.654
555.500, 2323.223
556.000, 2314.621
556.500, 2260.808
557.000, 2243.960
557.500, 2230.365
558.000, 2205.411
558.500, 2185.759
559.000, 2166.630
559.500, 2131.066
560.000, 2108.558
560.500, 2097.625
561.000, 2074.884
561.500, 2086.522
562.000, 2051.539
562.500, 2050.726
563.000, 2050.730
563.500, 2024.941
564.000, 2013.703
564.500, 2010.400
565.000, 2009.083
565.500, 2001.288
566.000, 1987.067
566.500, 1977.269
567.000, 1976.850
567.500, 1993.061
568.000, 1974.240
568.500, 1946.046
569.000, 1920.288
569.500, 1931.731
570.000, 1962.880
570.500, 1957.996
571.000, 1943.619
571.500, 1919.042
572.000, 1929.652
572.500, 1943.099
573.000, 1955.277
573.500, 1955.720
574.000, 1953.854
574.500, 1957.781
575.000, 1960.033
575.500, 1961.135
576.000, 1959.905
576.500, 1958.323
577.000, 1956.348
577.500, 1958.021
578.000, 1957.732
578.500, 1952.595
579.000, 1952.891
579.500, 1956.775
580.000, 1968.809
580.500, 1979.424
581.000, 1988.669
581.500, 1987.190
582.000, 1992.726
582.500, 2006.173
583.000, 2021.473
583.500, 2033.180
584.000, 2037.100
584.500, 2048.990
585.000, 2064.046
585.500, 2081.782
586.000, 2105.833
586.500, 2132.843
587.000, 2141.069
587.500, 2157.366
588.000, 2182.480
588.500, 2195.205
589.000, 2216.974
589.500, 2258.909
590.000, 2307.478
590.500, 2350.691
591.000, 2364.448
591.500, 2398.343
592.000, 2443.361
592.500, 2477.747
593.000, 2507.925
593.500, 2533.794
594.000, 2555.514
594.500, 2578.384
595.000, 2603.953
595.500, 2631.774
596.000, 2664.524
596.500, 2697.729
597.000, 2730.409
597.500, 2777.108
598.000, 2800.522
598.500, 2841.814
599.000, 2899.744
599.500, 2971.132
600.000, 3035.091
600.500, 3085.987
601.000, 3124.381
601.500, 3169.771
602.000, 3244.576
602.500, 3323.610
603.000, 3402.847
603.500, 3468.936
604.000, 3494.567
604.500, 3538.105
605.000, 3534.030
605.500, 3550.794
606.000, 3525.217
606.500, 3463.428
607.000, 3400.517
607.500, 3350.130
608.000, 3276.917
608.500, 3193.112
609.000, 3099.206
609.500, 3006.097
610.000, 2913.744
610.500, 2829.295
611.000, 2749.770
611.500, 2675.933
612.000, 2610.444
612.500, 2549.301
613.000, 2494.903
613.500, 2437.730
614.000, 2384.969
614.500, 2352.128
615.000, 2316.773
615.500, 2280.102
616.000, 2244.338
616.500, 2231.154
617.000, 2214.273
617.500, 2218.994
618.000, 2206.922
618.500, 2209.213
619.000, 2215.465
619.500, 2218.112
620.000, 2208.542
620.500, 2207.626
621.000, 2212.037
621.500, 2209.417
622.000, 2213.185
622.500, 2216.579
623.000, 2223.370
623.500, 2234.047
624.000, 2249.358
624.500, 2251.022
625.000, 2248.824
625.500, 2242.151
626.000, 2244.600
626.500, 2244.932
627.000, 2241.288
627.500, 2240.557
628.000, 2235.109
628.500, 2231.752
629.000, 2224.574
629.500, 2214.006
630.000, 2187.466
630.500, 2170.148
631.000, 2166.807
631.500, 2148.221
632.000, 2135.921
632.500, 2145.599
633.000, 2112.608
633.500, 2074.366
634.000, 2086.801
634.500, 2079.008
635.000, 2060.052
635.500, 2070.178
636.000, 2054.869
636.500, 2013.508
637.000, 2013.164
637.500, 2007.804
638.000, 1989.574
638.500, 2022.323
639.000, 2040.448
639.500, 1985.853
640.000, 1958.873
640.500, 1940.753
641.000, 1906.536
641.500, 1878.273
642.000, 1854.870
642.500, 1831.426
643.000, 1817.890
643.500, 1800.796
644.000, 1800.549
644.500, 1802.825
645.000, 1803.870
645.500, 1795.877
646.000, 1784.807
646.500, 1771.141
647.000, 1774.095
647.500, 1781.292
648.000, 1767.635
648.500, 1760.470
649.000, 1757.864
649.500, 1747.274
650.000, 1748.478
650.500, 1763.195
651.000, 1772.901
651.500, 1776.482
652.000, 1769.859
652.500, 1763.384
653.000, 1759.454
653.500, 1763.215
654.000, 1780.240
654.500, 1797.930
655.000, 1782.328
655.500, 1795.475
656.000, 1828.073
656.500, 1819.123
657.000, 1818.481
657.500, 1827.061
658.000, 1834.591
658.500, 1852.149
659.000, 1887.087
659.500, 1906.158
660.000, 1917.093
660.500, 1937.794
661.000, 1934.650
661.500, 1957.672
662.000, 1951.885
662.500, 1948.846
663.000, 1948.099
663.500, 1949.307
664.000, 1951.387
664.500, 1957.859
665.000, 1962.216
665.500, 1969.849
666.000, 1981.953
666.500, 1990.377
667.000, 1987.707
667.500, 2012.712
668.000, 2030.215
668.500, 2041.468
669.000, 2037.015
669.500, 2044.179
670.000, 2058.483
670.500, 2077.535
671.000, 2081.210
671.500, 2095.810
672.000, 2098.095
672.500, 2120.026
673.000, 2134.910
673.500, 2156.771
674.000, 2166.219
674.500, 2180.090
675.000, 2195.902
675.500, 2194.776
676.000, 2214.755
676.500, 2208.975
677.000, 2196.640
677.500, 2219.555
678.000, 2227.947
678.500, 2226.511
679.000, 2239.780
679.500, 2252.330
680.000, 2264.124
680.500, 2267.677
681.000, 2259.697
681.500, 2255.822
682.000, 2244.681
682.500, 2226.299
683.000, 2214.430
683.500, 2187.113
684.000, 2165.468
684.500, 2144.269
685.000, 2153.909
685.500, 2093.685
686.000, 2090.289
686.500, 2058.911
687.000, 2005.203
687.500, 1976.253
688.000, 1949.363
688.500, 1924.886
689.000, 1899.187
689.500, 1870.230
690.000, 1835.828
690.500, 1806.724
691.000, 1782.827
691.500, 1769.641
692.000, 1769.090
692.500, 1765.625
693.000, 1727.855
693.500, 1704.892
694.000, 1692.858
694.500, 1705.017
695.000, 1697.058
695.500, 1672.369
696.000, 1664.860
696.500, 1649.524
697.000, 1624.849
697.500, 1606.052
698.000, 1597.772
698.500, 1606.710
699.000, 1611.702
699.500, 1610.868
