##NAMES=Prehnite
##RRUFFID=R050055
##IDEAL CHEMISTRY=Ca_2_Al(Si_3_Al)O_10_(OH)_2_
##LOCALITY=Diako, Sandare District, Mali
##OWNER=RRUFF
##SOURCE=Rock Currier
##DESCRIPTION=Light green reniform aggregate
##STATUS=The identification of this mineral has been confirmed by X-ray diffraction and chemical analysis
##URL=rruff.info/R050055
##MEASURED CHEMISTRY=Ca_2_(Al_.886_Fe_.114_)_2_Si_3_O_10_(OH)_2_
146.2870, 196.3841
146.7691, 203.6450
147.2512, 210.9610
147.7334, 218.5990
148.2155, 226.4214
148.6976, 235.5616
149.1797, 248.0629
149.6618, 261.3199
150.1439, 271.7922
150.6261, 276.2025
151.1082, 280.6489
151.5903, 286.8027
152.0724, 295.8670
152.5545, 303.9965
153.0366, 309.2929
153.5188, 313.4918
154.0009, 319.9764
154.4830, 330.1921
154.9651, 342.1404
155.4472, 355.0732
155.9293, 369.0822
156.4115, 383.7165
156.8936, 397.0688
157.3757, 410.5473
157.8578, 429.1425
158.3399, 455.8724
158.8221, 487.2423
159.3042, 521.2190
159.7863, 557.2531
160.2684, 595.8638
160.7505, 635.9427
161.2326, 678.2471
161.7148, 725.8829
162.1969, 796.4158
162.6790, 866.9698
163.1611, 914.7028
163.6432, 943.3082
164.1253, 939.1100
164.6075, 883.4582
165.0896, 775.2791
165.5717, 661.8524
166.0538, 559.7297
166.5359, 470.6508
167.0180, 396.6303
167.5002, 339.4836
167.9823, 296.2971
168.4644, 266.7948
168.9465, 251.9192
169.4286, 244.0424
169.9107, 240.1524
170.3929, 239.3030
170.8750, 239.4054
171.3571, 239.5734
171.8392, 240.0826
172.3213, 241.1207
172.8034, 242.5795
173.2856, 244.9661
173.7677, 249.1094
174.2498, 254.7092
174.7319, 260.6460
175.2140, 267.0565
175.6961, 273.2011
176.1783, 277.2842
176.6604, 277.4604
177.1425, 278.1353
177.6246, 286.3354
178.1067, 300.9206
178.5888, 315.0501
179.0710, 321.5550
179.5531, 323.7813
180.0352, 329.2617
180.5173, 340.9410
180.9994, 355.4739
181.4815, 367.0232
181.9637, 375.7731
182.4458, 384.2888
182.9279, 394.5257
183.4100, 406.3575
183.8921, 419.6563
184.3742, 435.7374
184.8564, 452.7010
185.3385, 466.3459
185.8206, 476.8545
186.3027, 483.2534
186.7848, 482.1232
187.2669, 474.6010
187.7491, 469.2952
188.2312, 469.3533
188.7133, 473.9476
189.1954, 481.0386
189.6775, 491.1367
190.1596, 501.2435
190.6418, 507.7856
191.1239, 510.7776
191.6060, 512.4195
192.0881, 513.4098
192.5702, 513.7482
193.0524, 513.6659
193.5345, 513.4313
194.0166, 512.0984
194.4987, 507.5045
194.9808, 499.4159
195.4629, 491.5661
195.9451, 484.8369
196.4272, 479.1854
196.9093, 478.3284
197.3914, 483.6597
197.8735, 491.7776
198.3556, 495.9711
198.8378, 495.6495
199.3199, 495.0959
199.8020, 497.2524
200.2841, 502.4391
200.7662, 505.2256
201.2483, 505.0525
201.7305, 502.5386
202.2126, 499.6249
202.6947, 496.8993
203.1768, 491.5771
203.6589, 480.7878
204.1410, 463.5888
204.6232, 448.3683
205.1053, 436.1629
205.5874, 426.2805
206.0695, 416.2659
206.5516, 405.6854
207.0337, 396.1125
207.5159, 388.8899
207.9980, 384.6739
208.4801, 380.1863
208.9622, 374.5215
209.4443, 368.2952
209.9264, 364.2521
210.4086, 361.9994
210.8907, 362.7365
211.3728, 368.1219
211.8549, 379.7847
212.3370, 390.5029
212.8191, 398.3922
213.3013, 404.1034
213.7834, 414.6442
214.2655, 432.8945
214.7476, 451.4006
215.2297, 463.2354
215.7118, 466.4677
216.1940, 468.6549
216.6761, 471.0672
217.1582, 473.6668
217.6403, 476.0234
218.1224, 480.3896
218.6045, 481.4913
219.0867, 473.2319
219.5688, 451.7632
220.0509, 430.0450
220.5330, 410.8668
221.0151, 394.0069
221.4972, 378.2491
221.9794, 363.3739
222.4615, 349.6898
222.9436, 337.2912
223.4257, 326.0240
223.9078, 316.2585
224.3899, 308.2438
224.8721, 301.9124
225.3542, 296.8995
225.8363, 293.6639
226.3184, 291.2685
226.8005, 288.3220
227.2827, 283.6747
227.7648, 280.7598
228.2469, 280.8310
228.7290, 284.3392
229.2111, 287.3141
229.6932, 289.6486
230.1754, 291.5020
230.6575, 293.0469
231.1396, 294.0352
231.6217, 295.1174
232.1038, 296.2923
232.5859, 297.3522
233.0681, 299.7159
233.5502, 303.9732
234.0323, 309.0932
234.5144, 313.4023
234.9965, 315.3666
235.4786, 319.1279
235.9608, 326.6603
236.4429, 339.2267
236.9250, 349.2058
237.4071, 355.8635
237.8892, 360.3067
238.3713, 364.2802
238.8535, 368.0863
239.3356, 370.9285
239.8177, 372.7018
240.2998, 373.6462
240.7819, 372.3613
241.2640, 367.4581
241.7462, 361.1129
242.2283, 357.1770
242.7104, 357.0343
243.1925, 357.0605
243.6746, 356.5570
244.1567, 356.4143
244.6389, 352.3277
245.1210, 342.6237
245.6031, 330.0045
246.0852, 319.2241
246.5673, 310.7955
247.0494, 303.3238
247.5316, 296.1447
248.0137, 288.7073
248.4958, 283.5034
248.9779, 281.1613
249.4600, 280.7342
249.9421, 280.6423
250.4243, 281.1583
250.9064, 281.5233
251.3885, 281.4876
251.8706, 281.0477
252.3527, 280.0822
252.8348, 278.0355
253.3170, 275.8073
253.7991, 275.3839
254.2812, 277.9524
254.7633, 280.0467
255.2454, 280.0036
255.7275, 276.7652
256.2097, 275.3292
256.6918, 275.9832
257.1739, 278.2539
257.6560, 281.5453
258.1381, 286.5522
258.6202, 291.1355
259.1024, 293.8527
259.5845, 293.3016
260.0666, 297.1788
260.5487, 308.1704
261.0308, 321.5387
261.5129, 328.3371
261.9951, 325.8229
262.4772, 323.1427
262.9593, 323.8761
263.4414, 328.6761
263.9235, 333.8549
264.4056, 339.4821
264.8878, 345.4892
265.3699, 352.0092
265.8520, 359.3589
266.3341, 366.4582
266.8162, 372.4415
267.2983, 376.6700
267.7805, 383.9859
268.2626, 395.6769
268.7447, 408.9622
269.2268, 418.1147
269.7089, 421.3102
270.1910, 426.9284
270.6732, 440.1125
271.1553, 462.2112
271.6374, 477.0380
272.1195, 482.1329
272.6016, 483.5855
273.0837, 491.3634
273.5659, 506.5802
274.0480, 522.4955
274.5301, 536.1511
275.0122, 547.3174
275.4943, 562.0433
275.9764, 581.7324
276.4586, 602.3403
276.9407, 616.9754
277.4228, 624.6758
277.9049, 633.1899
278.3870, 645.7154
278.8691, 662.0700
279.3513, 678.5428
279.8334, 695.6295
280.3155, 711.5585
280.7976, 721.7153
281.2798, 725.5570
281.7619, 734.3362
282.2440, 754.9323
282.7261, 785.3142
283.2082, 809.7023
283.6903, 827.3499
284.1725, 841.7498
284.6546, 856.1332
285.1367, 870.4475
285.6188, 886.7490
286.1009, 907.9285
286.5830, 931.8787
287.0652, 951.1123
287.5473, 966.0552
288.0294, 972.7422
288.5115, 965.5843
288.9936, 945.2552
289.4757, 918.1703
289.9579, 886.3867
290.4400, 849.3568
290.9221, 802.4805
291.4042, 745.1296
291.8863, 685.7756
292.3684, 628.7735
292.8506, 575.8325
293.3327, 533.6351
293.8148, 507.1983
294.2969, 490.8045
294.7790, 472.7834
295.2611, 453.0609
295.7433, 435.3787
296.2254, 423.0611
296.7075, 415.1414
297.1896, 409.2311
297.6717, 404.1776
298.1538, 400.9665
298.6360, 402.0312
299.1181, 407.0904
299.6002, 412.6956
300.0823, 415.4912
300.5644, 417.0792
301.0465, 420.5384
301.5287, 426.9632
302.0108, 435.2097
302.4929, 443.1125
302.9750, 451.2210
303.4571, 462.2232
303.9392, 481.6335
304.4214, 503.9907
304.9035, 521.7256
305.3856, 529.8322
305.8677, 537.3973
306.3498, 551.4762
306.8319, 571.2807
307.3141, 594.4604
307.7962, 619.5222
308.2783, 647.0194
308.7604, 679.0133
309.2425, 718.2222
309.7246, 755.4285
310.2068, 782.0790
310.6889, 801.8859
311.1710, 824.7900
311.6531, 855.8573
312.1352, 891.7307
312.6173, 931.4652
313.0995, 977.5059
313.5816, 1018.417
314.0637, 1050.887
314.5458, 1074.537
315.0279, 1089.034
315.5100, 1093.232
315.9922, 1089.010
316.4743, 1076.613
316.9564, 1055.204
317.4385, 1029.226
317.9206, 999.2237
318.4027, 965.7357
318.8849, 929.5137
319.3670, 887.2180
319.8491, 845.3353
320.3312, 805.7294
320.8133, 768.2094
321.2954, 734.2932
321.7776, 703.7489
322.2597, 676.8636
322.7418, 653.9433
323.2239, 635.9944
323.7060, 621.0551
324.1881, 609.2774
324.6703, 600.8483
325.1524, 593.0427
325.6345, 585.0020
326.1166, 577.9707
326.5987, 572.8810
327.0808, 570.5546
327.5630, 569.1898
328.0451, 568.0057
328.5272, 567.1294
329.0093, 569.6341
329.4914, 579.3876
329.9735, 588.9543
330.4557, 593.4124
330.9378, 590.5403
331.4199, 586.4167
331.9020, 581.7487
332.3841, 576.2242
332.8662, 568.1121
333.3484, 556.5217
333.8305, 543.8130
334.3126, 531.6172
334.7947, 521.5281
335.2768, 506.6312
335.7589, 483.3246
336.2411, 456.8564
336.7232, 441.1857
337.2053, 439.9011
337.6874, 439.2700
338.1695, 431.6138
338.6516, 415.6664
339.1338, 404.5655
339.6159, 399.4076
340.0980, 397.9080
340.5801, 396.5508
341.0622, 395.2575
341.5443, 394.7287
342.0265, 395.4117
342.5086, 397.1943
342.9907, 399.4189
343.4728, 402.3159
343.9549, 404.6736
344.4370, 403.4663
344.9192, 399.3150
345.4013, 398.3504
345.8834, 404.2680
346.3655, 414.4995
346.8476, 421.8375
347.3297, 426.1613
347.8119, 430.3076
348.2940, 437.4303
348.7761, 446.5592
349.2582, 454.5807
349.7403, 460.4103
350.2225, 465.1477
350.7046, 469.2640
351.1867, 473.1281
351.6688, 479.3093
352.1509, 492.6922
352.6331, 508.8106
353.1152, 520.1973
353.5973, 522.5544
354.0794, 524.7822
354.5615, 535.7741
355.0436, 553.3776
355.5258, 571.0408
356.0079, 586.7523
356.4900, 600.0675
356.9721, 610.2671
357.4542, 616.6973
357.9363, 621.8549
358.4185, 627.2425
358.9006, 632.2935
359.3827, 636.0278
359.8648, 637.6331
360.3469, 638.1636
360.8290, 638.1529
361.3112, 637.6766
361.7933, 636.4218
362.2754, 633.0834
362.7575, 629.3600
363.2396, 627.0879
363.7217, 624.8527
364.2039, 625.9684
364.6860, 632.7407
365.1681, 645.2637
365.6502, 656.3754
366.1323, 664.9359
366.6144, 672.1177
367.0966, 678.7206
367.5787, 682.1316
368.0608, 688.1414
368.5429, 697.8264
369.0250, 710.6734
369.5071, 723.5676
369.9893, 734.2144
370.4714, 747.4777
370.9535, 766.4680
371.4356, 795.1739
371.9177, 819.8367
372.3998, 838.5226
372.8820, 854.0541
373.3641, 872.6284
373.8462, 895.2929
374.3283, 918.1122
374.8104, 938.5135
375.2925, 956.1400
375.7747, 978.2527
376.2568, 1006.272
376.7389, 1036.330
377.2210, 1062.575
377.7031, 1084.703
378.1852, 1107.330
378.6674, 1132.115
379.1495, 1158.549
379.6316, 1184.995
380.1137, 1210.975
380.5958, 1239.275
381.0779, 1275.221
381.5601, 1316.896
382.0422, 1350.938
382.5243, 1370.979
383.0064, 1387.404
383.4885, 1419.648
383.9706, 1466.090
384.4528, 1512.488
384.9349, 1554.065
385.4170, 1588.369
385.8991, 1613.566
386.3812, 1631.001
386.8633, 1634.714
387.3455, 1617.479
387.8276, 1582.419
388.3097, 1536.120
388.7918, 1479.728
389.2739, 1415.145
389.7560, 1340.906
390.2382, 1255.923
390.7203, 1173.273
391.2024, 1098.989
391.6845, 1031.550
392.1666, 968.2875
392.6487, 906.2439
393.1309, 850.7618
393.6130, 805.9106
394.0951, 770.8962
394.5772, 739.0238
395.0593, 709.5282
395.5414, 681.9883
396.0236, 656.4213
396.5057, 628.2471
396.9878, 607.3890
397.4699, 600.3094
397.9520, 602.0785
398.4341, 597.1375
398.9163, 577.6556
399.3984, 559.5907
399.8805, 549.1647
400.3626, 549.5633
400.8447, 547.9600
401.3268, 542.4690
401.8090, 536.3738
402.2911, 534.7573
402.7732, 539.6863
403.2553, 543.7385
403.7374, 544.8799
404.2195, 543.2429
404.7017, 541.1395
405.1838, 538.5008
405.6659, 535.5494
406.1480, 530.8851
406.6301, 524.3621
407.1122, 524.2274
407.5944, 533.8958
408.0765, 548.8375
408.5586, 557.9568
409.0407, 561.3926
409.5228, 563.8836
410.0049, 569.0411
410.4871, 575.6475
410.9692, 579.8123
411.4513, 580.5742
411.9334, 581.2377
412.4155, 587.1552
412.8976, 596.3630
413.3798, 602.9988
413.8619, 601.9227
414.3440, 598.4964
414.8261, 599.3018
415.3082, 604.4418
415.7903, 607.8040
416.2725, 602.8978
416.7546, 594.9614
417.2367, 589.8263
417.7188, 590.8052
418.2009, 593.4550
418.6830, 598.1411
419.1652, 603.5060
419.6473, 604.3795
420.1294, 594.7586
420.6115, 583.3757
421.0937, 575.0736
421.5758, 572.7123
422.0579, 568.9737
422.5400, 558.8050
423.0221, 547.5234
423.5042, 543.7756
423.9864, 555.6262
424.4685, 566.2650
424.9506, 571.5717
425.4327, 570.9656
425.9148, 571.3763
426.3969, 571.9821
426.8791, 574.5311
427.3612, 580.8815
427.8433, 592.1141
428.3254, 603.8808
428.8075, 616.2511
429.2896, 628.4628
429.7718, 636.8245
430.2539, 640.4664
430.7360, 644.9302
431.2181, 654.3110
431.7002, 668.1778
432.1823, 679.9280
432.6645, 688.8282
433.1466, 697.0121
433.6287, 707.1792
434.1108, 719.0687
434.5929, 731.6433
435.0750, 747.5328
435.5572, 762.3917
436.0393, 767.1740
436.5214, 762.2315
437.0035, 755.0202
437.4856, 751.4537
437.9677, 749.2697
438.4499, 745.3932
438.9320, 739.0107
439.4141, 730.8115
439.8962, 722.5180
440.3783, 712.9442
440.8604, 698.7798
441.3426, 675.6004
441.8247, 649.8481
442.3068, 624.5769
442.7889, 599.8067
443.2710, 577.0809
443.7531, 557.5034
444.2353, 539.9683
444.7174, 522.9121
445.1995, 503.9113
445.6816, 488.0721
446.1637, 477.2328
446.6458, 471.0061
447.1280, 464.2276
447.6101, 454.1021
448.0922, 446.4980
448.5743, 445.5117
449.0564, 455.0708
449.5385, 460.4200
450.0207, 459.4815
450.5028, 455.7118
450.9849, 456.1918
451.4670, 461.9571
451.9491, 466.5484
452.4312, 465.7118
452.9134, 460.8608
453.3955, 463.9413
453.8776, 475.6678
454.3597, 490.0176
454.8418, 502.8449
455.3239, 513.7209
455.8061, 519.5161
456.2882, 517.1234
456.7703, 513.2387
457.2524, 517.9980
457.7345, 529.8517
458.2166, 542.6615
458.6988, 553.3987
459.1809, 562.7797
459.6630, 571.3621
460.1451, 579.2927
460.6272, 586.4277
461.1093, 592.1718
461.5915, 597.1996
462.0736, 602.2314
462.5557, 606.5425
463.0378, 611.8505
463.5199, 619.5251
464.0020, 629.1258
464.4842, 637.6566
464.9663, 641.6072
465.4484, 646.3916
465.9305, 655.2523
466.4126, 673.3569
466.8947, 686.8495
467.3769, 695.0026
467.8590, 698.8520
468.3411, 700.2434
468.8232, 699.9323
469.3053, 695.1166
469.7874, 682.0587
470.2696, 661.7657
470.7517, 655.2582
471.2338, 666.5554
471.7159, 679.2858
472.1980, 677.1913
472.6801, 660.6930
473.1623, 649.2291
473.6444, 646.0245
474.1265, 647.8832
474.6086, 650.4249
475.0907, 653.5368
475.5728, 656.4872
476.0550, 659.6110
476.5371, 662.0814
477.0192, 661.0865
477.5013, 656.4512
477.9834, 654.1931
478.4655, 660.8444
478.9477, 672.1046
479.4298, 682.5219
479.9119, 693.2585
480.3940, 699.4282
480.8761, 694.7580
481.3582, 682.9630
481.8404, 674.7708
482.3225, 677.4670
482.8046, 681.4375
483.2867, 681.1016
483.7688, 672.8479
484.2509, 671.2308
484.7331, 684.5433
485.2152, 701.3854
485.6973, 711.3280
486.1794, 710.9335
486.6615, 709.0334
487.1436, 704.0538
487.6258, 698.3541
488.1079, 705.5528
488.5900, 731.0261
489.0721, 754.4122
489.5542, 761.5221
490.0363, 752.1951
490.5185, 751.5048
491.0006, 760.9488
491.4827, 776.1882
491.9648, 794.0569
492.4470, 813.6781
492.9291, 829.6104
493.4112, 837.4550
493.8933, 842.4653
494.3754, 853.5704
494.8575, 869.7960
495.3397, 884.3378
495.8218, 888.8399
496.3039, 891.4128
496.7860, 901.4454
497.2681, 921.9774
497.7502, 943.9169
498.2324, 961.0143
498.7145, 977.0974
499.1966, 997.7101
499.6787, 1025.271
500.1608, 1056.623
500.6429, 1092.184
501.1251, 1131.618
501.6072, 1170.067
502.0893, 1202.197
502.5714, 1238.169
503.0535, 1282.645
503.5356, 1336.049
504.0178, 1396.893
504.4999, 1466.586
504.9820, 1541.993
505.4641, 1619.467
505.9462, 1698.301
506.4283, 1781.552
506.9105, 1870.249
507.3926, 1963.407
507.8747, 2056.500
508.3568, 2149.747
508.8389, 2245.500
509.3210, 2349.073
509.8032, 2457.978
510.2853, 2566.439
510.7674, 2673.548
511.2495, 2781.009
511.7316, 2889.530
512.2137, 3000.204
512.6959, 3113.401
513.1780, 3237.875
513.6601, 3359.058
514.1422, 3470.082
514.6243, 3570.423
515.1064, 3657.533
515.5886, 3726.782
516.0707, 3785.287
516.5528, 3839.110
517.0349, 3903.039
517.5170, 3934.160
517.9991, 3927.686
518.4813, 3886.189
518.9634, 3809.132
519.4455, 3678.183
519.9276, 3543.620
520.4097, 3418.577
520.8918, 3300.371
521.3740, 3151.566
521.8561, 2963.657
522.3382, 2773.319
522.8203, 2603.928
523.3024, 2455.756
523.7845, 2306.521
524.2667, 2151.337
524.7488, 2006.187
525.2309, 1890.677
525.7130, 1798.403
526.1951, 1709.048
526.6772, 1609.438
527.1594, 1513.591
527.6415, 1439.783
528.1236, 1385.697
528.6057, 1339.530
529.0878, 1299.096
529.5699, 1261.644
530.0521, 1225.209
530.5342, 1188.423
531.0163, 1156.141
531.4984, 1129.569
531.9805, 1108.097
532.4626, 1090.922
532.9448, 1077.547
533.4269, 1069.280
533.9090, 1069.959
534.3911, 1076.259
534.8732, 1074.699
535.3553, 1061.479
535.8375, 1047.382
536.3196, 1036.859
536.8017, 1029.854
537.2838, 1025.591
537.7659, 1025.114
538.2480, 1023.788
538.7302, 1015.836
539.2123, 1002.042
539.6944, 989.1045
540.1765, 980.3765
540.6586, 969.6243
541.1407, 945.8645
541.6229, 911.7572
542.1050, 876.6006
542.5871, 844.2323
543.0692, 813.7574
543.5513, 784.9619
544.0334, 758.0557
544.5156, 731.9026
544.9977, 707.2489
545.4798, 682.4009
545.9619, 655.9330
546.4440, 621.9240
546.9261, 594.6821
547.4083, 579.9280
547.8904, 572.4153
548.3725, 563.0125
548.8546, 550.9281
549.3367, 537.9973
549.8188, 523.5297
550.3010, 508.0320
550.7831, 498.5436
551.2652, 496.8806
551.7473, 495.1440
552.2294, 486.2369
552.7115, 471.1526
553.1937, 460.8126
553.6758, 456.7878
554.1579, 454.5735
554.6400, 448.4659
555.1221, 439.5992
555.6042, 431.2889
556.0864, 424.1437
556.5685, 418.5203
557.0506, 415.7453
557.5327, 415.0822
558.0148, 413.8401
558.4969, 409.5221
558.9791, 405.1035
559.4612, 402.6662
559.9433, 402.8889
560.4254, 402.6934
560.9075, 401.4833
561.3896, 399.6309
561.8718, 397.5116
562.3539, 395.5695
562.8360, 392.5092
563.3181, 387.7245
563.8002, 382.0422
564.2823, 376.9997
564.7645, 372.3201
565.2466, 369.7892
565.7287, 370.9311
566.2108, 374.8766
566.6929, 377.9353
567.1750, 380.1364
567.6572, 380.2169
568.1393, 375.9447
568.6214, 368.9684
569.1035, 361.6780
569.5856, 353.3286
570.0677, 349.0464
570.5499, 357.2243
571.0320, 371.3751
571.5141, 381.2784
571.9962, 379.0928
572.4783, 376.0372
572.9604, 376.5790
573.4426, 380.1369
573.9247, 383.3888
574.4068, 386.5899
574.8889, 388.6051
575.3710, 388.5627
575.8531, 385.7675
576.3353, 384.4926
576.8174, 384.7047
577.2995, 386.5061
577.7816, 390.7435
578.2637, 397.7737
578.7458, 402.7145
579.2280, 403.8842
579.7101, 404.4561
580.1922, 411.0124
580.6743, 422.5610
581.1564, 433.4984
581.6385, 441.5934
582.1207, 447.4360
582.6028, 449.4454
583.0849, 448.4893
583.5670, 451.4533
584.0491, 465.9690
584.5313, 483.7471
585.0134, 498.5336
585.4955, 508.9293
585.9776, 517.6929
586.4597, 524.0639
586.9418, 529.7028
587.4240, 536.4644
587.9061, 545.7206
588.3882, 553.9515
588.8703, 559.5373
589.3524, 564.1949
589.8345, 573.6733
590.3167, 589.3367
590.7988, 604.6623
591.2809, 616.1815
591.7630, 624.8171
592.2451, 635.7375
592.7272, 649.1250
593.2094, 660.3278
593.6915, 663.9466
594.1736, 662.9368
594.6557, 663.7345
595.1378, 668.4329
595.6199, 670.3384
596.1021, 660.6247
596.5842, 645.9387
597.0663, 635.7209
597.5485, 640.2553
598.0306, 642.3619
598.5127, 635.0618
598.9948, 620.3959
599.4769, 607.3192
599.9590, 595.4630
600.4412, 586.2468
600.9233, 581.3124
601.4054, 581.1478
601.8875, 576.7595
602.3696, 566.9619
602.8517, 555.9045
603.3339, 546.7673
603.8160, 539.4680
604.2981, 534.7281
604.7802, 533.2808
605.2623, 532.2372
605.7444, 527.4202
606.2266, 519.9722
606.7087, 513.2139
607.1908, 508.8034
607.6729, 504.9443
608.1550, 501.1115
608.6371, 496.7966
609.1193, 490.2139
609.6014, 473.9136
610.0835, 461.0129
610.5656, 460.5493
611.0477, 475.4737
611.5298, 483.1208
612.0120, 477.7529
612.4941, 469.8906
612.9762, 466.5341
613.4583, 469.0370
613.9404, 471.0388
614.4225, 471.9047
614.9047, 472.9023
615.3868, 475.8491
615.8689, 480.7006
616.3510, 486.7052
616.8331, 494.3302
617.3152, 502.0789
617.7974, 506.3621
618.2795, 508.3947
618.7616, 513.0843
619.2437, 528.0060
619.7258, 542.9438
620.2079, 548.5119
620.6901, 544.3231
621.1722, 542.8776
621.6543, 551.3656
622.1364, 562.0307
622.6185, 569.6429
623.1006, 571.9957
623.5828, 575.6718
624.0649, 581.1072
624.5470, 587.4661
625.0291, 593.8512
625.5112, 600.2922
625.9933, 606.6286
626.4755, 612.7831
626.9576, 618.7800
627.4397, 625.3367
627.9218, 632.1400
628.4039, 636.8018
628.8860, 638.2727
629.3682, 636.8495
629.8503, 632.1187
630.3324, 624.4164
630.8145, 616.2406
631.2966, 608.5717
631.7787, 601.3754
632.2609, 595.0421
632.7430, 590.2532
633.2251, 583.7626
633.7072, 575.0843
634.1893, 564.3927
634.6714, 551.4796
635.1536, 534.5052
635.6357, 519.0755
636.1178, 505.0357
636.5999, 493.4825
637.0820, 487.8640
637.5641, 488.4991
638.0463, 487.9416
638.5284, 483.8038
639.0105, 476.9604
639.4926, 467.2642
639.9747, 455.5177
640.4568, 446.6067
640.9390, 447.4566
641.4211, 449.7982
641.9032, 445.0228
642.3853, 432.5649
642.8674, 420.6284
