##NAMES=Preobrazhenskite
##RRUFFID=R090040
##IDEAL CHEMISTRY=Mg_3_B_11_O_15_(OH)_9_
##LOCALITY=Inder B deposit and salt dome, Atyrau Oblast, Kazakhstan
##OWNER=RRUFF
##SOURCE=Herb Obodda
##DESCRIPTION=Colorless crystal fragment
##STATUS=The identification of this mineral has been confirmed by single-crystal X-ray diffraction.
##URL=rruff.info/R090040
92.06543, 12253.95
92.54755, 12082.44
93.02966, 12099.73
93.51178, 12322.79
93.99390, 12495.87
94.47601, 12613.21
94.95813, 12685.70
95.44025, 12725.65
95.92236, 12741.85
96.40448, 12729.29
96.88660, 12701.99
97.36871, 12664.34
97.85082, 12623.25
98.33294, 12584.67
98.81506, 12542.44
99.29717, 12471.65
99.77929, 12400.22
100.2614, 12332.29
100.7435, 12264.04
101.2256, 12185.14
101.7078, 12102.00
102.1899, 12032.26
102.6720, 11978.59
103.1541, 11939.46
103.6362, 11909.46
104.1183, 11887.84
104.6005, 11872.44
105.0826, 11861.75
105.5647, 11855.22
106.0468, 11852.72
106.5289, 11858.51
107.0110, 11861.31
107.4931, 11853.32
107.9753, 11832.24
108.4574, 11802.75
108.9395, 11773.20
109.4216, 11737.96
109.9037, 11711.37
110.3858, 11694.18
110.8680, 11684.89
111.3501, 11683.10
111.8322, 11688.80
112.3143, 11700.60
112.7964, 11710.39
113.2785, 11723.30
113.7607, 11729.13
114.2428, 11724.14
114.7249, 11709.55
115.2070, 11687.76
115.6891, 11658.48
116.1712, 11622.33
116.6534, 11596.47
117.1355, 11588.00
117.6176, 11584.05
118.0997, 11573.37
118.5818, 11554.56
119.0639, 11537.26
119.5461, 11532.42
120.0282, 11536.70
120.5103, 11541.62
120.9924, 11546.14
121.4745, 11549.48
121.9566, 11549.00
122.4388, 11541.33
122.9209, 11534.64
123.4030, 11534.11
123.8851, 11538.84
124.3672, 11545.89
124.8493, 11555.64
125.3315, 11568.81
125.8136, 11573.72
126.2957, 11560.29
126.7778, 11544.71
127.2599, 11532.20
127.7420, 11523.93
128.2242, 11518.83
128.7063, 11515.88
129.1884, 11516.20
129.6705, 11516.37
130.1526, 11515.49
130.6347, 11514.92
131.1169, 11515.12
131.5990, 11516.37
132.0811, 11519.41
132.5632, 11526.00
133.0453, 11540.98
133.5274, 11553.89
134.0096, 11561.19
134.4917, 11566.79
134.9738, 11576.81
135.4559, 11594.69
135.9380, 11617.80
136.4201, 11636.52
136.9023, 11647.07
137.3844, 11659.44
137.8665, 11679.24
138.3486, 11705.13
138.8307, 11730.97
139.3128, 11753.09
139.7950, 11772.87
140.2771, 11793.86
140.7592, 11819.56
141.2413, 11843.28
141.7234, 11859.28
142.2055, 11867.69
142.6877, 11867.11
143.1698, 11856.88
143.6519, 11837.26
144.1340, 11805.68
144.6161, 11757.72
145.0982, 11698.95
145.5803, 11643.40
146.0625, 11591.15
146.5446, 11542.58
147.0267, 11495.83
147.5088, 11452.17
147.9909, 11413.55
148.4730, 11381.56
148.9552, 11355.95
149.4373, 11332.62
149.9194, 11310.43
150.4015, 11291.70
150.8836, 11277.21
151.3657, 11266.84
151.8479, 11260.24
152.3300, 11257.66
152.8121, 11260.15
153.2942, 11259.79
153.7763, 11253.64
154.2584, 11247.75
154.7406, 11245.50
155.2227, 11246.89
155.7048, 11249.28
156.1869, 11249.42
156.6690, 11245.77
157.1511, 11246.50
157.6333, 11254.12
158.1154, 11264.56
158.5975, 11275.70
159.0796, 11287.25
159.5617, 11296.08
160.0438, 11295.61
160.5260, 11285.14
161.0081, 11279.21
161.4902, 11285.86
161.9723, 11298.61
162.4544, 11306.25
162.9365, 11306.79
163.4187, 11300.16
163.9008, 11285.23
164.3829, 11262.58
164.8650, 11238.84
165.3471, 11215.61
165.8292, 11193.53
166.3113, 11177.13
166.7935, 11168.91
167.2756, 11166.03
167.7577, 11167.88
168.2398, 11174.06
168.7219, 11179.22
169.2040, 11177.01
169.6862, 11165.96
170.1683, 11157.18
170.6504, 11156.95
171.1325, 11156.37
171.6146, 11149.91
172.0967, 11136.67
172.5789, 11120.38
173.0610, 11106.15
173.5431, 11094.09
174.0252, 11084.08
174.5073, 11075.55
174.9894, 11068.84
175.4716, 11064.29
175.9537, 11062.01
176.4358, 11061.72
176.9179, 11063.19
177.4000, 11071.94
177.8821, 11074.49
178.3643, 11066.18
178.8464, 11053.83
179.3285, 11044.32
179.8106, 11040.47
180.2927, 11040.35
180.7748, 11038.77
181.2570, 11036.08
181.7391, 11031.64
182.2212, 11023.32
182.7033, 11013.53
183.1854, 11005.82
183.6675, 11001.73
184.1497, 11000.86
184.6318, 11002.37
185.1139, 11006.95
185.5960, 11012.03
186.0781, 11018.64
186.5602, 11025.35
187.0423, 11027.36
187.5245, 11020.41
188.0066, 11008.98
188.4887, 11003.65
188.9708, 11005.47
189.4529, 11010.93
189.9350, 11021.06
190.4172, 11034.93
190.8993, 11043.15
191.3814, 11037.82
191.8635, 11025.96
192.3456, 11017.51
192.8277, 11013.37
193.3099, 11012.93
193.7920, 11017.48
194.2741, 11028.07
194.7562, 11035.92
195.2383, 11035.55
195.7204, 11031.42
196.2026, 11026.36
196.6847, 11020.67
197.1668, 11015.65
197.6489, 11013.48
198.1310, 11015.11
198.6131, 11017.21
199.0953, 11019.57
199.5774, 11021.68
200.0595, 11022.96
200.5416, 11023.15
201.0237, 11022.74
201.5058, 11023.62
201.9880, 11030.22
202.4701, 11029.41
202.9522, 11014.47
203.4343, 10994.09
203.9164, 10976.70
204.3985, 10966.10
204.8807, 10960.46
205.3628, 10954.36
205.8449, 10945.22
206.3270, 10939.21
206.8091, 10939.47
207.2912, 10942.18
207.7733, 10942.66
208.2555, 10938.47
208.7376, 10931.39
209.2197, 10927.99
209.7018, 10933.45
210.1839, 10937.01
210.6660, 10936.65
211.1482, 10933.97
211.6303, 10931.33
212.1124, 10929.96
212.5945, 10929.32
213.0766, 10926.85
213.5587, 10918.34
214.0409, 10913.02
214.5230, 10914.25
215.0051, 10919.73
215.4872, 10925.73
215.9693, 10930.64
216.4514, 10934.28
216.9336, 10935.66
217.4157, 10931.95
217.8978, 10930.08
218.3799, 10934.22
218.8620, 10942.12
219.3441, 10947.48
219.8263, 10946.14
220.3084, 10941.72
220.7905, 10944.36
221.2726, 10958.45
221.7547, 10971.24
222.2368, 10973.78
222.7190, 10968.82
223.2011, 10968.06
223.6832, 10978.21
224.1653, 10994.16
224.6474, 11005.32
225.1295, 11010.03
225.6117, 11014.01
226.0938, 11021.38
226.5759, 11031.69
227.0580, 11041.20
227.5401, 11048.43
228.0222, 11054.08
228.5043, 11058.15
228.9865, 11059.52
229.4686, 11063.74
229.9507, 11077.91
230.4328, 11101.91
230.9149, 11122.34
231.3970, 11133.87
231.8792, 11140.65
232.3613, 11145.86
232.8434, 11149.73
233.3255, 11153.05
233.8076, 11157.65
234.2897, 11164.04
234.7719, 11166.30
235.2540, 11163.06
235.7361, 11154.78
236.2182, 11141.49
236.7003, 11123.15
237.1824, 11099.96
237.6646, 11070.12
238.1467, 11031.58
238.6288, 10996.91
239.1109, 10969.41
239.5930, 10945.07
240.0751, 10921.21
240.5573, 10897.78
241.0394, 10877.29
241.5215, 10863.63
242.0036, 10858.54
242.4857, 10852.77
242.9678, 10844.98
243.4500, 10837.01
243.9321, 10829.06
244.4142, 10821.56
244.8963, 10815.57
245.3784, 10812.87
245.8605, 10814.87
246.3427, 10815.12
246.8248, 10814.37
247.3069, 10811.60
247.7890, 10805.74
248.2711, 10797.13
248.7532, 10787.26
249.2354, 10777.61
249.7175, 10768.49
250.1996, 10758.64
250.6817, 10744.94
251.1638, 10733.42
251.6459, 10727.67
252.1281, 10727.17
252.6102, 10728.78
253.0923, 10729.63
253.5744, 10729.67
254.0565, 10728.81
254.5386, 10728.27
255.0208, 10725.79
255.5029, 10717.50
255.9850, 10705.48
256.4671, 10696.62
256.9492, 10697.58
257.4313, 10709.69
257.9135, 10715.65
258.3956, 10712.46
258.8777, 10707.56
259.3598, 10703.40
259.8419, 10700.19
260.3240, 10697.73
260.8062, 10696.27
261.2883, 10695.78
261.7704, 10691.32
262.2525, 10677.46
262.7346, 10666.08
263.2167, 10664.98
263.6989, 10670.77
264.1810, 10673.96
264.6631, 10668.18
265.1452, 10654.53
265.6273, 10642.62
266.1094, 10629.46
266.5916, 10620.77
267.0737, 10620.47
267.5558, 10626.39
268.0379, 10633.61
268.5200, 10639.69
269.0021, 10644.87
269.4843, 10650.17
269.9664, 10656.99
270.4485, 10662.22
270.9306, 10664.47
271.4127, 10664.38
271.8948, 10663.32
272.3770, 10661.96
272.8591, 10659.80
273.3412, 10654.89
273.8233, 10644.90
274.3054, 10637.28
274.7875, 10635.62
275.2697, 10637.71
275.7518, 10639.56
276.2339, 10639.75
276.7160, 10639.14
277.1981, 10639.96
277.6802, 10643.33
278.1623, 10643.63
278.6444, 10636.75
279.1266, 10626.33
279.6087, 10618.67
280.0908, 10615.64
280.5729, 10614.76
281.0550, 10612.56
281.5371, 10608.95
282.0193, 10606.86
282.5014, 10609.36
282.9835, 10613.09
283.4656, 10612.49
283.9477, 10606.05
284.4298, 10598.54
284.9120, 10595.51
285.3941, 10596.27
285.8762, 10596.13
286.3583, 10591.95
286.8404, 10587.31
287.3225, 10586.80
287.8047, 10591.01
288.2868, 10597.34
288.7689, 10604.79
289.2510, 10612.81
289.7331, 10619.58
290.2152, 10623.31
290.6974, 10626.54
291.1795, 10633.34
291.6616, 10643.99
292.1437, 10651.42
292.6258, 10649.77
293.1079, 10641.90
293.5901, 10635.01
294.0722, 10630.25
294.5543, 10626.18
295.0364, 10622.71
295.5185, 10619.64
296.0006, 10613.44
296.4828, 10600.43
296.9649, 10584.39
297.4470, 10571.71
297.9291, 10562.53
298.4112, 10556.81
298.8933, 10558.61
299.3755, 10565.79
299.8576, 10564.46
300.3397, 10546.08
300.8218, 10521.02
301.3039, 10502.83
301.7860, 10491.77
302.2682, 10485.27
302.7503, 10486.06
303.2324, 10491.00
303.7145, 10487.91
304.1966, 10470.51
304.6787, 10450.55
305.1609, 10441.59
305.6430, 10442.29
306.1251, 10441.81
306.6072, 10433.17
307.0893, 10420.35
307.5714, 10412.64
308.0536, 10412.49
308.5357, 10413.46
309.0178, 10408.54
309.4999, 10400.08
309.9820, 10394.75
310.4641, 10397.46
310.9463, 10403.44
311.4284, 10405.40
311.9105, 10402.59
312.3926, 10399.01
312.8747, 10395.45
313.3568, 10393.25
313.8390, 10395.46
314.3211, 10405.65
314.8032, 10417.33
315.2853, 10424.10
315.7674, 10425.91
316.2495, 10424.94
316.7317, 10420.08
317.2138, 10414.05
317.6959, 10411.22
318.1780, 10412.84
318.6601, 10415.07
319.1422, 10415.00
319.6243, 10412.88
320.1064, 10410.55
320.5886, 10407.81
321.0707, 10405.94
321.5528, 10406.40
322.0349, 10409.22
322.5170, 10413.00
322.9991, 10417.95
323.4813, 10423.33
323.9634, 10426.25
324.4455, 10424.52
324.9276, 10423.97
325.4097, 10431.04
325.8918, 10444.53
326.3740, 10459.69
326.8561, 10475.47
327.3382, 10491.81
327.8203, 10508.63
328.3024, 10525.99
328.7845, 10544.06
329.2667, 10564.03
329.7488, 10584.84
330.2309, 10603.78
330.7130, 10615.97
331.1951, 10629.10
331.6772, 10652.75
332.1594, 10686.73
332.6415, 10719.80
333.1236, 10746.13
333.6057, 10767.55
334.0878, 10790.36
334.5699, 10820.45
335.0521, 10841.12
335.5342, 10840.64
336.0163, 10821.25
336.4984, 10792.63
336.9805, 10758.33
337.4626, 10715.48
337.9448, 10657.53
338.4269, 10581.66
338.9090, 10510.22
339.3911, 10451.82
339.8732, 10403.73
340.3553, 10361.89
340.8375, 10325.83
341.3196, 10294.69
341.8017, 10267.68
342.2838, 10244.63
342.7659, 10227.54
343.2480, 10222.15
343.7302, 10219.89
344.2123, 10210.54
344.6944, 10193.47
345.1765, 10176.91
345.6586, 10167.64
346.1407, 10164.38
346.6229, 10157.34
347.1050, 10142.18
347.5871, 10127.10
348.0692, 10116.99
348.5513, 10111.22
349.0334, 10107.45
349.5156, 10105.61
349.9977, 10103.97
350.4798, 10097.48
350.9619, 10083.47
351.4440, 10070.96
351.9261, 10064.19
352.4083, 10060.55
352.8904, 10055.34
353.3725, 10047.00
353.8546, 10038.08
354.3367, 10032.33
354.8188, 10030.49
355.3010, 10028.94
355.7831, 10027.27
356.2652, 10025.83
356.7473, 10026.09
357.2294, 10027.80
357.7115, 10027.22
358.1937, 10020.38
358.6758, 10006.91
359.1579, 9996.518
359.6400, 9987.656
360.1221, 9982.902
360.6042, 9988.405
361.0863, 9999.521
361.5685, 10003.41
362.0506, 9991.861
362.5327, 9969.515
363.0148, 9955.572
363.4969, 9955.767
363.9790, 9956.611
364.4612, 9958.221
364.9433, 9958.779
365.4254, 9954.814
365.9075, 9945.396
366.3896, 9934.915
366.8717, 9930.651
367.3539, 9936.795
367.8360, 9939.959
368.3181, 9935.850
368.8002, 9932.262
369.2823, 9934.966
369.7644, 9943.826
370.2466, 9954.641
370.7287, 9963.547
371.2108, 9970.286
371.6929, 9979.294
372.1750, 10001.63
372.6571, 10014.26
373.1393, 10004.42
373.6214, 9980.943
374.1035, 9958.596
374.5856, 9945.442
375.0677, 9939.562
375.5498, 9934.603
376.0320, 9928.312
376.5141, 9926.760
376.9962, 9935.909
377.4783, 9946.412
377.9604, 9948.924
378.4425, 9941.684
378.9247, 9931.457
379.4068, 9927.317
379.8889, 9930.636
380.3710, 9935.411
380.8531, 9943.590
381.3352, 9951.509
381.8174, 9957.579
382.2995, 9961.980
382.7816, 9965.582
383.2637, 9968.582
383.7458, 9971.323
384.2279, 9976.311
384.7101, 9985.059
385.1922, 9993.859
385.6743, 10003.44
386.1564, 10011.78
386.6385, 10016.04
387.1206, 10014.74
387.6028, 10010.85
388.0849, 10009.25
388.5670, 10010.57
389.0491, 10011.18
389.5312, 10011.60
390.0133, 10009.89
390.4955, 10003.56
390.9776, 9992.799
391.4597, 9981.904
391.9418, 9976.919
392.4239, 9975.731
392.9060, 9964.975
393.3882, 9939.309
393.8703, 9911.701
394.3524, 9888.632
394.8345, 9869.933
395.3166, 9855.927
395.7987, 9848.704
396.2809, 9844.747
396.7630, 9840.385
397.2451, 9835.740
397.7272, 9828.226
398.2093, 9815.767
398.6914, 9800.032
399.1736, 9783.359
399.6557, 9764.707
400.1378, 9748.358
400.6199, 9737.298
401.1020, 9730.456
401.5841, 9725.559
402.0662, 9722.724
402.5483, 9719.754
403.0305, 9713.381
403.5126, 9703.844
403.9947, 9695.541
404.4768, 9687.982
404.9589, 9682.786
405.4410, 9682.527
405.9232, 9686.856
406.4053, 9692.182
406.8874, 9696.960
407.3695, 9700.551
407.8516, 9700.101
408.3337, 9693.591
408.8159, 9686.038
409.2980, 9677.066
409.7801, 9668.506
410.2622, 9664.103
410.7443, 9665.210
411.2264, 9668.355
411.7086, 9668.126
412.1907, 9663.919
412.6728, 9657.096
413.1549, 9645.488
413.6370, 9633.060
414.1191, 9622.312
414.6013, 9613.313
415.0834, 9604.605
415.5655, 9594.687
416.0476, 9583.839
416.5297, 9577.896
417.0118, 9585.894
417.4940, 9588.475
417.9761, 9579.511
418.4582, 9564.360
418.9403, 9548.512
419.4224, 9534.200
419.9045, 9523.017
420.3867, 9518.631
420.8688, 9524.956
421.3509, 9527.788
421.8330, 9524.435
422.3151, 9519.529
422.7972, 9515.077
423.2794, 9511.293
423.7615, 9507.669
424.2436, 9503.859
424.7257, 9499.876
425.2078, 9495.830
425.6899, 9492.009
426.1721, 9487.550
426.6542, 9480.779
427.1363, 9473.756
427.6184, 9469.069
428.1005, 9467.682
428.5826, 9467.949
429.0648, 9468.877
429.5469, 9470.514
430.0290, 9469.166
430.5111, 9462.253
430.9932, 9453.994
431.4753, 9448.493
431.9575, 9445.401
432.4396, 9441.724
432.9217, 9434.693
433.4038, 9426.691
433.8859, 9421.732
434.3680, 9420.153
434.8502, 9420.578
435.3323, 9423.083
435.8144, 9426.853
436.2965, 9429.536
436.7786, 9430.655
437.2607, 9431.276
437.7429, 9433.128
438.2250, 9434.833
438.7071, 9431.886
439.1892, 9422.079
439.6713, 9411.734
440.1534, 9410.766
440.6356, 9422.288
441.1177, 9428.948
441.5998, 9424.129
442.0819, 9418.685
442.5640, 9422.135
443.0461, 9432.880
443.5282, 9441.656
444.0103, 9441.639
444.4925, 9435.152
444.9746, 9435.224
445.4567, 9446.278
445.9388, 9458.622
446.4209, 9474.860
446.9030, 9489.998
447.3852, 9497.879
447.8673, 9497.444
448.3494, 9494.661
448.8315, 9498.736
449.3136, 9513.639
449.7957, 9515.099
450.2779, 9491.079
450.7600, 9465.030
451.2421, 9442.968
451.7242, 9424.886
452.2063, 9409.940
452.6884, 9398.422
453.1706, 9388.041
453.6527, 9372.483
454.1348, 9348.950
454.6169, 9329.405
455.0990, 9317.679
455.5811, 9310.701
456.0633, 9309.249
456.5454, 9312.652
457.0275, 9313.479
457.5096, 9303.949
457.9917, 9287.256
458.4738, 9274.128
458.9560, 9264.869
459.4381, 9260.232
459.9202, 9265.015
460.4023, 9274.212
460.8844, 9278.130
461.3665, 9272.176
461.8487, 9264.706
462.3308, 9263.051
462.8129, 9265.234
463.2950, 9263.505
463.7771, 9254.121
464.2592, 9243.220
464.7414, 9241.075
465.2235, 9249.624
465.7056, 9252.254
466.1877, 9241.906
466.6698, 9228.911
467.1519, 9220.984
467.6341, 9218.159
468.1162, 9217.824
468.5983, 9218.783
469.0804, 9220.299
469.5625, 9218.766
470.0446, 9211.548
470.5268, 9204.719
471.0089, 9199.919
471.4910, 9195.092
471.9731, 9187.144
472.4552, 9176.159
472.9373, 9166.408
473.4195, 9163.514
473.9016, 9168.373
474.3837, 9167.522
474.8658, 9156.028
475.3479, 9143.739
475.8300, 9132.213
476.3122, 9121.879
476.7943, 9113.229
477.2764, 9106.610
477.7585, 9100.764
478.2406, 9093.579
478.7227, 9084.881
479.2049, 9076.590
479.6870, 9069.384
480.1691, 9062.373
480.6512, 9054.474
481.1333, 9046.109
481.6154, 9039.078
482.0976, 9033.943
482.5797, 9030.872
483.0618, 9031.552
483.5439, 9036.191
484.0260, 9038.210
484.5081, 9033.656
484.9902, 9024.909
485.4724, 9016.943
485.9545, 9009.311
486.4366, 9003.584
486.9187, 9002.335
487.4008, 9002.341
487.8829, 8998.441
488.3651, 8990.078
488.8472, 8981.927
489.3293, 8978.269
489.8114, 8979.021
490.2935, 8978.953
490.7756, 8977.175
491.2578, 8975.749
491.7399, 8976.637
492.2220, 8977.718
492.7041, 8975.996
493.1862, 8970.538
493.6683, 8962.987
494.1505, 8955.385
494.6326, 8947.316
495.1147, 8941.025
495.5968, 8935.042
496.0789, 8932.471
496.5610, 8938.412
497.0432, 8948.158
497.5253, 8952.834
498.0074, 8947.429
498.4895, 8935.984
498.9716, 8924.989
499.4537, 8914.072
499.9359, 8906.134
500.4180, 8905.544
500.9001, 8904.686
501.3822, 8894.554
501.8643, 8876.456
502.3464, 8863.950
502.8286, 8868.419
503.3107, 8879.974
503.7928, 8882.951
504.2749, 8876.854
504.7570, 8870.652
505.2391, 8869.327
505.7213, 8870.899
506.2034, 8869.965
506.6855, 8865.168
507.1676, 8861.366
507.6497, 8861.790
508.1318, 8862.815
508.6140, 8860.284
509.0961, 8853.707
509.5782, 8844.839
510.0603, 8834.647
510.5424, 8823.368
511.0245, 8816.380
511.5067, 8817.953
511.9888, 8818.690
512.4709, 8819.105
512.9530, 8816.900
513.4351, 8808.422
513.9172, 8793.282
514.3994, 8776.394
514.8815, 8763.177
515.3636, 8753.683
515.8457, 8747.109
516.3278, 8745.533
516.8099, 8744.274
517.2921, 8741.979
517.7742, 8738.616
518.2563, 8734.279
518.7384, 8729.105
519.2205, 8722.479
519.7026, 8712.429
520.1848, 8699.604
520.6669, 8689.232
521.1490, 8682.487
521.6311, 8678.153
522.1132, 8676.619
522.5953, 8677.104
523.0775, 8675.067
523.5596, 8668.650
524.0417, 8660.404
524.5238, 8650.632
525.0059, 8640.431
525.4880, 8632.221
525.9702, 8626.911
526.4523, 8625.051
526.9344, 8628.671
527.4165, 8644.288
527.8986, 8647.471
528.3807, 8627.296
528.8629, 8606.012
529.3450, 8597.261
529.8271, 8597.413
530.3092, 8595.254
530.7913, 8584.157
531.2734, 8568.789
531.7556, 8561.030
532.2377, 8563.963
532.7198, 8565.858
533.2019, 8563.615
533.6840, 8561.083
534.1661, 8561.205
534.6483, 8563.194
535.1304, 8563.347
535.6125, 8558.572
536.0946, 8551.237
536.5767, 8545.367
537.0588, 8540.968
537.5410, 8537.476
538.0231, 8534.729
538.5052, 8532.771
538.9873, 8532.417
539.4694, 8534.271
539.9515, 8533.336
540.4337, 8524.309
540.9158, 8514.494
541.3979, 8512.827
541.8800, 8518.229
542.3621, 8522.195
542.8442, 8519.515
543.3264, 8511.651
543.8085, 8503.465
544.2906, 8491.774
544.7726, 8484.542
545.2548, 8484.819
545.7369, 8487.262
546.2190, 8488.709
546.7011, 8488.608
547.1832, 8487.139
547.6653, 8484.012
548.1475, 8480.009
548.6296, 8478.713
549.1117, 8481.589
549.5938, 8483.278
550.0759, 8479.080
550.5580, 8475.179
551.0402, 8478.236
551.5223, 8488.143
552.0044, 8495.012
552.4865, 8490.122
552.9686, 8479.572
553.4507, 8474.639
553.9329, 8475.806
554.4150, 8476.881
554.8971, 8474.425
555.3792, 8469.895
555.8613, 8467.063
556.3434, 8466.349
556.8256, 8465.844
557.3077, 8465.356
557.7898, 8464.784
558.2719, 8464.665
558.7540, 8464.561
559.2361, 8462.944
559.7183, 8458.793
560.2004, 8452.211
560.6825, 8443.045
561.1646, 8427.556
561.6467, 8416.156
562.1288, 8413.021
562.6110, 8411.268
563.0931, 8405.981
563.5752, 8397.183
564.0573, 8387.990
564.5394, 8381.287
565.0215, 8375.388
565.5037, 8364.504
565.9858, 8347.240
566.4679, 8334.186
566.9500, 8331.303
567.4321, 8332.984
567.9142, 8331.182
568.3964, 8325.537
568.8785, 8321.480
569.3606, 8322.429
569.8427, 8324.693
570.3248, 8324.216
570.8069, 8321.296
571.2891, 8318.759
571.7712, 8318.251
572.2533, 8318.721
572.7354, 8317.589
573.2175, 8313.891
573.6996, 8310.102
574.1818, 8304.457
574.6639, 8300.226
575.1460, 8300.479
575.6281, 8303.854
576.1102, 8306.729
576.5923, 8307.029
577.0745, 8305.431
577.5566, 8303.321
578.0387, 8300.734
578.5208, 8297.512
579.0029, 8293.024
579.4850, 8288.581
579.9672, 8285.697
580.4493, 8283.865
580.9314, 8280.866
581.4135, 8276.144
581.8956, 8269.712
582.3777, 8260.920
582.8599, 8250.303
583.3420, 8239.557
583.8241, 8229.134
584.3062, 8219.323
584.7883, 8210.198
585.2704, 8201.296
585.7526, 8196.021
586.2347, 8200.107
586.7168, 8201.458
587.1989, 8191.441
587.6810, 8176.264
588.1631, 8166.674
588.6453, 8166.448
589.1274, 8169.287
589.6095, 8165.602
590.0916, 8154.344
