##NAMES=Preobrazhenskite
##RRUFFID=R090040
##IDEAL CHEMISTRY=Mg_3_B_11_O_15_(OH)_9_
##LOCALITY=Inder B deposit and salt dome, Atyrau Oblast, Kazakhstan
##OWNER=RRUFF
##SOURCE=Herb Obodda
##DESCRIPTION=Colorless crystal fragment
##STATUS=The identification of this mineral has been confirmed by single-crystal X-ray diffraction.
##URL=rruff.info/R090040
91.11523, 92.88194
91.59735, 92.15845
92.07947, 92.58662
92.56158, 93.90422
93.04370, 95.29237
93.52582, 96.48851
94.00793, 97.41203
94.49006, 97.80685
94.97218, 97.57629
95.45429, 96.97095
95.93641, 96.14326
96.41853, 95.10728
96.90064, 94.43786
97.38276, 94.65376
97.86488, 95.68910
98.34699, 96.88778
98.82911, 98.22617
99.31123, 99.60979
99.79334, 100.7359
100.2755, 101.6021
100.7576, 102.1839
101.2397, 102.3511
101.7218, 101.9954
102.2039, 101.7432
102.6861, 101.6958
103.1682, 101.8536
103.6503, 102.2791
104.1324, 103.0873
104.6145, 104.0394
105.0966, 104.8689
105.5788, 105.5355
106.0609, 106.1152
106.5430, 106.3704
107.0251, 105.7579
107.5072, 106.8039
107.9893, 110.1439
108.4715, 114.9987
108.9536, 119.9576
109.4357, 124.3300
109.9178, 129.4678
110.3999, 135.8469
110.8820, 143.3446
111.3642, 152.1810
111.8463, 162.4779
112.3284, 173.9901
112.8105, 187.0760
113.2926, 201.1407
113.7747, 216.6663
114.2569, 233.6280
114.7390, 250.6600
115.2211, 270.8198
115.7032, 294.8149
116.1853, 322.4809
116.6674, 352.8471
117.1496, 384.7666
117.6317, 420.0803
118.1138, 459.9688
118.5959, 504.6769
119.0780, 554.4777
119.5602, 608.8771
120.0423, 668.4005
120.5244, 734.0040
121.0065, 807.6459
121.4886, 887.4882
121.9707, 971.4718
122.4529, 1060.712
122.9350, 1151.645
123.4171, 1241.943
123.8992, 1331.670
124.3813, 1418.597
124.8634, 1501.542
125.3456, 1580.362
125.8277, 1655.040
126.3098, 1725.887
126.7919, 1791.859
127.2740, 1849.302
127.7561, 1896.528
128.2383, 1940.898
128.7204, 1987.489
129.2025, 2037.272
129.6846, 2095.354
130.1667, 2166.793
130.6488, 2248.535
131.1310, 2335.156
131.6131, 2425.203
132.0952, 2521.218
132.5773, 2628.488
133.0594, 2747.613
133.5415, 2873.055
134.0237, 3003.649
134.5058, 3139.749
134.9879, 3277.087
135.4700, 3417.373
135.9521, 3557.978
136.4343, 3695.434
136.9164, 3830.399
137.3985, 3961.256
137.8806, 4088.255
138.3627, 4212.437
138.8448, 4331.818
139.3270, 4448.154
139.8091, 4561.505
140.2912, 4667.433
140.7733, 4766.746
141.2554, 4858.946
141.7375, 4943.598
142.2197, 5024.154
142.7018, 5090.354
143.1839, 5141.583
143.6660, 5178.292
144.1481, 5191.091
144.6302, 5173.830
145.1124, 5137.654
145.5945, 5095.163
146.0766, 5038.044
146.5587, 4986.463
147.0408, 4944.656
147.5230, 4912.198
148.0051, 4871.126
148.4872, 4857.398
148.9693, 4807.481
149.4514, 4769.889
149.9335, 4748.216
150.4157, 4734.489
150.8978, 4727.781
151.3799, 4732.765
151.8620, 4734.811
152.3441, 4731.608
152.8262, 4725.932
153.3084, 4722.983
153.7905, 4725.278
154.2726, 4728.380
154.7547, 4730.772
155.2368, 4732.173
155.7189, 4732.929
156.2011, 4732.006
156.6832, 4730.257
157.1653, 4729.939
157.6474, 4730.435
158.1295, 4732.953
158.6116, 4737.958
159.0938, 4744.545
159.5759, 4754.654
160.0580, 4770.436
160.5401, 4790.414
161.0222, 4809.726
161.5044, 4826.231
161.9865, 4841.752
162.4686, 4857.893
162.9507, 4883.119
163.4328, 4900.000
163.9149, 4905.273
164.3971, 4898.225
164.8792, 4874.073
165.3613, 4811.976
165.8434, 4740.045
166.3255, 4683.683
166.8076, 4655.411
167.2898, 4641.335
167.7719, 4637.165
168.2540, 4642.083
168.7361, 4648.996
169.2182, 4656.080
169.7003, 4662.179
170.1825, 4665.893
170.6646, 4669.010
171.1467, 4668.033
171.6288, 4658.740
172.1109, 4641.411
172.5931, 4621.962
173.0752, 4603.077
173.5573, 4585.017
174.0394, 4568.183
174.5215, 4551.409
175.0036, 4536.611
175.4858, 4526.752
175.9679, 4521.796
176.4500, 4518.950
176.9321, 4516.286
177.4142, 4513.877
177.8963, 4511.940
178.3785, 4511.865
178.8606, 4511.892
179.3427, 4508.962
179.8248, 4502.866
180.3069, 4495.794
180.7890, 4488.634
181.2712, 4482.049
181.7533, 4478.289
182.2354, 4480.484
182.7175, 4485.985
183.1996, 4488.727
183.6818, 4488.185
184.1639, 4486.891
184.6460, 4487.910
185.1281, 4490.870
185.6102, 4493.929
186.0923, 4496.625
186.5745, 4498.775
187.0566, 4498.934
187.5387, 4496.405
188.0208, 4494.367
188.5029, 4498.512
188.9850, 4508.306
189.4672, 4517.025
189.9493, 4520.027
190.4314, 4518.677
190.9135, 4520.527
191.3956, 4526.640
191.8777, 4534.333
192.3599, 4538.365
192.8420, 4538.686
193.3241, 4541.806
193.8062, 4552.722
194.2883, 4570.663
194.7704, 4586.234
195.2526, 4598.713
195.7347, 4608.873
196.2168, 4616.667
196.6989, 4621.589
197.1810, 4629.158
197.6632, 4643.685
198.1453, 4665.212
198.6274, 4683.731
199.1095, 4697.211
199.5916, 4709.585
200.0737, 4730.448
200.5559, 4761.479
201.0380, 4791.154
201.5201, 4814.768
202.0022, 4832.847
202.4843, 4841.971
202.9664, 4842.274
203.4486, 4833.517
203.9307, 4812.938
204.4128, 4778.640
204.8949, 4741.435
205.3770, 4705.385
205.8591, 4669.594
206.3413, 4641.439
206.8234, 4622.209
207.3055, 4609.983
207.7876, 4600.167
208.2697, 4592.751
208.7519, 4587.639
209.2340, 4584.904
209.7161, 4584.720
210.1982, 4585.941
210.6803, 4589.312
211.1624, 4593.569
211.6446, 4594.746
212.1267, 4591.494
212.6088, 4588.615
213.0909, 4588.373
213.5730, 4590.799
214.0551, 4596.296
214.5373, 4605.853
215.0194, 4618.201
215.5015, 4629.836
215.9836, 4640.435
216.4657, 4651.241
216.9478, 4663.305
217.4300, 4677.304
217.9121, 4690.253
218.3942, 4701.502
218.8763, 4711.576
219.3584, 4722.058
219.8405, 4733.086
220.3227, 4743.829
220.8048, 4753.284
221.2869, 4759.885
221.7690, 4769.763
222.2511, 4783.827
222.7333, 4801.042
223.2154, 4818.052
223.6975, 4835.078
224.1796, 4851.997
224.6617, 4868.396
225.1438, 4882.807
225.6260, 4900.802
226.1081, 4922.774
226.5902, 4948.493
227.0723, 4976.765
227.5544, 5009.471
228.0365, 5042.455
228.5187, 5073.386
229.0008, 5099.896
229.4829, 5129.972
229.9650, 5164.606
230.4471, 5202.677
230.9292, 5241.949
231.4114, 5284.383
231.8935, 5325.500
232.3756, 5363.221
232.8577, 5399.165
233.3398, 5429.398
233.8220, 5455.997
234.3041, 5476.202
234.7862, 5482.535
235.2683, 5473.000
235.7504, 5452.940
236.2325, 5423.766
236.7147, 5384.889
237.1968, 5339.801
237.6789, 5286.914
238.1610, 5228.756
238.6431, 5170.612
239.1252, 5110.969
239.6074, 5052.910
240.0895, 4996.138
240.5716, 4937.713
241.0537, 4890.933
241.5358, 4858.110
242.0179, 4835.742
242.5001, 4817.211
242.9822, 4802.389
243.4643, 4791.380
243.9464, 4784.651
244.4285, 4783.390
244.9106, 4781.917
245.3928, 4779.708
245.8749, 4777.349
246.3570, 4776.117
246.8391, 4777.046
247.3212, 4777.127
247.8034, 4775.299
248.2855, 4771.202
248.7676, 4766.650
249.2497, 4761.519
249.7318, 4756.113
250.2139, 4750.778
250.6961, 4745.167
251.1782, 4740.511
251.6603, 4737.563
252.1424, 4736.896
252.6245, 4734.671
253.1066, 4729.501
253.5888, 4724.115
254.0709, 4722.221
254.5530, 4725.355
255.0351, 4728.887
255.5172, 4731.813
255.9993, 4734.179
256.4815, 4735.148
256.9636, 4733.565
257.4457, 4731.757
257.9278, 4732.561
258.4099, 4737.049
258.8921, 4741.627
259.3742, 4745.271
259.8563, 4747.912
260.3384, 4752.384
260.8205, 4760.230
261.3026, 4767.814
261.7848, 4770.551
262.2669, 4765.233
262.7490, 4764.151
263.2311, 4771.226
263.7132, 4785.782
264.1953, 4796.152
264.6775, 4800.250
265.1596, 4803.385
265.6417, 4810.864
266.1238, 4824.593
266.6059, 4835.823
267.0880, 4842.399
267.5702, 4845.078
268.0523, 4848.756
268.5344, 4854.124
269.0165, 4859.182
269.4986, 4861.649
269.9807, 4860.235
270.4629, 4862.183
270.9450, 4868.854
271.4271, 4879.484
271.9092, 4891.068
272.3913, 4903.897
272.8734, 4916.808
273.3556, 4929.381
273.8377, 4941.827
274.3198, 4952.283
274.8019, 4960.611
275.2840, 4966.875
275.7661, 4971.509
276.2483, 4974.624
276.7304, 4975.586
277.2125, 4973.043
277.6946, 4966.641
278.1768, 4962.375
278.6589, 4961.214
279.1410, 4961.638
279.6231, 4960.028
280.1052, 4955.921
280.5873, 4953.075
281.0695, 4954.221
281.5516, 4959.308
282.0337, 4962.455
282.5158, 4962.727
282.9979, 4962.739
283.4800, 4966.891
283.9622, 4975.291
284.4443, 4984.768
284.9264, 4993.935
285.4085, 5002.796
285.8906, 5011.903
286.3727, 5020.682
286.8549, 5031.498
287.3370, 5049.534
287.8191, 5074.300
288.3012, 5096.146
288.7833, 5109.646
289.2654, 5117.343
289.7476, 5128.880
290.2297, 5144.545
290.7118, 5162.083
291.1939, 5180.487
291.6760, 5199.229
292.1581, 5215.892
292.6403, 5230.146
293.1224, 5241.700
293.6045, 5249.858
294.0866, 5254.583
294.5687, 5257.085
295.0508, 5257.245
295.5330, 5255.783
296.0151, 5255.350
296.4972, 5257.211
296.9793, 5259.622
297.4614, 5258.755
297.9435, 5255.044
298.4257, 5252.209
298.9078, 5255.392
299.3899, 5261.241
299.8720, 5262.260
300.3541, 5256.412
300.8362, 5246.906
301.3184, 5237.298
301.8005, 5227.313
302.2826, 5216.218
302.7647, 5203.341
303.2469, 5189.079
303.7290, 5173.524
304.2111, 5156.639
304.6932, 5139.119
305.1753, 5121.018
305.6574, 5102.892
306.1396, 5086.800
306.6217, 5072.991
307.1038, 5061.882
307.5859, 5054.140
308.0680, 5049.829
308.5501, 5047.684
309.0323, 5047.258
309.5144, 5048.268
309.9965, 5050.257
310.4786, 5053.489
310.9607, 5057.361
311.4428, 5060.432
311.9250, 5062.835
312.4071, 5068.450
312.8892, 5081.308
313.3713, 5097.817
313.8534, 5114.362
314.3355, 5130.737
314.8177, 5145.788
315.2998, 5159.242
315.7819, 5170.947
316.2640, 5180.454
316.7461, 5186.278
317.2282, 5190.341
317.7104, 5194.292
318.1925, 5199.879
318.6746, 5203.242
319.1567, 5201.439
319.6388, 5196.194
320.1209, 5192.183
320.6031, 5189.446
321.0852, 5189.357
321.5673, 5192.717
322.0494, 5200.210
322.5315, 5209.879
323.0136, 5221.761
323.4958, 5235.573
323.9779, 5250.833
324.4600, 5268.431
324.9421, 5286.793
325.4242, 5303.931
325.9064, 5318.025
326.3885, 5339.388
326.8706, 5372.987
327.3527, 5412.559
327.8348, 5451.889
328.3170, 5484.068
328.7991, 5523.391
329.2812, 5571.552
329.7633, 5628.737
330.2454, 5692.932
330.7275, 5763.998
331.2097, 5841.219
331.6918, 5923.913
332.1739, 6012.148
332.6560, 6106.570
333.1381, 6208.594
333.6202, 6316.362
334.1024, 6420.227
334.5845, 6530.597
335.0666, 6619.794
335.5487, 6675.438
336.0308, 6700.418
336.5129, 6680.962
336.9951, 6608.770
337.4772, 6497.889
337.9593, 6368.890
338.4414, 6214.442
338.9235, 6062.528
339.4056, 5920.147
339.8878, 5788.027
340.3699, 5673.246
340.8520, 5575.893
341.3341, 5495.158
341.8162, 5428.220
342.2983, 5376.038
342.7805, 5332.984
343.2626, 5299.680
343.7447, 5274.276
344.2268, 5248.446
344.7089, 5221.228
345.1910, 5197.070
345.6732, 5182.151
346.1553, 5175.075
346.6374, 5166.758
347.1195, 5155.076
347.6016, 5141.269
348.0837, 5126.243
348.5659, 5110.172
349.0480, 5097.487
349.5301, 5094.769
350.0122, 5097.856
350.4944, 5095.400
350.9765, 5085.019
351.4586, 5072.732
351.9407, 5065.624
352.4228, 5062.874
352.9049, 5061.630
353.3871, 5061.713
353.8692, 5061.930
354.3513, 5059.564
354.8334, 5054.236
355.3155, 5050.892
355.7976, 5055.911
356.2798, 5065.001
356.7619, 5071.355
357.2440, 5069.788
357.7261, 5066.300
358.2082, 5065.044
358.6903, 5065.696
359.1725, 5066.382
359.6546, 5065.552
360.1367, 5064.492
360.6188, 5064.467
361.1009, 5066.725
361.5830, 5068.565
362.0652, 5068.569
362.5473, 5067.305
363.0294, 5066.157
363.5115, 5065.774
363.9936, 5065.578
364.4757, 5065.441
364.9579, 5065.605
365.4400, 5065.230
365.9221, 5063.703
366.4042, 5061.788
366.8863, 5060.428
367.3684, 5059.565
367.8506, 5059.594
368.3327, 5060.435
368.8148, 5062.067
369.2969, 5065.560
369.7790, 5073.378
370.2611, 5081.333
370.7433, 5086.321
371.2254, 5084.599
371.7075, 5085.649
372.1896, 5090.656
372.6717, 5098.987
373.1538, 5108.175
373.6360, 5118.794
374.1181, 5129.158
374.6002, 5137.974
375.0823, 5144.279
375.5645, 5152.620
376.0466, 5163.292
376.5287, 5175.536
377.0108, 5188.484
377.4929, 5202.203
377.9750, 5215.342
378.4572, 5226.860
378.9393, 5237.151
379.4214, 5249.224
379.9035, 5263.110
380.3856, 5278.409
380.8677, 5294.487
381.3499, 5311.382
381.8320, 5329.507
382.3141, 5349.129
382.7962, 5369.943
383.2783, 5391.733
383.7604, 5414.390
384.2426, 5438.252
384.7247, 5464.378
385.2068, 5491.686
385.6889, 5519.379
386.1710, 5547.412
386.6531, 5574.547
387.1353, 5600.190
387.6174, 5624.146
388.0995, 5646.126
388.5816, 5667.299
389.0637, 5685.969
389.5458, 5701.444
390.0280, 5713.835
390.5101, 5721.252
390.9922, 5721.923
391.4743, 5717.289
391.9564, 5708.844
392.4385, 5696.791
392.9207, 5681.319
393.4028, 5661.414
393.8849, 5638.091
394.3670, 5614.211
394.8491, 5589.635
395.3312, 5565.835
395.8134, 5543.781
396.2955, 5524.120
396.7776, 5504.526
397.2597, 5484.261
397.7418, 5464.069
398.2239, 5444.771
398.7061, 5427.083
399.1882, 5409.911
399.6703, 5393.116
400.1524, 5376.705
400.6346, 5360.465
401.1167, 5343.539
401.5988, 5327.736
402.0809, 5314.210
402.5630, 5302.644
403.0451, 5293.948
403.5273, 5288.830
404.0094, 5286.391
404.4915, 5284.287
404.9736, 5282.354
405.4557, 5280.931
405.9378, 5280.183
406.4200, 5280.125
406.9021, 5280.070
407.3842, 5279.739
407.8663, 5280.115
408.3484, 5283.825
408.8305, 5291.053
409.3127, 5294.675
409.7948, 5291.322
410.2769, 5284.030
410.7590, 5281.682
411.2411, 5284.382
411.7232, 5287.248
412.2054, 5287.206
412.6875, 5284.505
413.1696, 5279.390
413.6517, 5271.284
414.1338, 5262.540
414.6159, 5255.861
415.0981, 5250.721
415.5802, 5245.836
416.0623, 5240.382
416.5444, 5234.814
417.0265, 5229.971
417.5086, 5225.744
417.9908, 5220.929
418.4729, 5214.021
418.9550, 5206.370
419.4371, 5199.532
419.9192, 5193.894
420.4013, 5189.084
420.8835, 5185.305
421.3656, 5182.335
421.8477, 5179.401
422.3298, 5176.480
422.8119, 5173.527
423.2940, 5170.545
423.7762, 5167.678
424.2583, 5164.603
424.7404, 5160.127
425.2225, 5156.021
425.7047, 5154.203
426.1868, 5156.776
426.6689, 5158.924
427.1510, 5159.493
427.6331, 5158.726
428.1152, 5159.398
428.5974, 5161.798
429.0795, 5165.225
429.5616, 5169.446
430.0437, 5174.647
430.5258, 5179.719
431.0079, 5184.706
431.4901, 5189.281
431.9722, 5192.556
432.4543, 5194.320
432.9364, 5196.435
433.4185, 5198.978
433.9006, 5202.355
434.3828, 5209.619
434.8649, 5221.142
435.3470, 5232.111
435.8291, 5236.037
436.3112, 5235.648
436.7933, 5239.860
437.2755, 5251.356
437.7576, 5266.304
438.2397, 5281.300
438.7218, 5295.964
439.2039, 5308.870
439.6860, 5315.151
440.1682, 5321.689
440.6503, 5335.790
441.1324, 5358.120
441.6145, 5383.280
442.0966, 5409.477
442.5787, 5436.060
443.0609, 5462.299
443.5430, 5484.872
444.0251, 5510.099
444.5072, 5540.167
444.9893, 5574.560
445.4714, 5611.813
445.9536, 5652.435
446.4357, 5695.448
446.9178, 5741.477
447.3999, 5793.805
447.8820, 5840.933
448.3641, 5887.002
448.8463, 5925.917
449.3284, 5952.104
449.8105, 5966.426
450.2926, 5966.339
450.7747, 5950.509
451.2569, 5919.591
451.7390, 5877.014
452.2211, 5818.932
452.7032, 5757.493
453.1853, 5698.136
453.6674, 5640.010
454.1496, 5588.451
454.6317, 5543.414
455.1138, 5504.172
455.5959, 5470.039
456.0780, 5440.807
456.5602, 5418.113
457.0423, 5404.659
457.5244, 5396.787
458.0065, 5386.856
458.4886, 5375.292
458.9707, 5365.136
459.4529, 5359.708
459.9350, 5357.009
460.4171, 5353.844
460.8992, 5349.159
461.3813, 5346.127
461.8634, 5347.619
462.3456, 5352.382
462.8277, 5358.239
463.3098, 5365.537
463.7919, 5372.657
464.2740, 5378.413
464.7561, 5382.859
465.2383, 5387.736
465.7204, 5393.342
466.2025, 5399.528
466.6846, 5406.256
467.1667, 5414.891
467.6488, 5421.600
468.1310, 5424.339
468.6131, 5425.499
469.0952, 5429.183
469.5773, 5437.742
470.0594, 5445.087
470.5415, 5450.187
471.0237, 5453.006
471.5058, 5452.775
471.9879, 5449.259
472.4700, 5443.304
472.9521, 5435.836
473.4342, 5426.946
473.9164, 5414.694
474.3985, 5398.171
474.8806, 5379.547
475.3627, 5361.562
475.8448, 5344.308
476.3270, 5328.714
476.8091, 5315.627
477.2912, 5304.417
477.7733, 5294.058
478.2554, 5284.555
478.7375, 5275.990
479.2197, 5269.026
479.7018, 5262.795
480.1839, 5256.112
480.6660, 5248.544
481.1481, 5241.096
481.6302, 5233.440
482.1124, 5226.506
482.5945, 5221.864
483.0766, 5223.351
483.5587, 5224.253
484.0408, 5221.009
484.5229, 5213.694
485.0051, 5207.236
485.4872, 5201.970
485.9693, 5198.200
486.4514, 5196.135
486.9335, 5195.271
487.4156, 5197.059
487.8978, 5203.733
488.3799, 5211.913
488.8620, 5216.179
489.3441, 5215.047
489.8262, 5213.720
490.3083, 5213.022
490.7905, 5213.198
491.2726, 5216.570
491.7547, 5223.824
492.2368, 5231.094
492.7189, 5234.333
493.2010, 5234.431
493.6832, 5237.261
494.1653, 5243.417
494.6474, 5252.050
495.1295, 5264.409
495.6116, 5278.725
496.0938, 5289.717
496.5759, 5293.252
497.0580, 5294.093
497.5401, 5296.602
498.0222, 5300.704
498.5044, 5305.925
498.9865, 5314.803
499.4686, 5323.023
499.9507, 5326.702
500.4328, 5324.228
500.9149, 5321.428
501.3971, 5319.807
501.8792, 5319.108
502.3613, 5319.010
502.8434, 5320.653
503.3255, 5321.521
503.8076, 5320.629
504.2898, 5318.431
504.7719, 5317.146
505.2540, 5317.337
505.7361, 5317.452
506.2182, 5316.608
506.7003, 5314.468
507.1825, 5313.466
507.6646, 5313.796
508.1467, 5314.897
508.6288, 5316.872
509.1109, 5319.758
509.5930, 5320.605
510.0752, 5318.691
510.5573, 5314.819
511.0394, 5309.550
511.5215, 5303.271
512.0037, 5298.166
512.4858, 5297.444
512.9679, 5297.787
513.4500, 5293.298
513.9321, 5283.869
514.4142, 5275.641
514.8964, 5275.297
515.3785, 5277.250
515.8606, 5275.204
516.3427, 5264.896
516.8248, 5255.187
517.3069, 5250.479
517.7891, 5248.552
518.2712, 5245.305
518.7533, 5238.530
519.2354, 5231.688
519.7175, 5225.246
520.1996, 5219.201
520.6818, 5215.604
521.1639, 5216.141
521.6460, 5217.077
522.1281, 5215.821
522.6102, 5211.086
523.0923, 5209.561
523.5745, 5212.526
524.0566, 5216.825
524.5387, 5217.434
525.0208, 5214.358
525.5029, 5211.946
525.9850, 5211.336
526.4672, 5212.268
526.9493, 5215.065
527.4314, 5219.438
527.9135, 5222.696
528.3956, 5222.778
528.8777, 5220.975
529.3599, 5218.661
529.8420, 5215.867
530.3241, 5213.748
530.8062, 5212.015
531.2883, 5211.822
531.7704, 5214.577
532.2526, 5223.400
532.7347, 5231.697
533.2168, 5237.599
533.6989, 5241.579
534.1810, 5244.881
534.6631, 5248.330
535.1453, 5250.399
535.6274, 5249.944
536.1095, 5246.855
536.5916, 5246.279
537.0737, 5249.734
537.5558, 5253.365
538.0380, 5253.573
538.5201, 5249.177
539.0022, 5250.213
539.4843, 5258.647
539.9664, 5269.210
540.4485, 5273.331
540.9307, 5271.737
541.4128, 5271.003
541.8949, 5273.928
542.3770, 5278.127
542.8591, 5279.451
543.3412, 5278.310
543.8234, 5277.275
544.3055, 5278.088
544.7876, 5279.549
545.2697, 5280.734
545.7518, 5281.568
546.2339, 5281.534
546.7161, 5278.962
547.1982, 5276.206
547.6803, 5275.342
548.1624, 5279.505
548.6445, 5282.372
549.1266, 5281.458
549.6088, 5279.138
550.0909, 5280.320
550.5730, 5288.265
551.0551, 5294.919
551.5372, 5298.409
552.0193, 5298.953
552.5015, 5296.663
552.9836, 5290.037
553.4657, 5285.940
553.9478, 5290.414
554.4299, 5302.495
554.9120, 5312.830
555.3942, 5320.752
555.8763, 5326.726
556.3584, 5329.637
556.8405, 5330.858
557.3226, 5334.247
557.8047, 5342.255
558.2869, 5350.790
558.7690, 5357.021
559.2511, 5360.865
559.7332, 5362.028
560.2154, 5358.315
560.6975, 5353.762
561.1796, 5351.809
561.6617, 5352.776
562.1439, 5349.006
562.6260, 5335.525
563.1081, 5319.557
563.5902, 5304.984
564.0723, 5291.675
564.5544, 5280.159
565.0366, 5270.816
565.5187, 5262.700
566.0008, 5254.302
566.4829, 5245.054
566.9650, 5238.071
567.4471, 5234.374
567.9293, 5232.849
568.4114, 5230.620
568.8935, 5227.758
569.3756, 5226.093
569.8577, 5227.391
570.3398, 5230.281
570.8220, 5232.734
571.3041, 5234.700
571.7862, 5235.594
572.2683, 5232.325
572.7504, 5229.245
573.2325, 5231.331
573.7147, 5241.780
574.1968, 5251.636
574.6789, 5255.776
575.1610, 5258.106
575.6431, 5263.729
576.1252, 5279.298
576.6074, 5291.168
577.0895, 5295.953
577.5716, 5295.715
578.0537, 5298.515
578.5358, 5305.701
579.0179, 5312.871
579.5001, 5318.563
579.9822, 5322.787
580.4643, 5325.226
580.9464, 5325.874
581.4285, 5324.587
581.9106, 5320.882
582.3928, 5315.055
582.8749, 5308.056
583.3570, 5299.850
583.8391, 5291.076
584.3212, 5281.552
584.8033, 5271.950
585.2855, 5263.350
585.7676, 5256.052
586.2497, 5249.945
586.7318, 5245.776
587.2139, 5242.782
587.6960, 5238.782
588.1782, 5229.014
588.6603, 5222.219
589.1424, 5224.158
