##NAMES=Priceite
##RRUFFID=R050420
##IDEAL CHEMISTRY=Ca_2_B_5_O_7_(OH)_5_&#183;H_2_O
##LOCALITY=20-Mule-Team Canyon, Death Valley, California, USA
##OWNER=RRUFF
##SOURCE=Marcus Origlieri
##DESCRIPTION=White cryptocrystalline massive
##STATUS=The identification of this mineral has been confirmed by X-ray diffraction and chemical analysis
##URL=rruff.info/R050420
##MEASURED CHEMISTRY=Ca_2.00_B_5.00_O_7_(OH)_5_Â·H_2_O
91.00781, 29.18323
91.48993, 29.55458
91.97205, 29.70397
92.45416, 29.59153
92.93628, 29.26061
93.41840, 28.72846
93.90051, 27.86587
94.38263, 27.03283
94.86475, 26.94139
95.34686, 27.58467
95.82898, 28.30166
96.31110, 28.51684
96.79321, 28.28023
97.27533, 28.09903
97.75745, 28.06605
98.23956, 28.17604
98.72168, 28.42113
99.20380, 28.80308
99.68591, 29.30596
100.1680, 29.95328
100.6501, 30.77523
101.1323, 31.56441
101.6144, 32.23104
102.0965, 32.75758
102.5786, 33.35460
103.0607, 33.97829
103.5428, 34.71461
104.0250, 35.73791
104.5071, 37.12497
104.9892, 38.65655
105.4713, 40.25565
105.9534, 41.95966
106.4355, 43.64010
106.9177, 45.27788
107.3998, 46.89039
107.8819, 48.59126
108.3640, 50.36613
108.8461, 52.22091
109.3282, 54.18586
109.8104, 56.44328
110.2925, 58.55772
110.7746, 60.42577
111.2567, 62.07332
111.7388, 63.78187
112.2209, 65.54998
112.7031, 67.38412
113.1852, 69.30996
113.6673, 71.08980
114.1494, 73.17496
114.6315, 75.76025
115.1136, 78.88427
115.5958, 82.12113
116.0779, 85.57348
116.5600, 89.00063
117.0421, 92.11956
117.5242, 94.63803
118.0063, 97.00272
118.4885, 99.31045
118.9706, 101.4597
119.4527, 104.1748
119.9348, 108.1886
120.4169, 113.0200
120.8990, 117.8580
121.3812, 122.7542
121.8633, 127.2287
122.3454, 130.7711
122.8275, 133.2895
123.3096, 134.9897
123.7917, 135.4111
124.2739, 134.9425
124.7560, 135.0116
125.2381, 136.7714
125.7202, 139.6505
126.2023, 142.6514
126.6844, 145.5593
127.1666, 148.5278
127.6487, 151.9874
128.1308, 155.9065
128.6129, 159.5218
129.0950, 161.8894
129.5771, 163.3776
130.0593, 165.3425
130.5414, 168.3443
131.0235, 171.9940
131.5056, 175.0149
131.9877, 176.6692
132.4698, 177.5972
132.9520, 179.4897
133.4341, 182.2952
133.9162, 185.1437
134.3983, 187.7727
134.8804, 190.1938
135.3625, 192.4101
135.8447, 194.3061
136.3268, 196.3161
136.8089, 199.3044
137.2910, 203.5046
137.7731, 207.3696
138.2552, 210.5802
138.7374, 213.2485
139.2195, 214.1607
139.7016, 212.7696
140.1837, 210.1840
140.6658, 208.7311
141.1479, 208.6838
141.6301, 209.0435
142.1122, 209.3179
142.5943, 209.3120
143.0764, 209.7540
143.5585, 210.7923
144.0406, 212.2647
144.5228, 213.6416
145.0049, 214.7688
145.4870, 215.9754
145.9691, 217.5035
146.4512, 220.1820
146.9333, 221.8450
147.4155, 221.9220
147.8976, 220.6363
148.3797, 220.0708
148.8618, 220.8057
149.3439, 221.8355
149.8260, 222.5123
150.3082, 222.6145
150.7903, 222.6175
151.2724, 222.6539
151.7545, 222.7311
152.2366, 222.4077
152.7188, 221.5244
153.2009, 220.3025
153.6830, 218.9273
154.1651, 218.1245
154.6472, 216.4722
155.1293, 213.4313
155.6115, 208.8199
156.0936, 204.2352
156.5757, 199.9032
157.0578, 195.7355
157.5399, 191.6967
158.0220, 187.5769
158.5042, 183.7403
158.9863, 180.3163
159.4684, 177.2792
159.9505, 174.7598
160.4326, 172.8846
160.9147, 171.5573
161.3969, 170.6352
161.8790, 170.6377
162.3611, 170.6227
162.8432, 170.0217
163.3253, 168.5998
163.8074, 167.1109
164.2896, 165.7092
164.7717, 164.4777
165.2538, 163.5858
165.7359, 163.2911
166.2180, 163.2529
166.7001, 163.1098
167.1823, 162.5141
167.6644, 162.4414
168.1465, 164.2019
168.6286, 167.1150
169.1107, 169.2674
169.5928, 169.1835
170.0750, 167.9846
170.5571, 166.7643
171.0392, 165.6492
171.5213, 164.7875
172.0034, 164.4644
172.4855, 164.5741
172.9677, 164.6505
173.4498, 164.1658
173.9319, 163.5185
174.4140, 163.2998
174.8961, 163.8391
175.3782, 164.6671
175.8604, 165.3781
176.3425, 165.9684
176.8246, 166.3819
177.3067, 166.5496
177.7888, 166.5172
178.2709, 166.3856
178.7531, 166.2496
179.2352, 165.9778
179.7173, 165.1803
180.1994, 163.8802
180.6815, 162.7546
181.1636, 162.6210
181.6458, 163.1860
182.1279, 163.5732
182.6100, 163.3829
183.0921, 162.8882
183.5742, 162.6132
184.0563, 162.5649
184.5385, 162.6766
185.0206, 162.9728
185.5027, 163.4095
185.9848, 163.7696
186.4669, 164.0545
186.9490, 164.1999
187.4312, 163.9093
187.9133, 163.1300
188.3954, 162.2968
188.8775, 161.8517
189.3596, 161.7861
189.8417, 162.0426
190.3239, 162.8533
190.8060, 164.0383
191.2881, 164.5274
191.7702, 164.1922
192.2523, 163.6545
192.7344, 163.8039
193.2166, 164.6404
193.6987, 165.3368
194.1808, 165.4384
194.6629, 165.0174
195.1450, 164.9356
195.6271, 165.2313
196.1093, 165.7667
196.5914, 166.4038
197.0735, 167.1548
197.5556, 167.8473
198.0377, 168.4648
198.5198, 169.0132
199.0020, 169.1810
199.4841, 168.8394
199.9662, 168.3403
200.4483, 168.3162
200.9304, 168.8507
201.4125, 169.3436
201.8947, 169.5186
202.3768, 169.3539
202.8589, 169.1145
203.3410, 168.7317
203.8231, 168.3674
204.3052, 168.3555
204.7874, 168.7534
205.2695, 169.2593
205.7516, 169.7586
206.2337, 170.2539
206.7158, 170.7475
207.1979, 171.2849
207.6801, 171.7793
208.1622, 171.9863
208.6443, 171.7958
209.1264, 171.6644
209.6085, 171.9268
210.0906, 172.7977
210.5728, 173.0307
211.0549, 172.4197
211.5370, 171.2969
212.0191, 170.3762
212.5012, 169.6180
212.9833, 169.1419
213.4655, 169.1039
213.9476, 169.6996
214.4297, 169.9772
214.9118, 169.7674
215.3939, 169.3096
215.8760, 169.2072
216.3581, 169.5651
216.8403, 170.0626
217.3224, 170.5464
217.8045, 170.9953
218.2866, 171.5044
218.7687, 172.0957
219.2508, 172.7342
219.7330, 173.3346
220.2151, 173.9512
220.6972, 174.4180
221.1793, 174.5981
221.6614, 174.3078
222.1435, 174.2092
222.6257, 174.2798
223.1078, 174.5562
223.5899, 175.2136
224.0720, 176.5602
224.5541, 177.7995
225.0362, 178.5530
225.5184, 178.5905
226.0005, 178.6968
226.4826, 178.8665
226.9647, 179.1237
227.4468, 179.5583
227.9289, 180.2630
228.4111, 181.0071
228.8932, 181.6443
229.3753, 181.9649
229.8574, 182.7296
230.3395, 184.2868
230.8216, 186.2100
231.3038, 187.2413
231.7859, 186.6767
232.2680, 186.2425
232.7501, 186.7765
233.2322, 188.8249
233.7143, 190.6242
234.1965, 192.2663
234.6786, 193.6407
235.1607, 194.4219
235.6428, 194.3313
236.1249, 194.0464
236.6070, 193.8956
237.0892, 194.1315
237.5713, 193.9200
238.0534, 193.1230
238.5355, 191.9120
239.0176, 190.7442
239.4997, 189.7384
239.9819, 188.5777
240.4640, 187.0940
240.9461, 185.0396
241.4282, 183.2254
241.9103, 181.6572
242.3924, 180.3290
242.8746, 179.2234
243.3567, 178.3248
243.8388, 177.6780
244.3209, 177.3969
244.8030, 177.8331
245.2851, 177.6727
245.7673, 176.6024
246.2494, 175.0667
246.7315, 174.0390
247.2136, 173.7531
247.6957, 173.6046
248.1778, 173.3420
248.6600, 172.8527
249.1421, 172.6072
249.6242, 172.6753
250.1063, 172.9467
250.5884, 173.2102
251.0705, 173.4429
251.5527, 173.7042
252.0348, 174.0061
252.5169, 174.3418
252.9990, 174.7639
253.4811, 175.3582
253.9632, 175.9857
254.4454, 176.3912
254.9275, 176.5242
255.4096, 176.5340
255.8917, 176.4444
256.3738, 176.2236
256.8560, 176.0364
257.3381, 175.8214
257.8202, 175.6899
258.3023, 175.8628
258.7844, 176.5305
259.2665, 177.0905
259.7487, 177.3978
260.2308, 177.4652
260.7129, 177.1056
261.1950, 176.0860
261.6771, 174.8948
262.1592, 174.2191
262.6414, 174.2200
263.1235, 174.3492
263.6056, 174.4983
264.0877, 174.6790
264.5698, 174.7010
265.0519, 174.4923
265.5341, 174.2242
266.0162, 174.1335
266.4983, 174.3237
266.9804, 174.3599
267.4625, 174.0346
267.9446, 173.3615
268.4268, 173.1367
268.9089, 173.5622
269.3910, 174.0874
269.8731, 174.0705
270.3552, 173.3316
270.8373, 172.7950
271.3195, 172.7685
271.8016, 173.1727
272.2837, 173.0491
272.7658, 172.1255
273.2479, 171.2822
273.7300, 171.5192
274.2122, 173.0779
274.6943, 174.1707
275.1764, 174.2722
275.6585, 173.6255
276.1406, 173.5691
276.6227, 174.2453
277.1049, 175.0454
277.5870, 175.5043
278.0691, 175.6080
278.5512, 175.4994
279.0333, 175.0730
279.5154, 174.5155
279.9976, 174.5079
280.4797, 175.1246
280.9618, 175.9082
281.4439, 176.6196
281.9260, 177.2552
282.4081, 177.6679
282.8903, 177.7539
283.3724, 177.6974
283.8545, 177.9691
284.3366, 178.5938
284.8187, 179.2840
285.3008, 179.9331
285.7830, 180.5289
286.2651, 180.8196
286.7472, 180.7172
287.2293, 180.4328
287.7114, 180.2523
288.1935, 180.1766
288.6757, 180.3896
289.1578, 181.2704
289.6399, 182.6230
290.1220, 183.4110
290.6041, 183.5573
291.0862, 183.2154
291.5684, 182.3492
292.0505, 181.0297
292.5326, 179.9654
293.0147, 179.6801
293.4968, 179.9186
293.9789, 179.9068
294.4611, 179.6105
294.9432, 179.1608
295.4253, 178.6953
295.9074, 178.2028
296.3895, 177.6431
296.8716, 176.7156
297.3538, 175.7705
297.8359, 175.6592
298.3180, 176.4123
298.8001, 177.3004
299.2822, 177.5671
299.7643, 177.4283
300.2465, 177.4529
300.7286, 178.0190
301.2107, 178.7388
301.6928, 179.0130
302.1749, 178.8687
302.6570, 178.7493
303.1392, 179.1319
303.6213, 179.7609
304.1034, 180.1898
304.5855, 180.2723
305.0676, 180.1335
305.5497, 179.7506
306.0319, 179.1942
306.5140, 178.8127
306.9961, 179.0236
307.4782, 179.4714
307.9603, 179.7287
308.4424, 179.6404
308.9246, 179.4389
309.4067, 179.1368
309.8888, 178.8343
310.3709, 178.8198
310.8530, 179.6625
311.3351, 180.6325
311.8173, 181.0246
312.2994, 180.5393
312.7815, 180.0719
313.2636, 180.3394
313.7457, 180.9832
314.2278, 181.3599
314.7100, 180.8633
315.1921, 180.2568
315.6742, 180.0448
316.1563, 180.3456
316.6384, 180.6246
317.1205, 180.4790
317.6027, 180.2265
318.0848, 180.2713
318.5669, 181.1594
319.0490, 181.9931
319.5311, 182.4136
320.0132, 182.3926
320.4954, 182.2033
320.9775, 181.5768
321.4596, 180.9787
321.9417, 180.8160
322.4238, 181.5974
322.9059, 182.3769
323.3881, 183.0986
323.8702, 183.7182
324.3523, 183.8614
324.8344, 182.9005
325.3165, 181.8259
325.7986, 181.2149
326.2808, 181.5696
326.7629, 181.8538
327.2450, 181.8665
327.7271, 181.7253
328.2092, 181.8978
328.6913, 182.9146
329.1735, 183.7799
329.6556, 184.0705
330.1377, 183.2885
330.6198, 182.8847
331.1019, 183.1090
331.5840, 183.6343
332.0662, 183.8227
332.5483, 183.3635
333.0304, 183.0074
333.5125, 183.0127
333.9946, 183.4443
334.4767, 183.9127
334.9589, 184.5576
335.4410, 185.0962
335.9231, 185.0715
336.4052, 184.1723
336.8873, 183.5443
337.3694, 183.5632
337.8516, 184.1815
338.3336, 184.5592
338.8158, 184.6707
339.2979, 184.6046
339.7800, 184.3872
340.2621, 183.9867
340.7442, 183.6754
341.2263, 183.4797
341.7085, 183.4221
342.1906, 183.6760
342.6727, 184.3051
343.1548, 184.8637
343.6369, 185.0126
344.1190, 184.7729
344.6012, 184.5052
345.0833, 184.2243
345.5654, 183.9720
346.0475, 183.8285
346.5296, 183.7891
347.0117, 183.7993
347.4939, 183.7753
347.9760, 183.7719
348.4581, 184.0296
348.9402, 184.6013
349.4223, 185.1937
349.9044, 185.4416
350.3866, 185.4316
350.8687, 185.4653
351.3508, 185.7442
351.8329, 186.1073
352.3150, 186.2548
352.7971, 186.1951
353.2793, 186.1879
353.7614, 186.4172
354.2435, 186.8393
354.7256, 187.4171
355.2077, 188.3521
355.6898, 189.1681
356.1720, 189.2325
356.6541, 188.7349
357.1362, 188.4893
357.6183, 189.2646
358.1004, 190.3396
358.5826, 190.9912
359.0647, 190.8504
359.5468, 190.8826
360.0289, 191.8676
360.5110, 193.3751
360.9931, 194.5908
361.4753, 194.8196
361.9574, 194.9628
362.4395, 195.5419
362.9216, 196.6946
363.4037, 197.6982
363.8858, 198.1419
364.3680, 198.4070
364.8501, 198.8975
365.3322, 199.9510
365.8143, 200.9764
366.2964, 201.7656
366.7785, 202.3307
367.2607, 203.0779
367.7428, 204.1888
368.2249, 205.4074
368.7070, 206.5827
369.1891, 207.5458
369.6712, 208.6772
370.1534, 210.0929
370.6355, 211.6904
371.1176, 213.1503
371.5997, 214.4153
372.0818, 215.6078
372.5639, 216.7896
373.0461, 217.9942
373.5282, 219.0986
374.0103, 220.1891
374.4924, 221.1150
374.9745, 221.5712
375.4566, 221.3963
375.9388, 221.2692
376.4209, 221.3976
376.9030, 221.7702
377.3851, 222.1813
377.8672, 222.6975
378.3493, 223.0821
378.8315, 223.0361
379.3136, 222.5547
379.7957, 222.1385
380.2778, 221.9085
380.7599, 221.7729
381.2420, 221.5303
381.7242, 221.1847
382.2063, 220.6944
382.6884, 220.1475
383.1705, 219.4446
383.6526, 218.1327
384.1347, 216.0456
384.6169, 213.8376
385.0990, 212.4368
385.5811, 211.6454
386.0632, 210.8970
386.5453, 209.8523
387.0274, 208.7265
387.5096, 207.8265
387.9917, 207.1595
388.4738, 206.5894
388.9559, 206.1236
389.4380, 205.6788
389.9201, 205.1223
390.4023, 204.2130
390.8844, 203.4249
391.3665, 203.1145
391.8486, 203.2015
392.3307, 203.4020
392.8128, 203.6794
393.2950, 203.9538
393.7771, 204.2067
394.2592, 204.5116
394.7413, 204.5776
395.2234, 204.0633
395.7055, 203.2947
396.1877, 202.7778
396.6698, 202.8509
397.1519, 202.9738
397.6340, 203.0693
398.1161, 203.1666
398.5982, 202.9223
399.0804, 202.2326
399.5625, 201.2463
400.0446, 200.0488
400.5267, 198.2520
401.0088, 196.8291
401.4909, 196.0508
401.9731, 195.7329
402.4552, 195.0816
402.9373, 193.7448
403.4194, 192.6520
403.9015, 192.3698
404.3836, 193.2262
404.8658, 193.5288
405.3479, 193.0772
405.8300, 192.3343
406.3121, 192.0486
406.7942, 192.3049
407.2763, 192.3684
407.7585, 191.7594
408.2406, 190.7287
408.7227, 190.9267
409.2048, 192.4852
409.6869, 194.1323
410.1690, 194.6595
410.6512, 194.2548
411.1333, 193.8023
411.6154, 193.3730
412.0975, 193.1448
412.5796, 193.5369
413.0617, 194.4367
413.5439, 195.2829
414.0260, 195.6670
414.5081, 195.8477
414.9902, 196.2157
415.4723, 196.8219
415.9544, 197.4082
416.4366, 197.7399
416.9187, 197.9192
417.4008, 198.0974
417.8829, 198.4376
418.3650, 198.7043
418.8471, 198.8078
419.3293, 198.7365
419.8114, 198.4340
420.2935, 197.5307
420.7756, 196.6070
421.2577, 196.1021
421.7398, 196.3164
422.2220, 196.4826
422.7041, 196.4195
423.1862, 196.2068
423.6683, 195.9884
424.1504, 195.9605
424.6325, 195.7431
425.1147, 195.0643
425.5968, 193.7912
426.0789, 193.2207
426.5610, 193.9026
427.0431, 194.7879
427.5252, 194.9644
428.0074, 193.9929
428.4895, 193.3528
428.9716, 193.3244
429.4537, 193.6960
429.9358, 193.7652
430.4179, 193.4282
430.9001, 193.1494
431.3822, 193.2428
431.8643, 193.7174
432.3464, 193.9095
432.8285, 193.7568
433.3106, 193.5218
433.7928, 193.5426
434.2749, 193.7938
434.7570, 194.0623
435.2391, 194.2839
435.7212, 194.4826
436.2033, 194.6668
436.6855, 194.8463
437.1676, 195.1277
437.6497, 195.6796
438.1318, 196.3564
438.6139, 196.9674
439.0960, 197.5142
439.5782, 197.8771
440.0603, 197.7766
440.5424, 197.4360
441.0245, 197.2741
441.5066, 197.6409
441.9887, 198.0943
442.4709, 198.3845
442.9530, 198.5058
443.4351, 198.5895
443.9172, 198.7129
444.3993, 198.7966
444.8814, 198.7819
445.3636, 198.6548
445.8457, 198.4316
446.3278, 198.0743
446.8099, 197.6228
447.2920, 197.1658
447.7741, 196.7022
448.2563, 196.2324
448.7384, 195.6903
449.2205, 195.0062
449.7026, 194.8001
450.1847, 195.2932
450.6668, 195.9924
451.1490, 196.4183
451.6311, 196.4694
452.1132, 196.6759
452.5953, 197.1966
453.0774, 197.8640
453.5595, 198.2166
454.0417, 198.2258
454.5238, 198.1896
455.0059, 198.1714
455.4880, 198.2163
455.9701, 198.6492
456.4522, 199.5240
456.9344, 200.4693
457.4165, 200.9524
457.8986, 201.1736
458.3807, 201.7084
458.8628, 202.9799
459.3449, 204.3820
459.8271, 205.1567
460.3092, 205.4317
460.7913, 205.7728
461.2734, 206.6188
461.7555, 207.6076
462.2376, 208.4164
462.7198, 208.9447
463.2019, 209.5241
463.6840, 210.4429
464.1661, 211.4467
464.6482, 212.2278
465.1303, 212.7569
465.6125, 212.9966
466.0946, 212.8200
466.5767, 212.2734
467.0588, 211.7918
467.5409, 211.6072
468.0230, 211.3184
468.5052, 210.7461
468.9873, 209.8158
469.4694, 208.7760
469.9515, 207.5476
470.4336, 206.2869
470.9157, 205.2486
471.3979, 204.5578
471.8800, 203.6644
472.3621, 202.3049
472.8442, 200.6494
473.3263, 199.4618
473.8084, 198.7684
474.2906, 198.3319
474.7727, 198.1008
475.2548, 198.0113
475.7369, 197.7002
476.2190, 197.0665
476.7011, 196.4557
477.1833, 196.3236
477.6654, 196.5512
478.1475, 196.8147
478.6296, 197.0661
479.1117, 197.2290
479.5938, 197.1359
480.0760, 196.8338
480.5581, 196.6380
481.0402, 196.8116
481.5223, 197.1159
482.0044, 197.3534
482.4865, 197.4505
482.9687, 197.5818
483.4508, 197.7815
483.9329, 198.0585
484.4150, 198.4215
484.8971, 199.0178
485.3792, 199.5480
485.8614, 199.9362
486.3435, 200.1905
486.8256, 200.4162
487.3077, 200.6629
487.7898, 200.8201
488.2719, 200.7591
488.7541, 200.2773
489.2362, 200.2631
489.7183, 200.8457
490.2004, 201.7326
490.6825, 202.5593
491.1646, 203.3395
491.6468, 203.9203
492.1289, 204.1889
492.6110, 204.2649
493.0931, 204.5650
493.5752, 205.0863
494.0573, 205.5268
494.5395, 205.5613
495.0216, 205.3791
495.5037, 205.4399
495.9858, 205.8505
496.4679, 206.1918
496.9500, 205.9494
497.4322, 205.3985
497.9143, 204.9995
498.3964, 204.9401
498.8785, 205.0788
499.3606, 205.4824
499.8427, 206.0737
500.3249, 206.4676
500.8070, 206.0948
501.2891, 205.8371
501.7712, 206.2666
502.2533, 207.8449
502.7354, 208.9447
503.2176, 209.1014
503.6997, 208.8929
504.1818, 208.8772
504.6639, 209.0472
505.1460, 209.4396
505.6281, 210.1833
506.1103, 211.1342
506.5924, 211.6322
507.0745, 211.5220
507.5566, 211.4970
508.0387, 211.9621
508.5208, 212.8900
509.0030, 213.7407
509.4851, 214.4990
509.9672, 215.2633
510.4493, 216.2232
510.9314, 217.2927
511.4135, 218.2006
511.8957, 218.9288
512.3778, 219.3746
512.8599, 219.2046
513.3420, 218.6185
513.8242, 218.1962
514.3063, 218.3764
514.7884, 218.7396
515.2705, 219.0156
515.7526, 219.1855
516.2347, 219.2011
516.7169, 218.9370
517.1990, 218.5700
517.6811, 218.2402
518.1632, 218.2099
518.6453, 217.8839
519.1274, 216.7721
519.6096, 215.3999
520.0917, 214.8018
520.5738, 215.6111
521.0559, 216.1345
521.5380, 215.8410
522.0201, 214.7905
522.5023, 214.0470
522.9844, 213.6767
523.4665, 213.4250
523.9486, 213.0919
524.4307, 212.6864
524.9128, 212.4424
525.3950, 212.4144
525.8771, 212.4298
526.3592, 212.2468
526.8413, 211.9090
527.3234, 211.5634
527.8055, 211.2051
528.2877, 210.9229
528.7698, 210.9820
529.2519, 211.2624
529.7340, 211.2592
530.2161, 210.4467
530.6982, 209.4059
531.1804, 208.5043
531.6625, 207.7890
532.1446, 207.3154
532.6267, 207.2842
533.1088, 207.4245
533.5909, 207.4874
534.0731, 207.5397
534.5552, 207.3877
535.0373, 206.8466
535.5194, 206.1229
536.0015, 205.7270
536.4836, 205.7852
536.9658, 205.9211
537.4479, 206.0180
537.9300, 206.0755
538.4121, 206.1765
538.8942, 206.3629
539.3763, 206.3979
539.8585, 205.9138
540.3406, 205.0367
540.8227, 204.5452
541.3048, 204.5954
541.7869, 204.8175
542.2690, 204.7701
542.7512, 204.5322
543.2333, 204.3005
543.7154, 203.9948
544.1975, 203.8641
544.6796, 204.3721
545.1617, 205.3274
545.6439, 205.8625
546.1260, 205.2644
546.6081, 204.3726
547.0902, 203.5914
547.5723, 202.9125
548.0544, 202.6133
548.5366, 203.1628
549.0187, 203.8633
549.5008, 204.0718
549.9829, 203.2984
550.4650, 202.9482
550.9471, 203.3048
551.4293, 204.0625
551.9114, 204.4653
552.3935, 204.4170
552.8756, 204.4975
553.3577, 205.0669
553.8398, 205.9446
554.3220, 206.2195
554.8041, 205.8761
555.2862, 205.4022
555.7683, 204.9780
556.2504, 204.7328
556.7325, 204.9852
557.2147, 205.8364
557.6968, 206.8546
558.1789, 207.8436
558.6610, 208.7277
559.1431, 209.3864
559.6252, 209.4991
560.1074, 209.6606
560.5895, 209.9364
561.0716, 210.4187
561.5537, 211.4014
562.0358, 213.8701
562.5179, 215.9577
563.0001, 216.7555
563.4822, 216.0637
563.9643, 216.2566
564.4464, 217.7215
564.9285, 219.5300
565.4106, 221.0551
565.8928, 222.2870
566.3749, 223.3284
566.8570, 224.1884
567.3391, 224.8839
567.8212, 225.3868
568.3033, 225.7268
568.7855, 226.1074
569.2676, 226.7461
569.7497, 227.3172
570.2318, 227.2363
570.7139, 226.6224
571.1960, 225.9909
571.6782, 225.7811
572.1603, 225.5900
572.6424, 225.0327
573.1245, 224.0459
573.6066, 223.1370
574.0887, 222.3806
574.5709, 221.8448
575.0530, 221.5747
575.5351, 221.7162
576.0172, 221.9358
576.4993, 222.3706
576.9814, 222.8106
577.4636, 222.8564
577.9457, 222.2961
578.4278, 221.9058
578.9099, 221.8823
579.3920, 222.1644
579.8741, 222.6174
580.3563, 223.2609
580.8384, 223.7729
581.3205, 223.9174
581.8026, 223.7841
582.2847, 223.6952
582.7668, 223.6655
583.2490, 223.3679
583.7311, 222.2381
584.2132, 220.7896
584.6953, 219.7155
585.1774, 219.3592
585.6595, 218.9807
586.1416, 218.0822
586.6237, 216.9491
587.1058, 215.9991
