##NAMES=Priceite
##RRUFFID=R050420
##IDEAL CHEMISTRY=Ca_2_B_5_O_7_(OH)_5_&#183;H_2_O
##LOCALITY=20-Mule-Team Canyon, Death Valley, California, USA
##OWNER=RRUFF
##SOURCE=Marcus Origlieri
##DESCRIPTION=White cryptocrystalline massive
##STATUS=The identification of this mineral has been confirmed by X-ray diffraction and chemical analysis
##URL=rruff.info/R050420
##MEASURED CHEMISTRY=Ca_2.00_B_5.00_O_7_(OH)_5_Â·H_2_O
93.78320, 170.6419
94.26532, 174.0066
94.74744, 175.1469
95.22955, 173.5987
95.71167, 170.0572
96.19379, 164.2165
96.67590, 155.5370
97.15802, 147.9360
97.64014, 141.8618
98.12225, 137.1402
98.60437, 133.9197
99.08649, 133.1703
99.56860, 132.5945
100.0507, 128.5358
100.5328, 120.1623
101.0150, 111.4480
101.4971, 105.1643
101.9792, 101.2776
102.4613, 98.37849
102.9434, 96.33336
103.4255, 94.83202
103.9077, 93.65003
104.3898, 92.65285
104.8719, 92.09972
105.3540, 92.76820
105.8361, 96.08047
106.3182, 98.09338
106.8004, 98.12563
107.2825, 96.56807
107.7646, 93.68065
108.2467, 89.48024
108.7288, 84.11797
109.2109, 79.73030
109.6931, 76.82359
110.1752, 74.31026
110.6573, 71.85195
111.1394, 69.53006
111.6215, 67.66715
112.1036, 66.61330
112.5858, 66.51036
113.0679, 66.19291
113.5500, 65.35002
114.0321, 64.52441
114.5142, 64.17724
114.9964, 64.38004
115.4785, 64.73287
115.9606, 64.78747
116.4427, 64.56409
116.9248, 64.26088
117.4069, 63.70580
117.8891, 63.11453
118.3712, 63.00254
118.8533, 63.70356
119.3354, 64.54940
119.8175, 64.89583
120.2996, 64.78248
120.7818, 64.55873
121.2639, 64.46010
121.7460, 64.49050
122.2281, 64.53156
122.7102, 64.56434
123.1923, 64.60215
123.6745, 64.65839
124.1566, 64.73358
124.6387, 64.80890
125.1208, 64.82756
125.6029, 64.65770
126.0850, 64.73271
126.5672, 65.19431
127.0493, 65.80190
127.5314, 66.43935
128.0135, 67.05285
128.4956, 67.54624
128.9777, 67.65103
129.4599, 66.67741
129.9420, 66.06734
130.4241, 66.13400
130.9062, 66.59560
131.3883, 67.03949
131.8705, 67.24226
132.3526, 67.24773
132.8347, 67.31065
133.3168, 67.47065
133.7989, 67.63509
134.2810, 67.71422
134.7632, 67.73922
135.2453, 67.88676
135.7274, 68.36438
136.2095, 69.04390
136.6916, 69.46452
137.1737, 69.37220
137.6559, 69.15257
138.1380, 69.23916
138.6201, 69.69685
139.1022, 70.15543
139.5843, 70.30772
140.0664, 70.31385
140.5486, 70.40296
141.0307, 70.75872
141.5128, 71.25228
141.9949, 71.49590
142.4770, 71.41429
142.9591, 71.16064
143.4413, 70.69326
143.9234, 70.13084
144.4055, 69.68404
144.8876, 69.53002
145.3697, 69.67070
145.8518, 69.78115
146.3340, 69.89552
146.8161, 69.94398
147.2982, 69.90947
147.7803, 69.78845
148.2624, 69.56982
148.7445, 69.21013
149.2267, 68.61561
149.7088, 68.30587
150.1909, 68.64882
150.6730, 68.92424
151.1551, 68.65604
151.6372, 67.81589
152.1194, 66.77643
152.6015, 65.98849
153.0836, 65.58703
153.5657, 65.11762
154.0478, 64.58497
154.5299, 63.98217
155.0121, 63.32121
155.4942, 62.61052
155.9763, 61.79917
156.4584, 60.73254
156.9405, 59.38155
157.4227, 58.13846
157.9048, 57.18078
158.3869, 56.40167
158.8690, 55.56462
159.3511, 54.56555
159.8332, 53.55323
160.3154, 52.70864
160.7975, 52.03230
161.2796, 51.39387
161.7617, 50.69485
162.2438, 49.94105
162.7259, 49.26072
163.2081, 48.65194
163.6902, 48.16499
164.1723, 47.87145
164.6544, 47.77357
165.1365, 47.73324
165.6186, 47.58315
166.1008, 47.28263
166.5829, 47.06152
167.0650, 46.99773
167.5471, 46.99761
168.0292, 47.00381
168.5113, 47.00311
168.9935, 47.03149
169.4756, 47.18258
169.9577, 47.65295
170.4398, 47.84946
170.9219, 47.53039
171.4040, 47.07487
171.8862, 46.80834
172.3683, 46.84877
172.8504, 47.06591
173.3325, 47.14973
173.8146, 46.88550
174.2967, 46.73802
174.7789, 46.81030
175.2610, 46.97547
175.7431, 47.09115
176.2252, 47.09422
176.7073, 47.00654
177.1894, 46.89490
177.6716, 46.62916
178.1537, 46.49562
178.6358, 46.66255
179.1179, 46.99495
179.6000, 47.24004
180.0821, 47.27458
180.5643, 47.13346
181.0464, 46.93147
181.5285, 46.61475
182.0106, 46.32302
182.4927, 46.16471
182.9749, 46.10490
183.4570, 45.96064
183.9391, 45.53857
184.4212, 45.05461
184.9033, 44.95110
185.3854, 45.41253
185.8676, 45.96082
186.3497, 46.21054
186.8318, 46.15519
187.3139, 46.03141
187.7960, 45.94609
188.2781, 45.84046
188.7603, 45.61544
189.2424, 45.19194
189.7245, 44.77759
190.2066, 44.68561
190.6887, 45.01409
191.1708, 45.30989
191.6530, 45.36941
192.1351, 45.34447
192.6172, 45.37342
193.0993, 45.51576
193.5814, 45.68901
194.0635, 45.70052
194.5457, 45.40847
195.0278, 45.24245
195.5099, 45.36743
195.9920, 45.60709
196.4741, 45.79572
196.9562, 45.85930
197.4384, 45.83172
197.9205, 45.80256
198.4026, 45.69610
198.8847, 45.70491
199.3668, 45.97984
199.8489, 46.33146
200.3311, 46.53643
200.8132, 46.47906
201.2953, 46.22759
201.7774, 46.05269
202.2595, 46.09063
202.7416, 46.05564
203.2238, 45.79522
203.7059, 45.47035
204.1880, 45.32175
204.6701, 45.48754
205.1522, 45.89025
205.6344, 46.18514
206.1165, 46.36121
206.5986, 46.46137
207.0807, 46.43709
207.5628, 46.34541
208.0449, 46.30334
208.5271, 46.38578
209.0092, 46.54193
209.4913, 46.55749
209.9734, 46.34045
210.4555, 46.12670
210.9376, 46.03463
211.4198, 46.01685
211.9019, 45.93124
212.3840, 45.68591
212.8661, 45.34489
213.3482, 45.08140
213.8303, 44.86255
214.3125, 44.75903
214.7946, 44.91459
215.2767, 45.27023
215.7588, 45.48777
216.2409, 45.34898
216.7230, 45.02625
217.2052, 44.85486
217.6873, 44.88172
218.1694, 44.97038
218.6515, 44.98381
219.1336, 44.92933
219.6157, 45.01040
220.0979, 45.44257
220.5800, 45.96366
221.0621, 46.27743
221.5442, 46.32405
222.0263, 46.27901
222.5084, 46.32812
222.9906, 46.48737
223.4727, 46.56477
223.9548, 46.39659
224.4369, 46.18324
224.9190, 46.04599
225.4011, 46.00434
225.8833, 46.07752
226.3654, 46.33639
226.8475, 46.83562
227.3296, 47.25039
227.8117, 47.46134
228.2938, 47.59782
228.7760, 47.71216
229.2581, 47.82020
229.7402, 47.93842
230.2223, 48.10994
230.7044, 48.38379
231.1866, 48.55134
231.6687, 48.42906
232.1508, 48.31438
232.6329, 48.43061
233.1150, 48.80290
233.5971, 49.24994
234.0793, 49.51873
234.5614, 49.54626
235.0435, 49.54087
235.5256, 49.48326
236.0077, 49.41857
236.4898, 49.37077
236.9720, 49.34599
237.4541, 49.34060
237.9362, 49.36443
238.4183, 49.48804
238.9004, 49.45436
239.3825, 49.18398
239.8647, 48.84766
240.3468, 48.55280
240.8289, 48.31334
241.3110, 48.07954
241.7931, 47.78579
242.2752, 47.41724
242.7574, 47.02506
243.2395, 46.46196
243.7216, 45.98616
244.2037, 45.83826
244.6858, 46.00740
245.1679, 46.22855
245.6501, 46.20167
246.1322, 45.84526
246.6143, 45.54441
247.0964, 45.30397
247.5785, 45.10723
248.0606, 44.95696
248.5428, 44.84739
249.0249, 44.74514
249.5070, 44.60929
249.9891, 44.42765
250.4712, 44.33852
250.9533, 44.45908
251.4355, 44.57614
251.9176, 44.47767
252.3997, 44.18463
252.8818, 43.97947
253.3639, 44.15461
253.8460, 44.71214
254.3282, 44.97007
254.8103, 44.65186
255.2924, 44.26094
255.7745, 44.18888
256.2566, 44.41723
256.7387, 44.61330
257.2209, 44.52220
257.7030, 44.18170
258.1851, 43.93712
258.6672, 43.78979
259.1493, 43.73708
259.6314, 43.82104
260.1136, 44.02629
260.5957, 44.22665
261.0778, 44.37910
261.5599, 44.45253
262.0420, 44.40241
262.5241, 44.14271
263.0063, 43.86028
263.4884, 43.71240
263.9705, 43.67978
264.4526, 43.58358
264.9347, 43.29003
265.4168, 42.91488
265.8990, 42.67753
266.3811, 42.60470
266.8632, 42.61303
267.3453, 42.68923
267.8275, 42.81886
268.3096, 42.88247
268.7917, 42.80770
269.2738, 42.66850
269.7559, 42.55817
270.2380, 42.47497
270.7202, 42.43855
271.2023, 42.49957
271.6844, 42.63859
272.1665, 42.72201
272.6486, 42.70903
273.1307, 42.62953
273.6129, 42.49173
274.0950, 42.29659
274.5771, 42.15691
275.0592, 42.14303
275.5413, 42.24717
276.0234, 42.44936
276.5056, 42.87313
276.9877, 43.21940
277.4698, 43.21924
277.9519, 42.93224
278.4340, 42.66146
278.9161, 42.56122
279.3983, 42.62059
279.8804, 42.82766
280.3625, 43.33722
280.8446, 43.74213
281.3267, 43.74508
281.8088, 43.46923
282.2910, 43.19613
282.7731, 43.03410
283.2552, 42.99284
283.7373, 43.14816
284.2194, 43.65568
284.7015, 44.06284
285.1837, 44.09695
285.6658, 43.92230
286.1479, 43.78351
286.6300, 43.81165
287.1121, 43.92302
287.5942, 43.92151
288.0764, 43.76328
288.5585, 43.59237
289.0406, 43.47426
289.5227, 43.36768
290.0048, 43.21383
290.4869, 42.97526
290.9691, 42.73568
291.4512, 42.66544
291.9333, 42.83954
292.4154, 42.94436
292.8975, 42.79564
293.3796, 42.60714
293.8618, 42.56956
294.3439, 42.73098
294.8260, 42.92779
295.3081, 42.90920
295.7902, 42.60279
296.2723, 42.42635
296.7545, 42.66964
297.2366, 42.90574
297.7187, 42.82602
298.2008, 42.43285
298.6829, 42.02842
299.1650, 41.98412
299.6472, 42.35616
300.1293, 42.54922
300.6114, 42.33844
301.0935, 42.10453
301.5756, 41.99308
302.0577, 42.00379
302.5399, 42.08754
303.0220, 42.26490
303.5041, 42.52265
303.9862, 42.53223
304.4683, 41.92136
304.9504, 41.49834
305.4326, 41.70208
305.9147, 42.28138
306.3968, 42.76674
306.8789, 42.86791
307.3610, 42.66088
307.8431, 42.43956
308.3253, 42.05333
308.8074, 41.91479
309.2895, 42.41605
309.7716, 43.09565
310.2537, 43.31922
310.7358, 42.75965
311.2180, 41.85071
311.7001, 41.63863
312.1822, 42.60185
312.6643, 43.19288
313.1464, 42.88329
313.6285, 42.26911
314.1107, 41.78436
314.5928, 41.55335
315.0749, 41.48110
315.5570, 41.44376
316.0392, 41.43964
316.5213, 41.47755
317.0034, 41.57100
317.4855, 41.69714
317.9676, 41.87496
318.4497, 42.08968
318.9319, 42.27495
319.4140, 42.36140
319.8961, 42.34248
320.3782, 42.28992
320.8603, 42.11940
321.3424, 41.99744
321.8246, 42.05894
322.3067, 42.22774
322.7888, 42.31088
323.2709, 42.13886
323.7530, 41.75444
324.2351, 41.47377
324.7173, 41.28739
325.1994, 41.23560
325.6815, 41.44270
326.1636, 41.74505
326.6457, 41.90786
327.1278, 41.79968
327.6100, 41.52888
328.0921, 41.35340
328.5742, 41.29932
329.0563, 41.28973
329.5384, 41.30822
330.0205, 41.35553
330.5027, 41.45301
330.9848, 41.60633
331.4669, 41.75238
331.9490, 41.80393
332.4311, 41.75019
332.9132, 41.64931
333.3954, 41.39654
333.8775, 41.18201
334.3596, 41.12170
334.8417, 41.21678
335.3238, 41.38602
335.8059, 41.54736
336.2881, 41.69973
336.7702, 41.95013
337.2523, 42.49018
337.7344, 42.90811
338.2165, 43.01286
338.6986, 42.85935
339.1808, 42.57857
339.6629, 42.18913
340.1450, 41.74877
340.6271, 41.48630
341.1092, 41.48335
341.5913, 41.50692
342.0735, 41.46466
342.5556, 41.39497
343.0377, 41.35510
343.5198, 41.37975
344.0019, 41.40126
344.4840, 41.24900
344.9662, 40.83369
345.4483, 40.63213
345.9304, 41.08524
346.4125, 41.63798
346.8946, 41.88599
347.3767, 41.76763
347.8589, 41.53032
348.3410, 41.38397
348.8231, 41.32663
349.3052, 41.30357
349.7873, 41.29890
350.2694, 41.34251
350.7516, 41.49072
351.2337, 41.71321
351.7158, 41.88266
352.1979, 41.87349
352.6800, 41.74957
353.1621, 41.73468
353.6443, 41.87952
354.1264, 42.02551
354.6085, 42.10150
355.0906, 42.11500
355.5727, 42.04358
356.0548, 41.77110
356.5370, 41.54165
357.0191, 41.78291
357.5012, 42.54757
357.9833, 43.17935
358.4654, 43.31459
358.9475, 43.22314
359.4297, 43.23717
359.9118, 43.41059
360.3939, 43.56786
360.8760, 43.52244
361.3581, 43.32744
361.8402, 43.26123
362.3224, 43.41797
362.8045, 43.67727
363.2866, 43.92913
363.7687, 44.17276
364.2508, 44.39782
364.7329, 44.60865
365.2151, 44.79639
365.6972, 44.93703
366.1793, 45.02223
366.6614, 45.09961
367.1436, 45.16577
367.6257, 45.25347
368.1078, 45.46489
368.5899, 45.99267
369.0720, 46.50184
369.5541, 46.64811
370.0363, 46.48839
370.5184, 46.40033
371.0005, 46.57346
371.4826, 46.91773
371.9647, 47.21766
372.4468, 47.44410
372.9290, 47.70092
373.4111, 48.12539
373.8932, 48.58993
374.3753, 48.80988
374.8574, 48.68571
375.3395, 48.46644
375.8217, 48.46706
376.3038, 48.71039
376.7859, 48.97178
377.2680, 49.35498
377.7501, 49.66344
378.2322, 49.68920
378.7144, 49.44341
379.1965, 49.12496
379.6786, 48.86623
380.1607, 48.66577
380.6428, 48.48398
381.1249, 48.34428
381.6071, 48.19625
382.0892, 47.99708
382.5713, 47.77941
383.0534, 47.63551
383.5355, 47.61469
384.0176, 47.60991
384.4998, 47.37812
384.9819, 46.63755
385.4640, 46.13113
385.9461, 46.11422
386.4282, 46.19006
386.9103, 45.98014
387.3925, 45.45455
387.8746, 44.87852
388.3567, 44.54900
388.8388, 44.51402
389.3209, 44.38004
389.8030, 44.00409
390.2852, 43.68992
390.7673, 43.56161
391.2494, 43.58335
391.7315, 43.69224
392.2136, 43.86221
392.6957, 44.04752
393.1779, 44.06510
393.6600, 43.78011
394.1421, 43.50628
394.6242, 43.25294
395.1063, 43.03182
395.5884, 42.85345
396.0706, 42.71982
396.5527, 42.62994
397.0348, 42.58170
397.5169, 42.57506
397.9990, 42.61101
398.4811, 42.88258
398.9633, 43.01774
399.4454, 42.76962
399.9275, 42.25028
400.4096, 41.75378
400.8917, 41.48619
401.3738, 41.39772
401.8560, 41.26440
402.3381, 41.01775
402.8202, 40.86203
403.3023, 40.85866
403.7844, 40.96395
404.2665, 41.19890
404.7487, 41.58692
405.2308, 41.89658
405.7129, 41.77760
406.1950, 41.20214
406.6771, 40.70231
407.1592, 40.32074
407.6414, 40.10862
408.1235, 40.20337
408.6056, 40.53430
409.0877, 40.73394
409.5698, 40.40565
410.0519, 39.82357
410.5341, 39.71111
411.0162, 40.21513
411.4983, 40.68385
411.9804, 40.58702
412.4625, 40.22448
412.9446, 40.11401
413.4268, 40.47472
413.9089, 40.86930
414.3910, 40.87150
414.8731, 40.57510
415.3553, 40.45586
415.8374, 40.72168
416.3195, 41.13358
416.8016, 41.33855
417.2837, 41.33673
417.7658, 41.31187
418.2480, 41.30900
418.7301, 41.31017
419.2122, 41.31518
419.6943, 41.31979
420.1764, 41.25504
420.6585, 41.03735
421.1407, 40.68947
421.6228, 40.47738
422.1049, 40.46077
422.5870, 40.49603
423.0691, 40.56609
423.5512, 40.64222
424.0334, 40.68047
424.5155, 40.66375
424.9976, 40.59258
425.4797, 40.45973
425.9618, 40.17795
426.4439, 40.01831
426.9261, 40.12796
427.4082, 40.24182
427.8903, 40.13420
428.3724, 39.82967
428.8545, 39.53495
429.3366, 39.42662
429.8188, 39.49365
430.3009, 39.49852
430.7830, 39.42454
431.2651, 39.29957
431.7472, 39.00177
432.2293, 38.70372
432.7115, 38.66116
433.1936, 38.96021
433.6757, 39.37383
434.1578, 39.47594
434.6399, 39.10267
435.1220, 38.99686
435.6042, 39.58546
436.0863, 40.13806
436.5684, 40.23235
437.0505, 39.96148
437.5326, 39.71961
438.0147, 39.81441
438.4969, 40.13335
438.9790, 40.27003
439.4611, 40.16909
439.9432, 40.02415
440.4253, 39.90125
440.9074, 39.78214
441.3896, 39.63160
441.8717, 39.42920
442.3538, 39.26924
442.8359, 39.22105
443.3180, 39.28400
443.8001, 39.50518
444.2823, 40.02245
444.7644, 40.46291
445.2465, 40.34611
445.7286, 39.79930
446.2107, 39.37239
446.6928, 39.26625
447.1750, 39.31258
447.6571, 39.38602
448.1392, 39.47390
448.6213, 39.51481
449.1034, 39.47286
449.5855, 39.36443
450.0677, 39.21601
450.5498, 38.93669
451.0319, 38.80679
451.5140, 39.03558
451.9961, 39.38978
452.4782, 39.55827
452.9604, 39.49174
453.4425, 39.40055
453.9246, 39.52918
454.4067, 39.92541
454.8888, 40.01546
455.3709, 39.54168
455.8531, 39.09925
456.3352, 38.85214
456.8173, 38.79433
457.2994, 38.90425
457.7815, 39.17315
458.2636, 39.55591
458.7458, 39.98298
459.2279, 40.57174
459.7100, 40.94965
460.1921, 40.96770
460.6742, 40.91888
461.1563, 40.93268
461.6385, 41.03281
462.1206, 41.22469
462.6027, 41.56209
463.0848, 41.98474
463.5669, 42.16092
464.0491, 41.98436
464.5312, 41.76978
465.0133, 41.57811
465.4954, 41.42654
465.9775, 41.34998
466.4597, 41.36088
466.9418, 41.37902
467.4239, 41.33269
467.9060, 41.22721
468.3881, 41.09338
468.8702, 40.92091
469.3524, 40.74869
469.8345, 40.64798
470.3166, 40.58119
470.7987, 40.42748
471.2808, 39.99461
471.7629, 39.58939
472.2451, 39.59227
472.7272, 39.91133
473.2093, 40.04834
473.6914, 39.74841
474.1735, 39.24558
474.6556, 39.03286
475.1378, 39.25552
475.6199, 39.23577
476.1020, 38.57891
476.5841, 37.83762
477.0662, 37.52175
477.5483, 37.64091
478.0305, 37.88183
478.5126, 38.01209
478.9947, 38.04943
479.4768, 38.14678
479.9589, 38.41876
480.4410, 38.61098
480.9232, 38.66120
481.4053, 38.63120
481.8874, 38.54262
482.3695, 38.41986
482.8516, 38.35703
483.3337, 38.51587
483.8159, 38.94884
484.2980, 39.15012
484.7801, 38.90369
485.2622, 38.66005
485.7443, 38.57709
486.2264, 38.59945
486.7086, 38.63384
487.1907, 38.64467
487.6728, 38.64080
488.1549, 38.62168
488.6370, 38.58383
489.1191, 38.59444
489.6013, 38.69277
490.0834, 38.81880
490.5655, 38.93499
491.0476, 39.03731
491.5297, 39.09463
492.0118, 39.04363
492.4940, 38.96973
492.9761, 39.01514
493.4582, 39.17326
493.9403, 39.26204
494.4224, 39.16625
494.9045, 38.96207
495.3867, 38.83141
495.8688, 38.74033
496.3509, 38.77821
496.8330, 39.16124
497.3151, 39.57202
497.7972, 39.59704
498.2794, 39.23357
498.7615, 38.85484
499.2436, 38.78236
499.7257, 38.99928
500.2078, 39.19874
500.6899, 39.43631
501.1721, 39.58781
501.6542, 39.55493
502.1363, 39.46434
502.6184, 39.48436
503.1005, 39.64486
503.5826, 39.79206
504.0648, 39.68167
504.5469, 39.26477
505.0290, 39.09126
505.5111, 39.32651
505.9932, 39.61187
506.4753, 39.88007
506.9575, 40.08360
507.4396, 40.12416
507.9217, 39.92513
508.4038, 39.68951
508.8859, 39.67856
509.3680, 39.88138
509.8502, 40.10717
510.3323, 40.33989
510.8144, 40.54432
511.2965, 40.68916
511.7786, 40.77850
512.2607, 40.82056
512.7429, 40.75456
513.2250, 40.69147
513.7071, 40.76595
514.1892, 40.93927
514.6713, 41.03336
515.1534, 40.95760
515.6356, 40.79604
516.1177, 40.71132
516.5998, 40.72274
517.0819, 40.77569
517.5640, 41.00210
518.0461, 41.16105
518.5283, 41.01215
519.0104, 40.63332
519.4925, 40.30645
519.9746, 40.22269
520.4567, 40.31410
520.9388, 40.33154
521.4210, 40.25910
521.9031, 40.13671
522.3852, 39.87564
522.8673, 39.64243
523.3494, 39.59122
523.8315, 39.70403
524.3137, 39.81465
524.7958, 39.77637
525.2779, 39.63780
525.7600, 39.57092
526.2421, 39.58708
526.7242, 39.63253
527.2064, 39.70181
527.6885, 39.77891
528.1706, 39.85889
528.6527, 39.95361
529.1348, 39.98150
529.6169, 39.90388
530.0991, 39.73199
530.5812, 39.43593
531.0633, 39.01631
531.5454, 38.65479
532.0275, 38.49926
532.5096, 38.51714
532.9918, 38.48528
533.4739, 38.26342
533.9560, 38.17774
534.4381, 38.48845
534.9202, 38.86553
535.4023, 38.89360
535.8845, 38.53064
536.3666, 38.11420
536.8487, 38.02211
537.3308, 38.25248
537.8129, 38.12787
538.2951, 37.17318
538.7772, 36.48711
539.2593, 36.41791
539.7415, 36.67535
540.2236, 36.99734
540.7057, 37.30821
541.1878, 37.57276
541.6699, 37.76458
542.1520, 37.88186
542.6342, 37.90047
543.1163, 37.78889
543.5984, 37.64976
544.0805, 37.51480
544.5626, 37.40538
545.0447, 37.37524
545.5269, 37.47898
546.0090, 37.57233
546.4911, 37.54218
546.9732, 37.44984
547.4553, 37.40523
547.9374, 37.43181
548.4196, 37.52825
548.9017, 37.72062
549.3838, 38.01503
549.8659, 38.13343
550.3480, 38.00270
550.8301, 37.81804
551.3123, 37.56632
551.7944, 37.32026
552.2765, 37.16127
552.7586, 37.11151
553.2407, 37.14137
553.7228, 37.22556
554.2050, 37.36674
554.6871, 37.51006
555.1692, 37.62091
555.6513, 37.78643
556.1334, 38.12919
556.6155, 38.50031
557.0977, 38.68270
557.5798, 38.59888
558.0619, 38.47857
558.5440, 38.59637
559.0261, 38.85855
559.5082, 38.86919
559.9904, 38.51831
560.4725, 38.17075
560.9546, 38.12165
561.4367, 38.32080
561.9188, 38.45494
562.4009, 38.36342
562.8831, 38.40520
563.3652, 38.84027
563.8473, 39.43713
564.3294, 39.87666
564.8115, 40.09360
565.2936, 40.22085
565.7758, 40.39204
566.2579, 40.60821
566.7400, 40.74590
567.2221, 40.59072
567.7042, 40.62263
568.1863, 41.16558
568.6685, 41.79707
569.1506, 42.04044
569.6327, 41.81515
570.1148, 41.48151
570.5969, 41.43990
571.0790, 41.61877
571.5612, 41.51328
572.0433, 40.98661
572.5254, 40.55535
573.0075, 40.57655
573.4896, 40.81611
573.9717, 40.94102
574.4539, 40.92756
574.9360, 40.79496
575.4181, 40.41455
575.9002, 39.98380
576.3823, 39.83460
576.8644, 39.97770
577.3466, 40.09375
577.8287, 39.93180
578.3108, 39.57563
578.7929, 39.43856
579.2750, 39.74436
579.7571, 39.98198
580.2393, 40.12214
580.7214, 40.18737
581.2035, 40.15450
581.6856, 40.05401
582.1677, 39.99041
582.6498, 40.06279
583.1320, 40.21024
583.6141, 40.20869
584.0962, 40.01450
584.5783, 39.82197
585.0604, 39.73153
585.5425, 39.62243
586.0247, 39.34769
586.5068, 38.92304
586.9889, 38.58277
587.4710, 38.52383
587.9531, 38.53959
588.4352, 38.37460
588.9174, 38.05258
589.3995, 37.73214
589.8816, 37.47621
