##NAMES=Priderite
##RRUFFID=R060437
##IDEAL CHEMISTRY=K(Ti^4+^_7_Fe^3+^)O_16_
##LOCALITY=Walgridee Hills Intrusion, Western Australia, Australia
##OWNER=RRUFF
##SOURCE=Michael Scott
##DESCRIPTION=Dark brown cleavage fragment
##STATUS=The identification of this mineral is confirmed by single-crystal X-ray diffraction and chemical analysis.
##URL=rruff.info/R060437
##MEASURED CHEMISTRY=K_0.97_Ba_0.34_(Ti^4+^_6.71_Fe^3+^_1.01_Cr^3+^_0.01_Mg_0.22_)_Î£=8.04_O_16_
170.1024, 189.6764
170.5845, 190.0804
171.0666, 191.1739
171.5487, 191.6042
172.0309, 191.4184
172.5130, 191.1124
172.9951, 190.8638
173.4772, 190.7432
173.9593, 190.8641
174.4414, 191.8113
174.9236, 192.7331
175.4057, 192.5895
175.8878, 191.3761
176.3699, 189.8284
176.8520, 188.3130
177.3341, 186.8997
177.8163, 185.7450
178.2984, 185.0636
178.7805, 184.6269
179.2626, 183.9798
179.7447, 183.0809
180.2268, 182.4446
180.7090, 183.2724
181.1911, 184.9563
181.6732, 185.5811
182.1553, 183.2734
182.6374, 179.4428
183.1195, 177.2555
183.6017, 176.9160
184.0838, 177.2764
184.5659, 176.8388
185.0480, 175.8238
185.5301, 175.3478
186.0123, 176.5006
186.4944, 178.6623
186.9765, 179.8828
187.4586, 180.0808
187.9407, 179.4565
188.4228, 177.8794
188.9050, 175.4644
189.3871, 173.3714
189.8692, 172.1939
190.3513, 171.8481
190.8334, 172.0422
191.3155, 172.8820
191.7977, 173.9436
192.2798, 174.6138
192.7619, 174.8972
193.2440, 174.9200
193.7261, 174.5760
194.2082, 173.9233
194.6904, 173.7399
195.1725, 174.2605
195.6546, 174.8929
196.1367, 174.4192
196.6188, 172.7746
197.1009, 170.9346
197.5831, 169.1740
198.0652, 167.4773
198.5473, 166.7220
199.0294, 167.1427
199.5115, 168.2479
199.9937, 169.0788
200.4758, 169.5947
200.9579, 170.0286
201.4400, 170.4631
201.9221, 170.8893
202.4042, 171.4982
202.8864, 172.4951
203.3685, 173.4851
203.8506, 173.2492
204.3327, 171.4115
204.8148, 169.8765
205.2969, 170.1614
205.7791, 172.7429
206.2612, 173.4687
206.7433, 171.4566
207.2254, 167.9493
207.7075, 166.1653
208.1896, 166.4541
208.6718, 167.4308
209.1539, 168.5938
209.6360, 170.1344
210.1181, 170.7398
210.6002, 169.9340
211.0823, 168.3790
211.5645, 167.9818
212.0466, 169.0221
212.5287, 170.5672
213.0108, 172.3660
213.4929, 174.7947
213.9750, 175.9112
214.4572, 174.9343
214.9393, 172.8527
215.4214, 172.8445
215.9035, 175.9415
216.3856, 179.0146
216.8678, 180.0741
217.3499, 178.1866
217.8320, 177.4671
218.3141, 178.5534
218.7962, 180.7915
219.2783, 182.1065
219.7605, 182.1591
220.2426, 181.8753
220.7247, 181.5550
221.2068, 180.7741
221.6889, 181.2691
222.1710, 183.7303
222.6532, 187.3706
223.1353, 189.5378
223.6174, 189.5191
224.0995, 189.2646
224.5816, 189.6861
225.0637, 190.8074
225.5459, 192.6933
226.0280, 196.0111
226.5101, 199.9587
226.9922, 201.7784
227.4743, 200.2258
227.9564, 198.5356
228.4386, 198.3048
228.9207, 200.1412
229.4028, 201.9881
229.8849, 203.9267
230.3670, 205.8271
230.8492, 207.3737
231.3313, 208.4665
231.8134, 209.3353
232.2955, 210.0990
232.7776, 210.7924
233.2597, 211.2313
233.7419, 211.1275
234.2240, 210.8546
234.7061, 211.4153
235.1882, 213.1114
235.6703, 215.1781
236.1524, 217.4128
236.6346, 220.1783
237.1167, 222.2124
237.5988, 223.1596
238.0809, 223.5134
238.5630, 224.4924
239.0451, 226.5388
239.5273, 228.5322
240.0094, 230.0271
240.4915, 230.9248
240.9736, 231.5450
241.4557, 231.7378
241.9378, 231.7166
242.4200, 231.9102
242.9021, 232.3037
243.3842, 232.9419
243.8663, 234.0301
244.3484, 236.1405
244.8306, 236.8816
245.3127, 235.5119
245.7948, 233.1624
246.2769, 231.8639
246.7590, 231.7182
247.2411, 232.4776
247.7233, 234.2778
248.2054, 237.5805
248.6875, 240.2263
249.1696, 242.1286
249.6517, 243.4173
250.1338, 244.2492
250.6160, 244.5076
251.0981, 244.5255
251.5802, 244.4141
252.0623, 244.2028
252.5444, 243.6419
253.0265, 242.3497
253.5087, 241.0272
253.9908, 240.8054
254.4729, 242.3130
254.9550, 243.6412
255.4371, 244.2150
255.9192, 243.9322
256.4014, 243.6421
256.8835, 243.1357
257.3656, 242.8298
257.8477, 243.3149
258.3298, 244.9897
258.8120, 246.5796
259.2941, 247.8727
259.7762, 248.8877
260.2583, 249.1946
260.7404, 248.3741
261.2225, 247.3619
261.7047, 247.1529
262.1868, 247.9380
262.6689, 249.0361
263.1510, 250.4110
263.6331, 252.0364
264.1152, 253.5483
264.5974, 255.1388
265.0795, 256.2977
265.5616, 256.2618
266.0437, 254.4554
266.5258, 253.4189
267.0079, 253.9028
267.4901, 255.6752
267.9722, 256.5119
268.4543, 256.0842
268.9364, 255.4106
269.4185, 255.3961
269.9006, 256.2543
270.3828, 256.8123
270.8649, 256.7206
271.3470, 256.2101
271.8291, 256.5479
272.3112, 258.1046
272.7933, 259.5305
273.2755, 259.6750
273.7576, 258.3131
274.2397, 257.1739
274.7218, 256.3682
275.2039, 255.9643
275.6860, 256.3841
276.1682, 257.8845
276.6503, 259.2567
277.1324, 259.5763
277.6145, 258.7387
278.0966, 258.3753
278.5787, 258.8433
279.0609, 259.5971
279.5430, 259.1834
280.0251, 257.3775
280.5072, 255.8539
280.9893, 255.6575
281.4715, 256.7845
281.9536, 257.9953
282.4357, 259.4364
282.9178, 260.5612
283.3999, 260.1224
283.8820, 258.0234
284.3642, 256.0147
284.8463, 255.0069
285.3284, 254.8998
285.8105, 254.6876
286.2926, 254.3948
286.7747, 253.8667
287.2569, 252.7450
287.7390, 251.0515
288.2211, 249.4471
288.7032, 248.2490
289.1853, 247.3670
289.6674, 246.5129
290.1496, 245.7436
290.6317, 244.6367
291.1138, 242.2019
291.5959, 238.7153
292.0780, 236.1930
292.5602, 235.6905
293.0423, 236.4339
293.5244, 236.4989
294.0065, 235.8696
294.4886, 234.9474
294.9707, 233.8315
295.4529, 232.6585
295.9350, 231.9919
296.4171, 232.2169
296.8992, 232.7878
297.3813, 232.6490
297.8634, 231.8598
298.3456, 231.0749
298.8277, 230.9298
299.3098, 231.1540
299.7919, 231.0466
300.2740, 230.1876
300.7561, 229.4398
301.2383, 230.1197
301.7204, 232.0028
302.2025, 234.0313
302.6846, 235.8688
303.1667, 237.3473
303.6488, 237.9833
304.1310, 237.3370
304.6131, 236.9723
305.0952, 239.1599
305.5773, 242.9884
306.0594, 245.9835
306.5415, 245.6243
307.0237, 244.3879
307.5058, 245.1260
307.9879, 248.3249
308.4700, 251.9400
308.9521, 254.7698
309.4343, 256.9195
309.9164, 258.6512
310.3985, 258.7502
310.8806, 259.3946
311.3627, 263.0028
311.8448, 269.7455
312.3270, 275.7455
312.8091, 277.7414
313.2912, 277.9994
313.7733, 279.1963
314.2554, 282.7007
314.7375, 287.0191
315.2197, 291.3391
315.7018, 295.7539
316.1839, 300.7916
316.6660, 307.9096
317.1481, 315.1524
317.6302, 320.7706
318.1124, 322.6867
318.5945, 325.0468
319.0766, 329.6877
319.5587, 336.0061
320.0408, 341.9663
320.5229, 346.2901
321.0051, 350.5282
321.4872, 355.7085
321.9693, 362.9203
322.4514, 369.2076
322.9335, 372.5251
323.4156, 374.6245
323.8978, 378.8820
324.3799, 388.2254
324.8620, 397.7791
325.3441, 405.4949
325.8262, 410.0147
326.3083, 416.3043
326.7905, 426.8130
327.2726, 438.6583
327.7547, 448.1553
328.2368, 452.2260
328.7189, 457.1094
329.2010, 464.3533
329.6832, 474.1727
330.1653, 483.2326
330.6474, 491.1146
331.1295, 498.5298
331.6116, 506.1620
332.0938, 514.4002
332.5759, 522.2906
333.0580, 529.8422
333.5401, 537.0187
334.0222, 542.9928
334.5043, 547.4694
334.9865, 551.2206
335.4686, 554.5941
335.9507, 557.2167
336.4328, 560.5974
336.9149, 565.2825
337.3970, 570.6041
337.8792, 574.5434
338.3613, 576.8165
338.8434, 578.6912
339.3255, 580.9778
339.8076, 583.9232
340.2898, 585.2454
340.7719, 584.4899
341.2540, 582.9342
341.7361, 582.6813
342.2182, 583.9359
342.7003, 584.5992
343.1825, 583.6750
343.6646, 581.4504
344.1467, 580.0016
344.6288, 579.4450
345.1109, 579.0012
345.5930, 577.6625
346.0752, 575.5584
346.5573, 573.9691
347.0394, 573.5637
347.5215, 573.5247
348.0036, 571.7623
348.4857, 568.3135
348.9679, 564.6935
349.4500, 562.3734
349.9321, 560.7565
350.4142, 557.9027
350.8963, 553.0956
351.3784, 548.0239
351.8606, 545.2568
352.3427, 544.2836
352.8248, 543.1555
353.3069, 540.4827
353.7890, 537.1420
354.2711, 534.4181
354.7533, 532.5089
355.2354, 530.4255
355.7175, 527.1584
356.1996, 523.1790
356.6817, 519.3075
357.1638, 516.0559
357.6460, 512.9227
358.1281, 509.4354
358.6102, 505.6343
359.0923, 501.8801
359.5744, 498.5099
360.0565, 495.2648
360.5387, 491.8985
361.0208, 488.3684
361.5029, 484.6595
361.9850, 480.6391
362.4671, 476.4250
362.9492, 472.4322
363.4314, 468.7971
363.9135, 465.4286
364.3956, 462.3163
364.8777, 459.5635
365.3598, 456.7874
365.8419, 454.3708
366.3241, 451.7880
366.8062, 448.2586
367.2883, 441.9905
367.7704, 436.3867
368.2526, 432.7595
368.7347, 431.6478
369.2168, 429.4261
369.6989, 424.9400
370.1810, 419.9927
370.6631, 416.0799
371.1453, 414.5567
371.6274, 411.9995
372.1095, 407.4249
372.5916, 401.2525
373.0737, 396.5319
373.5558, 394.0200
374.0380, 391.7730
374.5201, 388.6100
375.0022, 384.1743
375.4843, 380.0700
375.9664, 376.2592
376.4485, 372.8849
376.9307, 370.3284
377.4128, 368.8491
377.8949, 367.1750
378.3770, 364.7651
378.8591, 361.6651
379.3412, 358.4778
379.8234, 355.1822
380.3055, 351.9661
380.7876, 349.1227
381.2697, 346.6154
381.7518, 344.2312
382.2339, 341.9823
382.7161, 339.7780
383.1982, 337.3646
383.6803, 334.7662
384.1624, 332.0347
384.6445, 328.9781
385.1266, 325.8476
385.6088, 323.3849
386.0909, 321.8752
386.5730, 320.5243
387.0551, 318.1662
387.5372, 315.1956
388.0193, 312.7010
388.5015, 311.8257
388.9836, 311.4344
389.4657, 310.2692
389.9478, 308.2445
390.4299, 306.0458
390.9120, 303.9256
391.3942, 301.9622
391.8763, 300.2846
392.3584, 298.9478
392.8405, 297.8930
393.3226, 297.4678
393.8047, 297.4411
394.2869, 296.7526
394.7690, 294.1591
395.2511, 291.3434
395.7332, 289.3725
396.2154, 288.7495
396.6975, 288.2764
397.1796, 288.1227
397.6617, 287.8900
398.1438, 286.9071
398.6259, 283.6754
399.1081, 281.0482
399.5902, 280.1854
400.0723, 281.4907
400.5544, 281.7189
401.0365, 279.9869
401.5186, 277.8224
402.0008, 276.6140
402.4829, 277.5182
402.9650, 277.0549
403.4471, 274.0358
403.9292, 269.3560
404.4113, 267.1509
404.8935, 268.5247
405.3756, 269.7989
405.8577, 268.6270
406.3398, 264.4713
406.8219, 262.1817
407.3040, 262.2714
407.7862, 263.3517
408.2683, 263.5435
408.7504, 262.8390
409.2325, 261.6253
409.7146, 259.7668
410.1967, 257.5739
410.6789, 255.8321
411.1610, 254.5340
411.6431, 253.9100
412.1252, 254.9858
412.6073, 256.9601
413.0894, 257.2531
413.5716, 254.7763
414.0537, 251.7566
414.5358, 251.1829
415.0179, 252.4326
415.5000, 253.4572
415.9821, 252.7514
416.4643, 251.4514
416.9464, 250.8225
417.4285, 251.0062
417.9106, 251.0766
418.3927, 250.0421
418.8748, 248.6788
419.3570, 247.9273
419.8391, 248.9358
420.3212, 249.8027
420.8033, 249.8008
421.2854, 248.9992
421.7675, 247.7468
422.2497, 244.8138
422.7318, 242.4587
423.2139, 242.1406
423.6960, 245.3513
424.1781, 247.6790
424.6602, 248.1271
425.1424, 247.5637
425.6245, 247.2466
426.1066, 247.5233
426.5887, 247.6212
427.0709, 247.2359
427.5530, 246.3666
428.0351, 246.0056
428.5172, 246.2900
428.9993, 246.8856
429.4814, 247.6207
429.9636, 248.5863
430.4457, 249.3369
430.9278, 249.8403
431.4099, 250.1032
431.8920, 250.1031
432.3741, 249.8179
432.8563, 249.4379
433.3384, 249.1342
433.8205, 248.8404
434.3026, 247.8592
434.7847, 246.0558
435.2668, 244.5904
435.7490, 244.9018
436.2311, 246.5949
436.7132, 248.2618
437.1953, 249.5177
437.6774, 250.6040
438.1595, 252.1467
438.6417, 253.9275
439.1238, 255.0415
439.6059, 254.0976
440.0880, 252.6437
440.5701, 252.4993
441.0522, 254.0396
441.5344, 255.6337
442.0165, 256.3145
442.4986, 256.4413
442.9807, 256.4467
443.4628, 256.0878
443.9449, 256.0114
444.4271, 256.6125
444.9092, 257.7794
445.3913, 258.8771
445.8734, 259.6313
446.3555, 260.3416
446.8376, 261.1285
447.3198, 261.8993
447.8019, 262.9688
448.2840, 264.8008
448.7661, 266.7300
449.2482, 267.8048
449.7303, 267.6504
450.2125, 267.2379
450.6946, 266.6017
451.1767, 265.7923
451.6588, 265.5345
452.1409, 265.8158
452.6230, 266.6718
453.1052, 268.5365
453.5873, 271.6001
454.0694, 273.1096
454.5515, 272.4489
455.0337, 270.9922
455.5158, 271.2541
455.9979, 273.1045
456.4800, 274.5782
456.9621, 274.2796
457.4442, 273.1957
457.9264, 273.9088
458.4085, 276.3537
458.8906, 278.9326
459.3727, 280.4505
459.8548, 281.2097
460.3369, 281.6074
460.8191, 281.6332
461.3012, 281.5693
461.7833, 281.2619
462.2654, 281.0448
462.7475, 281.6059
463.2296, 284.3450
463.7118, 287.0482
464.1939, 288.0651
464.6760, 287.2782
465.1581, 287.3751
465.6402, 290.4545
466.1223, 293.9523
466.6045, 296.0243
467.0866, 295.1691
467.5687, 294.4121
468.0508, 293.5004
468.5329, 292.8296
469.0150, 293.4189
469.4972, 296.5041
469.9793, 298.9275
470.4614, 299.2594
470.9435, 297.3083
471.4256, 297.4088
471.9077, 300.3342
472.3899, 303.7779
472.8720, 305.6399
473.3541, 305.8164
473.8362, 305.8485
474.3183, 305.8570
474.8004, 305.9789
475.2826, 306.5606
475.7647, 307.5732
476.2468, 308.6180
476.7289, 309.3253
477.2110, 309.9540
477.6931, 311.3270
478.1753, 313.4478
478.6574, 315.2031
479.1395, 314.8256
479.6216, 313.7318
480.1037, 314.1918
480.5858, 317.6323
481.0680, 321.1754
481.5501, 322.8469
482.0322, 323.1854
482.5143, 323.2863
482.9964, 323.2879
483.4786, 323.4085
483.9607, 323.6420
484.4428, 323.9627
484.9249, 324.8675
485.4070, 327.0895
485.8892, 329.5259
486.3713, 331.3956
486.8534, 332.4260
487.3355, 333.2521
487.8176, 333.8658
488.2997, 334.2874
488.7819, 334.5225
489.2640, 334.4066
489.7461, 334.4611
490.2282, 334.7874
490.7103, 335.3987
491.1924, 336.6089
491.6746, 338.5328
492.1567, 340.5956
492.6388, 342.3297
493.1209, 343.7665
493.6030, 344.9430
494.0851, 345.8023
494.5673, 346.6245
495.0494, 347.9908
495.5315, 349.7126
496.0136, 351.0607
496.4957, 351.1243
496.9778, 350.9883
497.4600, 352.2000
497.9421, 354.5985
498.4242, 356.5912
498.9063, 356.8714
499.3884, 356.5444
499.8705, 356.5435
500.3527, 357.0696
500.8348, 357.8842
501.3169, 359.1538
501.7990, 360.5834
502.2811, 361.7665
502.7632, 362.4912
503.2454, 363.1006
503.7275, 363.6906
504.2096, 364.2509
504.6917, 364.6549
505.1738, 364.8546
505.6559, 364.9662
506.1381, 364.9640
506.6202, 364.6893
507.1023, 365.1661
507.5844, 366.8608
508.0665, 368.4794
508.5486, 367.4586
509.0308, 363.6909
509.5129, 362.1931
509.9950, 365.1380
510.4771, 370.2375
510.9592, 372.4687
511.4413, 372.0550
511.9235, 371.3312
512.4056, 372.1303
512.8877, 373.4048
513.3698, 373.3510
513.8519, 371.7425
514.3340, 370.2210
514.8162, 370.5091
515.2983, 371.3832
515.7804, 371.3297
516.2625, 368.8712
516.7446, 366.7255
517.2267, 366.2414
517.7089, 366.9007
518.1910, 367.4383
518.6731, 367.3131
519.1552, 367.2905
519.6373, 367.9174
520.1194, 369.3750
520.6016, 369.6434
521.0837, 368.1418
521.5658, 366.0948
522.0479, 364.2826
522.5300, 362.6631
523.0121, 361.4496
523.4943, 360.6007
523.9764, 360.2325
524.4585, 360.9187
524.9406, 362.6849
525.4227, 363.7696
525.9048, 363.0956
526.3870, 361.5232
526.8691, 361.4738
527.3513, 362.8383
527.8334, 363.9492
528.3155, 363.4051
528.7976, 361.9396
529.2797, 360.5014
529.7618, 359.1499
530.2440, 358.1479
530.7261, 357.8821
531.2082, 358.0174
531.6903, 358.1302
532.1724, 358.4661
532.6545, 358.3503
533.1367, 357.0986
533.6188, 355.1320
534.1009, 353.9083
534.5830, 354.1292
535.0651, 354.6846
535.5472, 355.3081
536.0294, 356.0567
536.5115, 356.5538
536.9936, 356.9751
537.4757, 356.9049
537.9578, 355.7479
538.4399, 353.2079
538.9221, 351.3692
539.4042, 350.3995
539.8863, 350.2591
540.3684, 351.4964
540.8505, 353.9208
541.3326, 355.1964
541.8148, 353.5684
542.2969, 350.6940
542.7790, 349.7516
543.2611, 350.5069
543.7432, 351.0474
544.2253, 349.1630
544.7075, 346.8926
545.1896, 346.6693
545.6717, 349.2197
546.1538, 351.5410
546.6359, 352.0869
547.1180, 351.6724
547.6002, 351.1525
548.0823, 349.7261
548.5644, 349.3602
549.0465, 351.2296
549.5286, 354.4536
550.0107, 356.4314
550.4929, 356.2715
550.9750, 356.2073
551.4571, 357.0624
551.9392, 358.8462
552.4213, 359.9489
552.9034, 360.1587
553.3856, 360.3649
553.8677, 361.2702
554.3498, 362.8394
554.8319, 364.7759
555.3140, 367.1674
555.7961, 369.4915
556.2783, 370.7823
556.7604, 371.4122
557.2425, 372.4418
557.7246, 374.6162
558.2067, 377.0016
558.6888, 378.3575
559.1710, 379.0737
559.6531, 380.4605
560.1352, 384.1575
560.6173, 387.9176
561.0994, 390.1734
561.5815, 390.6024
562.0637, 391.4165
562.5458, 393.0043
563.0279, 395.1640
563.5100, 397.7528
563.9921, 400.8901
564.4742, 404.2989
564.9564, 408.1822
565.4385, 412.1505
565.9206, 415.3506
566.4027, 417.4893
566.8848, 420.2375
567.3669, 424.3307
567.8491, 429.2111
568.3312, 432.7356
568.8133, 434.9469
569.2954, 437.3896
569.7775, 441.5021
570.2596, 446.3779
570.7418, 450.0591
571.2239, 452.4265
571.7060, 454.9175
572.1881, 458.6529
572.6702, 463.0887
573.1523, 467.8257
573.6345, 473.5067
574.1166, 478.0368
574.5987, 479.2480
575.0808, 479.0331
575.5629, 480.5700
576.0450, 486.3504
576.5272, 491.6750
577.0093, 495.6395
577.4914, 498.3678
577.9735, 500.5793
578.4556, 501.6855
578.9377, 503.4743
579.4199, 507.3924
579.9020, 513.4626
580.3841, 517.4650
580.8662, 519.0959
581.3483, 520.2733
581.8304, 522.9700
582.3126, 526.7988
582.7947, 530.4857
583.2768, 533.8879
583.7589, 536.8074
584.2410, 538.2735
584.7231, 539.1570
585.2053, 541.1838
585.6874, 546.2505
586.1696, 551.5534
586.6517, 555.6452
587.1338, 558.6827
587.6159, 561.4717
588.0980, 563.5426
588.5801, 565.9869
589.0623, 569.5706
589.5444, 574.6134
590.0265, 578.4960
590.5086, 580.5159
590.9907, 582.2793
591.4728, 585.0859
591.9550, 589.0798
592.4371, 593.1474
592.9192, 597.2308
593.4013, 601.2556
593.8834, 605.1367
594.3655, 608.8683
594.8477, 612.3430
595.3298, 615.3649
595.8119, 618.2795
596.2940, 621.3592
596.7761, 624.6585
597.2582, 628.4528
597.7404, 633.5159
598.2225, 638.6205
598.7046, 642.8018
599.1867, 645.9887
599.6688, 649.2306
600.1509, 653.2297
600.6331, 657.1225
601.1152, 660.3127
601.5973, 662.6201
602.0794, 664.6193
602.5615, 665.8873
603.0436, 667.2357
603.5258, 669.8899
604.0079, 674.3209
604.4900, 677.3818
604.9721, 678.2004
605.4542, 677.9211
605.9363, 678.9875
606.4185, 681.2186
606.9006, 683.0228
607.3827, 683.4100
607.8648, 683.0997
608.3469, 683.1078
608.8290, 683.3641
609.3112, 683.4641
609.7933, 683.6166
610.2754, 683.2014
610.7575, 681.4526
611.2396, 678.1082
611.7217, 675.0978
612.2039, 673.9919
612.6860, 672.7865
613.1681, 669.8240
613.6502, 663.2586
614.1323, 658.2459
614.6144, 655.8204
615.0966, 654.1443
615.5787, 650.3951
616.0608, 644.3383
616.5429, 637.6712
617.0250, 630.4434
617.5071, 623.2516
617.9893, 618.2188
618.4714, 614.9899
618.9535, 610.9813
619.4356, 604.2756
619.9177, 596.2482
620.3998, 588.4141
620.8820, 580.8021
621.3641, 573.4210
621.8462, 566.0919
622.3283, 558.9994
622.8104, 552.2811
623.2925, 545.8476
623.7747, 540.0152
624.2568, 535.8133
624.7389, 531.6035
625.2210, 525.9483
625.7031, 517.6564
626.1852, 510.5858
626.6674, 505.4213
627.1495, 501.0971
627.6316, 495.8933
628.1137, 489.7776
628.5958, 483.5977
629.0779, 477.5747
629.5601, 471.6632
630.0422, 465.5180
630.5243, 459.3440
631.0064, 453.8312
631.4885, 449.3407
631.9706, 445.7275
632.4528, 443.3825
632.9349, 442.1530
633.4170, 440.1824
633.8991, 436.2638
634.3812, 431.6608
634.8633, 426.8192
635.3455, 421.3024
635.8276, 417.3821
636.3097, 416.0076
636.7918, 415.3942
637.2739, 414.0994
637.7560, 412.0373
638.2382, 409.5411
638.7203, 406.4231
639.2024, 403.3077
639.6845, 401.0805
640.1666, 399.6893
640.6487, 398.8282
641.1309, 398.4854
641.6130, 398.4775
642.0951, 398.9595
642.5772, 399.6190
643.0594, 399.5584
643.5415, 397.1714
644.0236, 394.9533
644.5057, 394.7462
644.9879, 396.3490
645.4700, 397.4253
645.9521, 397.3323
646.4342, 396.6817
646.9163, 395.5068
647.3984, 393.5424
647.8806, 392.9882
648.3627, 394.3939
648.8448, 396.1947
649.3269, 397.0113
649.8090, 396.8508
650.2911, 397.3346
650.7733, 398.6736
651.2554, 400.3174
651.7375, 401.7076
652.2196, 402.9005
652.7017, 404.0277
653.1838, 405.0604
653.6660, 406.1553
654.1481, 407.5174
654.6302, 408.9987
655.1123, 410.3631
655.5944, 411.3971
656.0765, 412.4119
656.5587, 413.4118
657.0408, 414.4357
657.5229, 415.6815
658.0050, 417.0697
658.4871, 418.7900
658.9692, 421.1049
659.4514, 423.9002
659.9335, 425.8793
660.4156, 426.9834
660.8977, 427.7156
661.3798, 428.2200
661.8619, 428.6369
662.3441, 429.3877
662.8262, 430.5045
663.3083, 431.7411
663.7904, 432.9160
664.2725, 434.1038
664.7546, 435.4033
665.2368, 436.8967
