##NAMES=Priderite
##RRUFFID=R130169
##IDEAL CHEMISTRY=K(Ti^4+^_7_Fe^3+^)O_16_
##LOCALITY=Vounnemiok River, Kola Peninsula, Russia
##OWNER=RRUFF
##SOURCE=Rock Currier
##DESCRIPTION=Black prismatic crystals and massive in quartz
##STATUS=The identification of this mineral is confirmed by single-crystal X-ray diffraction and chemical analysis.
##URL=rruff.info/R130169
##MEASURED CHEMISTRY=K_1.40_Ba_0.01_(Ti^4+^_7.13_Fe^3+^_0.68_)O_16_
89.84375, 276.4352
90.32587, 278.7659
90.80798, 279.1917
91.29010, 276.8820
91.77222, 273.6343
92.25433, 271.9001
92.73645, 271.5229
93.21857, 270.8794
93.70068, 268.3960
94.18280, 264.4958
94.66492, 260.5565
95.14703, 256.9327
95.62915, 253.6073
96.11127, 250.3935
96.59338, 247.2888
97.07550, 244.4113
97.55762, 241.8765
98.03973, 239.6769
98.52185, 237.7520
99.00397, 236.1067
99.48608, 234.7393
99.96820, 233.6299
100.4503, 233.1018
100.9324, 232.4389
101.4146, 229.8244
101.8967, 224.5225
102.3788, 219.3047
102.8609, 215.5993
103.3430, 213.7942
103.8251, 212.4189
104.3073, 211.6459
104.7894, 211.2770
105.2715, 210.2554
105.7536, 208.2737
106.2357, 205.9693
106.7178, 203.7251
107.2000, 201.4282
107.6821, 199.3933
108.1642, 197.8792
108.6463, 196.9654
109.1284, 195.4667
109.6105, 193.1884
110.0927, 190.4022
110.5748, 187.3871
111.0569, 183.0283
111.5390, 179.4925
112.0211, 177.5807
112.5032, 177.8754
112.9854, 177.7192
113.4675, 176.7076
113.9496, 175.0525
114.4317, 173.0398
114.9138, 169.5741
115.3959, 166.6388
115.8781, 165.4564
116.3602, 167.4588
116.8423, 168.5581
117.3244, 166.7552
117.8065, 162.8967
118.2886, 159.1381
118.7708, 156.0044
119.2529, 153.5182
119.7350, 151.7785
120.2171, 151.1679
120.6992, 150.8709
121.1813, 150.6626
121.6635, 150.4578
122.1456, 149.7781
122.6277, 147.7224
123.1098, 145.1511
123.5919, 143.2166
124.0740, 143.1082
124.5562, 143.3408
125.0383, 142.1039
125.5204, 139.4032
126.0025, 136.6918
126.4846, 135.3843
126.9667, 135.0641
127.4489, 134.6896
127.9310, 133.6446
128.4131, 132.2685
128.8952, 131.2897
129.3773, 130.7883
129.8594, 130.3735
130.3416, 129.4856
130.8237, 128.1935
131.3058, 126.9394
131.7879, 126.0383
132.2700, 125.4037
132.7521, 124.5732
133.2343, 123.4316
133.7164, 122.2184
134.1985, 121.4303
134.6806, 121.1057
135.1627, 120.6933
135.6448, 119.7664
136.1270, 118.3130
136.6091, 116.9314
137.0912, 115.6150
137.5733, 114.4619
138.0554, 113.9299
138.5375, 114.3159
139.0197, 114.4492
139.5018, 113.0606
139.9839, 109.5868
140.4660, 107.1767
140.9481, 106.7133
141.4302, 108.0032
141.9124, 108.4186
142.3945, 107.7060
142.8766, 106.4755
143.3587, 105.2354
143.8408, 103.7989
144.3229, 102.7779
144.8051, 102.4956
145.2872, 103.1287
145.7693, 103.0878
146.2514, 101.9164
146.7335, 100.3584
147.2156, 99.37390
147.6978, 99.57632
148.1799, 99.60802
148.6620, 99.08749
149.1441, 97.79219
149.6262, 96.55185
150.1083, 95.23620
150.5905, 94.01232
151.0726, 93.17491
151.5547, 93.23682
152.0368, 93.24986
152.5189, 92.91992
153.0010, 92.06923
153.4832, 91.17307
153.9653, 90.06198
154.4474, 88.91358
154.9295, 88.15440
155.4116, 88.35799
155.8937, 88.58480
156.3759, 88.39598
156.8580, 87.37496
157.3401, 86.41586
157.8222, 85.65042
158.3043, 85.06974
158.7864, 84.64071
159.2686, 84.45351
159.7507, 84.35748
160.2328, 84.25788
160.7149, 84.22331
161.1970, 84.09074
161.6791, 83.72494
162.1613, 83.17280
162.6434, 82.70914
163.1255, 82.62382
163.6076, 82.60481
164.0897, 82.37418
164.5718, 81.56463
165.0540, 80.75224
165.5361, 80.23142
166.0182, 79.99557
166.5003, 79.85225
166.9824, 79.91955
167.4645, 79.95879
167.9467, 79.67722
168.4288, 78.66297
168.9109, 77.49350
169.3930, 76.62003
169.8751, 76.06737
170.3572, 75.47676
170.8394, 74.31734
171.3215, 72.96714
171.8036, 72.07879
172.2857, 72.41419
172.7678, 73.09003
173.2499, 73.13994
173.7321, 72.42610
174.2142, 71.68127
174.6963, 71.73669
175.1784, 72.25320
175.6605, 72.42757
176.1426, 71.59702
176.6248, 70.26793
177.1069, 69.03001
177.5890, 67.87720
178.0711, 67.05329
178.5532, 67.13529
179.0353, 67.86684
179.5175, 68.32653
179.9996, 67.71982
180.4817, 66.52798
180.9638, 65.69034
181.4459, 65.36752
181.9280, 65.27650
182.4102, 65.04897
182.8923, 64.71144
183.3744, 64.40437
183.8565, 64.11935
184.3386, 63.92612
184.8207, 64.11728
185.3029, 64.88264
185.7850, 65.76957
186.2671, 66.02102
186.7492, 65.65318
187.2313, 65.06961
187.7134, 64.43523
188.1956, 63.78209
188.6777, 63.29082
189.1598, 62.98462
189.6419, 62.85421
190.1240, 62.98566
190.6061, 63.39762
191.0883, 63.69770
191.5704, 63.51824
192.0525, 62.90496
192.5346, 62.30706
193.0167, 61.75448
193.4988, 61.25706
193.9810, 60.81720
194.4631, 60.40400
194.9452, 60.13317
195.4273, 59.91085
195.9094, 59.73436
196.3915, 59.42891
196.8737, 58.91825
197.3558, 58.27858
197.8379, 57.81813
198.3200, 57.59398
198.8021, 57.30395
199.2842, 56.57496
199.7664, 55.37083
200.2485, 54.43768
200.7306, 53.98483
201.2127, 53.91935
201.6948, 53.72195
202.1769, 53.37519
202.6591, 52.96150
203.1412, 52.54345
203.6233, 52.11109
204.1054, 51.70904
204.5875, 51.25597
205.0696, 50.80101
205.5518, 50.96503
206.0339, 51.98869
206.5160, 53.07938
206.9981, 53.30546
207.4802, 52.45027
207.9623, 51.76386
208.4445, 51.60482
208.9266, 51.94233
209.4087, 52.06418
209.8908, 51.94133
210.3729, 51.66502
210.8550, 51.26024
211.3372, 50.62200
211.8193, 50.24113
212.3014, 50.31707
212.7835, 50.84886
213.2656, 51.21314
213.7477, 51.42292
214.2299, 51.45229
214.7120, 51.22167
215.1941, 50.61061
215.6762, 50.07306
216.1583, 49.73402
216.6404, 49.60629
217.1226, 49.47116
217.6047, 49.35243
218.0868, 49.19825
218.5689, 48.91723
219.0510, 48.41660
219.5331, 48.00218
220.0153, 47.72984
220.4974, 47.59658
220.9795, 47.66587
221.4616, 48.08854
221.9437, 48.55827
222.4258, 48.65811
222.9080, 48.18080
223.3901, 47.78405
223.8722, 47.69449
224.3543, 47.96868
224.8364, 48.01770
225.3185, 47.69860
225.8007, 47.28636
226.2828, 47.13708
226.7649, 47.36497
227.2470, 47.63192
227.7291, 47.86842
228.2112, 48.08829
228.6934, 48.17473
229.1755, 48.02554
229.6576, 47.83149
230.1397, 47.88567
230.6218, 48.44838
231.1039, 48.77699
231.5861, 48.61101
232.0682, 47.85054
232.5503, 47.29917
233.0324, 47.04046
233.5145, 46.92188
233.9966, 46.72461
234.4788, 46.29058
234.9609, 46.07200
235.4430, 46.27159
235.9251, 46.99146
236.4072, 47.38979
236.8893, 47.28350
237.3715, 47.00686
237.8536, 47.01007
238.3357, 47.56586
238.8178, 47.91430
239.2999, 47.77307
239.7820, 47.03859
240.2642, 46.62339
240.7463, 46.67914
241.2284, 46.92396
241.7105, 47.00791
242.1926, 46.82285
242.6747, 46.67162
243.1569, 46.62974
243.6390, 46.70744
244.1211, 46.82412
244.6032, 47.06540
245.0853, 47.27140
245.5674, 47.21761
246.0496, 46.67034
246.5317, 46.30492
247.0138, 46.36095
247.4959, 46.90376
247.9780, 47.10335
248.4601, 46.80116
248.9423, 46.31870
249.4244, 46.00282
249.9065, 45.90291
250.3886, 45.87970
250.8707, 45.95466
251.3528, 46.14048
251.8350, 46.11707
252.3171, 45.77346
252.7992, 45.34242
253.2813, 45.06921
253.7634, 45.03503
254.2455, 44.98280
254.7277, 44.83363
255.2098, 44.58293
255.6919, 44.47246
256.1740, 44.56889
256.6561, 44.72010
257.1382, 44.77446
257.6204, 44.68388
258.1025, 44.61430
258.5846, 44.60714
259.0667, 44.65796
259.5488, 44.68040
260.0309, 44.69420
260.5131, 44.65149
260.9952, 44.46292
261.4773, 43.99672
261.9594, 43.77409
262.4415, 44.01044
262.9236, 44.63014
263.4058, 44.78909
263.8879, 44.31369
264.3700, 43.67640
264.8521, 43.20887
265.3342, 42.91255
265.8163, 42.81451
266.2985, 43.01465
266.7806, 43.42804
267.2627, 43.54628
267.7448, 43.27942
268.2269, 42.90269
268.7090, 42.61314
269.1912, 42.42913
269.6733, 42.23343
270.1554, 41.98893
270.6375, 41.72602
271.1196, 41.61401
271.6017, 41.72364
272.0839, 41.78792
272.5660, 41.56947
273.0481, 40.99848
273.5302, 40.61090
274.0123, 40.49825
274.4944, 40.57210
274.9766, 40.56744
275.4587, 40.46272
275.9408, 40.36525
276.4229, 40.37536
276.9050, 40.51143
277.3871, 40.50781
277.8693, 40.29424
278.3514, 39.99078
278.8335, 39.89375
279.3156, 40.03862
279.7977, 40.17511
280.2798, 40.16998
280.7620, 40.02295
281.2441, 39.80662
281.7262, 39.49863
282.2083, 39.16816
282.6904, 38.88749
283.1725, 38.64581
283.6547, 38.60120
284.1368, 38.99860
284.6189, 39.77175
285.1010, 40.10461
285.5831, 39.89557
286.0652, 39.48236
286.5474, 39.40210
287.0295, 39.64607
287.5116, 39.78502
287.9937, 39.55302
288.4758, 39.02415
288.9579, 38.62510
289.4401, 38.34780
289.9222, 38.21022
290.4043, 38.31577
290.8864, 38.63015
291.3685, 38.87468
291.8506, 38.89471
292.3328, 38.77144
292.8149, 38.76192
293.2970, 38.87561
293.7791, 38.98476
294.2612, 38.90351
294.7433, 38.68860
295.2255, 38.57316
295.7076, 38.69019
296.1897, 38.92348
296.6718, 39.05657
297.1539, 39.09034
297.6360, 39.06120
298.1182, 38.92939
298.6003, 38.75519
299.0824, 38.69639
299.5645, 38.84717
300.0466, 39.07729
300.5287, 39.20931
301.0109, 39.25127
301.4930, 39.26273
301.9751, 39.29301
302.4572, 39.32022
302.9393, 39.29049
303.4214, 39.14746
303.9036, 39.02703
304.3857, 39.06504
304.8678, 39.24695
305.3499, 39.52333
305.8320, 39.98394
306.3141, 40.47523
306.7963, 40.79697
307.2784, 40.89654
307.7605, 40.89396
308.2426, 40.83014
308.7247, 40.73619
309.2068, 40.68697
309.6890, 40.71079
310.1711, 40.80037
310.6532, 40.97145
311.1353, 41.24204
311.6174, 41.49784
312.0995, 41.66255
312.5817, 41.76108
313.0638, 41.83691
313.5459, 41.89637
314.0280, 41.94781
314.5101, 41.97785
314.9922, 41.98149
315.4744, 42.04023
315.9565, 42.23326
316.4386, 42.49080
316.9207, 42.73070
317.4028, 42.90904
317.8849, 43.08538
318.3671, 43.33104
318.8492, 43.63896
319.3313, 43.81531
319.8134, 43.57154
320.2955, 43.28625
320.7776, 43.26269
321.2598, 43.83758
321.7419, 44.38961
322.2240, 44.81424
322.7061, 45.10937
323.1882, 45.27197
323.6703, 45.13335
324.1525, 44.97683
324.6346, 44.96163
325.1167, 45.23891
325.5988, 45.47292
326.0809, 45.55072
326.5630, 45.55685
327.0452, 45.72362
327.5273, 46.36962
328.0094, 46.91332
328.4915, 47.11268
328.9736, 46.69984
329.4557, 46.53768
329.9379, 46.78357
330.4200, 47.23124
330.9021, 47.54686
331.3842, 47.65447
331.8663, 47.73188
332.3484, 47.80941
332.8306, 47.87409
333.3127, 48.01477
333.7948, 48.27181
334.2769, 48.56908
334.7590, 48.82944
335.2411, 49.07517
335.7233, 49.23952
336.2054, 49.30431
336.6875, 49.27272
337.1696, 49.18187
337.6517, 49.03318
338.1339, 48.82555
338.6160, 48.47759
339.0981, 47.88688
339.5802, 47.69567
340.0623, 48.13377
340.5444, 48.97311
341.0266, 49.42017
341.5087, 49.43843
341.9908, 49.27231
342.4729, 48.97607
342.9550, 48.55325
343.4371, 48.39383
343.9193, 48.59283
344.4014, 48.94799
344.8835, 49.07630
345.3656, 48.97961
345.8477, 48.89331
346.3298, 49.04532
346.8120, 49.33231
347.2941, 49.21147
347.7762, 48.60519
348.2583, 47.94390
348.7404, 47.79391
349.2225, 48.05206
349.7047, 48.27826
350.1868, 48.26693
350.6689, 48.13526
351.1510, 48.10542
351.6331, 48.17489
352.1152, 48.22293
352.5974, 48.14106
353.0795, 47.96729
353.5616, 47.76923
354.0437, 47.55278
354.5258, 47.33632
355.0079, 47.08384
355.4901, 46.82597
355.9722, 46.69261
356.4543, 46.96012
356.9364, 47.30066
357.4185, 47.34475
357.9006, 46.92832
358.3828, 46.47969
358.8649, 46.30493
359.3470, 46.28926
359.8291, 46.19828
360.3112, 45.74041
360.7933, 45.31858
361.2755, 45.24012
361.7576, 45.59433
362.2397, 45.83171
362.7218, 45.62243
363.2039, 45.22874
363.6860, 44.94340
364.1682, 45.02431
364.6503, 45.04622
365.1324, 44.83133
365.6145, 44.38763
366.0966, 44.00837
366.5787, 43.76069
367.0609, 43.58079
367.5430, 43.42785
368.0251, 43.36369
368.5072, 43.24781
368.9893, 43.01232
369.4714, 42.71023
369.9536, 42.52604
370.4357, 42.55947
370.9178, 42.60667
371.3999, 42.60586
371.8820, 42.60910
372.3641, 42.40868
372.8463, 41.85009
373.3284, 41.19168
373.8105, 40.84121
374.2926, 40.89848
374.7747, 41.04468
375.2568, 41.22440
375.7390, 41.43917
376.2211, 41.55924
376.7032, 41.60648
377.1853, 41.51390
377.6674, 41.12888
378.1495, 40.39505
378.6317, 39.87594
379.1138, 39.73082
379.5959, 39.83598
380.0780, 39.81877
380.5601, 39.67422
381.0422, 39.46227
381.5244, 39.16152
382.0065, 38.80507
382.4886, 38.63152
382.9707, 38.71599
383.4528, 38.83511
383.9349, 38.61428
384.4171, 38.11320
384.8992, 37.66152
385.3813, 37.40399
385.8634, 37.29895
386.3455, 37.29689
386.8276, 37.39980
387.3098, 37.52814
387.7919, 37.65065
388.2740, 37.74660
388.7561, 37.77714
389.2382, 37.68853
389.7203, 37.56971
390.2025, 37.49856
390.6846, 37.46471
391.1667, 37.41850
391.6488, 37.24231
392.1309, 37.09155
392.6130, 37.13517
393.0952, 37.54327
393.5773, 37.83911
394.0594, 37.70824
394.5415, 37.33529
395.0236, 37.06271
395.5057, 37.11092
395.9879, 37.17783
396.4700, 37.13853
396.9521, 36.96863
397.4342, 36.79548
397.9163, 36.52970
398.3984, 36.32164
398.8806, 36.30841
399.3627, 36.70503
399.8448, 37.06429
400.3269, 37.41084
400.8090, 37.71368
401.2911, 37.71510
401.7733, 37.17430
402.2554, 36.61723
402.7375, 36.32832
403.2196, 36.43139
403.7017, 36.48494
404.1838, 36.43843
404.6660, 36.37538
405.1481, 36.49455
405.6302, 36.87231
406.1123, 37.15189
406.5944, 37.17520
407.0765, 36.95559
407.5587, 36.74905
408.0408, 36.52104
408.5229, 36.42904
409.0050, 36.79437
409.4871, 37.56529
409.9692, 37.98234
410.4514, 37.74753
410.9335, 37.21682
411.4156, 37.17625
411.8977, 37.58622
412.3798, 37.98339
412.8619, 37.97699
413.3441, 37.75331
413.8262, 37.69886
414.3083, 37.88663
414.7904, 38.09468
415.2725, 38.09437
415.7546, 37.95530
416.2368, 37.82128
416.7189, 37.78196
417.2010, 37.75708
417.6831, 37.66249
418.1652, 37.50416
418.6473, 37.38312
419.1295, 37.38245
419.6116, 37.43058
420.0937, 37.45716
420.5758, 37.36251
421.0579, 37.36464
421.5400, 37.68751
422.0222, 38.16453
422.5043, 38.39363
422.9864, 38.03251
423.4685, 37.62408
423.9506, 37.35164
424.4327, 37.22817
424.9149, 37.24986
425.3970, 37.50375
425.8791, 37.85101
426.3612, 38.16442
426.8433, 38.46738
427.3254, 38.69837
427.8076, 38.87439
428.2897, 38.97993
428.7718, 38.84742
429.2539, 38.32620
429.7360, 37.87371
430.2181, 37.82904
430.7003, 38.27757
431.1824, 38.55514
431.6645, 38.60408
432.1466, 38.52480
432.6287, 38.42817
433.1108, 38.31203
433.5930, 38.34779
434.0751, 38.70050
434.5572, 39.24317
435.0393, 39.55227
435.5214, 39.62519
436.0035, 39.57437
436.4857, 39.37779
436.9678, 39.13511
437.4499, 39.11359
437.9320, 39.45523
438.4141, 39.86882
438.8962, 40.05963
439.3784, 40.06311
439.8605, 39.98373
440.3426, 39.78582
440.8247, 39.58677
441.3068, 39.48325
441.7889, 39.48757
442.2711, 39.54520
442.7532, 39.69764
443.2353, 39.86103
443.7174, 39.94833
444.1995, 39.78183
444.6816, 39.69724
445.1638, 39.80577
445.6459, 40.08000
446.1280, 40.39366
446.6101, 40.93993
447.0922, 41.34694
447.5743, 41.42926
448.0565, 41.05124
448.5386, 40.68395
449.0207, 40.26170
449.5028, 39.89390
449.9849, 39.74286
450.4670, 39.89377
450.9492, 40.06795
451.4313, 40.20371
451.9134, 40.31105
452.3955, 40.49079
452.8776, 40.78649
453.3597, 40.99590
453.8419, 40.85756
454.3240, 40.38847
454.8061, 40.32653
455.2882, 40.83679
455.7703, 41.49880
456.2524, 41.61114
456.7346, 41.25099
457.2167, 40.92652
457.6988, 40.89869
458.1809, 41.01881
458.6630, 41.04132
459.1451, 40.96869
459.6273, 40.84957
460.1094, 40.66807
460.5915, 40.48100
461.0736, 40.36842
461.5557, 40.36955
462.0378, 40.39724
462.5200, 40.41429
463.0021, 40.41666
463.4842, 40.39576
463.9663, 40.22465
464.4484, 40.13707
464.9305, 40.33904
465.4127, 40.86516
465.8948, 41.17038
466.3769, 40.89101
466.8590, 40.50088
467.3411, 40.34477
467.8232, 40.86251
468.3054, 41.04917
468.7875, 40.67692
469.2696, 39.98834
469.7517, 39.59430
470.2338, 39.64930
470.7159, 39.71566
471.1981, 39.61754
471.6802, 39.34377
472.1623, 39.19112
472.6444, 39.16789
473.1265, 39.24567
473.6086, 39.47706
474.0908, 39.85627
474.5729, 40.01539
475.0550, 39.83494
475.5371, 39.48469
476.0192, 39.26678
476.5013, 39.16893
476.9835, 39.10323
477.4656, 39.06391
477.9477, 39.00927
478.4298, 38.83852
478.9119, 38.54376
479.3940, 38.27690
479.8762, 38.20028
480.3583, 38.21003
480.8404, 38.16130
481.3225, 37.92337
481.8046, 37.73921
482.2867, 37.83874
482.7689, 38.09732
483.2510, 38.19319
483.7331, 37.80401
484.2152, 37.41626
484.6973, 37.27534
485.1794, 37.45994
485.6616, 37.56553
486.1437, 37.49183
486.6258, 37.36583
487.1079, 37.28444
487.5900, 37.28540
488.0721, 37.26072
488.5543, 37.18275
489.0364, 37.07785
489.5185, 37.03667
490.0006, 37.08918
490.4827, 37.10626
490.9648, 36.98159
491.4470, 36.72952
491.9291, 36.71680
492.4112, 36.98775
492.8933, 37.28516
493.3754, 37.36724
493.8575, 37.25600
494.3397, 37.01056
494.8218, 36.58041
495.3039, 36.14846
495.7860, 35.97390
496.2681, 36.01737
496.7502, 36.14341
497.2324, 36.37349
497.7145, 36.59459
498.1966, 36.70405
498.6787, 36.69685
499.1608, 36.61567
499.6429, 36.37518
500.1251, 36.12718
500.6072, 36.00243
501.0893, 36.10168
501.5714, 36.22913
502.0535, 36.44221
502.5356, 36.65080
503.0178, 36.65080
503.4999, 36.18430
503.9820, 35.77032
504.4641, 35.54197
504.9462, 35.50359
505.4283, 35.51791
505.9105, 35.61068
506.3926, 35.71761
506.8747, 35.78868
507.3568, 35.81822
507.8389, 35.85750
508.3210, 35.92046
508.8032, 35.97783
509.2853, 36.00372
509.7674, 35.99361
510.2495, 35.86689
510.7316, 35.46317
511.2137, 34.97347
511.6959, 34.83808
512.1780, 35.03881
512.6601, 35.32782
513.1422, 35.62467
513.6243, 35.86255
514.1064, 35.93644
514.5886, 35.79544
515.0707, 35.61109
515.5528, 35.45777
516.0349, 35.33726
516.5170, 35.24925
516.9991, 35.19417
517.4813, 35.17244
517.9634, 35.20058
518.4455, 35.27178
518.9276, 35.32920
519.4097, 35.45271
519.8918, 35.48223
520.3740, 35.32600
520.8561, 34.88942
521.3382, 34.57370
521.8203, 34.39834
522.3024, 34.32021
522.7845, 34.30212
523.2667, 34.35495
523.7488, 34.40778
524.2309, 34.45749
524.7130, 34.48773
525.1951, 34.40382
525.6772, 34.21049
526.1594, 34.12775
526.6415, 34.43652
527.1236, 34.91663
527.6057, 35.01406
528.0878, 34.70771
528.5699, 34.36499
529.0521, 34.27858
529.5342, 34.34512
530.0163, 34.44550
530.4984, 34.60577
530.9805, 34.68738
531.4626, 34.57214
531.9448, 34.32672
532.4269, 34.08123
532.9090, 33.81942
533.3911, 33.61311
533.8732, 33.48230
534.3553, 33.43003
534.8375, 33.44845
535.3196, 33.66674
535.8017, 33.82436
536.2838, 33.73639
536.7659, 33.21074
537.2480, 33.00465
537.7302, 33.23397
538.2123, 33.63210
538.6944, 33.78587
539.1765, 33.67709
539.6586, 33.61295
540.1407, 33.71386
540.6229, 33.88089
541.1050, 33.86075
541.5871, 33.66825
542.0692, 33.44706
542.5513, 33.22732
543.0334, 33.05726
543.5156, 33.04407
543.9977, 33.20039
544.4798, 33.35421
544.9619, 33.37720
545.4440, 33.33465
545.9261, 33.29429
546.4083, 33.24491
546.8904, 33.24095
547.3725, 33.35495
547.8546, 33.52299
548.3367, 33.61158
548.8188, 33.48657
549.3010, 33.40146
549.7831, 33.45619
550.2652, 33.64682
550.7473, 33.68972
551.2294, 33.52381
551.7115, 33.31327
552.1937, 33.13625
552.6758, 32.98560
553.1579, 32.96044
553.6400, 33.09362
554.1221, 33.27506
554.6042, 33.34175
555.0864, 33.31516
555.5685, 33.33385
556.0506, 33.46595
556.5327, 33.62814
557.0148, 33.70356
557.4969, 33.70569
557.9791, 33.68594
558.4612, 33.59140
558.9433, 33.54293
559.4254, 33.71519
559.9075, 34.12478
560.3896, 34.37928
560.8718, 34.05891
561.3539, 33.67920
561.8360, 33.64104
562.3181, 34.48641
562.8002, 34.92886
563.2823, 34.59371
563.7645, 33.95773
564.2466, 33.77631
564.7287, 34.29543
565.2108, 34.71600
565.6929, 34.83074
566.1750, 34.71006
566.6572, 34.65820
567.1393, 34.67522
567.6214, 34.76287
568.1035, 35.00830
568.5856, 35.33491
569.0677, 35.39516
569.5499, 35.15928
570.0320, 34.93439
570.5141, 35.10979
570.9962, 35.46452
571.4783, 35.61636
571.9604, 35.37262
572.4426, 35.11689
572.9247, 35.14341
573.4068, 35.32158
573.8889, 35.41818
574.3710, 35.24836
574.8531, 35.09426
575.3353, 35.04797
575.8174, 35.10830
576.2995, 35.20501
576.7816, 35.35298
577.2637, 35.51582
577.7458, 35.68733
578.2280, 35.87640
578.7101, 36.01289
579.1922, 36.07670
579.6743, 36.13192
580.1564, 36.29742
580.6385, 36.55864
581.1207, 36.62203
581.6028, 36.37939
582.0849, 36.04586
582.5670, 35.93018
583.0491, 35.99560
583.5313, 36.11936
584.0134, 36.29161
584.4955, 36.46174
584.9776, 36.53759
585.4597, 36.54865
