##NAMES=Probertite
##RRUFFID=R050284
##IDEAL CHEMISTRY=NaCaB_5_O_7_(OH)_4_&#183;3H_2_O
##LOCALITY=Borax Open Pit, Boron, Kern County, California, USA
##OWNER=RRUFF
##SOURCE=Marcus Origlieri
##DESCRIPTION=Spray of colorless acicular single crystals
##STATUS=The identification of this mineral has been confirmed by X-ray diffraction and chemical analysis
##URL=rruff.info/R050284
##MEASURED CHEMISTRY=Na_1.00_Ca_1.00_B_5.00_O_7_(OH)_4_Â·3H_2_O
181.0630, 1335.412
181.5451, 1335.025
182.0272, 1335.244
182.5093, 1337.051
182.9915, 1339.753
183.4736, 1341.599
183.9557, 1342.385
184.4378, 1342.653
184.9199, 1342.917
185.4020, 1343.205
185.8842, 1343.787
186.3663, 1345.095
186.8484, 1346.872
187.3305, 1348.098
187.8126, 1348.633
188.2947, 1348.814
188.7769, 1349.129
189.2590, 1349.579
189.7411, 1350.057
190.2232, 1350.519
190.7053, 1350.970
191.1874, 1351.485
191.6696, 1352.152
192.1517, 1352.757
192.6338, 1352.737
193.1159, 1352.066
193.5980, 1351.550
194.0801, 1351.990
194.5623, 1353.269
195.0444, 1353.588
195.5265, 1352.521
196.0086, 1350.777
196.4907, 1349.805
196.9728, 1349.636
197.4550, 1349.890
197.9371, 1350.673
198.4192, 1352.007
198.9013, 1352.297
199.3834, 1351.058
199.8655, 1349.057
200.3477, 1348.174
200.8298, 1348.565
201.3119, 1349.409
201.7940, 1350.327
202.2761, 1351.348
202.7582, 1352.079
203.2404, 1352.165
203.7225, 1352.193
204.2046, 1354.133
204.6867, 1358.553
205.1688, 1362.990
205.6509, 1365.681
206.1331, 1366.316
206.6152, 1367.405
207.0973, 1369.229
207.5794, 1371.609
208.0615, 1374.191
208.5436, 1377.277
209.0258, 1379.772
209.5079, 1380.699
209.9900, 1379.590
210.4721, 1379.132
210.9542, 1379.753
211.4363, 1381.079
211.9185, 1381.786
212.4006, 1381.569
212.8827, 1381.358
213.3648, 1381.843
213.8469, 1383.356
214.3290, 1384.238
214.8112, 1383.958
215.2933, 1383.031
215.7754, 1383.565
216.2575, 1386.478
216.7396, 1389.104
217.2217, 1389.510
217.7038, 1386.535
218.1860, 1385.029
218.6681, 1386.034
219.1502, 1388.638
219.6323, 1389.283
220.1144, 1386.969
220.5965, 1384.431
221.0787, 1383.274
221.5608, 1383.956
222.0429, 1384.823
222.5250, 1385.803
223.0071, 1386.922
223.4892, 1388.160
223.9714, 1389.389
224.4535, 1390.992
224.9356, 1393.383
225.4177, 1397.302
225.8998, 1400.142
226.3819, 1401.339
226.8641, 1401.431
227.3462, 1402.178
227.8283, 1403.530
228.3104, 1405.584
228.7925, 1408.692
229.2746, 1414.378
229.7568, 1417.538
230.2389, 1416.897
230.7210, 1413.796
231.2031, 1412.667
231.6852, 1414.766
232.1673, 1416.959
232.6495, 1417.529
233.1316, 1415.140
233.6137, 1414.121
234.0958, 1414.832
234.5779, 1416.929
235.0600, 1419.561
235.5422, 1423.288
236.0243, 1426.797
236.5064, 1429.411
236.9885, 1430.430
237.4706, 1432.141
237.9527, 1434.841
238.4349, 1438.136
238.9170, 1441.082
239.3991, 1443.856
239.8812, 1446.011
240.3633, 1447.211
240.8454, 1446.799
241.3276, 1447.084
241.8097, 1448.337
242.2918, 1450.181
242.7739, 1451.902
243.2560, 1454.021
243.7381, 1455.222
244.2203, 1454.953
244.7024, 1452.882
245.1845, 1450.167
245.6666, 1446.077
246.1487, 1441.704
246.6308, 1439.210
247.1130, 1439.656
247.5951, 1440.234
248.0772, 1439.875
248.5593, 1438.158
249.0414, 1437.081
249.5235, 1437.129
250.0057, 1437.497
250.4878, 1436.720
250.9699, 1433.953
251.4520, 1431.521
251.9341, 1430.265
252.4162, 1430.443
252.8984, 1430.416
253.3805, 1429.895
253.8626, 1429.388
254.3447, 1429.795
254.8268, 1431.822
255.3089, 1433.336
255.7911, 1433.622
256.2732, 1432.537
256.7553, 1431.467
257.2374, 1430.325
257.7195, 1429.289
258.2017, 1428.601
258.6838, 1428.380
259.1659, 1428.226
259.6480, 1428.012
260.1301, 1427.731
260.6122, 1427.740
261.0944, 1428.283
261.5765, 1428.824
262.0586, 1428.705
262.5407, 1427.617
263.0228, 1426.739
263.5049, 1426.239
263.9871, 1426.133
264.4692, 1426.870
264.9513, 1428.893
265.4334, 1431.073
265.9155, 1432.221
266.3976, 1431.838
266.8798, 1432.151
267.3619, 1434.064
267.8440, 1437.184
268.3261, 1437.624
268.8082, 1433.950
269.2903, 1430.598
269.7725, 1431.913
270.2546, 1439.290
270.7367, 1444.634
271.2188, 1446.124
271.7009, 1444.809
272.1830, 1445.286
272.6652, 1448.034
273.1473, 1451.232
273.6294, 1453.748
274.1115, 1455.523
274.5936, 1456.877
275.0757, 1457.773
275.5579, 1458.320
276.0400, 1458.871
276.5221, 1459.500
277.0042, 1459.792
277.4863, 1458.854
277.9684, 1456.425
278.4506, 1456.611
278.9327, 1460.384
279.4148, 1466.035
279.8969, 1470.095
280.3790, 1472.473
280.8611, 1473.992
281.3433, 1474.402
281.8254, 1473.739
282.3075, 1475.492
282.7896, 1480.555
283.2717, 1486.358
283.7538, 1488.371
284.2360, 1486.460
284.7181, 1484.469
285.2002, 1483.512
285.6823, 1483.699
286.1644, 1486.502
286.6465, 1492.330
287.1287, 1499.155
287.6108, 1504.594
288.0929, 1508.670
288.5750, 1511.923
289.0571, 1514.139
289.5392, 1515.678
290.0214, 1517.827
290.5035, 1520.555
290.9856, 1524.021
291.4677, 1528.818
291.9498, 1534.734
292.4319, 1540.237
292.9141, 1544.726
293.3962, 1548.648
293.8783, 1553.298
294.3604, 1558.684
294.8425, 1563.652
295.3246, 1566.547
295.8068, 1568.150
296.2889, 1571.057
296.7710, 1576.308
297.2531, 1582.734
297.7352, 1588.940
298.2173, 1594.796
298.6995, 1599.365
299.1816, 1600.094
299.6637, 1599.144
300.1458, 1601.531
300.6279, 1609.235
301.1100, 1618.141
301.5922, 1622.994
302.0743, 1624.455
302.5564, 1625.262
303.0385, 1627.406
303.5206, 1629.741
304.0027, 1630.669
304.4849, 1629.902
304.9670, 1627.939
305.4491, 1624.795
305.9312, 1620.794
306.4133, 1616.712
306.8954, 1612.836
307.3776, 1609.155
307.8597, 1605.828
308.3418, 1602.889
308.8239, 1599.930
309.3060, 1596.644
309.7881, 1593.141
310.2703, 1589.684
310.7524, 1586.135
311.2345, 1582.827
311.7166, 1580.137
312.1987, 1578.050
312.6808, 1576.059
313.1630, 1573.370
313.6451, 1570.776
314.1272, 1569.114
314.6093, 1569.873
315.0914, 1570.458
315.5735, 1569.142
316.0557, 1566.313
316.5378, 1564.091
317.0199, 1563.268
317.5020, 1563.456
317.9841, 1564.481
318.4662, 1567.116
318.9484, 1569.349
319.4305, 1570.946
319.9126, 1571.694
320.3947, 1571.036
320.8768, 1565.944
321.3589, 1561.582
321.8411, 1560.841
322.3232, 1565.632
322.8053, 1570.250
323.2874, 1574.136
323.7695, 1577.096
324.2516, 1578.826
324.7338, 1577.824
325.2159, 1576.915
325.6980, 1577.013
326.1801, 1578.361
326.6622, 1579.788
327.1443, 1581.373
327.6265, 1582.943
328.1086, 1584.332
328.5907, 1585.751
329.0728, 1586.744
329.5549, 1586.872
330.0370, 1586.126
330.5192, 1586.515
331.0013, 1589.533
331.4834, 1592.437
331.9655, 1593.198
332.4476, 1589.741
332.9297, 1587.741
333.4119, 1588.238
333.8940, 1590.609
334.3761, 1592.077
334.8582, 1592.011
335.3403, 1591.960
335.8224, 1592.645
336.3046, 1594.087
336.7867, 1596.267
337.2688, 1599.603
337.7509, 1603.351
338.2330, 1605.804
338.7151, 1606.324
339.1973, 1607.556
339.6794, 1611.331
340.1615, 1617.883
340.6436, 1621.264
341.1257, 1621.057
341.6078, 1618.622
342.0899, 1614.688
342.5721, 1609.081
343.0542, 1605.675
343.5363, 1606.643
344.0184, 1610.700
344.5005, 1611.794
344.9826, 1609.576
345.4648, 1606.961
345.9469, 1607.222
346.4290, 1609.853
346.9111, 1610.582
347.3932, 1607.730
347.8753, 1603.684
348.3575, 1603.509
348.8396, 1606.888
349.3217, 1610.531
349.8038, 1611.935
350.2859, 1611.911
350.7680, 1612.653
351.2502, 1614.632
351.7323, 1616.489
352.2144, 1615.873
352.6965, 1613.691
353.1786, 1612.707
353.6607, 1616.642
354.1429, 1621.495
354.6250, 1621.548
355.1071, 1616.457
355.5892, 1610.993
356.0713, 1609.655
356.5534, 1610.180
357.0356, 1609.189
357.5177, 1603.974
357.9998, 1598.066
358.4819, 1594.017
358.9640, 1591.588
359.4461, 1589.563
359.9283, 1587.719
360.4104, 1585.764
360.8925, 1583.355
361.3746, 1579.834
361.8567, 1576.805
362.3388, 1575.105
362.8210, 1574.367
363.3031, 1573.730
363.7852, 1573.109
364.2673, 1572.364
364.7494, 1571.385
365.2315, 1570.078
365.7137, 1568.831
366.1958, 1567.891
366.6779, 1567.006
367.1600, 1565.872
367.6421, 1563.253
368.1242, 1561.633
368.6064, 1562.278
369.0885, 1565.378
369.5706, 1566.555
370.0527, 1564.088
370.5348, 1561.059
371.0169, 1559.461
371.4991, 1560.080
371.9812, 1560.866
372.4633, 1561.783
372.9454, 1562.790
373.4275, 1563.699
373.9096, 1564.463
374.3918, 1565.248
374.8739, 1566.079
375.3560, 1566.917
375.8381, 1568.134
376.3202, 1570.011
376.8023, 1571.877
377.2845, 1572.136
377.7666, 1570.181
378.2487, 1570.024
378.7308, 1573.988
379.2129, 1581.136
379.6950, 1584.402
380.1772, 1583.290
380.6593, 1580.940
381.1414, 1580.359
381.6235, 1581.322
382.1056, 1581.656
382.5877, 1580.826
383.0699, 1579.270
383.5520, 1577.082
384.0341, 1574.441
384.5162, 1573.344
384.9983, 1576.188
385.4804, 1581.335
385.9626, 1585.471
386.4447, 1588.325
386.9268, 1589.835
387.4089, 1588.696
387.8910, 1586.114
388.3731, 1584.834
388.8553, 1587.508
389.3374, 1591.131
389.8195, 1592.797
390.3016, 1592.528
390.7837, 1591.735
391.2658, 1590.784
391.7480, 1589.979
392.2301, 1589.626
392.7122, 1589.707
393.1943, 1590.423
393.6764, 1592.653
394.1585, 1595.735
394.6407, 1597.723
395.1228, 1597.397
395.6049, 1596.310
396.0870, 1594.942
396.5691, 1592.910
397.0512, 1592.122
397.5334, 1593.561
398.0155, 1596.246
398.4976, 1598.920
398.9797, 1601.658
399.4618, 1604.151
399.9439, 1606.278
400.4261, 1608.021
400.9082, 1609.696
401.3903, 1611.441
401.8724, 1612.940
402.3545, 1613.962
402.8366, 1614.292
403.3188, 1614.544
403.8009, 1614.656
404.2830, 1614.752
404.7651, 1615.124
405.2472, 1615.759
405.7293, 1616.725
406.2115, 1618.103
406.6936, 1619.896
407.1757, 1622.031
407.6578, 1624.806
408.1399, 1627.161
408.6220, 1627.365
409.1042, 1625.489
409.5863, 1624.559
410.0684, 1625.697
410.5505, 1628.035
411.0326, 1629.399
411.5147, 1629.836
411.9969, 1630.551
412.4790, 1632.838
412.9611, 1636.039
413.4432, 1638.381
413.9253, 1639.451
414.4074, 1640.466
414.8896, 1643.451
415.3717, 1647.448
415.8538, 1650.165
416.3359, 1648.830
416.8180, 1646.778
417.3001, 1647.162
417.7823, 1649.994
418.2644, 1653.254
418.7465, 1656.430
419.2286, 1659.198
419.7107, 1661.164
420.1928, 1661.559
420.6750, 1662.031
421.1571, 1663.717
421.6392, 1665.987
422.1213, 1667.177
422.6034, 1665.472
423.0855, 1663.774
423.5677, 1663.292
424.0498, 1664.391
424.5319, 1665.809
425.0140, 1668.640
425.4961, 1671.239
425.9782, 1671.822
426.4604, 1667.676
426.9425, 1665.608
427.4246, 1667.383
427.9067, 1672.357
428.3888, 1675.799
428.8709, 1677.184
429.3531, 1677.971
429.8352, 1678.817
430.3173, 1679.591
430.7994, 1681.127
431.2815, 1683.757
431.7636, 1686.594
432.2458, 1687.981
432.7279, 1687.807
433.2100, 1687.675
433.6921, 1688.215
434.1742, 1689.192
434.6563, 1689.692
435.1385, 1689.697
435.6206, 1689.726
436.1027, 1690.524
436.5848, 1691.711
437.0669, 1692.189
437.5490, 1691.623
438.0312, 1690.664
438.5133, 1690.297
438.9954, 1690.197
439.4775, 1689.426
439.9596, 1686.603
440.4417, 1683.505
440.9239, 1681.875
441.4060, 1681.828
441.8881, 1682.007
442.3702, 1681.795
442.8523, 1681.370
443.3344, 1680.907
443.8166, 1680.870
444.2987, 1680.286
444.7808, 1677.986
445.2629, 1674.771
445.7450, 1673.006
446.2271, 1674.414
446.7093, 1676.277
447.1914, 1677.280
447.6735, 1676.510
448.1556, 1677.872
448.6377, 1683.566
449.1198, 1689.889
449.6020, 1692.856
450.0841, 1690.322
450.5662, 1688.786
451.0483, 1689.138
451.5304, 1691.244
452.0125, 1694.812
452.4947, 1700.497
452.9768, 1705.721
453.4589, 1708.971
453.9410, 1710.214
454.4231, 1711.021
454.9052, 1711.300
455.3874, 1711.568
455.8695, 1712.948
456.3516, 1715.176
456.8337, 1716.243
457.3158, 1714.816
457.7979, 1712.435
458.2801, 1711.871
458.7622, 1712.973
459.2443, 1714.650
459.7264, 1717.233
460.2085, 1719.560
460.6906, 1719.781
461.1728, 1717.314
461.6549, 1714.394
462.1370, 1712.450
462.6191, 1711.156
463.1012, 1710.077
463.5833, 1709.224
464.0655, 1708.379
464.5476, 1707.041
465.0297, 1705.376
465.5118, 1704.818
465.9939, 1707.287
466.4760, 1709.821
466.9582, 1710.618
467.4403, 1707.474
467.9224, 1706.310
468.4045, 1708.581
468.8866, 1712.291
469.3687, 1714.609
469.8509, 1714.789
470.3330, 1714.877
470.8151, 1715.320
471.2972, 1716.096
471.7793, 1716.922
472.2614, 1717.971
472.7436, 1718.673
473.2257, 1718.296
473.7078, 1716.811
474.1899, 1716.359
474.6720, 1717.208
475.1541, 1718.800
475.6363, 1720.691
476.1184, 1722.749
476.6005, 1724.149
477.0826, 1724.151
477.5647, 1723.526
478.0468, 1723.604
478.5290, 1724.319
479.0111, 1725.057
479.4932, 1725.304
479.9753, 1725.371
480.4574, 1725.726
480.9395, 1726.634
481.4217, 1727.230
481.9038, 1726.230
482.3859, 1724.739
482.8680, 1724.399
483.3501, 1725.622
483.8322, 1728.187
484.3144, 1733.670
484.7965, 1741.550
485.2786, 1745.604
485.7607, 1740.037
486.2428, 1734.177
486.7249, 1732.971
487.2071, 1740.005
487.6892, 1743.879
488.1713, 1742.877
488.6534, 1739.941
489.1355, 1739.741
489.6176, 1743.847
490.0998, 1746.136
490.5819, 1744.898
491.0640, 1740.759
491.5461, 1736.744
492.0282, 1732.887
492.5103, 1728.964
492.9925, 1725.137
493.4746, 1721.192
493.9567, 1715.960
494.4388, 1708.997
494.9209, 1702.217
495.4030, 1697.949
495.8852, 1695.504
496.3673, 1693.086
496.8494, 1690.141
497.3315, 1686.786
497.8136, 1682.588
498.2957, 1677.851
498.7779, 1674.076
499.2600, 1672.205
499.7421, 1671.410
500.2242, 1671.270
500.7063, 1671.881
501.1884, 1672.499
501.6706, 1673.672
502.1527, 1674.443
502.6348, 1673.814
503.1169, 1669.476
503.5990, 1666.422
504.0811, 1665.894
504.5633, 1667.140
505.0454, 1667.318
505.5275, 1666.030
506.0096, 1664.330
506.4917, 1662.289
506.9738, 1659.719
507.4560, 1659.135
507.9381, 1661.038
508.4202, 1663.549
508.9023, 1664.605
509.3844, 1664.302
509.8665, 1664.358
510.3487, 1665.116
510.8308, 1666.340
511.3129, 1667.808
511.7950, 1669.464
512.2772, 1671.014
512.7593, 1671.560
513.2414, 1672.318
513.7235, 1675.312
514.2056, 1680.451
514.6877, 1685.168
515.1699, 1687.381
515.6520, 1688.634
516.1341, 1690.407
516.6162, 1693.492
517.0983, 1696.160
517.5804, 1697.738
518.0626, 1698.553
518.5447, 1699.147
519.0268, 1698.727
519.5089, 1699.023
519.9910, 1700.416
520.4731, 1702.870
520.9553, 1706.165
521.4374, 1711.598
521.9195, 1715.908
522.4016, 1716.780
522.8837, 1713.306
523.3658, 1711.369
523.8480, 1711.386
524.3301, 1712.224
524.8122, 1712.634
525.2943, 1712.619
525.7764, 1711.797
526.2585, 1709.593
526.7407, 1707.094
527.2228, 1706.680
527.7049, 1707.984
528.1870, 1708.856
528.6691, 1707.355
529.1512, 1705.032
529.6334, 1703.964
530.1155, 1704.320
530.5976, 1704.166
531.0797, 1701.116
531.5618, 1697.510
532.0439, 1695.789
532.5261, 1698.300
533.0082, 1700.152
533.4903, 1699.022
533.9724, 1696.468
534.4545, 1695.843
534.9366, 1699.878
535.4188, 1703.078
535.9009, 1703.948
536.3830, 1702.564
536.8651, 1701.425
537.3472, 1700.002
537.8293, 1699.929
538.3115, 1703.013
538.7936, 1709.605
539.2757, 1714.457
539.7578, 1717.146
540.2399, 1718.526
540.7220, 1718.755
541.2042, 1718.300
541.6863, 1719.953
542.1684, 1725.306
542.6505, 1732.329
543.1326, 1738.546
543.6147, 1743.989
544.0969, 1748.975
544.5790, 1753.317
545.0611, 1757.367
545.5432, 1761.333
546.0253, 1765.203
546.5074, 1769.153
546.9896, 1772.349
547.4717, 1776.133
547.9538, 1781.610
548.4359, 1789.945
548.9180, 1798.686
549.4001, 1807.832
549.8823, 1817.281
550.3644, 1826.822
550.8465, 1836.474
551.3286, 1846.459
551.8107, 1857.206
552.2928, 1868.486
552.7750, 1878.338
553.2571, 1886.861
553.7392, 1893.798
554.2213, 1898.839
554.7034, 1902.063
555.1855, 1904.162
555.6677, 1905.151
556.1498, 1905.081
556.6319, 1905.012
557.1140, 1903.828
557.5961, 1898.834
558.0782, 1887.475
558.5604, 1875.036
559.0425, 1865.516
559.5246, 1858.223
560.0067, 1851.701
560.4888, 1847.164
560.9709, 1841.693
561.4531, 1832.794
561.9352, 1820.416
562.4173, 1811.154
562.8994, 1809.053
563.3815, 1807.754
563.8636, 1803.977
564.3458, 1796.611
564.8279, 1789.729
565.3100, 1782.933
565.7921, 1777.050
566.2742, 1773.891
566.7563, 1773.890
567.2385, 1772.098
567.7206, 1766.874
568.2027, 1760.024
568.6848, 1755.500
569.1669, 1753.085
569.6490, 1751.662
570.1312, 1750.900
570.6133, 1750.612
571.0954, 1750.512
571.5775, 1750.603
572.0596, 1751.071
572.5417, 1752.616
573.0239, 1754.250
573.5060, 1754.768
573.9881, 1752.996
574.4702, 1752.812
574.9523, 1756.918
575.4344, 1762.710
575.9166, 1766.850
576.3987, 1768.063
576.8808, 1769.049
577.3629, 1769.674
577.8450, 1770.325
578.3271, 1772.502
578.8093, 1776.768
579.2914, 1780.817
579.7735, 1783.645
580.2556, 1785.330
580.7377, 1787.283
581.2198, 1789.634
581.7020, 1790.377
582.1841, 1787.554
582.6662, 1781.889
583.1483, 1774.546
583.6304, 1765.443
584.1125, 1756.557
584.5947, 1750.089
585.0768, 1744.895
585.5589, 1739.271
586.0410, 1731.402
586.5231, 1724.456
587.0052, 1720.232
587.4873, 1718.043
587.9694, 1716.064
588.4515, 1715.346
588.9337, 1713.339
589.4158, 1708.538
589.8979, 1700.918
590.3800, 1696.026
590.8621, 1694.883
591.3442, 1694.608
591.8264, 1693.227
592.3085, 1690.568
592.7906, 1689.003
593.2727, 1688.660
593.7548, 1689.053
594.2369, 1689.824
594.7191, 1690.869
595.2012, 1691.826
595.6833, 1692.560
596.1654, 1693.246
596.6475, 1694.696
597.1296, 1696.257
597.6118, 1696.453
598.0939, 1692.931
598.5760, 1689.411
599.0581, 1688.265
599.5402, 1689.315
600.0223, 1690.007
600.5045, 1689.284
600.9866, 1688.572
601.4687, 1688.641
601.9508, 1689.840
602.4329, 1690.261
602.9150, 1689.215
603.3972, 1688.350
603.8793, 1689.428
604.3614, 1692.684
604.8435, 1695.197
605.3256, 1696.488
605.8077, 1697.132
606.2899, 1698.130
606.7720, 1699.292
607.2541, 1699.713
607.7362, 1698.469
608.2183, 1696.902
608.7004, 1696.493
609.1826, 1697.098
609.6647, 1698.244
610.1468, 1700.471
610.6289, 1702.573
611.1110, 1703.854
611.5931, 1704.300
612.0753, 1704.202
612.5574, 1703.356
613.0395, 1702.213
613.5216, 1701.028
614.0037, 1699.768
614.4858, 1698.568
614.9680, 1697.569
615.4501, 1696.418
615.9322, 1694.475
616.4143, 1691.662
616.8964, 1689.349
617.3785, 1687.763
617.8607, 1686.832
618.3428, 1686.840
618.8249, 1687.521
619.3070, 1687.781
619.7891, 1686.808
620.2712, 1685.401
620.7534, 1684.062
621.2355, 1682.912
621.7176, 1682.516
622.1997, 1684.713
622.6818, 1686.521
623.1639, 1685.677
623.6461, 1681.393
624.1282, 1678.948
624.6103, 1680.325
625.0924, 1682.418
625.5745, 1683.177
626.0566, 1681.721
626.5388, 1681.609
627.0209, 1683.502
627.5030, 1685.680
627.9851, 1685.262
628.4672, 1682.408
628.9493, 1680.688
629.4315, 1681.039
629.9136, 1682.695
630.3957, 1684.953
630.8778, 1687.596
631.3599, 1689.953
631.8420, 1692.060
632.3242, 1693.495
632.8063, 1693.309
633.2884, 1691.925
633.7705, 1691.550
634.2526, 1694.100
634.7347, 1696.882
635.2169, 1698.549
635.6990, 1698.800
636.1811, 1699.335
636.6632, 1700.078
637.1453, 1701.194
637.6274, 1702.951
638.1096, 1705.525
638.5917, 1707.526
639.0738, 1708.870
639.5559, 1709.686
640.0380, 1709.862
640.5201, 1709.584
641.0023, 1709.709
641.4844, 1710.563
641.9665, 1711.694
642.4486, 1712.953
642.9307, 1714.142
643.4128, 1714.805
643.8950, 1714.159
644.3771, 1713.561
644.8592, 1714.260
645.3413, 1715.811
645.8234, 1715.776
646.3055, 1711.838
646.7877, 1708.286
647.2698, 1706.659
647.7519, 1707.021
648.2340, 1707.006
648.7161, 1706.614
649.1982, 1705.813
649.6804, 1704.520
650.1625, 1702.752
650.6446, 1700.563
651.1267, 1697.865
651.6088, 1695.463
652.0909, 1694.233
652.5731, 1693.907
653.0552, 1694.135
653.5373, 1695.155
654.0194, 1695.944
654.5015, 1695.532
654.9836, 1694.616
655.4658, 1694.213
655.9479, 1694.918
656.4300, 1695.826
656.9121, 1697.267
657.3942, 1698.786
657.8763, 1698.832
658.3585, 1696.236
658.8406, 1694.916
659.3227, 1696.489
659.8048, 1700.284
660.2869, 1702.964
660.7690, 1704.479
661.2512, 1705.240
661.7333, 1705.266
662.2154, 1704.735
662.6975, 1703.631
663.1796, 1701.984
663.6617, 1701.088
664.1439, 1703.184
664.6260, 1705.635
665.1081, 1705.719
665.5902, 1702.013
666.0723, 1699.500
666.5544, 1701.264
667.0366, 1703.744
667.5187, 1703.444
668.0008, 1697.707
668.4829, 1695.078
668.9650, 1697.200
669.4471, 1701.331
669.9293, 1703.086
670.4114, 1702.450
670.8935, 1701.701
671.3756, 1701.404
671.8577, 1701.349
672.3398, 1700.986
672.8220, 1700.503
673.3041, 1700.577
673.7862, 1702.031
674.2683, 1703.698
674.7504, 1704.462
675.2325, 1704.571
675.7147, 1705.353
676.1968, 1708.500
676.6789, 1711.203
