##NAMES=Probertite
##RRUFFID=R050284
##IDEAL CHEMISTRY=NaCaB_5_O_7_(OH)_4_&#183;3H_2_O
##LOCALITY=Borax Open Pit, Boron, Kern County, California, USA
##OWNER=RRUFF
##SOURCE=Marcus Origlieri
##DESCRIPTION=Spray of colorless acicular single crystals
##STATUS=The identification of this mineral has been confirmed by X-ray diffraction and chemical analysis
##URL=rruff.info/R050284
##MEASURED CHEMISTRY=Na_1.00_Ca_1.00_B_5.00_O_7_(OH)_4_Â·3H_2_O
181.2329, 343.6332
181.7150, 343.6968
182.1971, 343.7102
182.6792, 343.7112
183.1614, 343.6438
183.6435, 343.4656
184.1256, 343.1790
184.6077, 342.8177
185.0898, 342.3719
185.5719, 341.8415
186.0540, 341.4761
186.5362, 341.3119
187.0183, 341.2956
187.5004, 341.5795
187.9825, 342.2160
188.4646, 342.5140
188.9467, 341.4763
189.4289, 339.4465
189.9110, 337.7924
190.3931, 336.9532
190.8752, 336.6302
191.3573, 336.3016
191.8394, 335.8199
192.3216, 335.6715
192.8037, 336.8784
193.2858, 338.7690
193.7679, 339.7014
194.2500, 338.1367
194.7321, 334.9630
195.2143, 333.1093
195.6964, 333.2811
196.1785, 333.8515
196.6606, 334.0633
197.1427, 333.9442
197.6248, 333.5295
198.1070, 332.6346
198.5891, 331.3520
199.0712, 330.6567
199.5533, 331.0669
200.0354, 331.5357
200.5175, 331.6764
200.9997, 331.5554
201.4818, 331.3708
201.9639, 331.2746
202.4460, 331.2694
202.9281, 331.2341
203.4102, 331.2791
203.8924, 331.1855
204.3745, 330.7204
204.8566, 330.0305
205.3387, 329.4799
205.8208, 329.4086
206.3029, 329.8798
206.7851, 330.2571
207.2672, 330.5634
207.7493, 330.7725
208.2314, 330.7789
208.7135, 330.6508
209.1956, 330.6335
209.6778, 331.0352
210.1599, 332.0246
210.6420, 331.9442
211.1241, 329.8700
211.6062, 327.7501
212.0883, 326.5996
212.5705, 326.4043
213.0526, 326.5364
213.5347, 326.4461
214.0168, 326.0931
214.4989, 325.9762
214.9810, 326.3101
215.4632, 326.6913
215.9453, 326.9228
216.4274, 326.9736
216.9095, 326.7955
217.3916, 326.2834
217.8737, 325.4274
218.3559, 324.7205
218.8380, 324.1012
219.3201, 323.6758
219.8022, 323.5926
220.2843, 323.8632
220.7664, 324.2468
221.2486, 324.5978
221.7307, 324.9123
222.2128, 325.1620
222.6949, 325.3154
223.1770, 325.4156
223.6591, 325.4899
224.1413, 325.5300
224.6234, 325.6010
225.1055, 325.7573
225.5876, 325.9758
226.0697, 326.2222
226.5518, 326.4048
227.0340, 326.6498
227.5161, 327.2755
227.9982, 328.4681
228.4803, 329.3816
228.9624, 329.1839
229.4445, 328.4824
229.9267, 328.0827
230.4088, 328.4521
230.8909, 329.1396
231.3730, 329.1462
231.8551, 328.0525
232.3372, 327.3596
232.8194, 328.0459
233.3015, 329.3330
233.7836, 330.3249
234.2657, 330.6075
234.7478, 330.4618
235.2299, 330.5418
235.7121, 331.0322
236.1942, 331.3747
236.6763, 331.1070
237.1584, 330.7456
237.6405, 330.9686
238.1227, 332.1566
238.6048, 333.7586
239.0869, 334.2296
239.5690, 332.4518
240.0511, 331.5279
240.5332, 332.8761
241.0154, 334.8637
241.4975, 335.7721
241.9796, 334.8575
242.4617, 332.8459
242.9438, 331.5714
243.4259, 331.6087
243.9081, 331.5164
244.3902, 331.2088
244.8723, 330.6794
245.3544, 329.8503
245.8365, 328.6978
246.3186, 327.4060
246.8007, 326.3789
247.2829, 325.7277
247.7650, 325.2266
248.2471, 324.9297
248.7292, 324.7292
249.2113, 324.6100
249.6934, 324.5473
250.1756, 324.3866
250.6577, 323.8129
251.1398, 322.4388
251.6219, 321.1820
252.1040, 319.9617
252.5861, 318.9005
253.0683, 318.1644
253.5504, 317.7897
254.0325, 317.6004
254.5146, 317.3199
254.9967, 316.9571
255.4788, 316.4595
255.9610, 315.6817
256.4431, 314.8604
256.9252, 314.2007
257.4073, 313.7501
257.8894, 313.4179
258.3716, 313.0768
258.8537, 312.6885
259.3358, 312.4297
259.8179, 312.3793
260.3000, 312.4116
260.7821, 312.4068
261.2643, 312.3470
261.7464, 312.3241
262.2285, 312.4861
262.7106, 312.9191
263.1927, 313.0092
263.6748, 312.5961
264.1570, 311.9290
264.6391, 311.0658
265.1212, 310.0464
265.6033, 309.2062
266.0854, 308.8624
266.5675, 309.0676
267.0497, 309.5121
267.5318, 310.6544
268.0139, 311.7097
268.4960, 311.9060
268.9781, 311.2409
269.4602, 310.5034
269.9424, 310.2803
270.4245, 310.5294
270.9066, 310.7120
271.3887, 310.7607
271.8708, 310.7852
272.3529, 310.8997
272.8351, 311.0944
273.3172, 311.2186
273.7993, 311.1496
274.2814, 310.9462
274.7635, 310.8102
275.2456, 310.6917
275.7278, 310.7035
276.2099, 311.0410
276.6920, 311.6540
277.1741, 312.1024
277.6562, 312.0549
278.1383, 311.7933
278.6204, 311.9561
279.1025, 312.8178
279.5847, 313.5123
280.0668, 313.0834
280.5489, 311.7939
281.0310, 311.3214
281.5131, 312.7028
281.9952, 314.7318
282.4774, 315.5908
282.9595, 315.0948
283.4416, 314.5483
283.9237, 314.7381
284.4058, 315.5298
284.8879, 316.3856
285.3701, 317.2223
285.8522, 318.0189
286.3343, 318.8149
286.8164, 319.6068
287.2985, 320.2131
287.7806, 320.3052
288.2628, 320.1067
288.7449, 320.3895
289.2270, 321.4262
289.7091, 322.6682
290.1912, 323.8214
290.6733, 324.8423
291.1555, 325.5424
291.6376, 325.3976
292.1197, 324.9028
292.6018, 325.3770
293.0839, 327.2487
293.5660, 329.2111
294.0482, 330.4506
294.5303, 331.1704
295.0124, 331.6857
295.4945, 331.9937
295.9766, 332.2254
296.4587, 332.6941
296.9409, 333.5327
297.4230, 334.1517
297.9051, 333.8708
298.3872, 333.3091
298.8693, 333.2732
299.3514, 334.2109
299.8336, 335.3805
300.3157, 335.6324
300.7978, 334.7545
301.2799, 334.2576
301.7620, 335.2619
302.2441, 336.6371
302.7263, 337.4451
303.2084, 337.5110
303.6905, 337.0435
304.1726, 336.0811
304.6547, 334.5986
305.1368, 333.2716
305.6190, 332.3671
306.1011, 331.5925
306.5832, 330.7382
307.0653, 329.7903
307.5474, 328.8213
308.0295, 327.9116
308.5117, 327.0528
308.9938, 326.1059
309.4759, 325.0194
309.9580, 323.8786
310.4401, 322.6802
310.9222, 321.4664
311.4044, 320.3846
311.8865, 319.7406
312.3686, 319.3615
312.8507, 318.3395
313.3328, 316.0694
313.8149, 314.2043
314.2971, 313.9029
314.7792, 314.5387
315.2613, 314.9635
315.7434, 314.5670
316.2255, 313.6953
316.7076, 313.1794
317.1898, 313.2574
317.6719, 313.0009
318.1540, 311.4671
318.6361, 309.5912
319.1182, 308.4655
319.6003, 308.5474
320.0825, 309.0841
320.5646, 309.0366
321.0467, 308.3059
321.5288, 307.6230
322.0109, 307.2485
322.4930, 306.9988
322.9752, 306.7086
323.4573, 306.3500
323.9394, 306.1020
324.4215, 306.2153
324.9036, 306.6795
325.3857, 307.0281
325.8679, 307.2918
326.3500, 307.2709
326.8321, 306.6215
327.3142, 305.4724
327.7963, 304.5815
328.2784, 304.7037
328.7606, 305.5866
329.2427, 305.9447
329.7248, 305.4268
330.2069, 304.8706
330.6890, 304.8836
331.1711, 305.2351
331.6533, 305.4173
332.1354, 304.9746
332.6175, 304.3345
333.0996, 304.5208
333.5817, 305.8581
334.0638, 306.9730
334.5460, 306.9401
335.0281, 306.3756
335.5102, 305.8591
335.9923, 305.4402
336.4744, 305.3301
336.9565, 305.9948
337.4387, 307.4976
337.9208, 308.6381
338.4029, 308.8208
338.8850, 308.5901
339.3671, 308.4669
339.8492, 308.4972
340.3314, 308.5338
340.8135, 308.2567
341.2956, 307.7926
341.7777, 308.0617
342.2598, 309.6949
342.7419, 311.4272
343.2241, 312.1017
343.7062, 311.8942
344.1883, 311.6320
344.6704, 311.6232
345.1525, 311.8456
345.6346, 312.4028
346.1168, 313.5011
346.5989, 314.2806
347.0810, 313.5778
347.5631, 312.1586
348.0452, 311.3933
348.5273, 311.9784
349.0095, 313.0493
349.4916, 313.7314
349.9737, 314.0208
350.4558, 313.9808
350.9379, 313.3046
351.4200, 312.5173
351.9022, 312.4933
352.3843, 313.5037
352.8664, 314.6349
353.3485, 315.4292
353.8306, 315.8769
354.3127, 315.9487
354.7949, 315.6568
355.2770, 314.9307
355.7591, 313.4870
356.2412, 311.3434
356.7233, 309.4384
357.2054, 308.3642
357.6876, 307.6550
358.1697, 306.5693
358.6518, 304.9907
359.1339, 303.1812
359.6160, 301.1905
360.0981, 299.1108
360.5803, 297.5042
361.0624, 296.6855
361.5445, 296.1862
362.0266, 295.7861
362.5087, 295.4378
362.9908, 294.8457
363.4730, 293.7811
363.9551, 292.3883
364.4372, 291.1014
364.9193, 289.8358
365.4014, 288.8014
365.8835, 288.1975
366.3657, 287.8793
366.8478, 287.5304
367.3299, 287.0301
367.8120, 286.5427
368.2941, 286.3706
368.7762, 286.6013
369.2584, 286.7306
369.7405, 286.8243
370.2226, 286.7086
370.7047, 285.9696
371.1868, 284.6270
371.6689, 283.5114
372.1511, 283.3945
372.6332, 284.3412
373.1153, 285.2853
373.5974, 286.7579
374.0795, 287.7288
374.5616, 287.3815
375.0438, 286.1158
375.5259, 284.9466
376.0080, 284.4310
376.4901, 284.4076
376.9722, 284.3209
377.4543, 284.0995
377.9365, 283.9060
378.4186, 283.7088
378.9007, 283.5672
379.3828, 283.5745
379.8649, 283.7480
380.3470, 283.9973
380.8292, 284.2297
381.3113, 284.5756
381.7934, 284.4544
382.2755, 283.3587
382.7576, 282.2986
383.2397, 281.8461
383.7219, 281.9649
384.2040, 282.3828
384.6861, 282.9464
385.1682, 283.6198
385.6503, 283.7782
386.1324, 283.0082
386.6146, 282.1518
387.0967, 280.8691
387.5788, 279.7462
388.0609, 279.7115
388.5430, 281.1512
389.0251, 283.2128
389.5073, 284.1387
389.9894, 283.3336
390.4715, 282.5913
390.9536, 281.8725
391.4357, 281.3389
391.9178, 281.1396
392.4000, 281.2561
392.8821, 281.5231
393.3642, 281.8418
393.8463, 282.2198
394.3284, 282.3349
394.8105, 281.8310
395.2927, 281.4727
395.7748, 281.6466
396.2569, 282.1124
396.7390, 282.4679
397.2211, 282.5100
397.7032, 282.3357
398.1854, 282.0876
398.6675, 281.6353
399.1496, 281.5121
399.6317, 282.4055
400.1138, 283.3586
400.5959, 283.5330
401.0780, 282.8006
401.5602, 281.9122
402.0423, 281.6266
402.5244, 281.8751
403.0065, 281.8467
403.4886, 281.2498
403.9707, 280.6550
404.4529, 280.4916
404.9350, 280.6471
405.4171, 280.8148
405.8992, 280.9174
406.3813, 280.9287
406.8634, 280.6604
407.3456, 280.0410
407.8277, 279.8372
408.3098, 280.8620
408.7919, 282.3289
409.2740, 282.8546
409.7561, 282.0538
410.2383, 281.1305
410.7204, 280.7673
411.2025, 280.8530
411.6846, 281.0464
412.1667, 281.2489
412.6488, 281.5846
413.1310, 282.3511
413.6131, 283.5422
414.0952, 284.4082
414.5773, 284.7992
415.0594, 284.8262
415.5415, 284.4134
416.0237, 283.6329
416.5058, 282.9840
416.9879, 282.8442
417.4700, 283.0905
417.9521, 283.0440
418.4342, 282.1135
418.9164, 281.6396
419.3985, 282.4771
419.8806, 283.8473
420.3627, 284.4800
420.8448, 283.9776
421.3269, 283.1247
421.8091, 283.1346
422.2912, 284.5259
422.7733, 285.2863
423.2554, 284.7867
423.7375, 284.2518
424.2196, 284.7013
424.7018, 285.8286
425.1839, 286.3968
425.6660, 285.3923
426.1481, 283.1821
426.6302, 282.2972
427.1123, 284.5208
427.5945, 285.9260
428.0766, 285.4763
428.5587, 284.2845
429.0408, 283.3531
429.5229, 283.0251
430.0050, 283.2175
430.4872, 283.9528
430.9693, 285.4409
431.4514, 286.5818
431.9335, 287.1467
432.4156, 287.5270
432.8977, 287.7997
433.3799, 288.0087
433.8620, 288.2596
434.3441, 288.7346
434.8262, 289.2018
435.3083, 288.8275
435.7904, 287.1859
436.2726, 285.8881
436.7547, 285.7716
437.2368, 286.1189
437.7189, 286.3774
438.2010, 286.4480
438.6831, 286.3929
439.1653, 286.2577
439.6474, 286.0405
440.1295, 285.7559
440.6116, 285.4755
441.0937, 284.9873
441.5758, 283.8325
442.0580, 282.2744
442.5401, 281.1677
443.0222, 281.0202
443.5043, 281.2477
443.9864, 281.2545
444.4685, 281.0728
444.9507, 281.0391
445.4328, 281.3607
445.9149, 281.8774
446.3970, 282.2441
446.8791, 282.4937
447.3612, 282.5538
447.8434, 282.2391
448.3255, 281.8008
448.8076, 281.5602
449.2897, 281.5667
449.7718, 281.6558
450.2539, 281.6887
450.7361, 281.6654
451.2182, 281.5534
451.7003, 281.2795
452.1824, 281.0131
452.6645, 280.7259
453.1466, 280.5058
453.6288, 280.5581
454.1109, 280.9738
454.5930, 281.5122
455.0751, 281.6566
455.5572, 280.9813
456.0393, 280.7526
456.5215, 281.4136
457.0036, 282.0670
457.4857, 282.0831
457.9678, 281.5732
458.4499, 281.1066
458.9320, 281.1537
459.4142, 281.5970
459.8963, 281.7295
460.3784, 281.3769
460.8605, 281.0149
461.3426, 280.7347
461.8247, 280.5238
462.3069, 280.3963
462.7890, 280.3556
463.2711, 280.3086
463.7532, 280.1408
464.2353, 279.8622
464.7174, 279.6157
465.1996, 279.3897
465.6817, 279.2467
466.1638, 279.3722
466.6459, 279.6168
467.1280, 279.5650
467.6101, 278.7140
468.0923, 277.8372
468.5744, 277.9753
469.0565, 279.0144
469.5386, 279.7425
470.0207, 279.5218
470.5028, 278.9528
470.9850, 279.2707
471.4671, 280.7221
471.9492, 281.5464
472.4313, 280.8513
472.9134, 279.5751
473.3955, 278.5917
473.8777, 278.0246
474.3598, 277.8495
474.8419, 278.1505
475.3240, 278.8394
475.8061, 279.0137
476.2882, 278.4589
476.7704, 277.7379
477.2525, 276.7037
477.7346, 275.6785
478.2167, 274.9092
478.6988, 274.5079
479.1809, 274.7042
479.6631, 275.9125
480.1452, 278.3980
480.6273, 280.4975
481.1094, 283.0508
481.5915, 284.3183
482.0736, 283.0281
482.5558, 280.1572
483.0379, 277.1985
483.5200, 274.7624
484.0021, 273.0680
484.4842, 272.8148
484.9663, 274.4352
485.4485, 275.4952
485.9306, 275.2362
486.4127, 274.4966
486.8948, 273.6624
487.3769, 272.8024
487.8590, 272.1029
488.3412, 271.7701
488.8233, 271.6405
489.3054, 271.4938
489.7875, 271.3633
490.2696, 270.8638
490.7517, 269.6237
491.2339, 267.9740
491.7160, 266.5395
492.1981, 265.2592
492.6802, 264.3913
493.1623, 264.5315
493.6444, 264.9821
494.1266, 264.6742
494.6087, 263.4307
495.0908, 261.7100
495.5729, 259.7549
496.0550, 257.5888
496.5371, 256.2036
497.0193, 256.1300
497.5014, 256.0929
497.9835, 255.6516
498.4656, 255.0271
498.9477, 254.5715
499.4298, 254.3932
499.9120, 254.3003
500.3941, 254.0200
500.8762, 253.5158
501.3583, 252.9561
501.8404, 252.1853
502.3225, 251.5183
502.8047, 250.9117
503.2868, 250.5188
503.7689, 250.7173
504.2510, 251.7913
504.7331, 253.1169
505.2152, 253.3633
505.6974, 252.2682
506.1795, 251.7596
506.6616, 252.8059
507.1437, 254.0146
507.6258, 254.2632
508.1079, 253.6958
508.5901, 253.2069
509.0722, 253.2421
509.5543, 253.6009
510.0364, 254.1216
510.5185, 254.7938
511.0006, 255.1630
511.4828, 254.8656
511.9649, 254.2693
512.4470, 254.1534
512.9291, 254.5748
513.4112, 255.1536
513.8933, 256.1025
514.3754, 256.9737
514.8575, 257.1221
515.3397, 256.6012
515.8218, 256.1408
516.3039, 256.2797
516.7860, 256.9539
517.2681, 257.6979
517.7502, 258.6730
518.2324, 259.5112
518.7145, 260.0432
519.1966, 260.5114
519.6787, 261.1750
520.1608, 262.0585
520.6429, 262.9862
521.1251, 263.8757
521.6072, 264.7144
522.0893, 264.8791
522.5714, 263.8831
523.0535, 262.9775
523.5356, 262.6809
524.0178, 262.6536
524.4999, 262.5941
524.9820, 262.4524
525.4641, 261.9886
525.9462, 260.5997
526.4283, 258.6098
526.9105, 257.6086
527.3926, 258.1078
527.8747, 258.7476
528.3568, 258.5212
528.8389, 257.5668
529.3210, 256.3492
529.8032, 254.3870
530.2853, 252.7728
530.7674, 252.4282
531.2495, 252.8027
531.7316, 252.7608
532.2137, 251.9654
532.6959, 250.9955
533.1780, 250.6003
533.6601, 250.9285
534.1422, 250.8925
534.6243, 250.0730
535.1064, 249.4029
535.5886, 249.1734
536.0707, 249.3388
536.5528, 249.9086
537.0349, 250.8664
537.5170, 251.8889
537.9991, 252.3614
538.4813, 252.1091
538.9634, 252.2210
539.4455, 253.1660
539.9276, 254.0144
540.4097, 254.0783
540.8918, 253.7691
541.3740, 253.9631
541.8561, 255.1490
542.3382, 256.6570
542.8203, 257.7535
543.3024, 258.4518
543.7845, 258.7736
544.2667, 258.4820
544.7488, 258.2914
545.2309, 259.2721
545.7130, 261.2623
546.1951, 262.7352
546.6772, 262.9814
547.1594, 263.0822
547.6415, 263.7630
548.1236, 264.8623
548.6057, 265.8817
549.0878, 266.6060
549.5699, 267.3540
550.0521, 268.6882
550.5342, 270.8789
551.0163, 272.8236
551.4984, 274.6648
551.9805, 276.1478
552.4626, 276.9337
552.9448, 277.3282
553.4269, 277.9555
553.9090, 279.1349
554.3911, 280.4293
554.8732, 281.0637
555.3553, 280.9712
555.8375, 280.7074
556.3196, 280.6075
556.8017, 279.9976
557.2838, 278.2321
557.7659, 275.6539
558.2480, 273.2401
558.7302, 271.3902
559.2123, 269.7938
559.6944, 268.1383
560.1765, 266.4668
560.6586, 265.0458
561.1407, 264.0235
561.6229, 263.0424
562.1050, 261.5855
562.5871, 259.5462
563.0692, 257.8550
563.5513, 256.6215
564.0334, 255.6458
564.5156, 254.9840
564.9977, 254.4813
565.4798, 253.9319
565.9619, 253.2492
566.4440, 252.3435
566.9261, 250.9306
567.4083, 248.6682
567.8904, 247.2902
568.3725, 247.6113
568.8546, 248.0143
569.3367, 247.9949
569.8188, 247.6792
570.3010, 247.3139
570.7831, 246.9840
571.2652, 246.6411
571.7473, 246.2209
572.2294, 245.7316
572.7115, 245.1263
573.1937, 244.2061
573.6758, 243.6656
574.1579, 244.4751
574.6400, 246.2204
575.1221, 247.2631
575.6042, 246.7077
576.0864, 246.2644
576.5685, 247.1121
577.0506, 248.5291
577.5327, 249.2771
578.0148, 249.0621
578.4969, 248.4451
578.9791, 247.9675
579.4612, 247.6207
579.9433, 247.6440
580.4254, 249.0893
580.9075, 249.6511
581.3896, 248.3172
581.8718, 246.1935
582.3539, 244.5410
582.8360, 243.6112
583.3181, 242.6842
583.8002, 240.7675
584.2823, 238.0815
584.7645, 236.4144
585.2466, 236.1149
585.7287, 235.8400
586.2108, 234.9808
586.6929, 233.7191
587.1750, 232.2506
587.6572, 230.4948
588.1393, 228.9379
588.6214, 227.8843
589.1035, 227.1118
589.5856, 226.3574
590.0677, 225.5914
590.5499, 224.8475
591.0320, 224.1159
591.5141, 223.4615
591.9962, 223.1411
592.4783, 223.6721
592.9604, 223.8101
593.4426, 222.9943
593.9247, 222.2394
594.4068, 222.4368
594.8889, 223.3740
595.3710, 224.1660
595.8531, 224.2286
596.3353, 223.8116
596.8174, 223.5352
597.2995, 223.4747
597.7816, 223.0904
598.2637, 221.9046
598.7458, 220.7493
599.2280, 220.4782
599.7101, 220.9142
600.1922, 221.0845
600.6743, 220.2489
601.1564, 219.4010
601.6385, 219.6076
602.1207, 220.4990
602.6028, 220.9539
603.0849, 220.5876
603.5670, 219.7834
604.0491, 218.9536
604.5313, 218.0067
605.0134, 217.6272
605.4955, 218.3354
605.9776, 218.9323
606.4597, 218.8816
606.9418, 218.5700
607.4240, 218.5487
607.9061, 218.9606
608.3882, 219.4608
608.8703, 219.7308
609.3524, 219.7669
609.8345, 219.4344
610.3167, 218.5599
610.7988, 217.7460
611.2809, 217.2993
611.7630, 217.0909
612.2451, 217.0054
612.7272, 217.0966
613.2094, 217.0212
613.6915, 216.5260
614.1736, 215.8312
614.6557, 215.1065
615.1378, 214.4142
615.6199, 214.0201
616.1021, 214.1275
616.5842, 214.5345
617.0663, 214.6658
617.5484, 214.3452
618.0305, 214.0332
618.5126, 213.5838
618.9948, 213.2743
619.4769, 213.3883
619.9590, 213.7625
620.4411, 214.0328
620.9232, 214.0300
621.4053, 213.7897
621.8875, 213.1651
622.3696, 212.1725
622.8517, 211.8701
623.3338, 212.7295
623.8159, 213.7489
624.2980, 214.1846
624.7802, 214.1138
625.2623, 213.7299
625.7444, 212.8280
626.2265, 211.9054
626.7086, 210.9712
627.1907, 210.2447
627.6729, 210.1934
628.1550, 210.8246
628.6371, 211.5030
629.1192, 211.6507
629.6013, 211.3497
630.0834, 211.2788
630.5656, 211.6250
631.0477, 211.8915
631.5298, 211.9689
632.0119, 211.9787
632.4940, 211.9841
632.9761, 212.0028
633.4583, 212.0751
633.9404, 212.4076
634.4225, 212.6540
634.9046, 212.0310
635.3867, 210.6282
635.8688, 209.6605
636.3510, 209.5499
636.8331, 209.9117
637.3152, 210.3837
637.7973, 210.9936
638.2794, 211.3454
638.7615, 211.2604
639.2437, 211.1134
639.7258, 210.9798
640.2079, 210.9119
640.6900, 211.0599
641.1721, 211.4178
641.6542, 211.6683
642.1364, 211.4218
642.6185, 210.7255
643.1006, 210.1730
643.5827, 209.6901
644.0648, 209.5210
644.5469, 210.2316
645.0291, 210.9959
645.5112, 211.0105
645.9933, 210.2236
646.4754, 209.3128
646.9575, 208.3567
647.4396, 207.5912
647.9218, 207.4033
648.4039, 207.6703
648.8860, 207.8528
649.3681, 207.7284
649.8502, 207.4796
650.3323, 207.4053
650.8145, 207.6043
651.2966, 207.5202
651.7787, 206.9730
652.2608, 206.3639
652.7429, 205.5898
653.2250, 204.9248
653.7072, 204.7901
654.1893, 205.2652
654.6714, 205.8511
655.1535, 206.1894
655.6356, 206.2632
656.1177, 205.9089
656.5999, 205.0599
657.0820, 204.3251
657.5641, 204.0039
658.0462, 203.9425
658.5283, 203.8718
659.0104, 203.7862
659.4926, 203.7216
659.9747, 203.9388
660.4568, 203.9378
660.9389, 203.1254
661.4210, 201.8992
661.9031, 201.1105
662.3853, 201.0822
662.8674, 201.3791
663.3495, 201.3822
663.8316, 201.0630
664.3137, 200.8730
664.7958, 200.7840
665.2780, 200.8748
665.7601, 201.3892
666.2422, 202.0026
666.7243, 202.3560
667.2064, 202.4058
667.6885, 202.2364
668.1707, 201.7850
668.6528, 201.2042
669.1349, 200.6361
669.6170, 200.0973
670.0991, 199.5495
670.5812, 198.9599
671.0634, 198.5162
671.5455, 198.6095
672.0276, 199.4856
672.5097, 199.9639
672.9918, 199.7112
673.4739, 199.4155
673.9561, 199.3521
674.4382, 199.3299
674.9203, 198.9849
675.4024, 198.2314
675.8845, 197.6559
676.3666, 197.9894
676.8488, 198.7695
