##NAMES=Prosopite
##RRUFFID=R100181
##IDEAL CHEMISTRY=CaAl_2_F_4_(OH)_4_
##LOCALITY=Carlota mine, Pinto Creek, Gila, Arizona, USA
##OWNER=RRUFF
##SOURCE=Joe Ruiz
##DESCRIPTION=Colorless granular crystals,  associated with blue azurite, green elongated szenicsite (R100179) and pale green thick tabular powellite (R100180)
##STATUS=The identification of this mineral has been confirmed by single-crystal X-ray diffraction.
##URL=rruff.info/R100181
108.4438, 17424.66
108.9259, 17427.32
109.4080, 17407.81
109.8901, 17381.70
110.3722, 17373.18
110.8544, 17389.00
111.3365, 17406.42
111.8186, 17409.07
112.3007, 17402.11
112.7828, 17395.36
113.2649, 17396.25
113.7471, 17403.83
114.2292, 17406.10
114.7113, 17395.96
115.1934, 17386.74
115.6755, 17386.76
116.1576, 17393.61
116.6397, 17398.04
117.1219, 17388.45
117.6040, 17356.77
118.0861, 17335.52
118.5682, 17328.14
119.0503, 17326.13
119.5324, 17326.13
120.0146, 17326.71
120.4967, 17326.84
120.9788, 17324.69
121.4609, 17315.01
121.9430, 17310.98
122.4251, 17317.84
122.9073, 17328.49
123.3894, 17334.22
123.8715, 17331.31
124.3536, 17323.09
124.8357, 17318.09
125.3178, 17317.68
125.8000, 17316.72
126.2821, 17311.20
126.7642, 17302.92
127.2463, 17299.52
127.7284, 17308.56
128.2105, 17321.76
128.6927, 17324.23
129.1748, 17311.65
129.6569, 17294.74
130.1390, 17283.04
130.6211, 17276.93
131.1032, 17273.92
131.5854, 17274.33
132.0675, 17276.77
132.5496, 17280.51
133.0317, 17285.83
133.5138, 17291.60
133.9959, 17295.29
134.4781, 17297.22
134.9602, 17296.02
135.4423, 17286.79
135.9244, 17275.56
136.4065, 17270.91
136.8886, 17278.98
137.3708, 17298.57
137.8529, 17312.38
138.3350, 17320.05
138.8171, 17321.85
139.2992, 17312.90
139.7813, 17297.43
140.2635, 17284.21
140.7456, 17281.12
141.2277, 17289.74
141.7098, 17294.82
142.1919, 17295.39
142.6740, 17294.10
143.1561, 17292.01
143.6383, 17289.36
144.1204, 17286.25
144.6025, 17282.83
145.0846, 17279.14
145.5667, 17274.79
146.0488, 17267.48
146.5310, 17260.66
147.0131, 17260.21
147.4952, 17268.58
147.9773, 17276.06
148.4594, 17266.69
148.9415, 17243.71
149.4237, 17226.11
149.9058, 17222.14
150.3879, 17228.87
150.8700, 17239.84
151.3521, 17259.79
151.8342, 17275.26
152.3164, 17273.96
152.7985, 17257.65
153.2806, 17239.95
153.7627, 17231.39
154.2448, 17232.10
154.7269, 17231.92
155.2091, 17222.02
155.6912, 17217.02
156.1733, 17228.93
156.6554, 17256.93
157.1375, 17286.46
157.6196, 17298.73
158.1018, 17286.59
158.5839, 17277.47
159.0660, 17276.03
159.5481, 17275.45
160.0302, 17271.50
160.5123, 17263.11
160.9945, 17252.23
161.4766, 17242.07
161.9587, 17230.38
162.4408, 17223.16
162.9229, 17225.72
163.4050, 17229.96
163.8871, 17226.65
164.3693, 17212.51
164.8514, 17193.87
165.3335, 17186.42
165.8156, 17199.79
166.2977, 17211.00
166.7798, 17217.04
167.2620, 17219.70
167.7441, 17221.67
168.2262, 17224.26
168.7083, 17226.66
169.1904, 17226.14
169.6725, 17221.23
170.1547, 17216.85
170.6368, 17216.20
171.1189, 17218.00
171.6010, 17218.00
172.0831, 17214.63
172.5652, 17207.64
173.0474, 17197.50
173.5295, 17182.96
174.0116, 17167.69
174.4937, 17154.34
174.9758, 17142.89
175.4579, 17132.21
175.9401, 17121.41
176.4222, 17111.51
176.9043, 17104.19
177.3864, 17100.54
177.8685, 17097.56
178.3506, 17090.04
178.8328, 17075.54
179.3149, 17065.52
179.7970, 17066.39
180.2791, 17072.12
180.7612, 17078.12
181.2433, 17082.77
181.7255, 17086.69
182.2076, 17091.96
182.6897, 17102.38
183.1718, 17106.30
183.6539, 17094.63
184.1360, 17078.96
184.6181, 17072.81
185.1003, 17083.21
185.5824, 17103.94
186.0645, 17112.64
186.5466, 17095.68
187.0287, 17082.49
187.5108, 17079.57
187.9930, 17081.93
188.4751, 17083.38
188.9572, 17080.51
189.4393, 17073.89
189.9214, 17066.51
190.4035, 17057.50
190.8857, 17048.87
191.3678, 17039.51
191.8499, 17031.02
192.3320, 17027.49
192.8141, 17032.61
193.2962, 17043.88
193.7784, 17040.86
194.2605, 17011.27
194.7426, 16984.06
195.2247, 16968.91
195.7068, 16964.02
196.1889, 16963.61
196.6711, 16964.88
197.1532, 16967.63
197.6353, 16970.61
198.1174, 16973.59
198.5995, 16976.82
199.0816, 16985.11
199.5638, 16996.38
200.0459, 16995.41
200.5280, 16964.54
201.0101, 16917.42
201.4922, 16894.76
201.9743, 16915.09
202.4565, 16942.95
202.9386, 16946.91
203.4207, 16926.44
203.9028, 16904.29
204.3849, 16889.18
204.8670, 16881.62
205.3492, 16884.33
205.8313, 16904.54
206.3134, 16926.57
206.7955, 16928.52
207.2776, 16906.08
207.7597, 16883.63
208.2419, 16871.88
208.7240, 16865.90
209.2061, 16861.94
209.6882, 16859.03
210.1703, 16857.01
210.6524, 16855.91
211.1346, 16856.26
211.6167, 16855.94
212.0988, 16853.54
212.5809, 16850.44
213.0630, 16847.61
213.5451, 16845.28
214.0273, 16844.05
214.5094, 16846.11
214.9915, 16855.52
215.4736, 16860.61
215.9557, 16858.10
216.4378, 16851.51
216.9200, 16843.86
217.4021, 16836.49
217.8842, 16829.52
218.3663, 16823.38
218.8484, 16818.50
219.3305, 16814.07
219.8127, 16811.37
220.2948, 16808.54
220.7769, 16803.30
221.2590, 16794.62
221.7411, 16783.72
222.2232, 16774.17
222.7054, 16764.02
223.1875, 16758.06
223.6696, 16759.72
224.1517, 16764.56
224.6338, 16767.31
225.1159, 16765.60
225.5980, 16761.20
226.0802, 16759.23
226.5623, 16765.13
227.0444, 16766.96
227.5265, 16760.93
228.0086, 16751.17
228.4907, 16743.29
228.9729, 16739.72
229.4550, 16738.47
229.9371, 16734.44
230.4192, 16726.91
230.9013, 16718.02
231.3834, 16705.66
231.8656, 16692.66
232.3477, 16683.36
232.8298, 16679.56
233.3119, 16679.59
233.7940, 16680.68
234.2761, 16684.18
234.7583, 16685.25
235.2404, 16679.99
235.7225, 16671.82
236.2046, 16667.43
236.6867, 16669.82
237.1688, 16674.52
237.6510, 16672.78
238.1331, 16663.50
238.6152, 16656.00
239.0973, 16658.36
239.5794, 16664.39
240.0615, 16658.13
240.5437, 16630.38
241.0258, 16599.49
241.5079, 16593.18
241.9900, 16610.97
242.4721, 16625.69
242.9542, 16623.79
243.4364, 16610.35
243.9185, 16597.95
244.4006, 16588.97
244.8827, 16581.84
245.3648, 16575.27
245.8469, 16569.21
246.3290, 16563.32
246.8112, 16556.71
247.2933, 16550.10
247.7754, 16546.07
248.2575, 16546.91
248.7396, 16546.95
249.2217, 16540.91
249.7039, 16530.27
250.1860, 16520.04
250.6681, 16514.26
251.1502, 16511.26
251.6323, 16503.96
252.1144, 16488.40
252.5966, 16474.65
253.0787, 16470.05
253.5608, 16471.53
254.0429, 16472.11
254.5250, 16467.74
255.0071, 16459.47
255.4893, 16450.86
255.9714, 16441.07
256.4535, 16432.62
256.9356, 16425.05
257.4177, 16419.50
257.8998, 16418.67
258.3820, 16426.87
258.8641, 16439.56
259.3462, 16439.17
259.8283, 16415.07
260.3104, 16395.22
260.7925, 16390.38
261.2747, 16393.89
261.7568, 16397.28
262.2389, 16396.50
262.7210, 16392.72
263.2031, 16389.60
263.6852, 16389.00
264.1674, 16385.56
264.6495, 16377.42
265.1316, 16366.64
265.6137, 16354.13
266.0958, 16340.04
266.5779, 16327.22
267.0601, 16323.63
267.5422, 16337.13
268.0243, 16345.94
268.5064, 16345.54
268.9885, 16340.68
269.4706, 16335.95
269.9528, 16332.90
270.4349, 16329.11
270.9170, 16318.92
271.3991, 16295.87
271.8812, 16279.50
272.3633, 16273.52
272.8455, 16271.98
273.3276, 16270.79
273.8097, 16268.78
274.2918, 16267.11
274.7739, 16268.44
275.2560, 16278.09
275.7382, 16278.75
276.2202, 16262.99
276.7024, 16245.68
277.1845, 16236.30
277.6666, 16235.94
278.1487, 16239.41
278.6308, 16240.94
279.1129, 16240.90
279.5951, 16236.95
280.0772, 16223.76
280.5593, 16211.77
281.0414, 16208.78
281.5235, 16213.22
282.0056, 16216.95
282.4878, 16212.27
282.9699, 16198.36
283.4520, 16181.08
283.9341, 16150.32
284.4162, 16126.33
284.8983, 16122.15
285.3805, 16132.62
285.8626, 16143.12
286.3447, 16142.23
286.8268, 16130.25
287.3089, 16120.62
287.7910, 16112.56
288.2732, 16107.56
288.7553, 16108.47
289.2374, 16112.71
289.7195, 16116.13
290.2016, 16116.44
290.6837, 16113.41
291.1659, 16105.30
291.6480, 16086.04
292.1301, 16068.72
292.6122, 16053.89
293.0943, 16042.57
293.5764, 16037.64
294.0586, 16040.63
294.5407, 16047.36
295.0228, 16046.44
295.5049, 16026.20
295.9870, 16012.45
296.4691, 16009.80
296.9513, 16012.56
297.4334, 16016.24
297.9155, 16019.15
298.3976, 16019.38
298.8797, 16013.20
299.3618, 15994.10
299.8440, 15980.93
300.3261, 15979.67
300.8082, 15980.55
301.2903, 15973.03
301.7724, 15956.22
302.2545, 15940.69
302.7367, 15939.57
303.2188, 15958.08
303.7009, 15971.47
304.1830, 15980.89
304.6651, 15984.81
305.1472, 15980.07
305.6294, 15967.90
306.1115, 15953.90
306.5936, 15942.62
307.0757, 15934.14
307.5578, 15926.84
308.0399, 15919.85
308.5221, 15914.65
309.0042, 15913.02
309.4863, 15913.87
309.9684, 15915.08
310.4505, 15915.87
310.9326, 15915.50
311.4148, 15908.30
311.8969, 15885.32
312.3790, 15866.97
312.8611, 15862.18
313.3432, 15864.57
313.8253, 15862.56
314.3075, 15850.51
314.7896, 15833.94
315.2717, 15827.22
315.7538, 15842.37
316.2359, 15850.13
316.7180, 15844.39
317.2001, 15831.91
317.6823, 15818.25
318.1644, 15805.25
318.6465, 15795.29
319.1286, 15792.31
319.6107, 15800.51
320.0928, 15805.97
320.5750, 15807.25
321.0571, 15806.72
321.5392, 15806.43
322.0213, 15806.39
322.5034, 15804.81
322.9855, 15799.71
323.4677, 15790.35
323.9498, 15781.40
324.4319, 15771.84
324.9140, 15763.39
325.3961, 15756.45
325.8782, 15751.28
326.3604, 15748.86
326.8425, 15750.54
327.3246, 15755.61
327.8067, 15755.17
328.2888, 15748.76
328.7709, 15738.65
329.2531, 15720.81
329.7352, 15700.63
330.2173, 15687.37
330.6994, 15685.73
331.1815, 15691.43
331.6636, 15692.72
332.1458, 15687.13
332.6279, 15679.94
333.1100, 15671.16
333.5921, 15660.97
334.0742, 15647.23
334.5563, 15630.07
335.0385, 15615.49
335.5206, 15613.23
336.0027, 15631.47
336.4848, 15640.89
336.9669, 15636.82
337.4490, 15628.64
337.9312, 15620.54
338.4133, 15613.78
338.8954, 15609.96
339.3775, 15611.55
339.8596, 15619.77
340.3417, 15617.76
340.8239, 15594.63
341.3060, 15573.92
341.7881, 15564.45
342.2702, 15563.71
342.7523, 15566.35
343.2344, 15569.47
343.7166, 15572.21
344.1987, 15570.43
344.6808, 15556.47
345.1629, 15546.58
345.6450, 15546.20
346.1271, 15549.10
346.6093, 15548.87
347.0914, 15543.11
347.5735, 15532.87
348.0556, 15520.00
348.5377, 15502.87
349.0198, 15486.01
349.5020, 15467.07
349.9841, 15450.18
350.4662, 15439.29
350.9483, 15434.26
351.4304, 15431.27
351.9125, 15425.94
352.3947, 15417.38
352.8768, 15412.84
353.3589, 15418.93
353.8410, 15422.46
354.3231, 15415.71
354.8052, 15402.73
355.2874, 15393.08
355.7695, 15394.17
356.2516, 15402.97
356.7337, 15401.86
357.2158, 15379.37
357.6979, 15362.29
358.1800, 15360.68
358.6621, 15364.40
359.1443, 15361.13
359.6264, 15346.16
360.1085, 15327.02
360.5906, 15318.62
361.0727, 15327.96
361.5548, 15329.72
362.0370, 15311.64
362.5191, 15293.11
363.0012, 15289.08
363.4833, 15299.07
363.9654, 15308.95
364.4475, 15301.82
364.9297, 15276.10
365.4118, 15260.01
365.8939, 15264.45
366.3760, 15266.76
366.8581, 15251.75
367.3402, 15228.08
367.8224, 15214.75
368.3045, 15226.29
368.7866, 15252.97
369.2687, 15265.43
369.7508, 15258.44
370.2329, 15248.38
370.7151, 15239.25
371.1972, 15230.88
371.6793, 15223.50
372.1614, 15217.46
372.6435, 15210.97
373.1256, 15200.14
373.6078, 15184.33
374.0899, 15174.38
374.5720, 15178.89
375.0541, 15184.44
375.5362, 15180.35
376.0183, 15167.10
376.5005, 15153.00
376.9826, 15142.53
377.4647, 15135.34
377.9468, 15130.18
378.4289, 15126.79
378.9110, 15125.68
379.3932, 15132.85
379.8753, 15142.06
380.3574, 15139.79
380.8395, 15113.89
381.3216, 15081.91
381.8037, 15067.10
382.2859, 15069.79
382.7680, 15071.94
383.2501, 15065.59
383.7322, 15054.26
384.2143, 15043.57
384.6964, 15033.44
385.1786, 15025.14
385.6607, 15020.42
386.1428, 15018.31
386.6249, 15016.31
387.1070, 15014.09
387.5891, 15011.46
388.0713, 15009.06
388.5534, 15006.85
389.0355, 15000.93
389.5176, 14986.51
389.9997, 14970.53
390.4818, 14958.86
390.9640, 14951.94
391.4461, 14950.62
391.9282, 14957.90
392.4103, 14970.97
392.8924, 14975.27
393.3745, 14960.47
393.8567, 14948.81
394.3388, 14952.54
394.8209, 14965.05
395.3030, 14973.27
395.7851, 14972.10
396.2672, 14966.13
396.7494, 14963.92
397.2315, 14969.15
397.7136, 14968.68
398.1957, 14956.99
398.6778, 14942.56
399.1599, 14932.64
399.6420, 14927.65
400.1241, 14923.05
400.6063, 14914.26
401.0884, 14900.99
401.5705, 14894.38
402.0526, 14900.77
402.5347, 14906.04
403.0168, 14906.67
403.4990, 14903.34
403.9811, 14897.15
404.4632, 14888.69
404.9453, 14878.84
405.4274, 14869.79
405.9095, 14863.30
406.3917, 14854.87
406.8738, 14841.33
407.3559, 14828.29
407.8380, 14819.16
408.3201, 14814.58
408.8022, 14813.85
409.2844, 14817.27
409.7665, 14825.25
410.2486, 14829.14
410.7307, 14825.17
411.2128, 14820.66
411.6949, 14819.25
412.1771, 14818.33
412.6592, 14813.22
413.1413, 14801.13
413.6234, 14785.17
414.1055, 14771.10
414.5876, 14757.54
415.0698, 14750.00
415.5519, 14759.25
416.0340, 14768.74
416.5161, 14764.37
416.9982, 14745.39
417.4803, 14727.01
417.9625, 14724.19
418.4446, 14734.42
418.9267, 14740.07
419.4088, 14739.03
419.8909, 14734.95
420.3730, 14728.91
420.8552, 14721.81
421.3373, 14715.47
421.8194, 14710.66
422.3015, 14706.69
422.7836, 14703.85
423.2657, 14702.08
423.7479, 14696.83
424.2300, 14684.17
424.7121, 14668.96
425.1942, 14658.30
425.6763, 14652.38
426.1584, 14649.93
426.6406, 14654.09
427.1227, 14660.40
427.6048, 14660.20
428.0869, 14651.69
428.5690, 14642.06
429.0511, 14638.73
429.5333, 14641.56
430.0154, 14639.06
430.4975, 14623.76
430.9796, 14610.10
431.4617, 14609.85
431.9438, 14617.88
432.4260, 14620.01
432.9081, 14609.07
433.3902, 14590.28
433.8723, 14575.88
434.3544, 14566.30
434.8365, 14560.70
435.3187, 14561.69
435.8008, 14564.79
436.2829, 14567.97
436.7650, 14570.01
437.2471, 14568.28
437.7292, 14559.86
438.2114, 14544.49
438.6935, 14530.89
439.1756, 14518.07
439.6577, 14508.26
440.1398, 14504.47
440.6219, 14503.36
441.1040, 14501.05
441.5862, 14495.95
442.0683, 14488.32
442.5504, 14477.57
443.0325, 14460.92
443.5146, 14449.90
443.9967, 14452.70
444.4789, 14455.46
444.9610, 14449.69
445.4431, 14436.90
445.9252, 14424.71
446.4073, 14419.34
446.8894, 14418.80
447.3716, 14414.50
447.8537, 14403.31
448.3358, 14396.01
448.8179, 14402.82
449.3000, 14413.46
449.7821, 14415.45
450.2643, 14404.36
450.7464, 14393.16
451.2285, 14396.98
451.7106, 14411.75
452.1927, 14415.30
452.6748, 14399.12
453.1570, 14379.32
453.6391, 14374.83
454.1212, 14382.01
454.6033, 14384.03
455.0854, 14371.90
455.5675, 14356.82
456.0497, 14349.86
456.5318, 14349.92
457.0139, 14347.72
457.4960, 14337.09
457.9781, 14323.07
458.4602, 14321.15
458.9424, 14342.39
459.4245, 14351.02
459.9066, 14328.07
460.3887, 14296.67
460.8708, 14282.44
461.3529, 14287.98
461.8351, 14296.52
462.3172, 14291.57
462.7993, 14272.47
463.2814, 14261.63
463.7635, 14268.47
464.2456, 14272.12
464.7278, 14265.65
465.2099, 14253.32
465.6920, 14240.89
466.1741, 14230.58
466.6562, 14221.71
467.1383, 14212.96
467.6205, 14203.53
468.1026, 14196.44
468.5847, 14194.27
469.0668, 14192.25
469.5489, 14187.77
470.0310, 14181.62
470.5132, 14176.47
470.9953, 14174.38
471.4774, 14174.02
471.9595, 14172.39
472.4416, 14169.93
472.9237, 14164.74
473.4059, 14152.09
473.8880, 14138.96
474.3701, 14134.81
474.8522, 14141.27
475.3343, 14141.18
475.8164, 14114.84
476.2986, 14074.51
476.7807, 14052.74
477.2628, 14055.95
477.7449, 14062.62
478.2270, 14055.98
478.7091, 14039.25
479.1913, 14027.12
479.6734, 14021.34
480.1555, 14019.08
480.6376, 14022.58
481.1197, 14028.15
481.6018, 14026.48
482.0839, 14014.10
482.5660, 13999.26
483.0482, 13994.42
483.5303, 14005.00
484.0124, 14005.24
484.4945, 13982.41
484.9766, 13961.84
485.4587, 13961.52
485.9409, 13974.54
486.4230, 13982.36
486.9051, 13974.39
487.3872, 13955.60
487.8693, 13940.22
488.3514, 13928.60
488.8336, 13919.86
489.3157, 13916.71
489.7978, 13913.86
490.2799, 13907.17
490.7620, 13897.08
491.2441, 13887.49
491.7263, 13882.48
492.2084, 13880.60
492.6905, 13873.80
493.1726, 13859.32
493.6547, 13846.84
494.1368, 13842.73
494.6190, 13841.61
495.1011, 13837.59
495.5832, 13829.19
496.0653, 13821.67
496.5474, 13821.48
497.0295, 13825.41
497.5117, 13823.30
497.9938, 13812.77
498.4759, 13799.45
498.9580, 13787.01
499.4401, 13775.33
499.9222, 13763.98
500.4044, 13749.33
500.8865, 13738.58
501.3686, 13738.98
501.8507, 13745.47
502.3328, 13747.07
502.8149, 13739.97
503.2971, 13729.44
503.7792, 13723.37
504.2613, 13724.39
504.7434, 13720.02
505.2255, 13703.62
505.7076, 13689.10
506.1898, 13683.57
506.6719, 13685.04
507.1540, 13690.58
507.6361, 13699.18
508.1182, 13705.64
508.6003, 13695.30
509.0825, 13657.56
509.5646, 13631.46
510.0467, 13626.83
510.5288, 13629.57
511.0109, 13637.43
511.4930, 13646.90
511.9752, 13648.90
512.4573, 13632.74
512.9394, 13608.49
513.4215, 13602.66
513.9036, 13619.18
514.3857, 13628.77
514.8679, 13615.53
515.3500, 13592.94
515.8321, 13579.24
516.3142, 13575.79
516.7963, 13571.71
517.2784, 13561.39
517.7606, 13548.09
518.2427, 13535.05
518.7248, 13522.82
519.2069, 13514.39
519.6890, 13512.53
520.1711, 13515.82
520.6533, 13517.22
521.1354, 13519.85
521.6175, 13516.87
522.0996, 13501.54
522.5817, 13483.28
523.0638, 13472.40
523.5460, 13470.02
524.0281, 13469.36
524.5102, 13463.38
524.9923, 13452.39
525.4744, 13448.49
525.9565, 13461.96
526.4387, 13469.01
526.9208, 13460.48
527.4029, 13445.82
527.8850, 13435.35
528.3671, 13431.57
528.8492, 13428.78
529.3314, 13419.13
529.8135, 13403.91
530.2956, 13397.28
530.7777, 13405.27
531.2598, 13411.03
531.7419, 13398.95
532.2241, 13378.83
532.7062, 13366.92
533.1883, 13369.76
533.6704, 13373.91
534.1525, 13370.04
534.6346, 13360.61
535.1168, 13350.42
535.5989, 13340.25
536.0810, 13332.58
536.5631, 13330.92
537.0452, 13335.62
537.5273, 13335.93
538.0095, 13330.44
538.4916, 13322.56
538.9737, 13308.52
539.4558, 13294.52
539.9379, 13291.60
540.4200, 13302.68
540.9022, 13317.78
541.3843, 13323.19
541.8664, 13317.73
542.3485, 13309.54
542.8306, 13294.58
543.3127, 13281.42
543.7948, 13273.44
544.2769, 13268.87
544.7590, 13264.99
545.2411, 13260.82
545.7233, 13257.00
546.2054, 13253.50
546.6875, 13250.53
547.1696, 13253.13
547.6517, 13267.15
548.1339, 13277.09
548.6160, 13262.49
549.0981, 13232.46
549.5802, 13212.80
550.0623, 13212.07
550.5444, 13218.92
551.0266, 13232.36
551.5087, 13247.33
551.9908, 13250.97
552.4729, 13239.12
552.9550, 13220.50
553.4371, 13205.31
553.9193, 13193.65
554.4014, 13185.22
554.8835, 13182.62
555.3656, 13180.01
555.8477, 13174.23
556.3298, 13167.49
556.8120, 13163.65
557.2941, 13164.00
557.7762, 13165.90
558.2583, 13166.16
558.7404, 13164.97
559.2225, 13160.32
559.7047, 13149.68
560.1868, 13138.65
560.6689, 13126.82
561.1510, 13116.99
561.6331, 13116.04
562.1152, 13130.64
562.5974, 13141.43
563.0795, 13124.88
563.5616, 13088.80
564.0437, 13061.04
564.5258, 13046.99
565.0079, 13042.33
565.4901, 13046.03
565.9722, 13057.47
566.4543, 13062.79
566.9364, 13059.98
567.4185, 13053.58
567.9006, 13042.04
568.3828, 13029.30
568.8649, 13021.63
569.3470, 13020.31
569.8291, 13020.26
570.3112, 13015.67
570.7933, 13006.30
571.2755, 12996.58
571.7576, 12986.99
572.2397, 12976.22
572.7218, 12959.74
573.2039, 12943.95
573.6860, 12938.45
574.1682, 12945.18
574.6503, 12951.12
575.1324, 12940.04
575.6145, 12916.86
576.0966, 12904.58
576.5787, 12906.49
577.0609, 12912.13
577.5430, 12919.74
578.0251, 12925.02
578.5072, 12917.45
578.9893, 12889.06
579.4714, 12865.37
579.9536, 12862.87
580.4357, 12866.93
580.9178, 12857.17
581.3999, 12832.88
581.8820, 12809.55
582.3641, 12799.20
582.8463, 12799.78
583.3284, 12799.11
583.8105, 12797.90
584.2926, 12794.33
584.7747, 12785.59
585.2568, 12776.67
585.7390, 12773.06
586.2211, 12773.64
586.7032, 12771.18
587.1853, 12758.66
587.6674, 12740.85
588.1495, 12731.97
588.6317, 12733.69
589.1138, 12733.91
589.5959, 12727.62
590.0780, 12719.16
590.5601, 12714.84
591.0422, 12714.52
591.5244, 12710.53
592.0065, 12694.10
592.4886, 12677.98
592.9707, 12677.04
593.4528, 12687.09
593.9349, 12691.86
594.4171, 12683.76
594.8992, 12670.20
595.3813, 12664.21
595.8634, 12668.67
596.3455, 12672.30
596.8276, 12681.35
597.3098, 12683.18
597.7919, 12667.37
598.2740, 12641.99
598.7561, 12620.01
599.2382, 12606.63
599.7203, 12599.14
600.2025, 12595.65
600.6846, 12596.00
601.1667, 12592.80
601.6488, 12583.12
602.1309, 12574.46
602.6130, 12575.44
603.0952, 12580.77
603.5773, 12578.96
604.0594, 12564.53
