##NAMES=Prosopite
##RRUFFID=R050668
##IDEAL CHEMISTRY=CaAl_2_F_4_(OH)_4_
##LOCALITY=Grand Reef mine, Klondyke, Aravaipa District, Graham County, Arizona, USA
##OWNER=RRUFF
##SOURCE=University of Arizona Mineral Museum
##DESCRIPTION=Light-blue massive coating on quartz
##STATUS=The identification of this mineral has been confirmed by X-ray diffraction.
##URL=rruff.info/R050668
89.78156, 0.0000000E+00
90.26367, 19.71997
90.74579, 20.46597
91.22791, 20.14839
91.71002, 18.88489
92.19214, 17.70739
92.67426, 17.74982
93.15638, 18.57332
93.63850, 19.00065
94.12061, 18.33751
94.60273, 17.10163
95.08485, 16.54862
95.56696, 16.74330
96.04908, 17.21609
96.53120, 17.41854
97.01331, 17.36254
97.49543, 17.36032
97.97755, 17.60756
98.45966, 18.08221
98.94178, 18.42319
99.42390, 18.64032
99.90602, 18.70423
100.3881, 18.52368
100.8703, 18.04299
101.3524, 17.50750
101.8345, 16.96888
102.3166, 16.35885
102.7987, 16.10113
103.2808, 16.39926
103.7630, 17.06761
104.2451, 17.23846
104.7272, 16.63830
105.2093, 15.90396
105.6914, 15.42917
106.1735, 15.24976
106.6557, 15.28893
107.1378, 15.68431
107.6199, 16.46100
108.1020, 16.82712
108.5841, 16.39507
109.0662, 15.75756
109.5484, 15.44069
110.0305, 15.56780
110.5126, 15.88830
110.9947, 16.51374
111.4768, 17.62441
111.9590, 18.22252
112.4411, 17.35459
112.9232, 16.13517
113.4053, 16.02251
113.8874, 18.73012
114.3695, 21.40204
114.8517, 22.86686
115.3338, 22.57495
115.8159, 22.12378
116.2980, 21.59789
116.7801, 21.22306
117.2622, 21.48087
117.7444, 23.25324
118.2265, 25.29995
118.7086, 26.71244
119.1907, 26.75323
119.6728, 26.98549
120.1549, 28.55055
120.6371, 31.15162
121.1192, 33.59554
121.6013, 34.94622
122.0834, 35.83372
122.5655, 36.94697
123.0476, 38.53676
123.5298, 40.39782
124.0119, 42.40729
124.4940, 44.55810
124.9761, 46.75963
125.4582, 48.97238
125.9404, 51.16951
126.4225, 53.27846
126.9046, 55.17297
127.3867, 56.99195
127.8688, 58.97948
128.3509, 61.14827
128.8331, 63.36145
129.3152, 65.38878
129.7973, 67.30085
130.2794, 69.39528
130.7615, 71.92818
131.2436, 74.77325
131.7258, 77.40266
132.2079, 79.72397
132.6900, 82.04302
133.1721, 84.77679
133.6542, 87.91596
134.1364, 91.44789
134.6185, 95.66545
135.1006, 100.5418
135.5827, 104.7393
136.0648, 107.9246
136.5469, 110.6879
137.0291, 114.6472
137.5112, 120.0591
137.9933, 125.5000
138.4754, 130.3496
138.9575, 134.6689
139.4396, 137.6031
139.9218, 138.4785
140.4039, 137.8965
140.8860, 138.9704
141.3681, 142.4046
141.8502, 146.2370
142.3323, 148.7200
142.8145, 149.1652
143.2966, 150.1207
143.7787, 151.9850
144.2608, 154.7661
144.7429, 157.9079
145.2250, 161.7911
145.7072, 165.7308
146.1893, 169.0124
146.6714, 170.7699
147.1535, 173.1587
147.6356, 176.6739
148.1178, 181.4469
148.5999, 186.3416
149.0820, 191.2506
149.5641, 196.3099
150.0462, 201.6310
150.5283, 207.1837
151.0105, 212.9595
151.4926, 216.9104
151.9747, 220.5025
152.4568, 224.6289
152.9389, 229.5563
153.4210, 234.9209
153.9032, 240.3106
154.3853, 246.4701
154.8674, 251.8871
155.3495, 255.8674
155.8316, 257.6014
156.3137, 259.8619
156.7959, 263.5383
157.2780, 267.9843
157.7601, 271.9695
158.2422, 275.8545
158.7243, 278.8116
159.2065, 280.4228
159.6886, 280.1479
160.1707, 279.4015
160.6528, 278.4984
161.1349, 277.4211
161.6170, 276.1239
162.0992, 274.0063
162.5813, 272.0084
163.0634, 270.7426
163.5455, 270.4267
164.0276, 270.7240
164.5097, 271.6192
164.9919, 273.0396
165.4740, 274.7142
165.9561, 276.1158
166.4382, 277.8806
166.9203, 280.6208
167.4024, 285.0041
167.8846, 289.8900
168.3667, 294.6342
168.8488, 299.2850
169.3309, 304.1479
169.8130, 310.0945
170.2952, 316.1918
170.7773, 321.2244
171.2594, 325.1815
171.7415, 327.6943
172.2236, 328.3786
172.7057, 327.2765
173.1879, 324.9120
173.6700, 321.9856
174.1521, 318.0211
174.6342, 312.2336
175.1163, 302.7400
175.5984, 291.9781
176.0806, 282.6149
176.5627, 274.5916
177.0448, 267.8983
177.5269, 262.8628
178.0090, 259.1973
178.4911, 256.0856
178.9733, 253.3109
179.4554, 250.8797
179.9375, 248.6169
180.4196, 246.4895
180.9017, 245.0234
181.3838, 244.9854
181.8660, 246.1420
182.3481, 247.6702
182.8302, 249.1426
183.3123, 250.7204
183.7944, 252.8148
184.2766, 255.4993
184.7587, 258.4731
185.2408, 261.5471
185.7229, 264.6681
186.2050, 267.6815
186.6871, 270.1846
187.1693, 272.4678
187.6514, 275.6222
188.1335, 279.9406
188.6156, 284.4377
189.0977, 288.0009
189.5798, 290.6065
190.0620, 292.1895
190.5441, 292.9018
191.0262, 292.6389
191.5083, 290.5963
191.9904, 286.4038
192.4725, 281.1144
192.9547, 276.0869
193.4368, 271.2529
193.9189, 267.4286
194.4010, 265.2668
194.8831, 264.6879
195.3652, 264.4111
195.8474, 264.2704
196.3295, 264.5271
196.8116, 265.9260
197.2937, 268.5729
197.7758, 271.2950
198.2579, 273.4670
198.7401, 275.0855
199.2222, 276.5352
199.7043, 278.2333
200.1864, 279.3329
200.6685, 277.7806
201.1507, 273.3875
201.6328, 267.2309
202.1149, 259.3442
202.5970, 249.4621
203.0791, 240.5369
203.5612, 232.9318
204.0434, 226.4234
204.5255, 220.4768
205.0076, 215.0120
205.4897, 210.3775
205.9718, 206.9175
206.4539, 204.7798
206.9361, 202.9274
207.4182, 201.2537
207.9003, 199.8180
208.3824, 198.7847
208.8645, 198.2085
209.3466, 197.8892
209.8288, 197.7426
210.3109, 197.8130
210.7930, 197.8557
211.2751, 197.8181
211.7572, 197.7457
212.2393, 197.8167
212.7215, 198.0674
213.2036, 198.3769
213.6857, 198.6272
214.1678, 198.7227
214.6499, 199.0732
215.1320, 199.6877
215.6142, 200.5872
216.0963, 201.9078
216.5784, 203.8183
217.0605, 205.8118
217.5426, 207.5067
218.0247, 208.6701
218.5069, 210.2034
218.9890, 212.3682
219.4711, 214.9729
219.9532, 217.1334
220.4353, 218.7589
220.9175, 220.1272
221.3996, 221.3231
221.8817, 222.0352
222.3638, 223.3996
222.8459, 225.7130
223.3280, 228.7970
223.8102, 231.5471
224.2923, 233.8797
224.7744, 236.0783
225.2565, 238.3691
225.7386, 241.0193
226.2207, 243.1284
226.7029, 244.7381
227.1850, 245.7612
227.6671, 245.5558
228.1492, 243.5013
228.6313, 241.1018
229.1134, 239.2396
229.5956, 237.9849
230.0777, 237.0767
230.5598, 236.5066
231.0419, 236.2685
231.5240, 236.2983
232.0062, 236.5304
232.4883, 237.1227
232.9704, 238.2346
233.4525, 240.1768
233.9346, 241.9615
234.4167, 243.5343
234.8989, 244.8917
235.3810, 246.0213
235.8631, 246.9907
236.3452, 247.6553
236.8273, 247.9504
237.3094, 247.8895
237.7916, 247.4218
238.2737, 246.5116
238.7558, 245.1842
239.2379, 243.4620
239.7200, 240.9116
240.2021, 238.5449
240.6843, 236.9317
241.1664, 236.4578
241.6485, 235.9411
242.1306, 235.5953
242.6127, 235.1681
243.0948, 233.5735
243.5770, 229.9314
244.0591, 226.3429
244.5412, 224.0044
245.0233, 223.6721
245.5054, 222.8538
245.9876, 221.2583
246.4697, 219.1611
246.9518, 217.3812
247.4339, 216.0327
247.9160, 214.8245
248.3981, 213.5872
248.8803, 212.0982
249.3624, 211.0992
249.8445, 210.7260
250.3266, 210.8139
250.8087, 210.9004
251.2908, 210.8517
251.7730, 211.0079
252.2551, 211.5138
252.7372, 212.3997
253.2193, 213.5801
253.7014, 215.1542
254.1835, 216.9668
254.6657, 218.6671
255.1478, 220.2735
255.6299, 221.7386
256.1120, 222.9852
256.5941, 223.8078
257.0763, 225.0622
257.5584, 226.8555
258.0405, 229.0309
258.5226, 231.4414
259.0047, 234.7048
259.4868, 236.9764
259.9690, 237.4122
260.4511, 235.6726
260.9332, 233.6543
261.4153, 231.3642
261.8974, 228.7646
262.3795, 225.7801
262.8617, 222.2342
263.3438, 218.6587
263.8259, 215.1214
264.3080, 211.5892
264.7901, 208.5098
265.2722, 206.0703
265.7544, 203.8604
266.2365, 201.1410
266.7186, 197.4869
267.2007, 194.6712
267.6828, 193.5808
268.1649, 194.3495
268.6471, 194.1008
269.1292, 192.3999
269.6113, 190.3608
270.0934, 189.4351
270.5755, 189.8811
271.0576, 190.4352
271.5398, 190.8588
272.0219, 191.1467
272.5040, 190.8497
272.9861, 189.7265
273.4682, 188.5486
273.9503, 188.2100
274.4325, 188.8692
274.9146, 189.5156
275.3967, 189.9905
275.8788, 190.2708
276.3610, 190.0171
276.8431, 189.0659
277.3252, 188.0869
277.8073, 187.7509
278.2894, 188.1115
278.7715, 188.5104
279.2537, 188.8294
279.7358, 189.0894
280.2179, 189.4171
280.7000, 189.8511
281.1821, 190.1915
281.6642, 190.1590
282.1464, 189.7502
282.6285, 189.6478
283.1106, 190.0132
283.5927, 190.7105
284.0748, 191.4367
284.5569, 192.2072
285.0391, 192.8682
285.5212, 193.2064
286.0033, 193.2622
286.4854, 193.5274
286.9675, 194.0441
287.4496, 194.8211
287.9318, 196.0589
288.4139, 197.7756
288.8960, 199.2716
289.3781, 199.9311
289.8602, 199.9582
290.3423, 200.4554
290.8245, 201.6271
291.3066, 203.0193
291.7887, 203.7826
292.2708, 203.9997
292.7529, 204.4051
293.2350, 205.5766
293.7172, 207.2627
294.1993, 208.6402
294.6814, 209.6505
295.1635, 210.4852
295.6456, 211.2475
296.1277, 211.9876
296.6099, 212.9223
297.0920, 214.1366
297.5741, 215.5981
298.0562, 217.3015
298.5383, 219.2463
299.0204, 221.2276
299.5026, 223.0041
299.9847, 224.6386
300.4668, 226.3603
300.9489, 228.2272
301.4311, 230.2193
301.9132, 232.3321
302.3953, 234.5766
302.8774, 236.7250
303.3595, 238.5969
303.8416, 240.2642
304.3238, 241.9286
304.8059, 243.8721
305.2880, 245.5824
305.7701, 246.2905
306.2522, 246.1424
306.7343, 245.9872
307.2165, 246.3684
307.6986, 247.0744
308.1807, 247.8111
308.6628, 248.3884
309.1449, 249.1851
309.6270, 250.5822
310.1092, 252.4723
310.5913, 254.4725
311.0734, 255.9731
311.5555, 257.7072
312.0376, 260.3746
312.5197, 264.3345
313.0019, 268.6029
313.4840, 272.7770
313.9661, 276.9088
314.4482, 281.1411
314.9303, 285.6740
315.4124, 290.2350
315.8946, 294.7033
316.3767, 299.1542
316.8588, 303.1504
317.3409, 307.1396
317.8230, 310.4520
318.3051, 312.1969
318.7873, 312.3190
319.2694, 310.6606
319.7515, 306.8690
320.2336, 300.8454
320.7157, 294.0125
321.1978, 285.9586
321.6800, 277.6989
322.1621, 270.1803
322.6442, 263.5210
323.1263, 257.6861
323.6084, 252.9583
324.0905, 249.2629
324.5727, 245.4902
325.0548, 240.8303
325.5369, 236.5040
326.0190, 233.2634
326.5012, 232.1540
326.9833, 230.9754
327.4654, 229.3350
327.9475, 227.4454
328.4296, 226.1907
328.9117, 226.2973
329.3939, 226.3996
329.8760, 225.9245
330.3581, 224.4683
330.8402, 223.1649
331.3223, 222.0794
331.8044, 221.1149
332.2866, 220.0779
332.7687, 218.9681
333.2508, 217.7859
333.7329, 216.4650
334.2150, 214.9064
334.6971, 213.6791
335.1793, 212.9033
335.6614, 212.3288
336.1435, 211.6395
336.6256, 210.7809
337.1077, 209.9448
337.5898, 209.1772
338.0720, 208.4754
338.5541, 207.9566
339.0362, 207.7045
339.5183, 207.4553
340.0004, 206.8600
340.4825, 205.8101
340.9647, 205.2069
341.4468, 205.3447
341.9289, 205.9578
342.4110, 206.1503
342.8931, 205.8661
343.3752, 205.5054
343.8574, 205.2156
344.3395, 205.0134
344.8216, 205.3171
345.3037, 206.2867
345.7858, 207.5278
346.2679, 208.3699
346.7501, 208.8338
347.2322, 209.1771
347.7143, 209.4295
348.1964, 209.6631
348.6785, 210.0827
349.1607, 210.6914
349.6428, 211.5553
350.1249, 213.0857
350.6070, 215.0027
351.0891, 216.4421
351.5713, 216.7357
352.0534, 216.4874
352.5355, 216.5479
353.0176, 216.9126
353.4997, 217.4122
353.9818, 217.9921
354.4640, 218.6026
354.9461, 219.2036
355.4282, 219.9403
355.9103, 220.4529
356.3924, 220.3415
356.8745, 219.7036
357.3567, 218.9316
357.8388, 217.9826
358.3209, 217.1398
358.8030, 216.6821
359.2851, 216.7715
359.7672, 216.9543
360.2494, 216.9779
360.7315, 216.9266
361.2136, 216.9546
361.6957, 217.1636
362.1778, 217.4295
362.6599, 217.7344
363.1421, 218.0960
363.6242, 218.3172
364.1063, 217.8307
364.5884, 217.3775
365.0705, 217.7186
365.5526, 220.0652
366.0348, 222.1052
366.5169, 223.1510
366.9990, 223.2564
367.4811, 223.5312
367.9632, 224.1991
368.4453, 224.9817
368.9275, 225.7177
369.4096, 226.3408
369.8917, 226.9985
370.3738, 227.6807
370.8559, 228.4026
371.3380, 229.2027
371.8202, 230.1922
372.3023, 231.1223
372.7844, 231.8967
373.2665, 232.5007
373.7487, 232.9934
374.2308, 233.3363
374.7129, 233.6089
375.1950, 233.9818
375.6771, 234.5849
376.1592, 234.8770
376.6414, 234.6925
377.1235, 234.0615
377.6056, 233.2526
378.0877, 232.2309
378.5698, 231.1302
379.0519, 230.0947
379.5341, 229.1360
380.0162, 227.9158
380.4983, 226.2528
380.9804, 224.4553
381.4625, 223.3792
381.9446, 222.9958
382.4268, 222.6843
382.9089, 222.0810
383.3910, 221.2447
383.8731, 220.2041
384.3552, 218.8677
384.8373, 217.8125
385.3195, 218.2085
385.8016, 219.5242
386.2837, 220.1929
386.7658, 218.7138
387.2479, 216.5963
387.7300, 215.8015
388.2122, 216.3017
388.6943, 217.1630
389.1764, 218.1691
389.6585, 218.9746
390.1406, 219.0120
390.6227, 217.4058
391.1049, 216.0297
391.5870, 216.4099
392.0691, 218.0815
392.5512, 219.6444
393.0333, 220.4196
393.5154, 220.9068
393.9976, 221.3976
394.4797, 221.9255
394.9618, 222.4848
395.4439, 223.1170
395.9260, 223.7681
396.4081, 224.3636
396.8903, 224.6876
397.3724, 225.1631
397.8545, 226.0572
398.3366, 227.4009
398.8188, 228.3828
399.3009, 228.3528
399.7830, 228.3403
400.2651, 229.0345
400.7472, 231.4613
401.2293, 233.0423
401.7115, 233.4163
402.1936, 232.8903
402.6757, 232.3266
403.1578, 231.5161
403.6399, 231.0324
404.1220, 231.2949
404.6042, 232.5612
405.0863, 232.9821
405.5684, 232.2764
406.0505, 231.1706
406.5326, 230.6259
407.0147, 230.7098
407.4969, 230.8359
407.9790, 230.8235
408.4611, 230.7394
408.9432, 230.7309
409.4253, 230.7643
409.9074, 231.2566
410.3896, 232.9420
410.8717, 235.4846
411.3538, 237.3159
411.8359, 238.0552
412.3180, 238.3479
412.8001, 239.0529
413.2823, 240.0755
413.7644, 241.0873
414.2465, 241.7310
414.7286, 242.3388
415.2107, 243.4549
415.6928, 245.1061
416.1750, 246.7909
416.6571, 248.1660
417.1392, 249.3188
417.6213, 250.4185
418.1034, 251.5838
418.5855, 252.6256
419.0677, 253.4287
419.5498, 254.0142
420.0319, 254.4262
420.5140, 254.7129
420.9961, 254.8184
421.4782, 254.7485
421.9604, 254.6023
422.4425, 254.0181
422.9246, 252.8847
423.4067, 251.2851
423.8889, 249.3128
424.3710, 246.6353
424.8531, 243.9476
425.3352, 241.4012
425.8173, 238.9956
426.2994, 236.7109
426.7816, 234.5545
427.2637, 232.5316
427.7458, 230.6681
428.2279, 229.0130
428.7100, 227.3229
429.1921, 225.5107
429.6743, 223.7137
430.1564, 222.3992
430.6385, 221.7112
431.1206, 220.9457
431.6027, 219.7361
432.0848, 218.1016
432.5670, 216.7246
433.0491, 215.6040
433.5312, 214.7341
434.0133, 214.2433
434.4954, 214.0577
434.9775, 213.6237
435.4597, 212.6443
435.9418, 211.5534
436.4239, 211.2662
436.9060, 211.6697
437.3881, 212.0194
437.8702, 211.6250
438.3524, 210.9626
438.8345, 210.7446
439.3166, 211.0834
439.7987, 211.5980
440.2808, 212.0707
440.7629, 212.5045
441.2451, 212.9001
441.7272, 213.3733
442.2093, 213.7038
442.6914, 213.6370
443.1735, 213.2496
443.6556, 213.0513
444.1378, 213.4751
444.6199, 213.9826
445.1020, 214.1767
445.5841, 213.5816
446.0662, 213.4958
446.5483, 214.6628
447.0305, 216.3299
447.5126, 217.2281
447.9947, 216.4608
448.4768, 215.9863
448.9590, 216.3836
449.4411, 217.6767
449.9232, 218.5050
450.4053, 218.7531
450.8874, 218.7080
451.3695, 218.5201
451.8517, 218.1221
452.3338, 217.8694
452.8159, 217.8228
453.2980, 217.9009
453.7801, 218.0390
454.2622, 218.2600
454.7444, 218.1707
455.2265, 217.3977
455.7086, 216.1431
456.1907, 215.3512
456.6728, 215.0417
457.1549, 214.8379
457.6371, 214.3434
458.1192, 213.6797
458.6013, 213.1349
459.0834, 212.8161
459.5655, 212.5829
460.0476, 212.2556
460.5298, 211.8847
461.0119, 211.6358
461.4940, 211.6362
461.9761, 211.7567
462.4582, 211.9503
462.9403, 212.2274
463.4225, 212.3806
463.9046, 212.2195
464.3867, 211.9346
464.8688, 211.7104
465.3509, 211.5593
465.8330, 211.5052
466.3152, 211.5848
466.7973, 211.7738
467.2794, 211.9831
467.7615, 212.2455
468.2436, 212.4941
468.7257, 212.7347
469.2079, 213.0054
469.6900, 213.0652
470.1721, 212.8112
470.6542, 212.4550
471.1363, 212.1707
471.6184, 211.9050
472.1006, 211.9432
472.5827, 212.4180
473.0648, 213.1776
473.5469, 213.7939
474.0291, 214.2675
474.5112, 214.5974
474.9933, 214.6528
475.4754, 214.5378
475.9575, 214.7677
476.4396, 215.3997
476.9218, 216.0791
477.4039, 216.2671
477.8860, 216.2090
478.3681, 216.5235
478.8502, 217.7559
479.3323, 219.0057
479.8145, 219.2007
480.2966, 218.6001
480.7787, 218.1594
481.2608, 218.3641
481.7429, 218.8264
482.2250, 219.1406
482.7072, 219.3147
483.1893, 218.9287
483.6714, 219.2658
484.1535, 219.3132
484.6356, 219.3487
485.1177, 219.7876
485.5999, 219.4831
486.0820, 219.9156
486.5641, 220.0539
487.0462, 220.3269
487.5283, 220.3083
488.0104, 220.8869
488.4926, 221.2065
488.9747, 220.6787
489.4568, 220.4990
489.9389, 220.7651
490.4210, 221.2067
490.9031, 221.5292
491.3853, 221.7261
491.8674, 221.8764
492.3495, 221.8738
492.8316, 221.9741
493.3137, 223.0047
493.7958, 224.8670
494.2780, 226.4207
494.7601, 226.7085
495.2422, 226.2965
495.7243, 226.2084
496.2064, 226.4941
496.6885, 226.9807
497.1707, 227.6975
497.6528, 228.4823
498.1349, 229.0959
498.6170, 229.3091
499.0992, 229.5819
499.5813, 230.2972
500.0634, 231.2710
500.5455, 232.0584
501.0276, 232.2481
501.5097, 232.4591
501.9919, 232.9592
502.4740, 233.7999
502.9561, 234.6775
503.4382, 235.6213
503.9203, 236.5680
504.4024, 237.4873
504.8846, 238.3980
505.3667, 239.2159
505.8488, 239.8934
506.3309, 240.4973
506.8130, 241.1248
507.2951, 241.7264
507.7773, 242.5811
508.2594, 243.9523
508.7415, 245.6783
509.2236, 246.7251
509.7057, 247.0285
510.1878, 247.4721
510.6700, 249.0239
511.1521, 251.3182
511.6342, 253.2732
512.1163, 254.6606
512.5984, 255.8393
513.0806, 257.1163
513.5627, 258.4615
514.0448, 259.8122
514.5269, 261.1520
515.0090, 262.4762
515.4911, 263.8209
515.9733, 265.1698
516.4554, 266.3836
516.9375, 267.3074
517.4196, 268.1624
517.9017, 269.0551
518.3839, 269.9395
518.8660, 271.0057
519.3481, 272.5357
519.8302, 274.1304
520.3123, 275.3150
520.7944, 275.7940
521.2766, 276.4380
521.7587, 277.5009
522.2408, 278.8116
522.7229, 279.6056
523.2050, 279.6748
523.6871, 280.0174
524.1693, 281.4893
524.6514, 283.9210
525.1335, 285.2531
525.6156, 285.3702
526.0977, 285.1726
526.5798, 285.5120
527.0620, 286.2756
527.5441, 287.1030
528.0262, 287.8466
528.5083, 288.7426
528.9904, 290.3332
529.4725, 292.2812
529.9547, 293.7556
530.4368, 293.7161
530.9189, 293.5489
531.4010, 294.1686
531.8831, 295.6068
532.3652, 297.1451
532.8474, 298.6907
533.3295, 300.1793
533.8116, 301.5694
534.2937, 302.5927
534.7758, 303.9572
535.2579, 305.8035
535.7401, 307.9409
536.2222, 310.0653
536.7043, 312.2983
537.1864, 314.3013
537.6685, 315.8676
538.1506, 317.1797
538.6328, 319.0113
539.1149, 321.4233
539.5970, 324.1136
540.0791, 326.9561
540.5612, 329.9435
541.0433, 332.8410
541.5255, 335.6294
542.0076, 338.4185
542.4897, 341.2475
542.9718, 344.1856
543.4539, 347.4920
543.9360, 351.5379
544.4182, 355.3506
544.9003, 357.7357
545.3824, 359.2639
545.8645, 361.2089
546.3466, 364.4586
546.8287, 367.8993
547.3109, 371.1649
547.7930, 374.2039
548.2751, 376.7285
548.7572, 377.7879
549.2393, 379.0309
549.7214, 381.4644
550.2036, 386.1521
550.6857, 389.5888
551.1678, 391.3844
551.6499, 392.3438
552.1320, 393.4573
552.6141, 394.7153
553.0963, 396.2533
553.5784, 398.1595
554.0605, 400.3234
554.5426, 402.6513
555.0247, 405.1116
555.5068, 407.1108
555.9890, 407.7070
556.4711, 407.7779
556.9532, 409.1818
557.4353, 411.9784
557.9174, 414.4616
558.3995, 414.8599
558.8817, 414.4478
559.3638, 414.5339
559.8459, 415.2379
560.3281, 416.8555
560.8102, 420.4865
561.2923, 424.8818
561.7744, 428.0516
562.2565, 428.4009
562.7386, 428.8416
563.2208, 429.9139
563.7029, 431.5713
564.1850, 433.6029
564.6671, 436.1363
565.1492, 438.7822
565.6313, 441.2962
566.1135, 443.6160
566.5956, 446.4920
567.0777, 450.0692
567.5598, 453.6239
568.0419, 456.5143
568.5240, 458.7485
569.0062, 460.4840
569.4883, 461.6816
569.9704, 462.5108
570.4525, 463.1405
570.9346, 463.5617
571.4167, 463.7263
571.8989, 463.6418
572.3810, 463.2831
572.8631, 462.9006
573.3452, 462.3636
573.8273, 460.8036
574.3094, 457.3751
574.7916, 453.2533
575.2737, 449.0496
575.7558, 444.9011
576.2379, 440.4204
576.7200, 435.4058
577.2021, 430.2744
577.6843, 425.3351
578.1664, 420.6667
578.6485, 415.9802
579.1306, 410.9926
579.6127, 406.1827
580.0948, 402.6952
580.5770, 400.5454
581.0591, 397.9096
581.5412, 393.7204
582.0233, 388.7964
582.5054, 384.7989
582.9875, 381.7360
583.4697, 379.2801
583.9518, 378.0080
584.4339, 376.8554
584.9160, 374.3080
585.3981, 369.9952
585.8802, 366.3712
586.3624, 365.5294
586.8445, 365.5263
