##NAMES=Prosopite
##RRUFFID=R050668
##IDEAL CHEMISTRY=CaAl_2_F_4_(OH)_4_
##LOCALITY=Grand Reef mine, Klondyke, Aravaipa District, Graham County, Arizona, USA
##OWNER=RRUFF
##SOURCE=University of Arizona Mineral Museum
##DESCRIPTION=Light-blue massive coating on quartz
##STATUS=The identification of this mineral has been confirmed by X-ray diffraction.
##URL=rruff.info/R050668
92.02539, 100.0779
92.50751, 102.6710
92.98962, 104.6224
93.47174, 103.5657
93.95386, 101.4264
94.43597, 99.29401
94.91809, 97.84116
95.40021, 96.87756
95.88232, 95.34636
96.36444, 92.69875
96.84656, 90.26689
97.32867, 88.38546
97.81078, 86.99520
98.29290, 86.00430
98.77502, 85.36442
99.25713, 85.04935
99.73925, 84.18733
100.2214, 82.45591
100.7035, 80.64610
101.1856, 79.23483
101.6677, 78.18154
102.1498, 76.99850
102.6320, 75.02650
103.1141, 71.62084
103.5962, 69.01517
104.0783, 67.60038
104.5604, 66.78553
105.0425, 65.98726
105.5247, 65.04565
106.0068, 63.99051
106.4889, 62.81810
106.9710, 61.48934
107.4531, 60.23796
107.9352, 59.14937
108.4173, 58.21538
108.8995, 57.38428
109.3816, 56.59914
109.8637, 55.95721
110.3458, 55.58544
110.8279, 55.54303
111.3100, 55.58997
111.7922, 55.40649
112.2743, 54.89280
112.7564, 54.47350
113.2385, 54.37957
113.7206, 54.37756
114.2027, 54.23793
114.6849, 53.83934
115.1670, 53.29378
115.6491, 53.00628
116.1312, 53.19506
116.6133, 53.41573
117.0954, 53.77513
117.5776, 54.09623
118.0597, 54.07961
118.5418, 53.46970
119.0239, 52.24960
119.5060, 51.56141
119.9881, 51.59903
120.4703, 51.85719
120.9524, 52.24451
121.4345, 52.70372
121.9166, 53.13892
122.3987, 53.51463
122.8808, 53.82331
123.3630, 53.65765
123.8451, 52.68289
124.3272, 51.40389
124.8093, 50.24297
125.2914, 49.24086
125.7735, 48.47636
126.2557, 48.13358
126.7378, 48.13160
127.2199, 48.28121
127.7020, 48.72097
128.1841, 49.29332
128.6662, 49.44221
129.1483, 48.81553
129.6305, 48.05192
130.1126, 47.67426
130.5947, 47.65489
131.0768, 47.68634
131.5589, 47.47713
132.0410, 46.98700
132.5232, 46.58785
133.0053, 46.40563
133.4874, 46.27313
133.9695, 46.09855
134.4516, 45.86767
134.9337, 45.64367
135.4159, 45.51270
135.8980, 45.45913
136.3801, 45.55338
136.8622, 45.93397
137.3443, 46.36665
137.8264, 46.67105
138.3086, 46.77669
138.7907, 46.71350
139.2728, 46.55888
139.7549, 46.22979
140.2370, 45.89806
140.7191, 45.51101
141.2013, 45.13802
141.6834, 44.89265
142.1655, 44.84678
142.6476, 44.95656
143.1297, 45.02506
143.6118, 44.97045
144.0939, 44.96633
144.5761, 45.10765
145.0582, 45.37122
145.5403, 45.65480
146.0224, 45.91531
146.5045, 46.14350
146.9866, 46.33586
147.4688, 46.52691
147.9509, 46.65222
148.4330, 46.55047
148.9151, 46.15623
149.3972, 45.94682
149.8793, 46.35415
150.3615, 47.09833
150.8436, 47.89827
151.3257, 48.74195
151.8078, 49.53503
152.2899, 50.00567
152.7720, 49.93984
153.2542, 49.92847
153.7363, 50.27835
154.2184, 50.82215
154.7005, 51.29553
155.1826, 51.48518
155.6647, 51.43918
156.1469, 51.66421
156.6290, 52.63366
157.1111, 53.41533
157.5932, 53.70727
158.0753, 53.61148
158.5574, 53.36378
159.0396, 53.14124
159.5217, 52.93383
160.0038, 52.85494
160.4859, 53.15380
160.9680, 53.34334
161.4501, 53.10485
161.9323, 52.50691
162.4144, 51.90956
162.8965, 51.70691
163.3786, 52.04380
163.8607, 52.14723
164.3428, 51.77306
164.8250, 51.35405
165.3071, 51.21902
165.7892, 51.41453
166.2713, 51.73963
166.7534, 51.93284
167.2355, 51.95094
167.7177, 52.19282
168.1998, 52.81721
168.6819, 53.64994
169.1640, 54.53365
169.6461, 55.48408
170.1282, 56.30190
170.6104, 56.71818
171.0925, 56.78696
171.5746, 56.63000
172.0567, 56.19934
172.5388, 55.56755
173.0209, 54.95479
173.5031, 54.43880
173.9852, 53.89044
174.4673, 53.18174
174.9494, 52.32759
175.4315, 51.44842
175.9136, 50.61711
176.3958, 49.83181
176.8779, 49.08910
177.3600, 48.34647
177.8421, 47.69324
178.3242, 47.18936
178.8063, 46.83152
179.2885, 46.57240
179.7706, 46.36946
180.2527, 46.22657
180.7348, 46.12540
181.2169, 46.06845
181.6990, 46.04842
182.1812, 46.05500
182.6633, 46.09079
183.1454, 46.17607
183.6275, 46.33426
184.1096, 46.55074
184.5917, 46.88901
185.0738, 47.39074
185.5560, 47.95922
186.0381, 48.52364
186.5202, 49.06699
187.0023, 49.62764
187.4844, 50.28902
187.9665, 51.42355
188.4487, 52.01329
188.9308, 51.62026
189.4129, 50.92142
189.8950, 50.58652
190.3771, 50.83368
190.8592, 51.32851
191.3414, 51.41511
191.8235, 50.88002
192.3056, 50.33703
192.7877, 49.84953
193.2698, 49.39004
193.7519, 48.89185
194.2341, 48.31317
194.7162, 47.75277
195.1983, 47.43428
195.6804, 47.35751
196.1625, 47.39233
196.6446, 47.55502
197.1268, 47.80164
197.6089, 48.05597
198.0910, 48.33421
198.5731, 48.53691
199.0552, 48.53624
199.5373, 48.34373
200.0195, 47.97867
200.5016, 47.39449
200.9837, 46.62173
201.4658, 45.82454
201.9479, 45.04723
202.4300, 44.25820
202.9122, 43.41680
203.3943, 42.51027
203.8764, 41.63765
204.3585, 40.84205
204.8406, 40.12198
205.3227, 39.57731
205.8048, 39.46021
206.2870, 39.36145
206.7691, 38.91712
207.2512, 38.09459
207.7333, 37.27079
208.2154, 36.89679
208.6975, 37.06044
209.1797, 37.15270
209.6618, 36.99923
210.1439, 36.79352
210.6260, 36.61040
211.1081, 36.47179
211.5902, 36.39681
212.0724, 36.42597
212.5545, 36.59969
213.0366, 36.75560
213.5187, 36.87432
214.0008, 36.97853
214.4829, 37.11072
214.9651, 37.26611
215.4472, 37.37532
215.9293, 37.30120
216.4114, 36.83366
216.8935, 36.63214
217.3756, 36.72083
217.8578, 37.00153
218.3399, 37.49535
218.8220, 38.16698
219.3041, 38.85711
219.7862, 39.31005
220.2683, 39.36898
220.7505, 39.47496
221.2326, 39.70957
221.7147, 39.93657
222.1968, 39.99754
222.6789, 39.87365
223.1610, 39.73944
223.6432, 39.86345
224.1253, 40.43826
224.6074, 40.89103
225.0895, 41.17334
225.5716, 41.36382
226.0537, 41.54337
226.5358, 41.72981
227.0180, 41.86010
227.5001, 41.83114
227.9822, 41.58128
228.4643, 41.35728
228.9464, 41.11596
229.4285, 40.93385
229.9107, 40.92799
230.3928, 41.12856
230.8749, 41.39649
231.3570, 41.53290
231.8391, 41.51535
232.3212, 41.60790
232.8034, 41.96426
233.2855, 42.40969
233.7676, 42.73960
234.2497, 42.91977
234.7318, 42.97174
235.2139, 42.83434
235.6961, 42.53600
236.1782, 42.33839
236.6603, 42.41149
237.1424, 42.59352
237.6245, 42.59143
238.1066, 42.30640
238.5888, 42.05101
239.0709, 42.25615
239.5530, 42.76822
240.0351, 43.08875
240.5172, 42.96910
240.9993, 42.56360
241.4815, 42.13343
241.9636, 41.65674
242.4457, 41.25054
242.9278, 41.04707
243.4099, 40.97323
243.8920, 40.88841
244.3742, 40.83043
244.8563, 40.70746
245.3384, 40.22993
245.8205, 39.19189
246.3026, 38.26939
246.7847, 37.88003
247.2668, 37.83927
247.7490, 37.88639
248.2311, 37.95910
248.7132, 38.01696
249.1953, 37.95230
249.6774, 37.72541
250.1595, 37.44931
250.6417, 37.14253
251.1238, 36.83043
251.6059, 36.52867
252.0880, 36.21098
252.5701, 35.94960
253.0522, 35.95775
253.5344, 36.39938
254.0165, 36.79354
254.4986, 36.88221
254.9807, 36.89444
255.4628, 37.11639
255.9449, 37.69835
256.4271, 38.45355
256.9092, 38.97646
257.3913, 39.30471
257.8734, 39.27921
258.3555, 38.59636
258.8376, 37.74946
259.3198, 37.22972
259.8019, 37.23364
260.2840, 37.51540
260.7661, 37.56086
261.2482, 37.24650
261.7303, 36.91515
262.2125, 36.74373
262.6946, 36.50161
263.1767, 35.90490
263.6588, 34.88509
264.1409, 33.74915
264.6230, 33.07393
265.1052, 33.23751
265.5873, 33.12704
266.0694, 32.48727
266.5515, 31.73763
267.0336, 31.19190
267.5157, 30.91807
267.9979, 30.76288
268.4800, 30.48286
268.9621, 29.92077
269.4442, 29.59290
269.9263, 29.67990
270.4084, 29.82059
270.8906, 29.75479
271.3727, 29.46469
271.8548, 29.13154
272.3369, 28.96690
272.8190, 28.98532
273.3011, 29.15087
273.7833, 29.72125
274.2654, 30.19880
274.7475, 30.18689
275.2296, 29.75106
275.7117, 29.31851
276.1938, 29.34153
276.6760, 29.94106
277.1581, 30.24741
277.6402, 30.15243
278.1223, 29.94088
278.6044, 29.64146
279.0865, 29.32186
279.5686, 29.14094
280.0508, 29.25261
280.5329, 29.66669
281.0150, 29.87708
281.4971, 29.74323
281.9792, 29.59334
282.4613, 29.58087
282.9435, 29.65227
283.4256, 29.22420
283.9077, 29.79624
284.3898, 30.12964
284.8719, 30.23724
285.3540, 29.44272
285.8362, 29.81310
286.3183, 29.71664
286.8004, 29.60104
287.2825, 30.13538
287.7646, 29.47206
288.2467, 29.99609
288.7289, 30.04616
289.2110, 30.31315
289.6931, 30.11041
290.1752, 30.05275
290.6573, 30.46497
291.1394, 30.61702
291.6216, 30.36021
292.1037, 30.64099
292.5858, 29.96126
293.0679, 30.12439
293.5500, 30.65117
294.0321, 30.41798
294.5143, 30.30756
294.9964, 30.53626
295.4785, 30.96334
295.9606, 31.45528
296.4427, 31.82980
296.9248, 32.05689
297.4070, 32.23426
297.8891, 32.28627
298.3712, 32.33657
298.8533, 32.51044
299.3354, 32.82090
299.8175, 33.17766
300.2997, 33.50495
300.7818, 33.80237
301.2639, 34.00412
301.7460, 34.09883
302.2281, 34.10867
302.7102, 33.96458
303.1924, 33.70560
303.6745, 33.56580
304.1566, 33.77042
304.6387, 34.29175
305.1208, 34.56194
305.6029, 34.39038
306.0851, 34.18056
306.5672, 34.13334
307.0493, 34.21745
307.5314, 34.29328
308.0135, 34.25703
308.4956, 34.17415
308.9778, 34.33861
309.4599, 35.05468
309.9420, 35.59938
310.4241, 35.54604
310.9062, 35.17517
311.3883, 35.06642
311.8705, 35.49054
312.3526, 36.19077
312.8347, 36.57898
313.3168, 36.53123
313.7989, 36.10544
314.2810, 36.76361
314.7632, 37.16928
315.2453, 37.33516
315.7274, 36.58807
316.2095, 36.98553
316.6916, 36.90331
317.1737, 36.78703
317.6559, 37.30272
318.1380, 36.61126
318.6201, 37.08669
319.1022, 37.07534
319.5843, 37.26492
320.0664, 36.54294
320.5485, 36.89053
321.0306, 36.97722
321.5128, 36.81575
321.9949, 35.73298
322.4770, 35.78642
322.9591, 35.35178
323.4412, 34.87476
323.9233, 35.02131
324.4055, 33.95231
324.8876, 34.04188
325.3697, 33.63634
325.8518, 33.42333
326.3339, 32.73013
326.8160, 32.07356
327.2982, 31.30088
327.7803, 30.84548
328.2624, 30.96244
328.7445, 31.38138
329.2266, 31.33497
329.7087, 30.41043
330.1909, 29.82696
330.6730, 30.18820
331.1551, 30.88316
331.6372, 31.05341
332.1193, 30.44376
332.6014, 29.53402
333.0836, 28.99417
333.5657, 28.50540
334.0478, 28.94812
334.5299, 29.15558
335.0120, 29.14062
335.4941, 28.22689
335.9763, 28.48144
336.4584, 28.27253
336.9405, 28.04785
337.4226, 28.47648
337.9047, 27.71084
338.3868, 28.13592
338.8690, 28.09039
339.3511, 28.26516
339.8332, 27.97359
340.3153, 27.83047
340.7974, 28.16061
341.2795, 28.23394
341.7617, 27.90178
342.2438, 28.11058
342.7259, 27.36227
343.2080, 27.46017
343.6901, 27.92510
344.1722, 27.63343
344.6544, 27.86769
345.1365, 27.90631
345.6186, 27.04384
346.1007, 27.75769
346.5828, 27.79466
347.0649, 27.32755
347.5471, 27.17733
348.0292, 27.15884
348.5113, 27.31719
348.9934, 27.54816
349.4755, 27.73782
349.9576, 27.90250
350.4398, 27.93849
350.9219, 27.68019
351.4040, 27.46258
351.8861, 27.51742
352.3682, 27.78207
352.8503, 28.02143
353.3325, 28.04803
353.8146, 27.88048
354.2967, 27.81576
354.7788, 28.01241
355.2609, 28.13037
355.7430, 28.02858
356.2252, 27.82287
356.7073, 27.68225
357.1894, 27.68782
357.6715, 27.78538
358.1536, 27.84677
358.6357, 27.94562
359.1179, 27.87834
359.5999, 27.39302
360.0821, 26.90642
360.5642, 26.82132
361.0463, 27.18320
361.5284, 27.66903
362.0105, 27.85281
362.4926, 27.60552
362.9748, 27.55898
363.4569, 27.94592
363.9390, 28.30309
364.4211, 28.44181
364.9032, 28.37848
365.3853, 28.19090
365.8675, 27.90260
366.3496, 27.54471
366.8317, 27.43057
367.3138, 27.84617
367.7959, 28.14797
368.2780, 28.09043
368.7602, 27.88221
369.2423, 27.78832
369.7244, 27.92538
370.2065, 28.19281
370.6886, 28.39879
371.1707, 28.52614
371.6529, 28.63136
372.1350, 28.75114
372.6171, 28.83360
373.0992, 28.78900
373.5813, 28.14681
374.0634, 28.66537
374.5456, 28.94640
375.0277, 29.00266
375.5098, 28.16094
375.9919, 28.47877
376.4740, 28.33191
376.9561, 28.16599
377.4383, 28.64702
377.9204, 27.93591
378.4025, 28.40668
378.8846, 28.40567
379.3667, 28.17219
379.8488, 27.67432
380.3310, 27.22192
380.8131, 26.97427
381.2952, 26.83280
381.7773, 26.71707
382.2594, 26.61409
382.7415, 26.49946
383.2237, 26.31651
383.7058, 26.06569
384.1879, 25.91302
384.6700, 25.99237
385.1521, 26.08521
385.6342, 25.93016
386.1164, 25.55248
386.5985, 25.30236
387.0806, 25.49078
387.5627, 25.93618
388.0448, 26.18622
388.5269, 26.15906
389.0091, 26.09055
389.4912, 26.19317
389.9733, 26.38408
390.4554, 26.47773
390.9375, 25.98794
391.4196, 26.58713
391.9018, 26.94770
392.3839, 27.08246
392.8660, 26.31509
393.3481, 26.71263
393.8302, 26.64332
394.3123, 26.55487
394.7945, 27.11637
395.2766, 27.09049
395.7587, 27.08954
396.2408, 26.96307
396.7229, 26.81231
397.2050, 26.64906
397.6872, 26.54881
398.1693, 26.60328
398.6514, 26.82760
399.1335, 27.09068
399.6156, 27.55358
400.0977, 27.92200
400.5798, 27.91117
401.0620, 27.58726
401.5441, 27.26921
402.0262, 27.15261
402.5083, 27.19954
402.9904, 27.22579
403.4725, 27.12978
403.9547, 27.14038
404.4368, 27.45518
404.9189, 27.84220
405.4010, 27.97378
405.8831, 27.75600
406.3652, 27.39449
406.8474, 27.18713
407.3295, 27.18801
407.8116, 27.20289
408.2937, 27.30495
408.7758, 27.35610
409.2579, 27.19309
409.7401, 26.89427
410.2222, 26.70374
410.7043, 26.80962
411.1864, 27.17981
411.6685, 27.53324
412.1506, 27.93019
412.6328, 28.22699
413.1149, 28.31177
413.5970, 28.32838
414.0791, 28.45898
414.5612, 28.76045
415.0433, 29.09947
415.5255, 29.25339
416.0076, 29.15859
416.4897, 29.10047
416.9718, 29.10775
417.4539, 29.14602
417.9360, 29.25286
418.4182, 29.38857
418.9003, 29.42982
419.3824, 29.22865
419.8645, 28.86801
420.3466, 28.74874
420.8287, 29.01670
421.3109, 29.22281
421.7930, 29.10544
422.2751, 28.86637
422.7572, 28.74426
423.2393, 28.82441
423.7214, 28.93513
424.2036, 28.91419
424.6857, 28.76226
425.1678, 28.49811
425.6499, 28.10611
426.1320, 27.62045
426.6141, 26.99397
427.0963, 26.26185
427.5784, 25.70922
428.0605, 25.55670
428.5426, 25.61495
429.0247, 25.59326
429.5068, 25.47126
429.9890, 25.36738
430.4711, 25.36788
430.9532, 25.44168
431.4353, 25.48204
431.9174, 25.50816
432.3995, 25.47168
432.8817, 25.35824
433.3638, 25.16418
433.8459, 24.82537
434.3280, 24.29678
434.8101, 23.79261
435.2922, 23.65538
435.7744, 24.02784
436.2565, 24.18149
436.7386, 23.85095
437.2207, 23.48688
437.7028, 23.43982
438.1849, 23.66733
438.6671, 23.90981
439.1492, 23.99852
439.6313, 23.95125
440.1134, 23.86836
440.5955, 23.62321
441.0776, 23.50076
441.5598, 23.64651
442.0418, 23.87230
442.5240, 23.97916
443.0061, 23.91911
443.4882, 23.79008
443.9703, 23.70813
444.4524, 23.66779
444.9345, 23.70104
445.4167, 23.92801
445.8988, 24.11030
446.3809, 24.12040
446.8630, 24.02577
447.3451, 23.97582
447.8272, 24.07034
448.3094, 24.22359
448.7915, 24.19568
449.2736, 23.90228
449.7557, 23.66861
450.2378, 23.53040
450.7199, 23.51017
451.2021, 23.69610
451.6842, 24.07770
452.1663, 24.42989
452.6484, 24.56254
453.1305, 24.51372
453.6126, 24.44745
454.0948, 24.38375
454.5769, 24.27981
455.0590, 24.10050
455.5411, 23.86186
456.0232, 23.56602
456.5053, 23.11552
456.9875, 22.74546
457.4696, 22.75521
457.9517, 23.05041
458.4338, 23.16324
458.9159, 22.87393
459.3980, 22.46694
459.8802, 22.44193
460.3623, 22.85047
460.8444, 23.04288
461.3265, 22.61993
461.8086, 22.12619
462.2907, 22.10688
462.7729, 22.53743
463.2550, 23.02590
463.7371, 23.33489
464.2192, 23.46534
464.7013, 23.42342
465.1834, 22.95974
465.6656, 22.65304
466.1477, 22.72975
466.6298, 22.92936
467.1119, 22.92638
467.5940, 22.66618
468.0761, 22.39975
468.5583, 22.45916
469.0404, 22.93108
469.5225, 23.16948
470.0046, 22.92187
470.4867, 22.69890
470.9688, 22.72601
471.4510, 22.86593
471.9331, 22.84929
472.4152, 22.52955
472.8973, 22.11726
473.3794, 22.05509
473.8615, 22.44900
474.3437, 22.73984
474.8258, 22.72393
475.3079, 22.65427
475.7900, 22.69853
476.2721, 22.84289
476.7542, 22.96036
477.2364, 22.94482
477.7185, 22.85349
478.2006, 22.79054
478.6827, 22.74214
479.1648, 22.82456
479.6469, 23.26243
480.1291, 23.79057
480.6112, 23.90162
481.0933, 23.41190
481.5754, 22.96227
482.0575, 22.96863
482.5396, 23.21387
483.0217, 23.25702
483.5038, 23.00175
483.9860, 22.74358
484.4681, 22.79219
484.9502, 23.16232
485.4323, 23.36421
485.9144, 23.31373
486.3965, 23.19618
486.8787, 22.93631
487.3608, 22.69242
487.8429, 22.83144
488.3250, 23.49902
488.8071, 24.31100
489.2892, 24.55600
489.7714, 23.92422
490.2535, 23.47807
490.7356, 23.24689
491.2177, 23.14072
491.6998, 23.22833
492.1819, 23.40459
492.6641, 23.40232
493.1462, 22.99312
493.6283, 22.42304
494.1104, 22.50542
494.5925, 23.57878
495.0746, 24.38300
495.5568, 24.41776
496.0389, 24.21696
496.5210, 24.13412
497.0031, 24.19530
497.4852, 24.21855
497.9673, 23.99968
498.4495, 23.65128
498.9316, 23.50023
499.4137, 23.58545
499.8958, 23.73606
500.3779, 23.85777
500.8600, 23.98355
501.3422, 24.19956
501.8243, 24.60582
502.3064, 24.89420
502.7885, 24.84122
503.2706, 24.58606
503.7527, 24.33184
504.2349, 24.12062
504.7170, 24.04917
505.1991, 24.24894
505.6812, 24.74240
506.1633, 25.08456
506.6454, 25.23207
507.1276, 25.29602
507.6097, 25.19168
508.0918, 25.06622
508.5739, 25.22107
509.0560, 25.75220
509.5381, 26.32441
510.0203, 26.34167
510.5024, 25.53470
510.9845, 25.09720
511.4666, 25.23009
511.9487, 25.53663
512.4308, 25.98596
512.9130, 26.48303
513.3951, 26.87804
513.8772, 27.08962
514.3593, 27.18007
514.8414, 27.23979
515.3235, 27.25840
515.8057, 27.33440
516.2878, 27.57017
516.7699, 27.78866
517.2520, 27.83245
517.7341, 27.71866
518.2162, 27.58107
518.6984, 27.40249
519.1805, 27.27184
519.6626, 27.35114
520.1447, 27.62485
520.6268, 27.84517
521.1089, 27.85013
521.5911, 27.78354
522.0732, 28.04536
522.5553, 28.86788
523.0374, 29.30153
523.5195, 28.81806
524.0016, 28.13882
524.4838, 27.90200
524.9659, 28.11573
525.4480, 28.43785
525.9301, 28.62736
526.4122, 28.71354
526.8943, 28.85493
527.3765, 29.13797
527.8586, 29.34904
528.3407, 29.36328
528.8228, 29.37709
529.3049, 29.62474
529.7870, 30.08086
530.2692, 30.44568
530.7513, 30.39295
531.2334, 30.01434
531.7155, 29.87126
532.1976, 30.05173
532.6797, 30.26440
533.1619, 30.43344
533.6440, 30.54953
534.1261, 30.55227
534.6082, 30.40519
535.0903, 30.36902
535.5724, 30.74232
536.0546, 31.32140
536.5367, 31.62136
537.0188, 31.56177
537.5009, 31.53066
537.9830, 31.84530
538.4651, 32.43059
538.9473, 32.84214
539.4294, 32.94143
539.9115, 33.05973
540.3936, 33.25248
540.8757, 33.53260
541.3578, 33.99250
541.8400, 34.61310
542.3221, 35.14934
542.8042, 35.30839
543.2863, 35.07974
543.7684, 35.13171
544.2505, 35.81316
544.7326, 36.36187
545.2147, 36.57747
545.6968, 36.61708
546.1790, 36.63531
546.6611, 36.67770
547.1432, 36.73626
547.6253, 36.76022
548.1074, 36.76645
548.5895, 36.96091
549.0717, 37.39840
549.5538, 37.92170
550.0359, 38.62969
550.5180, 39.31324
551.0001, 39.58397
551.4822, 39.19613
551.9644, 38.83651
552.4465, 39.00351
552.9286, 39.49128
553.4107, 39.88799
553.8928, 40.11352
554.3749, 40.26498
554.8571, 40.41052
555.3392, 40.55294
555.8213, 40.76854
556.3034, 41.14340
556.7855, 41.47509
557.2676, 41.74781
557.7498, 41.93373
558.2319, 41.96624
558.7140, 41.84756
559.1961, 41.68214
559.6782, 41.54364
560.1603, 41.42912
560.6425, 41.62755
561.1246, 42.42811
561.6067, 43.11807
562.0888, 43.41048
562.5709, 43.52358
563.0530, 43.71608
563.5352, 44.05178
564.0173, 44.37573
564.4994, 44.56591
564.9815, 44.63870
565.4636, 44.59235
565.9457, 44.37983
566.4279, 44.30137
566.9100, 44.60534
567.3921, 45.20287
567.8742, 45.75108
568.3563, 46.37716
568.8384, 46.74569
569.3206, 46.45913
569.8027, 45.99545
570.2848, 46.01708
570.7669, 46.57131
571.2490, 47.17055
571.7311, 47.40408
572.2133, 47.28871
572.6954, 46.99139
573.1775, 46.21681
573.6596, 45.66913
574.1417, 45.71669
574.6238, 45.82967
575.1060, 45.51402
575.5881, 44.73676
576.0702, 43.84919
576.5523, 43.07334
577.0344, 42.42541
577.5165, 42.02528
577.9987, 41.95231
578.4808, 41.77269
578.9629, 41.19347
579.4450, 40.48462
579.9271, 40.05035
580.4092, 39.93952
580.8914, 39.79670
581.3735, 39.41151
581.8556, 38.97470
582.3377, 38.70435
582.8198, 38.59682
583.3019, 38.54764
583.7841, 38.51917
584.2662, 38.45131
584.7483, 38.17136
585.2304, 37.45065
585.7125, 36.88963
586.1946, 36.54275
586.6768, 36.29373
587.1589, 36.09245
587.6410, 35.92634
588.1231, 35.79868
588.6052, 35.72127
589.0873, 35.65320
