##NAMES=Proto-ferro-anthophyllite
##RRUFFID=R060053
##IDEAL CHEMISTRY=Fe^2+^_7_Si_8_O_22_(OH)_2_
##LOCALITY=Nyppio mine, near Utsonomiya, Japan
##OWNER=RRUFF
##SOURCE=Marcus Origlieri
##DESCRIPTION=Sprays of green prismatic crystals
##STATUS=The identification of this mineral has been confirmed by X-ray diffraction and chemical analysis
##URL=rruff.info/R060053
##MEASURED CHEMISTRY=(Fe^2+^_0.51_Mn_0.27_Mg_0.22_)_7_Si_8_O_22_(OH)_2_
137.2198, 1050.350
137.7019, 1057.158
138.1840, 1069.783
138.6662, 1091.999
139.1483, 1124.991
139.6304, 1164.543
140.1125, 1202.288
140.5946, 1233.169
141.0767, 1268.583
141.5589, 1308.549
142.0410, 1353.414
142.5231, 1403.880
143.0052, 1460.123
143.4873, 1521.781
143.9694, 1587.531
144.4516, 1656.140
144.9337, 1731.057
145.4158, 1818.527
145.8979, 1911.371
146.3800, 2000.465
146.8621, 2082.738
147.3443, 2157.552
147.8264, 2222.119
148.3085, 2277.809
148.7906, 2324.371
149.2727, 2363.088
149.7548, 2392.345
150.2370, 2409.292
150.7191, 2412.802
151.2012, 2402.489
151.6833, 2374.622
152.1654, 2320.721
152.6475, 2271.898
153.1297, 2244.306
153.6118, 2231.244
154.0939, 2213.510
154.5760, 2181.457
155.0581, 2144.361
155.5402, 2119.019
156.0224, 2104.033
156.5045, 2101.331
156.9866, 2112.747
157.4687, 2137.457
157.9508, 2173.527
158.4329, 2223.261
158.9151, 2281.811
159.3972, 2340.578
159.8793, 2399.616
160.3614, 2458.580
160.8435, 2517.222
161.3256, 2575.577
161.8078, 2632.652
162.2899, 2680.830
162.7720, 2734.855
163.2541, 2812.565
163.7362, 2918.332
164.2183, 3029.703
164.7004, 3132.425
165.1826, 3226.615
165.6647, 3316.070
166.1468, 3395.286
166.6289, 3476.918
167.1110, 3574.511
167.5931, 3690.747
168.0753, 3810.879
168.5574, 3919.025
169.0395, 4015.602
169.5216, 4124.090
170.0037, 4262.474
170.4858, 4405.979
170.9680, 4535.238
171.4501, 4648.720
171.9322, 4754.788
172.4143, 4865.530
172.8964, 4982.520
173.3785, 5077.896
173.8607, 5139.050
174.3428, 5179.492
174.8249, 5207.577
175.3070, 5224.000
175.7891, 5225.824
176.2712, 5208.149
176.7534, 5169.905
177.2355, 5123.512
177.7176, 5064.963
178.1997, 5002.205
178.6818, 4939.702
179.1639, 4877.958
179.6461, 4813.608
180.1282, 4742.584
180.6103, 4663.706
181.0924, 4587.387
181.5745, 4518.127
182.0566, 4449.296
182.5388, 4377.448
183.0209, 4302.581
183.5030, 4226.577
183.9851, 4151.940
184.4672, 4079.225
184.9493, 4003.451
185.4315, 3905.970
185.9136, 3819.593
186.3957, 3767.392
186.8778, 3744.753
187.3599, 3723.799
187.8420, 3673.092
188.3242, 3585.085
188.8063, 3515.510
189.2884, 3479.015
189.7705, 3449.746
190.2526, 3423.970
190.7347, 3397.963
191.2169, 3364.384
191.6990, 3311.407
192.1811, 3235.167
192.6632, 3179.868
193.1453, 3158.431
193.6274, 3148.275
194.1096, 3147.427
194.5917, 3152.438
195.0738, 3157.234
195.5559, 3156.162
196.0380, 3148.794
196.5201, 3144.575
197.0022, 3148.357
197.4844, 3150.925
197.9665, 3152.742
198.4486, 3151.343
198.9307, 3140.765
199.4128, 3112.867
199.8949, 3068.639
200.3771, 3046.355
200.8592, 3074.293
201.3413, 3098.502
201.8234, 3102.891
202.3055, 3094.127
202.7876, 3086.708
203.2698, 3091.232
203.7519, 3105.865
204.2340, 3112.882
204.7161, 3105.487
205.1982, 3096.880
205.6803, 3091.392
206.1625, 3086.118
206.6446, 3074.896
207.1267, 3053.019
207.6088, 3024.206
208.0909, 3007.875
208.5730, 3008.400
209.0552, 3018.208
209.5373, 3048.647
210.0194, 3083.941
210.5015, 3101.587
210.9836, 3089.451
211.4657, 3058.544
211.9479, 3046.884
212.4300, 3080.713
212.9121, 3098.429
213.3942, 3078.361
213.8763, 3045.934
214.3584, 3029.373
214.8406, 3040.205
215.3227, 3067.205
215.8048, 3083.682
216.2869, 3082.640
216.7690, 3081.296
217.2511, 3085.267
217.7333, 3087.239
218.2154, 3078.256
218.6975, 3056.215
219.1796, 3029.765
219.6617, 3014.953
220.1438, 3021.602
220.6260, 3021.335
221.1081, 3017.095
221.5902, 3004.605
222.0723, 2978.981
222.5544, 2940.021
223.0365, 2893.581
223.5187, 2844.611
224.0008, 2786.170
224.4829, 2745.406
224.9650, 2736.418
225.4471, 2731.010
225.9292, 2713.086
226.4113, 2681.783
226.8935, 2646.945
227.3756, 2620.273
227.8577, 2605.476
228.3398, 2579.787
228.8219, 2529.211
229.3040, 2481.161
229.7862, 2447.085
230.2683, 2426.119
230.7504, 2411.748
231.2325, 2399.026
231.7146, 2388.067
232.1967, 2376.700
232.6789, 2371.967
233.1610, 2359.658
233.6431, 2325.844
234.1252, 2281.501
234.6073, 2248.868
235.0894, 2245.443
235.5716, 2266.300
236.0537, 2270.419
236.5358, 2239.527
237.0179, 2211.774
237.5000, 2197.366
237.9821, 2190.121
238.4643, 2180.943
238.9464, 2164.930
239.4285, 2144.458
239.9106, 2128.054
240.3927, 2118.886
240.8748, 2109.152
241.3570, 2093.943
241.8391, 2079.220
242.3212, 2072.553
242.8033, 2076.823
243.2854, 2085.615
243.7675, 2085.639
244.2497, 2070.896
244.7318, 2060.442
245.2139, 2063.628
245.6960, 2066.594
246.1781, 2055.950
246.6602, 2029.998
247.1424, 2002.073
247.6245, 1991.168
248.1066, 2003.248
248.5887, 2010.909
249.0708, 2006.792
249.5529, 2002.520
250.0351, 2006.356
250.5172, 2017.173
250.9993, 2025.787
251.4814, 2021.747
251.9635, 2003.912
252.4456, 1989.629
252.9278, 1981.380
253.4099, 1974.583
253.8920, 1966.895
254.3741, 1959.096
254.8562, 1953.796
255.3383, 1955.145
255.8205, 1960.946
256.3026, 1955.889
256.7847, 1931.005
257.2668, 1908.191
257.7489, 1898.231
258.2310, 1894.748
258.7132, 1887.400
259.1953, 1869.080
259.6774, 1846.748
260.1595, 1838.886
260.6416, 1853.840
261.1237, 1862.098
261.6059, 1844.966
262.0880, 1820.490
262.5701, 1807.021
263.0522, 1811.139
263.5343, 1821.863
264.0164, 1824.197
264.4986, 1816.525
264.9807, 1811.697
265.4628, 1822.961
265.9449, 1831.332
266.4270, 1817.112
266.9091, 1777.634
267.3913, 1739.758
267.8734, 1731.317
268.3555, 1749.247
268.8376, 1758.280
269.3197, 1748.239
269.8018, 1732.896
270.2840, 1724.179
270.7661, 1721.082
271.2482, 1716.527
271.7303, 1701.444
272.2124, 1682.030
272.6945, 1678.500
273.1766, 1699.065
273.6588, 1718.684
274.1409, 1712.189
274.6230, 1690.387
275.1051, 1677.599
275.5872, 1690.387
276.0693, 1711.765
276.5515, 1720.111
277.0336, 1714.863
277.5157, 1702.758
277.9978, 1679.635
278.4799, 1654.758
278.9620, 1647.361
279.4442, 1667.058
279.9263, 1693.373
280.4084, 1715.570
280.8905, 1732.824
281.3726, 1739.768
281.8547, 1730.312
282.3369, 1713.724
282.8190, 1708.746
283.3011, 1719.504
283.7832, 1726.463
284.2653, 1717.401
284.7474, 1700.212
285.2296, 1690.040
285.7117, 1691.389
286.1938, 1696.922
286.6759, 1695.956
287.1580, 1686.889
287.6401, 1685.639
288.1223, 1700.877
288.6044, 1720.830
289.0865, 1734.041
289.5686, 1739.576
290.0507, 1744.698
290.5328, 1757.128
291.0150, 1776.746
291.4971, 1784.006
291.9792, 1763.328
292.4613, 1746.318
292.9434, 1753.465
293.4255, 1777.677
293.9077, 1797.410
294.3898, 1799.344
294.8719, 1788.990
295.3540, 1790.577
295.8361, 1816.943
296.3182, 1838.752
296.8004, 1849.597
297.2825, 1854.347
297.7646, 1859.630
298.2467, 1867.649
298.7288, 1875.017
299.2109, 1874.939
299.6931, 1857.580
300.1752, 1852.417
300.6573, 1867.847
301.1394, 1887.845
301.6215, 1903.222
302.1036, 1912.183
302.5858, 1915.916
303.0679, 1914.082
303.5500, 1904.934
304.0321, 1905.877
304.5142, 1931.672
304.9963, 1952.698
305.4785, 1956.462
305.9606, 1948.661
306.4427, 1940.544
306.9248, 1938.371
307.4069, 1942.160
307.8890, 1953.236
308.3712, 1981.284
308.8533, 2000.263
309.3354, 1998.095
309.8175, 1989.026
310.2996, 1987.570
310.7817, 1998.533
311.2639, 2014.637
311.7460, 2027.007
312.2281, 2036.121
312.7102, 2038.986
313.1923, 2028.783
313.6744, 2016.820
314.1566, 2010.866
314.6387, 2010.450
315.1208, 2007.939
315.6029, 1996.230
316.0850, 1976.926
316.5671, 1958.584
317.0493, 1940.113
317.5314, 1925.287
318.0135, 1918.821
318.4956, 1917.216
318.9777, 1913.025
319.4598, 1899.818
319.9420, 1885.487
320.4241, 1882.008
320.9062, 1889.973
321.3883, 1900.083
321.8704, 1911.678
322.3525, 1920.575
322.8347, 1918.599
323.3168, 1899.615
323.7989, 1883.753
324.2810, 1885.663
324.7631, 1900.074
325.2452, 1912.668
325.7274, 1919.297
326.2095, 1923.278
326.6916, 1928.978
327.1737, 1936.498
327.6558, 1943.844
328.1379, 1946.265
328.6201, 1950.959
329.1022, 1968.807
329.5843, 1999.310
330.0664, 2027.749
330.5485, 2042.075
331.0306, 2042.332
331.5128, 2043.205
331.9949, 2040.155
332.4770, 2042.342
332.9591, 2054.258
333.4412, 2073.852
333.9233, 2098.532
334.4054, 2127.660
334.8875, 2157.663
335.3697, 2179.295
335.8518, 2175.740
336.3339, 2187.504
336.8160, 2231.767
337.2981, 2279.987
337.7802, 2309.135
338.2624, 2315.535
338.7445, 2310.559
339.2266, 2305.878
339.7087, 2301.360
340.1908, 2298.010
340.6729, 2293.336
341.1551, 2292.381
341.6372, 2299.049
342.1193, 2310.588
342.6014, 2322.789
343.0835, 2334.566
343.5656, 2343.033
344.0478, 2337.102
344.5299, 2307.741
345.0120, 2284.443
345.4941, 2280.665
345.9762, 2282.983
346.4583, 2279.432
346.9405, 2267.132
347.4226, 2253.829
347.9047, 2247.484
348.3868, 2247.752
348.8689, 2248.994
349.3510, 2252.021
349.8332, 2253.550
350.3153, 2249.414
350.7974, 2241.142
351.2795, 2235.522
351.7616, 2238.023
352.2437, 2243.759
352.7259, 2243.948
353.2080, 2237.834
353.6901, 2234.795
354.1722, 2241.045
354.6543, 2254.664
355.1364, 2267.203
355.6186, 2271.637
356.1007, 2285.250
356.5828, 2325.276
357.0649, 2379.993
357.5470, 2422.871
358.0291, 2444.047
358.5113, 2457.477
358.9934, 2485.296
359.4755, 2536.794
359.9576, 2573.492
360.4397, 2575.833
360.9218, 2576.720
361.4040, 2599.871
361.8861, 2645.261
362.3682, 2701.967
362.8503, 2762.946
363.3324, 2827.352
363.8145, 2883.807
364.2967, 2920.188
364.7788, 2962.682
365.2609, 3019.807
365.7430, 3083.950
366.2251, 3146.260
366.7072, 3203.602
367.1894, 3256.921
367.6715, 3307.286
368.1536, 3353.812
368.6357, 3400.350
369.1178, 3443.112
369.5999, 3489.345
370.0821, 3549.317
370.5642, 3617.705
371.0463, 3676.446
371.5284, 3712.767
372.0105, 3729.593
372.4926, 3736.690
372.9748, 3729.906
373.4569, 3723.553
373.9390, 3727.733
374.4211, 3734.665
374.9032, 3737.207
375.3853, 3736.385
375.8675, 3723.017
376.3496, 3679.880
376.8317, 3613.690
377.3138, 3562.258
377.7959, 3540.795
378.2780, 3526.162
378.7602, 3493.108
379.2423, 3443.445
379.7244, 3377.113
380.2065, 3276.084
380.6886, 3169.814
381.1707, 3087.766
381.6529, 3029.569
382.1350, 2975.358
382.6171, 2912.549
383.0992, 2843.036
383.5813, 2780.900
384.0634, 2730.681
384.5456, 2680.824
385.0277, 2631.635
385.5098, 2580.483
385.9919, 2521.699
386.4740, 2454.638
386.9561, 2388.240
387.4383, 2333.682
387.9204, 2289.335
388.4025, 2263.852
388.8846, 2278.621
389.3667, 2290.021
389.8488, 2278.147
390.3310, 2249.361
390.8131, 2218.778
391.2952, 2194.956
391.7773, 2176.561
392.2594, 2160.321
392.7415, 2146.026
393.2237, 2134.354
393.7058, 2126.292
394.1879, 2120.353
394.6700, 2116.132
395.1521, 2113.489
395.6342, 2110.893
396.1163, 2110.631
396.5984, 2109.969
397.0806, 2095.578
397.5627, 2060.811
398.0448, 2027.864
398.5269, 2016.702
399.0090, 2020.563
399.4911, 2021.802
399.9733, 2019.831
400.4554, 2012.361
400.9375, 1994.447
401.4196, 1969.327
401.9017, 1945.728
402.3839, 1926.354
402.8660, 1912.986
403.3481, 1910.908
403.8302, 1929.491
404.3123, 1934.299
404.7944, 1915.104
405.2766, 1888.069
405.7587, 1861.959
406.2408, 1838.830
406.7229, 1819.550
407.2050, 1804.716
407.6871, 1794.224
408.1693, 1787.029
408.6514, 1784.890
409.1335, 1784.031
409.6156, 1787.596
410.0977, 1790.162
410.5798, 1784.066
411.0620, 1768.173
411.5441, 1752.489
412.0262, 1751.500
412.5083, 1766.200
412.9904, 1770.534
413.4725, 1757.762
413.9547, 1741.702
414.4368, 1729.281
414.9189, 1719.496
415.4010, 1709.852
415.8831, 1698.694
416.3652, 1688.266
416.8474, 1683.296
417.3295, 1683.035
417.8116, 1677.333
418.2937, 1660.803
418.7758, 1639.636
419.2579, 1622.391
419.7401, 1608.447
420.2222, 1599.565
420.7043, 1600.287
421.1864, 1603.614
421.6685, 1603.381
422.1506, 1599.046
422.6328, 1591.724
423.1149, 1581.708
423.5970, 1569.653
424.0791, 1559.745
424.5612, 1550.837
425.0433, 1545.553
425.5255, 1551.218
426.0076, 1556.917
426.4897, 1548.470
426.9718, 1524.318
427.4539, 1498.786
427.9360, 1489.322
428.4182, 1497.714
428.9003, 1501.724
429.3824, 1500.374
429.8645, 1495.437
430.3466, 1487.699
430.8287, 1477.112
431.3109, 1462.203
431.7930, 1440.240
432.2751, 1419.805
432.7572, 1410.307
433.2393, 1411.696
433.7214, 1426.096
434.2036, 1463.780
434.6857, 1500.356
435.1678, 1502.367
435.6499, 1473.306
436.1320, 1454.214
436.6141, 1466.399
437.0963, 1485.031
437.5784, 1486.396
438.0605, 1472.591
438.5426, 1458.306
439.0247, 1451.028
439.5068, 1449.457
439.9890, 1449.895
440.4711, 1453.772
440.9532, 1457.712
441.4353, 1464.252
441.9174, 1468.961
442.3995, 1465.653
442.8817, 1455.861
443.3638, 1448.335
443.8459, 1450.819
444.3280, 1462.254
444.8101, 1474.129
445.2922, 1493.583
445.7744, 1500.677
446.2565, 1477.721
446.7386, 1448.132
447.2207, 1439.596
447.7028, 1458.501
448.1849, 1476.544
448.6671, 1460.748
449.1492, 1420.788
449.6313, 1401.607
450.1134, 1412.485
450.5955, 1430.865
451.0776, 1441.141
451.5598, 1445.455
452.0419, 1451.347
452.5240, 1462.806
453.0061, 1472.408
453.4882, 1474.754
453.9703, 1472.614
454.4525, 1471.172
454.9346, 1472.014
455.4167, 1474.547
455.8988, 1477.292
456.3809, 1478.124
456.8630, 1488.924
457.3452, 1525.640
457.8272, 1554.351
458.3094, 1552.166
458.7915, 1533.373
459.2736, 1526.071
459.7557, 1544.397
460.2378, 1573.403
460.7199, 1583.537
461.2021, 1570.344
461.6842, 1558.830
462.1663, 1546.464
462.6484, 1542.874
463.1305, 1559.667
463.6126, 1591.471
464.0948, 1617.845
464.5769, 1625.800
465.0590, 1625.617
465.5411, 1631.582
466.0232, 1643.124
466.5053, 1652.738
466.9875, 1657.912
467.4696, 1658.906
467.9517, 1655.334
468.4338, 1646.204
468.9159, 1637.329
469.3980, 1625.880
469.8802, 1617.720
470.3623, 1619.531
470.8444, 1629.474
471.3265, 1640.181
471.8086, 1647.083
472.2907, 1650.545
472.7729, 1651.578
473.2550, 1648.952
473.7371, 1645.938
474.2192, 1645.004
474.7013, 1642.237
475.1834, 1631.040
475.6656, 1613.690
476.1477, 1602.585
476.6298, 1610.923
477.1119, 1631.335
477.5940, 1640.021
478.0761, 1633.626
478.5583, 1633.026
479.0404, 1657.022
479.5225, 1685.624
480.0046, 1685.288
480.4867, 1648.053
480.9688, 1614.713
481.4510, 1600.721
481.9331, 1599.526
482.4152, 1606.397
482.8973, 1619.442
483.3794, 1631.254
483.8615, 1635.953
484.3437, 1635.281
484.8258, 1639.104
485.3079, 1652.521
485.7900, 1664.158
486.2721, 1671.757
486.7542, 1678.205
487.2364, 1687.922
487.7185, 1700.131
488.2006, 1707.890
488.6827, 1702.234
489.1648, 1686.728
489.6469, 1683.368
490.1291, 1697.061
490.6112, 1710.555
491.0933, 1715.091
491.5754, 1716.715
492.0575, 1720.069
492.5396, 1724.806
493.0218, 1737.450
493.5039, 1770.122
493.9860, 1809.796
494.4681, 1833.682
494.9502, 1839.927
495.4323, 1841.697
495.9145, 1846.705
496.3966, 1855.230
496.8787, 1868.835
497.3608, 1893.831
497.8429, 1915.218
498.3250, 1925.880
498.8072, 1935.580
499.2893, 1954.770
499.7714, 1983.310
500.2535, 2012.118
500.7356, 2033.392
501.2177, 2048.204
501.6999, 2062.901
502.1820, 2074.714
502.6641, 2092.508
503.1462, 2118.987
503.6283, 2153.184
504.1104, 2199.689
504.5926, 2259.495
505.0747, 2309.968
505.5568, 2327.361
506.0389, 2331.240
506.5210, 2357.246
507.0031, 2406.889
507.4853, 2455.264
507.9674, 2486.916
508.4495, 2506.862
508.9316, 2531.588
509.4137, 2564.204
509.8958, 2596.332
510.3780, 2626.938
510.8601, 2657.059
511.3422, 2685.659
511.8243, 2714.050
512.3064, 2747.572
512.7885, 2792.292
513.2706, 2841.983
513.7527, 2871.246
514.2349, 2869.626
514.7170, 2876.445
515.1991, 2911.260
515.6812, 2950.698
516.1633, 2979.919
516.6454, 2997.866
517.1276, 3007.714
517.6097, 3013.789
518.0918, 3010.870
518.5739, 2987.354
519.0560, 2945.642
519.5381, 2906.837
520.0203, 2882.197
520.5024, 2861.304
520.9845, 2822.999
521.4666, 2753.921
521.9487, 2696.834
522.4308, 2663.205
522.9130, 2631.096
523.3951, 2587.496
523.8772, 2534.772
524.3593, 2481.316
524.8414, 2431.380
525.3235, 2382.339
525.8057, 2326.237
526.2878, 2259.988
526.7699, 2207.610
527.2520, 2180.120
527.7341, 2158.419
528.2162, 2131.398
528.6984, 2099.159
529.1805, 2061.601
529.6626, 2015.479
530.1447, 1967.803
530.6268, 1918.816
531.1089, 1872.694
531.5911, 1842.716
532.0732, 1833.461
532.5553, 1829.417
533.0374, 1812.007
533.5195, 1779.183
534.0016, 1751.522
534.4838, 1733.182
534.9659, 1714.758
535.4480, 1690.335
535.9301, 1665.998
536.4122, 1650.988
536.8943, 1647.400
537.3765, 1645.327
537.8586, 1631.811
538.3407, 1608.956
538.8228, 1595.183
539.3049, 1594.269
539.7870, 1592.423
540.2692, 1581.065
540.7513, 1564.110
541.2334, 1548.060
541.7155, 1530.138
542.1976, 1521.065
542.6797, 1537.940
543.1619, 1558.133
543.6440, 1550.501
544.1261, 1516.829
544.6082, 1485.028
545.0903, 1474.922
545.5724, 1481.423
546.0546, 1485.141
546.5367, 1488.028
547.0188, 1484.104
547.5009, 1470.577
547.9830, 1452.633
548.4651, 1426.936
548.9473, 1398.551
549.4294, 1383.955
549.9115, 1400.057
550.3936, 1426.234
550.8757, 1430.600
551.3578, 1415.344
551.8400, 1401.960
552.3221, 1397.298
552.8042, 1395.539
553.2863, 1388.281
553.7684, 1373.805
554.2505, 1369.237
554.7327, 1383.046
555.2148, 1397.735
555.6969, 1406.820
556.1790, 1411.542
556.6611, 1414.149
557.1432, 1415.436
557.6254, 1415.516
558.1075, 1415.020
558.5896, 1413.965
559.0717, 1409.107
559.5538, 1399.901
560.0359, 1387.830
560.5181, 1366.911
561.0002, 1346.285
561.4823, 1339.566
561.9644, 1351.647
562.4465, 1361.384
562.9286, 1359.562
563.4108, 1348.805
563.8929, 1326.164
564.3750, 1295.213
564.8571, 1275.476
565.3392, 1280.466
565.8214, 1301.449
566.3035, 1313.154
566.7856, 1311.711
567.2677, 1307.847
567.7498, 1298.714
568.2319, 1290.380
568.7141, 1286.079
569.1962, 1285.304
569.6783, 1287.486
570.1604, 1295.194
570.6425, 1298.925
571.1246, 1277.931
571.6068, 1238.191
572.0889, 1222.549
572.5710, 1244.848
573.0531, 1272.334
573.5352, 1274.302
574.0173, 1252.340
574.4995, 1239.941
574.9816, 1243.012
575.4637, 1247.697
575.9458, 1252.417
576.4279, 1255.650
576.9100, 1256.017
577.3922, 1253.239
577.8743, 1247.077
578.3564, 1235.445
578.8385, 1221.250
579.3206, 1217.938
579.8027, 1228.161
580.2849, 1239.031
580.7670, 1247.733
581.2491, 1254.480
581.7312, 1261.959
582.2133, 1269.882
582.6954, 1268.505
583.1776, 1246.801
583.6597, 1222.238
584.1418, 1205.232
584.6239, 1196.199
585.1060, 1196.413
585.5881, 1206.131
586.0703, 1220.522
586.5524, 1234.190
587.0345, 1247.880
587.5166, 1253.111
587.9987, 1245.266
588.4808, 1234.874
588.9630, 1221.932
589.4451, 1210.048
589.9272, 1202.562
590.4093, 1200.101
590.8914, 1203.483
591.3735, 1218.614
591.8557, 1237.477
592.3378, 1247.733
592.8199, 1249.052
593.3020, 1243.904
593.7841, 1232.464
594.2662, 1218.403
594.7484, 1209.128
595.2305, 1205.636
595.7126, 1204.770
596.1947, 1207.708
596.6768, 1211.738
597.1589, 1216.997
597.6411, 1222.158
598.1232, 1224.902
598.6053, 1224.256
599.0874, 1222.809
599.5695, 1223.661
600.0516, 1226.098
600.5338, 1226.534
601.0159, 1224.106
601.4980, 1224.073
601.9801, 1231.089
602.4622, 1242.152
602.9443, 1247.615
603.4265, 1245.845
603.9086, 1242.256
604.3907, 1232.932
604.8728, 1225.769
605.3549, 1230.085
605.8370, 1241.135
606.3192, 1244.883
606.8013, 1233.084
607.2834, 1217.271
607.7655, 1218.552
608.2476, 1236.719
608.7297, 1248.812
609.2119, 1250.610
609.6940, 1249.400
610.1761, 1247.392
610.6582, 1246.612
611.1403, 1254.174
611.6224, 1282.471
612.1045, 1298.500
612.5866, 1276.658
613.0687, 1248.996
613.5508, 1251.584
614.0330, 1280.784
614.5151, 1307.016
614.9972, 1310.704
615.4793, 1302.217
615.9614, 1308.037
616.4435, 1332.071
616.9257, 1345.085
617.4078, 1334.237
617.8899, 1324.107
618.3720, 1338.388
618.8541, 1367.035
619.3362, 1382.812
619.8184, 1372.981
620.3005, 1363.574
620.7826, 1367.645
621.2647, 1378.360
621.7468, 1390.110
622.2289, 1400.368
622.7111, 1401.947
623.1932, 1387.485
623.6753, 1366.383
624.1574, 1371.274
624.6395, 1410.637
625.1216, 1447.130
625.6038, 1477.919
626.0859, 1502.007
626.5680, 1518.175
627.0501, 1527.769
627.5322, 1534.299
628.0143, 1536.474
628.4965, 1539.272
628.9786, 1545.621
629.4607, 1554.521
629.9428, 1565.970
630.4249, 1579.121
630.9070, 1588.677
631.3892, 1589.045
631.8713, 1585.601
632.3534, 1600.881
632.8355, 1644.160
