##NAMES=Proto-ferro-suenoite
##RRUFFID=R061000
##IDEAL CHEMISTRY=[box]Mn^2+^_2_Fe^2+^_5_Si_8_O_22_(OH)_2_
##LOCALITY=Yokoneyama, Tochigi, Japan
##OWNER=RRUFF
##SOURCE=Michael Scott
##DESCRIPTION=Gray prismatic to fibrous associated with pyroxmangite R060999
##STATUS=The identification of this mineral has been made only by X-ray diffraction.
##URL=rruff.info/R061000
165.4007, 16750.89
165.8828, 16896.29
166.3649, 17058.96
166.8470, 17237.33
167.3291, 17398.88
167.8112, 17543.82
168.2934, 17674.73
168.7755, 17793.63
169.2576, 17899.88
169.7397, 17989.45
170.2218, 18058.46
170.7039, 18106.56
171.1861, 18150.10
171.6682, 18198.50
172.1503, 18235.53
172.6324, 18253.49
173.1145, 18252.37
173.5966, 18233.82
174.0788, 18195.62
174.5609, 18138.78
175.0430, 18086.38
175.5251, 18043.50
176.0072, 18000.63
176.4893, 17952.29
176.9714, 17898.59
177.4536, 17839.42
177.9357, 17769.53
178.4178, 17693.16
178.8999, 17640.16
179.3820, 17623.56
179.8641, 17618.71
180.3463, 17611.07
180.8284, 17600.49
181.3105, 17590.88
181.7926, 17584.22
182.2747, 17580.84
182.7568, 17580.29
183.2390, 17580.41
183.7211, 17584.68
184.2032, 17596.31
184.6853, 17614.87
185.1674, 17638.06
185.6495, 17671.59
186.1317, 17707.08
186.6138, 17716.25
187.0959, 17667.44
187.5780, 17616.74
188.0601, 17608.49
188.5422, 17639.36
189.0244, 17673.50
189.5065, 17691.05
189.9886, 17695.25
190.4707, 17699.88
190.9528, 17699.81
191.4349, 17705.58
191.9171, 17734.69
192.3992, 17783.89
192.8813, 17814.49
193.3634, 17787.13
193.8455, 17733.42
194.3276, 17735.96
194.8098, 17836.93
195.2919, 17949.16
195.7740, 18011.83
196.2561, 18028.30
196.7382, 18028.87
197.2203, 18022.41
197.7025, 18011.80
198.1846, 18003.42
198.6667, 17994.45
199.1488, 17991.86
199.6309, 18003.37
200.1130, 18027.50
200.5951, 18051.64
201.0773, 18070.04
201.5594, 18085.23
202.0415, 18102.67
202.5236, 18122.05
203.0057, 18143.96
203.4878, 18177.55
203.9700, 18218.29
204.4521, 18236.51
204.9342, 18209.77
205.4163, 18162.21
205.8984, 18138.28
206.3805, 18144.59
206.8627, 18156.43
207.3448, 18154.60
207.8269, 18143.79
208.3090, 18147.80
208.7911, 18181.74
209.2732, 18227.10
209.7554, 18255.25
210.2375, 18263.40
210.7196, 18267.93
211.2017, 18274.56
211.6838, 18284.12
212.1659, 18300.93
212.6481, 18329.71
213.1302, 18361.38
213.6123, 18380.87
214.0944, 18386.24
214.5765, 18397.39
215.0586, 18430.95
215.5408, 18478.01
216.0229, 18512.47
216.5050, 18523.07
216.9871, 18529.20
217.4692, 18562.98
217.9513, 18625.55
218.4335, 18667.53
218.9156, 18647.62
219.3977, 18595.81
219.8798, 18579.53
220.3619, 18620.58
220.8440, 18675.02
221.3262, 18689.54
221.8083, 18668.97
222.2904, 18653.18
222.7725, 18661.67
223.2546, 18680.59
223.7367, 18685.54
224.2189, 18670.54
224.7010, 18652.46
225.1831, 18653.06
225.6652, 18668.06
226.1473, 18669.97
226.6294, 18639.47
227.1115, 18598.15
227.5937, 18577.80
228.0758, 18583.50
228.5579, 18584.76
229.0400, 18543.39
229.5221, 18470.73
230.0042, 18432.70
230.4864, 18470.54
230.9685, 18526.57
231.4506, 18543.08
231.9327, 18518.02
232.4148, 18487.09
232.8969, 18470.24
233.3791, 18469.08
233.8612, 18482.26
234.3433, 18522.11
234.8254, 18566.59
235.3075, 18599.16
235.7896, 18621.07
236.2718, 18644.34
236.7539, 18679.56
237.2360, 18719.84
237.7181, 18742.17
238.2002, 18731.03
238.6823, 18719.16
239.1645, 18732.81
239.6466, 18762.21
240.1287, 18770.91
240.6108, 18736.13
241.0929, 18675.52
241.5750, 18638.41
242.0572, 18629.83
242.5393, 18632.21
243.0214, 18644.26
243.5035, 18662.84
243.9856, 18685.60
244.4677, 18715.47
244.9499, 18739.49
245.4320, 18722.66
245.9141, 18641.74
246.3962, 18584.19
246.8783, 18581.50
247.3604, 18608.77
247.8426, 18634.56
248.3247, 18650.53
248.8068, 18658.31
249.2889, 18657.94
249.7710, 18641.97
250.2531, 18640.25
250.7352, 18667.70
251.2174, 18702.89
251.6995, 18722.97
252.1816, 18724.43
252.6637, 18722.42
253.1458, 18734.27
253.6279, 18764.61
254.1101, 18788.84
254.5922, 18800.62
255.0743, 18811.30
255.5564, 18831.19
256.0385, 18858.81
256.5207, 18883.23
257.0028, 18894.74
257.4849, 18892.55
257.9670, 18889.23
258.4491, 18884.88
258.9312, 18879.93
259.4134, 18874.17
259.8955, 18868.11
260.3776, 18863.09
260.8597, 18860.21
261.3418, 18859.15
261.8239, 18856.03
262.3060, 18849.91
262.7881, 18843.22
263.2703, 18831.26
263.7524, 18820.31
264.2345, 18822.30
264.7166, 18843.86
265.1987, 18875.48
265.6808, 18888.43
266.1630, 18866.96
266.6451, 18845.78
267.1272, 18817.95
267.6093, 18795.62
268.0914, 18796.58
268.5735, 18825.05
269.0557, 18860.79
269.5378, 18866.95
270.0199, 18818.39
270.5020, 18791.05
270.9841, 18795.48
271.4662, 18810.54
271.9484, 18824.22
272.4305, 18834.10
272.9126, 18842.96
273.3947, 18854.88
273.8768, 18871.50
274.3589, 18882.31
274.8411, 18877.75
275.3232, 18875.48
275.8053, 18884.27
276.2874, 18901.79
276.7695, 18919.32
277.2516, 18928.78
277.7338, 18931.18
278.2159, 18941.86
278.6980, 18963.25
279.1801, 18990.62
279.6622, 19034.38
280.1443, 19080.55
280.6265, 19102.18
281.1086, 19074.99
281.5907, 19027.08
282.0728, 19040.75
282.5549, 19150.40
283.0370, 19238.71
283.5192, 19255.67
284.0013, 19238.07
284.4834, 19220.98
284.9655, 19215.82
285.4476, 19209.58
285.9297, 19180.10
286.4119, 19123.54
286.8940, 19080.97
287.3761, 19070.43
287.8582, 19074.34
288.3403, 19077.88
288.8224, 19079.77
289.3046, 19085.23
289.7867, 19107.01
290.2688, 19139.21
290.7509, 19147.06
291.2330, 19113.97
291.7151, 19072.12
292.1973, 19047.25
292.6794, 19038.31
293.1615, 19043.78
293.6436, 19078.27
294.1257, 19122.24
294.6078, 19137.62
295.0900, 19116.47
295.5721, 19095.01
296.0542, 19103.92
296.5363, 19136.64
297.0184, 19165.62
297.5005, 19176.54
297.9827, 19190.35
298.4648, 19232.08
298.9469, 19296.82
299.4290, 19349.11
299.9111, 19364.55
300.3932, 19354.78
300.8754, 19363.73
301.3575, 19401.34
301.8396, 19441.77
302.3217, 19483.48
302.8038, 19520.48
303.2859, 19538.43
303.7681, 19530.53
304.2502, 19509.73
304.7323, 19499.43
305.2144, 19500.11
305.6965, 19511.55
306.1786, 19545.02
306.6608, 19582.94
307.1429, 19611.83
307.6250, 19628.29
308.1071, 19633.25
308.5892, 19626.96
309.0714, 19607.71
309.5535, 19584.64
310.0356, 19552.00
310.5177, 19521.62
310.9998, 19498.28
311.4819, 19481.92
311.9640, 19471.92
312.4461, 19469.14
312.9283, 19471.83
313.4104, 19462.58
313.8925, 19422.71
314.3746, 19392.81
314.8567, 19378.67
315.3388, 19378.35
315.8210, 19394.52
316.3031, 19428.94
316.7852, 19465.93
317.2673, 19468.75
317.7494, 19414.27
318.2315, 19382.75
318.7137, 19407.02
319.1958, 19440.26
319.6779, 19449.32
320.1600, 19430.36
320.6421, 19405.70
321.1242, 19392.13
321.6064, 19389.31
322.0885, 19412.45
322.5706, 19498.63
323.0527, 19566.08
323.5348, 19543.76
324.0169, 19462.57
324.4991, 19414.50
324.9812, 19473.45
325.4633, 19590.97
325.9454, 19660.37
326.4275, 19672.83
326.9096, 19669.51
327.3918, 19665.25
327.8739, 19661.40
328.3560, 19660.29
328.8381, 19663.30
329.3202, 19667.87
329.8023, 19672.50
330.2845, 19677.20
330.7666, 19680.15
331.2487, 19677.22
331.7308, 19677.33
332.2129, 19702.00
332.6950, 19761.38
333.1772, 19798.96
333.6593, 19780.29
334.1414, 19736.87
334.6235, 19715.66
335.1056, 19725.76
335.5877, 19737.80
336.0699, 19716.68
336.5520, 19653.95
337.0341, 19629.44
337.5162, 19692.70
337.9983, 19748.96
338.4804, 19726.23
338.9626, 19646.26
339.4447, 19584.78
339.9268, 19592.16
340.4089, 19654.48
340.8910, 19694.74
341.3731, 19678.58
341.8553, 19680.23
342.3374, 19727.58
342.8195, 19788.10
343.3016, 19823.83
343.7837, 19822.92
344.2658, 19803.05
344.7480, 19791.77
345.2301, 19791.90
345.7122, 19792.75
346.1943, 19787.39
346.6764, 19788.00
347.1585, 19806.27
347.6407, 19838.21
348.1228, 19867.99
348.6049, 19884.79
349.0870, 19888.83
349.5691, 19879.24
350.0512, 19841.63
350.5334, 19814.90
351.0155, 19818.45
351.4976, 19840.41
351.9797, 19866.92
352.4618, 19897.24
352.9439, 19921.73
353.4261, 19922.92
353.9082, 19900.13
354.3903, 19883.02
354.8724, 19885.74
355.3545, 19894.53
355.8366, 19893.75
356.3188, 19883.40
356.8009, 19863.68
357.2830, 19824.25
357.7651, 19777.89
358.2472, 19748.23
358.7293, 19739.71
359.2115, 19744.84
359.6936, 19764.41
360.1757, 19797.68
360.6578, 19805.89
361.1399, 19756.07
361.6220, 19709.07
362.1041, 19707.16
362.5862, 19740.72
363.0684, 19775.06
363.5505, 19790.09
364.0326, 19795.30
364.5147, 19822.72
364.9968, 19907.31
365.4789, 19969.84
365.9611, 19985.37
366.4432, 19986.92
366.9253, 20011.03
367.4074, 20063.13
367.8895, 20114.63
368.3716, 20121.68
368.8538, 20062.06
369.3359, 20066.91
369.8180, 20223.91
370.3001, 20360.64
370.7822, 20407.54
371.2643, 20385.66
371.7465, 20345.53
372.2286, 20309.59
372.7107, 20285.78
373.1928, 20302.95
373.6749, 20379.64
374.1570, 20447.95
374.6392, 20491.17
375.1213, 20513.40
375.6034, 20506.55
376.0855, 20465.64
376.5676, 20434.96
377.0497, 20477.11
377.5319, 20569.50
378.0140, 20598.52
378.4961, 20532.22
378.9782, 20426.15
379.4603, 20322.27
379.9424, 20221.19
380.4246, 20126.08
380.9067, 20030.13
381.3888, 19946.05
381.8709, 19891.46
382.3530, 19862.88
382.8351, 19831.89
383.3173, 19777.56
383.7994, 19713.40
384.2815, 19693.83
384.7636, 19778.16
385.2457, 19818.82
385.7278, 19758.78
386.2100, 19657.22
386.6921, 19570.72
387.1742, 19516.20
387.6563, 19495.85
388.1384, 19518.05
388.6205, 19596.30
389.1027, 19650.50
389.5848, 19670.14
390.0669, 19677.65
390.5490, 19670.99
391.0311, 19659.37
391.5132, 19660.31
391.9954, 19686.43
392.4775, 19725.13
392.9596, 19740.24
393.4417, 19720.89
393.9238, 19706.90
394.4059, 19708.41
394.8881, 19718.85
395.3702, 19738.71
395.8523, 19767.49
396.3344, 19789.00
396.8165, 19785.72
397.2986, 19764.03
397.7808, 19750.27
398.2629, 19751.09
398.7450, 19748.41
399.2271, 19720.99
399.7092, 19677.31
400.1913, 19645.62
400.6735, 19631.29
401.1556, 19629.61
401.6377, 19645.92
402.1198, 19673.66
402.6019, 19693.38
403.0840, 19697.77
403.5662, 19686.78
404.0483, 19658.05
404.5304, 19594.00
405.0125, 19548.46
405.4946, 19535.76
405.9767, 19534.86
406.4589, 19531.45
406.9410, 19523.65
407.4231, 19515.44
407.9052, 19510.60
408.3873, 19508.86
408.8694, 19502.13
409.3516, 19477.82
409.8336, 19464.96
410.3158, 19477.44
410.7979, 19500.53
411.2800, 19515.88
411.7621, 19517.11
412.2442, 19515.79
412.7263, 19528.17
413.2085, 19554.94
413.6906, 19579.45
414.1727, 19601.72
414.6548, 19617.55
415.1369, 19617.52
415.6190, 19607.00
416.1012, 19608.94
416.5833, 19649.78
417.0654, 19698.13
417.5475, 19710.74
418.0296, 19688.89
418.5117, 19663.37
418.9939, 19648.87
419.4760, 19640.87
419.9581, 19626.24
420.4402, 19595.60
420.9223, 19579.14
421.4044, 19594.18
421.8866, 19621.96
422.3687, 19646.97
422.8508, 19664.57
423.3329, 19667.76
423.8150, 19647.39
424.2971, 19602.15
424.7793, 19563.99
425.2614, 19534.47
425.7435, 19510.28
426.2256, 19487.66
426.7077, 19471.04
427.1898, 19469.12
427.6720, 19485.46
428.1541, 19507.82
428.6362, 19519.00
429.1183, 19519.03
429.6004, 19505.92
430.0826, 19459.03
430.5647, 19420.15
431.0468, 19420.93
431.5289, 19453.47
432.0110, 19483.80
432.4931, 19493.90
432.9753, 19493.70
433.4574, 19498.81
433.9395, 19509.15
434.4216, 19512.14
434.9037, 19497.32
435.3858, 19475.43
435.8680, 19472.26
436.3501, 19495.43
436.8322, 19515.16
437.3143, 19513.68
437.7964, 19510.76
438.2785, 19542.55
438.7607, 19606.20
439.2428, 19645.93
439.7249, 19604.09
440.2070, 19482.45
440.6891, 19414.43
441.1712, 19435.74
441.6534, 19471.14
442.1355, 19518.49
442.6176, 19567.48
443.0997, 19605.63
443.5818, 19629.35
444.0639, 19648.85
444.5461, 19687.79
445.0282, 19749.95
445.5103, 19762.54
445.9924, 19685.08
446.4745, 19601.91
446.9566, 19569.20
447.4388, 19571.03
447.9209, 19566.14
448.4030, 19530.07
448.8851, 19491.51
449.3672, 19490.22
449.8493, 19518.77
450.3315, 19527.88
450.8136, 19494.71
451.2957, 19444.61
451.7778, 19418.95
452.2599, 19421.68
452.7420, 19433.56
453.2242, 19471.73
453.7063, 19503.88
454.1884, 19501.62
454.6705, 19469.95
455.1526, 19431.13
455.6347, 19397.78
456.1169, 19372.63
456.5990, 19368.05
457.0811, 19393.85
457.5632, 19424.45
458.0453, 19470.59
458.5274, 19509.45
459.0095, 19512.43
459.4916, 19482.08
459.9738, 19460.27
460.4559, 19497.17
460.9380, 19574.48
461.4201, 19608.38
461.9022, 19587.06
462.3843, 19559.54
462.8665, 19551.87
463.3486, 19555.74
463.8307, 19555.66
464.3128, 19548.10
464.7949, 19542.28
465.2770, 19544.22
465.7592, 19550.94
466.2413, 19557.17
466.7234, 19561.92
467.2055, 19568.18
467.6876, 19580.62
468.1697, 19600.48
468.6519, 19605.73
469.1340, 19577.78
469.6161, 19558.39
470.0982, 19574.40
470.5803, 19600.21
471.0624, 19595.70
471.5446, 19547.80
472.0267, 19488.74
472.5088, 19465.88
472.9909, 19483.92
473.4730, 19495.27
473.9551, 19495.49
474.4373, 19490.66
474.9194, 19485.08
475.4015, 19477.51
475.8836, 19464.19
476.3657, 19437.09
476.8478, 19413.13
477.3300, 19413.78
477.8121, 19433.74
478.2942, 19446.95
478.7763, 19443.29
479.2584, 19438.09
479.7405, 19456.44
480.2227, 19509.76
480.7048, 19530.07
481.1869, 19473.38
481.6690, 19423.45
482.1511, 19440.23
482.6332, 19500.21
483.1154, 19543.21
483.5975, 19537.84
484.0796, 19511.08
484.5617, 19522.19
485.0438, 19582.21
485.5259, 19648.43
486.0081, 19722.34
486.4902, 19797.30
486.9723, 19889.23
487.4544, 19981.71
487.9365, 20025.88
488.4186, 19978.82
488.9008, 19883.61
489.3829, 19794.90
489.8650, 19713.17
490.3471, 19655.97
490.8292, 19635.02
491.3113, 19633.96
491.7935, 19624.76
492.2756, 19602.69
492.7577, 19598.73
493.2398, 19638.86
493.7219, 19681.63
494.2040, 19688.63
494.6862, 19668.89
495.1683, 19661.82
495.6504, 19692.77
496.1325, 19739.97
496.6146, 19734.21
497.0967, 19627.91
497.5789, 19569.87
498.0610, 19616.22
498.5431, 19674.62
499.0252, 19685.43
499.5073, 19655.24
499.9894, 19631.55
500.4716, 19650.48
500.9537, 19688.53
501.4358, 19701.51
501.9179, 19688.77
502.4000, 19670.30
502.8821, 19648.17
503.3643, 19630.34
503.8464, 19622.26
504.3285, 19631.86
504.8106, 19735.48
505.2927, 19806.65
505.7748, 19847.10
506.2570, 19764.85
506.7391, 19841.04
507.2212, 19853.73
507.7033, 19863.82
508.1854, 19962.31
508.6675, 19897.91
509.1496, 19995.00
509.6317, 19949.20
510.1139, 19969.21
510.5960, 19976.59
511.0781, 19967.34
511.5602, 19947.50
512.0424, 19935.87
512.5245, 19944.63
513.0066, 19966.68
513.4887, 19991.52
513.9708, 20019.15
514.4529, 20050.51
514.9351, 20091.49
515.4172, 20128.32
515.8993, 20134.34
516.3814, 20104.40
516.8635, 20083.41
517.3456, 20082.42
517.8278, 20087.61
518.3099, 20099.34
518.7920, 20109.12
519.2741, 20094.26
519.7562, 20041.52
520.2383, 19971.29
520.7205, 19929.72
521.2026, 19926.86
521.6847, 19923.06
522.1668, 19932.69
522.6489, 19924.53
523.1310, 19865.71
523.6132, 19775.41
524.0953, 19706.99
524.5774, 19691.88
525.0595, 19699.59
525.5416, 19693.38
526.0237, 19676.66
526.5059, 19671.96
526.9880, 19689.90
527.4701, 19709.90
527.9522, 19705.36
528.4343, 19670.82
528.9164, 19644.32
529.3986, 19629.53
529.8807, 19619.21
530.3628, 19619.54
530.8449, 19619.80
531.3270, 19597.81
531.8091, 19546.14
532.2913, 19489.62
532.7734, 19467.27
533.2554, 19483.43
533.7375, 19493.27
534.2197, 19488.60
534.7018, 19487.25
535.1839, 19505.66
535.6660, 19531.87
536.1481, 19544.08
536.6302, 19534.38
537.1124, 19515.22
537.5945, 19483.15
538.0766, 19449.86
538.5587, 19445.09
539.0408, 19474.06
539.5229, 19509.94
540.0051, 19530.11
540.4872, 19534.64
540.9693, 19524.81
541.4514, 19480.28
541.9335, 19447.10
542.4156, 19440.69
542.8978, 19444.48
543.3799, 19438.73
543.8620, 19422.31
544.3441, 19414.55
544.8262, 19445.18
545.3083, 19499.84
545.7905, 19513.31
546.2726, 19477.36
546.7547, 19440.28
547.2368, 19418.57
547.7189, 19411.65
548.2010, 19421.85
548.6832, 19458.16
549.1653, 19474.59
549.6474, 19437.87
550.1295, 19391.27
550.6116, 19375.48
551.0938, 19387.16
551.5759, 19403.34
552.0580, 19411.80
552.5401, 19409.74
553.0222, 19383.00
553.5043, 19304.67
553.9865, 19271.34
554.4686, 19347.43
554.9507, 19421.85
555.4328, 19431.00
555.9149, 19391.76
556.3970, 19360.13
556.8792, 19361.52
557.3613, 19377.53
557.8434, 19395.09
558.3255, 19411.54
558.8076, 19412.15
559.2897, 19390.11
559.7719, 19368.55
560.2540, 19259.47
560.7361, 19323.60
561.2182, 19355.27
561.7003, 19356.22
562.1824, 19234.47
562.6646, 19271.17
563.1467, 19244.37
563.6288, 19214.96
564.1109, 19273.96
564.5930, 19170.05
565.0751, 19279.43
565.5573, 19306.79
566.0394, 19314.30
566.5215, 19297.00
567.0036, 19277.59
567.4857, 19270.30
567.9678, 19265.56
568.4500, 19240.51
568.9321, 19180.88
569.4142, 19150.36
569.8963, 19205.22
570.3784, 19269.25
570.8605, 19264.88
571.3427, 19202.21
571.8248, 19136.84
572.3069, 19099.90
572.7890, 19087.05
573.2711, 19093.75
573.7532, 19135.15
574.2354, 19146.45
574.7175, 19079.63
575.1996, 19024.38
575.6817, 19039.60
576.1638, 19104.67
576.6459, 19164.63
577.1281, 19209.05
577.6102, 19229.90
578.0923, 19197.09
578.5744, 19137.15
579.0565, 19124.19
579.5386, 19175.15
580.0208, 19234.02
580.5029, 19246.10
580.9850, 19212.42
581.4671, 19189.45
581.9492, 19201.27
582.4313, 19193.70
582.9135, 19128.96
583.3956, 19061.47
583.8777, 19048.73
584.3598, 19092.44
584.8419, 19140.98
585.3240, 19156.72
585.8062, 19151.08
586.2883, 19148.49
586.7704, 19148.93
587.2525, 19146.69
587.7346, 19138.00
588.2167, 19128.34
588.6989, 19125.82
589.1810, 19130.96
589.6631, 19142.70
590.1452, 19182.58
590.6273, 19207.16
591.1094, 19182.49
591.5916, 19131.16
592.0737, 19089.64
592.5558, 19071.42
593.0379, 19067.87
593.5200, 19069.13
594.0021, 19075.26
594.4843, 19089.96
594.9664, 19118.02
595.4485, 19140.74
595.9306, 19142.92
596.4127, 19134.39
596.8948, 19136.74
597.3770, 19153.48
597.8591, 19172.41
598.3412, 19198.56
598.8233, 19219.21
599.3054, 19223.26
599.7875, 19210.87
600.2697, 19182.71
600.7518, 19137.11
601.2339, 19089.68
601.7160, 19079.71
602.1981, 19116.33
602.6802, 19147.21
603.1624, 19163.17
603.6445, 19177.89
604.1266, 19207.59
604.6087, 19242.29
605.0908, 19254.94
605.5729, 19220.04
606.0551, 19194.92
606.5372, 19224.30
607.0193, 19280.00
607.5014, 19322.62
607.9835, 19344.64
608.4656, 19351.73
608.9478, 19346.76
609.4299, 19332.11
609.9120, 19319.97
610.3941, 19308.00
610.8762, 19303.15
611.3583, 19313.76
611.8405, 19325.74
612.3226, 19329.18
612.8047, 19325.65
613.2868, 19324.36
613.7689, 19337.23
614.2510, 19345.42
614.7332, 19320.86
615.2153, 19278.78
615.6974, 19258.64
616.1795, 19270.63
616.6616, 19300.06
617.1437, 19335.34
617.6259, 19375.86
618.1080, 19397.47
618.5901, 19376.65
619.0722, 19371.00
619.5543, 19414.60
620.0364, 19459.10
620.5186, 19456.10
621.0007, 19406.88
621.4828, 19360.96
621.9649, 19345.00
622.4470, 19348.72
622.9291, 19362.13
623.4113, 19384.15
623.8934, 19415.49
624.3755, 19458.39
624.8576, 19492.22
625.3397, 19487.74
625.8218, 19439.30
626.3040, 19409.36
626.7861, 19401.23
627.2682, 19409.28
627.7503, 19445.93
628.2324, 19490.65
628.7145, 19526.41
629.1967, 19549.14
629.6788, 19558.01
630.1609, 19542.35
630.6430, 19517.28
631.1251, 19504.09
631.6072, 19503.70
632.0893, 19526.34
632.5714, 19581.39
633.0535, 19638.92
633.5356, 19654.95
634.0178, 19622.50
634.4999, 19582.57
634.9820, 19497.52
635.4641, 19449.13
635.9462, 19475.35
636.4283, 19543.32
636.9105, 19624.62
637.3926, 19710.22
637.8747, 19773.64
638.3568, 19781.43
638.8389, 19758.39
639.3210, 19753.79
639.8032, 19766.92
640.2853, 19770.85
640.7674, 19750.65
641.2495, 19727.81
641.7316, 19736.38
642.2137, 19779.49
642.6959, 19841.88
643.1780, 19949.52
643.6601, 20045.24
644.1422, 20105.33
644.6243, 20145.86
645.1064, 20185.26
645.5886, 20228.25
646.0707, 20275.37
646.5528, 20325.59
647.0349, 20380.88
647.5170, 20439.38
647.9991, 20503.36
648.4813, 20597.75
648.9634, 20740.11
649.4455, 20896.17
649.9276, 21005.29
650.4097, 21046.74
650.8918, 21129.54
651.3740, 21286.56
651.8561, 21446.44
652.3382, 21594.74
652.8203, 21731.01
653.3024, 21854.93
653.7845, 21967.46
654.2667, 22072.14
654.7488, 22173.23
655.2309, 22267.26
655.7130, 22351.05
656.1951, 22423.14
656.6772, 22481.52
657.1594, 22527.54
657.6415, 22544.54
658.1236, 22501.79
658.6057, 22385.26
659.0878, 22285.00
659.5699, 22217.97
660.0521, 22147.64
660.5342, 22095.81
661.0163, 22019.73
661.4984, 21854.06
661.9805, 21591.76
662.4626, 21335.34
662.9448, 21153.65
