##NAMES=Proustite
##RRUFFID=R060356
##IDEAL CHEMISTRY=Ag^1+^_3_As^3+^S^2-^_3_
##LOCALITY=Chanarcillo, Atacama Province, Chile
##OWNER=RRUFF
##SOURCE=Herb Obodda
##DESCRIPTION=Red scalenohedral crystal
##STATUS=The identification of this mineral has been confirmed by X-ray diffraction and chemical analysis
##URL=rruff.info/R060356
##MEASURED CHEMISTRY=Ag_3.01_As_0.99_S_3.00_
91.53320, 375.3519
92.01532, 374.2299
92.49744, 372.7830
92.97955, 376.0875
93.46167, 379.8809
93.94379, 381.2600
94.42590, 382.8080
94.90802, 384.1773
95.39014, 384.0221
95.87225, 382.1270
96.35437, 379.8980
96.83649, 378.2540
97.31860, 376.8831
97.80072, 375.3476
98.28284, 372.8549
98.76495, 369.3863
99.24707, 366.7841
99.72919, 365.8915
100.2113, 365.0912
100.6934, 363.9563
101.1755, 362.5218
101.6577, 360.9874
102.1398, 359.5079
102.6219, 358.0978
103.1040, 356.5873
103.5861, 354.8222
104.0682, 353.0349
104.5504, 351.3019
105.0325, 349.6439
105.5146, 348.0274
105.9967, 346.3246
106.4788, 344.2270
106.9609, 342.8278
107.4431, 342.4636
107.9252, 342.7294
108.4073, 343.1295
108.8894, 343.5294
109.3715, 343.9198
109.8536, 344.2757
110.3358, 344.5779
110.8179, 344.9099
111.3000, 345.3681
111.7821, 345.9319
112.2642, 346.3584
112.7463, 346.0508
113.2285, 345.9070
113.7106, 346.8870
114.1927, 349.3078
114.6748, 352.4353
115.1569, 355.3553
115.6390, 358.1801
116.1212, 360.5171
116.6033, 362.2863
117.0854, 363.5980
117.5675, 364.6406
118.0496, 365.5879
118.5317, 366.2224
119.0139, 365.4963
119.4960, 362.3617
119.9781, 358.7847
120.4602, 355.0495
120.9423, 351.1199
121.4244, 346.8263
121.9066, 341.9697
122.3887, 336.4578
122.8708, 331.5946
123.3529, 327.2812
123.8350, 323.4838
124.3171, 320.2682
124.7993, 317.6018
125.2814, 315.3585
125.7635, 313.4000
126.2456, 311.7665
126.7277, 310.5254
127.2098, 309.8589
127.6920, 309.5041
128.1741, 309.1263
128.6562, 308.6198
129.1383, 308.2921
129.6204, 308.7611
130.1025, 309.9324
130.5847, 310.8843
131.0668, 311.2781
131.5489, 311.1666
132.0310, 310.7313
132.5131, 309.9756
132.9952, 308.8760
133.4774, 307.4727
133.9595, 305.7692
134.4416, 303.8297
134.9237, 301.9078
135.4058, 300.1366
135.8879, 297.3921
136.3701, 292.4032
136.8522, 287.0511
137.3343, 282.3349
137.8164, 278.4869
138.2985, 275.2391
138.7806, 272.0887
139.2628, 268.9335
139.7449, 266.1087
140.2270, 263.7938
140.7091, 261.6823
141.1912, 259.3717
141.6733, 256.6935
142.1555, 253.9331
142.6376, 252.1280
143.1197, 252.1796
143.6018, 252.2539
144.0839, 252.0161
144.5660, 251.6949
145.0482, 251.7227
145.5303, 252.3983
146.0124, 253.5976
146.4945, 254.3974
146.9766, 254.0695
147.4587, 254.1287
147.9409, 255.5396
148.4230, 258.0446
148.9051, 260.3813
149.3872, 261.5026
149.8693, 261.6934
150.3514, 262.7724
150.8336, 265.6219
151.3157, 268.8461
151.7978, 271.0516
152.2799, 272.0808
152.7620, 273.1248
153.2441, 275.1713
153.7263, 277.8569
154.2084, 280.7080
154.6905, 283.6632
155.1726, 286.6467
155.6547, 289.4594
156.1368, 291.9037
156.6190, 294.5304
157.1011, 297.4399
157.5832, 300.7016
158.0653, 304.5380
158.5474, 309.3210
159.0295, 314.9524
159.5117, 320.1143
159.9938, 324.5262
160.4759, 328.7206
160.9580, 332.6484
161.4401, 336.4722
161.9222, 340.5058
162.4044, 345.0409
162.8865, 350.1740
163.3686, 355.4232
163.8507, 360.5481
164.3328, 366.0058
164.8149, 372.2685
165.2971, 379.2273
165.7792, 386.1190
166.2613, 392.0857
166.7434, 396.6879
167.2255, 401.5015
167.7076, 406.6617
168.1898, 411.9315
168.6719, 417.2091
169.1540, 422.4725
169.6361, 427.5558
170.1182, 432.1425
170.6003, 435.7235
171.0825, 440.2018
171.5646, 446.2160
172.0467, 452.9462
172.5288, 459.5445
173.0109, 465.7921
173.4930, 471.7496
173.9752, 477.5141
174.4573, 483.1281
174.9394, 488.5118
175.4215, 493.3781
175.9036, 498.0229
176.3857, 503.2656
176.8679, 509.8722
177.3500, 516.3680
177.8321, 520.7880
178.3142, 523.0834
178.7963, 524.7759
179.2784, 526.6970
179.7606, 528.8101
180.2427, 530.7308
180.7248, 532.6415
181.2069, 534.0006
181.6890, 534.3721
182.1711, 533.7095
182.6533, 532.3950
183.1354, 531.0159
183.6175, 529.7347
184.0996, 527.1074
184.5817, 521.8146
185.0638, 515.5943
185.5460, 509.3916
186.0281, 503.4070
186.5102, 497.2121
186.9923, 490.2041
187.4744, 482.2448
187.9565, 473.7637
188.4387, 464.1544
188.9208, 454.4870
189.4029, 445.6346
189.8850, 437.8026
190.3671, 430.5946
190.8492, 423.1667
191.3314, 415.7777
191.8135, 407.7384
192.2956, 398.2128
192.7777, 388.5284
193.2598, 379.8289
193.7419, 372.5889
194.2241, 366.4815
194.7062, 360.7306
195.1883, 355.3528
195.6704, 350.3553
196.1525, 346.0921
196.6346, 342.1119
197.1168, 337.7534
197.5989, 332.7012
198.0810, 327.4007
198.5631, 323.2013
199.0452, 321.0560
199.5273, 318.6625
200.0095, 315.1981
200.4916, 311.3199
200.9737, 308.1031
201.4558, 306.0496
201.9379, 304.8768
202.4200, 303.8131
202.9022, 303.1548
203.3843, 302.1254
203.8664, 300.0161
204.3485, 297.2582
204.8306, 295.1320
205.3127, 294.3871
205.7949, 294.3930
206.2770, 293.6714
206.7591, 291.8420
207.2412, 290.1586
207.7233, 289.3369
208.2054, 289.2970
208.6876, 289.6716
209.1697, 290.8319
209.6518, 291.9016
210.1339, 291.5509
210.6160, 289.3193
211.0981, 286.8545
211.5803, 285.5255
212.0624, 285.3363
212.5445, 285.2455
213.0266, 284.7859
213.5087, 284.3501
213.9908, 284.3604
214.4730, 284.9327
214.9551, 285.6576
215.4372, 286.1102
215.9193, 286.2711
216.4014, 286.2979
216.8836, 286.3696
217.3657, 286.2352
217.8478, 285.6377
218.3299, 284.5125
218.8120, 283.1307
219.2941, 281.8426
219.7763, 280.6614
220.2584, 279.5327
220.7405, 278.2013
221.2226, 277.0515
221.7047, 276.4829
222.1868, 276.5789
222.6690, 276.9026
223.1511, 276.7184
223.6332, 275.6995
224.1153, 274.9092
224.5974, 274.8377
225.0795, 274.7597
225.5617, 274.0590
226.0438, 272.5938
226.5259, 270.7935
227.0080, 269.4256
227.4901, 268.8795
227.9722, 268.0762
228.4544, 266.7765
228.9365, 265.3717
229.4186, 264.2001
229.9007, 263.3481
230.3828, 262.6313
230.8649, 261.7209
231.3471, 260.2710
231.8292, 259.1984
232.3113, 258.5961
232.7934, 258.2762
233.2755, 258.1957
233.7576, 258.3097
234.2398, 258.4210
234.7219, 258.2164
235.2040, 257.6835
235.6861, 256.7528
236.1682, 254.6539
236.6503, 252.5730
237.1325, 251.8798
237.6146, 252.8791
238.0967, 254.3693
238.5788, 254.4859
239.0609, 252.2441
239.5430, 250.8939
240.0252, 251.1187
240.5073, 251.9991
240.9894, 252.6600
241.4715, 252.8949
241.9536, 252.9687
242.4357, 253.2332
242.9179, 253.7348
243.4000, 254.2291
243.8821, 254.8928
244.3642, 255.4460
244.8463, 255.4192
245.3284, 254.6875
245.8106, 253.9235
246.2927, 253.9278
246.7748, 254.7105
247.2569, 255.7641
247.7390, 257.4912
248.2211, 259.2529
248.7033, 260.0380
249.1854, 259.5729
249.6675, 259.1212
250.1496, 260.2830
250.6317, 262.7865
251.1138, 264.7215
251.5960, 265.5436
252.0781, 265.6575
252.5602, 265.4108
253.0423, 264.7450
253.5244, 264.2301
254.0065, 264.4769
254.4887, 265.2861
254.9708, 266.1894
255.4529, 267.1402
255.9350, 268.0938
256.4171, 268.9825
256.8992, 269.8016
257.3813, 270.5686
257.8635, 271.2195
258.3456, 271.8319
258.8277, 272.5628
259.3098, 273.5774
259.7919, 274.6547
260.2740, 275.4861
260.7562, 276.0546
261.2383, 276.4419
261.7204, 276.8060
262.2025, 276.9826
262.6846, 276.6757
263.1667, 275.6318
263.6489, 274.2718
264.1310, 273.1701
264.6131, 272.3686
265.0952, 271.6428
265.5773, 271.0892
266.0594, 270.4878
266.5416, 269.5211
267.0237, 267.9769
267.5058, 266.3891
267.9879, 265.7550
268.4700, 266.4637
268.9521, 266.3315
269.4343, 263.7655
269.9164, 260.4804
270.3985, 257.7637
270.8806, 255.9525
271.3627, 254.4219
271.8448, 252.2761
272.3270, 249.2959
272.8091, 246.7965
273.2912, 245.7192
273.7733, 244.8305
274.2554, 243.3482
274.7375, 241.1336
275.2197, 238.6422
275.7018, 236.3827
276.1839, 234.4279
276.6660, 232.2798
277.1481, 229.4371
277.6302, 226.7084
278.1124, 224.5443
278.5945, 222.9560
279.0766, 221.6855
279.5587, 220.6075
280.0408, 219.7777
280.5229, 218.6161
281.0051, 216.4224
281.4872, 214.4823
281.9693, 213.6701
282.4514, 213.7022
282.9335, 213.5287
283.4156, 212.1503
283.8978, 209.5364
284.3799, 207.1504
284.8620, 204.7356
285.3441, 202.8702
285.8262, 202.1315
286.3083, 202.1043
286.7905, 201.8717
287.2726, 200.6487
287.7547, 198.6031
288.2368, 197.4271
288.7189, 198.0371
289.2010, 198.4699
289.6832, 198.0390
290.1653, 197.1238
290.6474, 196.3194
291.1295, 195.9786
291.6116, 195.9894
292.0938, 195.8913
292.5759, 195.5039
293.0580, 195.2784
293.5401, 195.4118
294.0222, 195.6966
294.5043, 195.8604
294.9865, 195.7742
295.4686, 195.6133
295.9507, 195.8060
296.4328, 196.4725
296.9149, 197.3169
297.3970, 198.6416
297.8792, 199.9121
298.3613, 200.5126
298.8434, 200.3003
299.3255, 199.8428
299.8076, 200.0829
300.2897, 201.2428
300.7719, 202.6501
301.2540, 204.2116
301.7361, 206.0036
302.2182, 208.2354
302.7003, 210.8577
303.1824, 213.5141
303.6646, 215.7780
304.1467, 217.5412
304.6288, 219.2656
305.1109, 220.4947
305.5930, 222.0888
306.0751, 224.3377
306.5573, 227.3111
307.0394, 231.0687
307.5215, 235.8275
308.0036, 241.7296
308.4857, 246.9328
308.9678, 250.3852
309.4500, 254.1648
309.9321, 258.7000
310.4142, 264.0550
310.8963, 270.2931
311.3784, 277.6071
311.8605, 285.8145
312.3427, 293.3144
312.8248, 299.3925
313.3069, 305.6352
313.7890, 312.5245
314.2711, 319.6967
314.7532, 326.6706
315.2354, 333.1548
315.7175, 339.4261
316.1996, 346.2207
316.6817, 354.1116
317.1638, 361.6826
317.6459, 368.1763
318.1281, 374.6407
318.6102, 382.1265
319.0923, 390.9252
319.5744, 400.2950
320.0565, 408.7947
320.5386, 415.2422
321.0208, 423.6260
321.5029, 435.0793
321.9850, 447.4224
322.4671, 459.4043
322.9492, 470.8884
323.4313, 482.3908
323.9135, 494.5457
324.3956, 507.3221
324.8777, 520.8997
325.3598, 536.2668
325.8419, 551.5517
326.3240, 566.2004
326.8062, 580.2273
327.2883, 594.0715
327.7704, 608.2860
328.2525, 622.7536
328.7346, 635.9327
329.2167, 649.2486
329.6989, 659.3768
330.1810, 665.1136
330.6631, 667.3571
331.1452, 667.3028
331.6273, 665.5504
332.1094, 662.1047
332.5916, 656.8066
333.0737, 648.5361
333.5558, 640.2324
334.0379, 632.1027
334.5200, 624.3173
335.0021, 616.8720
335.4843, 609.7685
335.9664, 603.6116
336.4485, 599.6554
336.9306, 598.6733
337.4127, 597.5736
337.8948, 594.5315
338.3770, 592.4266
338.8591, 593.1879
339.3412, 596.8567
339.8233, 601.9743
340.3055, 606.9857
340.7876, 611.7001
341.2697, 618.0095
341.7518, 625.8925
342.2339, 635.5980
342.7160, 647.4503
343.1982, 661.2139
343.6803, 676.4004
344.1624, 692.7556
344.6445, 710.2560
345.1266, 728.9037
345.6087, 749.3728
346.0909, 769.9453
346.5730, 789.5057
347.0551, 809.0198
347.5372, 829.7997
348.0193, 852.8463
348.5014, 876.5544
348.9836, 898.0039
349.4657, 916.2127
349.9478, 935.1461
350.4299, 956.2635
350.9120, 978.2886
351.3941, 1000.293
351.8763, 1022.069
352.3584, 1044.129
352.8405, 1066.764
353.3226, 1090.061
353.8047, 1113.850
354.2868, 1136.872
354.7690, 1161.892
355.2511, 1189.986
355.7332, 1221.314
356.2153, 1255.769
356.6974, 1294.418
357.1795, 1336.350
357.6617, 1378.027
358.1438, 1418.759
358.6259, 1460.119
359.1080, 1503.779
359.5901, 1548.238
360.0722, 1591.718
360.5544, 1634.764
361.0365, 1675.080
361.5186, 1710.751
362.0007, 1741.842
362.4828, 1766.295
362.9649, 1784.055
363.4471, 1793.549
363.9292, 1794.099
364.4113, 1786.017
364.8934, 1766.786
365.3755, 1733.537
365.8576, 1687.073
366.3398, 1631.647
366.8219, 1567.194
367.3040, 1494.505
367.7861, 1412.755
368.2682, 1322.845
368.7503, 1232.530
369.2325, 1143.285
369.7146, 1055.569
370.1967, 969.5514
370.6788, 884.4972
371.1609, 804.2240
371.6430, 732.3082
372.1252, 667.9559
372.6073, 609.9387
373.0894, 559.4538
373.5715, 514.4308
374.0536, 473.8778
374.5357, 437.8624
375.0179, 405.9562
375.5000, 378.7217
375.9821, 355.4860
376.4642, 334.0786
376.9463, 314.2668
377.4284, 296.5678
377.9106, 281.8629
378.3927, 269.3214
378.8748, 257.5522
379.3569, 246.1857
379.8390, 235.5710
380.3211, 226.1730
380.8033, 218.1458
381.2854, 210.7192
381.7675, 204.1879
382.2496, 198.0432
382.7317, 191.6696
383.2138, 185.1463
383.6960, 179.2997
384.1781, 174.8391
384.6602, 171.6667
385.1423, 167.9901
385.6244, 162.9714
386.1065, 158.4670
386.5887, 155.5916
387.0708, 153.5679
387.5529, 150.9243
388.0350, 146.9823
388.5171, 142.4724
388.9992, 138.9955
389.4814, 137.4822
389.9635, 135.6531
390.4456, 132.8316
390.9277, 130.1430
391.4098, 128.9825
391.8919, 129.2547
392.3741, 129.2046
392.8562, 126.8147
393.3383, 121.5861
393.8204, 117.7942
394.3025, 116.1682
394.7846, 115.1027
395.2668, 114.4550
395.7489, 113.9251
396.2310, 113.0958
396.7131, 111.7138
397.1952, 109.8883
397.6773, 107.9539
398.1595, 105.6124
398.6416, 103.6729
399.1237, 102.2587
399.6058, 101.2159
400.0879, 100.5854
400.5700, 100.3091
401.0522, 99.96273
401.5343, 98.85242
402.0164, 96.75537
402.4985, 95.26389
402.9806, 95.02267
403.4627, 94.86346
403.9449, 94.28262
404.4270, 93.37270
404.9091, 92.45370
405.3912, 91.73504
405.8733, 91.14286
406.3554, 90.45447
406.8376, 89.64095
407.3197, 88.78730
407.8018, 87.55666
408.2839, 86.47096
408.7660, 86.33549
409.2481, 87.53110
409.7303, 88.63309
410.2124, 88.00262
410.6945, 85.75444
411.1766, 83.63728
411.6587, 81.87170
412.1408, 80.55096
412.6230, 79.81301
413.1051, 79.59535
413.5872, 79.47018
414.0693, 79.30543
414.5514, 79.10506
415.0335, 78.89996
415.5157, 78.70052
415.9978, 78.39266
416.4799, 77.83939
416.9620, 77.12617
417.4441, 76.53112
417.9262, 76.11912
418.4084, 75.75228
418.8905, 75.37373
419.3726, 74.98188
419.8547, 74.56493
420.3368, 74.11047
420.8189, 73.65794
421.3011, 73.28737
421.7832, 73.03146
422.2653, 72.71695
422.7474, 72.17919
423.2295, 71.67496
423.7116, 71.49791
424.1938, 71.62348
424.6759, 71.73450
425.1580, 71.58729
425.6401, 71.19268
426.1222, 70.74170
426.6043, 69.93835
427.0865, 69.42791
427.5686, 69.66273
428.0507, 70.19405
428.5328, 70.33931
429.0149, 69.84522
429.4970, 69.08889
429.9792, 68.75549
430.4613, 69.16502
430.9434, 69.29668
431.4255, 69.01002
431.9076, 68.62263
432.3897, 68.29067
432.8719, 68.02094
433.3540, 67.73719
433.8361, 67.34898
434.3182, 66.90270
434.8003, 66.76415
435.2824, 67.24826
435.7646, 67.55752
436.2467, 67.41098
436.7288, 67.05289
437.2109, 66.74104
437.6930, 66.55647
438.1751, 66.39590
438.6573, 66.12052
439.1394, 65.72147
439.6215, 65.33997
440.1036, 65.11160
440.5857, 64.76247
441.0678, 63.91399
441.5500, 62.74962
442.0321, 61.95405
442.5142, 62.05028
442.9963, 62.65962
443.4784, 63.12694
443.9605, 63.44344
444.4427, 63.69147
444.9248, 63.95390
445.4069, 64.13950
445.8890, 64.08268
446.3711, 63.69362
446.8532, 63.29527
447.3354, 63.10407
447.8175, 63.02835
448.2996, 62.84970
448.7817, 62.50698
449.2638, 62.14200
449.7459, 61.91365
450.2281, 61.83226
450.7102, 61.73627
451.1923, 61.72902
451.6744, 61.60858
452.1565, 61.08337
452.6386, 60.31642
453.1208, 59.83486
453.6029, 59.94413
454.0850, 60.40285
454.5671, 60.54041
455.0492, 59.94958
455.5313, 59.58501
456.0135, 59.61268
456.4956, 59.76609
456.9777, 59.81312
457.4598, 59.73881
457.9419, 59.71143
458.4240, 59.93052
458.9062, 60.40337
459.3883, 60.55952
459.8704, 59.88057
460.3525, 59.46863
460.8346, 59.89996
461.3167, 60.60799
461.7989, 60.80510
462.2810, 60.18419
462.7631, 59.25243
463.2452, 58.79745
463.7273, 58.89469
464.2094, 59.02271
464.6916, 59.15278
465.1737, 59.26484
465.6558, 59.37592
466.1379, 59.46529
466.6200, 59.46455
467.1021, 59.27303
467.5843, 58.99487
468.0664, 58.88924
468.5485, 58.99739
469.0306, 58.95657
469.5127, 58.41772
469.9948, 57.74766
470.4770, 57.53553
470.9591, 57.89502
471.4412, 58.35814
471.9233, 58.73253
472.4054, 59.04351
472.8875, 59.35872
473.3697, 59.69666
473.8518, 59.93666
474.3339, 59.94220
474.8160, 59.71148
475.2981, 59.54184
475.7802, 59.61903
476.2624, 59.56214
476.7445, 58.72588
477.2266, 57.70668
477.7087, 57.95522
478.1908, 60.07687
478.6729, 62.65428
479.1551, 63.00060
479.6372, 59.49486
480.1193, 57.55329
480.6014, 58.26279
481.0835, 59.33205
481.5656, 59.57286
482.0478, 59.06278
482.5299, 58.37022
483.0120, 57.83646
483.4941, 57.46703
483.9762, 57.33917
484.4583, 57.65190
484.9405, 57.79725
485.4226, 57.53595
485.9047, 57.15899
486.3868, 56.84859
486.8689, 56.64331
487.3510, 56.55433
487.8332, 56.68336
488.3153, 56.96095
488.7974, 57.04237
489.2795, 56.88371
489.7616, 56.60459
490.2437, 56.17865
490.7259, 55.70019
491.2080, 55.27208
491.6901, 54.79065
492.1722, 54.61190
492.6543, 55.38683
493.1364, 56.69140
493.6186, 57.20275
494.1007, 56.48922
494.5828, 55.32784
495.0649, 54.54242
495.5470, 54.16822
496.0291, 53.92826
496.5113, 53.67457
496.9934, 53.68145
497.4755, 54.37702
497.9576, 55.45893
498.4397, 56.23436
498.9218, 56.37037
499.4040, 55.99726
499.8861, 55.35067
500.3682, 53.96827
500.8503, 53.19815
501.3324, 53.54720
501.8145, 53.99867
502.2967, 53.77470
502.7788, 53.05659
503.2609, 52.66297
503.7430, 53.28768
504.2251, 54.52573
504.7072, 54.66198
505.1894, 53.00774
505.6715, 51.83440
506.1536, 52.13949
506.6357, 52.86435
507.1178, 53.16839
507.5999, 52.96070
508.0821, 52.79300
508.5642, 53.16519
509.0463, 53.88884
509.5284, 54.44848
510.0105, 54.83353
510.4926, 54.95967
510.9748, 54.65254
511.4569, 54.06979
511.9390, 53.58381
512.4211, 53.19697
512.9032, 52.94501
513.3853, 52.97836
513.8674, 53.12397
514.3495, 52.99269
514.8317, 52.49842
515.3138, 52.09871
515.7959, 52.31544
516.2780, 53.21360
516.7601, 53.74480
517.2422, 53.77639
517.7244, 53.65621
518.2065, 53.44769
518.6886, 53.17867
519.1707, 52.83842
519.6528, 52.43288
520.1349, 52.06441
520.6171, 51.93450
521.0992, 52.15232
521.5813, 52.16266
522.0634, 51.63401
522.5455, 51.22605
523.0276, 51.33831
523.5098, 51.72002
523.9919, 51.83083
524.4740, 51.33266
524.9561, 50.75264
525.4382, 50.99088
525.9203, 52.06474
526.4025, 52.90856
526.8846, 53.34580
527.3667, 53.36754
527.8488, 52.74007
528.3309, 51.59639
528.8130, 50.81754
529.2952, 50.94586
529.7773, 51.32957
530.2594, 51.25416
530.7415, 50.85537
531.2236, 50.88554
531.7057, 51.77027
532.1879, 52.98735
532.6700, 53.52222
533.1521, 53.04402
533.6342, 52.59275
534.1163, 52.16595
534.5984, 51.78906
535.0806, 51.47235
535.5627, 51.22033
536.0448, 51.06417
536.5269, 51.03844
537.0090, 51.06141
537.4911, 50.86353
537.9733, 50.29026
538.4554, 49.83241
538.9375, 49.52189
539.4196, 49.35736
539.9017, 49.40257
540.3839, 49.61383
540.8660, 49.83036
541.3481, 49.99044
541.8302, 50.06405
542.3123, 49.90591
542.7944, 49.46998
543.2766, 49.22380
543.7587, 49.46349
544.2408, 49.89925
544.7229, 50.08958
545.2050, 50.00542
545.6871, 49.95583
546.1693, 49.98719
546.6514, 50.14179
547.1335, 50.68752
547.6156, 51.50807
548.0977, 51.81271
548.5798, 51.00301
549.0620, 49.51537
549.5441, 48.82871
550.0262, 49.96673
550.5083, 50.55964
550.9904, 50.08147
551.4725, 49.44641
551.9547, 49.40839
552.4368, 49.90622
552.9189, 50.38630
553.4010, 50.44767
553.8831, 50.15764
554.3652, 49.70821
554.8474, 48.88749
555.3295, 48.45019
555.8116, 49.05069
556.2937, 49.78938
556.7758, 50.01278
557.2579, 49.69379
557.7401, 49.24744
558.2222, 48.72199
558.7043, 48.30105
559.1864, 48.30127
559.6685, 48.73214
560.1506, 49.56715
560.6328, 51.11774
561.1149, 52.75087
561.5970, 52.88208
562.0791, 51.01274
562.5612, 49.56853
563.0433, 49.26390
563.5255, 49.35565
564.0076, 49.27890
564.4897, 49.00379
564.9718, 48.69274
565.4539, 48.43435
565.9360, 48.26532
566.4182, 48.35902
566.9003, 49.14069
567.3824, 49.36641
567.8645, 48.27129
568.3466, 47.23615
568.8287, 47.34257
569.3109, 48.35495
569.7930, 49.17936
570.2751, 49.04395
570.7572, 48.39631
571.2393, 48.19915
571.7214, 48.49102
572.2036, 48.77910
572.6857, 48.97781
573.1678, 49.02639
573.6499, 48.80377
574.1320, 48.31950
574.6141, 47.89182
575.0963, 47.58059
575.5784, 47.38336
576.0605, 47.33138
576.5426, 47.39612
577.0247, 47.52732
577.5068, 47.71915
577.9890, 47.85028
578.4711, 47.65496
578.9532, 46.83733
579.4353, 46.46101
579.9174, 46.71991
580.3995, 47.16550
580.8817, 47.89678
581.3638, 48.59980
581.8459, 48.62846
582.3280, 47.61855
582.8101, 46.29439
583.2922, 45.94511
583.7744, 46.66002
584.2565, 47.04268
584.7386, 46.79683
585.2207, 46.34688
585.7029, 45.79214
586.1850, 45.27076
586.6671, 45.18830
587.1492, 45.92627
587.6313, 46.74490
588.1135, 47.17131
588.5956, 47.26340
