##NAMES=Pseudolaueite
##RRUFFID=R170035
##IDEAL CHEMISTRY=Mn^2+^Fe^3+^_2_(PO_4_)_2_(OH)_2_&#183;8H_2_O
##LOCALITY=Crooker Quarry, Newry, Maine, USA
##OWNER=RRUFF
##SOURCE=Van King
##DESCRIPTION=Pale yellow-orange prismatic to thick tabular pseudohexagonal crystals, associated with albite
##STATUS=The identification of this mineral has been confirmed only by single crystal X-ray diffraction.
##URL=rruff.info/R170035
8.813672e+001, 1.948529e+002
8.861884e+001, 1.958405e+002
8.910095e+001, 1.979637e+002
8.958307e+001, 2.018601e+002
9.006519e+001, 2.068576e+002
9.054730e+001, 2.123659e+002
9.102942e+001, 2.185950e+002
9.151154e+001, 2.246635e+002
9.199365e+001, 2.303032e+002
9.247577e+001, 2.353364e+002
9.295789e+001, 2.391599e+002
9.344000e+001, 2.405674e+002
9.392212e+001, 2.405064e+002
9.440424e+001, 2.417962e+002
9.488635e+001, 2.449386e+002
9.536847e+001, 2.488166e+002
9.585059e+001, 2.517237e+002
9.633270e+001, 2.537035e+002
9.681482e+001, 2.556938e+002
9.729694e+001, 2.580479e+002
9.777905e+001, 2.607724e+002
9.826117e+001, 2.640331e+002
9.874329e+001, 2.678813e+002
9.922540e+001, 2.721475e+002
9.970752e+001, 2.766270e+002
1.001896e+002, 2.813553e+002
1.006718e+002, 2.859297e+002
1.011539e+002, 2.899142e+002
1.016360e+002, 2.931399e+002
1.021181e+002, 2.966981e+002
1.026002e+002, 3.007835e+002
1.030823e+002, 3.053163e+002
1.035645e+002, 3.097065e+002
1.040466e+002, 3.139797e+002
1.045287e+002, 3.181602e+002
1.050108e+002, 3.223154e+002
1.054929e+002, 3.262995e+002
1.059750e+002, 3.305417e+002
1.064572e+002, 3.355132e+002
1.069393e+002, 3.415151e+002
1.074214e+002, 3.457804e+002
1.079035e+002, 3.482640e+002
1.083856e+002, 3.491798e+002
1.088677e+002, 3.487325e+002
1.093499e+002, 3.456176e+002
1.098320e+002, 3.424659e+002
1.103141e+002, 3.397072e+002
1.107962e+002, 3.371956e+002
1.112783e+002, 3.354381e+002
1.117604e+002, 3.348969e+002
1.122426e+002, 3.350278e+002
1.127247e+002, 3.350116e+002
1.132068e+002, 3.340430e+002
1.136889e+002, 3.334171e+002
1.141710e+002, 3.337191e+002
1.146531e+002, 3.354224e+002
1.151353e+002, 3.372585e+002
1.156174e+002, 3.390945e+002
1.160995e+002, 3.408409e+002
1.165816e+002, 3.423050e+002
1.170637e+002, 3.432364e+002
1.175458e+002, 3.439419e+002
1.180280e+002, 3.446436e+002
1.185101e+002, 3.454813e+002
1.189922e+002, 3.461886e+002
1.194743e+002, 3.462826e+002
1.199564e+002, 3.459699e+002
1.204385e+002, 3.461899e+002
1.209207e+002, 3.477983e+002
1.214028e+002, 3.501306e+002
1.218849e+002, 3.523988e+002
1.223670e+002, 3.537103e+002
1.228491e+002, 3.553715e+002
1.233312e+002, 3.593346e+002
1.238134e+002, 3.654503e+002
1.242955e+002, 3.707863e+002
1.247776e+002, 3.722379e+002
1.252597e+002, 3.711740e+002
1.257418e+002, 3.703734e+002
1.262239e+002, 3.709778e+002
1.267061e+002, 3.725471e+002
1.271882e+002, 3.743444e+002
1.276703e+002, 3.763674e+002
1.281524e+002, 3.787656e+002
1.286345e+002, 3.820956e+002
1.291166e+002, 3.861056e+002
1.295988e+002, 3.896789e+002
1.300809e+002, 3.920659e+002
1.305630e+002, 3.935556e+002
1.310451e+002, 3.951634e+002
1.315272e+002, 3.969622e+002
1.320093e+002, 3.987205e+002
1.324915e+002, 4.002092e+002
1.329736e+002, 4.014185e+002
1.334557e+002, 4.021856e+002
1.339378e+002, 4.021020e+002
1.344199e+002, 4.012329e+002
1.349020e+002, 4.008931e+002
1.353842e+002, 4.012417e+002
1.358663e+002, 4.020419e+002
1.363484e+002, 4.028520e+002
1.368305e+002, 4.036580e+002
1.373126e+002, 4.044445e+002
1.377947e+002, 4.050615e+002
1.382769e+002, 4.054035e+002
1.387590e+002, 4.063723e+002
1.392411e+002, 4.084312e+002
1.397232e+002, 4.110847e+002
1.402053e+002, 4.122248e+002
1.406874e+002, 4.114897e+002
1.411696e+002, 4.100317e+002
1.416517e+002, 4.085996e+002
1.421338e+002, 4.071595e+002
1.426159e+002, 4.058755e+002
1.430980e+002, 4.047619e+002
1.435801e+002, 4.038452e+002
1.440623e+002, 4.032184e+002
1.445444e+002, 4.031592e+002
1.450265e+002, 4.031290e+002
1.455086e+002, 4.026166e+002
1.459907e+002, 4.008208e+002
1.464728e+002, 3.998636e+002
1.469550e+002, 4.004580e+002
1.474371e+002, 4.027605e+002
1.479192e+002, 4.040197e+002
1.484013e+002, 4.036597e+002
1.488834e+002, 4.025958e+002
1.493655e+002, 4.016501e+002
1.498477e+002, 4.006880e+002
1.503298e+002, 3.999834e+002
1.508119e+002, 3.996418e+002
1.512940e+002, 3.997220e+002
1.517761e+002, 3.997933e+002
1.522583e+002, 3.998757e+002
1.527404e+002, 3.999286e+002
1.532225e+002, 3.999110e+002
1.537046e+002, 3.994615e+002
1.541867e+002, 3.992794e+002
1.546688e+002, 3.997407e+002
1.551510e+002, 4.011719e+002
1.556331e+002, 4.020423e+002
1.561152e+002, 4.016382e+002
1.565973e+002, 4.006534e+002
1.570794e+002, 4.000182e+002
1.575615e+002, 4.001213e+002
1.580437e+002, 4.004546e+002
1.585258e+002, 4.008097e+002
1.590079e+002, 4.011184e+002
1.594900e+002, 4.015975e+002
1.599721e+002, 4.024157e+002
1.604542e+002, 4.034365e+002
1.609364e+002, 4.044195e+002
1.614185e+002, 4.053084e+002
1.619006e+002, 4.061095e+002
1.623827e+002, 4.068401e+002
1.628648e+002, 4.075417e+002
1.633469e+002, 4.080603e+002
1.638291e+002, 4.081920e+002
1.643112e+002, 4.080711e+002
1.647933e+002, 4.080207e+002
1.652754e+002, 4.082225e+002
1.657575e+002, 4.085312e+002
1.662396e+002, 4.088048e+002
1.667218e+002, 4.088942e+002
1.672039e+002, 4.091854e+002
1.676860e+002, 4.099893e+002
1.681681e+002, 4.112112e+002
1.686502e+002, 4.125728e+002
1.691323e+002, 4.139855e+002
1.696145e+002, 4.154259e+002
1.700966e+002, 4.168796e+002
1.705787e+002, 4.184048e+002
1.710608e+002, 4.198503e+002
1.715429e+002, 4.210578e+002
1.720250e+002, 4.220651e+002
1.725072e+002, 4.229980e+002
1.729893e+002, 4.240634e+002
1.734714e+002, 4.250826e+002
1.739535e+002, 4.257799e+002
1.744356e+002, 4.259068e+002
1.749177e+002, 4.258817e+002
1.753999e+002, 4.262444e+002
1.758820e+002, 4.269396e+002
1.763641e+002, 4.275020e+002
1.768462e+002, 4.275392e+002
1.773283e+002, 4.272234e+002
1.778104e+002, 4.268441e+002
1.782926e+002, 4.263165e+002
1.787747e+002, 4.259305e+002
1.792568e+002, 4.261466e+002
1.797389e+002, 4.269518e+002
1.802210e+002, 4.280535e+002
1.807031e+002, 4.292358e+002
1.811853e+002, 4.305143e+002
1.816674e+002, 4.319120e+002
1.821495e+002, 4.334583e+002
1.826316e+002, 4.351063e+002
1.831137e+002, 4.367794e+002
1.835958e+002, 4.384922e+002
1.840780e+002, 4.400960e+002
1.845601e+002, 4.413310e+002
1.850422e+002, 4.422884e+002
1.855243e+002, 4.435009e+002
1.860064e+002, 4.453275e+002
1.864885e+002, 4.474501e+002
1.869707e+002, 4.490584e+002
1.874528e+002, 4.501657e+002
1.879349e+002, 4.507729e+002
1.884170e+002, 4.508351e+002
1.888991e+002, 4.503776e+002
1.893812e+002, 4.495697e+002
1.898634e+002, 4.483466e+002
1.903455e+002, 4.468211e+002
1.908276e+002, 4.454478e+002
1.913097e+002, 4.442601e+002
1.917918e+002, 4.429879e+002
1.922739e+002, 4.411389e+002
1.927561e+002, 4.387042e+002
1.932382e+002, 4.366208e+002
1.937203e+002, 4.352560e+002
1.942024e+002, 4.344972e+002
1.946845e+002, 4.337236e+002
1.951666e+002, 4.329287e+002
1.956488e+002, 4.321089e+002
1.961309e+002, 4.312469e+002
1.966130e+002, 4.303206e+002
1.970951e+002, 4.294194e+002
1.975772e+002, 4.285615e+002
1.980593e+002, 4.277467e+002
1.985415e+002, 4.269619e+002
1.990236e+002, 4.262111e+002
1.995057e+002, 4.255167e+002
1.999878e+002, 4.249151e+002
2.004699e+002, 4.244177e+002
2.009520e+002, 4.240509e+002
2.014342e+002, 4.239621e+002
2.019163e+002, 4.241446e+002
2.023984e+002, 4.238216e+002
2.028805e+002, 4.228536e+002
2.033626e+002, 4.216906e+002
2.038447e+002, 4.210458e+002
2.043269e+002, 4.210935e+002
2.048090e+002, 4.207999e+002
2.052911e+002, 4.196010e+002
2.057732e+002, 4.174480e+002
2.062553e+002, 4.161720e+002
2.067374e+002, 4.160060e+002
2.072196e+002, 4.163242e+002
2.077017e+002, 4.162524e+002
2.081838e+002, 4.156602e+002
2.086659e+002, 4.150805e+002
2.091480e+002, 4.146816e+002
2.096301e+002, 4.144632e+002
2.101123e+002, 4.143181e+002
2.105944e+002, 4.143304e+002
2.110765e+002, 4.142896e+002
2.115586e+002, 4.138115e+002
2.120407e+002, 4.126714e+002
2.125228e+002, 4.117169e+002
2.130050e+002, 4.112329e+002
2.134871e+002, 4.112534e+002
2.139692e+002, 4.114577e+002
2.144513e+002, 4.120234e+002
2.149334e+002, 4.125766e+002
2.154155e+002, 4.125375e+002
2.158977e+002, 4.116730e+002
2.163798e+002, 4.107806e+002
2.168619e+002, 4.100413e+002
2.173440e+002, 4.094283e+002
2.178261e+002, 4.092626e+002
2.183082e+002, 4.097324e+002
2.187904e+002, 4.104709e+002
2.192725e+002, 4.109508e+002
2.197546e+002, 4.110418e+002
2.202367e+002, 4.111765e+002
2.207188e+002, 4.115321e+002
2.212009e+002, 4.121846e+002
2.216831e+002, 4.125513e+002
2.221652e+002, 4.124196e+002
2.226473e+002, 4.122100e+002
2.231294e+002, 4.125343e+002
2.236115e+002, 4.136578e+002
2.240936e+002, 4.147948e+002
2.245758e+002, 4.157553e+002
2.250579e+002, 4.165177e+002
2.255400e+002, 4.172243e+002
2.260221e+002, 4.178732e+002
2.265042e+002, 4.184671e+002
2.269863e+002, 4.189975e+002
2.274685e+002, 4.194673e+002
2.279506e+002, 4.198631e+002
2.284327e+002, 4.201516e+002
2.289148e+002, 4.203066e+002
2.293969e+002, 4.205081e+002
2.298790e+002, 4.206723e+002
2.303612e+002, 4.209391e+002
2.308433e+002, 4.214995e+002
2.313254e+002, 4.225013e+002
2.318075e+002, 4.235329e+002
2.322896e+002, 4.245647e+002
2.327717e+002, 4.256313e+002
2.332539e+002, 4.262715e+002
2.337360e+002, 4.261293e+002
2.342181e+002, 4.258630e+002
2.347002e+002, 4.262792e+002
2.351823e+002, 4.278473e+002
2.356644e+002, 4.292682e+002
2.361466e+002, 4.302214e+002
2.366287e+002, 4.306661e+002
2.371108e+002, 4.311775e+002
2.375929e+002, 4.314793e+002
2.380750e+002, 4.321123e+002
2.385571e+002, 4.337476e+002
2.390393e+002, 4.370726e+002
2.395214e+002, 4.401445e+002
2.400035e+002, 4.424996e+002
2.404856e+002, 4.441133e+002
2.409677e+002, 4.458945e+002
2.414498e+002, 4.478362e+002
2.419320e+002, 4.499449e+002
2.424141e+002, 4.522652e+002
2.428962e+002, 4.548756e+002
2.433783e+002, 4.575320e+002
2.438604e+002, 4.602653e+002
2.443425e+002, 4.630648e+002
2.448247e+002, 4.654648e+002
2.453068e+002, 4.672762e+002
2.457889e+002, 4.688602e+002
2.462710e+002, 4.705489e+002
2.467531e+002, 4.724287e+002
2.472352e+002, 4.742353e+002
2.477174e+002, 4.760035e+002
2.481995e+002, 4.777050e+002
2.486816e+002, 4.790074e+002
2.491637e+002, 4.797550e+002
2.496458e+002, 4.803166e+002
2.501279e+002, 4.809398e+002
2.506101e+002, 4.815337e+002
2.510922e+002, 4.824672e+002
2.515743e+002, 4.839344e+002
2.520564e+002, 4.858580e+002
2.525385e+002, 4.874280e+002
2.530206e+002, 4.883218e+002
2.535028e+002, 4.893176e+002
2.539849e+002, 4.909344e+002
2.544670e+002, 4.933300e+002
2.549491e+002, 4.960409e+002
2.554312e+002, 4.993814e+002
2.559133e+002, 5.030248e+002
2.563955e+002, 5.052623e+002
2.568776e+002, 5.052430e+002
2.573597e+002, 5.050704e+002
2.578418e+002, 5.062831e+002
2.583239e+002, 5.099073e+002
2.588061e+002, 5.120765e+002
2.592882e+002, 5.121816e+002
2.597703e+002, 5.106840e+002
2.602524e+002, 5.093512e+002
2.607345e+002, 5.083631e+002
2.612166e+002, 5.072128e+002
2.616988e+002, 5.056648e+002
2.621809e+002, 5.038482e+002
2.626630e+002, 5.013391e+002
2.631451e+002, 4.980140e+002
2.636272e+002, 4.940700e+002
2.641093e+002, 4.900341e+002
2.645915e+002, 4.856994e+002
2.650736e+002, 4.816949e+002
2.655557e+002, 4.783184e+002
2.660378e+002, 4.757752e+002
2.665199e+002, 4.732892e+002
2.670020e+002, 4.708426e+002
2.674842e+002, 4.684740e+002
2.679663e+002, 4.663637e+002
2.684484e+002, 4.646189e+002
2.689305e+002, 4.628204e+002
2.694126e+002, 4.606783e+002
2.698947e+002, 4.579922e+002
2.703769e+002, 4.560225e+002
2.708590e+002, 4.549605e+002
2.713411e+002, 4.543262e+002
2.718232e+002, 4.533353e+002
2.723053e+002, 4.518928e+002
2.727874e+002, 4.504182e+002
2.732696e+002, 4.490779e+002
2.737517e+002, 4.478818e+002
2.742338e+002, 4.464975e+002
2.747159e+002, 4.449134e+002
2.751980e+002, 4.431428e+002
2.756801e+002, 4.411672e+002
2.761623e+002, 4.389396e+002
2.766444e+002, 4.368244e+002
2.771265e+002, 4.350635e+002
2.776086e+002, 4.335933e+002
2.780907e+002, 4.316300e+002
2.785728e+002, 4.290783e+002
2.790550e+002, 4.263137e+002
2.795371e+002, 4.237055e+002
2.800192e+002, 4.212601e+002
2.805013e+002, 4.189639e+002
2.809834e+002, 4.167813e+002
2.814655e+002, 4.147494e+002
2.819477e+002, 4.131063e+002
2.824298e+002, 4.119212e+002
2.829119e+002, 4.108682e+002
2.833940e+002, 4.094305e+002
2.838761e+002, 4.076223e+002
2.843582e+002, 4.067099e+002
2.848404e+002, 4.074800e+002
2.853225e+002, 4.090298e+002
2.858046e+002, 4.082448e+002
2.862867e+002, 4.049343e+002
2.867688e+002, 4.013590e+002
2.872509e+002, 3.993368e+002
2.877331e+002, 3.987240e+002
2.882152e+002, 3.982852e+002
2.886973e+002, 3.978730e+002
2.891794e+002, 3.974553e+002
2.896615e+002, 3.970224e+002
2.901436e+002, 3.965690e+002
2.906258e+002, 3.959547e+002
2.911079e+002, 3.950125e+002
2.915900e+002, 3.938089e+002
2.920721e+002, 3.925101e+002
2.925542e+002, 3.910040e+002
2.930363e+002, 3.897645e+002
2.935185e+002, 3.898562e+002
2.940006e+002, 3.911362e+002
2.944827e+002, 3.922361e+002
2.949648e+002, 3.922321e+002
2.954469e+002, 3.914806e+002
2.959290e+002, 3.909328e+002
2.964112e+002, 3.906705e+002
2.968933e+002, 3.905133e+002
2.973754e+002, 3.902781e+002
2.978575e+002, 3.899723e+002
2.983396e+002, 3.896172e+002
2.988217e+002, 3.892622e+002
2.993039e+002, 3.888526e+002
2.997860e+002, 3.882141e+002
3.002681e+002, 3.873152e+002
3.007502e+002, 3.865060e+002
3.012323e+002, 3.862218e+002
3.017144e+002, 3.863003e+002
3.021966e+002, 3.863646e+002
3.026787e+002, 3.863105e+002
3.031608e+002, 3.861421e+002
3.036429e+002, 3.857875e+002
3.041250e+002, 3.852624e+002
3.046071e+002, 3.848006e+002
3.050893e+002, 3.846142e+002
3.055714e+002, 3.846080e+002
3.060535e+002, 3.846443e+002
3.065356e+002, 3.847471e+002
3.070177e+002, 3.848020e+002
3.074998e+002, 3.846286e+002
3.079820e+002, 3.842746e+002
3.084641e+002, 3.840045e+002
3.089462e+002, 3.840445e+002
3.094283e+002, 3.842305e+002
3.099104e+002, 3.843894e+002
3.103925e+002, 3.844835e+002
3.108747e+002, 3.845338e+002
3.113568e+002, 3.844203e+002
3.118389e+002, 3.842521e+002
3.123210e+002, 3.843330e+002
3.128031e+002, 3.850514e+002
3.132852e+002, 3.859391e+002
3.137674e+002, 3.866378e+002
3.142495e+002, 3.870439e+002
3.147316e+002, 3.873851e+002
3.152137e+002, 3.877711e+002
3.156958e+002, 3.881641e+002
3.161779e+002, 3.884981e+002
3.166601e+002, 3.887508e+002
3.171422e+002, 3.889374e+002
3.176243e+002, 3.889164e+002
3.181064e+002, 3.885765e+002
3.185885e+002, 3.887310e+002
3.190706e+002, 3.902541e+002
3.195528e+002, 3.922191e+002
3.200349e+002, 3.935722e+002
3.205170e+002, 3.932487e+002
3.209991e+002, 3.930268e+002
3.214812e+002, 3.935254e+002
3.219633e+002, 3.947735e+002
3.224455e+002, 3.960919e+002
3.229276e+002, 3.974538e+002
3.234097e+002, 3.987746e+002
3.238918e+002, 3.999904e+002
3.243739e+002, 4.007336e+002
3.248560e+002, 4.017616e+002
3.253382e+002, 4.034841e+002
3.258203e+002, 4.057419e+002
3.263024e+002, 4.074249e+002
3.267845e+002, 4.076839e+002
3.272666e+002, 4.079269e+002
3.277487e+002, 4.088511e+002
3.282309e+002, 4.113417e+002
3.287130e+002, 4.132916e+002
3.291951e+002, 4.143709e+002
3.296772e+002, 4.149186e+002
3.301593e+002, 4.157999e+002
3.306414e+002, 4.173369e+002
3.311236e+002, 4.188255e+002
3.316057e+002, 4.199521e+002
3.320878e+002, 4.204015e+002
3.325699e+002, 4.215218e+002
3.330520e+002, 4.238515e+002
3.335341e+002, 4.265013e+002
3.340163e+002, 4.281248e+002
3.344984e+002, 4.282537e+002
3.349805e+002, 4.282387e+002
3.354626e+002, 4.283297e+002
3.359447e+002, 4.285202e+002
3.364268e+002, 4.292612e+002
3.369090e+002, 4.309863e+002
3.373911e+002, 4.326146e+002
3.378732e+002, 4.329233e+002
3.383553e+002, 4.315490e+002
3.388374e+002, 4.303097e+002
3.393195e+002, 4.294468e+002
3.398017e+002, 4.289644e+002
3.402838e+002, 4.289630e+002
3.407659e+002, 4.295556e+002
3.412480e+002, 4.301972e+002
3.417301e+002, 4.305250e+002
3.422122e+002, 4.305241e+002
3.426944e+002, 4.303899e+002
3.431765e+002, 4.301784e+002
3.436586e+002, 4.297832e+002
3.441407e+002, 4.289398e+002
3.446228e+002, 4.276483e+002
3.451049e+002, 4.262071e+002
3.455871e+002, 4.246485e+002
3.460692e+002, 4.230357e+002
3.465513e+002, 4.219278e+002
3.470334e+002, 4.214426e+002
3.475155e+002, 4.210397e+002
3.479977e+002, 4.199663e+002
3.484798e+002, 4.183344e+002
3.489619e+002, 4.167594e+002
3.494440e+002, 4.156605e+002
3.499261e+002, 4.147281e+002
3.504082e+002, 4.132044e+002
3.508904e+002, 4.110866e+002
3.513725e+002, 4.090316e+002
3.518546e+002, 4.076285e+002
3.523367e+002, 4.066794e+002
3.528188e+002, 4.058102e+002
3.533009e+002, 4.051345e+002
3.537831e+002, 4.042020e+002
3.542652e+002, 4.020965e+002
3.547473e+002, 3.991160e+002
3.552294e+002, 3.966390e+002
3.557115e+002, 3.961826e+002
3.561936e+002, 3.963997e+002
3.566758e+002, 3.957793e+002
3.571579e+002, 3.938517e+002
3.576400e+002, 3.916544e+002
3.581221e+002, 3.896915e+002
3.586042e+002, 3.880061e+002
3.590863e+002, 3.866323e+002
3.595685e+002, 3.859396e+002
3.600506e+002, 3.853166e+002
3.605327e+002, 3.843400e+002
3.610148e+002, 3.829371e+002
3.614969e+002, 3.815677e+002
3.619790e+002, 3.804210e+002
3.624612e+002, 3.794064e+002
3.629433e+002, 3.784099e+002
3.634254e+002, 3.771357e+002
3.639075e+002, 3.761224e+002
3.643896e+002, 3.756109e+002
3.648717e+002, 3.755600e+002
3.653539e+002, 3.755382e+002
3.658360e+002, 3.755570e+002
3.663181e+002, 3.754938e+002
3.668002e+002, 3.752725e+002
3.672823e+002, 3.747459e+002
3.677644e+002, 3.742260e+002
3.682466e+002, 3.737904e+002
3.687287e+002, 3.733750e+002
3.692108e+002, 3.728115e+002
3.696929e+002, 3.719243e+002
3.701750e+002, 3.710731e+002
3.706571e+002, 3.704641e+002
3.711393e+002, 3.703244e+002
3.716214e+002, 3.696463e+002
3.721035e+002, 3.681863e+002
3.725856e+002, 3.663698e+002
3.730677e+002, 3.647064e+002
3.735498e+002, 3.630643e+002
3.740320e+002, 3.618720e+002
3.745141e+002, 3.613926e+002
3.749962e+002, 3.615672e+002
3.754783e+002, 3.613558e+002
3.759604e+002, 3.606168e+002
3.764425e+002, 3.598248e+002
3.769247e+002, 3.594203e+002
3.774068e+002, 3.594793e+002
3.778889e+002, 3.593859e+002
3.783710e+002, 3.590584e+002
3.788531e+002, 3.585419e+002
3.793352e+002, 3.578365e+002
3.798174e+002, 3.569168e+002
3.802995e+002, 3.561541e+002
3.807816e+002, 3.558238e+002
3.812637e+002, 3.558610e+002
3.817458e+002, 3.559163e+002
3.822279e+002, 3.559916e+002
3.827101e+002, 3.559806e+002
3.831922e+002, 3.556943e+002
3.836743e+002, 3.551772e+002
3.841564e+002, 3.546599e+002
3.846385e+002, 3.540656e+002
3.851206e+002, 3.535999e+002
3.856028e+002, 3.538253e+002
3.860849e+002, 3.547020e+002
3.865670e+002, 3.554531e+002
3.870491e+002, 3.552185e+002
3.875312e+002, 3.545164e+002
3.880133e+002, 3.542065e+002
3.884955e+002, 3.546030e+002
3.889776e+002, 3.552710e+002
3.894597e+002, 3.560051e+002
3.899418e+002, 3.567315e+002
3.904239e+002, 3.572324e+002
3.909060e+002, 3.571030e+002
3.913882e+002, 3.568925e+002
3.918703e+002, 3.569672e+002
3.923524e+002, 3.573515e+002
3.928345e+002, 3.581346e+002
3.933166e+002, 3.597763e+002
3.937987e+002, 3.617222e+002
3.942809e+002, 3.632500e+002
3.947630e+002, 3.638537e+002
3.952451e+002, 3.643007e+002
3.957272e+002, 3.646681e+002
3.962093e+002, 3.649932e+002
3.966914e+002, 3.657740e+002
3.971736e+002, 3.678773e+002
3.976557e+002, 3.699612e+002
3.981378e+002, 3.712065e+002
3.986199e+002, 3.704991e+002
3.991020e+002, 3.702374e+002
3.995841e+002, 3.707635e+002
4.000663e+002, 3.717667e+002
4.005484e+002, 3.724998e+002
4.010305e+002, 3.727448e+002
4.015126e+002, 3.729927e+002
4.019947e+002, 3.734334e+002
4.024768e+002, 3.741281e+002
4.029590e+002, 3.746694e+002
4.034411e+002, 3.750605e+002
4.039232e+002, 3.752976e+002
4.044053e+002, 3.753632e+002
4.048874e+002, 3.752326e+002
4.053695e+002, 3.750287e+002
4.058517e+002, 3.747849e+002
4.063338e+002, 3.744904e+002
4.068159e+002, 3.741107e+002
4.072980e+002, 3.736730e+002
4.077801e+002, 3.730278e+002
4.082622e+002, 3.719351e+002
4.087444e+002, 3.704390e+002
4.092265e+002, 3.692357e+002
4.097086e+002, 3.684009e+002
4.101907e+002, 3.678249e+002
4.106728e+002, 3.675089e+002
4.111549e+002, 3.673777e+002
4.116371e+002, 3.669655e+002
4.121192e+002, 3.657253e+002
4.126013e+002, 3.641349e+002
4.130834e+002, 3.632778e+002
