##NAMES=Pseudobrookite
##RRUFFID=R050563
##IDEAL CHEMISTRY=(Fe^3+^_2_Ti^4+^)O_5_
##LOCALITY=Thomas Range, Juab County, Utah, USA
##OWNER=RRUFF
##SOURCE=Dave Bunk Minerals
##DESCRIPTION=Black elongated prismatic crystals
##STATUS=The identification of this mineral is confirmed by single-crystal X-ray diffraction and chemical analysis.
##URL=rruff.info/R050563
##MEASURED CHEMISTRY=(Fe^3+^_1.85_Mn^3+^_0.12_Al_0.03_)_Î£=2_Ti_1.00_O_5_
91.11523, 41.77891
91.59735, 42.15098
92.07947, 41.86470
92.56158, 41.10672
93.04370, 40.46347
93.52582, 40.58894
94.00793, 41.04715
94.49006, 40.80612
94.97218, 39.61849
95.45429, 38.02915
95.93641, 36.82888
96.41853, 36.01159
96.90064, 35.32280
97.38276, 34.47957
97.86488, 33.53154
98.34699, 32.99983
98.82911, 32.95697
99.31123, 33.39217
99.79334, 34.64281
100.2755, 37.05968
100.7576, 39.03655
101.2397, 38.77858
101.7218, 35.72662
102.2039, 33.09886
102.6861, 31.63397
103.1682, 31.30913
103.6503, 30.97783
104.1324, 30.58189
104.6145, 30.24018
105.0966, 30.08529
105.5788, 30.12695
106.0609, 30.35604
106.5430, 30.91430
107.0251, 32.12280
107.5072, 32.49829
107.9893, 31.48664
108.4715, 29.77915
108.9536, 28.60399
109.4357, 27.68138
109.9178, 27.53839
110.3999, 28.48138
110.8820, 31.85192
111.3642, 34.08742
111.8463, 34.29112
112.3284, 33.18186
112.8105, 32.76052
113.2926, 34.17120
113.7747, 35.72543
114.2569, 36.55851
114.7390, 36.02681
115.2211, 35.36158
115.7032, 34.85415
116.1853, 34.45469
116.6674, 33.91270
117.1496, 31.77886
117.6317, 30.08946
118.1138, 30.52534
118.5959, 36.10973
119.0780, 41.78242
119.5602, 44.67735
120.0423, 44.95826
120.5244, 45.64302
121.0065, 49.29012
121.4886, 54.17704
121.9707, 58.04660
122.4529, 58.79042
122.9350, 58.79895
123.4171, 59.89840
123.8992, 62.17832
124.3813, 65.40166
124.8634, 70.55576
125.3456, 76.61385
125.8277, 81.26147
126.3098, 81.87296
126.7919, 80.76161
127.2740, 81.40723
127.7561, 84.29086
128.2383, 88.11269
128.7204, 91.31587
129.2025, 94.06225
129.6846, 97.20157
130.1667, 101.9800
130.6488, 107.6018
131.1310, 111.6679
131.6131, 113.4519
132.0952, 114.3678
132.5773, 116.9089
133.0594, 121.1097
133.5415, 125.9565
134.0237, 130.9801
134.5058, 136.1838
134.9879, 141.1236
135.4700, 145.4645
135.9521, 149.6856
136.4343, 155.8776
136.9164, 164.5566
137.3985, 173.1775
137.8806, 179.7874
138.3627, 184.2990
138.8448, 187.5954
139.3270, 189.9045
139.8091, 191.2024
140.2912, 190.7452
140.7733, 187.4330
141.2554, 184.2954
141.7375, 184.7395
142.2197, 190.0082
142.7018, 195.6050
143.1839, 200.7600
143.6660, 205.4854
144.1481, 209.2792
144.6302, 211.7648
145.1124, 213.6058
145.5945, 215.5113
146.0766, 217.2370
146.5587, 219.4396
147.0408, 222.3432
147.5230, 226.0763
148.0051, 229.9266
148.4872, 233.0745
148.9693, 234.8783
149.4514, 236.2492
149.9335, 236.4117
150.4157, 236.9875
150.8978, 238.5247
151.3799, 241.8514
151.8620, 244.4344
152.3441, 245.4387
152.8262, 245.8118
153.3084, 247.3180
153.7905, 252.3499
154.2726, 256.5940
154.7547, 258.4131
155.2368, 255.9279
155.7189, 253.9646
156.2011, 253.2145
156.6832, 253.3599
157.1653, 253.6640
157.6474, 254.6352
158.1295, 255.2624
158.6116, 254.9327
159.0938, 252.1891
159.5759, 250.3691
160.0580, 250.6721
160.5401, 252.6322
161.0222, 254.6897
161.5044, 256.4059
161.9865, 257.9942
162.4686, 259.6261
162.9507, 261.9324
163.4328, 263.6313
163.9149, 263.8430
164.3971, 262.8611
164.8792, 262.1171
165.3613, 262.8703
165.8434, 263.9119
166.3255, 264.1288
166.8076, 262.2264
167.2898, 260.2449
167.7719, 258.6794
168.2540, 257.6645
168.7361, 258.4937
169.2182, 264.0972
169.7003, 271.3387
170.1825, 276.4696
170.6646, 276.8358
171.1467, 275.4643
171.6288, 274.3872
172.1109, 273.6195
172.5931, 273.2932
173.0752, 273.5739
173.5573, 274.3441
174.0394, 275.4227
174.5215, 276.7291
175.0036, 278.2980
175.4858, 280.0517
175.9679, 281.9940
176.4500, 284.4073
176.9321, 288.3380
177.4142, 293.0080
177.8963, 296.5750
178.3785, 297.1592
178.8606, 296.5657
179.3427, 297.6229
179.8248, 300.4579
180.3069, 304.0335
180.7890, 307.1149
181.2712, 309.9908
181.7533, 313.5706
182.2354, 319.0964
182.7175, 325.5144
183.1996, 330.0816
183.6818, 332.5112
184.1639, 334.5680
184.6460, 339.0744
185.1281, 345.4323
185.6102, 350.7150
186.0923, 352.5581
186.5745, 352.0923
187.0566, 352.8329
187.5387, 355.0296
188.0208, 358.0823
188.5029, 361.1113
188.9850, 364.1782
189.4672, 368.1155
189.9493, 373.9103
190.4314, 381.1205
190.9135, 387.7205
191.3956, 393.5508
191.8777, 398.8407
192.3599, 404.1077
192.8420, 409.3307
193.3241, 414.3558
193.8062, 419.1168
194.2883, 423.6452
194.7704, 427.6800
195.2526, 430.9743
195.7347, 434.1898
196.2168, 439.0450
196.6989, 445.7370
197.1810, 451.5815
197.6632, 455.0884
198.1453, 456.2878
198.6274, 456.3844
199.1095, 455.3045
199.5916, 453.3362
200.0737, 451.0909
200.5559, 448.5905
201.0380, 445.6657
201.5201, 442.1552
202.0022, 437.9985
202.4843, 433.7680
202.9664, 429.4546
203.4486, 425.1442
203.9307, 420.9994
204.4128, 417.0620
204.8949, 413.2980
205.3770, 409.6069
205.8591, 405.9152
206.3413, 402.7674
206.8234, 400.1022
207.3055, 398.0472
207.7876, 397.0801
208.2697, 397.4531
208.7519, 398.1471
209.2340, 398.5640
209.7161, 398.5571
210.1982, 398.9997
210.6803, 400.0135
211.1624, 401.4580
211.6446, 403.0623
212.1267, 405.0026
212.6088, 406.6541
213.0909, 407.3257
213.5730, 406.3010
214.0551, 407.1874
214.5373, 410.6438
215.0194, 415.9205
215.5015, 421.0186
215.9836, 425.9180
216.4657, 430.7404
216.9478, 435.6655
217.4300, 440.7904
217.9121, 445.6976
218.3942, 450.2261
218.8763, 454.5277
219.3584, 458.9835
219.8405, 463.5011
220.3227, 468.2611
220.8048, 473.7573
221.2869, 481.2611
221.7690, 485.7721
222.2511, 486.0987
222.7333, 483.6046
223.2154, 482.5394
223.6975, 484.4454
224.1796, 485.1677
224.6617, 482.6611
225.1438, 476.3057
225.6260, 468.3647
226.1081, 458.4985
226.5902, 447.2118
227.0723, 436.2520
227.5544, 425.7366
228.0365, 415.1739
228.5187, 404.1553
229.0008, 391.9881
229.4829, 381.1972
229.9650, 372.4810
230.4471, 364.8826
230.9292, 355.6461
231.4114, 343.4407
231.8935, 331.4019
232.3756, 320.9917
232.8577, 312.2948
233.3398, 304.6298
233.8220, 298.1908
234.3041, 292.6965
234.7862, 287.6832
235.2683, 283.4008
235.7504, 279.2411
236.2325, 274.9218
236.7147, 270.5313
237.1968, 265.8495
237.6789, 260.2278
238.1610, 254.5831
238.6431, 251.0695
239.1252, 250.7063
239.6074, 250.8679
240.0895, 250.7473
240.5716, 250.7117
241.0537, 249.1626
241.5358, 244.8302
242.0179, 239.5921
242.5001, 237.4051
242.9822, 240.2834
243.4643, 242.9294
243.9464, 243.3701
244.4285, 240.8516
244.9106, 238.5117
245.3928, 236.1803
245.8749, 234.0988
246.3570, 232.6577
246.8391, 231.7703
247.3212, 231.6756
247.8034, 232.6141
248.2855, 234.9115
248.7676, 237.0059
249.2497, 239.4253
249.7318, 241.2854
250.2139, 240.9965
250.6961, 237.1809
251.1782, 233.7350
251.6603, 231.7896
252.1424, 231.5479
252.6245, 231.6506
253.1066, 232.2616
253.5888, 233.0750
254.0709, 233.6925
254.5530, 234.0170
255.0351, 234.3476
255.5172, 234.7838
255.9993, 235.3495
256.4815, 235.7889
256.9636, 236.1437
257.4457, 236.3195
257.9278, 236.1796
258.4099, 235.6031
258.8921, 234.9723
259.3742, 234.3069
259.8563, 233.6074
260.3384, 233.0821
260.8205, 232.4274
261.3026, 232.3579
261.7848, 233.9419
262.2669, 238.1531
262.7490, 241.2708
263.2311, 242.3897
263.7132, 241.6217
264.1953, 240.3595
264.6775, 238.0705
265.1596, 236.1674
265.6417, 236.1418
266.1238, 238.6544
266.6059, 240.7533
267.0880, 241.9303
267.5702, 242.2733
268.0523, 242.2001
268.5344, 241.4824
269.0165, 240.8186
269.4986, 240.7261
269.9807, 241.2673
270.4629, 242.1087
270.9450, 243.2131
271.4271, 244.5877
271.9092, 246.5011
272.3913, 249.4006
272.8734, 251.5676
273.3556, 251.2456
273.8377, 247.8248
274.3198, 246.2766
274.8019, 247.5995
275.2840, 250.6780
275.7661, 252.4879
276.2483, 252.8711
276.7304, 252.6391
277.2125, 251.9065
277.6946, 250.5669
278.1768, 250.4160
278.6589, 251.9460
279.1410, 254.2084
279.6231, 254.9101
280.1052, 253.7307
280.5873, 253.2227
281.0695, 255.2138
281.5516, 259.6647
282.0337, 262.9802
282.5158, 265.0464
282.9979, 266.0152
283.4800, 265.6800
283.9622, 263.9599
284.4443, 262.6193
284.9264, 262.6527
285.4085, 263.8810
285.8906, 264.6674
286.3727, 264.9123
286.8549, 265.0600
287.3370, 265.7133
287.8191, 266.8498
288.3012, 268.0446
288.7833, 269.1594
289.2654, 270.2006
289.7476, 271.3653
290.2297, 272.7226
290.7118, 273.6872
291.1939, 272.8615
291.6760, 270.7220
292.1581, 270.2680
292.6403, 273.3875
293.1224, 278.2360
293.6045, 280.3963
294.0866, 279.8393
294.5687, 278.6288
295.0508, 278.2666
295.5330, 278.6582
296.0151, 279.5800
296.4972, 281.3183
296.9793, 283.1700
297.4614, 283.4526
297.9435, 282.3904
298.4257, 281.8286
298.9078, 283.8383
299.3899, 287.2757
299.8720, 289.4546
300.3541, 289.5028
300.8362, 289.0820
301.3184, 290.5938
301.8005, 293.5788
302.2826, 296.0812
302.7647, 296.5499
303.2469, 295.9467
303.7290, 295.5977
304.2111, 295.6353
304.6932, 296.0776
305.1753, 296.8931
305.6574, 298.1196
306.1396, 299.8212
306.6217, 302.3839
307.1038, 305.2718
307.5859, 308.1709
308.0680, 311.1524
308.5501, 313.3689
309.0323, 313.0882
309.5144, 311.7910
309.9965, 311.8304
310.4786, 316.0982
310.9607, 320.6938
311.4428, 322.3495
311.9250, 321.1037
312.4071, 319.8371
312.8892, 319.6823
313.3713, 320.6187
313.8534, 322.6581
314.3355, 327.4320
314.8177, 331.8080
315.2998, 333.7407
315.7819, 333.6600
316.2640, 333.9149
316.7461, 335.7855
317.2282, 338.2549
317.7104, 340.5490
318.1925, 342.1992
318.6746, 344.0910
319.1567, 347.0153
319.6388, 350.4781
320.1209, 353.0812
320.6031, 353.6949
321.0852, 351.0182
321.5673, 355.6917
322.0494, 359.0040
322.5315, 361.0280
323.0136, 357.9059
323.4958, 361.4293
323.9779, 362.2894
324.4600, 363.0401
324.9421, 367.4987
325.4242, 365.1249
325.9064, 369.5250
326.3885, 372.3620
326.8706, 372.5406
327.3527, 371.9179
327.8348, 372.4816
328.3170, 375.7056
328.7991, 378.6133
329.2812, 380.5416
329.7633, 381.4606
330.2454, 382.8461
330.7275, 384.9757
331.2097, 387.3158
331.6918, 389.5343
332.1739, 391.9873
332.6560, 393.7050
333.1381, 394.3737
333.6202, 391.6714
334.1024, 395.0344
334.5845, 397.0360
335.0666, 397.7495
335.5487, 393.3167
336.0308, 395.5292
336.5129, 395.0786
336.9951, 394.5189
337.4772, 397.6667
337.9593, 393.9825
338.4414, 397.0715
338.9235, 397.4568
339.4056, 399.0796
339.8878, 395.7945
340.3699, 395.1235
340.8520, 395.5261
341.3341, 396.0776
341.8162, 395.2911
342.2983, 392.9935
342.7805, 391.2735
343.2626, 390.9713
343.7447, 391.7832
344.2268, 392.2229
344.7089, 392.2801
345.1910, 391.9839
345.6732, 391.2968
346.1553, 390.2361
346.6374, 388.9774
347.1195, 387.3427
347.6016, 385.7632
348.0837, 385.5617
348.5659, 386.6304
349.0480, 387.1212
349.5301, 385.4691
350.0122, 382.2885
350.4944, 379.0341
350.9765, 375.7880
351.4586, 372.8890
351.9407, 371.2020
352.4228, 370.3566
352.9049, 369.1159
353.3871, 366.3910
353.8692, 363.1051
354.3513, 360.3370
354.8334, 358.1317
355.3155, 356.5474
355.7976, 356.1711
356.2798, 356.3364
356.7619, 355.9688
357.2440, 354.2116
357.7261, 352.1136
358.2082, 350.1965
358.6903, 348.5029
359.1725, 347.3527
359.6546, 347.6669
360.1367, 348.2221
360.6188, 347.9499
361.1009, 346.5087
361.5830, 344.3425
362.0652, 340.9794
362.5473, 336.9904
363.0294, 333.7812
363.5115, 332.2006
363.9936, 331.2289
364.4757, 330.4840
364.9579, 330.0610
365.4400, 329.3905
365.9221, 328.2817
366.4042, 326.8903
366.8863, 325.4125
367.3684, 324.2894
367.8506, 322.6738
368.3327, 319.8311
368.8148, 315.5590
369.2969, 312.9421
369.7790, 313.5870
370.2611, 314.7490
370.7433, 314.4971
371.2254, 311.7969
371.7075, 309.3019
372.1896, 307.1572
372.6717, 305.3518
373.1538, 303.9024
373.6360, 302.8857
374.1181, 302.0929
374.6002, 301.5500
375.0823, 301.4947
375.5645, 300.7148
376.0466, 298.8701
376.5287, 296.6896
377.0108, 295.5980
377.4929, 295.9469
377.9750, 295.7688
378.4572, 294.1604
378.9393, 291.3217
379.4214, 289.1694
379.9035, 287.7695
380.3856, 286.8623
380.8677, 286.3050
381.3499, 286.0800
381.8320, 286.0153
382.3141, 286.2260
382.7962, 286.4005
383.2783, 285.5394
383.7604, 283.7283
384.2426, 282.3674
384.7247, 282.8571
385.2068, 284.4316
385.6889, 285.4174
386.1710, 285.6390
386.6531, 285.1544
387.1353, 283.4960
387.6174, 281.1239
388.0995, 279.2216
388.5816, 278.9696
389.0637, 279.0774
389.5458, 277.9552
390.0280, 275.6093
390.5101, 273.5747
390.9922, 272.9002
391.4743, 273.0763
391.9564, 273.6133
392.4385, 275.2460
392.9207, 276.1176
393.4028, 274.4455
393.8849, 271.0997
394.3670, 268.6817
394.8491, 269.2719
395.3312, 270.2849
395.8134, 270.1593
396.2955, 268.1602
396.7776, 266.5173
397.2597, 265.5211
397.7418, 265.2141
398.2239, 265.6591
398.7061, 267.9471
399.1882, 269.8913
399.6703, 270.9898
400.1524, 271.2239
400.6346, 271.1043
401.1167, 270.5273
401.5988, 269.6919
402.0809, 268.7307
402.5630, 267.6809
403.0451, 266.3389
403.5273, 264.2166
404.0094, 261.9357
404.4915, 261.6320
404.9736, 264.3184
405.4557, 266.5047
405.9378, 266.2935
406.4200, 263.3636
406.9021, 261.9618
407.3842, 262.5056
407.8663, 263.6360
408.3484, 263.4598
408.8305, 261.9472
409.3127, 260.9097
409.7948, 260.9539
410.2769, 261.7591
410.7590, 262.7721
411.2411, 264.0038
411.7232, 264.5560
412.2054, 262.9103
412.6875, 260.0294
413.1696, 258.8817
413.6517, 260.2420
414.1338, 262.1705
414.6159, 262.4299
415.0981, 261.4248
415.5802, 260.2445
416.0623, 258.9578
416.5444, 258.0393
417.0265, 258.2413
417.5086, 259.5618
417.9908, 260.8353
418.4729, 261.5925
418.9550, 261.7952
419.4371, 261.3522
419.9192, 259.5419
420.4013, 257.9308
420.8835, 257.4073
421.3656, 257.6421
421.8477, 257.6334
422.3298, 256.5435
422.8119, 255.5883
423.2940, 255.4715
423.7762, 256.7159
424.2583, 257.3972
424.7404, 256.8729
425.2225, 255.8520
425.7047, 255.1410
426.1868, 255.0879
426.6689, 254.8932
427.1510, 254.3363
427.6331, 253.4691
428.1152, 252.8728
428.5974, 252.6242
429.0795, 252.5218
429.5616, 252.5055
430.0437, 252.6660
430.5258, 252.5036
431.0079, 251.9294
431.4901, 251.1036
431.9722, 250.1594
432.4543, 249.0399
432.9364, 248.4120
433.4185, 248.9006
433.9006, 250.1198
434.3828, 250.2423
434.8649, 249.2212
435.3470, 247.6918
435.8291, 245.9675
436.3112, 244.1684
436.7933, 242.7658
437.2755, 241.9749
437.7576, 241.3382
438.2397, 240.1355
438.7218, 238.5731
439.2039, 237.3340
439.6860, 237.1429
440.1682, 237.2633
440.6503, 236.7709
441.1324, 235.5662
441.6145, 234.7229
442.0966, 235.5900
442.5787, 236.8712
443.0609, 237.1685
443.5430, 235.3856
444.0251, 233.2511
444.5072, 230.7990
444.9893, 228.3500
445.4714, 227.0182
445.9536, 228.2796
446.4357, 229.6727
446.9178, 230.0418
447.3999, 228.7696
447.8820, 228.0014
448.3641, 228.6089
448.8463, 229.2838
449.3284, 228.4782
449.8105, 224.9115
450.2926, 222.2375
450.7747, 221.2021
451.2569, 221.5928
451.7390, 222.2895
452.2211, 223.6181
452.7032, 224.4337
453.1853, 223.8612
453.6674, 221.7992
454.1496, 219.9604
454.6317, 218.3974
455.1138, 217.0571
455.5959, 215.7266
456.0780, 214.4481
456.5602, 213.9050
457.0423, 214.8823
457.5244, 216.3964
458.0065, 216.1689
458.4886, 214.3571
458.9707, 212.6649
459.4529, 212.6104
459.9350, 213.4088
460.4171, 213.9453
460.8992, 214.0829
461.3813, 213.8358
461.8634, 212.8775
462.3456, 211.5905
462.8277, 210.6402
463.3098, 211.2176
463.7919, 211.3745
464.2740, 209.2111
464.7561, 204.9880
465.2383, 202.6994
465.7204, 205.6223
466.2025, 209.4273
466.6846, 211.3857
467.1667, 209.8943
467.6488, 208.6299
468.1310, 208.3007
468.6131, 208.1711
469.0952, 206.8929
469.5773, 202.9182
470.0594, 200.3208
470.5415, 200.5644
471.0237, 203.5166
471.5058, 205.2024
471.9879, 205.2500
472.4700, 204.8667
472.9521, 205.1096
473.4342, 206.0525
473.9164, 206.1127
474.3985, 204.9782
474.8806, 203.2592
475.3627, 201.9221
475.8448, 200.9356
476.3270, 199.9547
476.8091, 198.4617
477.2912, 197.0334
477.7733, 197.0855
478.2554, 198.5343
478.7375, 200.1184
479.2197, 201.0516
479.7018, 201.4806
480.1839, 201.5687
480.6660, 201.3007
481.1481, 200.8403
481.6302, 200.1139
482.1124, 199.2934
482.5945, 198.6691
483.0766, 198.3716
483.5587, 198.2702
484.0408, 198.2834
484.5229, 198.4131
485.0051, 198.8128
485.4872, 200.0968
485.9693, 201.2438
486.4514, 201.5987
486.9335, 200.4158
487.4156, 199.7821
487.8978, 200.2641
488.3799, 200.9966
488.8620, 200.4412
489.3441, 197.8461
489.8262, 195.8696
490.3083, 195.4175
490.7905, 196.2197
491.2726, 196.1262
491.7547, 194.9309
492.2368, 193.8534
492.7189, 194.1123
493.2010, 195.4536
493.6832, 195.9913
494.1653, 195.4168
494.6474, 194.5684
495.1295, 194.4600
495.6116, 194.9452
496.0938, 195.5867
496.5759, 196.5482
497.0580, 197.3079
497.5401, 196.9523
498.0222, 195.7263
498.5044, 194.8977
498.9865, 195.7373
499.4686, 196.9170
499.9507, 197.1956
500.4328, 196.0158
500.9149, 195.4169
501.3971, 197.4636
501.8792, 199.9329
502.3613, 200.2649
502.8434, 194.7971
503.3255, 190.8521
503.8076, 190.3347
504.2898, 192.4866
504.7719, 193.8833
505.2540, 194.4245
505.7361, 194.3419
506.2182, 193.4915
506.7003, 191.6191
507.1825, 190.7605
507.6646, 191.1702
508.1467, 192.0498
508.6288, 192.5261
509.1109, 192.6028
509.5930, 192.8529
510.0752, 193.6161
510.5573, 194.2853
511.0394, 193.2710
511.5215, 190.8682
512.0037, 188.9296
512.4858, 188.8236
512.9679, 189.6510
513.4500, 190.2085
513.9321, 190.4529
514.4142, 190.6020
514.8964, 191.0711
515.3785, 191.4050
515.8606, 190.9872
516.3427, 188.8652
516.8248, 187.4038
517.3069, 188.3237
517.7891, 190.4292
518.2712, 191.5077
518.7533, 189.6743
519.2354, 188.1721
519.7175, 188.2583
520.1996, 189.8913
520.6818, 190.5952
521.1639, 189.6444
521.6460, 188.6596
522.1281, 188.6486
522.6102, 189.9119
523.0923, 191.0213
523.5745, 192.0191
524.0566, 192.7438
524.5387, 192.9778
525.0208, 192.7245
525.5029, 191.9897
525.9850, 190.4545
526.4672, 188.7216
526.9493, 188.2022
527.4314, 188.7901
527.9135, 189.5500
528.3956, 190.2999
528.8777, 190.7064
529.3599, 189.9454
529.8420, 187.8385
530.3241, 186.2369
530.8062, 187.1885
531.2883, 188.9772
531.7704, 189.6161
532.2526, 187.2218
532.7347, 185.4030
533.2168, 185.8639
533.6989, 187.6811
534.1810, 188.7010
534.6631, 188.0306
535.1453, 187.0966
535.6274, 186.1235
536.1095, 185.0829
536.5916, 184.6711
537.0737, 185.1479
537.5558, 185.8465
538.0380, 186.3584
538.5201, 186.6861
539.0022, 186.7602
539.4843, 186.4640
539.9664, 186.1709
540.4485, 186.4994
540.9307, 187.3840
541.4128, 188.3557
541.8949, 189.4552
542.3770, 190.3429
542.8591, 190.4320
543.3412, 189.7845
543.8234, 188.7617
544.3055, 187.0711
544.7876, 185.4093
545.2697, 184.3639
545.7518, 183.9773
546.2339, 184.3938
546.7161, 186.6562
547.1982, 189.2356
547.6803, 190.8231
548.1624, 190.5368
548.6445, 189.9997
549.1266, 189.0093
549.6088, 187.9758
550.0909, 187.7423
550.5730, 188.7129
551.0551, 189.8747
551.5372, 191.1120
552.0193, 192.3770
552.5015, 193.0389
552.9836, 192.9955
553.4657, 192.7161
553.9478, 192.3014
554.4299, 191.8161
554.9120, 192.1187
555.3942, 193.3755
555.8763, 194.7399
556.3584, 194.9756
556.8405, 194.5498
557.3226, 194.7505
557.8047, 196.4734
558.2869, 198.1963
558.7690, 198.2377
559.2511, 197.1467
559.7332, 196.3069
560.2154, 196.4656
560.6975, 196.9362
561.1796, 197.4556
561.6617, 198.0094
562.1439, 198.4322
562.6260, 198.1844
563.1081, 198.1911
563.5902, 199.1054
564.0723, 202.0616
564.5544, 203.3573
565.0366, 201.9837
565.5187, 199.9488
566.0008, 200.4093
566.4829, 204.0520
566.9650, 206.2080
567.4471, 205.3160
567.9293, 202.8528
568.4114, 202.7273
568.8935, 204.7851
569.3756, 206.9614
569.8577, 208.2914
570.3398, 208.8949
570.8220, 208.7136
571.3041, 207.7869
571.7862, 206.9014
572.2683, 206.5749
572.7504, 206.5772
573.2325, 206.6646
573.7147, 206.7439
574.1968, 207.0378
574.6789, 207.8269
575.1610, 208.8113
575.6431, 209.6135
576.1252, 210.0621
576.6074, 210.4551
577.0895, 210.8934
577.5716, 211.3146
578.0537, 211.4452
578.5358, 211.1392
579.0179, 210.8806
579.5001, 210.8343
579.9822, 210.9987
580.4643, 211.5070
580.9464, 212.4432
581.4285, 213.1360
581.9106, 212.6762
582.3928, 211.4762
582.8749, 210.8856
583.3570, 211.0878
583.8391, 211.8543
584.3212, 213.7911
584.8033, 215.9941
585.2855, 216.9124
585.7676, 214.7186
586.2497, 212.4680
586.7318, 211.6541
