##NAMES=Pseudobrookite
##RRUFFID=R050563
##IDEAL CHEMISTRY=(Fe^3+^_2_Ti^4+^)O_5_
##LOCALITY=Thomas Range, Juab County, Utah, USA
##OWNER=RRUFF
##SOURCE=Dave Bunk Minerals
##DESCRIPTION=Black elongated prismatic crystals
##STATUS=The identification of this mineral is confirmed by single-crystal X-ray diffraction and chemical analysis.
##URL=rruff.info/R050563
##MEASURED CHEMISTRY=(Fe^3+^_1.85_Mn^3+^_0.12_Al_0.03_)_Î£=2_Ti_1.00_O_5_
92.06543, 449.9684
92.54755, 451.9372
93.02966, 454.5840
93.51178, 453.5155
93.99390, 449.0276
94.47601, 441.7579
94.95813, 432.8897
95.44025, 423.5467
95.92236, 414.4267
96.40448, 405.3224
96.88660, 398.3086
97.36871, 394.2305
97.85082, 391.3929
98.33294, 388.6469
98.81506, 385.5846
99.29717, 382.1689
99.77929, 380.8218
100.2614, 381.4713
100.7435, 380.6062
101.2256, 375.9930
101.7078, 369.2067
102.1899, 363.9303
102.6720, 361.1229
103.1541, 359.7264
103.6362, 358.3197
104.1183, 356.8905
104.6005, 356.1306
105.0826, 357.0092
105.5647, 359.7990
106.0468, 361.9383
106.5289, 362.2798
107.0110, 362.0679
107.4931, 362.4695
107.9753, 363.7703
108.4574, 364.6105
108.9395, 362.2657
109.4216, 355.3331
109.9037, 346.8884
110.3858, 335.0352
110.8680, 322.7707
111.3501, 313.3405
111.8322, 308.5326
112.3143, 307.7552
112.7964, 307.3427
113.2785, 307.7089
113.7607, 307.9629
114.2428, 308.0739
114.7249, 307.9222
115.2070, 307.2226
115.6891, 305.6962
116.1712, 303.3148
116.6534, 301.0458
117.1355, 298.7501
117.6176, 296.6373
118.0997, 294.5317
118.5818, 292.3556
119.0639, 291.1672
119.5461, 292.7290
120.0282, 296.2567
120.5103, 299.5897
120.9924, 302.1765
121.4745, 304.1217
121.9566, 305.6039
122.4388, 306.3709
122.9209, 307.0465
123.4030, 307.9887
123.8851, 309.1798
124.3672, 310.5832
124.8493, 312.1905
125.3315, 314.0120
125.8136, 315.9128
126.2957, 319.0282
126.7778, 321.3132
127.2599, 321.7510
127.7420, 320.2856
128.2242, 317.6225
128.7063, 314.6292
129.1884, 311.1407
129.6705, 307.6005
130.1526, 303.7444
130.6347, 299.9871
131.1169, 296.5728
131.5990, 293.5977
132.0811, 291.1031
132.5632, 289.1977
133.0453, 287.5949
133.5274, 287.0143
134.0096, 288.5362
134.4917, 290.9148
134.9738, 292.3353
135.4559, 291.8970
135.9380, 290.0954
136.4201, 288.6035
136.9023, 287.3334
137.3844, 286.3882
137.8665, 286.2541
138.3486, 286.6786
138.8307, 286.4392
139.3128, 284.5806
139.7950, 281.6601
140.2771, 279.1742
140.7592, 277.5327
141.2413, 275.9998
141.7234, 273.3588
142.2055, 269.1835
142.6877, 266.1750
143.1698, 266.9479
143.6519, 269.4587
144.1340, 271.5433
144.6161, 272.3929
145.0982, 272.2757
145.5803, 271.9005
146.0625, 271.3582
146.5446, 270.3336
147.0267, 267.8810
147.5088, 265.0434
147.9909, 263.5490
148.4730, 264.9306
148.9552, 268.9661
149.4373, 271.0677
149.9194, 269.2770
150.4015, 267.1892
150.8836, 265.3141
151.3657, 263.8426
151.8479, 262.9239
152.3300, 262.8000
152.8121, 263.7205
153.2942, 263.8328
153.7763, 262.2546
154.2584, 260.8026
154.7406, 260.5252
155.2227, 261.4123
155.7048, 262.6548
156.1869, 263.3935
156.6690, 263.4642
157.1511, 263.4617
157.6333, 263.1437
158.1154, 262.8849
158.5975, 263.1298
159.0796, 263.9860
159.5617, 264.9755
160.0438, 265.3904
160.5260, 265.1963
161.0081, 265.1946
161.4902, 265.5033
161.9723, 266.1301
162.4544, 267.2049
162.9365, 268.9536
163.4187, 270.7498
163.9008, 271.6826
164.3829, 271.7901
164.8650, 272.1755
165.3471, 273.7513
165.8292, 276.3026
166.3113, 278.3868
166.7935, 279.6044
167.2756, 280.3014
167.7577, 280.7023
168.2398, 280.8327
168.7219, 280.8497
169.2040, 280.6104
169.6862, 279.9152
170.1683, 280.3257
170.6504, 282.8660
171.1325, 286.0948
171.6146, 289.5507
172.0967, 293.0573
172.5789, 296.3532
173.0610, 298.9308
173.5431, 300.2149
174.0252, 302.1109
174.5073, 305.1888
174.9894, 308.5555
175.4716, 311.5284
175.9537, 313.8911
176.4358, 315.9842
176.9179, 318.4246
177.4000, 320.4769
177.8821, 324.1168
178.3643, 330.8802
178.8464, 338.5282
179.3285, 344.7916
179.8106, 348.7634
180.2927, 351.0838
180.7748, 353.4140
181.2570, 355.4103
181.7391, 357.8452
182.2212, 360.7446
182.7033, 364.1437
183.1854, 368.1479
183.6675, 372.8624
184.1497, 378.0912
184.6318, 383.2649
185.1139, 388.5250
185.5960, 393.5460
186.0781, 398.3876
186.5602, 402.9194
187.0423, 406.7159
187.5245, 409.4046
188.0066, 411.2995
188.4887, 413.3009
188.9708, 415.4807
189.4529, 417.6070
189.9350, 419.2921
190.4172, 420.6081
190.8993, 422.5226
191.3814, 426.2242
191.8635, 430.3310
192.3456, 432.8357
192.8277, 433.0710
193.3099, 432.5973
193.7920, 433.1181
194.2741, 434.8349
194.7562, 436.0440
195.2383, 435.6568
195.7204, 434.5679
196.2026, 433.4093
196.6847, 432.3217
197.1668, 431.2790
197.6489, 430.2268
198.1310, 429.1375
198.6131, 428.1322
199.0953, 427.6860
199.5774, 427.1346
200.0595, 425.7778
200.5416, 423.2986
201.0237, 420.1895
201.5058, 417.5219
201.9880, 415.3546
202.4701, 413.5771
202.9522, 412.2635
203.4343, 411.2189
203.9164, 410.2080
204.3985, 409.1158
204.8807, 408.1039
205.3628, 407.7025
205.8449, 408.6436
206.3270, 409.2657
206.8091, 408.9564
207.2912, 408.3896
207.7733, 408.4165
208.2555, 409.4775
208.7376, 411.2349
209.2197, 412.4315
209.7018, 412.2952
210.1839, 412.4431
210.6660, 413.1346
211.1482, 414.1869
211.6303, 415.3608
212.1124, 416.5448
212.5945, 417.7285
213.0766, 418.9018
213.5587, 420.4405
214.0409, 421.5441
214.5230, 421.7357
215.0051, 421.4093
215.4872, 421.2524
215.9693, 421.6063
216.4514, 422.3755
216.9336, 423.2515
217.4157, 425.1575
217.8978, 426.0321
218.3799, 424.6772
218.8620, 421.7305
219.3441, 418.8242
219.8263, 416.8628
220.3084, 415.2878
220.7905, 412.5982
221.2726, 408.3844
221.7547, 403.9220
222.2368, 400.4028
222.7190, 397.3555
223.2011, 392.6154
223.6832, 384.4059
224.1653, 374.6594
224.6474, 367.2332
225.1295, 362.9284
225.6117, 358.9618
226.0938, 353.6630
226.5759, 347.1118
227.0580, 339.9223
227.5401, 331.5039
228.0222, 323.2187
228.5043, 316.8485
228.9865, 312.9305
229.4686, 309.2581
229.9507, 303.6270
230.4328, 296.0703
230.9149, 289.5853
231.3970, 286.1607
231.8792, 283.4712
232.3613, 279.2551
232.8434, 273.1558
233.3255, 267.0643
233.8076, 263.1205
234.2897, 261.5468
234.7719, 259.5098
235.2540, 255.4556
235.7361, 251.3482
236.2182, 248.4740
236.7003, 246.9954
237.1824, 246.1252
237.6646, 245.1059
238.1467, 243.9284
238.6288, 242.6100
239.1109, 240.9990
239.5930, 239.3427
240.0751, 237.5481
240.5573, 235.6939
241.0394, 234.2342
241.5215, 233.9478
242.0036, 235.3001
242.4857, 235.9068
242.9678, 234.8565
243.4500, 233.6611
243.9321, 233.0266
244.4142, 233.0331
244.8963, 233.3694
245.3784, 233.8809
245.8605, 234.9261
246.3427, 234.7756
246.8248, 232.1794
247.3069, 229.5251
247.7890, 227.7953
248.2711, 227.1299
248.7532, 227.2704
249.2354, 228.0667
249.7175, 229.7877
250.1996, 230.9969
250.6817, 231.9604
251.1638, 232.2718
251.6459, 231.4091
252.1281, 229.5840
252.6102, 227.5399
253.0923, 225.9128
253.5744, 224.6421
254.0565, 224.2888
254.5386, 225.7188
255.0208, 227.0930
255.5029, 227.4788
255.9850, 227.0045
256.4671, 226.3837
256.9492, 226.2107
257.4313, 226.5105
257.9135, 227.0071
258.3956, 228.1145
258.8777, 228.9811
259.3598, 229.1362
259.8419, 228.7111
260.3240, 228.1572
260.8062, 227.7990
261.2883, 227.6365
261.7704, 227.5275
262.2525, 226.9964
262.7346, 226.9666
263.2167, 228.2282
263.6989, 230.3578
264.1810, 232.2354
264.6631, 233.1624
265.1452, 233.2065
265.6273, 232.9740
266.1094, 231.9060
266.5916, 231.2095
267.0737, 231.4770
267.5558, 232.4578
268.0379, 233.6403
268.5200, 234.8526
269.0021, 235.9440
269.4843, 236.2422
269.9664, 234.7762
270.4485, 233.8572
270.9306, 234.7921
271.4127, 236.7923
271.8948, 238.0103
272.3770, 237.4152
272.8591, 235.9645
273.3412, 236.3874
273.8233, 239.7133
274.3054, 242.3422
274.7875, 242.2671
275.2697, 240.8372
275.7518, 240.7822
276.2339, 243.2858
276.7160, 246.9342
277.1981, 249.0650
277.6802, 249.6717
278.1623, 249.7426
278.6444, 248.9535
279.1266, 247.9333
279.6087, 247.9617
280.0908, 249.5628
280.5729, 251.5172
281.0550, 251.6617
281.5371, 249.9132
282.0193, 249.5353
282.5014, 252.4382
282.9835, 256.8349
283.4656, 260.2790
283.9477, 262.3615
284.4298, 263.4931
284.9120, 263.6664
285.3941, 263.0302
285.8762, 262.6679
286.3583, 262.7914
286.8404, 263.3077
287.3225, 264.1901
287.8047, 265.4675
288.2868, 266.8369
288.7689, 268.1099
289.2510, 269.2823
289.7331, 270.3668
290.2152, 271.1222
290.6974, 271.9289
291.1795, 273.4235
291.6616, 275.6490
292.1437, 277.4164
292.6258, 277.5982
293.1079, 276.8699
293.5901, 276.8642
294.0722, 277.9869
294.5543, 279.5991
295.0364, 281.2142
295.5185, 282.8453
296.0006, 284.6382
296.4828, 286.8125
296.9649, 289.0966
297.4470, 290.9818
297.9291, 292.2773
298.4112, 293.5825
298.8933, 295.2983
299.3755, 297.3828
299.8576, 299.7201
300.3397, 302.6291
300.8218, 305.3561
301.3039, 306.6553
301.7860, 306.2496
302.2682, 306.4368
302.7503, 309.0629
303.2324, 313.4145
303.7145, 317.0377
304.1966, 319.3722
304.6787, 320.9012
305.1609, 321.8827
305.6430, 322.4018
306.1251, 323.2809
306.6072, 324.8643
307.0893, 327.0598
307.5714, 329.7436
308.0536, 332.9970
308.5357, 336.4670
309.0178, 340.2870
309.4999, 344.1644
309.9820, 347.1089
310.4641, 347.4846
310.9463, 347.2530
311.4284, 349.8605
311.9105, 355.9313
312.3926, 361.6805
312.8747, 364.4194
313.3568, 365.1465
313.8390, 365.3314
314.3211, 364.0937
314.8032, 363.6235
315.2853, 367.0081
315.7674, 374.3265
316.2495, 381.0247
316.7317, 385.0200
317.2138, 387.1276
317.6959, 388.4922
318.1780, 388.7286
318.6601, 389.4251
319.1422, 392.0306
319.6243, 396.3123
320.1064, 400.6661
320.5886, 404.8987
321.0707, 408.6289
321.5528, 411.5091
322.0349, 413.5416
322.5170, 415.0786
322.9991, 415.8921
323.4813, 416.3291
323.9634, 417.5133
324.4455, 419.9048
324.9276, 422.5036
325.4097, 424.0081
325.8918, 424.6881
326.3740, 425.9528
326.8561, 429.3155
327.3382, 433.2337
327.8203, 434.8862
328.3024, 433.6630
328.7845, 432.3041
329.2667, 433.3360
329.7488, 435.8170
330.2309, 437.4015
330.7130, 436.7045
331.1951, 435.6003
331.6772, 436.2025
332.1594, 438.4800
332.6415, 440.5305
333.1236, 441.3617
333.6057, 441.2697
334.0878, 441.0762
334.5699, 440.8655
335.0521, 440.4371
335.5342, 436.6414
336.0163, 438.9695
336.4984, 439.9713
336.9805, 439.7181
337.4626, 434.4507
337.9448, 435.6579
338.4269, 434.2704
338.9090, 432.7765
339.3911, 434.8951
339.8732, 430.3570
340.3553, 432.4183
340.8375, 430.7796
341.3196, 429.0828
341.8017, 427.5890
342.2838, 426.2544
342.7659, 424.1740
343.2480, 420.3896
343.7302, 416.2160
344.2123, 413.0050
344.6944, 410.8714
345.1765, 409.4644
345.6586, 409.0311
346.1407, 409.1734
346.6229, 407.7555
347.1050, 403.0641
347.5871, 398.3404
348.0692, 396.0331
348.5513, 395.5199
349.0334, 394.2752
349.5156, 390.9823
349.9977, 386.2706
350.4798, 381.8092
350.9619, 377.3705
351.4440, 373.5475
351.9261, 371.1779
352.4083, 369.4398
352.8904, 366.8577
353.3725, 362.9411
353.8546, 358.4890
354.3367, 354.5287
354.8188, 351.0417
355.3010, 348.2033
355.7831, 346.8276
356.2652, 345.6181
356.7473, 343.1820
357.2294, 339.4484
357.7115, 335.6587
358.1937, 332.9540
358.6758, 331.3971
359.1579, 329.2332
359.6400, 325.4872
360.1221, 322.1327
360.6042, 320.7787
361.0863, 320.6698
361.5685, 319.7310
362.0506, 316.7221
362.5327, 312.1279
363.0148, 307.9072
363.4969, 303.8622
363.9790, 300.4136
364.4612, 297.9910
364.9433, 296.0530
365.4254, 293.8975
365.9075, 291.3042
366.3896, 288.7404
366.8717, 287.0354
367.3539, 287.0350
367.8360, 285.9258
368.3181, 282.7763
368.8002, 279.3249
369.2823, 276.3943
369.7644, 274.2431
370.2466, 273.2285
370.7287, 274.0387
371.2108, 276.9451
371.6929, 276.6618
372.1750, 269.6632
372.6571, 263.4769
373.1393, 260.7568
373.6214, 260.3033
374.1035, 259.8061
374.5856, 258.0006
375.0677, 255.3043
375.5498, 253.0516
376.0320, 251.4814
376.5141, 250.0404
376.9962, 248.8658
377.4783, 247.6784
377.9604, 246.2527
378.4425, 244.5254
378.9247, 242.5927
379.4068, 240.5211
379.8889, 238.2007
380.3710, 236.1347
380.8531, 234.1516
381.3352, 232.5769
381.8174, 231.9352
382.2995, 231.8971
382.7816, 231.5425
383.2637, 230.0822
383.7458, 227.7078
384.2279, 225.6990
384.7101, 223.8168
385.1922, 222.7566
385.6743, 223.0472
386.1564, 224.0197
386.6385, 225.0582
387.1206, 226.0150
387.6028, 226.4362
388.0849, 225.3492
388.5670, 222.3892
389.0491, 219.6812
389.5312, 218.0827
390.0133, 216.6137
390.4955, 214.2820
390.9776, 211.1405
391.4597, 208.6627
391.9418, 208.2917
392.4239, 209.6981
392.9060, 211.1555
393.3882, 213.1463
393.8703, 214.0560
394.3524, 211.9370
394.8345, 208.0704
395.3166, 205.2481
395.7987, 205.1764
396.2809, 206.1318
396.7630, 205.5994
397.2451, 203.4622
397.7272, 201.5809
398.2093, 200.7873
398.6914, 200.7601
399.1736, 200.9991
399.6557, 201.6349
400.1378, 202.0563
400.6199, 201.6663
401.1020, 200.7784
401.5841, 200.3515
402.0662, 200.7571
402.5483, 201.2080
403.0305, 200.7417
403.5126, 199.4242
403.9947, 197.8560
404.4768, 195.4979
404.9589, 193.3575
405.4410, 192.6987
405.9232, 193.4292
406.4053, 194.0779
406.8874, 193.5997
407.3695, 192.2784
407.8516, 191.6060
408.3337, 192.3493
408.8159, 192.7627
409.2980, 191.9296
409.7801, 190.5075
410.2622, 189.5690
410.7443, 189.4804
411.2264, 189.8746
411.7086, 190.2390
412.1907, 190.8810
412.6728, 190.5869
413.1549, 188.1244
413.6370, 185.7308
414.1191, 185.2088
414.6013, 186.3312
415.0834, 187.5361
415.5655, 187.5777
416.0476, 186.5256
416.5297, 185.5958
417.0118, 184.7094
417.4940, 184.0503
417.9761, 183.7015
418.4582, 183.5794
418.9403, 183.7017
419.4224, 184.0571
419.9045, 184.3509
420.3867, 183.9910
420.8688, 182.6270
421.3509, 181.5513
421.8330, 180.9212
422.3151, 180.4911
422.7972, 180.2241
423.2794, 180.0635
423.7615, 179.8946
424.2436, 179.6525
424.7257, 179.3274
425.2078, 178.8142
425.6899, 177.9131
426.1721, 177.1810
426.6542, 176.9004
427.1363, 176.8400
427.6184, 176.7108
428.1005, 176.4039
428.5826, 176.1045
429.0648, 176.2305
429.5469, 176.7971
430.0290, 176.6413
430.5111, 174.7697
430.9932, 172.9405
431.4753, 173.1279
431.9575, 175.0259
432.4396, 176.1190
432.9217, 174.4131
433.4038, 171.4167
433.8859, 169.6842
434.3680, 169.4133
434.8502, 169.7409
435.3323, 170.4363
435.8144, 171.2835
436.2965, 171.6843
436.7786, 171.3125
437.2607, 170.9572
437.7429, 171.4045
438.2250, 172.1653
438.7071, 171.9060
439.1892, 170.0841
439.6713, 167.8649
440.1534, 166.9973
440.6356, 167.9284
441.1177, 168.1669
441.5998, 166.7976
442.0819, 165.3181
442.5640, 164.9980
443.0461, 165.6504
443.5282, 166.1776
444.0103, 165.8348
444.4925, 164.7688
444.9746, 163.7935
445.4567, 162.5405
445.9388, 161.8530
446.4209, 162.0397
446.9030, 162.7249
447.3852, 163.7693
447.8673, 165.0327
448.3494, 166.0449
448.8315, 166.2201
449.3136, 165.5060
449.7957, 164.2019
450.2779, 160.8896
450.7600, 158.3834
451.2421, 157.9851
451.7242, 159.0779
452.2063, 158.1112
452.6884, 160.8642
453.1706, 162.2907
453.6527, 162.4623
454.1348, 157.6197
454.6169, 159.2518
455.0990, 158.2892
455.5811, 157.2201
456.0633, 159.7635
456.5454, 155.6502
457.0275, 158.1363
457.5096, 157.9881
457.9917, 159.0455
458.4738, 157.4922
458.9560, 156.7452
459.4381, 158.6098
459.9202, 159.0285
460.4023, 157.1745
460.8844, 158.3087
461.3665, 154.1041
461.8487, 154.5843
462.3308, 157.0857
462.8129, 155.3631
463.2950, 156.5449
463.7771, 156.6205
464.2592, 151.6691
464.7414, 155.4602
465.2235, 155.4705
465.7056, 151.5986
466.1877, 155.0902
466.6698, 151.7535
467.1519, 150.8541
467.6341, 151.7889
468.1162, 150.8116
468.5983, 152.8490
469.0804, 151.9821
469.5625, 150.8558
470.0446, 150.8618
470.5268, 147.6590
471.0089, 150.4092
471.4910, 149.0930
471.9731, 149.7982
472.4552, 150.9615
472.9373, 148.6167
473.4195, 149.9857
473.9016, 145.5954
474.3837, 146.0242
474.8658, 145.9341
475.3479, 148.9244
475.8300, 144.5621
476.3122, 144.8570
476.7943, 147.1349
477.2764, 146.6382
477.7585, 147.3015
478.2406, 144.5306
478.7227, 144.9859
479.2049, 144.5519
479.6870, 147.1909
480.1691, 147.4040
480.6512, 144.6913
481.1333, 141.9910
481.6154, 144.8512
482.0976, 142.4410
482.5797, 142.8742
483.0618, 140.3708
483.5439, 140.4029
484.0260, 140.3949
484.5081, 141.6865
484.9902, 139.0370
485.4724, 141.4997
485.9545, 141.0077
486.4366, 141.3861
486.9187, 141.6677
487.4008, 137.9843
487.8829, 137.5512
488.3651, 141.7690
488.8472, 138.8940
489.3293, 137.4505
489.8114, 137.0247
490.2935, 141.4019
490.7756, 141.3148
491.2578, 135.8914
491.7399, 140.0569
492.2220, 138.3232
492.7041, 138.3425
493.1862, 137.7223
493.6683, 137.2914
494.1505, 134.4522
494.6326, 134.7866
495.1147, 137.7016
495.5968, 136.2172
496.0789, 137.7221
496.5610, 133.7791
497.0432, 133.0699
497.5253, 133.2191
498.0074, 133.6813
498.4895, 131.6422
498.9716, 136.5235
499.4537, 136.4120
499.9359, 137.5082
500.4180, 135.9956
500.9001, 135.2913
501.3822, 137.2006
501.8643, 137.6658
502.3464, 135.8604
502.8286, 137.0450
503.3107, 132.8930
503.7928, 133.4276
504.2749, 135.9854
504.7570, 134.3212
505.2391, 135.5633
505.7213, 135.7012
506.2034, 130.8140
506.6855, 134.6714
507.1676, 134.7498
507.6497, 130.9481
508.1318, 134.5118
508.6140, 131.2491
509.0961, 130.4257
509.5782, 131.4385
510.0603, 130.5412
510.5424, 132.6604
511.0245, 131.8774
511.5067, 130.8369
511.9888, 130.9307
512.4709, 127.8176
512.9530, 130.6596
513.4351, 129.4370
513.9172, 130.2378
514.3994, 131.4987
514.8815, 129.4697
515.3636, 128.7042
515.8457, 127.8043
516.3278, 126.3080
516.8099, 125.3231
517.2921, 125.7366
517.7742, 126.7750
518.2563, 127.1551
518.7384, 126.2854
519.2205, 125.2310
519.7026, 125.3455
520.1848, 126.4469
520.6669, 127.0353
521.1490, 126.5807
521.6311, 125.9814
522.1132, 126.2516
522.5953, 127.2262
523.0775, 128.0763
523.5596, 128.8054
524.0417, 129.2338
524.5238, 129.1828
525.0059, 128.7198
525.4880, 127.9695
525.9702, 126.9554
526.4523, 125.8723
526.9344, 125.0266
527.4165, 124.4254
527.8986, 124.1125
528.3807, 124.3364
528.8629, 124.5933
529.3450, 124.4268
529.8271, 124.0756
530.3092, 124.2821
530.7913, 125.5501
531.2734, 127.1344
531.7556, 126.9692
532.2377, 124.1280
532.7198, 122.1684
533.2019, 122.1215
533.6840, 122.6747
534.1661, 123.3650
534.6483, 124.0697
535.1304, 124.5696
535.6125, 124.5629
536.0946, 124.3879
536.5767, 124.9471
537.0588, 126.3142
537.5410, 126.7385
538.0231, 124.9639
538.5052, 122.4419
538.9873, 121.5181
539.4694, 122.3333
539.9515, 123.2552
540.4337, 123.6070
540.9158, 124.0068
541.3979, 125.5074
541.8800, 127.8319
542.3621, 129.3305
542.8442, 128.8948
543.3264, 127.0702
543.8085, 125.7025
544.2906, 124.8341
544.7726, 124.4327
545.2548, 124.5340
545.7369, 125.0663
546.2190, 126.1102
546.7011, 127.5591
547.1832, 129.1720
547.6653, 130.8549
548.1475, 132.4582
548.6296, 133.2285
549.1117, 132.7406
549.5938, 132.5387
550.0759, 133.3126
550.5580, 134.3869
551.0402, 135.5341
551.5223, 136.6632
552.0044, 137.0911
552.4865, 135.9263
552.9686, 133.9849
553.4507, 132.6851
553.9329, 132.0872
554.4150, 131.7821
554.8971, 131.6611
555.3792, 131.6093
555.8613, 131.2824
556.3434, 130.4618
556.8256, 129.9590
557.3077, 130.3545
557.7898, 130.8371
558.2719, 130.4605
558.7540, 129.3588
559.2361, 128.5409
559.7183, 128.7654
560.2004, 129.7074
560.6825, 129.9595
561.1646, 128.9213
561.6467, 128.2092
562.1288, 128.0054
562.6110, 128.1127
563.0931, 128.6627
563.5752, 129.4689
564.0573, 129.8234
564.5394, 128.7743
565.0215, 127.1703
565.5037, 127.7011
565.9858, 130.8788
566.4679, 132.7350
566.9500, 130.7630
567.4321, 127.6200
567.9142, 127.0249
568.3964, 129.1610
568.8785, 131.0902
569.3606, 131.8903
569.8427, 131.9776
570.3248, 131.6030
570.8069, 130.8723
571.2891, 130.0620
571.7712, 129.3077
572.2533, 128.6283
572.7354, 128.0541
573.2175, 127.1963
573.6996, 127.1943
574.1818, 128.7581
574.6639, 130.4930
575.1460, 131.7948
575.6281, 132.5405
576.1102, 132.5939
576.5923, 131.7795
577.0745, 130.5592
577.5566, 130.0055
578.0387, 130.2573
578.5208, 130.4117
579.0029, 130.1505
579.4850, 129.9017
579.9672, 130.1799
580.4493, 130.8018
580.9314, 130.9716
581.4135, 129.9323
581.8956, 128.7055
582.3777, 128.1985
582.8599, 128.3400
583.3420, 129.0852
583.8241, 130.5912
584.3062, 131.8586
584.7883, 131.4048
585.2704, 128.7254
585.7526, 126.7477
586.2347, 125.5879
586.7168, 124.9401
587.1989, 124.4366
587.6810, 124.4261
