##NAMES=Pseudograndreefite
##RRUFFID=R100006
##IDEAL CHEMISTRY=Pb^2+^_6_(S^6+^O_4_)F_10_
##LOCALITY=Grand Reef mine, Klondyke, Aravaipa District, Graham County, Arizona, USA
##OWNER=RRUFF
##SOURCE=Natural History Museum of Los Angeles County 
##DESCRIPTION=Colorless crystal fragments from the type specimen, associated with laurelite R100035 and grandreefite R100012. Photo of type specimen is courtesy of LACMNH.
##STATUS=The identification of this mineral has been confirmed by single-crystal X-ray diffraction.
##URL=rruff.info/R100006
122.7940, 34.16912
123.2761, 35.10783
123.7582, 36.13061
124.2404, 37.45093
124.7225, 38.87594
125.2046, 40.77828
125.6867, 43.70130
126.1688, 47.94275
126.6509, 52.71457
127.1331, 57.11246
127.6152, 61.25035
128.0973, 65.69426
128.5794, 70.69518
129.0615, 76.28588
129.5436, 82.48800
130.0258, 89.17323
130.5079, 96.62486
130.9900, 105.2725
131.4721, 115.0418
131.9542, 126.5073
132.4363, 140.2556
132.9185, 156.1887
133.4006, 173.6187
133.8827, 192.4557
134.3648, 212.5068
134.8469, 234.5955
135.3290, 258.8765
135.8112, 284.6289
136.2933, 311.1683
136.7754, 338.7029
137.2575, 365.7002
137.7396, 392.0175
138.2217, 417.2011
138.7039, 441.3358
139.1860, 464.7661
139.6681, 486.6496
140.1502, 505.7290
140.6323, 521.0636
141.1144, 536.0892
141.5966, 551.6696
142.0787, 567.2327
142.5608, 585.6133
143.0429, 606.8704
143.5250, 630.8345
144.0071, 657.0953
144.4893, 685.4752
144.9714, 716.0828
145.4535, 748.7742
145.9356, 785.0237
146.4177, 821.1579
146.8998, 857.7404
147.3820, 894.3456
147.8641, 930.8878
148.3462, 967.9261
148.8283, 1003.917
149.3104, 1038.418
149.7925, 1070.669
150.2747, 1102.169
150.7568, 1132.961
151.2389, 1162.954
151.7210, 1190.786
152.2031, 1215.555
152.6852, 1238.451
153.1674, 1260.481
153.6495, 1282.401
154.1316, 1302.480
154.6137, 1319.861
155.0958, 1334.497
155.5779, 1349.278
156.0601, 1365.689
156.5422, 1381.911
157.0243, 1396.187
157.5064, 1405.127
157.9885, 1414.965
158.4706, 1427.277
158.9528, 1442.214
159.4349, 1459.152
159.9170, 1479.959
160.3991, 1502.085
160.8812, 1522.585
161.3633, 1537.771
161.8455, 1553.424
162.3276, 1572.691
162.8097, 1596.380
163.2918, 1619.802
163.7739, 1640.562
164.2560, 1657.962
164.7382, 1663.403
165.2203, 1668.225
165.7024, 1672.339
166.1845, 1673.226
166.6666, 1670.071
167.1487, 1665.629
167.6309, 1661.656
168.1130, 1657.505
168.5951, 1651.867
169.0772, 1643.022
169.5593, 1632.999
170.0414, 1623.608
170.5236, 1615.465
171.0057, 1607.180
171.4878, 1597.353
171.9699, 1586.352
172.4520, 1575.537
172.9341, 1565.478
173.4163, 1555.953
173.8984, 1546.678
174.3805, 1537.374
174.8626, 1528.531
175.3447, 1520.631
175.8268, 1513.480
176.3090, 1506.204
176.7911, 1497.995
177.2732, 1489.350
177.7553, 1481.169
178.2374, 1473.811
178.7195, 1466.781
179.2017, 1459.575
179.6838, 1452.114
180.1659, 1444.349
180.6480, 1435.783
181.1301, 1426.836
181.6122, 1418.361
182.0944, 1411.093
182.5765, 1404.086
183.0586, 1395.175
183.5407, 1384.536
184.0228, 1373.751
184.5049, 1364.700
184.9871, 1356.851
185.4692, 1348.623
185.9513, 1339.166
186.4334, 1329.086
186.9155, 1319.383
187.3976, 1310.082
187.8798, 1301.387
188.3619, 1293.726
188.8440, 1286.921
189.3261, 1280.305
189.8082, 1273.392
190.2903, 1266.448
190.7725, 1260.494
191.2546, 1255.575
191.7367, 1250.998
192.2188, 1245.888
192.7009, 1240.224
193.1830, 1234.528
193.6652, 1229.043
194.1473, 1223.667
194.6294, 1217.792
195.1115, 1211.096
195.5936, 1204.935
196.0757, 1201.806
196.5579, 1201.838
197.0400, 1201.095
197.5221, 1197.535
198.0042, 1191.418
198.4863, 1186.445
198.9684, 1182.834
199.4506, 1179.959
199.9327, 1176.974
200.4148, 1173.834
200.8969, 1170.853
201.3790, 1168.148
201.8611, 1165.736
202.3433, 1163.450
202.8254, 1161.445
203.3075, 1159.274
203.7896, 1155.890
204.2717, 1150.907
204.7538, 1146.479
205.2360, 1143.884
205.7181, 1143.426
206.2002, 1141.773
206.6823, 1138.555
207.1644, 1134.579
207.6465, 1131.125
208.1287, 1128.087
208.6108, 1126.063
209.0929, 1125.791
209.5750, 1127.863
210.0571, 1128.438
210.5392, 1126.996
211.0214, 1124.576
211.5035, 1123.358
211.9856, 1123.678
212.4677, 1124.356
212.9498, 1125.121
213.4319, 1126.284
213.9140, 1125.995
214.3962, 1123.351
214.8783, 1119.806
215.3604, 1118.964
215.8425, 1121.719
216.3246, 1125.083
216.8067, 1127.789
217.2889, 1129.680
217.7710, 1131.291
218.2531, 1132.609
218.7352, 1133.624
219.2173, 1134.218
219.6994, 1133.938
220.1816, 1134.076
220.6637, 1135.221
221.1458, 1137.550
221.6279, 1140.513
222.1100, 1144.631
222.5921, 1149.206
223.0743, 1152.391
223.5564, 1153.532
224.0385, 1154.463
224.5206, 1155.947
225.0027, 1158.030
225.4848, 1160.671
225.9670, 1163.960
226.4491, 1167.770
226.9312, 1171.824
227.4133, 1176.022
227.8954, 1180.589
228.3775, 1185.595
228.8597, 1191.435
229.3418, 1196.835
229.8239, 1201.453
230.3060, 1205.672
230.7881, 1210.357
231.2702, 1215.288
231.7524, 1221.046
232.2345, 1228.025
232.7166, 1237.396
233.1987, 1245.390
233.6808, 1251.440
234.1629, 1256.219
234.6451, 1261.678
235.1272, 1268.274
235.6093, 1274.868
236.0914, 1281.020
236.5735, 1286.801
237.0556, 1291.931
237.5378, 1295.436
238.0199, 1298.627
238.5020, 1305.146
238.9841, 1317.695
239.4662, 1329.742
239.9483, 1338.376
240.4305, 1341.816
240.9126, 1345.752
241.3947, 1349.903
241.8768, 1354.606
242.3589, 1360.960
242.8410, 1370.332
243.3232, 1379.182
243.8053, 1385.617
244.2874, 1387.761
244.7695, 1392.200
245.2516, 1400.302
245.7337, 1410.180
246.2159, 1417.513
246.6980, 1421.070
247.1801, 1424.056
247.6622, 1427.894
248.1443, 1433.433
248.6264, 1437.375
249.1086, 1438.849
249.5907, 1439.203
250.0728, 1441.345
250.5549, 1446.414
251.0370, 1451.363
251.5191, 1455.212
252.0013, 1458.057
252.4834, 1459.174
252.9655, 1457.803
253.4476, 1455.118
253.9297, 1453.498
254.4118, 1454.068
254.8940, 1453.585
255.3761, 1450.613
255.8582, 1444.330
256.3403, 1438.966
256.8224, 1435.512
257.3046, 1432.235
257.7867, 1426.002
258.2688, 1415.194
258.7509, 1404.813
259.2330, 1396.994
259.7151, 1392.448
260.1973, 1385.982
260.6794, 1377.080
261.1615, 1366.941
261.6436, 1357.667
262.1257, 1349.866
262.6078, 1341.272
263.0900, 1331.198
263.5721, 1319.420
264.0542, 1307.210
264.5363, 1293.832
265.0184, 1280.724
265.5005, 1269.765
265.9827, 1262.233
266.4648, 1253.249
266.9469, 1240.694
267.4290, 1224.470
267.9111, 1211.554
268.3932, 1203.258
268.8754, 1196.367
269.3575, 1187.274
269.8396, 1175.433
270.3217, 1163.019
270.8038, 1150.237
271.2859, 1137.073
271.7681, 1125.477
272.2502, 1115.905
272.7323, 1106.975
273.2144, 1097.537
273.6965, 1087.437
274.1786, 1077.481
274.6608, 1067.801
275.1429, 1058.378
275.6250, 1048.643
276.1071, 1038.453
276.5892, 1028.409
277.0714, 1019.430
277.5535, 1011.592
278.0356, 1003.695
278.5177, 995.3787
278.9998, 986.8777
279.4819, 979.2386
279.9641, 972.5018
280.4462, 966.1947
280.9283, 960.0544
281.4104, 954.1535
281.8925, 947.9076
282.3746, 941.0720
282.8568, 933.9581
283.3389, 927.4977
283.8210, 921.7416
284.3031, 916.1827
284.7852, 910.2311
285.2673, 903.9864
285.7495, 898.5296
286.2316, 894.0364
286.7137, 890.2946
287.1958, 887.1687
287.6779, 884.6771
288.1600, 881.8795
288.6422, 877.9633
289.1243, 873.0609
289.6064, 868.5107
290.0885, 864.4358
290.5706, 860.5667
291.0527, 856.3537
291.5349, 851.8456
292.0170, 847.6351
292.4991, 844.3245
292.9812, 841.6361
293.4633, 838.6960
293.9454, 835.4493
294.4276, 831.9520
294.9097, 828.1105
295.3918, 824.0157
295.8739, 820.2142
296.3560, 816.9415
296.8381, 814.1575
297.3203, 812.0443
297.8024, 810.6752
298.2845, 809.3240
298.7666, 806.9882
299.2487, 804.0070
299.7308, 801.3602
300.2130, 799.4698
300.6951, 798.1557
301.1772, 796.9293
301.6593, 795.7985
302.1414, 795.4702
302.6235, 797.2012
303.1057, 800.1778
303.5878, 802.8380
304.0699, 806.1221
304.5520, 807.7133
305.0341, 803.6464
305.5162, 794.5430
305.9984, 785.4185
306.4805, 777.9464
306.9626, 773.2396
307.4447, 773.6522
307.9268, 783.6016
308.4089, 793.7485
308.8911, 795.2607
309.3732, 789.6250
309.8553, 782.9804
310.3374, 777.5995
310.8195, 773.5867
311.3016, 771.4745
311.7838, 772.3821
312.2659, 773.0342
312.7480, 770.4979
313.2301, 766.0068
313.7122, 762.5632
314.1943, 762.0036
314.6765, 762.7034
315.1586, 763.6797
315.6407, 764.9403
316.1228, 765.9606
316.6049, 766.6000
317.0870, 766.8127
317.5692, 766.5181
318.0513, 765.1561
318.5334, 763.6970
319.0155, 762.6788
319.4976, 762.2083
319.9797, 761.5540
320.4619, 759.8496
320.9440, 758.0261
321.4261, 757.1448
321.9082, 758.7930
322.3903, 760.1052
322.8724, 760.1412
323.3546, 758.8541
323.8367, 757.2714
324.3188, 755.1078
324.8009, 752.9929
325.2830, 751.4346
325.7651, 750.8983
326.2473, 750.4852
326.7294, 750.3164
327.2115, 750.3107
327.6936, 749.7709
328.1757, 748.0132
328.6578, 746.2033
329.1400, 744.9228
329.6221, 744.9551
330.1042, 744.4672
330.5863, 743.1927
331.0684, 741.3660
331.5505, 739.6777
332.0327, 737.7728
332.5148, 736.3839
332.9969, 735.9630
333.4790, 737.2033
333.9611, 737.4666
334.4432, 736.4392
334.9254, 734.5997
335.4075, 732.7089
335.8896, 730.5762
336.3717, 728.7607
336.8538, 727.5548
337.3359, 727.0322
337.8180, 726.2725
338.3001, 725.2718
338.7823, 724.0599
339.2644, 722.6041
339.7465, 720.7932
340.2286, 719.2233
340.7107, 718.1768
341.1928, 717.5147
341.6750, 716.2350
342.1571, 714.1126
342.6392, 712.1188
343.1213, 711.2283
343.6034, 711.4628
344.0855, 711.3854
344.5677, 710.7479
345.0498, 709.6660
345.5319, 708.4208
346.0140, 707.0133
346.4961, 705.4278
346.9782, 703.4933
347.4604, 701.3192
347.9425, 699.4941
348.4246, 698.0569
348.9067, 697.0027
349.3888, 696.6778
349.8709, 696.9001
350.3531, 696.6191
350.8352, 694.7779
351.3173, 692.2061
351.7994, 690.4067
352.2815, 689.4500
352.7636, 689.1707
353.2458, 690.1158
353.7279, 691.6154
354.2100, 692.2020
354.6921, 690.4030
355.1742, 688.0394
355.6563, 687.3206
356.1385, 688.0740
356.6206, 688.5079
357.1027, 686.7849
357.5848, 684.2732
358.0669, 682.6151
358.5490, 682.7093
359.0312, 683.0555
359.5133, 682.7403
359.9954, 681.9032
360.4775, 680.9859
360.9596, 680.0286
361.4417, 679.1706
361.9239, 678.5752
362.4060, 678.4446
362.8881, 678.0471
363.3702, 676.7487
363.8523, 675.0778
364.3344, 673.8449
364.8166, 674.1266
365.2987, 674.1263
365.7808, 672.7723
366.2629, 669.7299
366.7450, 667.8148
367.2271, 668.5756
367.7093, 670.1205
368.1914, 670.7874
368.6735, 669.9496
369.1556, 668.7653
369.6377, 667.2205
370.1198, 665.3703
370.6020, 663.7640
371.0841, 662.1563
371.5662, 661.0165
372.0483, 660.7020
372.5304, 662.0992
373.0125, 662.5216
373.4947, 660.9633
373.9768, 658.7283
374.4589, 659.3993
374.9410, 665.1619
375.4231, 669.3074
375.9052, 668.6638
376.3874, 662.3814
376.8695, 657.9932
377.3516, 655.7375
377.8337, 654.9066
378.3158, 654.7864
378.7979, 655.4802
379.2801, 656.1353
379.7622, 656.5450
380.2443, 656.7328
380.7264, 656.8278
381.2085, 656.8333
381.6906, 656.6917
382.1728, 656.3194
382.6549, 655.7350
383.1370, 655.0462
383.6191, 654.1707
384.1012, 653.3605
384.5833, 653.1668
385.0655, 653.5065
385.5476, 653.7528
386.0297, 653.3905
386.5118, 652.7295
386.9939, 652.3557
387.4760, 652.3494
387.9582, 652.4224
388.4403, 652.2293
388.9224, 651.9169
389.4045, 651.7888
389.8866, 652.7493
390.3687, 653.4109
390.8509, 652.0869
391.3330, 648.9758
391.8151, 646.2706
392.2972, 645.4210
392.7793, 645.5547
393.2614, 645.8475
393.7436, 646.0690
394.2257, 646.4329
394.7078, 647.2361
395.1899, 648.2713
395.6720, 648.9916
396.1541, 648.9623
396.6363, 648.7977
397.1184, 648.8543
397.6005, 649.3634
398.0826, 649.4967
398.5647, 648.7474
399.0468, 647.6915
399.5290, 647.0258
400.0111, 647.3283
400.4932, 647.4483
400.9753, 646.9493
401.4574, 645.8347
401.9395, 645.5682
402.4217, 646.7572
402.9038, 648.1399
403.3859, 648.8371
403.8680, 648.4713
404.3501, 648.3190
404.8322, 648.5667
405.3144, 649.0266
405.7965, 649.1972
406.2786, 649.0342
406.7607, 648.7317
407.2428, 648.3231
407.7249, 647.7995
408.2071, 647.3659
408.6892, 646.9814
409.1713, 646.7884
409.6534, 647.1215
410.1355, 647.9449
410.6176, 648.4966
411.0998, 648.2889
411.5819, 647.8418
412.0640, 648.7518
412.5461, 650.9502
413.0282, 652.8627
413.5103, 652.7980
413.9925, 651.6194
414.4746, 651.1914
414.9567, 651.9886
415.4388, 653.0870
415.9209, 653.3568
416.4030, 653.1603
416.8852, 653.4077
417.3673, 654.7174
417.8494, 656.5494
418.3315, 658.6533
418.8136, 660.9997
419.2957, 663.0936
419.7779, 664.4113
420.2600, 665.4254
420.7421, 666.5872
421.2242, 667.7267
421.7063, 669.3701
422.1884, 672.1308
422.6706, 675.6507
423.1527, 678.6744
423.6348, 680.6271
424.1169, 682.2236
424.5990, 683.6824
425.0811, 684.5649
425.5633, 686.3663
426.0454, 689.3093
426.5275, 693.1009
427.0096, 697.4773
427.4917, 702.8163
427.9738, 708.1414
428.4560, 713.3144
428.9381, 718.3661
429.4202, 722.9694
429.9023, 726.8203
430.3844, 730.6671
430.8665, 734.9069
431.3487, 739.4991
431.8308, 744.7040
432.3129, 750.5231
432.7950, 756.9659
433.2771, 764.3411
433.7592, 772.6417
434.2414, 780.3001
434.7235, 786.3090
435.2056, 791.0286
435.6877, 795.9650
436.1698, 801.1259
436.6519, 806.1182
437.1341, 810.6041
437.6162, 814.5436
438.0983, 817.9503
438.5804, 820.8154
439.0625, 823.1672
439.5446, 825.1335
440.0268, 826.6495
440.5089, 827.4634
440.9910, 827.2828
441.4731, 826.4330
441.9552, 825.1733
442.4373, 823.5460
442.9195, 821.5526
443.4016, 819.0488
443.8837, 816.2335
444.3658, 813.3479
444.8479, 809.9730
445.3300, 807.0352
445.8122, 805.0858
446.2943, 804.0008
446.7764, 802.5123
447.2585, 800.2494
447.7406, 797.6781
448.2227, 794.9918
448.7049, 792.1332
449.1870, 789.3182
449.6691, 786.5059
450.1512, 783.7688
450.6333, 781.4238
451.1154, 780.0577
451.5976, 777.7324
452.0797, 773.6310
452.5618, 767.9073
453.0439, 763.2299
453.5260, 760.0538
454.0081, 756.7827
454.4903, 751.7909
454.9724, 745.1556
455.4545, 739.4977
455.9366, 735.3704
456.4187, 731.9589
456.9008, 728.0948
457.3830, 723.7594
457.8651, 719.2651
458.3472, 714.0888
458.8293, 708.9945
459.3114, 705.6003
459.7935, 703.9275
460.2757, 702.3223
460.7578, 699.3036
461.2399, 695.6025
461.7220, 692.2040
462.2041, 689.2139
462.6862, 686.7696
463.1684, 684.9872
463.6505, 683.7982
464.1326, 683.0942
464.6147, 683.8400
465.0968, 684.2166
465.5789, 683.0960
466.0611, 680.2021
466.5432, 677.3876
467.0253, 674.6096
467.5074, 672.2916
467.9895, 670.8057
468.4716, 671.1074
468.9538, 671.0196
469.4359, 670.4433
469.9180, 669.3986
470.4001, 667.8140
470.8822, 665.2391
471.3643, 662.9672
471.8465, 661.5482
472.3286, 661.0471
472.8107, 660.9422
473.2928, 661.4590
473.7749, 661.8611
474.2570, 661.0629
474.7392, 659.0817
475.2213, 657.6210
475.7034, 657.1740
476.1855, 657.3082
476.6676, 657.0477
477.1497, 656.4561
477.6319, 656.1579
478.1140, 656.7804
478.5961, 657.8459
479.0782, 658.6979
479.5603, 659.3109
480.0424, 659.3620
480.5246, 657.6991
481.0067, 655.5434
481.4888, 654.6751
481.9709, 657.0213
482.4530, 659.2100
482.9352, 659.1041
483.4173, 657.3619
483.8994, 656.0673
484.3815, 656.1213
484.8636, 656.6186
485.3457, 657.1906
485.8279, 657.8555
486.3100, 658.4075
486.7921, 659.0271
487.2742, 659.4166
487.7563, 659.2500
488.2384, 657.8508
488.7206, 657.1096
489.2027, 657.5632
489.6848, 658.7773
490.1669, 659.0345
490.6490, 657.9270
491.1311, 657.1136
491.6133, 657.5311
492.0954, 659.1605
492.5775, 660.8041
493.0596, 662.6096
493.5417, 663.7728
494.0238, 662.6984
494.5060, 659.9807
494.9881, 658.5065
495.4702, 659.3949
495.9523, 661.2353
496.4344, 662.0959
496.9165, 662.1781
497.3987, 662.2402
497.8808, 662.5531
498.3629, 663.1361
498.8450, 664.2792
499.3271, 666.0549
499.8092, 667.2067
500.2914, 666.2512
500.7735, 664.7452
501.2556, 664.1527
501.7377, 665.7375
502.2198, 667.1779
502.7019, 667.9672
503.1841, 668.2477
503.6662, 668.4255
504.1483, 668.6508
504.6304, 668.6483
505.1125, 668.2058
505.5946, 667.2513
506.0768, 666.8602
506.5589, 667.2413
507.0410, 667.8989
507.5231, 668.4460
508.0052, 668.8633
508.4873, 669.3597
508.9695, 670.0185
509.4516, 670.6660
509.9337, 670.8786
510.4158, 670.6815
510.8979, 670.5728
511.3800, 670.8918
511.8622, 671.4022
512.3443, 671.4206
512.8264, 670.9799
513.3085, 670.7772
513.7906, 671.8473
514.2728, 673.2790
514.7549, 673.7254
515.2370, 672.5704
515.7191, 671.5216
516.2012, 671.6933
516.6833, 672.6582
517.1655, 673.7586
517.6476, 675.3709
518.1297, 676.5095
518.6118, 676.3174
519.0939, 674.9946
519.5760, 674.7781
520.0582, 677.0614
520.5403, 679.5500
521.0224, 681.2864
521.5045, 682.1278
521.9866, 682.5872
522.4688, 682.3481
522.9509, 682.0656
523.4330, 682.8201
523.9151, 684.9700
524.3972, 686.0514
524.8793, 685.1593
525.3615, 683.1776
525.8436, 682.3411
526.3257, 682.6417
526.8078, 683.5186
527.2899, 685.0034
527.7720, 686.7799
528.2542, 688.2038
528.7363, 689.2545
529.2184, 689.7925
529.7005, 689.3304
530.1826, 688.3956
530.6647, 687.6836
531.1469, 687.3683
531.6290, 687.3597
532.1111, 687.8292
532.5932, 688.5565
533.0753, 689.0905
533.5574, 688.8251
534.0396, 688.7976
534.5217, 689.6653
535.0038, 691.5197
535.4859, 692.4330
535.9680, 691.6064
536.4501, 690.5557
536.9323, 690.1508
537.4144, 690.6177
537.8965, 691.1014
538.3786, 691.6059
538.8607, 692.1039
539.3428, 692.6270
539.8250, 693.2111
540.3071, 693.3887
540.7892, 692.7748
541.2713, 691.8809
541.7534, 692.1436
542.2355, 693.4682
542.7177, 694.8117
543.1998, 695.5608
543.6819, 695.9045
544.1640, 696.0496
544.6461, 696.0010
545.1282, 696.0131
545.6104, 696.2578
546.0925, 696.6595
546.5746, 697.1414
547.0567, 697.7689
547.5388, 698.3419
548.0209, 698.5653
548.5031, 698.6874
548.9852, 699.2606
549.4673, 701.3882
549.9494, 702.8782
550.4315, 702.8988
550.9136, 701.4600
551.3958, 700.8026
551.8779, 701.3094
552.3600, 701.9581
552.8421, 702.0693
553.3242, 701.5750
553.8063, 701.1039
554.2885, 700.5717
554.7706, 700.3713
555.2527, 701.2971
555.7348, 703.1579
556.2169, 704.7991
556.6990, 705.9736
557.1812, 706.6074
557.6633, 706.2685
558.1454, 705.1960
558.6275, 704.2869
559.1096, 704.2287
559.5917, 704.4339
560.0739, 704.2540
560.5560, 703.6319
561.0381, 703.6140
561.5202, 705.4447
562.0023, 707.5439
562.4844, 708.7396
562.9666, 708.5024
563.4487, 707.8581
563.9308, 706.3765
564.4129, 704.7389
564.8950, 704.0967
565.3771, 705.0615
565.8593, 705.6163
566.3414, 705.1567
566.8235, 703.9543
567.3056, 703.2825
567.7877, 703.2109
568.2698, 703.1594
568.7520, 702.4291
569.2341, 701.3918
569.7162, 701.8555
570.1983, 703.9797
570.6804, 705.8672
571.1625, 705.3353
571.6447, 703.4802
572.1268, 702.0646
572.6089, 701.6034
573.0910, 701.4566
573.5731, 701.1349
574.0552, 700.8585
574.5374, 701.0026
575.0195, 702.7784
575.5016, 703.9072
575.9837, 703.2861
576.4658, 701.0711
576.9479, 699.3248
577.4301, 697.9679
577.9122, 697.2659
578.3943, 697.4633
578.8764, 698.7646
579.3585, 699.8280
579.8406, 700.6117
580.3228, 701.2469
580.8049, 701.8887
581.2870, 702.5214
581.7691, 702.8972
582.2512, 702.8362
582.7333, 702.7943
583.2155, 703.6445
583.6975, 705.1032
584.1796, 706.3398
584.6617, 706.8499
585.1439, 707.0214
585.6260, 706.9095
586.1081, 706.6508
586.5902, 706.9437
587.0723, 708.2961
587.5544, 710.1450
588.0366, 712.4731
588.5187, 715.6275
589.0008, 717.6502
589.4829, 716.7307
589.9650, 715.6747
590.4471, 716.7501
590.9293, 721.4393
591.4114, 724.8380
591.8935, 726.4491
592.3756, 726.8857
592.8577, 726.8566
593.3398, 726.2800
593.8220, 726.7326
594.3041, 729.2087
594.7862, 732.6713
595.2683, 734.3762
595.7504, 734.5820
596.2325, 735.2953
596.7147, 738.7330
597.1968, 742.8450
597.6789, 744.8553
598.1610, 744.5275
598.6431, 744.9262
599.1252, 748.5944
599.6074, 753.2237
600.0895, 756.8949
600.5716, 758.4586
601.0537, 760.4828
601.5358, 763.7075
602.0179, 767.4402
602.5001, 770.8079
602.9822, 773.7304
603.4643, 776.3919
603.9464, 778.8668
604.4285, 781.0840
604.9106, 782.8707
605.3928, 784.1827
605.8749, 785.2414
606.3570, 786.1903
606.8391, 786.9521
607.3212, 787.4886
607.8033, 787.7736
608.2855, 787.2196
608.7676, 784.4564
609.2497, 780.9750
609.7318, 779.0645
610.2139, 779.4945
610.6960, 779.2360
611.1782, 775.7156
611.6603, 771.0554
612.1424, 767.4680
612.6245, 766.4656
613.1066, 765.3958
613.5887, 763.6895
614.0709, 761.7365
614.5530, 760.3078
615.0351, 759.6822
615.5172, 759.0262
615.9993, 757.9921
