##NAMES=Pseudomalachite
##RRUFFID=R040175
##IDEAL CHEMISTRY=Cu^2+^_5_(P^5+^O_4_)_2_(OH)_4_
##LOCALITY=West Bogan mine, Tottenham, Australia
##OWNER=RRUFF
##SOURCE=University of Arizona Mineral Museum
##DESCRIPTION=Green massive in a botryoidal shape
##STATUS=The identification of this mineral has been confirmed by X-ray diffraction and chemical analysis
##URL=rruff.info/R040175
##MEASURED CHEMISTRY=Cu_5.00_(P_1.00_O_4_)_2_(OH_.98_F_.02_)_4_
166.3384, 1361.596
166.8205, 1367.276
167.3026, 1370.891
167.7847, 1369.971
168.2668, 1367.528
168.7490, 1371.216
169.2311, 1384.428
169.7132, 1396.075
170.1953, 1397.932
170.6774, 1394.839
171.1595, 1394.463
171.6417, 1401.674
172.1238, 1413.272
172.6059, 1421.686
173.0880, 1427.317
173.5701, 1428.484
174.0522, 1419.103
174.5344, 1406.307
175.0165, 1401.248
175.4986, 1411.946
175.9807, 1432.245
176.4628, 1444.794
176.9449, 1445.261
177.4271, 1445.695
177.9092, 1452.309
178.3913, 1461.367
178.8734, 1467.699
179.3555, 1468.452
179.8376, 1465.229
180.3197, 1461.982
180.8019, 1455.652
181.2840, 1455.324
181.7661, 1468.652
182.2482, 1487.135
182.7303, 1499.395
183.2124, 1498.602
183.6946, 1490.243
184.1767, 1491.336
184.6588, 1511.354
185.1409, 1523.970
185.6230, 1516.645
186.1051, 1501.302
186.5873, 1492.416
187.0694, 1497.622
187.5515, 1510.499
188.0336, 1513.591
188.5157, 1500.856
188.9978, 1488.156
189.4800, 1478.158
189.9621, 1470.351
190.4442, 1464.499
190.9263, 1460.705
191.4084, 1457.966
191.8905, 1453.137
192.3727, 1441.625
192.8548, 1436.709
193.3369, 1446.158
193.8190, 1459.498
194.3011, 1465.439
194.7832, 1459.375
195.2654, 1448.020
195.7475, 1446.619
196.2296, 1462.823
196.7117, 1474.795
197.1938, 1479.485
197.6759, 1479.690
198.1581, 1476.728
198.6402, 1471.203
199.1223, 1464.976
199.6044, 1460.934
200.0865, 1457.061
200.5686, 1460.195
201.0508, 1477.769
201.5329, 1497.036
202.0150, 1507.261
202.4971, 1505.812
202.9792, 1498.878
203.4613, 1496.381
203.9435, 1500.532
204.4256, 1504.323
204.9077, 1507.523
205.3898, 1510.250
205.8719, 1513.307
206.3540, 1516.531
206.8362, 1518.193
207.3183, 1514.741
207.8004, 1501.646
208.2825, 1495.342
208.7646, 1501.551
209.2467, 1509.326
209.7289, 1514.551
210.2110, 1515.564
210.6931, 1510.620
211.1752, 1494.967
211.6573, 1461.974
212.1395, 1443.462
212.6216, 1449.895
213.1037, 1460.789
213.5858, 1468.008
214.0679, 1470.514
214.5500, 1470.663
215.0322, 1470.893
215.5143, 1471.650
215.9964, 1469.360
216.4785, 1462.542
216.9606, 1454.097
217.4427, 1443.060
217.9249, 1430.957
218.4070, 1421.127
218.8891, 1416.565
219.3712, 1417.399
219.8533, 1418.902
220.3354, 1420.615
220.8176, 1423.530
221.2997, 1428.539
221.7818, 1434.986
222.2639, 1442.149
222.7460, 1450.157
223.2281, 1458.416
223.7103, 1459.842
224.1924, 1448.614
224.6745, 1436.236
225.1566, 1420.294
225.6387, 1405.595
226.1208, 1400.859
226.6030, 1412.671
227.0851, 1434.672
227.5672, 1439.191
228.0493, 1406.735
228.5314, 1382.528
229.0135, 1375.424
229.4957, 1379.662
229.9778, 1390.681
230.4599, 1406.798
230.9420, 1423.810
231.4241, 1430.582
231.9062, 1419.044
232.3884, 1410.762
232.8705, 1407.518
233.3526, 1408.679
233.8347, 1415.388
234.3168, 1427.714
234.7989, 1441.299
235.2811, 1448.286
235.7632, 1445.959
236.2453, 1443.278
236.7274, 1438.194
237.2095, 1434.934
237.6916, 1437.326
238.1738, 1445.665
238.6559, 1456.080
239.1380, 1464.132
239.6201, 1469.621
240.1022, 1473.419
240.5843, 1475.615
241.0665, 1476.082
241.5486, 1472.373
242.0307, 1465.828
242.5128, 1461.920
242.9949, 1467.682
243.4770, 1484.386
243.9592, 1495.539
244.4413, 1498.438
244.9234, 1497.816
245.4055, 1491.452
245.8876, 1482.544
246.3697, 1478.825
246.8519, 1488.841
247.3340, 1510.053
247.8161, 1517.929
248.2982, 1498.279
248.7803, 1484.139
249.2624, 1490.974
249.7446, 1509.703
250.2267, 1525.441
250.7088, 1529.985
251.1909, 1526.742
251.6730, 1525.116
252.1551, 1524.636
252.6373, 1526.965
253.1194, 1537.871
253.6015, 1549.443
254.0836, 1551.732
254.5657, 1539.840
255.0478, 1522.483
255.5300, 1513.887
256.0121, 1516.348
256.4942, 1518.998
256.9763, 1520.110
257.4584, 1519.441
257.9406, 1516.044
258.4227, 1509.634
258.9048, 1502.599
259.3869, 1497.754
259.8690, 1495.232
260.3511, 1491.273
260.8333, 1480.934
261.3154, 1472.935
261.7975, 1475.054
262.2796, 1486.913
262.7617, 1499.140
263.2438, 1506.913
263.7260, 1509.998
264.2081, 1505.854
264.6902, 1489.480
265.1723, 1473.092
265.6544, 1466.230
266.1365, 1466.704
266.6187, 1467.640
267.1008, 1465.796
267.5829, 1462.220
268.0650, 1458.768
268.5471, 1455.153
269.0292, 1452.759
269.5114, 1455.340
269.9935, 1459.609
270.4756, 1459.273
270.9577, 1448.142
271.4398, 1435.488
271.9219, 1433.729
272.4041, 1443.242
272.8862, 1450.493
273.3683, 1448.137
273.8504, 1439.318
274.3325, 1430.428
274.8146, 1420.562
275.2968, 1412.785
275.7789, 1408.551
276.2610, 1407.945
276.7431, 1411.791
277.2252, 1421.494
277.7073, 1434.422
278.1895, 1448.284
278.6716, 1465.563
279.1537, 1473.717
279.6358, 1460.677
280.1179, 1437.197
280.6000, 1421.271
281.0822, 1416.857
281.5643, 1420.060
282.0464, 1429.744
282.5285, 1447.102
283.0106, 1454.956
283.4927, 1440.182
283.9749, 1422.160
284.4570, 1422.691
284.9391, 1441.870
285.4212, 1457.354
285.9033, 1448.632
286.3854, 1416.267
286.8676, 1398.271
287.3497, 1404.837
287.8318, 1414.417
288.3139, 1416.629
288.7960, 1413.360
289.2781, 1411.082
289.7603, 1413.616
290.2424, 1419.457
290.7245, 1422.188
291.2066, 1422.343
291.6887, 1419.040
292.1708, 1406.809
292.6530, 1392.917
293.1351, 1387.510
293.6172, 1394.017
294.0993, 1406.349
294.5814, 1413.689
295.0635, 1412.560
295.5457, 1412.744
296.0278, 1414.093
296.5099, 1416.733
296.9920, 1423.661
297.4741, 1433.464
297.9562, 1438.479
298.4384, 1428.765
298.9205, 1400.205
299.4026, 1385.835
299.8847, 1398.054
300.3668, 1411.604
300.8489, 1417.961
301.3311, 1418.874
301.8131, 1419.818
302.2953, 1424.567
302.7774, 1432.080
303.2595, 1437.082
303.7416, 1439.226
304.2237, 1439.005
304.7058, 1436.028
305.1880, 1431.265
305.6701, 1425.029
306.1522, 1417.338
306.6343, 1410.147
307.1164, 1406.640
307.5985, 1407.213
308.0807, 1410.074
308.5628, 1419.794
309.0449, 1428.292
309.5270, 1429.189
310.0091, 1422.489
310.4912, 1415.099
310.9734, 1414.952
311.4555, 1420.912
311.9376, 1418.184
312.4197, 1393.984
312.9018, 1378.734
313.3839, 1401.380
313.8661, 1447.636
314.3482, 1479.682
314.8303, 1473.352
315.3124, 1445.573
315.7945, 1424.438
316.2766, 1410.366
316.7588, 1400.547
317.2409, 1393.383
317.7230, 1390.033
318.2051, 1393.167
318.6872, 1406.738
319.1693, 1420.425
319.6515, 1425.839
320.1336, 1424.488
320.6157, 1423.166
321.0978, 1424.069
321.5799, 1426.103
322.0620, 1426.561
322.5442, 1424.268
323.0263, 1426.673
323.5084, 1443.081
323.9905, 1462.329
324.4726, 1467.849
324.9547, 1456.949
325.4369, 1442.819
325.9190, 1438.299
326.4011, 1444.604
326.8832, 1447.300
327.3653, 1444.918
327.8474, 1440.465
328.3296, 1432.659
328.8117, 1423.786
329.2938, 1420.836
329.7759, 1428.807
330.2580, 1444.243
330.7401, 1451.182
331.2223, 1437.388
331.7044, 1430.284
332.1865, 1439.410
332.6686, 1453.528
333.1507, 1460.131
333.6328, 1455.567
334.1150, 1445.601
334.5971, 1438.636
335.0792, 1435.902
335.5613, 1433.008
336.0434, 1423.940
336.5255, 1419.930
337.0077, 1431.374
337.4898, 1454.097
337.9719, 1474.461
338.4540, 1481.184
338.9361, 1475.746
339.4182, 1471.010
339.9004, 1464.708
340.3825, 1462.910
340.8646, 1468.205
341.3467, 1478.090
341.8288, 1490.629
342.3109, 1505.962
342.7931, 1519.758
343.2752, 1522.790
343.7573, 1512.576
344.2394, 1509.709
344.7215, 1526.149
345.2036, 1546.221
345.6858, 1558.996
346.1679, 1563.786
346.6500, 1562.044
347.1321, 1546.427
347.6142, 1525.068
348.0963, 1523.266
348.5785, 1548.408
349.0606, 1577.897
349.5427, 1593.235
350.0248, 1598.603
350.5069, 1605.891
350.9890, 1621.046
351.4712, 1635.832
351.9533, 1643.386
352.4354, 1644.506
352.9175, 1642.864
353.3996, 1638.996
353.8817, 1634.797
354.3639, 1635.628
354.8460, 1642.219
355.3281, 1650.807
355.8102, 1663.015
356.2923, 1675.686
356.7744, 1683.385
357.2566, 1685.424
357.7387, 1688.285
358.2208, 1700.206
358.7029, 1724.360
359.1850, 1739.575
359.6671, 1743.299
360.1493, 1742.106
360.6314, 1734.878
361.1135, 1725.187
361.5956, 1720.398
362.0777, 1725.419
362.5598, 1736.512
363.0420, 1739.684
363.5241, 1728.627
364.0062, 1719.501
364.4883, 1717.361
364.9704, 1715.806
365.4525, 1708.227
365.9347, 1693.774
366.4168, 1678.514
366.8989, 1671.720
367.3810, 1674.390
367.8631, 1667.055
368.3452, 1639.746
368.8274, 1613.177
369.3095, 1598.205
369.7916, 1591.911
370.2737, 1586.883
370.7558, 1578.456
371.2379, 1570.272
371.7201, 1570.588
372.2022, 1580.630
372.6843, 1587.214
373.1664, 1583.016
373.6485, 1573.056
374.1306, 1565.041
374.6128, 1559.306
375.0949, 1555.117
375.5770, 1553.461
376.0591, 1552.899
376.5412, 1550.386
377.0233, 1545.185
377.5055, 1538.950
377.9876, 1533.233
378.4697, 1528.118
378.9518, 1522.995
379.4339, 1517.414
379.9160, 1512.242
380.3982, 1508.500
380.8803, 1505.669
381.3624, 1502.518
381.8445, 1498.455
382.3266, 1493.371
382.8087, 1486.755
383.2909, 1474.596
383.7730, 1466.411
384.2551, 1462.337
384.7372, 1462.276
385.2193, 1469.192
385.7014, 1481.761
386.1836, 1491.978
386.6657, 1490.372
387.1478, 1476.165
387.6299, 1465.295
388.1120, 1460.628
388.5941, 1456.082
389.0763, 1445.973
389.5584, 1435.528
390.0405, 1434.281
390.5226, 1448.152
391.0047, 1467.342
391.4868, 1475.774
391.9690, 1472.255
392.4511, 1468.902
392.9332, 1468.070
393.4153, 1469.411
393.8974, 1473.569
394.3795, 1480.454
394.8617, 1485.253
395.3438, 1483.380
395.8259, 1478.686
396.3080, 1477.913
396.7901, 1481.802
397.2722, 1486.741
397.7544, 1490.831
398.2365, 1493.830
398.7186, 1495.190
399.2007, 1495.024
399.6828, 1493.154
400.1649, 1486.928
400.6471, 1479.547
401.1292, 1476.353
401.6113, 1479.111
402.0934, 1486.118
402.5755, 1495.976
403.0576, 1513.098
403.5398, 1518.546
404.0219, 1502.352
404.5040, 1485.473
404.9861, 1478.095
405.4682, 1479.122
405.9503, 1483.383
406.4325, 1487.710
406.9146, 1492.568
407.3967, 1500.146
407.8788, 1513.575
408.3609, 1523.151
408.8430, 1526.815
409.3252, 1526.443
409.8073, 1521.234
410.2894, 1511.746
410.7715, 1504.426
411.2536, 1505.364
411.7357, 1513.417
412.2179, 1523.794
412.7000, 1538.153
413.1821, 1550.019
413.6642, 1552.484
414.1463, 1549.370
414.6284, 1547.787
415.1106, 1549.102
415.5927, 1552.230
416.0748, 1555.509
416.5569, 1559.835
417.0390, 1569.632
417.5211, 1587.791
418.0033, 1606.628
418.4854, 1613.581
418.9675, 1603.303
419.4496, 1599.199
419.9317, 1608.562
420.4138, 1618.973
420.8960, 1618.837
421.3781, 1611.670
421.8602, 1611.340
422.3423, 1627.854
422.8244, 1655.941
423.3065, 1672.729
423.7887, 1672.679
424.2708, 1669.239
424.7529, 1658.897
425.2350, 1649.356
425.7171, 1647.348
426.1992, 1653.511
426.6814, 1663.122
427.1635, 1672.876
427.6456, 1682.666
428.1277, 1689.696
428.6098, 1691.518
429.0919, 1695.305
429.5741, 1706.821
430.0562, 1722.084
430.5383, 1735.332
431.0204, 1745.098
431.5025, 1752.852
431.9846, 1760.439
432.4668, 1767.133
432.9489, 1769.567
433.4310, 1766.013
433.9131, 1760.928
434.3952, 1759.532
434.8773, 1762.218
435.3595, 1765.027
435.8416, 1768.806
436.3237, 1771.709
436.8058, 1771.379
437.2879, 1769.224
437.7701, 1768.482
438.2522, 1770.727
438.7343, 1775.976
439.2164, 1784.890
439.6985, 1804.034
440.1806, 1814.753
440.6628, 1811.035
441.1449, 1804.633
441.6270, 1804.132
442.1091, 1808.532
442.5912, 1810.073
443.0733, 1799.981
443.5555, 1783.632
444.0376, 1785.092
444.5197, 1813.446
445.0018, 1834.074
445.4839, 1822.823
445.9660, 1802.974
446.4482, 1799.841
446.9303, 1819.029
447.4124, 1834.788
447.8945, 1829.275
448.3766, 1809.554
448.8587, 1787.190
449.3409, 1762.900
449.8230, 1746.573
450.3051, 1749.912
450.7872, 1769.768
451.2693, 1774.126
451.7514, 1747.681
452.2336, 1724.802
452.7157, 1720.046
453.1978, 1724.459
453.6799, 1726.765
454.1620, 1723.326
454.6441, 1714.698
455.1263, 1699.851
455.6084, 1675.701
456.0905, 1662.930
456.5726, 1670.976
457.0547, 1681.415
457.5368, 1692.973
458.0190, 1702.295
458.5011, 1703.272
458.9832, 1691.997
459.4653, 1678.005
459.9474, 1675.964
460.4295, 1686.074
460.9117, 1695.030
461.3938, 1700.521
461.8759, 1703.834
462.3580, 1705.310
462.8401, 1705.395
463.3222, 1706.548
463.8044, 1710.660
464.2865, 1715.164
464.7686, 1717.418
465.2507, 1717.957
465.7328, 1719.070
466.2149, 1721.788
466.6971, 1725.399
467.1792, 1728.112
467.6613, 1726.438
468.1434, 1731.896
468.6255, 1750.140
469.1076, 1770.469
469.5898, 1787.933
470.0719, 1801.619
470.5540, 1811.083
471.0361, 1815.851
471.5182, 1816.939
472.0003, 1816.484
472.4825, 1812.287
472.9646, 1812.592
473.4467, 1826.709
473.9288, 1840.441
474.4109, 1843.283
474.8930, 1835.570
475.3752, 1826.875
475.8573, 1823.998
476.3394, 1823.111
476.8215, 1815.702
477.3036, 1801.532
477.7857, 1791.568
478.2679, 1792.217
478.7500, 1799.783
479.2321, 1806.481
479.7142, 1815.630
480.1963, 1816.322
480.6784, 1801.250
481.1606, 1780.345
481.6427, 1760.339
482.1248, 1743.019
482.6069, 1730.334
483.0890, 1724.136
483.5711, 1723.211
484.0533, 1720.866
484.5354, 1718.231
485.0175, 1712.022
485.4996, 1696.754
485.9817, 1681.701
486.4638, 1677.309
486.9460, 1683.006
487.4281, 1685.501
487.9102, 1670.568
488.3923, 1644.624
488.8744, 1627.454
489.3565, 1620.206
489.8387, 1616.112
490.3208, 1612.213
490.8029, 1609.358
491.2850, 1609.350
491.7671, 1613.491
492.2492, 1616.670
492.7314, 1617.811
493.2135, 1616.715
493.6956, 1612.842
494.1777, 1606.323
494.6598, 1597.678
495.1419, 1586.708
495.6241, 1574.363
496.1062, 1566.668
496.5883, 1568.164
497.0704, 1568.133
497.5525, 1560.608
498.0346, 1554.539
498.5168, 1560.748
498.9989, 1578.247
499.4810, 1593.064
499.9631, 1592.151
500.4452, 1579.406
500.9273, 1568.248
501.4095, 1557.706
501.8916, 1553.288
502.3737, 1562.207
502.8558, 1575.898
503.3379, 1580.535
503.8200, 1574.036
504.3022, 1566.217
504.7843, 1560.008
505.2664, 1554.829
505.7485, 1550.051
506.2306, 1545.654
506.7127, 1541.950
507.1949, 1538.942
507.6770, 1537.030
508.1591, 1538.179
508.6412, 1548.805
509.1233, 1552.871
509.6054, 1543.259
510.0876, 1531.948
510.5697, 1529.279
511.0518, 1534.213
511.5339, 1537.196
512.0161, 1530.050
512.4982, 1516.881
512.9803, 1508.051
513.4624, 1503.474
513.9445, 1504.908
514.4266, 1518.730
514.9088, 1533.891
515.3909, 1534.034
515.8730, 1517.666
516.3551, 1506.206
516.8372, 1511.888
517.3193, 1521.034
517.8015, 1519.585
518.2836, 1509.399
518.7657, 1501.234
519.2478, 1500.953
519.7299, 1505.472
520.2120, 1507.277
520.6942, 1503.118
521.1763, 1502.535
521.6584, 1511.648
522.1405, 1518.228
522.6226, 1510.116
523.1047, 1494.044
523.5869, 1488.679
524.0690, 1507.055
524.5511, 1533.688
525.0332, 1543.881
525.5153, 1537.698
525.9974, 1523.716
526.4796, 1497.364
526.9617, 1474.530
527.4438, 1477.708
527.9259, 1503.307
528.4080, 1520.970
528.8901, 1521.810
529.3723, 1518.231
529.8544, 1516.782
530.3365, 1516.378
530.8186, 1514.382
531.3007, 1509.897
531.7828, 1503.948
532.2650, 1497.110
532.7471, 1488.120
533.2292, 1486.098
533.7113, 1497.709
534.1934, 1508.882
534.6755, 1518.245
535.1577, 1523.536
535.6398, 1519.982
536.1219, 1505.220
536.6040, 1490.978
537.0861, 1490.667
537.5682, 1499.750
538.0504, 1502.416
538.5325, 1495.899
539.0146, 1489.932
539.4967, 1490.773
539.9788, 1497.960
540.4609, 1508.854
540.9431, 1538.206
541.4252, 1550.983
541.9073, 1527.520
542.3894, 1492.519
542.8715, 1467.090
543.3536, 1454.488
543.8358, 1449.937
544.3179, 1450.973
544.8000, 1455.619
545.2821, 1453.869
545.7642, 1441.142
546.2463, 1434.643
546.7285, 1444.411
547.2106, 1457.929
547.6927, 1467.819
548.1748, 1473.306
548.6569, 1472.141
549.1390, 1458.200
549.6211, 1440.688
550.1032, 1428.759
550.5853, 1422.125
551.0674, 1419.032
551.5496, 1418.964
552.0317, 1421.080
552.5138, 1424.535
552.9959, 1431.260
553.4780, 1432.590
553.9601, 1421.995
554.4423, 1413.784
554.9244, 1412.829
555.4065, 1418.309
555.8886, 1430.990
556.3707, 1451.545
556.8528, 1469.292
557.3350, 1467.572
557.8171, 1449.354
558.2992, 1440.567
558.7813, 1447.053
559.2634, 1451.735
559.7455, 1440.835
560.2277, 1419.734
560.7098, 1406.343
561.1919, 1403.831
561.6740, 1403.630
562.1561, 1401.890
562.6382, 1401.864
563.1204, 1407.071
563.6025, 1417.699
564.0846, 1433.362
564.5667, 1455.672
565.0488, 1479.701
565.5309, 1484.278
566.0131, 1459.292
566.4952, 1440.411
566.9773, 1436.293
567.4594, 1438.266
567.9415, 1444.716
568.4236, 1453.521
568.9058, 1456.927
569.3879, 1445.877
569.8700, 1433.218
570.3521, 1433.568
570.8342, 1443.473
571.3163, 1451.950
571.7985, 1455.821
572.2806, 1455.234
572.7627, 1448.822
573.2448, 1434.828
573.7269, 1431.707
574.2090, 1451.248
574.6912, 1466.988
575.1733, 1471.442
575.6554, 1469.140
576.1375, 1463.134
576.6196, 1454.990
577.1017, 1450.203
577.5839, 1457.024
578.0660, 1471.147
578.5481, 1476.323
579.0302, 1470.984
579.5123, 1469.359
579.9944, 1481.400
580.4766, 1497.854
580.9587, 1498.687
581.4408, 1479.452
581.9229, 1466.424
582.4050, 1468.999
582.8871, 1473.650
583.3693, 1469.278
583.8514, 1460.085
584.3335, 1456.418
584.8156, 1463.053
585.2977, 1476.024
585.7798, 1491.480
586.2620, 1510.325
586.7441, 1519.718
587.2262, 1514.328
587.7083, 1507.300
588.1904, 1505.810
588.6725, 1507.691
589.1547, 1509.833
589.6368, 1512.258
590.1189, 1513.779
590.6010, 1513.056
591.0831, 1511.523
591.5652, 1510.043
592.0474, 1509.264
592.5295, 1511.556
593.0116, 1518.796
593.4937, 1529.354
593.9758, 1539.285
594.4579, 1552.465
594.9401, 1555.668
595.4222, 1532.693
595.9043, 1513.250
596.3864, 1514.501
596.8685, 1531.189
597.3506, 1548.743
597.8328, 1562.099
598.3149, 1573.962
598.7970, 1587.660
599.2791, 1601.743
599.7612, 1611.534
600.2433, 1616.153
600.7255, 1621.415
601.2076, 1633.446
601.6897, 1650.458
602.1718, 1657.825
602.6539, 1650.423
603.1360, 1639.773
603.6182, 1619.609
604.1003, 1602.158
604.5824, 1599.142
605.0645, 1608.151
605.5466, 1616.465
606.0287, 1616.829
606.5109, 1612.527
606.9930, 1609.346
607.4751, 1606.559
607.9572, 1596.708
608.4393, 1575.796
608.9214, 1555.860
609.4036, 1550.605
609.8857, 1560.100
610.3678, 1561.192
610.8499, 1542.054
611.3320, 1530.290
611.8141, 1540.375
612.2963, 1555.782
612.7784, 1560.449
613.2605, 1552.468
613.7426, 1538.385
614.2247, 1519.833
614.7068, 1501.411
615.1890, 1498.091
615.6711, 1510.880
616.1532, 1514.832
616.6353, 1499.011
617.1174, 1478.614
617.5995, 1471.315
618.0817, 1477.431
618.5638, 1480.908
619.0459, 1479.951
619.5280, 1477.640
620.0101, 1473.227
620.4922, 1469.084
620.9744, 1469.973
621.4565, 1475.592
621.9386, 1478.181
622.4207, 1468.417
622.9028, 1451.031
623.3849, 1446.574
623.8671, 1457.807
624.3492, 1465.618
624.8313, 1462.515
625.3134, 1455.557
625.7955, 1452.785
626.2776, 1453.925
626.7598, 1455.991
627.2419, 1460.158
627.7240, 1463.454
628.2061, 1465.681
628.6882, 1465.536
629.1703, 1458.980
629.6525, 1446.329
630.1346, 1435.713
630.6167, 1436.234
631.0988, 1445.481
631.5809, 1450.883
632.0630, 1453.359
632.5452, 1447.682
633.0273, 1425.244
633.5094, 1400.667
633.9915, 1390.326
634.4736, 1393.540
634.9557, 1399.743
635.4379, 1409.990
635.9200, 1419.442
636.4021, 1426.874
636.8842, 1431.167
637.3663, 1429.769
637.8484, 1422.594
638.3306, 1413.064
638.8127, 1402.898
639.2948, 1393.646
639.7769, 1398.430
640.2590, 1424.694
640.7411, 1437.688
641.2233, 1416.765
641.7054, 1388.768
642.1875, 1382.495
642.6696, 1396.199
643.1517, 1409.213
643.6339, 1420.155
644.1160, 1426.301
644.5981, 1424.498
645.0802, 1417.588
645.5623, 1406.850
646.0444, 1394.188
646.5266, 1388.142
647.0087, 1399.313
647.4908, 1422.181
647.9729, 1428.865
648.4550, 1414.730
648.9371, 1402.581
649.4193, 1397.246
649.9014, 1396.978
650.3835, 1402.252
650.8656, 1411.970
651.3477, 1418.250
651.8298, 1418.105
652.3120, 1416.182
652.7941, 1414.183
653.2762, 1411.944
653.7583, 1408.081
654.2404, 1403.132
654.7225, 1401.245
655.2047, 1406.998
655.6868, 1416.702
656.1689, 1416.793
656.6510, 1405.280
657.1331, 1396.557
657.6152, 1394.693
658.0974, 1394.886
658.5795, 1391.187
659.0616, 1385.380
659.5437, 1386.111
660.0258, 1400.906
660.5079, 1413.941
660.9901, 1418.772
661.4722, 1419.876
661.9543, 1422.350
