##NAMES=Pseudomalachite
##RRUFFID=R050597
##IDEAL CHEMISTRY=Cu^2+^_5_(P^5+^O_4_)_2_(OH)_4_
##LOCALITY=Cerro Negro mine, Carrizalillo, Chile
##OWNER=RRUFF
##SOURCE=William W. Pinch
##DESCRIPTION=Dark-green tabular crystals associated with chalcosiderite, R060007
##STATUS=The identification of this mineral has been confirmed by single-crystal X-ray diffraction.
##URL=rruff.info/R050597
91.11523, 37.52246
91.59735, 38.18330
92.07947, 37.83339
92.56158, 36.68721
93.04370, 35.41322
93.52582, 33.86145
94.00793, 32.48165
94.49006, 32.64966
94.97218, 35.00173
95.45429, 37.79662
95.93641, 37.74445
96.41853, 34.92247
96.90064, 32.49627
97.38276, 33.69565
97.86488, 38.04633
98.34699, 40.04435
98.82911, 38.12499
99.31123, 33.63155
99.79334, 31.07405
100.2755, 30.80049
100.7576, 31.33524
101.2397, 31.17434
101.7218, 29.93877
102.2039, 29.93827
102.6861, 32.27837
103.1682, 36.93396
103.6503, 39.23176
104.1324, 38.43767
104.6145, 36.12464
105.0966, 33.98275
105.5788, 31.59523
106.0609, 30.14634
106.5430, 30.09060
107.0251, 31.84162
107.5072, 33.51101
107.9893, 35.01006
108.4715, 36.46020
108.9536, 38.08690
109.4357, 40.19265
109.9178, 42.21747
110.3999, 43.88206
110.8820, 43.93912
111.3642, 45.65835
111.8463, 50.10232
112.3284, 56.41549
112.8105, 62.24111
113.2926, 65.63365
113.7747, 69.66725
114.2569, 75.85811
114.7390, 85.48283
115.2211, 96.12208
115.7032, 106.9307
116.1853, 118.1329
116.6674, 130.8103
117.1496, 145.0899
117.6317, 161.2978
118.1138, 179.5474
118.5959, 199.0496
119.0780, 221.4523
119.5602, 248.9216
120.0423, 281.4067
120.5244, 313.3384
121.0065, 342.0722
121.4886, 368.3347
121.9707, 393.1884
122.4529, 417.0195
122.9350, 439.3736
123.4171, 458.8076
123.8992, 474.9882
124.3813, 491.8116
124.8634, 514.1983
125.3456, 539.8035
125.8277, 563.3996
126.3098, 577.4498
126.7919, 589.1296
127.2740, 608.9496
127.7561, 638.1856
128.2383, 673.8130
128.7204, 713.0292
129.2025, 755.7976
129.6846, 801.9229
130.1667, 852.7569
130.6488, 906.5664
131.1310, 961.7288
131.6131, 1018.870
132.0952, 1075.700
132.5773, 1129.937
133.0594, 1181.849
133.5415, 1226.602
134.0237, 1260.084
134.5058, 1282.842
134.9879, 1301.618
135.4700, 1317.639
135.9521, 1330.432
136.4343, 1338.131
136.9164, 1339.924
137.3985, 1339.999
137.8806, 1340.810
138.3627, 1341.943
138.8448, 1347.232
139.3270, 1358.452
139.8091, 1374.955
140.2912, 1389.365
140.7733, 1400.123
141.2554, 1411.765
141.7375, 1428.950
142.2197, 1453.128
142.7018, 1479.656
143.1839, 1508.655
143.6660, 1540.420
144.1481, 1568.594
144.6302, 1592.980
145.1124, 1613.712
145.5945, 1630.966
146.0766, 1647.584
146.5587, 1656.512
147.0408, 1654.289
147.5230, 1637.279
148.0051, 1622.841
148.4872, 1607.135
148.9693, 1584.036
149.4514, 1557.164
149.9335, 1521.049
150.4157, 1486.970
150.8978, 1458.873
151.3799, 1438.919
151.8620, 1419.138
152.3441, 1396.782
152.8262, 1374.691
153.3084, 1358.776
153.7905, 1352.340
154.2726, 1349.318
154.7547, 1347.482
155.2368, 1346.285
155.7189, 1346.849
156.2011, 1348.529
156.6832, 1351.895
157.1653, 1358.450
157.6474, 1368.285
158.1295, 1381.344
158.6116, 1397.796
159.0938, 1420.226
159.5759, 1442.352
160.0580, 1463.593
160.5401, 1483.547
161.0222, 1500.782
161.5044, 1515.611
161.9865, 1527.177
162.4686, 1535.002
162.9507, 1540.664
163.4328, 1540.783
163.9149, 1533.049
164.3971, 1518.261
164.8792, 1500.473
165.3613, 1478.171
165.8434, 1455.224
166.3255, 1435.059
166.8076, 1418.409
167.2898, 1405.345
167.7719, 1395.441
168.2540, 1388.779
168.7361, 1386.369
169.2182, 1388.927
169.7003, 1395.973
170.1825, 1406.943
170.6646, 1422.238
171.1467, 1440.892
171.6288, 1462.718
172.1109, 1487.475
172.5931, 1514.412
173.0752, 1545.289
173.5573, 1577.638
174.0394, 1607.586
174.5215, 1636.253
175.0036, 1660.213
175.4858, 1675.512
175.9679, 1682.273
176.4500, 1681.055
176.9321, 1672.038
177.4142, 1655.450
177.8963, 1632.073
178.3785, 1599.799
178.8606, 1561.344
179.3427, 1520.360
179.8248, 1476.191
180.3069, 1433.254
180.7890, 1396.203
181.2712, 1364.337
181.7533, 1335.945
182.2354, 1309.993
182.7175, 1287.048
183.1996, 1269.346
183.6818, 1256.953
184.1639, 1248.452
184.6460, 1242.696
185.1281, 1239.438
185.6102, 1237.135
186.0923, 1236.313
186.5745, 1236.007
187.0566, 1233.275
187.5387, 1227.958
188.0208, 1220.311
188.5029, 1209.969
188.9850, 1197.110
189.4672, 1183.298
189.9493, 1168.818
190.4314, 1153.931
190.9135, 1138.780
191.3956, 1122.943
191.8777, 1108.166
192.3599, 1097.530
192.8420, 1091.102
193.3241, 1084.611
193.8062, 1076.097
194.2883, 1065.547
194.7704, 1053.558
195.2526, 1039.871
195.7347, 1025.242
196.2168, 1010.426
196.6989, 995.2516
197.1810, 981.7023
197.6632, 971.6834
198.1453, 965.0861
198.6274, 956.8518
199.1095, 945.8203
199.5916, 934.2405
200.0737, 926.9882
200.5559, 924.3321
201.0380, 923.9327
201.5201, 924.4313
202.0022, 925.7429
202.4843, 929.8550
202.9664, 937.9066
203.4486, 947.7966
203.9307, 953.9894
204.4128, 955.3284
204.8949, 957.4805
205.3770, 963.8382
205.8591, 974.9526
206.3413, 986.4564
206.8234, 998.5818
207.3055, 1010.602
207.7876, 1020.437
208.2697, 1027.464
208.7519, 1033.897
209.2340, 1041.297
209.7161, 1050.228
210.1982, 1057.126
210.6803, 1061.510
211.1624, 1063.910
211.6446, 1065.763
212.1267, 1067.140
212.6088, 1067.795
213.0909, 1067.890
213.5730, 1067.908
214.0551, 1065.360
214.5373, 1059.146
215.0194, 1050.752
215.5015, 1044.838
215.9836, 1043.380
216.4657, 1040.323
216.9478, 1032.161
217.4300, 1017.425
217.9121, 1002.188
218.3942, 986.8666
218.8763, 971.2172
219.3584, 954.4191
219.8405, 935.6695
220.3227, 917.3913
220.8048, 901.1273
221.2869, 887.8461
221.7690, 873.3142
222.2511, 856.8934
222.7333, 839.3182
223.2154, 823.2474
223.6975, 808.7889
224.1796, 795.3896
224.6617, 782.8916
225.1438, 771.7334
225.6260, 760.3590
226.1081, 748.3301
226.5902, 736.2245
227.0723, 726.0745
227.5544, 718.2211
228.0365, 711.6253
228.5187, 705.9120
229.0008, 701.4473
229.4829, 696.9111
229.9650, 691.8702
230.4471, 686.8126
230.9292, 683.0157
231.4114, 680.7111
231.8935, 679.2021
232.3756, 678.2224
232.8577, 677.8143
233.3398, 677.8481
233.8220, 678.8829
234.3041, 680.1686
234.7862, 679.5558
235.2683, 675.2575
235.7504, 671.8348
236.2325, 671.2214
236.7147, 674.2343
237.1968, 678.1608
237.6789, 683.7315
238.1610, 689.9622
238.6431, 694.4915
239.1252, 696.1403
239.6074, 698.0264
240.0895, 701.2524
240.5716, 705.7501
241.0537, 711.8254
241.5358, 720.2585
242.0179, 729.8938
242.5001, 738.3777
242.9822, 744.8758
243.4643, 751.5490
243.9464, 759.2380
244.4285, 768.3889
244.9106, 777.0490
245.3928, 784.9430
245.8749, 792.5292
246.3570, 800.8000
246.8391, 810.7599
247.3212, 819.6365
247.8034, 826.4202
248.2855, 830.7429
248.7676, 834.4456
249.2497, 836.9561
249.7318, 839.3078
250.2139, 843.0334
250.6961, 848.3231
251.1782, 854.7020
251.6603, 862.1158
252.1424, 870.6434
252.6245, 880.1500
253.1066, 891.3909
253.5888, 903.0270
254.0709, 913.4961
254.5530, 922.5848
255.0351, 930.9445
255.5172, 938.3693
255.9993, 944.7159
256.4815, 952.0812
256.9636, 960.8043
257.4457, 970.0719
257.9278, 979.2750
258.4099, 989.0618
258.8921, 997.3376
259.3742, 1003.720
259.8563, 1008.154
260.3384, 1010.931
260.8205, 1011.654
261.3026, 1011.212
261.7848, 1010.523
262.2669, 1009.842
262.7490, 1008.318
263.2311, 1006.249
263.7132, 1003.489
264.1953, 997.4031
264.6775, 987.3214
265.1596, 975.0357
265.6417, 961.9547
266.1238, 948.0862
266.6059, 933.5318
267.0880, 918.4161
267.5702, 902.6331
268.0523, 886.3152
268.5344, 868.9094
269.0165, 851.6835
269.4986, 835.2811
269.9807, 819.4651
270.4629, 804.9365
270.9450, 792.1381
271.4271, 780.5559
271.9092, 768.4968
272.3913, 755.6522
272.8734, 743.1972
273.3556, 731.8063
273.8377, 721.4641
274.3198, 712.3323
274.8019, 704.4346
275.2840, 697.6494
275.7661, 691.7022
276.2483, 686.7518
276.7304, 682.0179
277.2125, 676.4320
277.6946, 669.6898
278.1768, 666.5574
278.6589, 668.2324
279.1410, 672.4495
279.6231, 674.8270
280.1052, 675.2856
280.5873, 674.6084
281.0695, 672.1293
281.5516, 667.8953
282.0337, 667.2381
282.5158, 671.0239
282.9979, 676.8381
283.4800, 680.4755
283.9622, 681.7784
284.4443, 684.1755
284.9264, 690.5602
285.4085, 700.0947
285.8906, 704.8663
286.3727, 703.8038
286.8549, 701.7934
287.3370, 705.8869
287.8191, 715.7755
288.3012, 725.1305
288.7833, 731.1595
289.2654, 734.7906
289.7476, 739.6444
290.2297, 745.8572
290.7118, 752.2692
291.1939, 757.2225
291.6760, 761.0439
292.1581, 765.9656
292.6403, 772.8030
293.1224, 781.0947
293.6045, 790.3292
294.0866, 800.4407
294.5687, 810.5284
295.0508, 819.9251
295.5330, 828.6962
296.0151, 836.9231
296.4972, 844.8752
296.9793, 852.1656
297.4614, 857.5134
297.9435, 861.1570
298.4257, 864.6566
298.9078, 869.7463
299.3899, 875.4601
299.8720, 879.6251
300.3541, 881.8720
300.8362, 882.5268
301.3184, 882.0934
301.8005, 880.4725
302.2826, 877.2786
302.7647, 872.0917
303.2469, 865.2440
303.7290, 856.7814
304.2111, 846.4988
304.6932, 835.7493
305.1753, 826.4346
305.6574, 817.8287
306.1396, 808.5812
306.6217, 797.6221
307.1038, 785.7588
307.5859, 773.7481
308.0680, 761.5260
308.5501, 749.2328
309.0323, 735.9679
309.5144, 722.8215
309.9965, 711.5720
310.4786, 705.0518
310.9607, 699.0714
311.4428, 689.7419
311.9250, 677.1959
312.4071, 665.6251
312.8892, 658.7559
313.3713, 653.9426
313.8534, 648.3521
314.3355, 639.6425
314.8177, 631.2819
315.2998, 625.2618
315.7819, 621.2669
316.2640, 617.4536
316.7461, 612.6465
317.2282, 607.9520
317.7104, 604.2425
318.1925, 602.5881
318.6746, 600.6285
319.1567, 596.8697
319.6388, 592.0957
320.1209, 588.5082
320.6031, 588.3360
321.0852, 588.3703
321.5673, 586.7981
322.0494, 582.4858
322.5315, 578.6814
323.0136, 575.8782
323.4958, 574.0315
323.9779, 573.0673
324.4600, 574.3633
324.9421, 575.2937
325.4242, 574.7474
325.9064, 572.2026
326.3885, 570.3350
326.8706, 569.9346
327.3527, 570.0839
327.8348, 569.8080
328.3170, 567.5056
328.7991, 566.4698
329.2812, 567.6833
329.7633, 571.2170
330.2454, 574.0602
330.7275, 576.0664
331.2097, 577.4482
331.6918, 578.2882
332.1739, 578.0775
332.6560, 578.0583
333.1381, 577.8199
333.6202, 577.7468
334.1024, 580.0114
334.5845, 585.9527
335.0666, 592.1793
335.5487, 596.6721
336.0308, 598.2179
336.5129, 601.5103
336.9951, 607.1735
337.4772, 614.2897
337.9593, 621.2839
338.4414, 628.1778
338.9235, 635.0138
339.4056, 642.0676
339.8878, 649.3719
340.3699, 655.3449
340.8520, 659.1429
341.3341, 663.2998
341.8162, 671.6006
342.2983, 684.2633
342.7805, 697.9516
343.2626, 711.4525
343.7447, 725.1066
344.2268, 740.2018
344.7089, 757.0064
345.1910, 774.4441
345.6732, 790.3468
346.1553, 805.3881
346.6374, 823.7413
347.1195, 847.3419
347.6016, 873.7127
348.0837, 897.2159
348.5659, 918.3017
349.0480, 941.1813
349.5301, 969.1796
350.0122, 1001.180
350.4944, 1033.080
350.9765, 1063.883
351.4586, 1095.973
351.9407, 1132.983
352.4228, 1173.644
352.9049, 1213.708
353.3871, 1249.068
353.8692, 1283.437
354.3513, 1321.604
354.8334, 1363.857
355.3155, 1408.486
355.7976, 1455.755
356.2798, 1504.576
356.7619, 1553.721
357.2440, 1600.920
357.7261, 1649.008
358.2082, 1700.107
358.6903, 1753.946
359.1725, 1808.817
359.6546, 1864.485
360.1367, 1920.484
360.6188, 1975.924
361.1009, 2029.570
361.5830, 2083.240
362.0652, 2139.605
362.5473, 2196.646
363.0294, 2249.383
363.5115, 2296.919
363.9936, 2339.344
364.4757, 2376.346
364.9579, 2408.446
365.4400, 2434.709
365.9221, 2457.268
366.4042, 2473.507
366.8863, 2480.098
367.3684, 2478.349
367.8506, 2465.258
368.3327, 2438.498
368.8148, 2397.418
369.2969, 2351.270
369.7790, 2299.626
370.2611, 2243.158
370.7433, 2181.829
371.2254, 2113.495
371.7075, 2044.578
372.1896, 1974.600
372.6717, 1903.992
373.1538, 1835.897
373.6360, 1770.005
374.1181, 1707.206
374.6002, 1649.015
375.0823, 1596.045
375.5645, 1543.675
376.0466, 1491.105
376.5287, 1440.712
377.0108, 1397.146
377.4929, 1362.200
377.9750, 1329.103
378.4572, 1295.753
378.9393, 1262.366
379.4214, 1232.293
379.9035, 1205.954
380.3856, 1182.248
380.8677, 1161.167
381.3499, 1142.524
381.8320, 1123.833
382.3141, 1103.932
382.7962, 1084.160
383.2783, 1067.660
383.7604, 1054.268
384.2426, 1040.374
384.7247, 1022.212
385.2068, 1001.907
385.6889, 983.8866
386.1710, 969.2109
386.6531, 954.9871
387.1353, 937.3934
387.6174, 917.6137
388.0995, 898.6119
388.5816, 882.4166
389.0637, 867.1389
389.5458, 850.5698
390.0280, 832.5623
390.5101, 814.3601
390.9922, 795.5550
391.4743, 777.5126
391.9564, 761.5897
392.4385, 749.3881
392.9207, 738.0977
393.4028, 725.7250
393.8849, 713.0887
394.3670, 702.6066
394.8491, 697.1885
395.3312, 692.8375
395.8134, 686.9786
396.2955, 678.0574
396.7776, 671.0508
397.2597, 668.3019
397.7418, 667.7504
398.2239, 666.6953
398.7061, 663.8869
399.1882, 661.4988
399.6703, 659.9991
400.1524, 659.4026
400.6346, 659.3766
401.1167, 659.8651
401.5988, 660.9719
402.0809, 662.7626
402.5630, 665.2277
403.0451, 668.4274
403.5273, 672.5081
404.0094, 677.2479
404.4915, 681.8812
404.9736, 686.1017
405.4557, 690.9635
405.9378, 697.0301
406.4200, 704.3715
406.9021, 712.1671
407.3842, 720.4658
407.8663, 728.9214
408.3484, 736.9485
408.8305, 744.5750
409.3127, 752.5656
409.7948, 761.2638
410.2769, 770.4120
410.7590, 778.8836
411.2411, 786.7221
411.7232, 795.2137
412.2054, 805.4623
412.6875, 817.3060
413.1696, 830.2078
413.6517, 844.6797
414.1338, 858.8632
414.6159, 869.4381
415.0981, 877.7162
415.5802, 887.2018
416.0623, 900.7953
416.5444, 915.7634
417.0265, 928.7633
417.5086, 939.8126
417.9908, 951.0460
418.4729, 963.2968
418.9550, 976.5681
419.4371, 990.6642
419.9192, 1005.888
420.4013, 1021.721
420.8835, 1037.342
421.3656, 1053.250
421.8477, 1071.297
422.3298, 1092.109
422.8119, 1114.891
423.2940, 1139.797
423.7762, 1167.238
424.2583, 1194.920
424.7404, 1220.887
425.2225, 1247.324
425.7047, 1277.510
426.1868, 1314.319
426.6689, 1350.589
427.1510, 1384.607
427.6331, 1416.714
428.1152, 1452.334
428.5974, 1492.901
429.0795, 1535.548
429.5616, 1579.458
430.0437, 1624.960
430.5258, 1669.784
431.0079, 1713.747
431.4901, 1756.617
431.9722, 1797.479
432.4543, 1835.905
432.9364, 1875.304
433.4185, 1917.951
433.9006, 1962.250
434.3828, 2000.723
434.8649, 2033.418
435.3470, 2059.760
435.8291, 2078.424
436.3112, 2090.279
436.7933, 2097.811
437.2755, 2101.667
437.7576, 2101.405
438.2397, 2097.071
438.7218, 2088.278
439.2039, 2073.656
439.6860, 2049.342
440.1682, 2020.352
440.6503, 1992.228
441.1324, 1965.099
441.6145, 1937.593
442.0966, 1906.931
442.5787, 1876.165
443.0609, 1848.582
443.5430, 1825.440
444.0251, 1805.285
444.5072, 1788.000
444.9893, 1773.394
445.4714, 1760.557
445.9536, 1748.613
446.4357, 1738.831
446.9178, 1732.129
447.3999, 1729.809
447.8820, 1727.274
448.3641, 1724.600
448.8463, 1721.629
449.3284, 1718.535
449.8105, 1718.068
450.2926, 1712.451
450.7747, 1698.902
451.2569, 1678.750
451.7390, 1661.510
452.2211, 1649.250
452.7032, 1634.137
453.1853, 1609.662
453.6674, 1574.789
454.1496, 1545.424
454.6317, 1523.103
455.1138, 1503.355
455.5959, 1479.111
456.0780, 1450.768
456.5602, 1425.328
457.0423, 1406.371
457.5244, 1391.200
458.0065, 1372.840
458.4886, 1352.000
458.9707, 1334.580
459.4529, 1327.406
459.9350, 1325.841
460.4171, 1322.756
460.8992, 1316.180
461.3813, 1310.946
461.8634, 1310.579
462.3456, 1314.098
462.8277, 1319.837
463.3098, 1326.219
463.7919, 1335.503
464.2740, 1348.950
464.7561, 1366.504
465.2383, 1386.979
465.7204, 1409.529
466.2025, 1435.203
466.6846, 1464.556
467.1667, 1499.083
467.6488, 1534.776
468.1310, 1570.667
468.6131, 1607.916
469.0952, 1649.335
469.5773, 1695.582
470.0594, 1744.795
470.5415, 1797.686
471.0237, 1853.914
471.5058, 1909.324
471.9879, 1962.645
472.4700, 2018.253
472.9521, 2079.654
473.4342, 2147.431
473.9164, 2214.187
474.3985, 2279.730
474.8806, 2344.509
475.3627, 2410.850
475.8448, 2478.322
476.3270, 2542.703
476.8091, 2601.866
477.2912, 2656.285
477.7733, 2707.351
478.2554, 2754.842
478.7375, 2795.332
479.2197, 2828.202
479.7018, 2851.896
480.1839, 2864.160
480.6660, 2864.761
481.1481, 2853.528
481.6302, 2829.480
482.1124, 2793.625
482.5945, 2747.671
483.0766, 2689.212
483.5587, 2623.314
484.0408, 2551.091
484.5229, 2473.106
485.0051, 2393.096
485.4872, 2310.620
485.9693, 2226.859
486.4514, 2143.018
486.9335, 2055.803
487.4156, 1973.383
487.8978, 1895.674
488.3799, 1823.135
488.8620, 1754.138
489.3441, 1689.121
489.8262, 1626.026
490.3083, 1563.049
490.7905, 1500.694
491.2726, 1445.375
491.7547, 1397.432
492.2368, 1352.963
492.7189, 1310.613
493.2010, 1269.798
493.6832, 1230.517
494.1653, 1192.357
494.6474, 1155.875
495.1295, 1120.133
495.6116, 1086.020
496.0938, 1055.854
496.5759, 1031.915
497.0580, 1011.182
497.5401, 991.1813
498.0222, 971.8251
498.5044, 953.6769
498.9865, 936.4502
499.4686, 920.6917
499.9507, 907.0057
500.4328, 895.8650
500.9149, 885.3455
501.3971, 874.1113
501.8792, 863.3263
502.3613, 854.3115
502.8434, 847.8654
503.3255, 842.4329
503.8076, 838.4010
504.2898, 835.3338
504.7719, 831.0265
505.2540, 823.7763
505.7361, 817.7923
506.2182, 815.1570
506.7003, 816.5196
507.1825, 817.0518
507.6646, 816.5375
508.1467, 815.6641
508.6288, 814.7657
509.1109, 813.8543
509.5930, 814.7991
510.0752, 818.7639
510.5573, 823.6308
511.0394, 825.1239
511.5215, 823.6590
512.0037, 821.8128
512.4858, 821.3775
512.9679, 821.2667
513.4500, 819.4274
513.9321, 815.8311
514.4142, 812.9630
514.8964, 814.7722
515.3785, 817.2213
515.8606, 815.6194
516.3427, 806.1249
516.8248, 797.2883
517.3069, 794.1211
517.7891, 793.6566
518.2712, 790.3836
518.7533, 781.3807
519.2354, 771.2050
519.7175, 760.4844
520.1996, 749.2269
520.6818, 739.9069
521.1639, 734.2955
521.6460, 728.4111
522.1281, 719.6125
522.6102, 706.5957
523.0923, 695.6873
523.5745, 687.4353
524.0566, 680.5635
524.5387, 673.0764
525.0208, 664.9412
525.5029, 657.7371
525.9850, 652.1660
526.4672, 647.5986
526.9493, 642.2719
527.4314, 636.3112
527.9135, 631.2509
528.3956, 628.4286
528.8777, 626.7862
529.3599, 624.6901
529.8420, 621.9001
530.3241, 620.0135
530.8062, 621.1961
531.2883, 623.3998
531.7704, 624.2718
532.2526, 621.9539
532.7347, 619.8693
533.2168, 618.9691
533.6989, 619.0568
534.1810, 619.6443
534.6631, 621.5331
535.1453, 623.0394
535.6274, 623.9096
536.1095, 624.1777
536.5916, 623.1589
537.0737, 621.0905
537.5558, 617.3409
538.0380, 611.3228
538.5201, 602.7652
539.0022, 593.1328
539.4843, 582.3350
539.9664, 571.1555
540.4485, 560.9562
540.9307, 551.7001
541.4128, 542.6815
541.8949, 533.5994
542.3770, 524.8338
542.8591, 516.6898
543.3412, 509.3079
543.8234, 502.8584
544.3055, 498.6271
544.7876, 494.6823
545.2697, 488.8032
545.7518, 480.5930
546.2339, 473.0396
546.7161, 467.5003
547.1982, 463.3729
547.6803, 460.0137
548.1624, 458.0609
548.6445, 455.9702
549.1266, 454.0414
549.6088, 451.7791
550.0909, 447.9989
550.5730, 440.7694
551.0551, 435.2301
551.5372, 433.5020
552.0193, 435.0193
552.5015, 433.8354
552.9836, 429.2720
553.4657, 424.4082
553.9478, 421.2468
554.4299, 419.6671
554.9120, 418.6339
555.3942, 418.1983
555.8763, 417.7285
556.3584, 415.9789
556.8405, 413.6136
557.3226, 412.4621
557.8047, 413.7711
558.2869, 415.4357
558.7690, 415.4771
559.2511, 414.3276
559.7332, 413.0725
560.2154, 412.1764
560.6975, 411.3319
561.1796, 410.3424
561.6617, 409.1988
562.1439, 408.1729
562.6260, 406.8875
563.1081, 406.0866
563.5902, 406.1845
564.0723, 407.5625
564.5544, 409.0381
565.0366, 410.5475
565.5187, 412.2319
566.0008, 414.3703
566.4829, 417.1140
566.9650, 419.5242
567.4471, 421.2974
567.9293, 422.7036
568.4114, 424.2854
568.8935, 426.0486
569.3756, 428.0660
569.8577, 430.4761
570.3398, 433.1307
570.8220, 435.4526
571.3041, 437.5023
571.7862, 440.1835
572.2683, 443.8479
572.7504, 448.6279
573.2325, 455.0470
573.7147, 464.0437
574.1968, 472.3207
574.6789, 477.7245
575.1610, 482.0107
575.6431, 487.5240
576.1252, 495.8248
576.6074, 503.8768
577.0895, 511.2976
577.5716, 518.2028
578.0537, 525.1077
578.5358, 531.9617
579.0179, 538.9326
579.5001, 545.9792
579.9822, 553.1832
580.4643, 561.2826
580.9464, 570.5018
581.4285, 579.0286
581.9106, 584.4628
582.3928, 587.9367
582.8749, 593.3069
583.3570, 601.3148
583.8391, 610.2125
584.3212, 618.2133
584.8033, 626.0062
585.2855, 634.8797
585.7676, 647.7708
586.2497, 659.1812
586.7318, 665.4744
587.2139, 668.1185
587.6960, 671.3155
588.1782, 676.5394
