##NAMES=Pseudobrookite
##RRUFFID=R120173
##IDEAL CHEMISTRY=(Fe^3+^_2_Ti^4+^)O_5_
##LOCALITY=Nuestra Se√±ora del Carmen Mines, La Celia, Jumilla, Murcia, Spain
##OWNER=RRUFF
##SOURCE=Bob Jenkins
##DESCRIPTION=Dark brown tabular, associated with R120174 enstatite
##STATUS=The identification of this mineral has been confirmed by single-crystal X-ray diffraction.
##URL=rruff.info/R120173
124.4956, 821.5748
124.9777, 821.5901
125.4598, 820.9143
125.9420, 820.4661
126.4241, 821.0198
126.9062, 822.1683
127.3883, 823.2032
127.8704, 824.0105
128.3525, 824.5775
128.8347, 824.6866
129.3168, 824.3695
129.7989, 824.2380
130.2810, 825.1658
130.7631, 826.8104
131.2452, 827.7215
131.7274, 827.1432
132.2095, 825.7913
132.6916, 825.7298
133.1737, 827.1072
133.6558, 828.8375
134.1379, 829.9393
134.6201, 830.4252
135.1022, 830.6901
135.5843, 830.6784
136.0664, 830.4863
136.5485, 830.8165
137.0306, 831.6849
137.5128, 833.0578
137.9949, 835.0461
138.4770, 837.7766
138.9591, 840.5331
139.4412, 843.2566
139.9233, 845.9682
140.4055, 847.8199
140.8876, 848.5203
141.3697, 848.6282
141.8518, 849.0932
142.3339, 850.0799
142.8160, 851.0123
143.2982, 851.5279
143.7803, 851.1767
144.2624, 851.9052
144.7445, 854.2053
145.2266, 857.4426
145.7087, 860.0712
146.1909, 861.9948
146.6730, 863.5106
147.1551, 864.7833
147.6372, 866.1003
148.1193, 866.6756
148.6014, 866.0693
149.0836, 864.6746
149.5657, 863.7992
150.0478, 863.2852
150.5299, 863.4349
151.0120, 864.3917
151.4941, 867.5433
151.9763, 869.8378
152.4584, 870.9223
152.9405, 870.9747
153.4226, 870.9648
153.9047, 870.9368
154.3868, 870.8713
154.8690, 870.7564
155.3511, 870.5442
155.8332, 870.3251
156.3153, 869.9539
156.7974, 869.4960
157.2795, 869.4658
157.7617, 870.5398
158.2438, 871.7975
158.7259, 872.5765
159.2080, 871.9428
159.6901, 871.5840
160.1722, 872.2324
160.6544, 873.8432
161.1365, 875.2502
161.6186, 875.6072
162.1007, 875.7441
162.5828, 876.4352
163.0649, 878.3319
163.5471, 880.4800
164.0292, 882.6785
164.5113, 884.9096
164.9934, 886.5263
165.4755, 886.4587
165.9576, 885.7691
166.4398, 885.7714
166.9219, 888.0104
167.4040, 890.3653
167.8861, 891.2697
168.3682, 890.5930
168.8503, 889.6688
169.3325, 889.1517
169.8146, 888.9807
170.2967, 889.0595
170.7788, 889.7737
171.2609, 890.4926
171.7430, 890.6351
172.2252, 890.1497
172.7073, 889.3074
173.1894, 887.9439
173.6715, 886.3511
174.1536, 885.2222
174.6357, 885.5256
175.1179, 886.1894
175.6000, 885.7988
176.0821, 884.1207
176.5642, 882.0781
177.0463, 880.5712
177.5284, 879.4356
178.0106, 878.1942
178.4927, 876.6508
178.9748, 874.8195
179.4569, 872.5037
179.9390, 869.4375
180.4211, 866.7780
180.9033, 866.4803
181.3854, 868.0504
181.8675, 869.1343
182.3496, 867.5617
182.8317, 864.5520
183.3138, 863.0792
183.7960, 863.7088
184.2781, 865.2323
184.7602, 866.0322
185.2423, 866.1739
185.7244, 866.1744
186.2065, 866.0984
186.6887, 866.0792
187.1708, 866.7188
187.6529, 868.2132
188.1350, 870.0816
188.6171, 871.3113
189.0992, 871.9348
189.5814, 872.8769
190.0635, 875.1607
190.5456, 878.5299
191.0277, 880.8615
191.5098, 881.6442
191.9919, 881.7505
192.4741, 883.0342
192.9562, 885.5363
193.4383, 888.1924
193.9204, 890.0783
194.4025, 891.2665
194.8846, 893.0834
195.3668, 895.8055
195.8489, 899.0973
196.3310, 902.3525
196.8131, 905.6288
197.2952, 908.3969
197.7773, 910.1729
198.2595, 910.9199
198.7416, 911.5964
199.2237, 912.2391
199.7058, 912.9381
200.1879, 914.1437
200.6700, 916.0731
201.1522, 917.6131
201.6343, 917.9645
202.1164, 917.0584
202.5985, 915.6711
203.0806, 913.7980
203.5627, 911.5695
204.0449, 909.5381
204.5270, 907.8688
205.0091, 905.8312
205.4912, 902.6952
205.9733, 898.1960
206.4554, 894.2078
206.9376, 891.1105
207.4197, 888.6384
207.9018, 885.6452
208.3839, 882.0165
208.8660, 878.1544
209.3481, 874.1668
209.8303, 869.7921
210.3124, 866.4697
210.7945, 864.6033
211.2766, 863.8906
211.7587, 863.0257
212.2408, 861.9752
212.7230, 860.8494
213.2051, 859.5923
213.6872, 857.9875
214.1693, 856.9913
214.6514, 856.8212
215.1335, 857.3174
215.6157, 857.7424
216.0978, 857.9109
216.5799, 858.3066
217.0620, 859.4044
217.5441, 861.6678
218.0262, 863.1629
218.5084, 863.2693
218.9905, 862.4457
219.4726, 863.0990
219.9547, 865.9446
220.4368, 869.0820
220.9189, 871.1287
221.4011, 871.3866
221.8832, 872.5650
222.3653, 875.3641
222.8474, 879.2786
223.3295, 881.9933
223.8116, 882.7333
224.2938, 883.4182
224.7759, 885.3323
225.2580, 889.2341
225.7401, 892.4536
226.2222, 894.6310
226.7043, 895.9753
227.1865, 897.4880
227.6686, 899.2734
228.1507, 901.0099
228.6328, 902.5223
229.1149, 903.8625
229.5970, 904.8165
230.0792, 905.1730
230.5613, 905.1391
231.0434, 905.5558
231.5255, 906.7670
232.0076, 907.9473
232.4897, 908.6479
232.9719, 908.7468
233.4540, 908.6541
233.9361, 908.2086
234.4182, 907.6077
234.9003, 907.5392
235.3824, 908.1932
235.8646, 909.1080
236.3467, 910.1352
236.8288, 911.5873
237.3109, 912.4043
237.7930, 912.3531
238.2751, 911.6611
238.7573, 910.9661
239.2394, 909.9431
239.7215, 909.3481
240.2036, 909.6548
240.6857, 911.6476
241.1678, 912.7072
241.6500, 912.5674
242.1321, 911.5562
242.6142, 910.4750
243.0963, 909.3093
243.5784, 908.0996
244.0605, 906.8535
244.5427, 905.4828
245.0248, 904.3021
245.5069, 903.3666
245.9890, 902.6091
246.4711, 901.9348
246.9532, 901.5390
247.4354, 900.9207
247.9175, 899.8711
248.3996, 898.2585
248.8817, 896.6641
249.3638, 895.0699
249.8459, 893.5264
250.3281, 892.1189
250.8102, 890.8552
251.2923, 889.7372
251.7744, 888.7676
252.2565, 887.9788
252.7386, 887.2600
253.2208, 886.5795
253.7029, 885.9948
254.1850, 885.6055
254.6671, 885.5076
255.1492, 885.3781
255.6313, 884.9586
256.1135, 884.0641
256.5956, 884.1268
257.0777, 885.6135
257.5598, 887.5710
258.0419, 888.7668
258.5240, 889.1107
259.0062, 888.7964
259.4883, 887.5377
259.9704, 885.2187
260.4525, 884.1026
260.9346, 884.6578
261.4167, 885.8531
261.8989, 886.4267
262.3810, 885.9779
262.8631, 886.0183
263.3452, 887.0266
263.8273, 889.0250
264.3094, 890.9160
264.7916, 892.9120
265.2737, 894.5589
265.7558, 895.1737
266.2379, 894.1848
266.7200, 894.1409
267.2021, 895.9464
267.6843, 899.3129
268.1664, 901.3292
268.6485, 901.5433
269.1306, 901.3231
269.6127, 901.8076
270.0948, 903.1185
270.5770, 904.5048
271.0591, 905.8106
271.5412, 907.0648
272.0233, 908.4871
272.5054, 910.0418
272.9875, 911.7584
273.4697, 913.7817
273.9518, 916.2416
274.4339, 918.1536
274.9160, 919.1537
275.3981, 919.6768
275.8802, 921.2443
276.3624, 924.1076
276.8445, 926.9698
277.3266, 928.8912
277.8087, 929.7955
278.2908, 930.9641
278.7729, 932.4972
279.2551, 934.3655
279.7372, 936.6097
280.2193, 939.3316
280.7014, 941.8417
281.1835, 943.7030
281.6656, 944.9268
282.1478, 946.1700
282.6299, 947.4096
283.1120, 948.7766
283.5941, 950.4940
284.0762, 952.5764
284.5583, 954.8866
285.0405, 957.3829
285.5226, 960.0677
286.0047, 962.9432
286.4868, 965.9888
286.9689, 969.2887
287.4510, 973.2186
287.9332, 977.7260
288.4153, 981.8047
288.8974, 984.7141
289.3795, 986.8177
289.8616, 989.4146
290.3438, 992.5455
290.8259, 995.8680
291.3080, 999.1500
291.7901, 1002.331
292.2722, 1005.191
292.7543, 1007.201
293.2365, 1009.018
293.7186, 1012.427
294.2007, 1017.419
294.6828, 1022.704
295.1649, 1027.194
295.6470, 1031.018
296.1292, 1034.716
296.6113, 1038.225
297.0934, 1041.842
297.5755, 1046.383
298.0576, 1051.765
298.5397, 1056.832
299.0219, 1060.283
299.5040, 1062.904
299.9861, 1066.388
300.4682, 1071.242
300.9503, 1076.704
301.4324, 1082.149
301.9146, 1087.512
302.3967, 1092.729
302.8788, 1097.494
303.3609, 1102.140
303.8430, 1106.992
304.3251, 1112.037
304.8073, 1117.495
305.2894, 1123.926
305.7715, 1130.959
306.2536, 1137.885
306.7357, 1144.062
307.2178, 1150.007
307.7000, 1156.121
308.1821, 1162.421
308.6642, 1168.876
309.1463, 1175.653
309.6284, 1182.495
310.1105, 1189.112
310.5927, 1194.753
311.0748, 1200.464
311.5569, 1207.430
312.0390, 1215.652
312.5211, 1223.278
313.0032, 1228.506
313.4854, 1232.988
313.9675, 1238.415
314.4496, 1246.481
314.9317, 1254.612
315.4138, 1261.396
315.8959, 1267.074
316.3781, 1273.280
316.8602, 1281.194
317.3423, 1289.590
317.8244, 1297.549
318.3065, 1304.627
318.7886, 1311.595
319.2708, 1318.350
319.7529, 1325.096
320.2350, 1332.445
320.7171, 1340.770
321.1992, 1349.491
321.6813, 1358.375
322.1635, 1367.590
322.6456, 1376.461
323.1277, 1384.585
323.6098, 1392.304
324.0919, 1400.239
324.5740, 1408.010
325.0562, 1416.324
325.5383, 1425.770
326.0204, 1436.984
326.5025, 1446.807
326.9846, 1453.872
327.4667, 1459.926
327.9489, 1466.928
328.4310, 1476.363
328.9131, 1485.166
329.3952, 1492.743
329.8773, 1499.073
330.3594, 1505.693
330.8416, 1512.733
331.3237, 1519.891
331.8058, 1526.953
332.2879, 1534.081
332.7700, 1540.841
333.2521, 1547.098
333.7343, 1552.986
334.2164, 1559.273
334.6985, 1566.237
335.1806, 1573.022
335.6627, 1579.133
336.1448, 1584.283
336.6270, 1589.483
337.1091, 1594.899
337.5912, 1600.206
338.0733, 1604.938
338.5554, 1609.201
339.0375, 1612.414
339.5197, 1613.962
340.0018, 1613.703
340.4839, 1614.445
340.9660, 1616.471
341.4481, 1618.844
341.9302, 1620.514
342.4124, 1621.507
342.8945, 1621.455
343.3766, 1619.775
343.8587, 1616.974
344.3408, 1615.550
344.8229, 1615.689
345.3051, 1615.948
345.7872, 1615.226
346.2693, 1613.546
346.7514, 1610.926
347.2335, 1607.267
347.7156, 1602.854
348.1978, 1598.339
348.6799, 1593.708
349.1620, 1588.616
349.6441, 1582.501
350.1262, 1575.793
350.6083, 1569.602
351.0905, 1564.129
351.5726, 1558.734
352.0547, 1552.630
352.5368, 1545.955
353.0189, 1539.132
353.5010, 1532.943
353.9832, 1526.445
354.4653, 1518.140
354.9474, 1507.825
355.4295, 1497.469
355.9116, 1488.540
356.3937, 1480.513
356.8759, 1472.734
357.3580, 1465.243
357.8401, 1457.588
358.3222, 1449.491
358.8043, 1440.916
359.2864, 1432.068
359.7686, 1422.746
360.2507, 1413.307
360.7328, 1404.190
361.2149, 1395.593
361.6970, 1387.005
362.1791, 1378.200
362.6613, 1369.236
363.1434, 1360.261
363.6255, 1351.586
364.1076, 1342.675
364.5897, 1333.002
365.0718, 1322.280
365.5540, 1312.256
366.0361, 1303.679
366.5182, 1295.831
367.0003, 1287.855
367.4824, 1279.814
367.9645, 1271.501
368.4467, 1262.618
368.9288, 1253.279
369.4109, 1244.479
369.8930, 1236.855
370.3751, 1229.318
370.8572, 1221.055
371.3394, 1211.374
371.8215, 1202.307
372.3036, 1194.008
372.7857, 1186.425
373.2678, 1179.346
373.7499, 1172.957
374.2321, 1166.594
374.7142, 1159.897
375.1963, 1152.568
375.6784, 1145.976
376.1605, 1140.312
376.6426, 1135.167
377.1248, 1130.292
377.6069, 1125.761
378.0890, 1120.688
378.5711, 1114.548
379.0532, 1107.532
379.5353, 1101.520
380.0175, 1096.568
380.4996, 1092.082
380.9817, 1087.685
381.4638, 1083.352
381.9459, 1078.514
382.4280, 1072.835
382.9102, 1066.952
383.3923, 1062.458
383.8744, 1059.179
384.3565, 1055.800
384.8386, 1051.000
385.3207, 1045.570
385.8029, 1041.460
386.2850, 1038.992
386.7671, 1036.918
387.2492, 1034.093
387.7313, 1030.664
388.2134, 1027.013
388.6956, 1022.928
389.1777, 1019.015
389.6598, 1016.040
390.1419, 1013.971
390.6240, 1011.749
391.1061, 1008.560
391.5883, 1004.949
392.0704, 1001.443
392.5525, 997.9573
393.0346, 994.9550
393.5167, 992.7039
393.9988, 991.0806
394.4810, 989.6959
394.9631, 989.1444
395.4452, 988.2320
395.9273, 986.0225
396.4094, 981.6056
396.8915, 978.4644
397.3737, 978.0284
397.8558, 978.9334
398.3379, 979.4973
398.8200, 979.2614
399.3021, 978.9539
399.7842, 978.7360
400.2664, 978.5974
400.7485, 978.2053
401.2306, 977.2486
401.7127, 976.3215
402.1948, 975.8310
402.6769, 976.0428
403.1591, 976.0722
403.6412, 975.7377
404.1233, 975.2464
404.6054, 975.1891
405.0875, 975.7670
405.5696, 976.2001
406.0518, 976.1483
406.5339, 975.6081
407.0160, 974.9755
407.4981, 974.2050
407.9802, 973.5402
408.4623, 973.3819
408.9445, 973.7286
409.4266, 973.8802
409.9087, 973.4346
410.3908, 972.8847
410.8729, 973.6239
411.3550, 975.6263
411.8372, 977.6653
412.3193, 978.8040
412.8014, 979.3471
413.2835, 979.9786
413.7656, 980.7697
414.2477, 981.7211
414.7299, 982.6242
415.2120, 983.6560
415.6941, 985.2281
416.1762, 988.4954
416.6583, 991.7462
417.1404, 992.9644
417.6226, 992.2073
418.1047, 991.9244
418.5868, 993.9946
419.0689, 996.9840
419.5510, 999.5652
420.0331, 1001.224
420.5153, 1002.602
420.9974, 1003.788
421.4795, 1004.862
421.9616, 1005.976
422.4437, 1007.398
422.9258, 1008.719
423.4080, 1009.797
423.8901, 1010.655
424.3722, 1011.276
424.8543, 1011.609
425.3364, 1011.762
425.8185, 1011.803
426.3007, 1011.261
426.7828, 1011.337
427.2649, 1012.469
427.7470, 1014.442
428.2291, 1015.908
428.7112, 1016.779
429.1934, 1017.253
429.6755, 1017.453
430.1576, 1017.391
430.6397, 1016.736
431.1218, 1015.093
431.6039, 1013.461
432.0861, 1013.912
432.5682, 1016.640
433.0503, 1018.427
433.5324, 1017.674
434.0145, 1015.241
434.4966, 1014.207
434.9788, 1014.615
435.4609, 1015.373
435.9430, 1015.767
436.4251, 1015.811
436.9072, 1015.496
437.3893, 1014.739
437.8715, 1013.851
438.3536, 1013.035
438.8357, 1012.351
439.3178, 1011.962
439.7999, 1012.387
440.2820, 1012.855
440.7642, 1012.693
441.2463, 1011.851
441.7284, 1010.528
442.2105, 1008.438
442.6926, 1006.072
443.1747, 1003.898
443.6569, 1002.125
444.1390, 1000.430
444.6211, 998.8582
445.1032, 997.3043
445.5853, 995.5233
446.0674, 993.6156
446.5496, 991.3530
447.0317, 988.5565
447.5138, 984.9683
447.9959, 981.7508
448.4780, 979.3584
448.9601, 977.0469
449.4423, 973.9740
449.9244, 969.6600
450.4065, 965.7312
450.8886, 962.6289
451.3707, 960.0997
451.8528, 956.8104
452.3350, 952.4387
452.8171, 948.1880
453.2992, 944.8334
453.7813, 942.3663
454.2634, 939.1498
454.7455, 934.9733
455.2277, 930.4491
455.7098, 926.0782
456.1919, 921.9329
456.6740, 918.3456
457.1561, 915.9301
457.6382, 913.7916
458.1204, 910.3005
458.6025, 905.5853
459.0846, 900.7880
459.5667, 896.5341
460.0488, 892.6752
460.5309, 889.1222
461.0131, 886.0013
461.4952, 882.6187
461.9773, 878.0697
462.4594, 873.0957
462.9415, 868.7166
463.4236, 866.0140
463.9058, 863.3975
464.3879, 860.0027
464.8700, 855.9551
465.3521, 852.1938
465.8342, 849.0853
466.3163, 846.1797
466.7985, 843.2090
467.2806, 840.0066
467.7627, 837.0255
468.2448, 834.6630
468.7269, 832.3807
469.2090, 829.3458
469.6912, 825.0740
470.1733, 820.8650
470.6554, 817.0356
471.1375, 813.5375
471.6196, 809.8387
472.1017, 805.7731
472.5839, 801.9543
473.0660, 798.8322
473.5481, 796.4300
474.0302, 793.9210
474.5123, 791.2452
474.9944, 788.4672
475.4766, 785.7344
475.9587, 783.0217
476.4408, 780.0943
476.9229, 776.6988
477.4050, 773.1804
477.8871, 770.1592
478.3693, 767.6059
478.8514, 765.2002
479.3335, 762.5154
479.8156, 759.9293
480.2977, 758.0236
480.7798, 757.1053
481.2620, 756.1566
481.7441, 754.5409
482.2262, 752.5176
482.7083, 750.4724
483.1904, 748.1478
483.6725, 746.1633
484.1547, 744.9799
484.6368, 744.5216
485.1189, 743.7258
485.6010, 742.4556
486.0831, 740.7786
486.5652, 738.6779
487.0474, 735.6458
487.5295, 733.2802
488.0116, 731.9913
488.4937, 731.0914
488.9758, 729.5201
489.4579, 726.9620
489.9401, 724.7057
490.4222, 723.1458
490.9043, 722.1104
491.3864, 720.6733
491.8685, 718.7675
492.3506, 716.8821
492.8328, 715.4039
493.3149, 714.2510
493.7970, 713.0496
494.2791, 711.7897
494.7612, 710.3906
495.2433, 708.5146
495.7255, 706.4072
496.2076, 704.6801
496.6897, 703.8018
497.1718, 703.1691
497.6539, 702.3156
498.1360, 701.2585
498.6182, 700.0281
499.1003, 698.3209
499.5824, 696.6721
500.0645, 695.6124
500.5466, 695.3691
501.0287, 694.8297
501.5109, 693.2694
501.9930, 691.4247
502.4751, 690.0502
502.9572, 689.7272
503.4393, 689.2899
503.9214, 688.6012
504.4036, 687.7099
504.8857, 686.7482
505.3678, 685.6156
505.8499, 684.5766
506.3320, 683.8143
506.8141, 683.3724
507.2963, 682.4844
507.7784, 680.9303
508.2605, 679.4988
508.7426, 679.2110
509.2247, 679.9705
509.7068, 680.2688
510.1890, 679.7247
510.6711, 678.7851
511.1532, 678.1189
511.6353, 677.6979
512.1174, 677.4144
512.5995, 677.2977
513.0817, 677.2303
513.5638, 677.1111
514.0459, 676.9315
514.5280, 676.6122
515.0101, 675.8212
515.4922, 675.0158
515.9744, 674.6847
516.4565, 675.2443
516.9386, 675.6664
517.4207, 675.8491
517.9028, 675.6454
518.3849, 674.8101
518.8671, 672.2114
519.3492, 670.1609
519.8313, 669.3453
520.3134, 669.6717
520.7955, 669.6254
521.2776, 668.8320
521.7598, 668.2057
522.2419, 668.3867
522.7240, 669.6107
523.2061, 670.3441
523.6882, 670.5030
524.1703, 670.2963
524.6525, 669.7888
525.1346, 669.0250
525.6167, 668.8010
526.0988, 669.5867
526.5809, 670.7516
527.0630, 671.2372
527.5452, 671.0834
528.0273, 670.5233
528.5094, 669.4507
528.9915, 668.1791
529.4736, 666.9105
529.9557, 665.6408
530.4379, 664.8157
530.9200, 664.8511
531.4021, 665.3693
531.8842, 666.0186
532.3663, 666.9571
532.8484, 667.6465
533.3306, 667.9013
533.8127, 667.8078
534.2948, 667.5408
534.7769, 666.8534
535.2590, 666.2883
535.7411, 665.9152
536.2233, 665.7430
536.7054, 666.0353
537.1875, 667.0631
537.6696, 668.0530
538.1517, 668.5009
538.6339, 668.3778
539.1160, 668.0461
539.5981, 667.3989
540.0802, 666.9221
540.5623, 667.5651
541.0444, 669.0820
541.5266, 670.0286
542.0087, 669.5842
542.4908, 668.7668
542.9729, 669.2466
543.4550, 670.6996
543.9371, 671.8549
544.4193, 671.3864
544.9014, 670.7216
545.3835, 671.2564
545.8656, 673.1733
546.3477, 674.8066
546.8298, 675.3015
547.3120, 675.3301
547.7941, 675.4326
548.2762, 675.4440
548.7583, 675.8730
549.2404, 676.7291
549.7225, 678.0218
550.2047, 680.0012
550.6868, 683.8709
551.1689, 685.9980
551.6510, 684.8251
552.1331, 681.0305
552.6152, 679.1676
553.0974, 679.5026
553.5795, 680.4900
554.0616, 681.2430
554.5437, 681.8132
555.0258, 682.4968
555.5079, 683.3484
555.9901, 684.1276
556.4722, 684.0841
556.9543, 683.8414
557.4364, 684.8301
557.9185, 688.2114
558.4006, 691.7293
558.8828, 693.5314
559.3649, 694.0978
559.8470, 694.5948
560.3291, 695.2189
560.8112, 696.0872
561.2933, 697.3476
561.7755, 698.9940
562.2576, 700.5244
562.7397, 701.7599
563.2218, 702.9144
563.7039, 704.1588
564.1860, 705.8011
564.6682, 706.6411
565.1503, 706.2626
565.6324, 705.6329
566.1145, 706.0753
566.5966, 707.7171
567.0787, 709.4030
567.5609, 710.9086
568.0430, 712.3221
568.5251, 713.8327
569.0072, 715.4305
569.4893, 716.8776
569.9714, 717.9337
570.4536, 718.8309
570.9357, 719.7454
571.4178, 720.7064
571.8999, 722.1548
572.3820, 725.0430
572.8641, 728.1465
573.3463, 730.2652
573.8284, 730.8527
574.3105, 731.4013
574.7926, 732.1364
575.2747, 733.1484
575.7568, 734.5606
576.2390, 736.9916
576.7211, 739.0134
577.2032, 740.3376
577.6853, 741.1542
578.1674, 741.9714
578.6495, 742.6208
579.1317, 743.7968
579.6138, 746.0524
580.0959, 749.1949
580.5780, 751.5914
581.0601, 753.2380
581.5422, 754.4473
582.0244, 755.2752
582.5065, 755.8977
582.9886, 756.7170
583.4707, 757.8022
583.9528, 759.0849
584.4349, 760.2643
584.9171, 761.6642
585.3992, 763.7821
585.8813, 768.0285
586.3634, 771.6864
586.8455, 773.1311
587.3276, 773.0745
587.8098, 773.4033
588.2919, 774.4672
588.7740, 775.9802
589.2561, 778.0450
589.7382, 780.6758
590.2203, 782.7059
590.7025, 783.8193
591.1846, 784.8566
591.6667, 786.3419
592.1488, 788.3046
592.6309, 790.5438
593.1130, 793.1825
593.5952, 795.6850
594.0773, 797.2266
594.5594, 798.0498
595.0415, 799.0381
595.5236, 800.4418
596.0057, 802.0950
596.4879, 803.8395
596.9700, 805.6805
597.4521, 807.6106
597.9342, 809.8273
598.4163, 811.9596
598.8984, 813.7209
599.3806, 815.1586
599.8627, 816.6883
600.3448, 818.6107
600.8269, 820.4574
601.3090, 822.0138
601.7911, 823.2185
602.2733, 824.3287
602.7554, 825.1810
603.2375, 826.1627
603.7196, 827.7568
604.2017, 830.0757
604.6838, 831.9261
605.1660, 833.0476
605.6481, 833.9756
606.1302, 835.7406
606.6123, 838.1312
607.0944, 840.1269
607.5765, 841.0871
608.0587, 841.7441
608.5408, 843.1708
609.0229, 845.0819
609.5050, 846.5167
609.9871, 846.5253
610.4692, 846.2391
610.9514, 846.2310
611.4335, 846.5362
611.9156, 847.1924
612.3977, 848.9685
612.8798, 850.5016
613.3619, 850.9559
613.8441, 849.8703
614.3262, 848.7528
614.8083, 847.4159
615.2904, 846.3015
615.7725, 846.3406
616.2546, 847.6655
616.7368, 847.8370
617.2189, 846.0661
617.7010, 843.4871
618.1831, 842.1482
618.6652, 841.8186
619.1473, 841.5722
619.6295, 841.0660
620.1116, 840.3607
620.5937, 839.4247
621.0758, 838.3102
621.5579, 837.2518
