##NAMES=Pseudobrookite
##RRUFFID=R120173
##IDEAL CHEMISTRY=(Fe^3+^_2_Ti^4+^)O_5_
##LOCALITY=Nuestra Se√±ora del Carmen Mines, La Celia, Jumilla, Murcia, Spain
##OWNER=RRUFF
##SOURCE=Bob Jenkins
##DESCRIPTION=Dark brown tabular, associated with R120174 enstatite
##STATUS=The identification of this mineral has been confirmed by single-crystal X-ray diffraction.
##URL=rruff.info/R120173
135.9146, 417.5507
136.3968, 418.9815
136.8789, 420.5021
137.3610, 422.3520
137.8431, 424.8037
138.3252, 427.9760
138.8073, 431.4247
139.2895, 435.7134
139.7716, 440.0498
140.2537, 443.7054
140.7358, 446.6188
141.2179, 448.3813
141.7000, 448.0086
142.1821, 445.7376
142.6643, 443.0939
143.1464, 440.4491
143.6285, 437.8715
144.1106, 435.5620
144.5927, 433.4667
145.0748, 431.8433
145.5570, 431.0374
146.0391, 431.0384
146.5212, 430.9632
147.0033, 429.8425
147.4854, 427.5172
147.9675, 425.6895
148.4497, 425.1424
148.9318, 424.9045
149.4139, 424.5682
149.8960, 424.0284
150.3781, 423.2715
150.8602, 422.2072
151.3424, 420.5155
151.8245, 419.2162
152.3066, 418.3864
152.7887, 417.9003
153.2708, 417.8382
153.7529, 418.2013
154.2351, 418.6539
154.7172, 418.3283
155.1993, 415.8009
155.6814, 414.2035
156.1635, 414.3448
156.6456, 415.2878
157.1278, 415.8618
157.6099, 415.4589
158.0920, 414.3911
158.5741, 414.0080
159.0562, 415.1036
159.5383, 415.8901
160.0205, 415.6318
160.5026, 414.7129
160.9847, 414.0558
161.4668, 414.2500
161.9489, 415.0866
162.4310, 415.5475
162.9131, 415.2876
163.3953, 415.0125
163.8774, 415.1526
164.3595, 415.6754
164.8416, 416.2609
165.3237, 416.7388
165.8058, 417.1381
166.2880, 417.5259
166.7701, 417.8189
167.2522, 418.1773
167.7343, 418.9670
168.2164, 420.3649
168.6985, 421.3447
169.1807, 420.7468
169.6628, 419.4947
170.1449, 418.7391
170.6270, 419.1597
171.1091, 420.1949
171.5912, 420.4926
172.0734, 419.6276
172.5555, 418.7781
173.0376, 418.4005
173.5197, 418.3261
174.0018, 418.3452
174.4839, 418.3918
174.9661, 418.4273
175.4482, 418.1888
175.9303, 417.3310
176.4124, 416.5785
176.8945, 416.0722
177.3766, 415.8093
177.8588, 415.7892
178.3409, 416.0493
178.8230, 416.5938
179.3051, 416.9214
179.7872, 416.8733
180.2693, 416.7663
180.7515, 416.4928
181.2336, 416.2057
181.7157, 416.2363
182.1978, 416.8925
182.6799, 418.2423
183.1620, 419.5802
183.6441, 420.9382
184.1263, 422.2562
184.6084, 423.3301
185.0905, 424.2512
185.5726, 425.4542
186.0547, 427.4112
186.5368, 430.2680
187.0190, 432.6709
187.5011, 433.9313
187.9832, 435.2198
188.4653, 437.5200
188.9474, 440.9023
189.4296, 444.5827
189.9117, 447.8469
190.3938, 450.6891
190.8759, 453.5259
191.3580, 456.2471
191.8401, 459.0399
192.3223, 462.1938
192.8044, 465.7997
193.2865, 469.4918
193.7686, 472.8227
194.2507, 475.9254
194.7328, 479.2363
195.2150, 483.3524
195.6971, 487.7022
196.1792, 491.0044
196.6613, 492.7133
197.1434, 494.3364
197.6255, 497.2991
198.1077, 501.1201
198.5898, 504.4969
199.0719, 506.7475
199.5540, 508.0136
200.0361, 508.8522
200.5182, 509.1279
201.0004, 509.1378
201.4825, 509.1900
201.9646, 509.1654
202.4467, 508.7665
202.9288, 507.7718
203.4109, 506.1987
203.8930, 504.3148
204.3752, 501.9522
204.8573, 499.4283
205.3394, 497.0494
205.8215, 494.6532
206.3036, 491.7762
206.7857, 487.7925
207.2679, 482.5821
207.7500, 478.6256
208.2321, 477.4115
208.7142, 476.1596
209.1963, 473.9678
209.6784, 470.9710
210.1606, 467.7280
210.6427, 464.6125
211.1248, 461.5356
211.6069, 459.5797
212.0890, 459.8999
212.5711, 460.1556
213.0533, 458.9184
213.5354, 456.6270
214.0175, 454.8976
214.4996, 455.3178
214.9817, 458.2990
215.4638, 460.6319
215.9460, 462.0539
216.4281, 463.2306
216.9102, 464.2733
217.3923, 465.3083
217.8744, 466.6649
218.3565, 468.6860
218.8387, 471.4765
219.3208, 474.0700
219.8029, 476.0171
220.2850, 478.1592
220.7671, 481.3016
221.2492, 485.3326
221.7314, 489.1992
222.2135, 491.9482
222.6956, 493.4709
223.1777, 495.1836
223.6598, 496.9708
224.1419, 499.0250
224.6240, 501.7398
225.1062, 505.0823
225.5883, 508.2003
226.0704, 510.4160
226.5525, 511.7265
227.0346, 512.6939
227.5167, 513.1580
227.9989, 513.4078
228.4810, 513.8289
228.9631, 514.4571
229.4452, 514.6866
229.9273, 513.8130
230.4094, 512.1799
230.8916, 510.7503
231.3737, 510.1231
231.8558, 509.5233
232.3379, 507.9531
232.8200, 505.2930
233.3021, 502.5016
233.7843, 500.2383
234.2664, 498.2144
234.7485, 495.9755
235.2306, 493.2788
235.7127, 490.4268
236.1948, 487.9184
236.6770, 485.8845
237.1591, 483.5829
237.6412, 480.3221
238.1233, 476.6617
238.6054, 473.1465
239.0875, 469.9137
239.5697, 466.9388
240.0518, 464.2978
240.5339, 462.1324
241.0160, 459.8048
241.4981, 456.7386
241.9802, 453.5308
242.4624, 450.8141
242.9445, 448.8841
243.4266, 447.3010
243.9087, 445.2856
244.3908, 442.6629
244.8729, 440.0829
245.3550, 437.7031
245.8372, 435.4526
246.3193, 433.3366
246.8014, 431.3644
247.2835, 429.3839
247.7656, 427.0740
248.2477, 424.3071
248.7299, 421.5114
249.2120, 418.3873
249.6941, 415.4872
250.1762, 413.4046
250.6583, 412.2911
251.1404, 411.5762
251.6226, 410.2303
252.1047, 407.8138
252.5868, 405.7879
253.0689, 404.4688
253.5510, 403.4001
254.0331, 402.3294
254.5153, 401.1695
254.9974, 399.8824
255.4795, 398.3478
255.9616, 396.3080
256.4437, 394.6077
256.9258, 393.3251
257.4080, 392.2697
257.8901, 391.3100
258.3722, 390.4271
258.8543, 389.6924
259.3364, 389.2571
259.8185, 389.4115
260.3007, 389.1042
260.7828, 388.0061
261.2649, 386.7976
261.7470, 385.8504
262.2291, 385.2236
262.7112, 384.8211
263.1934, 384.5748
263.6755, 384.6332
264.1576, 384.2646
264.6397, 382.9512
265.1218, 381.7259
265.6039, 381.1914
266.0861, 381.3367
266.5682, 381.7946
267.0503, 382.2593
267.5324, 382.7854
268.0145, 382.8957
268.4966, 382.2245
268.9788, 381.5587
269.4609, 381.2986
269.9430, 381.4082
270.4251, 381.6441
270.9072, 381.8384
271.3893, 381.9959
271.8715, 381.8934
272.3536, 380.9308
272.8357, 380.3448
273.3178, 381.0649
273.7999, 382.6602
274.2820, 383.8468
274.7642, 383.6446
275.2463, 382.2368
275.7284, 381.9409
276.2105, 383.6017
276.6926, 385.1714
277.1747, 385.8703
277.6568, 385.9584
278.1389, 386.0712
278.6211, 386.5682
279.1032, 387.3313
279.5853, 387.8490
280.0674, 388.0539
280.5495, 388.1554
281.0316, 387.9633
281.5138, 387.7312
281.9959, 387.9669
282.4780, 388.9320
282.9601, 390.3513
283.4422, 391.5334
283.9243, 392.5992
284.4065, 393.2872
284.8886, 393.1021
285.3707, 392.6209
285.8528, 392.6996
286.3349, 393.6339
286.8170, 395.1219
287.2992, 396.7717
287.7813, 398.7099
288.2634, 400.3569
288.7455, 401.2841
289.2276, 401.9978
289.7097, 403.1084
290.1919, 404.7588
290.6740, 406.7037
291.1561, 408.7943
291.6382, 411.0941
292.1203, 412.9051
292.6024, 413.7025
293.0846, 414.2356
293.5667, 415.2120
294.0488, 416.7274
294.5309, 418.5089
295.0130, 420.3449
295.4951, 422.2427
295.9773, 424.1966
296.4594, 426.2743
296.9415, 428.3565
297.4236, 430.4557
297.9057, 432.5302
298.3878, 434.2574
298.8700, 435.1451
299.3521, 435.4744
299.8342, 436.8763
300.3163, 440.1841
300.7984, 443.7627
301.2805, 446.8555
301.7627, 449.4639
302.2448, 451.5860
302.7269, 452.9483
303.2090, 454.0491
303.6911, 456.3957
304.1732, 460.8555
304.6554, 465.0478
305.1375, 467.6049
305.6196, 469.0693
306.1017, 470.8302
306.5838, 473.4128
307.0659, 476.5282
307.5481, 479.6711
308.0302, 482.8940
308.5123, 485.9799
308.9944, 488.8200
309.4765, 491.4824
309.9586, 493.8955
310.4408, 495.9220
310.9229, 498.1748
311.4050, 501.7126
311.8871, 506.5833
312.3692, 511.0801
312.8513, 514.7253
313.3335, 517.8833
313.8156, 520.8866
314.2977, 523.7589
314.7798, 526.7789
315.2619, 530.2950
315.7440, 534.2843
316.2262, 538.1416
316.7083, 541.4728
317.1904, 544.8978
317.6725, 549.1334
318.1546, 554.1399
318.6367, 558.9541
319.1188, 562.8958
319.6010, 566.0948
320.0831, 569.4637
320.5652, 572.9376
321.0473, 576.6525
321.5294, 580.8693
322.0115, 585.4308
322.4937, 589.8140
322.9758, 593.6701
323.4579, 597.2928
323.9400, 601.3613
324.4221, 606.0813
324.9042, 610.7443
325.3864, 615.0554
325.8685, 619.1557
326.3506, 623.3887
326.8327, 627.9023
327.3148, 632.4484
327.7969, 636.5484
328.2791, 640.0707
328.7612, 643.9581
329.2433, 648.8883
329.7254, 654.0278
330.2075, 658.2899
330.6896, 661.4877
331.1718, 664.4036
331.6539, 667.7582
332.1360, 671.5947
332.6181, 675.7315
333.1002, 680.8331
333.5823, 685.6982
334.0645, 689.2191
334.5466, 691.4968
335.0287, 693.7720
335.5108, 696.9730
335.9929, 700.9006
336.4750, 704.0100
336.9572, 705.9180
337.4393, 707.5480
337.9214, 709.0324
338.4035, 710.5289
338.8856, 712.5333
339.3677, 715.4154
339.8499, 718.6095
340.3320, 720.4477
340.8141, 720.1428
341.2962, 720.1274
341.7783, 721.6023
342.2604, 723.3531
342.7426, 723.5867
343.2247, 721.7897
343.7068, 719.1932
344.1889, 717.4942
344.6710, 717.1185
345.1531, 716.5098
345.6353, 715.3912
346.1174, 714.2354
346.5995, 713.6888
347.0816, 713.6563
347.5637, 713.2030
348.0458, 711.4866
348.5280, 708.4352
349.0101, 705.0578
349.4922, 700.7843
349.9743, 696.8147
350.4564, 694.0822
350.9385, 692.1023
351.4207, 689.7432
351.9028, 686.3676
352.3849, 682.1088
352.8670, 677.4512
353.3491, 671.5685
353.8312, 666.3278
354.3134, 662.7223
354.7955, 659.5839
355.2776, 655.2722
355.7597, 649.2637
356.2418, 642.7440
356.7239, 637.7271
357.2061, 635.2977
357.6882, 632.2260
358.1703, 628.5023
358.6524, 624.2075
359.1345, 619.2187
359.6166, 613.6292
360.0987, 607.8649
360.5808, 602.2604
361.0630, 596.7819
361.5451, 591.7959
362.0272, 587.8638
362.5093, 583.8181
362.9914, 579.3233
363.4735, 574.4063
363.9557, 569.2038
364.4378, 563.7552
364.9199, 558.1770
365.4020, 552.9603
365.8841, 548.2185
366.3662, 543.7427
366.8484, 539.6171
367.3305, 535.6917
367.8126, 531.8781
368.2947, 528.1485
368.7768, 524.3920
369.2589, 520.3989
369.7411, 516.0694
370.2232, 511.7873
370.7053, 507.4489
371.1874, 503.2417
371.6695, 499.2640
372.1516, 495.5089
372.6338, 491.8155
373.1159, 488.0912
373.5980, 484.3401
374.0801, 480.4453
374.5622, 476.0117
375.0443, 471.9352
375.5265, 468.7300
376.0086, 465.9937
376.4907, 463.1226
376.9728, 459.7754
377.4549, 456.1942
377.9370, 452.8839
378.4192, 449.8663
378.9013, 447.0705
379.3834, 444.5411
379.8655, 442.1817
380.3476, 440.0070
380.8297, 438.0143
381.3119, 435.9593
381.7940, 433.4608
382.2761, 430.5312
382.7582, 428.0431
383.2403, 426.3338
383.7224, 424.8492
384.2046, 423.2041
384.6867, 421.4452
385.1688, 419.7077
385.6509, 417.9672
386.1330, 416.3309
386.6151, 415.2093
387.0973, 414.8520
387.5794, 414.1081
388.0615, 411.8593
388.5436, 408.9149
389.0257, 406.3375
389.5078, 404.2004
389.9900, 402.6932
390.4721, 402.3610
390.9542, 403.0218
391.4363, 403.2511
391.9184, 402.5049
392.4005, 401.2077
392.8827, 399.8683
393.3648, 398.4596
393.8469, 397.2797
394.3290, 396.5617
394.8111, 396.1132
395.2932, 395.6831
395.7754, 395.2442
396.2575, 394.6968
396.7396, 393.7628
397.2217, 392.5514
397.7038, 392.0629
398.1859, 393.1354
398.6681, 394.2433
399.1501, 394.2245
399.6323, 393.3434
400.1144, 392.6468
400.5965, 392.6920
401.0786, 393.2002
401.5607, 393.3517
402.0428, 392.8621
402.5250, 392.5674
403.0071, 392.6534
403.4892, 392.9876
403.9713, 393.5442
404.4534, 394.2813
404.9355, 394.8814
405.4177, 394.9171
405.8998, 394.2008
406.3819, 393.8638
406.8640, 393.9545
407.3461, 394.3228
407.8282, 394.9342
408.3104, 395.7643
408.7925, 396.7714
409.2746, 397.9380
409.7567, 399.2730
410.2388, 400.8510
410.7209, 403.3412
411.2031, 405.1719
411.6852, 405.7386
412.1673, 405.8640
412.6494, 406.2008
413.1315, 406.9707
413.6136, 408.1959
414.0958, 410.0567
414.5779, 412.8727
415.0600, 415.0714
415.5421, 415.9053
416.0242, 416.7954
416.5063, 418.4136
416.9885, 420.5490
417.4706, 422.5685
417.9527, 424.0462
418.4348, 425.1510
418.9169, 426.4800
419.3990, 428.0754
419.8812, 429.7975
420.3633, 431.4944
420.8454, 433.3346
421.3275, 435.6427
421.8096, 438.5153
422.2917, 441.2189
422.7739, 442.7376
423.2560, 443.1462
423.7381, 444.1833
424.2202, 446.5351
424.7023, 448.9692
425.1844, 450.4510
425.6666, 451.2044
426.1487, 452.0534
426.6308, 453.4404
427.1129, 455.0777
427.5950, 456.5244
428.0771, 457.7767
428.5593, 459.0575
429.0414, 460.6929
429.5235, 462.3002
430.0056, 463.0621
430.4877, 462.6001
430.9698, 462.1581
431.4520, 462.3359
431.9341, 462.9707
432.4162, 463.7280
432.8983, 464.5135
433.3804, 465.4975
433.8625, 467.0408
434.3447, 469.2783
434.8268, 470.7464
435.3089, 470.8099
435.7910, 470.5886
436.2731, 470.8563
436.7552, 471.4977
437.2374, 471.9587
437.7195, 471.8995
438.2016, 471.4533
438.6837, 471.1279
439.1658, 471.1661
439.6479, 471.0116
440.1301, 470.5335
440.6122, 469.9028
441.0943, 469.3258
441.5764, 468.8239
442.0585, 468.2111
442.5406, 467.2902
443.0227, 466.0561
443.5049, 464.5482
443.9870, 462.5065
444.4691, 460.4637
444.9512, 458.6161
445.4333, 456.8836
445.9154, 455.1053
446.3976, 453.2182
446.8797, 451.2204
447.3618, 449.0936
447.8439, 446.8021
448.3260, 444.4879
448.8081, 442.4122
449.2903, 440.1291
449.7724, 437.2042
450.2545, 433.6829
450.7366, 430.1305
451.2187, 427.1928
451.7008, 424.6227
452.1830, 421.3838
452.6651, 417.2915
453.1472, 412.9791
453.6293, 408.4081
454.1114, 403.9510
454.5935, 400.3009
455.0757, 398.0060
455.5578, 395.7874
456.0399, 392.5258
456.5220, 388.4141
457.0041, 384.2182
457.4862, 380.1277
457.9684, 376.0670
458.4505, 371.8568
458.9326, 367.4904
459.4147, 363.3969
459.8968, 359.7336
460.3789, 356.3360
460.8611, 353.1999
461.3432, 350.2495
461.8253, 347.1556
462.3074, 343.6624
462.7895, 339.9029
463.2716, 336.3436
463.7538, 333.0173
464.2359, 329.8315
464.7180, 326.8888
465.2001, 323.9896
465.6822, 320.8799
466.1643, 317.5278
466.6465, 314.2054
467.1286, 311.2356
467.6107, 308.6420
468.0928, 305.9339
468.5749, 302.8429
469.0570, 299.9192
469.5392, 297.4835
470.0213, 295.2669
470.5034, 292.8421
470.9855, 290.0080
471.4676, 287.0617
471.9497, 284.6017
472.4319, 282.7996
472.9140, 280.7423
473.3961, 277.8960
473.8782, 275.1225
474.3603, 273.0036
474.8424, 271.4425
475.3246, 269.8743
475.8067, 267.9001
476.2888, 265.7323
476.7709, 263.8380
477.2530, 262.2666
477.7351, 260.7062
478.2173, 258.9878
478.6994, 257.2082
479.1815, 255.5758
479.6636, 254.1884
480.1457, 252.6265
480.6278, 250.2971
481.1100, 247.7467
481.5920, 246.1402
482.0742, 245.7175
482.5563, 245.4070
483.0384, 244.2251
483.5205, 242.1745
484.0026, 240.3319
484.4847, 238.6425
484.9669, 237.2063
485.4490, 236.2395
485.9311, 235.5092
486.4132, 234.6119
486.8953, 233.3947
487.3774, 232.0143
487.8596, 230.7395
488.3417, 229.6184
488.8238, 228.4466
489.3059, 227.0849
489.7880, 225.8168
490.2701, 224.9279
490.7523, 224.2449
491.2344, 223.3375
491.7165, 221.9084
492.1986, 220.2083
492.6807, 218.9465
493.1628, 218.2686
493.6450, 217.6367
494.1271, 216.9695
494.6092, 216.2962
495.0913, 215.6313
495.5734, 214.9787
496.0555, 214.3369
496.5377, 213.7557
497.0198, 213.1850
497.5019, 212.4723
497.9840, 211.5883
498.4661, 210.6732
498.9482, 209.7078
499.4304, 208.7923
499.9125, 208.1558
500.3946, 207.9794
500.8767, 207.6602
501.3588, 206.6412
501.8409, 205.3429
502.3231, 204.5311
502.8052, 204.3675
503.2873, 204.4895
503.7694, 204.6288
504.2515, 204.7879
504.7336, 204.5965
505.2158, 203.8795
505.6979, 203.0525
506.1800, 202.1182
506.6621, 201.2112
507.1442, 200.5251
507.6263, 200.1277
508.1085, 199.9478
508.5906, 199.9241
509.0727, 200.1741
509.5548, 200.1520
510.0369, 199.5939
510.5190, 199.0251
511.0012, 198.6968
511.4833, 198.4948
511.9654, 198.1633
512.4475, 197.5514
512.9296, 196.8258
513.4117, 196.2927
513.8939, 195.9734
514.3760, 195.6759
514.8581, 195.4135
515.3402, 195.1005
515.8223, 194.6060
516.3044, 193.9713
516.7866, 193.4670
517.2687, 193.4146
517.7508, 193.4332
518.2329, 192.9201
518.7150, 191.9170
519.1971, 191.0707
519.6793, 190.6945
520.1614, 190.6467
520.6435, 190.6866
521.1256, 190.9613
521.6077, 190.8971
522.0898, 190.1286
522.5720, 189.1706
523.0541, 188.4275
523.5362, 187.9417
524.0183, 187.6066
524.5004, 187.3550
524.9825, 187.1841
525.4647, 187.0793
525.9468, 187.1088
526.4289, 187.1111
526.9110, 187.0882
527.3931, 187.0241
527.8752, 186.8836
528.3574, 186.6779
528.8395, 186.4798
529.3216, 186.3766
529.8037, 186.3411
530.2858, 186.1931
530.7679, 185.8893
531.2501, 185.5738
531.7322, 185.2533
532.2143, 184.9799
532.6964, 184.8341
533.1785, 184.8466
533.6606, 184.8562
534.1428, 184.7053
534.6249, 184.4858
535.1070, 184.4452
535.5891, 184.6326
536.0712, 184.7400
536.5533, 184.4623
537.0355, 183.8989
537.5176, 183.6722
537.9997, 184.1812
538.4818, 184.5074
538.9639, 184.1597
539.4460, 183.5935
539.9282, 183.4246
540.4103, 183.7538
540.8924, 184.1951
541.3745, 184.3495
541.8566, 184.2099
542.3387, 184.0240
542.8209, 183.6279
543.3029, 183.3889
543.7850, 183.4413
544.2672, 183.6592
544.7493, 183.9107
545.2314, 184.1581
545.7135, 184.4243
546.1956, 184.8069
546.6777, 185.2776
547.1599, 185.4108
547.6420, 184.9583
548.1241, 184.6487
548.6062, 185.2336
549.0883, 186.1996
549.5704, 186.6775
550.0526, 186.3045
550.5347, 185.8957
551.0168, 185.8485
551.4989, 186.1530
551.9810, 186.9425
552.4631, 188.2603
552.9453, 189.4883
553.4274, 190.0092
553.9095, 189.8192
554.3916, 189.7801
554.8737, 189.8000
555.3558, 190.0519
555.8380, 190.7691
556.3201, 191.6613
556.8022, 192.3284
557.2843, 192.6912
557.7664, 193.0276
558.2485, 193.7075
558.7307, 194.7481
559.2128, 195.5261
559.6949, 195.8237
560.1770, 196.1575
560.6591, 196.6834
561.1412, 197.3461
561.6234, 198.1156
562.1055, 198.9942
562.5876, 199.8521
563.0697, 200.5053
563.5518, 201.0420
564.0339, 201.8100
564.5161, 202.9075
564.9982, 203.9489
565.4803, 204.6050
565.9624, 204.9743
566.4445, 205.5210
566.9266, 206.2527
567.4088, 207.1462
567.8909, 208.3142
568.3730, 209.5816
568.8551, 210.7758
569.3372, 211.8424
569.8193, 212.7336
570.3015, 213.3246
570.7836, 213.6602
571.2657, 214.5871
571.7478, 217.0581
572.2299, 218.8310
572.7120, 218.8966
573.1942, 218.5629
573.6763, 219.0980
574.1584, 220.6642
574.6405, 222.4547
575.1226, 223.7753
575.6047, 224.7375
576.0869, 225.8277
576.5690, 227.0894
577.0511, 228.2863
577.5332, 229.2687
578.0153, 230.1264
578.4974, 230.9568
578.9796, 231.7038
579.4617, 232.6886
579.9438, 234.2080
580.4259, 235.9245
580.9080, 237.4706
581.3901, 238.8247
581.8723, 240.1448
582.3544, 241.5290
582.8365, 242.9573
583.3186, 244.3695
583.8007, 245.8667
584.2828, 247.1944
584.7650, 248.1642
585.2471, 249.1367
585.7292, 250.3393
586.2113, 251.7635
586.6934, 253.2806
587.1755, 254.7882
587.6577, 256.3777
588.1398, 258.2985
588.6219, 260.6118
589.1040, 262.8367
589.5861, 264.7067
590.0682, 266.6359
590.5504, 269.2596
591.0325, 272.3999
591.5146, 274.8325
591.9967, 275.5809
592.4788, 275.9768
592.9609, 277.0878
593.4431, 278.7675
593.9252, 280.5877
594.4073, 282.4017
594.8894, 284.1573
595.3715, 285.7416
595.8536, 287.0195
596.3358, 288.7766
596.8179, 291.4157
597.3000, 294.0116
597.7821, 296.2794
598.2642, 298.2944
598.7463, 300.2056
599.2285, 302.0659
599.7106, 303.8001
600.1927, 305.1780
600.6748, 306.2324
601.1569, 307.8251
601.6390, 310.2237
602.1212, 312.6528
602.6033, 314.6446
603.0854, 316.3871
603.5675, 318.0917
604.0496, 319.7589
604.5317, 321.4835
605.0139, 323.5703
605.4960, 325.6428
605.9781, 327.0438
606.4602, 327.7480
606.9423, 328.3494
607.4244, 329.3029
607.9066, 330.4566
608.3887, 331.1119
608.8708, 330.6076
609.3529, 330.5494
609.8350, 331.3092
610.3171, 332.2670
610.7993, 333.2201
611.2814, 333.9919
611.7635, 334.2291
612.2456, 333.6170
612.7277, 332.4847
613.2098, 331.4594
613.6920, 330.5324
614.1741, 329.7643
614.6562, 329.2643
615.1383, 328.7961
615.6204, 328.2265
616.1025, 327.5273
616.5847, 326.4244
617.0668, 324.5525
617.5489, 322.5696
618.0310, 320.9013
618.5131, 319.4274
618.9952, 317.9023
619.4774, 316.2502
619.9595, 314.5125
620.4416, 312.7543
620.9237, 310.9811
621.4058, 309.0011
621.8879, 306.4928
622.3701, 304.1738
622.8522, 302.4744
623.3343, 300.8835
623.8164, 298.8343
624.2985, 296.2493
624.7806, 293.5658
625.2628, 291.0938
625.7448, 288.8106
626.2269, 286.6266
626.7090, 284.5193
627.1912, 282.7834
627.6733, 281.7588
628.1554, 280.9774
628.6375, 279.4539
629.1196, 277.0507
629.6017, 274.7672
630.0839, 272.6519
630.5660, 270.7785
631.0481, 269.2655
631.5302, 268.0213
632.0123, 266.8202
632.4944, 265.5638
632.9766, 264.3474
