##NAMES=Pseudomalachite
##RRUFFID=R040175
##IDEAL CHEMISTRY=Cu^2+^_5_(P^5+^O_4_)_2_(OH)_4_
##LOCALITY=West Bogan mine, Tottenham, Australia
##OWNER=RRUFF
##SOURCE=University of Arizona Mineral Museum
##DESCRIPTION=Green massive in a botryoidal shape
##STATUS=The identification of this mineral has been confirmed by X-ray diffraction and chemical analysis
##URL=rruff.info/R040175
##MEASURED CHEMISTRY=Cu_5.00_(P_1.00_O_4_)_2_(OH_.98_F_.02_)_4_
124.5917, 1338.697
125.0739, 1424.071
125.5560, 1529.003
126.0381, 1649.433
126.5202, 1780.016
127.0023, 1920.747
127.4844, 2069.709
127.9666, 2227.825
128.4487, 2394.958
128.9308, 2560.702
129.4129, 2715.594
129.8950, 2861.102
130.3772, 2996.375
130.8593, 3119.424
131.3414, 3233.099
131.8235, 3351.221
132.3056, 3475.434
132.7877, 3592.075
133.2699, 3679.438
133.7520, 3736.702
134.2341, 3790.526
134.7162, 3847.484
135.1983, 3907.759
135.6804, 3981.271
136.1626, 4067.699
136.6447, 4166.563
137.1268, 4280.141
137.6089, 4411.334
138.0910, 4544.087
138.5731, 4667.465
139.0553, 4781.626
139.5374, 4892.672
140.0195, 5000.591
140.5016, 5105.489
140.9837, 5203.747
141.4658, 5296.751
141.9480, 5382.452
142.4301, 5460.292
142.9122, 5535.815
143.3943, 5591.727
143.8764, 5627.488
144.3585, 5642.798
144.8407, 5632.723
145.3228, 5583.731
145.8049, 5519.643
146.2870, 5462.929
146.7691, 5422.372
147.2512, 5378.487
147.7334, 5324.414
148.2155, 5253.523
148.6976, 5200.202
149.1797, 5174.848
149.6618, 5164.049
150.1439, 5150.244
150.6261, 5115.369
151.1082, 5093.867
151.5903, 5097.569
152.0724, 5140.228
152.5545, 5177.564
153.0366, 5189.552
153.5188, 5194.606
154.0009, 5228.767
154.4830, 5331.802
154.9651, 5439.599
155.4472, 5523.380
155.9293, 5556.945
156.4115, 5599.285
156.8936, 5665.573
157.3757, 5750.763
157.8578, 5838.099
158.3399, 5932.877
158.8221, 6022.290
159.3042, 6098.953
159.7863, 6157.703
160.2684, 6206.667
160.7505, 6249.153
161.2326, 6284.987
161.7148, 6309.600
162.1969, 6317.727
162.6790, 6315.059
163.1611, 6307.084
163.6432, 6310.628
164.1253, 6297.486
164.6075, 6233.964
165.0896, 6118.192
165.5717, 6029.827
166.0538, 6028.111
166.5359, 6079.416
167.0180, 6135.139
167.5002, 6162.387
167.9823, 6194.753
168.4644, 6256.291
168.9465, 6349.236
169.4286, 6468.060
169.9107, 6624.239
170.3929, 6803.419
170.8750, 6979.532
171.3571, 7135.563
171.8392, 7281.312
172.3213, 7428.528
172.8034, 7579.569
173.2856, 7724.073
173.7677, 7859.956
174.2498, 7983.651
174.7319, 8080.772
175.2140, 8155.782
175.6961, 8196.379
176.1783, 8178.701
176.6604, 8088.674
177.1425, 7957.159
177.6246, 7804.514
178.1067, 7636.178
178.5888, 7477.160
179.0710, 7348.556
179.5531, 7244.834
180.0352, 7155.625
180.5173, 7075.911
180.9994, 7013.281
181.4815, 6985.055
181.9637, 6990.487
182.4458, 7013.721
182.9279, 7048.393
183.4100, 7091.554
183.8921, 7132.823
184.3742, 7169.946
184.8564, 7203.054
185.3385, 7237.931
185.8206, 7276.563
186.3027, 7296.469
186.7848, 7276.338
187.2669, 7217.346
187.7491, 7128.379
188.2312, 6999.987
188.7133, 6844.068
189.1954, 6698.231
189.6775, 6562.417
190.1596, 6441.314
190.6418, 6344.544
191.1239, 6272.002
191.6060, 6200.850
192.0881, 6118.973
192.5702, 6028.576
193.0524, 5952.898
193.5345, 5897.160
194.0166, 5843.121
194.4987, 5760.754
194.9808, 5648.355
195.4629, 5532.882
195.9451, 5423.534
196.4272, 5319.080
196.9093, 5232.638
197.3914, 5165.431
197.8735, 5114.942
198.3556, 5078.661
198.8378, 5057.808
199.3199, 5043.883
199.8020, 5030.041
200.2841, 5015.320
200.7662, 5017.724
201.2483, 5041.117
201.7305, 5079.613
202.2126, 5117.916
202.6947, 5153.997
203.1768, 5197.459
203.6589, 5258.460
204.1410, 5340.178
204.6232, 5411.710
205.1053, 5466.180
205.5874, 5510.508
206.0695, 5568.984
206.5516, 5645.508
207.0337, 5725.942
207.5159, 5803.731
207.9980, 5879.319
208.4801, 5944.626
208.9622, 6002.607
209.4443, 6049.419
209.9264, 6062.778
210.4086, 6033.686
210.8907, 5989.025
211.3728, 5952.746
211.8549, 5933.153
212.3370, 5891.117
212.8191, 5813.694
213.3013, 5706.559
213.7834, 5612.585
214.2655, 5537.255
214.7476, 5465.941
215.2297, 5385.312
215.7118, 5288.259
216.1940, 5200.006
216.6761, 5128.918
217.1582, 5073.514
217.6403, 5007.559
218.1224, 4931.551
218.6045, 4845.429
219.0867, 4745.598
219.5688, 4622.677
220.0509, 4509.946
220.5330, 4417.438
221.0151, 4344.256
221.4972, 4276.801
221.9794, 4217.811
222.4615, 4160.844
222.9436, 4096.302
223.4257, 4015.158
223.9078, 3944.463
224.3899, 3892.758
224.8721, 3860.704
225.3542, 3829.922
225.8363, 3799.925
226.3184, 3771.401
226.8005, 3743.964
227.2827, 3715.013
227.7648, 3692.757
228.2469, 3681.470
228.7290, 3683.402
229.2111, 3677.194
229.6932, 3651.586
230.1754, 3627.019
230.6575, 3634.090
231.1396, 3696.675
231.6217, 3748.261
232.1038, 3766.186
232.5859, 3741.162
233.0681, 3733.144
233.5502, 3749.396
234.0323, 3777.366
234.5144, 3798.204
234.9965, 3803.437
235.4786, 3815.589
235.9608, 3841.157
236.4429, 3880.408
236.9250, 3931.195
237.4071, 4001.448
237.8892, 4077.967
238.3713, 4138.512
238.8535, 4172.270
239.3356, 4208.292
239.8177, 4258.378
240.2998, 4330.197
240.7819, 4385.756
241.2640, 4416.854
241.7462, 4437.355
242.2283, 4472.048
242.7104, 4528.722
243.1925, 4586.769
243.6746, 4638.982
244.1567, 4682.862
244.6389, 4730.209
245.1210, 4781.508
245.6031, 4835.832
246.0852, 4891.872
246.5673, 4952.397
247.0494, 5009.824
247.5316, 5059.692
248.0137, 5096.917
248.4958, 5144.421
248.9779, 5204.956
249.4600, 5274.039
249.9421, 5342.201
250.4243, 5409.698
250.9064, 5476.533
251.3885, 5540.685
251.8706, 5597.431
252.3527, 5669.911
252.8348, 5765.675
253.3170, 5872.240
253.7991, 5965.755
254.2812, 6042.414
254.7633, 6111.463
255.2454, 6176.459
255.7275, 6237.585
256.2097, 6291.534
256.6918, 6336.213
257.1739, 6374.556
257.6560, 6415.288
258.1381, 6468.020
258.6202, 6503.245
259.1024, 6507.001
259.5845, 6471.574
260.0666, 6436.316
260.5487, 6401.078
261.0308, 6366.195
261.5129, 6334.192
261.9951, 6313.760
262.4772, 6275.993
262.9593, 6207.835
263.4414, 6103.233
263.9235, 5993.819
264.4056, 5877.875
264.8878, 5757.372
265.3699, 5631.193
265.8520, 5494.391
266.3341, 5363.009
266.8162, 5243.256
267.2983, 5138.412
267.7805, 5029.495
268.2626, 4913.309
268.7447, 4797.621
269.2268, 4697.397
269.7089, 4616.276
270.1910, 4537.923
270.6732, 4454.508
271.1553, 4365.396
271.6374, 4280.323
272.1195, 4197.808
272.6016, 4121.339
273.0837, 4060.423
273.5659, 4016.611
274.0480, 3978.779
274.5301, 3942.364
275.0122, 3907.431
275.4943, 3877.197
275.9764, 3851.630
276.4586, 3830.820
276.9407, 3817.531
277.4228, 3813.302
277.9049, 3804.608
278.3870, 3781.456
278.8691, 3745.113
279.3513, 3726.737
279.8334, 3729.664
280.3155, 3741.988
280.7976, 3749.704
281.2798, 3752.749
281.7619, 3751.199
282.2440, 3743.759
282.7261, 3731.181
283.2082, 3717.694
283.6903, 3702.134
284.1725, 3689.954
284.6546, 3693.541
285.1367, 3711.920
285.6188, 3719.425
286.1009, 3696.871
286.5830, 3655.111
287.0652, 3644.988
287.5473, 3670.191
288.0294, 3705.496
288.5115, 3724.283
288.9936, 3728.100
289.4757, 3728.733
289.9579, 3725.098
290.4400, 3722.341
290.9221, 3737.374
291.4042, 3771.204
291.8863, 3810.257
292.3684, 3843.243
292.8506, 3870.417
293.3327, 3893.255
293.8148, 3910.459
294.2969, 3924.787
294.7790, 3941.876
295.2611, 3961.812
295.7433, 3982.936
296.2254, 4005.838
296.7075, 4029.360
297.1896, 4049.588
297.6717, 4066.469
298.1538, 4079.128
298.6360, 4085.937
299.1181, 4087.039
299.6002, 4083.455
300.0823, 4075.353
300.5644, 4063.169
301.0465, 4046.718
301.5287, 4021.491
302.0108, 3997.599
302.4929, 3992.464
302.9750, 4002.291
303.4571, 4005.621
303.9392, 3984.088
304.4214, 3948.543
304.9035, 3912.775
305.3856, 3880.787
305.8677, 3849.500
306.3498, 3818.431
306.8319, 3786.897
307.3141, 3751.682
307.7962, 3702.069
308.2783, 3652.484
308.7604, 3617.977
309.2425, 3607.416
309.7246, 3601.107
310.2068, 3588.025
310.6889, 3569.524
311.1710, 3549.034
311.6531, 3524.546
312.1352, 3500.906
312.6173, 3481.476
313.0995, 3466.613
313.5816, 3457.133
314.0637, 3458.314
314.5458, 3464.835
315.0279, 3466.691
315.5100, 3457.534
315.9922, 3444.598
316.4743, 3430.080
316.9564, 3412.528
317.4385, 3400.514
317.9206, 3402.339
318.4027, 3410.156
318.8849, 3413.000
319.3670, 3404.051
319.8491, 3393.041
320.3312, 3382.270
320.8133, 3371.204
321.2954, 3364.714
321.7776, 3367.617
322.2597, 3374.000
322.7418, 3377.562
323.2239, 3377.908
323.7060, 3374.844
324.1881, 3365.649
324.6703, 3349.288
325.1524, 3339.646
325.6345, 3343.697
326.1166, 3351.756
326.5987, 3356.132
327.0808, 3358.758
327.5630, 3355.229
328.0451, 3339.527
328.5272, 3312.791
329.0093, 3300.256
329.4914, 3310.932
329.9735, 3327.839
330.4557, 3340.060
330.9378, 3344.379
331.4199, 3349.766
331.9020, 3358.302
332.3841, 3368.700
332.8662, 3372.996
333.3484, 3362.878
333.8305, 3359.200
334.3126, 3377.106
334.7947, 3428.303
335.2768, 3462.717
335.7589, 3470.076
336.2411, 3463.545
336.7232, 3478.275
337.2053, 3520.123
337.6874, 3565.871
338.1695, 3604.208
338.6516, 3633.349
339.1338, 3667.535
339.6159, 3706.457
340.0980, 3750.890
340.5801, 3804.580
341.0622, 3869.828
341.5443, 3928.781
342.0265, 3970.186
342.5086, 3996.649
342.9907, 4035.823
343.4728, 4087.634
343.9549, 4151.209
344.4370, 4226.896
344.9192, 4313.651
345.4013, 4406.173
345.8834, 4501.606
346.3655, 4600.597
346.8476, 4701.102
347.3297, 4802.647
347.8119, 4907.191
348.2940, 5013.944
348.7761, 5124.387
349.2582, 5238.967
349.7403, 5354.039
350.2225, 5480.157
350.7046, 5635.411
351.1867, 5819.030
351.6688, 6014.362
352.1509, 6209.703
352.6331, 6409.452
353.1152, 6620.994
353.5973, 6848.663
354.0794, 7083.428
354.5615, 7314.587
355.0436, 7545.645
355.5258, 7787.263
356.0079, 8045.014
356.4900, 8316.052
356.9721, 8600.791
357.4542, 8903.550
357.9363, 9205.593
358.4185, 9496.542
358.9006, 9779.654
359.3827, 10060.56
359.8648, 10329.50
360.3469, 10606.28
360.8290, 10913.33
361.3112, 11262.23
361.7933, 11576.31
362.2754, 11818.67
362.7575, 12021.13
363.2396, 12219.08
363.7217, 12437.17
364.2039, 12632.08
364.6860, 12799.34
365.1681, 12939.18
365.6502, 13030.21
366.1323, 13073.33
366.6144, 13066.21
367.0966, 13006.63
367.5787, 12896.59
368.0608, 12732.50
368.5429, 12508.62
369.0250, 12227.42
369.5071, 11906.52
369.9893, 11524.15
370.4714, 11129.22
370.9535, 10742.15
371.4356, 10362.80
371.9177, 10001.73
372.3998, 9666.029
372.8820, 9343.756
373.3641, 9007.036
373.8462, 8640.868
374.3283, 8301.326
374.8104, 8018.708
375.2925, 7794.763
375.7747, 7578.892
376.2568, 7367.335
376.7389, 7167.636
377.2210, 6994.344
377.7031, 6848.636
378.1852, 6713.176
378.6674, 6581.985
379.1495, 6456.558
379.6316, 6337.753
380.1137, 6226.666
380.5958, 6121.288
381.0779, 6021.700
381.5601, 5926.683
382.0422, 5837.768
382.5243, 5753.629
383.0064, 5675.027
383.4885, 5605.658
383.9706, 5543.780
384.4528, 5481.424
384.9349, 5413.713
385.4170, 5341.299
385.8991, 5263.650
386.3812, 5179.593
386.8633, 5091.397
387.3455, 4993.370
387.8276, 4892.563
388.3097, 4803.508
388.7918, 4749.066
389.2739, 4700.447
389.7560, 4629.773
390.2382, 4532.467
390.7203, 4442.844
391.2024, 4383.515
391.6845, 4340.895
392.1666, 4298.629
392.6487, 4249.594
393.1309, 4201.979
393.6130, 4153.767
394.0951, 4106.405
394.5772, 4077.762
395.0593, 4091.842
395.5414, 4113.716
396.0236, 4121.424
396.5057, 4099.525
396.9878, 4078.056
397.4699, 4050.544
397.9520, 4024.275
398.4341, 4022.430
398.9163, 4065.330
399.3984, 4111.695
399.8805, 4147.889
400.3626, 4173.360
400.8447, 4188.673
401.3268, 4183.512
401.8090, 4175.813
402.2911, 4192.859
402.7732, 4243.090
403.2553, 4295.487
403.7374, 4341.257
404.2195, 4381.042
404.7017, 4427.822
405.1838, 4484.196
405.6659, 4541.090
406.1480, 4587.312
406.6301, 4622.767
407.1122, 4667.384
407.5944, 4727.194
408.0765, 4795.926
408.5586, 4854.538
409.0407, 4903.573
409.5228, 4960.014
410.0049, 5040.828
410.4871, 5137.189
410.9692, 5227.373
411.4513, 5310.520
411.9334, 5382.852
412.4155, 5431.870
412.8976, 5466.477
413.3798, 5510.234
413.8619, 5581.683
414.3440, 5663.996
414.8261, 5741.803
415.3082, 5814.991
415.7903, 5885.537
416.2725, 5950.799
416.7546, 6016.215
417.2367, 6089.533
417.7188, 6175.758
418.2009, 6265.570
418.6830, 6350.431
419.1652, 6434.161
419.6473, 6527.476
420.1294, 6628.934
420.6115, 6745.346
421.0937, 6885.703
421.5758, 7064.637
422.0579, 7232.544
422.5400, 7362.271
423.0221, 7481.671
423.5042, 7639.593
423.9864, 7858.141
424.4685, 8090.201
424.9506, 8332.540
425.4327, 8583.155
425.9148, 8827.795
426.3969, 9057.480
426.8791, 9291.261
427.3612, 9542.924
427.8433, 9813.842
428.3254, 10095.88
428.8075, 10386.51
429.2896, 10687.47
429.7718, 11002.97
430.2539, 11337.50
430.7360, 11665.76
431.2181, 11965.53
431.7002, 12238.97
432.1823, 12519.59
432.6645, 12811.40
433.1466, 13103.64
433.6287, 13383.06
434.1108, 13648.36
434.5929, 13894.07
435.0750, 14119.04
435.5572, 14319.94
436.0393, 14489.87
436.5214, 14629.09
437.0035, 14743.73
437.4856, 14840.60
437.9677, 14914.24
438.4499, 14953.91
438.9320, 14946.07
439.4141, 14922.04
439.8962, 14893.24
440.3783, 14864.64
440.8604, 14848.19
441.3426, 14836.33
441.8247, 14848.10
442.3068, 14902.94
442.7889, 15013.76
443.2710, 15114.98
443.7531, 15173.64
444.2353, 15219.65
444.7174, 15287.07
445.1995, 15404.24
445.6816, 15516.41
446.1637, 15618.74
446.6458, 15709.88
447.1280, 15784.61
447.6101, 15852.72
448.0922, 15893.66
448.5743, 15900.65
449.0564, 15887.97
449.5385, 15801.31
450.0207, 15633.39
450.5028, 15397.48
450.9849, 15111.08
451.4670, 14771.61
451.9491, 14407.74
452.4312, 14022.42
452.9134, 13620.13
453.3955, 13217.77
453.8776, 12814.42
454.3597, 12427.08
454.8418, 12082.38
455.3239, 11771.88
455.8061, 11474.60
456.2882, 11180.49
456.7703, 10899.48
457.2524, 10634.82
457.7345, 10391.87
458.2166, 10186.95
458.6988, 10036.69
459.1809, 9928.438
459.6630, 9856.957
460.1451, 9823.949
460.6272, 9804.749
461.1093, 9770.890
461.5915, 9745.635
462.0736, 9758.918
462.5557, 9842.817
463.0378, 9945.035
463.5199, 10039.05
464.0020, 10129.21
464.4842, 10254.34
464.9663, 10427.00
465.4484, 10632.54
465.9305, 10864.63
466.4126, 11131.94
466.8947, 11414.19
467.3769, 11705.05
467.8590, 12012.22
468.3411, 12354.64
468.8232, 12741.20
469.3053, 13143.01
469.7874, 13554.13
470.2696, 13975.18
470.7517, 14423.19
471.2338, 14904.83
471.7159, 15389.02
472.1980, 15841.16
472.6801, 16263.77
473.1623, 16683.60
473.6444, 17103.93
474.1265, 17530.37
474.6086, 17997.21
475.0907, 18492.04
475.5728, 18934.62
476.0550, 19259.22
476.5371, 19513.80
477.0192, 19789.36
477.5013, 20091.57
477.9834, 20326.42
478.4655, 20415.76
478.9477, 20395.87
479.4298, 20314.87
479.9119, 20202.76
480.3940, 20012.47
480.8761, 19717.72
481.3582, 19326.21
481.8404, 18861.88
482.3225, 18284.30
482.8046, 17675.58
483.2867, 17066.92
483.7688, 16463.55
484.2509, 15852.10
484.7331, 15197.78
485.2152, 14554.76
485.6973, 13961.46
486.1794, 13442.32
486.6615, 12928.70
487.1436, 12400.75
487.6258, 11867.93
488.1079, 11371.50
488.5900, 10913.51
489.0721, 10494.68
489.5542, 10123.32
490.0363, 9798.064
490.5185, 9484.051
491.0006, 9183.746
491.4827, 8892.364
491.9648, 8601.811
492.4470, 8315.442
492.9291, 8058.307
493.4112, 7854.522
493.8933, 7676.847
494.3754, 7488.436
494.8575, 7290.681
495.3397, 7103.710
495.8218, 6931.014
496.3039, 6777.643
496.7860, 6652.991
497.2681, 6560.044
497.7502, 6480.722
498.2324, 6408.829
498.7145, 6343.126
499.1966, 6280.537
499.6787, 6226.124
500.1608, 6169.437
500.6429, 6099.944
501.1251, 6019.686
501.6072, 5961.355
502.0893, 5946.571
502.5714, 5936.184
503.0535, 5909.646
503.5356, 5850.025
504.0178, 5815.336
504.4999, 5810.988
504.9820, 5827.139
505.4641, 5852.771
505.9462, 5890.865
506.4283, 5922.087
506.9105, 5938.192
507.3926, 5943.576
507.8747, 5955.013
508.3568, 5972.683
508.8389, 5994.333
509.3210, 6025.007
509.8032, 6058.651
510.2853, 6077.362
510.7674, 6076.947
511.2495, 6069.992
511.7316, 6064.928
512.2137, 6063.082
512.6959, 6067.146
513.1780, 6094.819
513.6601, 6114.993
514.1422, 6101.027
514.6243, 6057.583
515.1064, 6017.597
515.5886, 6002.413
516.0707, 5988.619
516.5528, 5962.313
517.0349, 5918.903
517.5170, 5868.488
517.9991, 5810.080
518.4813, 5746.220
518.9634, 5679.453
519.4455, 5604.782
519.9276, 5535.771
520.4097, 5474.842
520.8918, 5422.395
521.3740, 5376.110
521.8561, 5338.674
522.3382, 5298.502
522.8203, 5243.179
523.3024, 5174.716
523.7845, 5120.003
524.2667, 5080.794
524.7488, 5053.496
525.2309, 5031.192
525.7130, 5015.729
526.1951, 5014.282
526.6772, 5035.376
527.1594, 5065.837
527.6415, 5091.731
528.1236, 5113.658
528.6057, 5134.875
529.0878, 5154.465
529.5699, 5175.643
530.0521, 5200.041
530.5342, 5227.715
531.0163, 5260.306
531.4984, 5300.140
531.9805, 5344.699
532.4626, 5391.450
532.9448, 5454.501
533.4269, 5502.060
533.9090, 5525.941
534.3911, 5531.248
534.8732, 5539.824
535.3553, 5565.551
535.8375, 5568.456
536.3196, 5530.586
536.8017, 5450.519
537.2838, 5349.258
537.7659, 5223.577
538.2480, 5084.046
538.7302, 4936.330
539.2123, 4781.317
539.6944, 4633.750
540.1765, 4495.397
540.6586, 4368.266
541.1407, 4252.076
541.6229, 4146.678
542.1050, 4049.611
542.5871, 3960.427
543.0692, 3878.256
543.5513, 3804.479
544.0334, 3739.703
544.5156, 3677.959
544.9977, 3613.283
545.4798, 3552.334
545.9619, 3501.862
546.4440, 3476.510
546.9261, 3441.662
547.4083, 3379.038
547.8904, 3306.509
548.3725, 3258.174
548.8546, 3250.013
549.3367, 3239.048
549.8188, 3212.941
550.3010, 3173.533
550.7831, 3143.525
551.2652, 3125.437
551.7473, 3108.254
552.2294, 3082.631
552.7115, 3049.729
553.1937, 3023.158
553.6758, 3005.002
554.1579, 2989.003
554.6400, 2965.947
555.1221, 2938.514
555.6042, 2915.041
556.0864, 2901.869
556.5685, 2890.142
557.0506, 2866.817
557.5327, 2836.459
558.0148, 2816.529
558.4969, 2828.115
558.9791, 2843.269
559.4612, 2843.947
559.9433, 2825.458
560.4254, 2807.350
560.9075, 2791.022
561.3896, 2777.877
561.8718, 2768.871
562.3539, 2765.954
562.8360, 2764.157
563.3181, 2764.654
563.8002, 2765.351
564.2823, 2758.521
564.7645, 2740.714
565.2466, 2731.424
565.7287, 2741.593
566.2108, 2766.856
566.6929, 2785.943
567.1750, 2798.525
567.6572, 2808.893
568.1393, 2819.543
568.6214, 2830.537
569.1035, 2842.041
569.5856, 2854.628
570.0677, 2865.915
570.5499, 2869.459
571.0320, 2871.446
571.5141, 2881.650
571.9962, 2911.622
572.4783, 2942.542
572.9604, 2965.245
573.4426, 2981.533
573.9247, 3001.904
574.4068, 3029.828
574.8889, 3060.412
575.3710, 3091.903
575.8531, 3123.908
576.3353, 3157.578
576.8174, 3195.584
577.2995, 3230.812
577.7816, 3253.004
578.2637, 3259.751
578.7458, 3279.598
579.2280, 3319.259
579.7101, 3369.022
580.1922, 3414.429
580.6743, 3455.392
581.1564, 3491.420
581.6385, 3516.537
582.1207, 3539.729
582.6028, 3573.536
583.0849, 3616.629
583.5670, 3660.826
584.0491, 3705.541
584.5313, 3746.635
585.0134, 3780.161
585.4955, 3803.515
585.9776, 3825.675
586.4597, 3839.185
586.9418, 3856.735
587.4240, 3893.284
587.9061, 3965.264
588.3882, 4030.760
588.8703, 4082.216
589.3524, 4125.169
589.8345, 4175.795
590.3167, 4235.052
590.7988, 4298.729
591.2809, 4362.342
591.7630, 4427.933
592.2451, 4502.313
592.7272, 4585.348
593.2094, 4680.497
593.6915, 4789.234
594.1736, 4912.420
594.6557, 5056.607
595.1378, 5224.500
595.6199, 5394.222
596.1021, 5537.791
596.5842, 5675.099
597.0663, 5835.178
597.5485, 6039.312
598.0306, 6253.212
598.5127, 6470.214
598.9948, 6688.823
599.4769, 6906.256
599.9590, 7128.444
600.4412, 7345.427
600.9233, 7550.817
601.4054, 7744.750
601.8875, 7941.813
602.3696, 8144.048
602.8517, 8341.161
603.3339, 8516.142
603.8160, 8672.091
604.2981, 8835.984
604.7802, 9015.323
605.2623, 9182.010
605.7444, 9304.058
606.2266, 9383.483
606.7087, 9420.554
607.1908, 9410.273
607.6729, 9365.177
608.1550, 9294.894
608.6371, 9198.283
609.1193, 9069.221
609.6014, 8905.177
610.0835, 8708.278
610.5656, 8473.864
611.0477, 8195.773
611.5298, 7926.496
612.0120, 7670.283
612.4941, 7423.320
612.9762, 7187.122
613.4583, 6966.201
613.9404, 6740.189
614.4225, 6503.583
614.9047, 6272.143
615.3868, 6068.416
615.8689, 5889.127
616.3510, 5714.439
616.8331, 5540.297
617.3152, 5365.811
617.7974, 5179.904
618.2795, 4989.702
618.7616, 4813.080
619.2437, 4663.502
619.7258, 4529.622
620.2079, 4404.516
