##NAMES=Pseudoboleite
##RRUFFID=R050162
##IDEAL CHEMISTRY=Pb^2+^_31_Cu^2+^_24_Cl_62_(OH)_48_
##LOCALITY=Margarita mine, Sierra Gorda, Antofagasta, Chile
##OWNER=RRUFF
##SOURCE=Jim McGlasson
##DESCRIPTION=Blue crust, associated with yellow penfieldite, R050163
##STATUS=The identification of this mineral has been confirmed by single-crystal X-ray diffraction.
##URL=rruff.info/R050162
93.74609, 46.37307
94.22821, 43.99492
94.71033, 45.08920
95.19244, 49.13274
95.67456, 54.24530
96.15668, 59.89773
96.63879, 66.08246
97.12091, 72.76474
97.60303, 79.93473
98.08514, 87.79700
98.56726, 96.47997
99.04938, 106.0158
99.53149, 116.4694
100.0136, 127.7646
100.4957, 139.8428
100.9778, 153.0319
101.4600, 167.2569
101.9421, 182.5744
102.4242, 198.8732
102.9063, 216.5066
103.3884, 234.4929
103.8705, 252.0988
104.3527, 269.5305
104.8348, 286.6122
105.3169, 303.8007
105.7990, 320.8009
106.2811, 336.6790
106.7632, 351.1952
107.2454, 364.6902
107.7275, 377.1210
108.2096, 387.6669
108.6917, 398.5118
109.1738, 409.7364
109.6559, 421.3452
110.1381, 434.2280
110.6202, 448.3784
111.1023, 463.9232
111.5844, 480.9865
112.0665, 500.3423
112.5486, 520.6998
113.0308, 541.9336
113.5129, 564.3621
113.9950, 587.2066
114.4771, 611.1666
114.9592, 635.2447
115.4413, 658.3485
115.9235, 679.9368
116.4056, 700.5732
116.8877, 720.2895
117.3698, 739.6727
117.8519, 757.6703
118.3340, 774.0074
118.8162, 788.7175
119.2983, 801.8265
119.7804, 813.2652
120.2625, 823.3280
120.7446, 832.1484
121.2267, 839.7445
121.7089, 846.2693
122.1910, 851.3514
122.6731, 855.2372
123.1552, 859.0771
123.6373, 863.2767
124.1194, 867.8951
124.6016, 873.0726
125.0837, 878.4609
125.5658, 884.6153
126.0479, 892.0640
126.5300, 900.7999
127.0121, 910.6609
127.4943, 921.5036
127.9764, 933.3195
128.4585, 946.4086
128.9406, 961.2252
129.4227, 977.1982
129.9048, 993.2136
130.3869, 1009.254
130.8691, 1025.478
131.3512, 1042.444
131.8333, 1056.500
132.3154, 1064.416
132.7975, 1069.755
133.2796, 1074.112
133.7618, 1077.922
134.2439, 1081.373
134.7260, 1084.104
135.2081, 1085.350
135.6902, 1085.148
136.1723, 1084.382
136.6545, 1083.259
137.1366, 1081.796
137.6187, 1080.849
138.1008, 1080.493
138.5829, 1080.587
139.0650, 1080.773
139.5472, 1080.948
140.0293, 1081.403
140.5114, 1082.236
140.9935, 1083.369
141.4756, 1085.042
141.9577, 1087.412
142.4399, 1090.282
142.9220, 1092.677
143.4041, 1094.268
143.8862, 1095.909
144.3683, 1098.435
144.8504, 1102.696
145.3326, 1105.863
145.8147, 1107.324
146.2968, 1107.201
146.7789, 1107.209
147.2610, 1108.031
147.7431, 1108.454
148.2253, 1107.411
148.7074, 1104.094
149.1895, 1100.513
149.6716, 1097.218
150.1537, 1094.357
150.6358, 1090.441
151.1180, 1084.732
151.6001, 1078.282
152.0822, 1072.267
152.5643, 1067.571
153.0464, 1062.364
153.5285, 1056.187
154.0107, 1048.872
154.4928, 1041.443
154.9749, 1033.972
155.4570, 1026.350
155.9391, 1018.442
156.4212, 1010.041
156.9034, 1001.432
157.3855, 992.7486
157.8676, 984.2844
158.3497, 975.2877
158.8318, 965.2352
159.3139, 954.5971
159.7961, 944.0904
160.2782, 933.9063
160.7603, 923.9125
161.2424, 914.0344
161.7245, 904.2105
162.2066, 894.6178
162.6888, 885.4175
163.1709, 876.4810
163.6530, 867.5314
164.1351, 858.4351
164.6172, 849.2713
165.0993, 840.0786
165.5815, 830.7922
166.0636, 821.5153
166.5457, 812.3724
167.0278, 803.2224
167.5099, 793.6595
167.9921, 783.1513
168.4742, 772.2821
168.9563, 761.5479
169.4384, 750.9166
169.9205, 740.6107
170.4026, 731.1804
170.8848, 722.3459
171.3669, 713.0611
171.8490, 702.1854
172.3311, 690.6926
172.8132, 679.7440
173.2953, 669.8015
173.7775, 660.3724
174.2596, 650.9942
174.7417, 641.6660
175.2238, 632.6157
175.7059, 624.2567
176.1880, 616.3193
176.6702, 608.4240
177.1523, 600.2931
177.6344, 592.2224
178.1165, 584.4866
178.5986, 577.0177
179.0807, 569.9796
179.5629, 563.6780
180.0450, 557.8152
180.5271, 551.8156
181.0092, 545.2875
181.4913, 538.4890
181.9734, 531.9465
182.4556, 525.6597
182.9377, 519.4460
183.4198, 513.0811
183.9019, 506.5637
184.3840, 500.0513
184.8661, 493.4669
185.3483, 486.9223
185.8304, 480.4730
186.3125, 474.1432
186.7946, 467.9843
187.2767, 462.1515
187.7588, 456.5564
188.2409, 451.0037
188.7231, 445.2599
189.2052, 439.4572
189.6873, 434.0163
190.1694, 428.9226
190.6515, 424.0504
191.1336, 419.2139
191.6158, 414.4234
192.0979, 409.7983
192.5800, 405.2825
193.0621, 400.9252
193.5442, 397.0241
194.0263, 393.6443
194.5085, 390.3781
194.9906, 386.5929
195.4727, 382.2846
195.9548, 378.0259
196.4369, 374.0070
196.9190, 370.2339
197.4012, 366.9864
197.8833, 364.4164
198.3654, 362.0178
198.8475, 358.9096
199.3296, 354.9823
199.8117, 351.3508
200.2939, 348.7296
200.7760, 347.1490
201.2581, 344.9692
201.7402, 342.0099
202.2223, 338.7463
202.7044, 335.9564
203.1866, 333.6919
203.6687, 331.7601
204.1508, 330.2353
204.6329, 329.1893
205.1150, 327.7459
205.5971, 325.8005
206.0793, 323.5801
206.5614, 321.5034
207.0435, 319.6194
207.5256, 317.7721
208.0077, 315.8344
208.4898, 313.7406
208.9720, 312.0243
209.4541, 310.8540
209.9362, 309.9052
210.4183, 308.3907
210.9004, 306.0670
211.3825, 303.9040
211.8647, 302.3833
212.3468, 301.6647
212.8289, 300.8250
213.3110, 299.7805
213.7931, 298.6541
214.2752, 297.8109
214.7574, 297.4298
215.2395, 296.8835
215.7216, 295.8083
216.2037, 294.0169
216.6858, 292.4610
217.1679, 291.2454
217.6501, 290.2096
218.1322, 288.9643
218.6143, 287.3667
219.0964, 285.8351
219.5785, 284.6636
220.0606, 284.0841
220.5428, 283.0547
221.0249, 281.4125
221.5070, 279.3969
221.9891, 277.6432
222.4712, 276.2900
222.9533, 274.9010
223.4355, 273.2808
223.9176, 271.2509
224.3997, 269.4453
224.8818, 267.9478
225.3639, 266.6277
225.8460, 265.1445
226.3282, 263.4744
226.8103, 261.6978
227.2924, 259.8924
227.7745, 258.0590
228.2566, 256.1121
228.7387, 254.0125
229.2209, 251.8139
229.7030, 249.7094
230.1851, 247.7565
230.6672, 245.7720
231.1493, 243.6617
231.6314, 241.3463
232.1136, 239.1237
232.5957, 237.0130
233.0778, 234.9821
233.5599, 233.0276
234.0420, 231.2460
234.5241, 229.3854
235.0063, 227.2981
235.4884, 224.8096
235.9705, 222.6764
236.4526, 221.0268
236.9347, 219.6549
237.4168, 218.1131
237.8990, 216.2951
238.3811, 214.4745
238.8632, 212.7793
239.3453, 211.2689
239.8274, 209.6635
240.3095, 207.8179
240.7917, 205.9420
241.2738, 204.4798
241.7559, 203.7541
242.2380, 202.9209
242.7201, 201.6581
243.2022, 199.8053
243.6844, 198.0468
244.1665, 196.3381
244.6486, 194.7407
245.1307, 193.3952
245.6128, 192.4953
246.0949, 191.5197
246.5771, 190.2376
247.0592, 188.4853
247.5413, 187.0915
248.0234, 186.2382
248.5055, 185.6245
248.9876, 184.8091
249.4697, 183.7189
249.9519, 182.5430
250.4340, 181.2880
250.9161, 179.8941
251.3982, 178.7522
251.8803, 178.0076
252.3624, 177.4073
252.8446, 176.6152
253.3267, 175.5542
253.8088, 174.4509
254.2909, 173.3795
254.7730, 172.3547
255.2551, 171.2104
255.7373, 169.9120
256.2194, 168.5300
256.7015, 167.1850
257.1836, 165.9270
257.6657, 164.5733
258.1479, 163.0829
258.6300, 161.4682
259.1121, 159.6696
259.5942, 157.5799
260.0763, 155.4222
260.5584, 153.3843
261.0406, 151.5475
261.5227, 149.6804
262.0048, 147.7550
262.4869, 145.7869
262.9690, 143.6021
263.4511, 141.0849
263.9333, 138.5488
264.4154, 136.3115
264.8975, 134.4354
265.3796, 132.6236
265.8617, 130.8227
266.3438, 129.0460
266.8260, 127.2132
267.3081, 125.2732
267.7902, 123.3952
268.2723, 121.8220
268.7544, 120.6384
269.2365, 119.3256
269.7187, 117.7324
270.2008, 115.9336
270.6829, 114.4566
271.1650, 113.3859
271.6471, 112.4315
272.1292, 111.4067
272.6114, 110.2959
273.0935, 109.1670
273.5756, 107.9791
274.0577, 106.8058
274.5398, 105.9305
275.0219, 105.4336
275.5041, 104.9901
275.9862, 104.4119
276.4683, 103.6953
276.9504, 102.8443
277.4325, 101.8080
277.9146, 100.6834
278.3968, 99.69431
278.8788, 98.84245
279.3610, 98.13561
279.8431, 97.61400
280.3252, 97.28885
280.8073, 97.02256
281.2894, 96.84045
281.7715, 96.66982
282.2537, 96.34496
282.7358, 95.85157
283.2179, 95.36341
283.7000, 94.94125
284.1821, 94.58575
284.6642, 94.38542
285.1464, 94.39112
285.6285, 94.42125
286.1106, 94.13496
286.5927, 93.52843
287.0748, 92.99014
287.5569, 92.70053
288.0391, 92.63078
288.5212, 92.61550
289.0033, 92.66125
289.4854, 92.72684
289.9675, 92.76585
290.4496, 92.77964
290.9318, 92.78362
291.4139, 92.80531
291.8960, 92.82134
292.3781, 92.70328
292.8602, 92.43215
293.3423, 92.21394
293.8245, 92.31981
294.3066, 92.68330
294.7887, 92.98652
295.2708, 93.08051
295.7529, 93.07844
296.2350, 93.25798
296.7172, 93.61594
297.1993, 93.93090
297.6814, 94.01362
298.1635, 93.90757
298.6456, 93.73180
299.1277, 93.49733
299.6099, 93.22751
300.0920, 92.96664
300.5741, 92.70971
301.0562, 92.44060
301.5383, 92.19026
302.0204, 91.91157
302.5026, 91.52427
302.9847, 91.01366
303.4668, 90.38379
303.9489, 89.57699
304.4310, 88.63864
304.9131, 87.67793
305.3953, 86.79932
305.8774, 85.92857
306.3595, 84.98685
306.8416, 83.96616
307.3237, 82.86791
307.8058, 81.66750
308.2880, 80.39734
308.7701, 79.13676
309.2522, 77.83791
309.7343, 76.60249
310.2164, 75.54685
310.6985, 74.68431
311.1807, 73.87481
311.6628, 73.08470
312.1449, 72.26850
312.6270, 71.38229
313.1091, 70.24802
313.5912, 69.15623
314.0734, 68.30971
314.5555, 67.71841
315.0376, 67.16483
315.5197, 66.51354
316.0018, 65.84614
316.4839, 65.26385
316.9661, 64.84723
317.4482, 64.46731
317.9303, 64.06651
318.4124, 63.65208
318.8945, 63.26304
319.3766, 62.87926
319.8588, 62.54741
320.3409, 62.31175
320.8230, 62.29731
321.3051, 62.22276
321.7872, 61.98185
322.2693, 61.61756
322.7515, 61.26147
323.2336, 60.95515
323.7157, 60.65715
324.1978, 60.34163
324.6799, 59.97945
325.1620, 59.65926
325.6442, 59.33606
326.1263, 59.06983
326.6084, 58.96684
327.0905, 59.26623
327.5726, 59.52140
328.0547, 59.57921
328.5369, 59.35887
329.0190, 59.19011
329.5011, 59.09765
329.9832, 59.05099
330.4653, 59.01509
330.9474, 58.94680
331.4296, 58.94471
331.9117, 59.05088
332.3938, 59.27233
332.8759, 59.45452
333.3580, 59.58067
333.8401, 59.68669
334.3223, 59.79432
334.8044, 59.88227
335.2865, 60.01025
335.7686, 60.14915
336.2507, 60.32710
336.7328, 60.72160
337.2150, 61.45203
337.6971, 62.18745
338.1792, 62.76418
338.6613, 63.19178
339.1434, 63.36971
339.6255, 63.20105
340.1077, 62.85060
340.5898, 62.69383
341.0719, 62.76452
341.5540, 62.89805
342.0361, 63.00663
342.5182, 63.08645
343.0004, 63.27525
343.4825, 63.58990
343.9646, 63.97353
344.4467, 64.38645
344.9288, 64.82602
345.4109, 65.15195
345.8931, 65.26064
346.3752, 65.21484
346.8573, 65.24225
347.3394, 65.33840
347.8215, 65.54634
348.3036, 65.98827
348.7858, 66.60721
349.2679, 67.12516
349.7500, 67.44573
350.2321, 67.65254
350.7142, 67.88459
351.1964, 68.13647
351.6785, 68.37005
352.1606, 68.52988
352.6427, 68.65276
353.1248, 68.80527
353.6069, 68.99053
354.0891, 69.23504
354.5712, 69.61678
355.0533, 70.08967
355.5354, 70.52885
356.0175, 70.88242
356.4996, 71.15541
356.9818, 71.32516
357.4639, 71.37688
357.9460, 71.45571
358.4281, 71.73337
358.9102, 72.08990
359.3923, 72.34600
359.8745, 72.35365
360.3566, 72.29998
360.8387, 72.35776
361.3208, 72.50797
361.8029, 72.47901
362.2850, 71.99979
362.7672, 71.36301
363.2493, 70.81192
363.7314, 70.49480
364.2135, 70.16294
364.6956, 69.79214
365.1777, 69.35773
365.6599, 68.78529
366.1420, 67.94841
366.6241, 67.04965
367.1062, 66.19115
367.5883, 65.38945
368.0704, 64.60020
368.5526, 63.82440
369.0347, 63.05915
369.5168, 62.28677
369.9989, 61.42492
370.4810, 60.63917
370.9631, 60.00225
371.4453, 59.54991
371.9274, 58.95562
372.4095, 58.14930
372.8916, 57.26716
373.3737, 56.41060
373.8558, 55.55796
374.3380, 54.77429
374.8201, 54.08361
375.3022, 53.46537
375.7843, 52.81454
376.2664, 52.09238
376.7485, 51.40745
377.2307, 50.84801
377.7128, 50.44249
378.1949, 49.96406
378.6770, 49.38276
379.1591, 48.75626
379.6412, 48.20615
380.1234, 47.73325
380.6055, 47.28965
381.0876, 46.88621
381.5697, 46.50766
382.0518, 45.98921
382.5339, 45.30668
383.0161, 44.64503
383.4982, 44.28403
383.9803, 44.15818
384.4624, 43.92434
384.9445, 43.42117
385.4266, 42.81385
385.9088, 42.39849
386.3909, 42.16223
386.8730, 41.95731
387.3551, 41.71113
387.8372, 41.41517
388.3193, 41.03254
388.8015, 40.52485
389.2836, 40.02790
389.7657, 39.70462
390.2478, 39.49089
390.7299, 39.24493
391.2120, 38.82693
391.6942, 38.39312
392.1763, 38.09217
392.6584, 37.94315
393.1405, 37.79513
393.6226, 37.56268
394.1047, 37.29137
394.5869, 37.03282
395.0690, 36.78041
395.5511, 36.56575
396.0332, 36.43407
396.5153, 36.36447
396.9974, 36.24504
397.4796, 35.99303
397.9617, 35.72227
398.4438, 35.49323
398.9259, 35.32552
399.4080, 35.17651
399.8901, 35.03271
400.3723, 34.90689
400.8544, 34.82681
401.3365, 34.89913
401.8186, 34.88903
402.3007, 34.68665
402.7828, 34.24858
403.2649, 34.01178
403.7470, 34.06826
404.2292, 34.22720
404.7113, 34.31743
405.1934, 34.31372
405.6755, 34.32073
406.1576, 34.37193
406.6397, 34.43774
407.1219, 34.39593
407.6040, 34.22073
408.0861, 34.03624
408.5682, 33.89213
409.0503, 33.79101
409.5324, 33.81995
410.0146, 34.03067
410.4967, 34.23349
410.9788, 34.06174
411.4609, 33.56583
411.9430, 33.22432
412.4251, 33.33722
412.9073, 33.68530
413.3894, 33.77525
413.8715, 33.61121
414.3536, 33.37934
414.8357, 33.16947
415.3178, 33.00605
415.8000, 32.95377
416.2821, 33.07499
416.7642, 33.21451
417.2463, 33.21746
417.7284, 33.11956
418.2105, 33.01559
418.6927, 32.91179
419.1748, 32.84855
419.6569, 32.87043
420.1390, 32.99063
420.6211, 33.11533
421.1032, 33.21550
421.5854, 33.29350
422.0675, 33.35231
422.5496, 33.42007
423.0317, 33.44173
423.5138, 33.34969
423.9959, 33.17371
424.4781, 33.09486
424.9602, 33.22468
425.4423, 33.39582
425.9244, 33.52287
426.4065, 33.52552
426.8886, 33.63296
427.3708, 33.93076
427.8529, 34.29748
428.3350, 34.53616
428.8171, 34.56038
429.2992, 34.61471
429.7813, 34.77196
430.2635, 35.02743
430.7456, 35.24900
431.2277, 35.41787
431.7098, 35.59091
432.1919, 35.81723
432.6740, 36.10041
433.1562, 36.39434
433.6383, 36.69440
434.1204, 37.00114
434.6025, 37.30192
435.0846, 37.59785
435.5667, 37.93805
436.0489, 38.38826
436.5310, 38.90705
437.0131, 39.33710
437.4952, 39.66956
437.9773, 40.02989
438.4594, 40.59252
438.9416, 41.27034
439.4237, 41.86969
439.9058, 42.26231
440.3879, 42.64051
440.8700, 43.19453
441.3521, 43.89687
441.8343, 44.64986
442.3164, 45.48341
442.7985, 46.29418
443.2806, 46.98569
443.7627, 47.51016
444.2448, 48.04707
444.7270, 48.63052
445.2091, 49.27418
445.6912, 49.99197
446.1733, 50.91622
446.6554, 51.78321
447.1375, 52.45255
447.6197, 52.95160
448.1018, 53.58348
448.5839, 54.52665
449.0660, 55.47013
449.5481, 56.25264
450.0302, 56.77635
450.5124, 57.35659
450.9945, 58.00930
451.4766, 58.70319
451.9587, 59.39771
452.4408, 60.12757
452.9229, 60.77561
453.4051, 61.33234
453.8872, 61.78962
454.3693, 62.08076
454.8514, 62.17383
455.3335, 62.24410
455.8156, 62.49424
456.2978, 62.88905
456.7799, 63.09841
457.2620, 63.06152
457.7441, 62.87284
458.2262, 62.67957
458.7083, 62.46255
459.1905, 62.12792
459.6726, 61.58443
460.1547, 60.91710
460.6368, 60.25401
461.1189, 59.58869
461.6010, 58.85652
462.0832, 57.97526
462.5653, 57.01299
463.0474, 56.05881
463.5295, 55.11291
464.0116, 54.19479
464.4937, 53.36485
464.9759, 52.57011
465.4580, 51.72536
465.9401, 50.68903
466.4222, 49.69891
466.9043, 48.86799
467.3864, 48.21830
467.8686, 47.61442
468.3507, 47.03736
468.8328, 46.50393
469.3149, 46.02860
469.7970, 45.64814
470.2791, 45.26282
470.7613, 44.85102
471.2434, 44.43549
471.7255, 44.08315
472.2076, 43.81033
472.6897, 43.55529
473.1718, 43.26462
473.6540, 42.93960
474.1361, 42.77555
474.6182, 42.80058
475.1003, 42.88539
475.5824, 42.89805
476.0645, 42.84757
476.5467, 42.81401
477.0288, 42.81971
477.5109, 42.83942
477.9930, 42.83179
478.4751, 42.80119
478.9572, 42.76764
479.4394, 42.74408
479.9215, 42.72282
480.4036, 42.70421
480.8857, 42.68840
481.3678, 42.63955
481.8499, 42.49010
482.3321, 42.31017
482.8142, 42.17714
483.2963, 42.08349
483.7784, 42.07520
484.2605, 42.23211
484.7426, 42.49062
485.2248, 42.69281
485.7069, 42.81926
486.1890, 42.86544
486.6711, 42.80450
487.1532, 42.60282
487.6353, 42.45687
488.1175, 42.39785
488.5996, 42.37162
489.0817, 42.34010
489.5638, 42.31179
490.0459, 42.25155
490.5280, 42.12672
491.0102, 41.98582
491.4923, 41.98385
491.9744, 42.16158
492.4565, 42.26542
492.9386, 42.15074
493.4207, 41.85453
493.9029, 41.62661
494.3850, 41.46729
494.8671, 41.35360
495.3492, 41.28253
495.8313, 41.23979
496.3134, 41.19035
496.7956, 41.14015
497.2777, 41.05186
497.7598, 40.86752
498.2419, 40.61177
498.7240, 40.35127
499.2061, 40.04816
499.6883, 39.80201
500.1704, 39.73146
500.6525, 39.83446
501.1346, 39.87825
501.6167, 39.74620
502.0988, 39.53333
502.5810, 39.30648
503.0631, 39.05109
503.5452, 38.81548
504.0273, 38.62979
504.5094, 38.46258
504.9915, 38.26475
505.4737, 38.02007
505.9558, 37.76818
506.4379, 37.51823
506.9200, 37.26994
507.4021, 37.02493
507.8842, 36.78445
508.3664, 36.53624
508.8485, 36.24944
509.3306, 35.92176
509.8127, 35.68591
510.2948, 35.58022
510.7769, 35.48402
511.2591, 35.19535
511.7412, 34.74615
512.2233, 34.32708
512.7054, 34.01582
513.1875, 33.76046
513.6696, 33.50460
514.1517, 33.24411
514.6339, 32.95524
515.1160, 32.55120
515.5981, 32.15376
516.0802, 31.91040
516.5623, 31.88242
517.0444, 31.78025
517.5266, 31.37371
518.0087, 30.86132
518.4908, 30.45956
518.9729, 30.37584
519.4550, 30.23043
519.9371, 29.88705
520.4193, 29.40378
520.9014, 29.04827
521.3835, 28.90994
521.8656, 28.78084
522.3477, 28.58243
522.8298, 28.30304
523.3120, 28.05076
523.7941, 27.84025
524.2762, 27.63717
524.7583, 27.40786
525.2404, 27.15013
525.7225, 26.89625
526.2047, 26.64345
526.6868, 26.40676
527.1689, 26.22387
527.6510, 26.08768
528.1331, 25.94931
528.6152, 25.76295
529.0974, 25.56971
529.5795, 25.45008
530.0616, 25.39489
530.5437, 25.30227
531.0258, 25.06775
531.5079, 24.78304
531.9901, 24.52488
532.4722, 24.30331
532.9543, 24.12110
533.4364, 24.03014
533.9185, 23.96270
534.4006, 23.82496
534.8828, 23.47311
535.3649, 23.19001
535.8470, 23.08769
536.3291, 23.12128
536.8112, 23.04001
537.2933, 22.76572
537.7755, 22.49875
538.2576, 22.33919
538.7397, 22.30087
539.2218, 22.25259
539.7039, 22.20148
540.1860, 22.12271
540.6682, 21.95515
541.1503, 21.71314
541.6324, 21.56251
542.1145, 21.56680
542.5966, 21.62260
543.0787, 21.56757
543.5609, 21.42352
544.0430, 21.27127
544.5251, 21.14116
545.0072, 21.02990
545.4893, 20.95832
545.9714, 20.92027
546.4536, 20.83778
546.9357, 20.58029
547.4178, 20.31766
547.8999, 20.19338
548.3820, 20.30994
548.8641, 20.38134
549.3463, 20.33228
549.8284, 20.21277
550.3105, 20.08620
550.7926, 19.92106
551.2747, 19.80109
551.7568, 19.75849
552.2390, 19.76885
552.7211, 19.72497
553.2032, 19.61570
553.6853, 19.48697
554.1674, 19.34267
554.6495, 19.18785
555.1317, 19.11794
555.6138, 19.14526
556.0959, 19.17270
556.5780, 19.08251
557.0601, 18.91933
557.5422, 18.80412
558.0244, 18.76436
558.5065, 18.76904
558.9886, 18.82821
559.4707, 18.90645
559.9528, 18.93160
560.4349, 18.79349
560.9171, 18.66668
561.3992, 18.68115
561.8813, 18.81112
562.3634, 18.86884
562.8455, 18.77529
563.3276, 18.62270
563.8098, 18.43441
564.2919, 18.17413
564.7740, 18.01402
565.2561, 17.98676
565.7382, 18.02700
566.2203, 18.09187
566.7025, 18.20778
567.1846, 18.22656
567.6667, 18.09771
568.1488, 17.90588
568.6309, 17.84163
569.1130, 17.89866
569.5952, 17.94487
570.0773, 17.92095
570.5594, 17.85042
571.0415, 17.75214
571.5236, 17.63303
572.0057, 17.55850
572.4879, 17.61343
572.9700, 17.71309
573.4521, 17.77804
573.9342, 17.80035
574.4163, 17.77476
574.8984, 17.64264
575.3806, 17.48762
575.8627, 17.39322
576.3448, 17.43500
576.8269, 17.46803
577.3090, 17.47218
577.7911, 17.45683
578.2733, 17.44470
578.7554, 17.44545
579.2375, 17.42927
579.7196, 17.38207
580.2017, 17.30770
580.6838, 17.24006
581.1660, 17.17617
581.6481, 17.13762
582.1302, 17.15873
582.6123, 17.22245
583.0944, 17.26179
583.5765, 17.27351
584.0587, 17.25247
584.5408, 17.14895
585.0229, 17.01809
585.5050, 16.96207
585.9871, 17.06850
586.4692, 17.16652
586.9514, 17.12821
587.4335, 17.00847
587.9156, 16.92176
588.3977, 16.91765
588.8798, 16.93753
589.3619, 16.98276
589.8441, 17.05084
590.3262, 17.05568
590.8083, 16.94685
