##NAMES=Pseudograndreefite
##RRUFFID=R100006
##IDEAL CHEMISTRY=Pb^2+^_6_(S^6+^O_4_)F_10_
##LOCALITY=Grand Reef mine, Klondyke, Aravaipa District, Graham County, Arizona, USA
##OWNER=RRUFF
##SOURCE=Natural History Museum of Los Angeles County 
##DESCRIPTION=Colorless crystal fragments from the type specimen, associated with laurelite R100035 and grandreefite R100012. Photo of type specimen is courtesy of LACMNH.
##STATUS=The identification of this mineral has been confirmed by single-crystal X-ray diffraction.
##URL=rruff.info/R100006
92.49744, 2148.755
92.97955, 2175.627
93.46167, 2209.719
93.94379, 2222.883
94.42590, 2227.718
94.90802, 2227.750
95.39014, 2221.390
95.87225, 2208.276
96.35437, 2192.083
96.83649, 2174.885
97.31860, 2157.836
97.80072, 2140.476
98.28284, 2124.636
98.76495, 2104.929
99.24707, 2086.139
99.72919, 2067.780
100.2113, 2051.796
100.6934, 2037.695
101.1755, 2025.680
101.6577, 2016.524
102.1398, 2010.967
102.6219, 2009.442
103.1040, 2008.732
103.5861, 2008.938
104.0682, 2009.241
104.5504, 2009.131
105.0325, 2008.484
105.5146, 2007.380
105.9967, 2005.506
106.4788, 2001.819
106.9609, 1999.666
107.4431, 1999.673
107.9252, 2001.074
108.4073, 2002.828
108.8894, 2004.512
109.3715, 2006.514
109.8536, 2009.503
110.3358, 2013.462
110.8179, 2017.926
111.3000, 2022.850
111.7821, 2028.182
112.2642, 2033.424
112.7463, 2038.106
113.2285, 2042.810
113.7106, 2048.024
114.1927, 2053.754
114.6748, 2060.140
115.1569, 2067.694
115.6390, 2077.393
116.1212, 2085.801
116.6033, 2091.745
117.0854, 2096.203
117.5675, 2099.738
118.0496, 2102.400
118.5317, 2104.704
119.0139, 2109.177
119.4960, 2118.686
119.9781, 2127.438
120.4602, 2134.653
120.9423, 2140.379
121.4244, 2144.852
121.9066, 2148.232
122.3887, 2150.499
122.8708, 2151.767
123.3529, 2152.921
123.8350, 2152.637
124.3171, 2148.878
124.7993, 2142.230
125.2814, 2136.307
125.7635, 2135.005
126.2456, 2139.626
126.7277, 2143.033
127.2098, 2144.910
127.6920, 2145.605
128.1741, 2145.392
128.6562, 2144.267
129.1383, 2142.441
129.6204, 2139.699
130.1025, 2136.129
130.5847, 2133.087
131.0668, 2132.117
131.5489, 2132.327
132.0310, 2130.482
132.5131, 2124.911
132.9952, 2117.976
133.4774, 2111.410
133.9595, 2105.294
134.4416, 2100.174
134.9237, 2096.951
135.4058, 2095.956
135.8879, 2094.595
136.3701, 2092.628
136.8522, 2090.048
137.3343, 2086.656
137.8164, 2082.413
138.2985, 2077.740
138.7806, 2073.216
139.2628, 2068.600
139.7449, 2064.688
140.2270, 2062.085
140.7091, 2059.831
141.1912, 2057.032
141.6733, 2053.297
142.1555, 2048.873
142.6376, 2044.684
143.1197, 2041.281
143.6018, 2037.464
144.0839, 2032.827
144.5660, 2027.700
145.0482, 2022.548
145.5303, 2017.607
146.0124, 2012.899
146.4945, 2008.559
146.9766, 2005.941
147.4587, 2002.326
147.9409, 1995.934
148.4230, 1987.254
148.9051, 1978.625
149.3872, 1971.705
149.8693, 1966.253
150.3514, 1960.094
150.8336, 1952.818
151.3157, 1945.067
151.7978, 1937.422
152.2799, 1929.893
152.7620, 1922.166
153.2441, 1914.341
153.7263, 1906.141
154.2084, 1896.670
154.6905, 1884.789
155.1726, 1871.631
155.6547, 1859.628
156.1368, 1849.193
156.6190, 1839.354
157.1011, 1829.802
157.5832, 1820.357
158.0653, 1810.518
158.5474, 1799.762
159.0295, 1788.196
159.5117, 1777.378
159.9938, 1769.240
160.4759, 1759.757
160.9580, 1746.654
161.4401, 1730.859
161.9222, 1714.935
162.4044, 1701.280
162.8865, 1690.245
163.3686, 1679.003
163.8507, 1667.757
164.3328, 1656.084
164.8149, 1643.981
165.2971, 1631.282
165.7792, 1617.930
166.2613, 1603.671
166.7434, 1588.255
167.2255, 1572.701
167.7076, 1556.026
168.1898, 1539.820
168.6719, 1525.768
169.1540, 1513.991
169.6361, 1502.805
170.1182, 1489.704
170.6003, 1473.478
171.0825, 1458.410
171.5646, 1445.624
172.0467, 1433.771
172.5288, 1421.130
173.0109, 1407.111
173.4930, 1392.881
173.9752, 1380.524
174.4573, 1370.166
174.9394, 1359.795
175.4215, 1348.637
175.9036, 1336.986
176.3857, 1325.721
176.8679, 1315.270
177.3500, 1304.770
177.8321, 1292.908
178.3142, 1279.499
178.7963, 1266.367
179.2784, 1254.774
179.7606, 1244.471
180.2427, 1234.219
180.7248, 1223.534
181.2069, 1212.944
181.6890, 1203.005
182.1711, 1193.730
182.6533, 1184.768
183.1354, 1175.775
183.6175, 1166.727
184.0996, 1157.850
184.5817, 1149.388
185.0638, 1140.993
185.5460, 1132.500
186.0281, 1123.871
186.5102, 1115.199
186.9923, 1106.516
187.4744, 1097.592
187.9565, 1089.321
188.4387, 1082.183
188.9208, 1075.386
189.4029, 1068.467
189.8850, 1061.234
190.3671, 1053.816
190.8492, 1046.169
191.3314, 1037.199
191.8135, 1030.079
192.2956, 1026.371
192.7777, 1023.696
193.2598, 1019.868
193.7419, 1014.057
194.2241, 1007.121
194.7062, 1001.133
195.1883, 996.7959
195.6704, 992.6948
196.1525, 989.4445
196.6346, 986.2225
197.1168, 981.8123
197.5989, 975.6312
198.0810, 968.5225
198.5631, 962.9744
199.0452, 959.8615
199.5273, 957.0030
200.0095, 954.0673
200.4916, 951.1750
200.9737, 948.6136
201.4558, 946.5974
201.9379, 944.7831
202.4200, 942.0082
202.9022, 937.5826
203.3843, 933.6134
203.8664, 931.0972
204.3485, 929.6442
204.8306, 928.1893
205.3127, 926.2424
205.7949, 924.0743
206.2770, 922.3454
206.7591, 921.3054
207.2412, 920.1190
207.7233, 918.0638
208.2054, 915.3024
208.6876, 912.8675
209.1697, 911.0500
209.6518, 909.9443
210.1339, 909.6716
210.6160, 910.5176
211.0981, 911.3926
211.5803, 911.2480
212.0624, 910.0814
212.5445, 909.1482
213.0266, 908.9887
213.5087, 909.2381
213.9908, 909.6016
214.4730, 910.0557
214.9551, 910.5385
215.4372, 910.9288
215.9193, 911.1874
216.4014, 911.6284
216.8836, 911.9479
217.3657, 912.7343
217.8478, 914.7375
218.3299, 918.1536
218.8120, 921.8801
219.2941, 924.2904
219.7763, 924.9387
220.2584, 925.7072
220.7405, 926.1801
221.2226, 927.3268
221.7047, 930.2155
222.1868, 935.0642
222.6690, 940.6549
223.1511, 944.9913
223.6332, 947.4156
224.1153, 950.0932
224.5974, 953.2579
225.0795, 956.6844
225.5617, 960.1540
226.0438, 963.6262
226.5259, 967.3064
227.0080, 971.6305
227.4901, 977.1688
227.9722, 982.2993
228.4544, 986.3016
228.9365, 990.3301
229.4186, 995.4031
229.9007, 1001.738
230.3828, 1008.633
230.8649, 1014.782
231.3471, 1019.490
231.8292, 1024.579
232.3113, 1029.922
232.7934, 1035.655
233.2755, 1042.246
233.7576, 1049.695
234.2398, 1057.214
234.7219, 1063.304
235.2040, 1066.178
235.6861, 1070.916
236.1682, 1078.963
236.6503, 1088.037
237.1325, 1096.049
237.6146, 1102.423
238.0967, 1108.039
238.5788, 1114.178
239.0609, 1121.085
239.5430, 1127.932
240.0252, 1134.871
240.5073, 1141.621
240.9894, 1147.698
241.4715, 1153.022
241.9536, 1158.156
242.4357, 1164.036
242.9179, 1170.987
243.4000, 1177.096
243.8821, 1182.002
244.3642, 1186.045
244.8463, 1189.251
245.3284, 1191.588
245.8106, 1194.019
246.2927, 1197.951
246.7748, 1203.468
247.2569, 1208.344
247.7390, 1212.144
248.2211, 1215.199
248.7033, 1218.114
249.1854, 1221.074
249.6675, 1223.143
250.1496, 1222.899
250.6317, 1220.673
251.1138, 1218.481
251.5960, 1217.131
252.0781, 1215.864
252.5602, 1213.748
253.0423, 1210.723
253.5244, 1206.834
254.0065, 1201.673
254.4887, 1195.639
254.9708, 1189.728
255.4529, 1184.885
255.9350, 1180.038
256.4171, 1173.556
256.8992, 1165.146
257.3813, 1156.254
257.8635, 1147.831
258.3456, 1139.616
258.8277, 1131.048
259.3098, 1121.944
259.7919, 1112.488
260.2740, 1103.054
260.7562, 1093.747
261.2383, 1084.005
261.7204, 1072.930
262.2025, 1061.320
262.6846, 1050.088
263.1667, 1039.721
263.6489, 1029.560
264.1310, 1018.611
264.6131, 1006.804
265.0952, 994.5059
265.5773, 981.1968
266.0594, 967.8138
266.5416, 955.3170
267.0237, 944.1199
267.5058, 933.4636
267.9879, 922.2479
268.4700, 910.4142
268.9521, 898.4523
269.4343, 886.2635
269.9164, 874.1379
270.3985, 862.2273
270.8806, 850.5209
271.3627, 839.4308
271.8448, 829.7273
272.3270, 821.6671
272.8091, 813.4220
273.2912, 804.5536
273.7733, 795.3401
274.2554, 785.6915
274.7375, 775.5723
275.2197, 765.5974
275.7018, 756.6083
276.1839, 748.9057
276.6660, 740.4332
277.1481, 729.5710
277.6302, 718.8580
278.1124, 709.7145
278.5945, 702.1659
279.0766, 695.4056
279.5587, 688.9236
280.0408, 682.8170
280.5229, 675.9877
281.0051, 666.7012
281.4872, 658.1888
281.9693, 652.4971
282.4514, 649.0351
282.9335, 645.4858
283.4156, 639.6200
283.8978, 631.3643
284.3799, 624.2695
284.8620, 619.5361
285.3441, 614.8319
285.8262, 609.1095
286.3083, 602.7771
286.7905, 596.8099
287.2726, 591.9911
287.7547, 588.1902
288.2368, 584.2972
288.7189, 580.5741
289.2010, 576.3824
289.6832, 571.0387
290.1653, 565.2571
290.6474, 560.0928
291.1295, 556.2346
291.6116, 553.3694
292.0938, 550.2341
292.5759, 546.4196
293.0580, 542.9619
293.5401, 540.7531
294.0222, 538.7187
294.5043, 535.3987
294.9865, 530.0862
295.4686, 523.8895
295.9507, 519.6561
296.4328, 519.0172
296.9149, 517.4727
297.3970, 513.5684
297.8792, 509.1657
298.3613, 506.1143
298.8434, 504.9008
299.3255, 504.3072
299.8076, 502.1335
300.2897, 497.1583
300.7719, 493.3795
301.2540, 491.5573
301.7361, 490.3588
302.2182, 488.9327
302.7003, 487.1522
303.1824, 485.4223
303.6646, 484.3068
304.1467, 484.0904
304.6288, 483.4595
305.1109, 482.3961
305.5930, 480.9616
306.0751, 479.0851
306.5573, 476.8302
307.0394, 474.3178
307.5215, 471.5017
308.0036, 468.2701
308.4857, 466.1961
308.9678, 467.0162
309.4500, 467.3187
309.9321, 465.6202
310.4142, 462.6415
310.8963, 460.0220
311.3784, 458.9482
311.8605, 459.1467
312.3427, 458.4744
312.8248, 455.9483
313.3069, 453.6364
313.7890, 452.0152
314.2711, 450.7928
314.7532, 449.5368
315.2354, 448.0373
315.7175, 446.4279
316.1996, 445.1395
316.6817, 444.5127
317.1638, 443.6625
317.6459, 442.2002
318.1281, 440.6539
318.6102, 439.5562
319.0923, 439.0580
319.5744, 438.8373
320.0565, 438.3663
320.5386, 437.5503
321.0208, 436.6889
321.5029, 435.8199
321.9850, 434.8969
322.4671, 433.8709
322.9492, 432.7419
323.4313, 431.5654
323.9135, 430.3897
324.3956, 429.2231
324.8777, 428.0086
325.3598, 426.5546
325.8419, 425.2231
326.3240, 424.1835
326.8062, 423.3889
327.2883, 422.6916
327.7704, 422.0167
328.2525, 421.3504
328.7346, 420.4120
329.2167, 418.9766
329.6989, 417.4984
330.1810, 416.0618
330.6631, 414.6618
331.1452, 413.2952
331.6273, 411.9628
332.1094, 410.6528
332.5916, 409.3230
333.0737, 407.9433
333.5558, 406.6014
334.0379, 405.4996
334.5200, 404.3403
335.0021, 402.6616
335.4843, 400.3376
335.9664, 398.0329
336.4485, 396.9247
336.9306, 397.4444
337.4127, 397.8739
337.8948, 398.4008
338.3770, 398.5278
338.8591, 397.7868
339.3412, 396.2251
339.8233, 394.4096
340.3055, 392.9467
340.7876, 391.9087
341.2697, 390.5307
341.7518, 388.2650
342.2339, 386.2018
342.7160, 384.9012
343.1982, 384.1482
343.6803, 383.3956
344.1624, 382.3284
344.6445, 380.9564
345.1266, 379.2238
345.6087, 376.5441
346.0909, 374.5084
346.5730, 373.8541
347.0551, 373.9531
347.5372, 374.1397
348.0193, 374.2293
348.5014, 373.9935
348.9836, 372.8813
349.4657, 370.6045
349.9478, 368.4362
350.4299, 366.6906
350.9120, 365.1858
351.3941, 363.7995
351.8763, 362.5120
352.3584, 361.4211
352.8405, 360.7530
353.3226, 360.5220
353.8047, 360.0422
354.2868, 358.8168
354.7690, 357.7601
355.2511, 357.6783
355.7332, 358.3444
356.2153, 358.7673
356.6974, 358.2411
357.1795, 356.9449
357.6617, 355.5428
358.1438, 354.0093
358.6259, 352.4507
359.1080, 350.6942
359.5901, 348.9965
360.0722, 347.8362
360.5544, 347.6299
361.0365, 347.7506
361.5186, 347.2308
362.0007, 345.9781
362.4828, 344.8380
362.9649, 344.3993
363.4471, 344.0997
363.9292, 343.1657
364.4113, 341.3430
364.8934, 339.6766
365.3755, 339.2022
365.8576, 339.6815
366.3398, 339.8129
366.8219, 339.2934
367.3040, 338.3242
367.7861, 336.8708
368.2682, 335.0044
368.7503, 333.6500
369.2325, 333.7358
369.7146, 334.3998
370.1967, 333.9585
370.6788, 332.0832
371.1609, 330.2661
371.6430, 329.9529
372.1252, 330.6512
372.6073, 330.7079
373.0894, 329.3690
373.5715, 327.7501
374.0536, 326.6877
374.5357, 326.1272
375.0179, 325.7519
375.5000, 325.4863
375.9821, 325.2521
376.4642, 324.8603
376.9463, 324.2763
377.4284, 323.6489
377.9106, 322.9356
378.3927, 322.2378
378.8748, 321.7890
379.3569, 321.6768
379.8390, 321.6231
380.3211, 321.2336
380.8033, 320.4237
381.2854, 319.7811
381.7675, 319.3817
382.2496, 319.1421
382.7317, 319.1708
383.2138, 319.3843
383.6960, 319.3169
384.1781, 318.5774
384.6602, 317.2133
385.1423, 315.9306
385.6244, 314.5245
386.1065, 313.3985
386.5887, 312.7516
387.0708, 312.4644
387.5529, 312.4428
388.0350, 312.6682
388.5171, 312.8731
388.9992, 312.4492
389.4814, 310.5540
389.9635, 309.3293
390.4456, 309.3359
390.9277, 309.6314
391.4098, 309.3763
391.8919, 308.5098
392.3741, 307.6133
392.8562, 307.3125
393.3383, 307.6975
393.8204, 307.9994
394.3025, 308.6782
394.7846, 308.8145
395.2668, 307.5617
395.7489, 305.5892
396.2310, 304.1713
396.7131, 304.0919
397.1952, 304.9323
397.6773, 305.2123
398.1595, 304.4759
398.6416, 303.9173
399.1237, 303.6870
399.6058, 303.6744
400.0879, 303.8895
400.5700, 304.2933
401.0522, 304.6318
401.5343, 304.5409
402.0164, 303.9300
402.4985, 303.4270
402.9806, 303.1632
403.4627, 302.9074
403.9449, 302.4544
404.4270, 301.9188
404.9091, 301.6060
405.3912, 301.7674
405.8733, 302.2563
406.3554, 302.6869
406.8376, 303.2020
407.3197, 303.2941
407.8018, 302.3828
408.2839, 301.1293
408.7660, 300.1576
409.2481, 299.5967
409.7303, 299.3752
410.2124, 299.5843
410.6945, 300.1839
411.1766, 300.4931
411.6587, 300.1277
412.1408, 299.7495
412.6230, 299.9717
413.1051, 300.7368
413.5872, 301.6647
414.0693, 302.7509
414.5514, 303.8463
415.0335, 304.6921
415.5157, 305.2624
415.9978, 305.6918
416.4799, 305.9234
416.9620, 306.1068
417.4441, 306.6789
417.9262, 307.9716
418.4084, 309.2350
418.8905, 309.8048
419.3726, 310.0042
419.8547, 310.7383
420.3368, 312.3900
420.8189, 314.4449
421.3011, 316.0133
421.7832, 316.8824
422.2653, 318.1954
422.7474, 320.1228
423.2295, 322.5118
423.7116, 325.5780
424.1938, 329.1527
424.6759, 332.3156
425.1580, 334.2427
425.6401, 335.0357
426.1222, 336.6713
426.6043, 339.5212
427.0865, 342.6334
427.5686, 345.9895
428.0507, 349.4078
428.5328, 352.5720
429.0149, 355.3788
429.4970, 358.1613
429.9792, 361.5709
430.4613, 366.0731
430.9434, 370.2327
431.4255, 373.6901
431.9076, 377.1893
432.3897, 381.1886
432.8719, 385.6411
433.3540, 390.2677
433.8361, 394.8880
434.3182, 399.4607
434.8003, 403.7751
435.2824, 407.9707
435.7646, 411.6161
436.2467, 414.4871
436.7288, 416.8828
437.2109, 419.2762
437.6930, 421.8286
438.1751, 423.7720
438.6573, 423.8283
439.1394, 421.8337
439.6215, 420.2416
440.1036, 419.8208
440.5857, 419.3669
441.0678, 417.8250
441.5500, 415.5121
442.0321, 413.6620
442.5142, 413.3590
442.9963, 413.7235
443.4784, 413.1542
443.9605, 411.5871
444.4427, 409.5197
444.9248, 406.6400
445.4069, 403.7072
445.8890, 402.2115
446.3711, 402.8698
446.8532, 403.1148
447.3354, 401.0191
447.8175, 397.5504
448.2996, 395.0258
448.7817, 394.1089
449.2638, 393.2210
449.7459, 390.5445
450.2281, 385.9380
450.7102, 381.7006
451.1923, 378.3736
451.6744, 375.0278
452.1565, 370.5185
452.6386, 365.4320
453.1208, 361.9625
453.6029, 361.5224
454.0850, 362.4720
454.5671, 360.2401
455.0492, 351.1267
455.5313, 343.7584
456.0135, 339.2880
456.4956, 335.8849
456.9777, 331.8983
457.4598, 327.2406
457.9419, 323.0166
458.4240, 320.3680
458.9062, 319.3302
459.3883, 317.8294
459.8704, 315.4789
460.3525, 313.0592
460.8346, 310.6295
461.3167, 308.2671
461.7989, 306.0568
462.2810, 304.0212
462.7631, 302.1294
463.2452, 300.2998
463.7273, 298.4991
464.2094, 296.9618
464.6916, 295.9601
465.1737, 295.0031
465.6558, 293.9034
466.1379, 292.6229
466.6200, 291.0633
467.1021, 288.9244
467.5843, 286.5782
468.0664, 284.7577
468.5485, 283.4748
469.0306, 282.6056
469.5127, 282.3140
469.9948, 282.2935
470.4770, 282.1506
470.9591, 281.9666
471.4412, 281.3079
471.9233, 279.4251
472.4054, 277.0507
472.8875, 275.6922
473.3697, 275.6646
473.8518, 275.8671
474.3339, 275.2393
474.8160, 273.7985
475.2981, 272.9354
475.7802, 273.5101
476.2624, 273.7464
476.7445, 272.3386
477.2266, 270.1013
477.7087, 268.7009
478.1908, 268.7979
478.6729, 269.6001
479.1551, 269.6374
479.6372, 268.2566
480.1193, 267.6566
480.6014, 268.6864
481.0835, 269.6256
481.5656, 269.3540
482.0478, 268.1425
482.5299, 266.9492
483.0120, 266.4180
483.4941, 266.3576
483.9762, 266.0500
484.4583, 265.3294
484.9405, 264.7037
485.4226, 264.3295
485.9047, 264.0416
486.3868, 263.6865
486.8689, 263.2577
487.3510, 262.9225
487.8332, 262.9240
488.3153, 263.1667
488.7974, 263.1584
489.2795, 262.8061
489.7616, 262.3863
490.2437, 261.9931
490.7259, 261.6569
491.2080, 261.4534
491.6901, 261.4763
492.1722, 261.4765
492.6543, 261.2245
493.1364, 260.8039
493.6186, 260.5512
494.1007, 260.6288
494.5828, 260.5088
495.0649, 259.2648
495.5470, 256.7090
496.0291, 255.6970
496.5113, 257.8551
496.9934, 260.1492
497.4755, 260.7582
497.9576, 260.0758
498.4397, 259.2728
498.9218, 258.9187
499.4040, 258.7185
499.8861, 257.9467
500.3682, 255.6386
500.8503, 254.6007
501.3324, 255.8722
501.8145, 257.3682
502.2967, 257.7923
502.7788, 257.2595
503.2609, 256.6155
503.7430, 256.4574
504.2251, 256.6265
504.7072, 256.5046
505.1894, 256.0007
505.6715, 255.4071
506.1536, 254.5185
506.6357, 253.7542
507.1178, 253.5745
507.5999, 254.0016
508.0821, 254.4302
508.5642, 254.3383
509.0463, 253.9065
509.5284, 253.6436
510.0105, 253.5755
510.4926, 253.7068
510.9748, 254.2029
511.4569, 254.8603
511.9390, 255.0340
512.4211, 253.7081
512.9032, 253.7117
513.3853, 257.6657
513.8674, 263.5450
514.3495, 268.3411
514.8317, 271.4051
515.3138, 271.9645
515.7959, 268.7200
516.2780, 261.2620
516.7601, 256.0711
517.2422, 253.8835
517.7244, 252.7141
518.2065, 252.3454
518.6886, 252.4263
519.1707, 252.6130
519.6528, 252.7662
520.1349, 252.8113
520.6171, 252.5757
521.0992, 251.9280
521.5813, 251.5437
522.0634, 251.6672
522.5455, 251.8283
523.0276, 251.9505
523.5098, 251.9749
523.9919, 251.7353
524.4740, 251.0371
524.9561, 250.3900
525.4382, 250.8559
525.9203, 252.4650
526.4025, 253.0954
526.8846, 251.6081
527.3667, 249.8489
527.8488, 249.7555
528.3309, 251.0731
528.8130, 252.2186
529.2952, 252.7830
529.7773, 252.9391
530.2594, 252.6392
530.7415, 252.0111
531.2236, 251.6543
531.7057, 251.9054
532.1879, 252.3554
532.6700, 252.1895
533.1521, 251.0092
533.6342, 250.1004
534.1163, 249.5454
534.5984, 249.2209
535.0806, 249.0603
535.5627, 249.0608
536.0448, 249.3194
536.5269, 249.9386
537.0090, 250.6747
537.4911, 250.6896
537.9733, 249.4138
538.4554, 248.6770
538.9375, 249.3277
539.4196, 250.0316
539.9017, 249.7211
540.3839, 248.6065
540.8660, 247.9033
541.3481, 248.8043
541.8302, 250.4131
542.3123, 250.4211
542.7944, 248.5796
543.2766, 247.3916
543.7587, 248.3036
544.2408, 249.9972
544.7229, 250.5196
545.2050, 249.7641
545.6871, 248.9204
546.1693, 248.2479
546.6514, 247.7800
547.1335, 247.6278
547.6156, 247.7507
548.0977, 247.8691
548.5798, 247.7873
549.0620, 247.6175
549.5441, 247.7404
550.0262, 248.6593
550.5083, 249.1907
550.9904, 248.8644
551.4725, 248.4983
551.9547, 248.9388
552.4368, 249.9953
552.9189, 250.6871
553.4010, 250.1869
553.8831, 248.8636
554.3652, 248.2584
554.8474, 248.6941
555.3295, 249.0432
555.8116, 249.0445
556.2937, 248.8393
556.7758, 248.4470
557.2579, 247.8969
557.7401, 247.3731
558.2222, 246.8441
558.7043, 246.4665
559.1864, 246.7165
559.6685, 247.6069
560.1506, 248.1028
560.6328, 247.5738
561.1149, 246.4623
561.5970, 245.7105
562.0791, 245.3790
562.5612, 245.1230
563.0433, 244.7388
563.5255, 244.5077
564.0076, 244.8003
564.4897, 245.5065
564.9718, 246.1602
565.4539, 246.4729
565.9360, 246.4886
566.4182, 246.3128
566.9003, 245.6335
567.3824, 245.3674
567.8645, 246.0147
568.3466, 246.6776
568.8287, 246.7414
569.3109, 246.2882
569.7930, 245.8072
570.2751, 245.6591
570.7572, 245.6126
571.2393, 245.1149
571.7214, 244.1253
572.2036, 243.1980
572.6857, 242.4870
573.1678, 241.9466
573.6499, 241.3879
574.1320, 240.8110
574.6141, 240.7962
575.0963, 242.1134
575.5784, 243.5704
576.0605, 244.1954
576.5426, 244.0624
577.0247, 243.4679
577.5068, 242.4945
577.9890, 241.4637
578.4711, 240.9836
578.9532, 241.2246
579.4353, 241.6199
579.9174, 242.3506
580.3995, 243.0374
580.8817, 243.4918
581.3638, 243.7664
581.8459, 244.0008
582.3280, 244.2683
582.8101, 244.4641
583.2922, 244.2547
583.7744, 243.5724
584.2565, 243.5396
584.7386, 244.6464
585.2207, 245.9508
585.7029, 246.7240
