##NAMES=Pucherite
##RRUFFID=R080137
##IDEAL CHEMISTRY=Bi^3+^V^5+^O_4_
##LOCALITY=Fazenda da Posse, Sao Jose do Brejauba, Minas Gerais, Brazil
##OWNER=RRUFF
##SOURCE=Luiz Menezes
##DESCRIPTION=Reddish brown tabular crystals associated with greenish yellow bismutite
##STATUS=The identification of this mineral has been confirmed by single-crystal X-ray diffraction.
##URL=rruff.info/R080137
93.78320, 4967.935
94.26532, 5093.213
94.74744, 5118.304
95.22955, 5029.456
95.71167, 4880.696
96.19379, 4723.499
96.67590, 4565.002
97.15802, 4413.745
97.64014, 4265.930
98.12225, 4125.716
98.60437, 4000.981
99.08649, 3897.182
99.56860, 3809.319
100.0507, 3725.583
100.5328, 3637.680
101.0150, 3557.030
101.4971, 3492.397
101.9792, 3443.235
102.4613, 3406.266
102.9434, 3381.148
103.4255, 3366.545
103.9077, 3363.271
104.3898, 3371.696
104.8719, 3390.488
105.3540, 3418.800
105.8361, 3465.096
106.3182, 3506.179
106.8004, 3544.162
107.2825, 3573.268
107.7646, 3588.385
108.2467, 3587.325
108.7288, 3569.213
109.2109, 3519.518
109.6931, 3431.171
110.1752, 3318.846
110.6573, 3174.915
111.1394, 3007.386
111.6215, 2832.530
112.1036, 2664.106
112.5858, 2501.241
113.0679, 2352.428
113.5500, 2215.081
114.0321, 2092.061
114.5142, 1987.643
114.9964, 1902.428
115.4785, 1829.312
115.9606, 1761.782
116.4427, 1699.421
116.9248, 1646.344
117.4069, 1606.699
117.8891, 1576.945
118.3712, 1549.499
118.8533, 1523.022
119.3354, 1499.043
119.8175, 1478.066
120.2996, 1459.923
120.7818, 1444.908
121.2639, 1434.099
121.7460, 1427.637
122.2281, 1421.332
122.7102, 1412.870
123.1923, 1405.545
123.6745, 1401.536
124.1566, 1401.120
124.6387, 1402.650
125.1208, 1403.516
125.6029, 1402.132
126.0850, 1403.710
126.5672, 1409.883
127.0493, 1417.860
127.5314, 1425.420
128.0135, 1431.710
128.4956, 1437.249
128.9777, 1443.657
129.4599, 1451.826
129.9420, 1459.903
130.4241, 1467.904
130.9062, 1475.743
131.3883, 1483.168
131.8705, 1489.963
132.3526, 1496.412
132.8347, 1504.194
133.3168, 1513.109
133.7989, 1523.192
134.2810, 1535.170
134.7632, 1548.712
135.2453, 1561.952
135.7274, 1573.186
136.2095, 1583.368
136.6916, 1595.625
137.1737, 1611.051
137.6559, 1628.097
138.1380, 1645.648
138.6201, 1663.908
139.1022, 1681.820
139.5843, 1697.792
140.0664, 1713.209
140.5486, 1729.993
141.0307, 1749.207
141.5128, 1770.355
141.9949, 1791.777
142.4770, 1813.774
142.9591, 1835.752
143.4413, 1858.400
143.9234, 1880.764
144.4055, 1901.095
144.8876, 1917.131
145.3697, 1928.790
145.8518, 1943.995
146.3340, 1972.734
146.8161, 1996.156
147.2982, 2008.127
147.7803, 2009.296
148.2624, 2003.520
148.7445, 1994.186
149.2267, 1980.928
149.7088, 1965.358
150.1909, 1949.050
150.6730, 1929.904
151.1551, 1904.360
151.6372, 1872.992
152.1194, 1841.812
152.6015, 1818.117
153.0836, 1805.360
153.5657, 1792.708
154.0478, 1778.269
154.5299, 1764.792
155.0121, 1755.110
155.4942, 1749.981
155.9763, 1748.163
156.4584, 1748.870
156.9405, 1752.254
157.4227, 1755.361
157.9048, 1754.848
158.3869, 1753.595
158.8690, 1757.966
159.3511, 1770.563
159.8332, 1788.294
160.3154, 1806.504
160.7975, 1824.969
161.2796, 1846.249
161.7617, 1872.192
162.2438, 1902.785
162.7259, 1935.488
163.2081, 1969.280
163.6902, 2006.044
164.1723, 2047.627
164.6544, 2094.509
165.1365, 2142.776
165.6186, 2187.995
166.1008, 2228.617
166.5829, 2272.488
167.0650, 2324.398
167.5471, 2377.597
168.0292, 2426.830
168.5113, 2471.010
168.9935, 2513.772
169.4756, 2561.040
169.9577, 2614.605
170.4398, 2670.195
170.9219, 2727.295
171.4040, 2785.747
171.8862, 2845.385
172.3683, 2906.155
172.8504, 2968.042
173.3325, 3031.701
173.8146, 3097.589
174.2967, 3164.244
174.7789, 3232.273
175.2610, 3300.918
175.7431, 3368.090
176.2252, 3433.273
176.7073, 3498.092
177.1894, 3567.905
177.6716, 3648.070
178.1537, 3726.318
178.6358, 3799.683
179.1179, 3869.809
179.6000, 3941.908
180.0821, 4019.495
180.5643, 4098.646
181.0464, 4167.410
181.5285, 4224.100
182.0106, 4276.265
182.4927, 4330.956
182.9749, 4385.657
183.4570, 4429.499
183.9391, 4459.056
184.4212, 4470.879
184.9033, 4465.775
185.3854, 4443.296
185.8676, 4404.612
186.3497, 4350.018
186.8318, 4279.464
187.3139, 4194.750
187.7960, 4091.343
188.2781, 3975.072
188.7603, 3850.754
189.2424, 3716.166
189.7245, 3579.680
190.2066, 3452.493
190.6887, 3336.322
191.1708, 3222.588
191.6530, 3104.659
192.1351, 2989.139
192.6172, 2882.212
193.0993, 2786.744
193.5814, 2700.063
194.0635, 2617.909
194.5457, 2539.986
195.0278, 2468.235
195.5099, 2403.288
195.9920, 2343.363
196.4741, 2286.740
196.9562, 2232.643
197.4384, 2181.607
197.9205, 2134.858
198.4026, 2094.896
198.8847, 2056.672
199.3668, 2019.321
199.8489, 1983.265
200.3311, 1949.046
200.8132, 1916.946
201.2953, 1886.744
201.7774, 1857.956
202.2595, 1830.841
202.7416, 1804.916
203.2238, 1780.624
203.7059, 1757.290
204.1880, 1733.322
204.6701, 1707.819
205.1522, 1681.699
205.6344, 1659.383
206.1165, 1642.858
206.5986, 1627.061
207.0807, 1611.607
207.5628, 1596.104
208.0449, 1579.688
208.5271, 1561.724
209.0092, 1542.800
209.4913, 1525.638
209.9734, 1510.342
210.4555, 1496.196
210.9376, 1483.516
211.4198, 1471.907
211.9019, 1460.249
212.3840, 1448.307
212.8661, 1435.777
213.3482, 1421.775
213.8303, 1404.508
214.3125, 1388.750
214.7946, 1378.440
215.2767, 1372.602
215.7588, 1366.154
216.2409, 1356.514
216.7230, 1345.117
217.2052, 1334.522
217.6873, 1324.699
218.1694, 1315.957
218.6515, 1308.538
219.1336, 1302.408
219.6157, 1297.649
220.0979, 1296.260
220.5800, 1294.917
221.0621, 1289.129
221.5442, 1277.300
222.0263, 1265.622
222.5084, 1260.972
222.9906, 1264.014
223.4727, 1266.649
223.9548, 1268.568
224.4369, 1267.599
224.9190, 1260.622
225.4011, 1246.749
225.8833, 1231.478
226.3654, 1221.149
226.8475, 1216.531
227.3296, 1213.399
227.8117, 1212.791
228.2938, 1212.200
228.7760, 1209.427
229.2581, 1204.155
229.7402, 1198.898
230.2223, 1197.763
230.7044, 1202.981
231.1866, 1205.111
231.6687, 1201.305
232.1508, 1195.698
232.6329, 1189.941
233.1150, 1184.661
233.5971, 1180.598
234.0793, 1179.389
234.5614, 1183.472
235.0435, 1184.252
235.5256, 1179.149
236.0077, 1172.975
236.4898, 1168.348
236.9720, 1165.893
237.4541, 1164.901
237.9362, 1164.534
238.4183, 1165.088
238.9004, 1165.590
239.3825, 1165.694
239.8647, 1165.996
240.3468, 1167.215
240.8289, 1169.269
241.3110, 1171.162
241.7931, 1171.608
242.2752, 1169.927
242.7574, 1168.634
243.2395, 1168.221
243.7216, 1167.765
244.2037, 1166.346
244.6858, 1164.027
245.1679, 1161.906
245.6501, 1161.271
246.1322, 1162.625
246.6143, 1163.567
247.0964, 1163.103
247.5785, 1163.012
248.0606, 1164.988
248.5428, 1168.908
249.0249, 1172.826
249.5070, 1174.732
249.9891, 1174.214
250.4712, 1174.629
250.9533, 1177.531
251.4355, 1180.126
251.9176, 1179.621
252.3997, 1176.299
252.8818, 1173.833
253.3639, 1175.766
253.8460, 1182.203
254.3282, 1186.202
254.8103, 1185.220
255.2924, 1183.872
255.7745, 1185.739
256.2566, 1190.648
256.7387, 1195.478
257.2209, 1197.639
257.7030, 1197.738
258.1851, 1199.963
258.6672, 1205.910
259.1493, 1212.664
259.6314, 1218.916
260.1136, 1224.526
260.5957, 1228.355
261.0778, 1228.929
261.5599, 1227.364
262.0420, 1227.422
262.5241, 1229.647
263.0063, 1232.878
263.4884, 1236.125
263.9705, 1239.509
264.4526, 1244.298
264.9347, 1251.941
265.4168, 1260.828
265.8990, 1267.814
266.3811, 1272.535
266.8632, 1276.219
267.3453, 1279.833
267.8275, 1283.275
268.3096, 1285.509
268.7917, 1284.880
269.2738, 1284.062
269.7559, 1286.414
270.2380, 1292.309
270.7202, 1299.636
271.2023, 1307.859
271.6844, 1316.672
272.1665, 1323.945
272.6486, 1328.370
273.1307, 1331.783
273.6129, 1335.675
274.0950, 1340.090
274.5771, 1345.730
275.0592, 1354.239
275.5413, 1364.897
276.0234, 1373.257
276.5056, 1377.743
276.9877, 1380.892
277.4698, 1384.010
277.9519, 1387.355
278.4340, 1392.250
278.9161, 1400.249
279.3983, 1410.655
279.8804, 1420.668
280.3625, 1430.537
280.8446, 1439.173
281.3267, 1444.820
281.8088, 1448.790
282.2910, 1454.293
282.7731, 1463.902
283.2552, 1476.306
283.7373, 1487.176
284.2194, 1496.106
284.7015, 1504.134
285.1837, 1510.929
285.6658, 1517.464
286.1479, 1525.368
286.6300, 1535.682
287.1121, 1547.443
287.5942, 1558.350
288.0764, 1567.867
288.5585, 1577.818
289.0406, 1589.572
289.5227, 1601.780
290.0048, 1612.939
290.4869, 1622.601
290.9691, 1631.171
291.4512, 1638.808
291.9333, 1644.464
292.4154, 1652.607
292.8975, 1666.481
293.3796, 1682.014
293.8618, 1695.790
294.3439, 1706.953
294.8260, 1717.990
295.3081, 1733.181
295.7902, 1754.166
296.2723, 1771.385
296.7545, 1777.929
297.2366, 1783.961
297.7187, 1795.922
298.2008, 1814.017
298.6829, 1833.166
299.1650, 1847.356
299.6472, 1855.858
300.1293, 1866.467
300.6114, 1878.939
301.0935, 1894.401
301.5756, 1915.783
302.0577, 1941.171
302.5399, 1964.946
303.0220, 1981.169
303.5041, 1990.314
303.9862, 2004.082
304.4683, 2025.905
304.9504, 2048.833
305.4326, 2070.908
305.9147, 2092.172
306.3968, 2112.706
306.8789, 2132.020
307.3610, 2150.999
307.8431, 2173.320
308.3253, 2201.317
308.8074, 2229.172
309.2895, 2254.540
309.7716, 2279.184
310.2537, 2304.976
310.7358, 2332.920
311.2180, 2362.199
311.7001, 2390.594
312.1822, 2417.486
312.6643, 2445.405
313.1464, 2474.804
313.6285, 2505.358
314.1107, 2537.238
314.5928, 2570.421
315.0749, 2604.319
315.5570, 2638.354
316.0392, 2673.118
316.5213, 2705.674
317.0034, 2733.621
317.4855, 2761.099
317.9676, 2789.632
318.4497, 2819.667
318.9319, 2851.526
319.4140, 2886.163
319.8961, 2923.906
320.3782, 2960.644
320.8603, 2994.614
321.3424, 3029.111
321.8246, 3065.355
322.3067, 3103.176
322.7888, 3142.214
323.2709, 3181.609
323.7530, 3221.759
324.2351, 3264.558
324.7173, 3312.825
325.1994, 3359.990
325.6815, 3405.129
326.1636, 3447.958
326.6457, 3488.531
327.1278, 3526.534
327.6100, 3562.518
328.0921, 3598.656
328.5742, 3637.411
329.0563, 3670.683
329.5384, 3699.101
330.0205, 3720.750
330.5027, 3734.249
330.9848, 3739.243
331.4669, 3734.845
331.9490, 3718.803
332.4311, 3689.534
332.9132, 3655.576
333.3954, 3616.436
333.8775, 3573.809
334.3596, 3526.359
334.8417, 3475.129
335.3238, 3425.681
335.8059, 3384.411
336.2881, 3351.366
336.7702, 3317.068
337.2523, 3277.948
337.7344, 3241.593
338.2165, 3211.262
338.6986, 3186.132
339.1808, 3163.772
339.6629, 3143.156
340.1450, 3124.085
340.6271, 3105.327
341.1092, 3085.441
341.5913, 3068.936
342.0735, 3057.663
342.5556, 3050.174
343.0377, 3045.075
343.5198, 3042.098
344.0019, 3040.560
344.4840, 3039.602
344.9662, 3039.366
345.4483, 3039.060
345.9304, 3039.503
346.4125, 3039.125
346.8946, 3036.710
347.3767, 3032.060
347.8589, 3025.810
348.3410, 3018.283
348.8231, 3009.473
349.3052, 3000.320
349.7873, 2990.752
350.2694, 2980.991
350.7516, 2971.083
351.2337, 2961.080
351.7158, 2951.396
352.1979, 2941.049
352.6800, 2931.065
353.1621, 2925.399
353.6443, 2925.556
354.1264, 2926.792
354.6085, 2925.682
355.0906, 2923.868
355.5727, 2924.040
356.0548, 2927.296
356.5370, 2932.675
357.0191, 2939.494
357.5012, 2947.905
357.9833, 2955.750
358.4654, 2961.343
358.9475, 2966.389
359.4297, 2972.972
359.9118, 2981.532
360.3939, 2990.492
360.8760, 2998.762
361.3581, 3006.425
361.8402, 3014.116
362.3224, 3021.991
362.8045, 3029.806
363.2866, 3037.920
363.7687, 3046.177
364.2508, 3052.497
364.7329, 3056.015
365.2151, 3057.103
365.6972, 3055.852
366.1793, 3051.921
366.6614, 3047.786
367.1436, 3046.500
367.6257, 3046.491
368.1078, 3042.868
368.5899, 3032.599
369.0720, 3020.471
369.5541, 3010.676
370.0363, 3002.760
370.5184, 2994.046
371.0005, 2984.011
371.4826, 2971.620
371.9647, 2954.808
372.4468, 2933.131
372.9290, 2909.146
373.4111, 2881.249
373.8932, 2852.157
374.3753, 2828.573
374.8574, 2812.949
375.3395, 2798.627
375.8217, 2777.104
376.3038, 2747.659
376.7859, 2717.354
377.2680, 2686.032
377.7501, 2654.581
378.2322, 2622.935
378.7144, 2591.426
379.1965, 2562.102
379.6786, 2536.714
380.1607, 2514.975
380.6428, 2492.295
381.1249, 2467.503
381.6071, 2443.393
382.0892, 2420.395
382.5713, 2398.752
383.0534, 2379.157
383.5355, 2361.887
384.0176, 2346.185
384.4998, 2330.267
384.9819, 2313.933
385.4640, 2297.666
385.9461, 2280.591
386.4282, 2264.186
386.9103, 2249.928
387.3925, 2237.999
387.8746, 2227.297
388.3567, 2216.660
388.8388, 2205.730
389.3209, 2197.690
389.8030, 2192.011
390.2852, 2189.155
390.7673, 2191.250
391.2494, 2196.177
391.7315, 2199.770
392.2136, 2199.453
392.6957, 2196.521
393.1779, 2195.824
393.6600, 2196.371
394.1421, 2201.083
394.6242, 2213.193
395.1063, 2227.571
395.5884, 2239.332
396.0706, 2247.413
396.5527, 2254.318
397.0348, 2263.496
397.5169, 2275.511
397.9990, 2287.319
398.4811, 2298.201
398.9633, 2309.421
399.4454, 2321.713
399.9275, 2334.794
400.4096, 2348.114
400.8917, 2361.449
401.3738, 2374.579
401.8560, 2386.133
402.3381, 2394.099
402.8202, 2404.431
403.3023, 2418.487
403.7844, 2435.748
404.2665, 2456.642
404.7487, 2481.531
405.2308, 2507.321
405.7129, 2529.293
406.1950, 2547.248
406.6771, 2567.821
407.1592, 2593.607
407.6414, 2620.884
408.1235, 2647.823
408.6056, 2674.069
409.0877, 2698.293
409.5698, 2719.494
410.0519, 2738.046
410.5341, 2755.719
411.0162, 2773.416
411.4983, 2786.638
411.9804, 2793.146
412.4625, 2792.878
412.9446, 2784.964
413.4268, 2768.639
413.9089, 2745.667
414.3910, 2717.429
414.8731, 2683.799
415.3553, 2643.714
415.8374, 2595.906
416.3195, 2542.999
416.8016, 2487.488
417.2837, 2429.195
417.7658, 2372.281
418.2480, 2317.345
418.7301, 2264.676
419.2122, 2213.474
419.6943, 2163.833
420.1764, 2118.454
420.6585, 2080.303
421.1407, 2048.879
421.6228, 2017.736
422.1049, 1983.738
422.5870, 1952.994
423.0691, 1928.911
423.5512, 1909.573
424.0334, 1891.525
424.5155, 1873.523
424.9976, 1855.864
425.4797, 1839.233
425.9618, 1823.630
426.4439, 1809.369
426.9261, 1795.874
427.4082, 1784.056
427.8903, 1775.681
428.3724, 1769.984
428.8545, 1763.658
429.3366, 1753.596
429.8188, 1740.070
430.3009, 1730.191
430.7830, 1726.814
431.2651, 1724.194
431.7472, 1722.706
432.2293, 1721.022
432.7115, 1717.619
433.1936, 1711.948
433.6757, 1704.772
434.1578, 1696.895
434.6399, 1687.529
435.1220, 1680.261
435.6042, 1676.923
436.0863, 1674.476
436.5684, 1671.259
437.0505, 1667.609
437.5326, 1665.205
438.0147, 1666.548
438.4969, 1669.632
438.9790, 1666.263
439.4611, 1653.065
439.9432, 1641.970
440.4253, 1640.141
440.9074, 1641.922
441.3896, 1642.041
441.8717, 1639.532
442.3538, 1634.693
442.8359, 1626.584
443.3180, 1615.857
443.8001, 1606.981
444.2823, 1601.414
444.7644, 1596.711
445.2465, 1590.317
445.7286, 1582.601
446.2107, 1575.425
446.6928, 1569.737
447.1750, 1564.504
447.6571, 1558.680
448.1392, 1552.315
448.6213, 1546.012
449.1034, 1540.149
449.5855, 1534.545
450.0677, 1528.640
450.5498, 1522.152
451.0319, 1516.004
451.5140, 1510.648
451.9961, 1505.668
452.4782, 1500.652
452.9604, 1495.490
453.4425, 1490.255
453.9246, 1485.146
454.4067, 1480.305
454.8888, 1473.971
455.3709, 1464.585
455.8531, 1455.718
456.3352, 1448.710
456.8173, 1443.109
457.2994, 1438.176
457.7815, 1433.601
458.2636, 1429.033
458.7458, 1423.596
459.2279, 1416.502
459.7100, 1410.191
460.1921, 1405.746
460.6742, 1401.145
461.1563, 1395.106
461.6385, 1387.742
462.1206, 1379.825
462.6027, 1371.195
463.0848, 1362.634
463.5669, 1359.104
464.0491, 1364.504
464.5312, 1366.957
465.0133, 1360.005
465.4954, 1349.567
465.9775, 1341.557
466.4597, 1337.391
466.9418, 1334.026
467.4239, 1327.429
467.9060, 1318.522
468.3881, 1314.043
468.8702, 1316.735
469.3524, 1320.523
469.8345, 1321.077
470.3166, 1318.790
470.7987, 1314.041
471.2808, 1304.348
471.7629, 1294.267
472.2451, 1288.573
472.7272, 1286.447
473.2093, 1283.411
473.6914, 1277.189
474.1735, 1269.851
474.6556, 1265.613
475.1378, 1265.239
475.6199, 1264.772
476.1020, 1264.262
476.5841, 1262.982
477.0662, 1259.794
477.5483, 1254.941
478.0305, 1250.003
478.5126, 1246.194
478.9947, 1243.382
479.4768, 1240.613
479.9589, 1237.626
480.4410, 1234.950
480.9232, 1233.137
481.4053, 1231.405
481.8874, 1228.832
482.3695, 1225.252
482.8516, 1221.390
483.3337, 1217.917
483.8159, 1214.722
484.2980, 1212.925
484.7801, 1213.816
485.2622, 1214.711
485.7443, 1215.234
486.2264, 1215.021
486.7086, 1213.323
487.1907, 1209.541
487.6728, 1205.198
488.1549, 1202.834
488.6370, 1202.633
489.1191, 1201.227
489.6013, 1196.520
490.0834, 1191.941
490.5655, 1191.152
491.0476, 1193.544
491.5297, 1194.905
492.0118, 1192.680
492.4940, 1189.003
492.9761, 1186.903
493.4582, 1186.318
493.9403, 1184.688
494.4224, 1180.198
494.9045, 1174.294
495.3867, 1170.703
495.8688, 1169.673
496.3509, 1169.691
496.8330, 1171.532
497.3151, 1173.603
497.7972, 1173.932
498.2794, 1172.460
498.7615, 1170.833
499.2436, 1170.584
499.7257, 1171.564
500.2078, 1171.103
500.6899, 1168.231
501.1721, 1165.062
501.6542, 1160.547
502.1363, 1156.584
502.6184, 1156.211
503.1005, 1159.765
503.5826, 1163.273
504.0648, 1160.607
504.5469, 1150.627
505.0290, 1146.262
505.5111, 1152.520
505.9932, 1158.330
506.4753, 1159.211
506.9575, 1156.881
507.4396, 1154.115
507.9217, 1151.902
508.4038, 1149.665
508.8859, 1146.234
509.3680, 1141.738
509.8502, 1138.798
510.3323, 1138.530
510.8144, 1139.083
511.2965, 1138.952
511.7786, 1138.155
512.2607, 1136.497
512.7429, 1133.222
513.2250, 1129.626
513.7071, 1126.784
514.1892, 1124.591
514.6713, 1122.541
515.1534, 1120.480
515.6356, 1118.207
516.1177, 1115.270
516.5998, 1111.127
517.0819, 1107.494
517.5640, 1104.322
518.0461, 1101.761
518.5283, 1100.713
519.0104, 1100.476
519.4925, 1098.922
519.9746, 1094.500
520.4567, 1088.119
520.9388, 1083.243
521.4210, 1081.013
521.9031, 1078.153
522.3852, 1073.413
522.8673, 1068.619
523.3494, 1065.836
523.8315, 1064.647
524.3137, 1062.140
524.7958, 1055.047
525.2779, 1045.022
525.7600, 1038.346
526.2421, 1035.937
526.7242, 1033.409
527.2064, 1027.877
527.6885, 1021.744
528.1706, 1018.580
528.6527, 1019.377
529.1348, 1019.014
529.6169, 1013.810
530.0991, 1006.140
530.5812, 999.9500
531.0633, 995.7111
531.5454, 991.7067
532.0275, 986.7321
532.5096, 980.9000
532.9918, 975.0895
533.4739, 968.3401
533.9560, 962.8537
534.4381, 960.1479
534.9202, 958.3610
535.4023, 955.4613
535.8845, 951.1053
536.3666, 946.2059
536.8487, 941.6824
537.3308, 937.5233
537.8129, 933.2887
538.2951, 928.5123
538.7772, 924.2925
539.2593, 921.8792
539.7415, 919.6085
540.2236, 915.3249
540.7057, 908.5519
541.1878, 901.5467
541.6699, 896.6620
542.1520, 893.6393
542.6342, 890.6678
543.1163, 887.7188
543.5984, 884.6202
544.0805, 881.6030
544.5626, 878.2990
545.0447, 873.7855
545.5269, 867.1271
546.0090, 860.8246
546.4911, 856.0948
546.9732, 852.7536
547.4553, 850.8787
547.9374, 850.4774
548.4196, 850.1377
548.9017, 848.4650
549.3838, 845.4224
549.8659, 842.5516
550.3480, 840.1223
550.8301, 837.5007
551.3123, 834.4199
551.7944, 831.1019
552.2765, 827.7195
552.7586, 824.3693
553.2407, 821.2534
553.7228, 818.8765
554.2050, 817.3474
554.6871, 814.3766
555.1692, 808.1405
555.6513, 803.0873
556.1334, 801.5581
556.6155, 801.7080
557.0977, 801.3315
557.5798, 799.8978
558.0619, 797.5128
558.5440, 793.3351
559.0261, 788.1669
559.5082, 785.4678
559.9904, 786.3212
560.4725, 786.8939
560.9546, 783.8314
561.4367, 777.8997
561.9188, 773.3865
562.4009, 770.6877
562.8831, 768.9821
563.3652, 769.2934
563.8473, 769.8698
564.3294, 767.5305
564.8115, 761.9357
565.2936, 756.5221
565.7758, 754.9133
566.2579, 757.1213
566.7400, 758.1318
567.2221, 757.0443
567.7042, 755.7699
568.1863, 754.3202
568.6685, 753.0056
569.1506, 752.4067
569.6327, 752.5299
570.1148, 752.3322
570.5969, 750.4857
571.0790, 747.3043
571.5612, 744.7249
572.0433, 742.7137
572.5254, 741.4816
573.0075, 741.6791
573.4896, 742.5050
573.9717, 742.9091
574.4539, 742.9625
574.9360, 742.0462
575.4181, 739.0699
575.9002, 735.3202
576.3823, 732.4705
576.8644, 730.7227
577.3466, 729.8386
577.8287, 729.7859
578.3108, 730.3510
578.7929, 730.4742
579.2750, 730.1192
579.7571, 729.3332
580.2393, 727.2839
580.7214, 725.4168
581.2035, 725.2943
581.6856, 726.6206
582.1677, 727.6085
582.6498, 726.8813
583.1320, 724.8282
583.6141, 722.5864
584.0962, 719.8087
584.5783, 718.0377
585.0604, 718.8389
585.5425, 719.9164
586.0247, 719.0118
586.5068, 716.2511
586.9889, 713.9826
587.4710, 713.5895
587.9531, 713.9850
588.4352, 713.9796
588.9174, 713.6068
589.3995, 713.2069
589.8816, 712.8947
590.3637, 712.7382
590.8458, 712.9230
