##NAMES=Pucherite
##RRUFFID=R060824
##IDEAL CHEMISTRY=Bi^3+^V^5+^O_4_
##LOCALITY=Pucher Shaft, Wolfgang Maa√üen mine field, Schneeberg District, Saxony, Germany
##OWNER=RRUFF
##SOURCE=Michael Scott
##DESCRIPTION=Brown tabular crystals associated with green namibite. Pale yellow crust is also pucherite.
##STATUS=The identification of this mineral has been confirmed only by single crystal X-ray diffraction.
##URL=rruff.info/R060824
121.041, 2602.078
121.523, 2686.902
122.005, 2761.635
122.487, 2836.785
122.969, 2926.046
123.451, 3013.809
123.933, 3082.028
124.415, 3127.765
124.898, 3167.890
125.380, 3219.460
125.862, 3278.590
126.344, 3333.770
126.826, 3372.194
127.308, 3402.923
127.790, 3443.573
128.272, 3498.343
128.755, 3558.416
129.237, 3610.882
129.719, 3656.282
130.201, 3700.928
130.683, 3744.003
131.165, 3788.039
131.647, 3848.261
132.129, 3931.503
132.611, 4029.683
133.094, 4119.100
133.576, 4197.979
134.058, 4280.046
134.540, 4375.116
135.022, 4483.929
135.504, 4607.924
135.986, 4753.555
136.468, 4917.395
136.951, 5073.415
137.433, 5217.578
137.915, 5362.486
138.397, 5529.043
138.879, 5722.457
139.361, 5922.912
139.843, 6127.877
140.325, 6339.593
140.807, 6548.276
141.290, 6754.993
141.772, 6959.521
142.254, 7167.336
142.736, 7379.479
143.218, 7589.931
143.700, 7800.099
144.182, 8016.153
144.664, 8214.121
145.146, 8393.158
145.629, 8553.158
146.111, 8687.142
146.593, 8803.146
147.075, 8884.836
147.557, 8921.116
148.039, 8919.081
148.521, 8862.833
149.003, 8745.679
149.486, 8567.420
149.968, 8353.046
150.450, 8085.301
150.932, 7787.482
151.414, 7482.442
151.896, 7124.840
152.378, 6800.176
152.860, 6528.992
153.342, 6315.943
153.824, 6119.183
154.307, 5931.092
154.789, 5757.913
155.271, 5609.509
155.753, 5490.763
156.235, 5395.809
156.717, 5325.385
157.199, 5283.710
157.682, 5252.589
158.164, 5223.602
158.646, 5202.283
159.128, 5199.311
159.610, 5226.057
160.092, 5265.868
160.574, 5309.658
161.056, 5352.976
161.538, 5404.172
162.020, 5465.707
162.503, 5537.106
162.985, 5617.599
163.467, 5706.461
163.949, 5803.462
164.431, 5908.405
164.913, 6024.400
165.395, 6144.886
165.877, 6265.564
166.360, 6387.274
166.842, 6514.944
167.324, 6643.632
167.806, 6782.121
168.288, 6941.816
168.770, 7134.371
169.252, 7344.332
169.734, 7561.081
170.217, 7782.968
170.699, 8017.923
171.181, 8273.374
171.663, 8544.091
172.145, 8826.075
172.627, 9114.385
173.109, 9413.885
173.591, 9731.415
174.073, 10066.830
174.555, 10425.970
175.038, 10821.580
175.520, 11245.610
176.002, 11666.550
176.484, 12079.670
176.966, 12479.520
177.448, 12860.510
177.930, 13219.080
178.413, 13574.010
178.895, 13963.630
179.377, 14380.990
179.859, 14774.740
180.341, 15121.270
180.823, 15430.650
181.305, 15720.620
181.787, 15999.540
182.269, 16253.180
182.751, 16473.080
183.234, 16656.090
183.716, 16793.039
184.198, 16884.119
184.680, 16923.520
185.162, 16895.150
185.644, 16801.301
186.126, 16631.939
186.608, 16353.940
187.091, 15969.450
187.573, 15518.480
188.055, 15024.040
188.537, 14489.840
189.019, 13935.180
189.501, 13355.970
189.983, 12762.830
190.465, 12199.150
190.947, 11667.770
191.430, 11159.560
191.912, 10673.840
192.394, 10216.130
192.876, 9770.040
193.358, 9330.304
193.840, 8903.683
194.322, 8510.277
194.804, 8154.110
195.286, 7824.657
195.769, 7511.631
196.251, 7210.919
196.733, 6931.958
197.215, 6676.719
197.697, 6444.411
198.179, 6227.131
198.661, 6026.615
199.143, 5837.959
199.626, 5657.875
200.108, 5485.456
200.590, 5323.223
201.072, 5169.292
201.554, 5023.376
202.036, 4895.417
202.518, 4789.570
203.000, 4694.741
203.482, 4591.500
203.965, 4476.716
204.447, 4365.989
204.929, 4266.083
205.411, 4176.480
205.893, 4098.029
206.375, 4033.391
206.857, 3977.176
207.339, 3917.728
207.822, 3853.008
208.304, 3791.311
208.786, 3738.727
209.268, 3697.571
209.750, 3652.495
210.232, 3599.882
210.714, 3545.333
211.196, 3503.714
211.678, 3480.554
212.161, 3457.523
212.643, 3422.996
213.125, 3370.905
213.607, 3329.351
214.089, 3302.992
214.571, 3287.148
215.053, 3265.102
215.535, 3233.739
216.018, 3202.254
216.500, 3176.643
216.982, 3159.834
217.464, 3140.825
217.946, 3117.433
218.428, 3091.062
218.910, 3067.081
219.392, 3044.598
219.874, 3025.801
220.357, 3013.001
220.839, 3010.036
221.321, 3003.945
221.803, 2994.061
222.285, 2980.271
222.767, 2959.328
223.249, 2926.285
223.731, 2893.377
224.214, 2870.269
224.696, 2860.258
225.178, 2852.408
225.660, 2845.269
226.142, 2838.997
226.624, 2835.279
227.106, 2836.096
227.588, 2837.045
228.070, 2834.705
228.553, 2828.834
229.035, 2819.415
229.517, 2803.594
229.999, 2781.604
230.481, 2770.566
230.963, 2776.837
231.445, 2787.084
231.927, 2790.463
232.410, 2788.320
232.892, 2776.082
233.374, 2747.794
233.856, 2703.251
234.338, 2675.137
234.820, 2671.366
235.302, 2676.047
235.784, 2674.245
236.266, 2663.670
236.749, 2650.800
237.231, 2635.991
237.713, 2619.002
238.195, 2605.592
238.677, 2598.810
239.159, 2592.802
239.641, 2581.190
240.123, 2559.621
240.605, 2539.749
241.088, 2523.041
241.570, 2509.122
242.052, 2503.409
242.534, 2511.819
243.016, 2523.133
243.498, 2524.557
243.980, 2510.036
244.462, 2496.265
244.945, 2487.232
245.427, 2483.562
245.909, 2477.594
246.391, 2467.820
246.873, 2456.909
247.355, 2447.751
247.837, 2440.321
248.319, 2434.757
248.801, 2432.587
249.284, 2434.792
249.766, 2430.114
250.248, 2414.810
250.730, 2396.258
251.212, 2382.969
251.694, 2376.437
252.176, 2372.555
252.658, 2370.071
253.141, 2368.795
253.623, 2372.903
254.105, 2387.006
254.587, 2402.257
255.069, 2407.293
255.551, 2396.405
256.033, 2387.061
256.515, 2383.825
256.997, 2387.331
257.480, 2390.510
257.962, 2393.656
258.444, 2396.083
258.926, 2395.539
259.408, 2387.458
259.890, 2386.951
260.372, 2400.798
260.854, 2430.999
261.336, 2450.881
261.819, 2456.721
262.301, 2457.042
262.783, 2462.064
263.265, 2473.169
263.747, 2485.757
264.229, 2501.231
264.711, 2520.074
265.193, 2525.291
265.676, 2510.801
266.158, 2491.027
266.640, 2482.677
267.122, 2488.372
267.604, 2497.809
268.086, 2509.713
268.568, 2524.256
269.050, 2534.842
269.532, 2541.140
270.015, 2544.029
270.497, 2543.749
270.979, 2539.604
271.461, 2535.181
271.943, 2530.334
272.425, 2525.334
272.907, 2527.218
273.389, 2538.639
273.871, 2551.493
274.354, 2556.197
274.836, 2551.312
275.318, 2546.264
275.800, 2543.293
276.282, 2542.203
276.764, 2542.159
277.246, 2544.272
277.728, 2544.381
278.211, 2535.598
278.693, 2516.408
279.175, 2502.917
279.657, 2499.701
280.139, 2505.521
280.621, 2514.773
281.103, 2528.591
281.585, 2541.563
282.068, 2546.035
282.550, 2541.546
283.032, 2544.436
283.514, 2563.163
283.996, 2591.432
284.478, 2601.181
284.960, 2589.901
285.442, 2574.808
285.924, 2571.503
286.406, 2579.328
286.889, 2590.909
287.371, 2606.028
287.853, 2623.002
288.335, 2636.788
288.817, 2647.218
289.299, 2656.745
289.781, 2666.160
290.263, 2675.840
290.746, 2689.216
291.228, 2709.281
291.710, 2731.238
292.192, 2742.224
292.674, 2742.250
293.156, 2743.774
293.638, 2757.658
294.120, 2781.409
294.603, 2805.951
295.085, 2829.816
295.567, 2853.688
296.049, 2880.146
296.531, 2908.608
297.013, 2934.728
297.495, 2954.784
297.977, 2970.061
298.459, 2983.940
298.942, 2995.827
299.424, 3008.595
299.906, 3026.916
300.388, 3049.784
300.870, 3073.149
301.352, 3089.689
301.834, 3105.521
302.316, 3132.101
302.798, 3174.678
303.281, 3219.187
303.763, 3250.460
304.245, 3271.150
304.727, 3291.420
305.209, 3317.771
305.691, 3346.390
306.173, 3372.795
306.655, 3396.631
307.138, 3418.413
307.620, 3434.653
308.102, 3449.144
308.584, 3470.081
309.066, 3506.283
309.548, 3548.280
310.030, 3587.869
310.512, 3623.788
310.994, 3659.600
311.477, 3696.800
311.959, 3735.059
312.441, 3774.418
312.923, 3806.722
313.405, 3845.742
313.887, 3904.284
314.369, 3986.003
314.851, 4064.420
315.333, 4117.885
315.816, 4163.004
316.298, 4220.266
316.780, 4311.142
317.262, 4404.626
317.744, 4481.131
318.226, 4539.738
318.708, 4609.369
319.190, 4709.531
319.672, 4821.460
320.155, 4927.479
320.637, 5008.248
321.119, 5097.602
321.601, 5208.602
322.083, 5340.646
322.565, 5470.321
323.047, 5587.869
323.530, 5704.026
324.012, 5826.237
324.494, 5954.276
324.976, 6089.678
325.458, 6238.390
325.940, 6396.716
326.422, 6547.640
326.904, 6679.298
327.386, 6810.527
327.868, 6951.108
328.351, 7125.720
328.833, 7279.502
329.315, 7405.751
329.797, 7509.865
330.279, 7614.893
330.761, 7732.093
331.243, 7838.939
331.725, 7923.116
332.208, 7968.649
332.690, 8026.357
333.172, 8107.847
333.654, 8197.794
334.136, 8260.846
334.618, 8279.102
335.100, 8303.014
335.582, 8353.953
336.065, 8439.997
336.547, 8516.402
337.029, 8577.603
337.511, 8635.869
337.993, 8711.406
338.475, 8812.006
338.957, 8905.086
339.439, 8974.930
339.921, 9021.806
340.404, 9093.004
340.886, 9193.866
341.368, 9308.304
341.850, 9420.885
342.332, 9531.404
342.814, 9637.785
343.296, 9735.315
343.778, 9828.584
344.260, 9938.534
344.743, 10069.950
345.225, 10195.280
345.707, 10284.940
346.189, 10343.260
346.671, 10402.570
347.153, 10473.000
347.635, 10546.050
348.117, 10603.320
348.599, 10645.450
349.082, 10681.830
349.564, 10722.350
350.046, 10762.150
350.528, 10787.620
351.010, 10793.090
351.492, 10790.030
351.974, 10788.150
352.457, 10788.640
352.939, 10796.680
353.421, 10817.860
353.903, 10847.590
354.385, 10877.030
354.867, 10902.720
355.349, 10941.060
355.831, 11012.130
356.313, 11105.830
356.796, 11203.130
357.278, 11284.380
357.760, 11372.060
358.242, 11491.540
358.724, 11646.470
359.206, 11796.940
359.688, 11909.980
360.170, 12009.280
360.652, 12122.950
361.135, 12267.070
361.617, 12421.390
362.099, 12588.540
362.581, 12765.800
363.063, 12921.370
363.545, 13035.720
364.027, 13129.110
364.509, 13216.520
364.991, 13298.210
365.474, 13377.570
365.956, 13458.800
366.438, 13539.840
366.920, 13607.240
367.402, 13673.320
367.884, 13715.990
368.366, 13723.960
368.848, 13672.980
369.331, 13624.280
369.813, 13594.550
370.295, 13565.130
370.777, 13496.010
371.259, 13361.540
371.741, 13220.060
372.223, 13093.850
372.705, 12994.920
373.188, 12855.240
373.670, 12658.630
374.152, 12437.430
374.634, 12232.760
375.116, 12057.340
375.598, 11866.530
376.080, 11643.940
376.562, 11393.920
377.044, 11152.020
377.526, 10922.560
378.009, 10695.020
378.491, 10456.470
378.973, 10208.710
379.455, 9957.118
379.937, 9699.337
380.419, 9443.721
380.901, 9226.495
381.384, 9047.410
381.866, 8874.129
382.348, 8675.608
382.830, 8462.428
383.312, 8274.143
383.794, 8119.739
384.276, 7983.570
384.758, 7843.401
385.240, 7701.391
385.723, 7565.273
386.205, 7438.043
386.687, 7319.728
387.169, 7206.855
387.651, 7099.022
388.133, 7004.376
388.615, 6936.063
389.097, 6883.906
389.579, 6830.445
390.062, 6762.715
390.544, 6695.066
391.026, 6636.096
391.508, 6586.299
391.990, 6548.630
392.472, 6524.608
392.954, 6513.390
393.436, 6514.889
393.918, 6541.122
394.401, 6564.786
394.883, 6568.176
395.365, 6560.472
395.847, 6570.027
396.329, 6600.679
396.811, 6653.110
397.293, 6730.634
397.775, 6844.489
398.258, 6957.084
398.740, 7052.571
399.222, 7147.577
399.704, 7267.825
400.186, 7422.652
400.668, 7591.502
401.150, 7767.878
401.632, 7951.043
402.114, 8159.359
402.597, 8408.945
403.079, 8668.254
403.561, 8903.377
404.043, 9093.322
404.525, 9318.855
405.007, 9599.786
405.489, 9927.524
405.971, 10249.580
406.453, 10570.200
406.936, 10882.430
407.418, 11174.170
407.900, 11446.180
408.382, 11742.250
408.864, 12074.730
409.346, 12418.520
409.828, 12731.550
410.310, 13016.640
410.793, 13274.290
411.275, 13515.010
411.757, 13731.040
412.239, 13906.130
412.721, 14043.020
413.203, 14114.260
413.685, 14081.150
414.167, 13961.820
414.650, 13793.190
415.132, 13597.030
415.614, 13348.940
416.096, 13014.860
416.578, 12602.630
417.060, 12156.710
417.542, 11697.400
418.024, 11228.480
418.506, 10761.270
418.988, 10290.500
419.471, 9828.389
419.953, 9365.063
420.435, 8914.124
420.917, 8490.221
421.399, 8109.847
421.881, 7752.743
422.363, 7409.679
422.845, 7079.807
423.328, 6772.118
423.810, 6500.688
424.292, 6247.985
424.774, 6000.723
425.256, 5738.136
425.738, 5505.228
426.220, 5314.400
426.702, 5161.516
427.185, 5009.482
427.667, 4854.134
428.149, 4706.506
428.631, 4573.323
429.113, 4454.348
429.595, 4345.665
430.077, 4247.672
430.559, 4158.506
431.041, 4073.837
431.524, 3994.249
432.006, 3918.335
432.488, 3846.586
432.970, 3778.455
433.452, 3708.382
433.934, 3635.565
434.416, 3565.946
434.898, 3506.086
435.380, 3454.922
435.863, 3407.974
436.345, 3365.186
436.827, 3324.564
437.309, 3283.927
437.791, 3243.185
438.273, 3202.786
438.755, 3159.514
439.237, 3118.160
439.720, 3085.612
440.202, 3064.362
440.684, 3045.753
441.166, 3025.921
441.648, 3004.367
442.130, 2979.963
442.612, 2950.390
443.094, 2919.352
443.576, 2886.670
444.059, 2852.353
444.541, 2824.667
445.023, 2811.256
445.505, 2802.309
445.987, 2790.527
446.469, 2775.293
446.951, 2757.061
447.433, 2733.463
447.915, 2706.773
448.398, 2683.364
448.880, 2665.003
449.362, 2647.982
449.844, 2630.674
450.326, 2612.783
450.808, 2597.125
451.290, 2584.874
451.772, 2573.193
452.254, 2557.862
452.737, 2537.852
453.219, 2519.251
453.701, 2503.002
454.183, 2489.311
454.665, 2481.397
455.147, 2479.717
455.629, 2476.410
456.112, 2462.974
456.594, 2442.771
457.076, 2427.593
457.558, 2419.410
458.040, 2415.627
458.522, 2415.524
459.004, 2417.780
459.486, 2418.616
459.968, 2416.980
460.451, 2412.664
460.933, 2404.065
461.415, 2391.446
461.897, 2379.660
462.379, 2371.316
462.861, 2365.219
463.343, 2360.294
463.825, 2358.468
464.307, 2354.826
464.790, 2345.236
465.272, 2332.401
465.754, 2323.183
466.236, 2320.537
466.718, 2320.344
467.200, 2321.390
467.682, 2323.819
468.164, 2326.688
468.647, 2329.805
469.129, 2333.485
469.611, 2338.876
470.093, 2349.788
470.575, 2353.364
471.057, 2345.337
471.539, 2328.628
472.021, 2316.180
472.503, 2308.695
472.986, 2302.792
473.468, 2297.506
473.950, 2292.670
474.432, 2284.622
474.914, 2272.514
475.396, 2259.804
475.878, 2252.673
476.360, 2249.594
476.842, 2243.123
477.325, 2228.329
477.807, 2210.281
478.289, 2196.861
478.771, 2187.511
479.253, 2177.521
479.735, 2161.260
480.217, 2143.749
480.699, 2129.735
481.181, 2119.243
481.664, 2114.961
482.146, 2124.729
482.628, 2140.574
483.110, 2149.298
483.592, 2141.774
484.074, 2130.979
484.556, 2119.447
485.039, 2107.246
485.521, 2099.878
486.003, 2106.453
486.485, 2111.881
486.967, 2106.079
487.449, 2076.778
487.931, 2059.735
488.413, 2062.388
488.895, 2075.240
489.378, 2076.274
489.860, 2061.885
490.342, 2047.878
490.824, 2040.225
491.306, 2038.461
491.788, 2036.813
492.270, 2035.472
492.752, 2033.265
493.234, 2027.089
493.717, 2018.496
494.199, 2014.829
494.681, 2019.045
495.163, 2025.866
495.645, 2030.808
496.127, 2032.895
496.609, 2028.876
497.091, 2007.392
497.573, 1984.920
498.056, 1978.389
498.538, 1989.521
499.020, 2002.913
499.502, 2014.552
499.984, 2022.434
500.466, 2024.478
500.948, 2014.644
501.430, 2005.217
501.913, 1997.429
502.395, 1991.940
502.877, 1990.773
503.359, 2002.036
503.841, 2009.596
504.323, 2007.291
504.805, 1992.827
505.287, 1981.258
505.770, 1972.768
506.252, 1966.835
506.734, 1964.286
507.216, 1966.419
507.698, 1964.216
508.180, 1954.877
508.662, 1941.677
509.144, 1932.811
509.626, 1928.276
510.108, 1924.615
510.591, 1921.571
511.073, 1917.831
511.555, 1907.886
512.037, 1890.968
512.519, 1876.857
513.001, 1877.025
513.483, 1884.880
513.966, 1890.189
514.448, 1889.284
514.930, 1885.792
515.412, 1878.286
515.894, 1869.526
516.376, 1867.233
516.858, 1884.792
517.340, 1900.455
517.822, 1902.669
518.305, 1887.671
518.787, 1873.828
519.269, 1858.262
519.751, 1847.571
520.233, 1848.334
520.715, 1871.096
521.197, 1884.913
521.679, 1884.297
522.161, 1873.999
522.644, 1867.432
523.126, 1865.646
523.608, 1863.708
524.090, 1858.045
524.572, 1849.574
525.054, 1848.025
525.536, 1854.118
526.018, 1860.910
526.500, 1860.421
526.983, 1855.122
527.465, 1852.281
527.947, 1854.064
528.429, 1857.724
528.911, 1860.768
529.393, 1863.402
529.875, 1866.231
530.357, 1873.482
530.839, 1877.962
531.322, 1874.058
531.804, 1861.393
532.286, 1847.337
532.768, 1828.889
533.250, 1813.356
533.732, 1806.301
534.214, 1819.028
534.696, 1825.574
535.179, 1820.973
535.661, 1811.259
536.143, 1809.102
536.625, 1821.579
537.107, 1825.820
537.589, 1810.678
538.071, 1779.398
538.553, 1766.615
539.036, 1775.340
539.518, 1789.291
540.000, 1798.452
540.482, 1802.518
540.964, 1798.883
541.446, 1785.292
541.928, 1771.000
542.410, 1768.620
542.892, 1774.546
543.375, 1779.895
543.857, 1779.509
544.339, 1777.878
544.821, 1780.197
545.303, 1785.186
545.785, 1786.200
546.267, 1775.976
546.749, 1763.841
547.231, 1755.428
547.714, 1752.058
548.196, 1750.647
548.678, 1754.630
549.160, 1758.486
549.642, 1755.571
550.124, 1736.109
550.606, 1727.427
551.088, 1737.486
551.570, 1760.140
552.053, 1772.595
552.535, 1773.311
553.017, 1770.637
553.499, 1767.841
553.981, 1764.981
554.463, 1762.735
554.945, 1761.174
555.427, 1759.634
555.909, 1757.430
556.392, 1754.791
556.874, 1752.297
557.356, 1750.230
557.838, 1748.106
558.320, 1744.607
558.802, 1740.722
559.284, 1738.684
559.766, 1740.075
560.249, 1743.002
560.731, 1745.885
561.213, 1748.740
561.695, 1754.969
562.177, 1768.788
562.659, 1783.564
563.141, 1796.018
563.623, 1808.312
564.106, 1812.562
564.588, 1804.498
565.070, 1792.057
565.552, 1787.437
566.034, 1792.682
566.516, 1795.195
566.998, 1789.992
567.480, 1781.095
567.963, 1782.289
568.445, 1793.283
568.927, 1803.555
569.409, 1804.340
569.891, 1800.507
570.373, 1801.770
570.855, 1809.086
571.337, 1816.732
571.819, 1820.434
572.302, 1821.926
572.784, 1823.291
573.266, 1826.403
573.748, 1827.615
574.230, 1820.700
574.712, 1811.137
575.194, 1811.010
575.676, 1840.018
576.158, 1859.709
576.641, 1855.805
577.123, 1828.603
577.605, 1816.052
578.087, 1822.952
578.569, 1835.782
579.051, 1847.858
579.533, 1859.498
580.015, 1861.685
580.497, 1851.026
580.980, 1839.682
581.462, 1850.292
581.944, 1876.204
582.426, 1887.212
582.908, 1862.211
583.390, 1831.272
583.872, 1834.535
584.354, 1863.743
584.836, 1890.254
585.319, 1897.115
585.801, 1897.775
586.283, 1901.305
586.765, 1908.812
587.247, 1914.492
587.729, 1917.868
588.211, 1918.225
588.693, 1914.486
589.176, 1896.879
589.658, 1892.046
590.140, 1906.946
590.622, 1930.229
591.104, 1941.968
591.586, 1939.845
592.068, 1937.742
592.550, 1940.590
593.032, 1945.716
593.515, 1942.168
593.997, 1930.185
594.479, 1921.274
594.961, 1925.860
595.443, 1937.508
595.925, 1945.308
596.407, 1948.360
596.890, 1950.848
597.372, 1955.221
597.854, 1960.885
598.336, 1967.366
598.818, 1975.970
599.300, 1983.090
599.782, 1987.903
600.264, 1990.436
600.746, 1990.501
601.229, 1984.623
601.711, 1980.755
602.193, 1980.152
602.675, 1982.829
603.157, 1990.497
603.639, 2005.991
604.121, 2018.165
604.603, 2017.346
605.085, 2004.984
605.568, 2002.486
606.050, 2011.764
606.532, 2021.466
607.014, 2016.006
607.496, 2002.475
607.978, 1996.318
608.460, 2003.327
608.942, 2015.101
609.424, 2026.765
609.907, 2038.259
610.389, 2049.015
610.871, 2058.495
611.353, 2067.830
611.835, 2078.338
612.317, 2089.839
612.799, 2098.108
613.281, 2102.615
613.763, 2104.574
614.246, 2104.375
614.728, 2101.885
615.210, 2096.598
615.692, 2085.720
616.174, 2079.077
616.656, 2092.016
617.138, 2121.911
617.620, 2141.581
618.103, 2144.372
618.585, 2140.663
619.067, 2143.199
619.549, 2150.364
620.031, 2157.974
620.513, 2161.323
620.995, 2166.836
621.477, 2182.106
621.959, 2204.633
622.442, 2222.449
622.924, 2224.354
623.406, 2226.641
623.888, 2238.491
624.370, 2263.837
624.852, 2282.212
625.334, 2288.871
625.816, 2294.033
626.299, 2307.893
626.781, 2333.649
627.263, 2347.510
627.745, 2344.072
628.227, 2335.571
628.709, 2341.599
629.191, 2360.197
629.673, 2379.920
630.156, 2395.700
630.638, 2411.348
631.120, 2434.090
631.602, 2461.169
632.084, 2483.102
632.566, 2486.988
633.048, 2490.766
633.530, 2507.876
634.012, 2539.642
634.495, 2566.485
634.977, 2581.406
635.459, 2592.775
635.941, 2604.479
636.423, 2614.318
636.905, 2631.252
637.387, 2658.988
637.869, 2688.537
638.351, 2708.468
638.834, 2718.631
639.316, 2730.905
639.798, 2749.152
640.280, 2768.431
640.762, 2777.582
