##NAMES=Pucherite
##RRUFFID=R060824
##IDEAL CHEMISTRY=Bi^3+^V^5+^O_4_
##LOCALITY=Pucher Shaft, Wolfgang Maa√üen mine field, Schneeberg District, Saxony, Germany
##OWNER=RRUFF
##SOURCE=Michael Scott
##DESCRIPTION=Brown tabular crystals associated with green namibite. Pale yellow crust is also pucherite.
##STATUS=The identification of this mineral has been confirmed only by single crystal X-ray diffraction.
##URL=rruff.info/R060824
137.438, 7853.084
137.920, 8071.328
138.402, 8364.125
138.884, 8734.424
139.366, 9185.068
139.848, 9711.802
140.330, 10310.170
140.812, 10966.460
141.294, 11729.420
141.777, 12593.490
142.259, 13542.280
142.741, 14570.750
143.223, 15673.490
143.705, 16841.619
144.187, 18067.670
144.669, 19387.020
145.151, 20711.369
145.633, 22068.439
146.116, 23407.020
146.598, 24707.010
147.080, 25956.340
147.562, 27118.660
148.044, 28076.020
148.526, 28836.150
149.008, 29339.510
149.490, 29574.461
149.973, 29558.820
150.455, 29284.949
150.937, 28743.830
151.419, 27984.949
151.901, 27216.699
152.383, 26396.359
152.865, 25614.070
153.347, 24868.020
153.829, 24167.721
154.312, 23518.320
154.794, 22913.051
155.276, 22364.539
155.758, 21937.801
156.240, 21665.340
156.722, 21466.430
157.204, 21323.939
157.686, 21243.061
158.169, 21231.500
158.651, 21292.529
159.133, 21427.859
159.615, 21656.980
160.097, 22007.730
160.579, 22403.029
161.061, 22817.439
161.543, 23260.199
162.025, 23748.600
162.508, 24292.070
162.990, 24894.650
163.472, 25560.740
163.954, 26305.211
164.436, 27081.930
164.918, 27866.289
165.400, 28665.980
165.883, 29523.221
166.365, 30458.631
166.847, 31464.930
167.329, 32504.961
167.811, 33569.359
168.293, 34665.148
168.775, 35797.719
169.257, 36962.512
169.739, 38142.680
170.221, 39325.141
170.704, 40516.180
171.186, 41753.809
171.668, 42989.070
172.150, 44305.629
172.632, 45761.648
173.114, 47342.211
173.596, 48980.000
174.078, 50631.859
174.561, 52321.320
175.043, 54114.539
175.525, 55989.160
176.007, 57969.840
176.489, 60083.840
176.971, 62327.070
177.453, 64646.051
177.935, 67038.430
178.417, 69495.891
178.900, 71977.617
179.382, 74569.438
179.864, 77121.953
180.346, 79566.477
180.828, 81901.797
181.310, 84127.297
181.792, 86287.852
182.274, 88302.344
182.757, 90059.023
183.239, 91624.820
183.721, 92852.156
184.203, 93648.688
184.685, 94018.547
185.167, 93984.383
185.649, 93575.578
186.131, 92683.344
186.613, 91279.133
187.096, 89254.047
187.578, 86869.297
188.060, 84269.688
188.542, 81453.641
189.024, 78492.883
189.506, 75333.703
189.988, 72085.789
190.470, 68898.477
190.952, 65759.562
191.435, 62746.809
191.917, 59916.340
192.399, 57260.270
192.881, 54757.730
193.363, 52426.359
193.845, 50259.738
194.327, 48202.891
194.809, 46258.941
195.292, 44421.129
195.774, 42710.820
196.256, 41121.281
196.738, 39595.789
197.220, 38107.398
197.702, 36689.520
198.184, 35367.469
198.666, 34147.020
199.148, 33002.770
199.631, 31929.311
200.113, 30922.850
200.595, 29973.520
201.077, 29075.311
201.559, 28243.400
202.041, 27484.949
202.523, 26806.840
203.005, 26174.480
203.488, 25578.039
203.970, 25015.211
204.452, 24454.119
204.934, 23866.971
205.416, 23306.789
205.898, 22835.869
206.380, 22458.840
206.862, 22101.221
207.344, 21705.820
207.827, 21288.410
208.309, 20918.119
208.791, 20619.551
209.273, 20365.150
209.755, 20126.900
210.237, 19905.740
210.719, 19686.730
211.201, 19459.721
211.684, 19229.391
212.166, 19002.330
212.648, 18772.420
213.130, 18561.260
213.612, 18385.270
214.094, 18242.760
214.576, 18126.061
215.058, 18047.480
215.540, 17992.369
216.023, 17923.301
216.505, 17833.859
216.987, 17732.189
217.469, 17616.680
217.951, 17491.770
218.433, 17380.000
218.915, 17292.561
219.397, 17223.891
219.880, 17164.539
220.362, 17114.760
220.844, 17070.850
221.326, 17029.461
221.808, 16991.061
222.290, 16958.939
222.772, 16942.119
223.254, 16929.381
223.736, 16899.240
224.219, 16846.230
224.701, 16797.039
225.183, 16781.029
225.665, 16784.840
226.147, 16776.020
226.629, 16727.090
227.111, 16672.100
227.593, 16655.320
228.076, 16679.949
228.558, 16710.859
229.040, 16729.029
229.522, 16736.240
230.004, 16737.600
230.486, 16732.881
230.968, 16723.029
231.450, 16711.449
231.932, 16697.881
232.415, 16671.350
232.897, 16617.131
233.379, 16548.551
233.861, 16498.600
234.343, 16479.061
234.825, 16464.750
235.307, 16438.359
235.789, 16401.609
236.271, 16365.000
236.754, 16335.850
237.236, 16307.580
237.718, 16265.730
238.200, 16201.650
238.682, 16142.580
239.164, 16109.200
239.646, 16093.300
240.128, 16066.300
240.611, 16012.960
241.093, 15952.380
241.575, 15923.970
242.057, 15939.050
242.539, 15940.300
243.021, 15892.200
243.503, 15818.630
243.985, 15766.100
244.467, 15749.430
244.950, 15749.240
245.432, 15736.920
245.914, 15710.300
246.396, 15690.410
246.878, 15687.010
247.360, 15690.620
247.842, 15686.630
248.324, 15671.700
248.807, 15659.430
249.289, 15668.620
249.771, 15703.410
250.253, 15723.240
250.735, 15717.810
251.217, 15700.630
251.699, 15676.030
252.181, 15646.340
252.663, 15628.290
253.146, 15639.850
253.628, 15683.190
254.110, 15713.220
254.592, 15719.280
255.074, 15721.820
255.556, 15727.670
256.038, 15739.290
256.520, 15764.250
257.003, 15810.550
257.485, 15875.230
257.967, 15924.280
258.449, 15960.060
258.931, 15981.480
259.413, 15976.170
259.895, 15956.720
260.377, 15946.780
260.859, 15958.370
261.342, 15989.260
261.824, 16031.300
262.306, 16099.070
262.788, 16160.250
263.270, 16209.760
263.752, 16251.110
264.234, 16287.510
264.716, 16320.220
265.198, 16350.810
265.681, 16382.320
266.163, 16422.590
266.645, 16451.490
267.127, 16456.289
267.609, 16457.939
268.091, 16480.100
268.573, 16524.859
269.056, 16569.039
269.538, 16579.750
270.020, 16542.090
270.502, 16513.920
270.984, 16486.881
271.466, 16473.789
271.948, 16497.699
272.430, 16547.881
272.912, 16583.920
273.395, 16563.680
273.877, 16480.760
274.359, 16420.359
274.841, 16402.699
275.323, 16388.061
275.805, 16366.020
276.287, 16338.010
276.769, 16307.780
277.251, 16276.030
277.734, 16245.380
278.216, 16232.320
278.698, 16255.480
279.180, 16270.210
279.662, 16254.310
280.144, 16229.100
280.626, 16224.510
281.108, 16255.770
281.591, 16299.890
282.073, 16304.110
282.555, 16244.180
283.037, 16207.280
283.519, 16225.520
284.001, 16263.880
284.483, 16302.350
284.965, 16335.920
285.447, 16358.210
285.930, 16353.940
286.412, 16319.350
286.894, 16304.720
287.376, 16331.490
287.858, 16369.320
288.340, 16401.830
288.822, 16428.000
289.304, 16449.779
289.786, 16465.760
290.269, 16477.910
290.751, 16493.910
291.233, 16512.260
291.715, 16539.199
292.197, 16578.750
292.679, 16629.529
293.161, 16688.881
293.643, 16767.391
294.125, 16849.570
294.608, 16903.900
295.090, 16924.520
295.572, 16954.391
296.054, 17024.199
296.536, 17120.000
297.018, 17213.891
297.500, 17302.100
297.983, 17387.330
298.465, 17473.000
298.947, 17557.381
299.429, 17629.381
299.911, 17675.289
300.393, 17714.859
300.875, 17789.910
301.357, 17907.199
301.839, 18033.730
302.322, 18166.891
302.804, 18299.350
303.286, 18420.650
303.768, 18529.270
304.250, 18620.359
304.732, 18680.320
305.214, 18695.211
305.696, 18741.449
306.178, 18840.520
306.661, 18962.029
307.143, 19085.189
307.625, 19206.850
308.107, 19327.320
308.589, 19446.801
309.071, 19565.000
309.553, 19690.141
310.035, 19811.779
310.517, 19948.619
311.000, 20111.830
311.482, 20295.279
311.964, 20488.449
312.446, 20684.891
312.928, 20885.189
313.410, 21090.820
313.892, 21286.000
314.374, 21510.260
314.857, 21763.840
315.339, 22048.260
315.821, 22368.990
316.303, 22726.689
316.785, 23110.070
317.267, 23498.381
317.749, 23878.490
318.231, 24301.381
318.714, 24768.039
319.196, 25275.500
319.678, 25829.449
320.160, 26427.391
320.642, 27053.330
321.124, 27695.600
321.606, 28351.230
322.088, 29045.160
322.570, 29761.949
323.052, 30536.430
323.535, 31391.869
324.017, 32305.311
324.499, 33248.980
324.981, 34214.988
325.463, 35188.578
325.945, 36150.578
326.427, 37097.980
326.909, 38033.160
327.392, 38971.770
327.874, 39893.570
328.356, 40793.301
328.838, 41680.672
329.320, 42484.621
329.802, 43151.621
330.284, 43688.660
330.766, 44117.570
331.249, 44443.289
331.731, 44656.980
332.213, 44738.910
332.695, 44700.520
333.177, 44574.570
333.659, 44364.121
334.141, 44075.988
334.623, 43690.469
335.105, 43208.320
335.588, 42716.891
336.070, 42277.770
336.552, 41895.410
337.034, 41546.410
337.516, 41231.730
337.998, 40948.281
338.480, 40691.852
338.962, 40466.570
339.444, 40280.449
339.927, 40136.461
340.409, 40037.121
340.891, 39990.109
341.373, 40023.859
341.855, 40076.590
342.337, 40149.770
342.819, 40238.461
343.301, 40345.539
343.784, 40467.730
344.266, 40589.238
344.748, 40688.379
345.230, 40758.961
345.712, 40832.691
346.194, 40919.980
346.676, 41000.289
347.158, 41082.891
347.641, 41151.988
348.123, 41172.551
348.605, 41115.711
349.087, 40997.148
349.569, 40884.809
350.051, 40785.570
350.533, 40679.949
351.015, 40545.828
351.497, 40410.859
351.979, 40306.121
352.462, 40242.320
352.944, 40195.129
353.426, 40125.340
353.908, 40032.270
354.390, 39986.781
354.872, 40010.789
355.354, 40082.738
355.836, 40168.762
356.319, 40272.059
356.801, 40426.930
357.283, 40672.309
357.765, 40972.660
358.247, 41258.211
358.729, 41520.578
359.211, 41807.301
359.693, 42158.129
360.176, 42563.820
360.658, 42966.102
361.140, 43331.949
361.622, 43727.141
362.104, 44219.211
362.586, 44769.320
363.068, 45279.191
363.550, 45708.922
364.032, 46078.430
364.515, 46430.621
364.997, 46747.449
365.479, 47080.359
365.961, 47490.398
366.443, 47878.000
366.925, 48156.340
367.407, 48319.191
367.889, 48430.160
368.371, 48552.551
368.854, 48690.570
369.336, 48756.730
369.818, 48757.750
370.300, 48676.422
370.782, 48493.551
371.264, 48226.609
371.746, 47900.871
372.228, 47528.320
372.711, 47107.219
373.193, 46641.852
373.675, 46141.672
374.157, 45567.539
374.639, 44867.480
375.121, 44119.641
375.603, 43378.160
376.085, 42646.711
376.568, 41885.840
377.050, 41046.559
377.532, 40151.551
378.014, 39269.961
378.496, 38403.059
378.978, 37562.461
379.460, 36764.961
379.942, 35999.219
380.424, 35226.020
380.906, 34416.211
381.389, 33622.078
381.871, 32898.129
382.353, 32236.971
382.835, 31592.221
383.317, 30939.760
383.799, 30300.279
384.281, 29719.141
384.763, 29201.170
385.246, 28714.301
385.728, 28239.689
386.210, 27799.580
386.692, 27426.330
387.174, 27118.859
387.656, 26834.529
388.138, 26526.189
388.620, 26188.590
389.103, 25928.391
389.585, 25756.641
390.067, 25642.359
390.549, 25602.180
391.031, 25607.990
391.513, 25624.340
391.995, 25635.590
392.477, 25642.211
392.959, 25640.000
393.442, 25614.990
393.924, 25622.010
394.406, 25659.029
394.888, 25737.750
395.370, 25861.350
395.852, 26033.279
396.334, 26263.430
396.816, 26574.230
397.298, 26950.770
397.781, 27330.721
398.263, 27698.270
398.745, 28109.230
399.227, 28601.570
399.709, 29157.910
400.191, 29749.180
400.673, 30355.930
401.155, 31021.689
401.638, 31757.641
402.120, 32576.199
402.602, 33513.301
403.084, 34590.930
403.566, 35762.840
404.048, 36984.891
404.530, 38250.020
405.012, 39587.781
405.495, 41013.469
405.977, 42505.770
406.459, 44073.230
406.941, 45700.230
407.423, 47369.238
407.905, 49063.922
408.387, 50781.961
408.869, 52507.160
409.351, 54284.328
409.833, 56020.121
410.316, 57786.801
410.798, 59461.629
411.280, 60961.449
411.762, 62265.559
412.244, 63360.961
412.726, 64268.789
413.208, 64990.352
413.690, 65363.488
414.173, 65381.891
414.655, 65011.211
415.137, 64226.430
415.619, 63093.840
416.101, 61751.059
416.583, 60222.090
417.065, 58525.539
417.547, 56658.539
418.030, 54633.531
418.512, 52539.391
418.994, 50389.121
419.476, 48226.488
419.958, 46085.512
420.440, 43950.738
420.922, 41928.340
421.404, 40071.891
421.886, 38325.301
422.369, 36616.461
422.851, 34945.898
423.333, 33366.711
423.815, 31908.070
424.297, 30567.381
424.779, 29352.689
425.261, 28310.660
425.743, 27322.811
426.225, 26369.551
426.708, 25467.051
427.190, 24636.900
427.672, 23883.180
428.154, 23195.160
428.636, 22559.289
429.118, 21976.980
429.600, 21444.760
430.082, 20987.801
430.565, 20554.430
431.047, 20114.189
431.529, 19678.811
432.011, 19274.811
432.493, 18914.461
432.975, 18585.131
433.457, 18268.881
433.939, 17966.070
434.422, 17688.779
434.904, 17447.939
435.386, 17226.619
435.868, 16996.381
436.350, 16753.020
436.832, 16530.820
437.314, 16360.870
437.796, 16200.460
438.278, 15997.990
438.760, 15758.120
439.243, 15527.700
439.725, 15340.140
440.207, 15190.670
440.689, 15047.400
441.171, 14928.230
441.653, 14793.710
442.135, 14624.630
442.617, 14447.640
443.100, 14286.270
443.582, 14145.750
444.064, 14015.560
444.546, 13883.270
445.028, 13748.540
445.510, 13627.590
445.992, 13526.410
446.474, 13429.570
446.957, 13340.100
447.439, 13247.680
447.921, 13132.620
448.403, 12979.440
448.885, 12824.880
449.367, 12712.680
449.849, 12634.040
450.331, 12544.090
450.813, 12428.680
451.296, 12306.160
451.778, 12202.480
452.260, 12118.730
452.742, 12017.790
453.224, 11873.980
453.706, 11731.750
454.188, 11622.600
454.670, 11540.020
455.152, 11462.470
455.635, 11378.970
456.117, 11294.410
456.599, 11221.660
457.081, 11177.540
457.563, 11114.360
458.045, 11018.460
458.527, 10916.290
459.009, 10812.700
459.492, 10715.160
459.974, 10641.660
460.456, 10611.960
460.938, 10611.520
461.420, 10595.110
461.902, 10560.440
462.384, 10517.440
462.866, 10462.240
463.349, 10405.320
463.831, 10362.370
464.313, 10338.170
464.795, 10304.330
465.277, 10230.550
465.759, 10144.640
466.241, 10098.270
466.723, 10095.940
467.205, 10086.830
467.688, 10026.140
468.170, 9922.722
468.652, 9865.045
469.134, 9899.737
469.616, 9915.492
470.098, 9875.788
470.580, 9813.303
471.062, 9763.247
471.544, 9733.764
472.027, 9713.290
472.509, 9689.138
472.991, 9661.160
473.473, 9634.349
473.955, 9615.091
474.437, 9587.387
474.919, 9536.207
475.401, 9476.862
475.884, 9432.826
476.366, 9413.926
476.848, 9400.655
477.330, 9378.477
477.812, 9347.458
478.294, 9306.638
478.776, 9254.494
479.258, 9197.182
479.741, 9136.934
480.223, 9074.226
480.705, 9023.125
481.187, 8987.336
481.669, 8959.823
482.151, 8943.715
482.633, 8931.984
483.115, 8914.160
483.597, 8886.104
484.079, 8847.648
484.562, 8794.256
485.044, 8714.761
485.526, 8659.410
486.008, 8656.955
486.490, 8651.142
486.972, 8614.223
487.454, 8559.580
487.936, 8515.729
488.419, 8497.710
488.901, 8490.149
489.383, 8471.719
489.865, 8443.158
490.347, 8418.445
490.829, 8403.777
491.311, 8389.363
491.793, 8361.569
492.276, 8321.467
492.758, 8285.515
493.240, 8256.012
493.722, 8231.912
494.204, 8218.558
494.686, 8210.049
495.168, 8190.712
495.650, 8153.144
496.132, 8107.491
496.615, 8073.175
497.097, 8056.925
497.579, 8036.156
498.061, 8008.332
498.543, 7978.696
499.025, 7946.523
499.507, 7914.613
499.989, 7889.303
500.471, 7875.764
500.954, 7866.045
501.436, 7842.232
501.918, 7804.169
502.400, 7784.880
502.882, 7802.228
503.364, 7828.286
503.846, 7827.087
504.328, 7800.848
504.810, 7783.034
505.293, 7791.875
505.775, 7800.857
506.257, 7788.840
506.739, 7761.126
507.221, 7733.454
507.703, 7712.711
508.185, 7695.949
508.668, 7676.500
509.150, 7648.230
509.632, 7632.902
510.114, 7641.411
510.596, 7651.600
511.078, 7653.575
511.560, 7649.435
512.042, 7645.726
512.524, 7646.277
513.006, 7647.110
513.489, 7642.949
513.971, 7633.771
514.453, 7618.713
514.935, 7593.801
515.417, 7569.365
515.899, 7558.819
516.381, 7561.019
516.864, 7559.434
517.346, 7549.652
517.828, 7537.657
518.310, 7520.999
518.792, 7505.548
519.274, 7508.039
519.756, 7534.943
520.238, 7564.156
520.720, 7556.455
521.203, 7495.234
521.685, 7459.429
522.167, 7469.551
522.649, 7485.559
523.131, 7497.982
523.613, 7505.867
524.095, 7509.149
524.577, 7508.028
525.059, 7501.536
525.542, 7482.257
526.024, 7454.814
526.506, 7445.798
526.988, 7465.571
527.470, 7484.818
527.952, 7470.834
528.434, 7425.481
528.916, 7408.695
529.398, 7450.213
529.881, 7486.162
530.363, 7486.459
530.845, 7469.967
531.327, 7463.708
531.809, 7474.382
532.291, 7488.822
532.773, 7492.546
533.255, 7485.488
533.737, 7471.736
534.220, 7444.801
534.702, 7421.472
535.184, 7402.261
535.666, 7392.171
536.148, 7402.885
536.630, 7440.983
537.112, 7471.741
537.594, 7466.059
538.077, 7438.589
538.559, 7413.368
539.041, 7393.548
539.523, 7382.733
540.005, 7385.829
540.487, 7399.001
540.969, 7403.498
541.451, 7385.985
541.933, 7377.718
542.416, 7388.946
542.898, 7404.487
543.380, 7415.199
543.862, 7418.640
544.344, 7413.140
544.826, 7395.744
545.308, 7370.081
545.791, 7346.205
546.273, 7324.276
546.755, 7303.681
547.237, 7283.399
547.719, 7265.512
548.201, 7251.159
548.683, 7240.162
549.165, 7235.971
549.647, 7246.147
550.130, 7257.976
550.612, 7261.941
551.094, 7258.676
551.576, 7252.077
552.058, 7243.880
552.540, 7231.788
553.022, 7210.397
553.504, 7175.189
553.987, 7144.766
554.469, 7113.173
554.951, 7092.766
555.433, 7085.760
555.915, 7094.017
556.397, 7127.450
556.879, 7200.647
557.361, 7262.378
557.843, 7252.732
558.326, 7188.311
558.808, 7122.709
559.290, 7063.928
559.772, 7016.349
560.254, 6984.113
560.736, 6966.936
561.218, 6961.458
561.700, 6980.632
562.182, 6993.061
562.665, 6992.425
563.147, 6982.000
563.629, 6964.315
564.111, 6940.267
564.593, 6909.729
565.075, 6868.886
565.557, 6822.643
566.039, 6793.364
566.521, 6785.390
567.004, 6775.980
567.486, 6755.827
567.968, 6731.832
568.450, 6711.154
568.932, 6693.595
569.414, 6682.625
569.896, 6688.041
570.378, 6693.227
570.860, 6684.521
571.343, 6663.953
571.825, 6636.044
572.307, 6602.420
572.789, 6572.431
573.271, 6566.260
573.753, 6594.605
574.235, 6606.545
574.718, 6596.893
575.200, 6575.774
575.682, 6531.601
576.164, 6483.244
576.646, 6466.912
577.128, 6502.277
577.610, 6535.885
578.092, 6515.186
578.574, 6462.928
579.057, 6432.724
579.539, 6432.104
580.021, 6432.925
580.503, 6413.468
580.985, 6378.244
581.467, 6352.314
581.949, 6342.778
582.431, 6333.603
582.914, 6324.742
583.396, 6315.542
583.878, 6307.551
584.360, 6299.189
584.842, 6284.509
585.324, 6256.715
585.806, 6224.482
586.288, 6205.979
586.770, 6200.792
587.253, 6192.884
587.735, 6177.938
588.217, 6158.689
588.699, 6136.079
589.181, 6109.757
589.663, 6090.888
590.145, 6087.708
590.627, 6082.969
591.109, 6065.932
591.592, 6044.813
592.074, 6032.952
592.556, 6032.557
593.038, 6031.855
593.520, 6016.526
594.002, 5988.910
594.484, 5967.999
594.966, 5953.669
595.448, 5947.218
595.931, 5957.190
596.413, 5970.190
596.895, 5966.717
597.377, 5944.340
597.859, 5922.740
598.341, 5910.751
598.823, 5899.222
599.305, 5877.852
599.787, 5850.594
600.270, 5827.549
600.752, 5813.077
601.234, 5807.991
601.716, 5818.625
602.198, 5852.170
602.680, 5861.679
603.162, 5831.392
603.644, 5798.417
604.127, 5775.259
604.609, 5761.820
605.091, 5759.762
605.573, 5772.431
606.055, 5785.152
606.537, 5791.493
607.019, 5792.041
607.501, 5783.847
607.984, 5768.960
608.466, 5759.829
608.948, 5765.202
609.430, 5779.134
609.912, 5785.037
610.394, 5782.046
610.876, 5772.642
611.358, 5736.780
611.841, 5713.693
612.323, 5734.130
612.805, 5781.058
613.287, 5813.856
613.769, 5814.422
614.251, 5805.246
614.733, 5799.534
615.215, 5799.848
615.697, 5816.099
616.180, 5849.569
616.662, 5881.088
617.144, 5893.782
617.626, 5892.695
618.108, 5909.026
618.590, 5970.404
619.072, 6006.037
619.554, 5987.344
620.036, 5962.655
620.519, 5965.685
621.001, 5992.833
621.483, 6019.605
621.965, 6028.911
622.447, 6039.842
622.929, 6083.743
623.411, 6150.586
623.893, 6197.046
624.375, 6211.476
624.858, 6220.879
625.340, 6250.613
625.822, 6299.852
626.304, 6346.550
626.786, 6392.755
627.268, 6433.700
627.750, 6460.262
628.232, 6487.896
628.714, 6529.793
629.197, 6586.004
629.679, 6647.476
630.161, 6712.862
630.643, 6776.916
631.125, 6828.428
631.607, 6869.794
632.089, 6914.188
632.571, 6964.625
633.054, 7022.166
633.536, 7087.874
634.018, 7161.554
634.500, 7246.277
634.982, 7358.261
635.464, 7460.063
635.946, 7528.047
636.428, 7593.964
636.911, 7692.876
637.393, 7824.587
637.875, 7957.867
638.357, 8076.505
638.839, 8180.417
639.321, 8262.685
639.803, 8326.911
640.285, 8407.744
640.768, 8519.335
641.250, 8637.465
641.732, 8734.341
642.214, 8809.378
642.696, 8874.088
