##NAMES=Pucherite
##RRUFFID=R080137
##IDEAL CHEMISTRY=Bi^3+^V^5+^O_4_
##LOCALITY=Fazenda da Posse, Sao Jose do Brejauba, Minas Gerais, Brazil
##OWNER=RRUFF
##SOURCE=Luiz Menezes
##DESCRIPTION=Reddish brown tabular crystals associated with greenish yellow bismutite
##STATUS=The identification of this mineral has been confirmed by single-crystal X-ray diffraction.
##URL=rruff.info/R080137
91.00781, 48.28227
91.48993, 47.77755
91.97205, 47.57723
92.45416, 47.78097
92.93628, 48.28282
93.41840, 48.71813
93.90051, 48.77602
94.38263, 49.17178
94.86475, 51.26382
95.34686, 55.04102
95.82898, 59.44736
96.31110, 63.57197
96.79321, 67.49324
97.27533, 71.94475
97.75745, 77.14272
98.23956, 82.93037
98.72168, 88.19368
99.20380, 92.53076
99.68591, 97.43199
100.1680, 104.6616
100.6501, 114.4544
101.1323, 125.1098
101.6144, 135.9389
102.0965, 146.8325
102.5786, 159.1207
103.0607, 172.7943
103.5428, 187.9545
104.0250, 205.0667
104.5071, 223.8625
104.9892, 244.8258
105.4713, 268.1085
105.9534, 294.3189
106.4355, 321.4659
106.9177, 350.4670
107.3998, 380.4326
107.8819, 409.6592
108.3640, 439.5872
108.8461, 467.2892
109.3282, 491.7264
109.8104, 511.7437
110.2925, 529.3183
110.7746, 543.1188
111.2567, 553.6275
111.7388, 565.1698
112.2209, 578.8245
112.7031, 593.1714
113.1852, 607.3905
113.6673, 619.3076
114.1494, 632.8724
114.6315, 648.7271
115.1136, 667.0142
115.5958, 688.4985
116.0779, 716.1945
116.5600, 746.4041
117.0421, 774.8586
117.5242, 798.4744
118.0063, 821.4852
118.4885, 846.1815
118.9706, 872.7681
119.4527, 901.0219
119.9348, 932.4088
120.4169, 965.2157
120.8990, 996.8130
121.3812, 1024.518
121.8633, 1050.844
122.3454, 1077.774
122.8275, 1105.841
123.3096, 1134.461
123.7917, 1163.799
124.2739, 1193.489
124.7560, 1222.196
125.2381, 1248.060
125.7202, 1272.632
126.2023, 1297.938
126.6844, 1324.072
127.1666, 1351.893
127.6487, 1383.426
128.1308, 1418.629
128.6129, 1454.244
129.0950, 1486.698
129.5771, 1517.357
130.0593, 1551.438
130.5414, 1591.212
131.0235, 1634.780
131.5056, 1675.308
131.9877, 1705.993
132.4698, 1728.669
132.9520, 1753.821
133.4341, 1781.392
133.9162, 1810.458
134.3983, 1840.673
134.8804, 1871.913
135.3625, 1904.376
135.8447, 1938.479
136.3268, 1973.168
136.8089, 2007.146
137.2910, 2040.245
137.7731, 2074.643
138.2552, 2113.141
138.7374, 2156.778
139.2195, 2193.808
139.7016, 2222.446
140.1837, 2246.760
140.6658, 2275.203
141.1479, 2310.210
141.6301, 2344.090
142.1122, 2373.526
142.5943, 2397.737
143.0764, 2420.353
143.5585, 2443.852
144.0406, 2465.817
144.5228, 2478.174
145.0049, 2478.681
145.4870, 2472.493
145.9691, 2462.887
146.4512, 2454.208
146.9333, 2434.889
147.4155, 2401.969
147.8976, 2356.412
148.3797, 2309.682
148.8618, 2258.637
149.3439, 2208.164
149.8260, 2161.431
150.3082, 2117.818
150.7903, 2078.037
151.2724, 2041.983
151.7545, 2009.838
152.2366, 1979.039
152.7188, 1946.698
153.2009, 1916.822
153.6830, 1893.011
154.1651, 1877.070
154.6472, 1865.501
155.1293, 1857.883
155.6115, 1854.088
156.0936, 1853.996
156.5757, 1857.547
157.0578, 1864.753
157.5399, 1875.620
158.0220, 1891.405
158.5042, 1909.861
158.9863, 1929.740
159.4684, 1950.579
159.9505, 1974.813
160.4326, 2003.731
160.9147, 2036.295
161.3969, 2070.951
161.8790, 2106.105
162.3611, 2143.986
162.8432, 2186.247
163.3253, 2233.346
163.8074, 2282.647
164.2896, 2333.780
164.7717, 2386.174
165.2538, 2438.700
165.7359, 2487.394
166.2180, 2537.913
166.7001, 2595.753
167.1823, 2664.248
167.6644, 2733.210
168.1465, 2794.334
168.6286, 2850.299
169.1107, 2908.687
169.5928, 2976.339
170.0750, 3047.243
170.5571, 3116.207
171.0392, 3180.386
171.5213, 3243.714
172.0034, 3309.467
172.4855, 3377.458
172.9677, 3444.947
173.4498, 3511.101
173.9319, 3576.175
174.4140, 3640.276
174.8961, 3702.826
175.3782, 3765.239
175.8604, 3832.378
176.3425, 3903.840
176.8246, 3973.264
177.3067, 4036.917
177.7888, 4095.980
178.2709, 4151.953
178.7531, 4207.028
179.2352, 4258.705
179.7173, 4306.292
180.1994, 4349.800
180.6815, 4381.949
181.1636, 4394.347
181.6458, 4389.781
182.1279, 4376.257
182.6100, 4357.816
183.0921, 4331.535
183.5742, 4289.846
184.0563, 4233.282
184.5385, 4165.580
185.0206, 4093.910
185.5027, 4015.771
185.9848, 3922.429
186.4669, 3803.666
186.9490, 3668.001
187.4312, 3535.589
187.9133, 3408.963
188.3954, 3284.168
188.8775, 3158.055
189.3596, 3031.665
189.8417, 2908.948
190.3239, 2792.561
190.8060, 2681.411
191.2881, 2575.315
191.7702, 2475.375
192.2523, 2380.583
192.7344, 2288.303
193.2166, 2198.966
193.6987, 2115.939
194.1808, 2040.642
194.6629, 1972.994
195.1450, 1907.927
195.6271, 1845.217
196.1093, 1785.592
196.5914, 1730.657
197.0735, 1680.611
197.5556, 1632.510
198.0377, 1584.293
198.5198, 1535.493
199.0020, 1493.140
199.4841, 1458.378
199.9662, 1427.867
200.4483, 1394.975
200.9304, 1358.884
201.4125, 1325.316
201.8947, 1297.979
202.3768, 1277.543
202.8589, 1254.465
203.3410, 1227.721
203.8231, 1199.518
204.3052, 1174.198
204.7874, 1151.809
205.2695, 1131.480
205.7516, 1113.345
206.2337, 1097.817
206.7158, 1081.582
207.1979, 1064.251
207.6801, 1046.484
208.1622, 1029.771
208.6443, 1013.916
209.1264, 999.3903
209.6085, 986.5632
210.0906, 975.6915
210.5728, 965.4471
211.0549, 956.3486
211.5370, 947.5461
212.0191, 936.9484
212.5012, 923.3887
212.9833, 910.7161
213.4655, 901.1997
213.9476, 895.8129
214.4297, 889.7623
214.9118, 882.7811
215.3939, 875.1981
215.8760, 867.3975
216.3581, 858.9249
216.8403, 851.2952
217.3224, 845.6688
217.8045, 843.0818
218.2866, 839.0385
218.7687, 832.8986
219.2508, 825.4460
219.7330, 819.0262
220.2151, 814.1193
220.6972, 809.3315
221.1793, 803.8495
221.6614, 796.7934
222.1435, 791.3636
222.6257, 788.2479
223.1078, 786.5745
223.5899, 783.8284
224.0720, 779.6132
224.5541, 774.9559
225.0362, 770.2318
225.5184, 765.5315
226.0005, 760.5977
226.4826, 754.9814
226.9647, 749.2542
227.4468, 744.9403
227.9289, 742.7697
228.4111, 740.9756
228.8932, 738.8065
229.3753, 736.2581
229.8574, 733.3698
230.3395, 729.9919
230.8216, 726.3443
231.3038, 722.8587
231.7859, 719.1129
232.2680, 716.1807
232.7501, 714.7801
233.2322, 716.1784
233.7143, 716.1884
234.1965, 714.2826
234.6786, 711.0677
235.1607, 708.1371
235.6428, 705.2468
236.1249, 702.9714
236.6070, 701.8942
237.0892, 703.7377
237.5713, 702.7769
238.0534, 697.6782
238.5355, 690.1130
239.0176, 684.3654
239.4997, 680.8750
239.9819, 678.4757
240.4640, 676.8907
240.9461, 676.8601
241.4282, 675.8056
241.9103, 673.1609
242.3924, 669.6788
242.8746, 667.2757
243.3567, 666.8760
243.8388, 666.1614
244.3209, 663.9709
244.8030, 659.2466
245.2851, 656.0088
245.7673, 654.8062
246.2494, 654.8748
246.7315, 654.6948
247.2136, 654.6708
247.6957, 653.7531
248.1778, 651.1874
248.6600, 645.8893
249.1421, 642.4318
249.6242, 641.7943
250.1063, 642.4468
250.5884, 641.1333
251.0705, 636.0497
251.5527, 632.0708
252.0348, 631.3591
252.5169, 635.1533
252.9990, 637.6296
253.4811, 638.3177
253.9632, 638.0104
254.4454, 638.1960
254.9275, 639.4581
255.4096, 640.0834
255.8917, 639.2660
256.3738, 636.5254
256.8560, 634.5339
257.3381, 633.2138
257.8202, 632.6901
258.3023, 633.4003
258.7844, 636.1952
259.2665, 638.3537
259.7487, 638.8787
260.2308, 637.4917
260.7129, 636.3422
261.1950, 635.4069
261.6771, 634.7313
262.1592, 634.4095
262.6414, 634.5187
263.1235, 634.7931
263.6056, 635.1732
264.0877, 635.6655
264.5698, 636.3254
265.0519, 637.4520
265.5341, 638.3408
266.0162, 637.9564
266.4983, 635.7635
266.9804, 633.9127
267.4625, 632.6630
267.9446, 632.0379
268.4268, 633.4999
268.9089, 637.9420
269.3910, 642.8419
269.8731, 645.5978
270.3552, 645.8193
270.8373, 645.2925
271.3195, 643.9786
271.8016, 642.0704
272.2837, 641.7806
272.7658, 643.6205
273.2479, 645.9190
273.7300, 646.7839
274.2122, 645.7538
274.6943, 646.3732
275.1764, 650.3060
275.6585, 656.4469
276.1406, 658.2596
276.6227, 654.6114
277.1049, 650.4033
277.5870, 649.9189
278.0691, 653.5099
278.5512, 656.7892
279.0333, 659.0196
279.5154, 660.4857
279.9976, 662.0135
280.4797, 663.5641
280.9618, 665.3964
281.4439, 668.1914
281.9260, 671.9531
282.4081, 673.9385
282.8903, 672.7960
283.3724, 670.7759
283.8545, 674.1255
284.3366, 683.3289
284.8187, 692.7850
285.3008, 698.7447
285.7830, 701.5000
286.2651, 703.7250
286.7472, 705.5001
287.2293, 707.1837
287.7114, 709.3837
288.1935, 712.0960
288.6757, 715.1994
289.1578, 718.6344
289.6399, 722.4072
290.1220, 726.6315
290.6041, 731.5670
291.0862, 736.1886
291.5684, 738.0334
292.0505, 737.5314
292.5326, 738.6163
293.0147, 744.6239
293.4968, 753.7421
293.9789, 760.5363
294.4611, 764.5929
294.9432, 767.6407
295.4253, 771.5884
295.9074, 776.2440
296.3895, 780.6568
296.8716, 784.6863
297.3538, 788.1908
297.8359, 790.0631
298.3180, 790.1864
298.8001, 791.6060
299.2822, 798.5514
299.7643, 809.2164
300.2465, 818.7456
300.7286, 824.6011
301.2107, 828.9335
301.6928, 834.1870
302.1749, 840.3587
302.6570, 848.1344
303.1392, 859.7793
303.6213, 873.1165
304.1034, 883.9319
304.5855, 889.6245
305.0676, 894.1428
305.5497, 901.8547
306.0319, 912.2311
306.5140, 922.9210
306.9961, 931.5428
307.4782, 939.7692
307.9603, 949.8732
308.4424, 962.9567
308.9246, 976.7554
309.4067, 989.3531
309.8888, 1001.146
310.3709, 1013.547
310.8530, 1027.064
311.3351, 1041.513
311.8173, 1056.425
312.2994, 1071.428
312.7815, 1088.372
313.2636, 1110.916
313.7457, 1135.813
314.2278, 1157.375
314.7100, 1169.369
315.1921, 1179.832
315.6742, 1193.386
316.1563, 1210.626
316.6384, 1229.938
317.1205, 1251.732
317.6027, 1274.625
318.0848, 1296.747
318.5669, 1316.731
319.0490, 1336.530
319.5311, 1356.429
320.0132, 1376.400
320.4954, 1398.121
320.9775, 1422.154
321.4596, 1447.919
321.9417, 1474.580
322.4238, 1502.763
322.9059, 1531.004
323.3881, 1559.491
323.8702, 1587.875
324.3523, 1615.095
324.8344, 1637.594
325.3165, 1661.082
325.7986, 1689.137
326.2808, 1729.622
326.7629, 1765.774
327.2450, 1795.377
327.7271, 1819.548
328.2092, 1842.782
328.6913, 1865.367
329.1735, 1886.767
329.6556, 1907.236
330.1377, 1927.744
330.6198, 1945.490
331.1019, 1960.790
331.5840, 1973.157
332.0662, 1981.935
332.5483, 1986.692
333.0304, 1988.362
333.5125, 1986.620
333.9946, 1980.646
334.4767, 1975.198
334.9589, 1969.470
335.4410, 1965.091
335.9231, 1964.704
336.4052, 1970.094
336.8873, 1974.801
337.3694, 1977.080
337.8516, 1977.091
338.3336, 1976.962
338.8158, 1975.649
339.2979, 1976.504
339.7800, 1983.416
340.2621, 1997.229
340.7442, 2011.109
341.2263, 2023.705
341.7085, 2035.497
342.1906, 2046.512
342.6727, 2056.328
343.1548, 2068.629
343.6369, 2088.474
344.1190, 2114.976
344.6012, 2136.245
345.0833, 2150.140
345.5654, 2159.615
346.0475, 2169.405
346.5296, 2179.403
347.0117, 2188.924
347.4939, 2198.796
347.9760, 2207.869
348.4581, 2212.005
348.9402, 2210.495
349.4223, 2206.742
349.9044, 2204.581
350.3866, 2203.388
350.8687, 2200.989
351.3508, 2195.027
351.8329, 2187.962
352.3150, 2183.620
352.7971, 2181.948
353.2793, 2181.476
353.7614, 2181.276
354.2435, 2181.433
354.7256, 2181.969
355.2077, 2182.197
355.6898, 2183.655
356.1720, 2188.691
356.6541, 2196.536
357.1362, 2203.831
357.6183, 2207.782
358.1004, 2210.840
358.5826, 2215.197
359.0647, 2221.446
359.5468, 2228.539
360.0289, 2237.329
360.5110, 2246.482
360.9931, 2253.485
361.4753, 2254.396
361.9574, 2255.187
362.4395, 2259.661
362.9216, 2269.016
363.4037, 2276.479
363.8858, 2280.147
364.3680, 2280.900
364.8501, 2279.668
365.3322, 2276.001
365.8143, 2271.096
366.2964, 2265.370
366.7785, 2258.806
367.2607, 2250.746
367.7428, 2240.240
368.2249, 2228.809
368.7070, 2217.341
369.1891, 2207.434
369.6712, 2195.552
370.1534, 2181.526
370.6355, 2165.379
371.1176, 2147.079
371.5997, 2125.222
372.0818, 2102.887
372.5639, 2081.405
373.0461, 2061.616
373.5282, 2039.042
374.0103, 2012.245
374.4924, 1983.482
374.9745, 1956.924
375.4566, 1933.569
375.9388, 1908.644
376.4209, 1880.363
376.9030, 1848.722
377.3851, 1819.923
377.8672, 1794.347
378.3493, 1769.425
378.8315, 1742.380
379.3136, 1712.932
379.7957, 1686.178
380.2778, 1663.446
380.7599, 1643.316
381.2420, 1621.147
381.7242, 1597.304
382.2063, 1574.507
382.6884, 1555.117
383.1705, 1538.378
383.6526, 1522.394
384.1347, 1506.972
384.6169, 1492.289
385.0990, 1479.270
385.5811, 1467.478
386.0632, 1456.151
386.5453, 1443.560
387.0274, 1431.790
387.5096, 1423.911
387.9917, 1419.973
388.4738, 1418.473
388.9559, 1419.849
389.4380, 1422.588
389.9201, 1424.598
390.4023, 1423.762
390.8844, 1423.719
391.3665, 1426.099
391.8486, 1431.097
392.3307, 1439.362
392.8128, 1453.129
393.2950, 1468.973
393.7771, 1484.439
394.2592, 1498.098
394.7413, 1513.958
395.2234, 1534.028
395.7055, 1556.819
396.1877, 1580.047
396.6698, 1602.793
397.1519, 1626.270
397.6340, 1650.948
398.1161, 1676.860
398.5982, 1703.877
399.0804, 1733.261
399.5625, 1763.026
400.0446, 1791.609
400.5267, 1816.492
401.0088, 1844.085
401.4909, 1874.883
401.9731, 1908.720
402.4552, 1944.521
402.9373, 1982.852
403.4194, 2022.282
403.9015, 2062.280
404.3836, 2103.002
404.8658, 2143.861
405.3479, 2184.730
405.8300, 2225.297
406.3121, 2265.805
406.7942, 2306.416
407.2763, 2345.710
407.7585, 2383.871
408.2406, 2420.500
408.7227, 2453.315
409.2048, 2482.444
409.6869, 2505.591
410.1690, 2521.897
410.6512, 2530.659
411.1333, 2529.127
411.6154, 2516.472
412.0975, 2493.795
412.5796, 2461.646
413.0617, 2420.424
413.5439, 2371.819
414.0260, 2315.509
414.5081, 2252.332
414.9902, 2182.833
415.4723, 2106.273
415.9544, 2028.396
416.4366, 1954.189
416.9187, 1882.203
417.4008, 1810.556
417.8829, 1735.641
418.3650, 1662.684
418.8471, 1592.781
419.3293, 1526.766
419.8114, 1465.470
420.2935, 1411.740
420.7756, 1361.630
421.2577, 1313.710
421.7398, 1265.959
422.2220, 1222.112
422.7041, 1184.370
423.1862, 1150.545
423.6683, 1116.532
424.1504, 1078.241
424.6325, 1042.748
425.1147, 1012.639
425.5968, 987.9791
426.0789, 964.4530
426.5610, 942.4611
427.0431, 921.2239
427.5252, 900.0983
428.0074, 877.9805
428.4895, 858.7165
428.9716, 843.8117
429.4537, 831.9205
429.9358, 818.8988
430.4179, 804.3323
430.9001, 790.2100
431.3822, 777.9425
431.8643, 767.5650
432.3464, 756.5104
432.8285, 744.5985
433.3106, 732.5861
433.7928, 721.3060
434.2749, 710.7439
434.7570, 700.7694
435.2391, 691.2952
435.7212, 682.4242
436.2033, 674.6121
436.6855, 667.8306
437.1676, 661.0770
437.6497, 653.1320
438.1318, 644.9311
438.6139, 637.9514
439.0960, 632.5433
439.5782, 627.9449
440.0603, 624.2546
440.5424, 620.8508
441.0245, 616.6387
441.5066, 610.0054
441.9887, 603.3214
442.4709, 598.2955
442.9530, 594.8923
443.4351, 590.9672
443.9172, 584.9288
444.3993, 578.5358
444.8814, 573.1407
445.3636, 569.2386
445.8457, 565.9038
446.3278, 563.5439
446.8099, 561.6821
447.2920, 559.0607
447.7741, 555.0253
448.2563, 550.9273
448.7384, 547.4073
449.2205, 544.6387
449.7026, 540.7151
450.1847, 534.9205
450.6668, 528.9427
451.1490, 524.4286
451.6311, 521.7043
452.1132, 519.0954
452.5953, 516.1094
453.0774, 513.2538
453.5595, 512.2199
454.0417, 513.2537
454.5238, 513.7442
455.0059, 512.1208
455.4880, 508.6829
455.9701, 504.5859
456.4522, 499.7280
456.9344, 495.2230
457.4165, 492.4689
457.8986, 491.0369
458.3807, 489.8758
458.8628, 488.9693
459.3449, 487.7991
459.8271, 485.4379
460.3092, 482.1617
460.7913, 479.1160
461.2734, 476.9765
461.7555, 475.3651
462.2376, 474.0649
462.7198, 473.1701
463.2019, 472.0529
463.6840, 470.2122
464.1661, 468.0599
464.6482, 466.0946
465.1303, 464.4412
465.6125, 462.9823
466.0946, 461.7751
466.5767, 460.7751
467.0588, 459.7061
467.5409, 458.9717
468.0230, 457.7914
468.5052, 455.7582
468.9873, 452.4643
469.4694, 449.2992
469.9515, 446.0975
470.4336, 443.1849
470.9157, 441.1271
471.3979, 440.2518
471.8800, 439.1111
472.3621, 437.0552
472.8442, 434.4782
473.3263, 433.5270
473.8084, 434.4341
474.2906, 435.1562
474.7727, 434.1018
475.2548, 431.5472
475.7369, 428.6454
476.2190, 425.3422
476.7011, 422.3359
477.1833, 420.8399
477.6654, 420.3326
478.1475, 419.3743
478.6296, 416.5823
479.1117, 413.5981
479.5938, 412.4275
480.0760, 412.7942
480.5581, 412.8795
481.0402, 411.4914
481.5223, 409.4771
482.0044, 407.4555
482.4865, 405.4859
482.9687, 403.7163
483.4508, 401.9172
483.9329, 400.4195
484.4150, 399.7133
484.8971, 402.0643
485.3792, 402.9032
485.8614, 400.0041
486.3435, 393.7648
486.8256, 390.2134
487.3077, 391.3221
487.7898, 392.8373
488.2719, 392.3619
488.7541, 389.0707
489.2362, 386.5109
489.7183, 384.8749
490.2004, 383.7409
490.6825, 382.3991
491.1646, 380.7905
491.6468, 379.5388
492.1289, 378.9089
492.6110, 378.7126
493.0931, 378.4903
493.5752, 378.2352
494.0573, 377.6797
494.5395, 376.1534
495.0216, 374.2637
495.5037, 373.5452
495.9858, 374.4384
496.4679, 375.0806
496.9500, 373.2865
497.4322, 370.1690
497.9143, 367.6047
498.3964, 366.8237
498.8785, 366.3600
499.3606, 365.3119
499.8427, 363.8333
500.3249, 362.7221
500.8070, 362.4455
501.2891, 362.4443
501.7712, 362.5778
502.2533, 363.1827
502.7354, 362.9092
503.2176, 360.6443
503.6997, 357.9781
504.1818, 356.5815
504.6639, 357.3297
505.1460, 357.7058
505.6281, 357.2681
506.1103, 356.1980
506.5924, 355.2228
507.0745, 354.3743
507.5566, 353.4929
508.0387, 352.5385
508.5208, 351.5032
509.0030, 350.0230
509.4851, 347.9495
509.9672, 346.2711
510.4493, 346.8944
510.9314, 348.9343
511.4135, 349.1147
511.8957, 345.7333
512.3778, 341.7200
512.8599, 341.1049
513.3420, 342.7914
513.8242, 343.5617
514.3063, 340.6842
514.7884, 336.9980
515.2705, 334.7854
515.7526, 334.2153
516.2347, 333.6563
516.7169, 331.9811
517.1990, 330.3409
517.6811, 329.6245
518.1632, 330.7108
518.6453, 331.7155
519.1274, 332.7991
519.6096, 333.6120
520.0917, 333.4593
520.5738, 331.9270
521.0559, 330.0681
521.5380, 327.7918
522.0201, 325.2018
522.5023, 324.3589
522.9844, 325.7621
523.4665, 327.5056
523.9486, 328.3085
524.4307, 328.2037
524.9128, 327.5946
525.3950, 326.4156
525.8771, 325.1076
526.3592, 324.2994
526.8413, 323.8762
527.3234, 323.4177
527.8055, 322.9877
528.2877, 322.2424
528.7698, 320.1988
529.2519, 317.2896
529.7340, 315.2800
530.2161, 315.7760
530.6982, 317.1466
531.1804, 318.3803
531.6625, 319.4177
532.1446, 319.7965
532.6267, 318.7607
533.1088, 317.2917
533.5909, 316.3102
534.0731, 316.9492
534.5552, 316.7955
535.0373, 315.0591
535.5194, 312.5200
536.0015, 311.1252
536.4836, 311.3742
536.9658, 311.7678
537.4479, 311.7262
537.9300, 311.2847
538.4121, 311.5021
538.8942, 312.5842
539.3763, 313.4336
539.8585, 312.5049
540.3406, 310.2885
540.8227, 310.0681
541.3048, 312.7910
541.7869, 315.6180
542.2690, 314.2080
542.7512, 310.0850
543.2333, 307.0805
543.7154, 307.7151
544.1975, 309.3357
544.6796, 309.8749
545.1617, 309.5428
545.6439, 309.2349
546.1260, 309.3852
546.6081, 309.6677
547.0902, 309.8239
547.5723, 309.7000
548.0544, 309.9870
548.5366, 311.5386
549.0187, 313.1118
549.5008, 313.5833
549.9829, 312.1987
550.4650, 311.0759
550.9471, 310.3832
551.4293, 310.0591
551.9114, 310.0895
552.3935, 310.6295
552.8756, 310.7557
553.3577, 309.8677
553.8398, 308.2831
554.3220, 307.5895
554.8041, 307.8124
555.2862, 308.1266
555.7683, 307.7819
556.2504, 307.0837
556.7325, 306.6358
557.2147, 306.5295
557.6968, 306.6057
558.1789, 306.6760
558.6610, 306.8557
559.1431, 307.3140
559.6252, 308.3944
560.1074, 309.4667
560.5895, 310.4399
561.0716, 311.2348
561.5537, 311.5771
562.0358, 310.9064
562.5179, 310.2637
563.0001, 310.0361
563.4822, 310.2644
563.9643, 310.4427
564.4464, 310.4280
564.9285, 310.5681
565.4106, 311.2015
565.8928, 312.4334
566.3749, 313.4955
566.8570, 314.3320
567.3391, 315.0044
567.8212, 315.5481
568.3033, 315.9901
568.7855, 316.4831
569.2676, 317.0423
569.7497, 317.7222
570.2318, 318.9476
570.7139, 320.4807
571.1960, 321.3848
571.6782, 320.6398
572.1603, 319.3358
572.6424, 318.0788
573.1245, 316.8624
573.6066, 316.5914
574.0887, 318.3655
574.5709, 320.7693
575.0530, 322.7223
575.5351, 324.2319
576.0172, 325.0746
576.4993, 324.8853
576.9814, 324.2141
577.4636, 323.9290
577.9457, 324.0955
578.4278, 324.4754
578.9099, 325.0051
579.3920, 325.6999
579.8741, 326.9062
580.3563, 328.7009
580.8384, 329.8492
581.3205, 328.8095
581.8026, 326.5876
582.2847, 326.3256
582.7668, 328.1368
583.2490, 330.4102
583.7311, 332.1143
584.2132, 333.3478
584.6953, 334.2572
585.1774, 334.8799
585.6595, 335.1482
586.1416, 334.3196
586.6237, 333.2906
587.1058, 331.4922
587.5880, 334.8851
588.0701, 337.1156
