##NAMES=Pumpellyite-(Mg)
##RRUFFID=R070130
##IDEAL CHEMISTRY=Ca_2_MgAl_2_(SiO_4_)(Si_2_O_7_)(OH)_2_&#183;H_2_O
##LOCALITY=Isle Royale National Park, Lake Superior,  Keweenaw County, Michigan, USA
##OWNER=RRUFF
##SOURCE=Michael Scott
##DESCRIPTION=Green waterworn massive pebble
##STATUS=The identification of this mineral has been made only by X-ray diffraction.
##URL=rruff.info/R070130
186.8779, 19275.42
187.3600, 19287.55
187.8421, 19304.70
188.3242, 19325.93
188.8064, 19355.49
189.2885, 19405.50
189.7706, 19464.46
190.2527, 19514.39
190.7348, 19546.50
191.2169, 19569.00
191.6991, 19590.19
192.1812, 19606.85
192.6633, 19635.03
193.1454, 19693.48
193.6275, 19766.31
194.1096, 19835.89
194.5918, 19898.86
195.0739, 19954.16
195.5560, 19998.10
196.0381, 20027.68
196.5202, 20058.18
197.0023, 20099.50
197.4845, 20144.62
197.9666, 20187.34
198.4487, 20227.09
198.9308, 20261.75
199.4129, 20285.64
199.8950, 20296.20
200.3772, 20309.60
200.8593, 20334.02
201.3414, 20363.80
201.8235, 20397.46
202.3056, 20436.92
202.7877, 20471.56
203.2699, 20488.34
203.7520, 20486.08
204.2341, 20474.08
204.7162, 20441.65
205.1983, 20408.04
205.6804, 20388.66
206.1626, 20386.74
206.6447, 20394.24
207.1268, 20403.30
207.6089, 20413.77
208.0910, 20427.65
208.5731, 20453.70
209.0553, 20477.34
209.5374, 20488.17
210.0195, 20484.77
210.5016, 20472.79
210.9837, 20450.34
211.4658, 20416.33
211.9480, 20401.91
212.4301, 20428.36
212.9122, 20463.33
213.3943, 20480.73
213.8764, 20481.69
214.3585, 20491.46
214.8407, 20541.68
215.3228, 20630.64
215.8049, 20694.21
216.2870, 20708.54
216.7691, 20713.35
217.2512, 20732.51
217.7334, 20764.04
218.2155, 20795.43
218.6976, 20814.88
219.1797, 20824.36
219.6618, 20842.81
220.1439, 20881.07
220.6261, 20914.56
221.1082, 20922.28
221.5903, 20914.41
222.0724, 20917.81
222.5545, 20961.01
223.0366, 21030.19
223.5188, 21062.06
224.0009, 21033.07
224.4830, 21006.29
224.9651, 21017.97
225.4472, 21051.90
225.9293, 21080.72
226.4115, 21090.93
226.8936, 21087.42
227.3757, 21079.32
227.8578, 21060.87
228.3399, 21051.63
228.8220, 21068.52
229.3041, 21096.15
229.7863, 21114.08
230.2684, 21110.35
230.7505, 21100.83
231.2326, 21118.95
231.7147, 21177.26
232.1968, 21217.79
232.6790, 21204.93
233.1611, 21169.97
233.6432, 21136.67
234.1253, 21109.70
234.6074, 21091.22
235.0895, 21084.80
235.5717, 21091.10
236.0538, 21104.43
236.5359, 21137.19
237.0180, 21167.21
237.5001, 21170.97
237.9822, 21143.72
238.4644, 21117.03
238.9465, 21126.37
239.4286, 21170.78
239.9107, 21202.19
240.3928, 21199.37
240.8749, 21191.53
241.3571, 21205.76
241.8392, 21241.22
242.3213, 21271.17
242.8034, 21274.77
243.2855, 21255.92
243.7676, 21234.37
244.2498, 21205.62
244.7319, 21184.93
245.2140, 21181.32
245.6961, 21193.46
246.1782, 21217.31
246.6603, 21265.04
247.1425, 21322.61
247.6246, 21353.44
248.1067, 21354.32
248.5888, 21332.18
249.0709, 21265.44
249.5530, 21180.12
250.0352, 21130.28
250.5173, 21150.38
250.9994, 21207.80
251.4815, 21263.77
251.9636, 21321.65
252.4457, 21356.20
252.9279, 21329.19
253.4100, 21275.29
253.8921, 21249.93
254.3742, 21273.81
254.8563, 21313.40
255.3384, 21340.64
255.8206, 21355.61
256.3027, 21359.51
256.7848, 21344.53
257.2669, 21324.25
257.7490, 21318.15
258.2311, 21326.56
258.7133, 21349.70
259.1954, 21401.81
259.6775, 21472.68
260.1596, 21522.34
260.6417, 21540.18
261.1238, 21529.40
261.6060, 21477.58
262.0881, 21377.45
262.5702, 21321.29
263.0523, 21384.79
263.5344, 21509.89
264.0165, 21588.76
264.4987, 21598.81
264.9808, 21574.01
265.4629, 21537.65
265.9450, 21491.20
266.4271, 21462.97
266.9092, 21472.91
267.3914, 21495.48
267.8735, 21502.02
268.3556, 21490.23
268.8377, 21478.38
269.3198, 21481.72
269.8019, 21499.03
270.2841, 21509.78
270.7662, 21497.85
271.2483, 21493.25
271.7304, 21520.38
272.2125, 21573.60
272.6946, 21630.61
273.1768, 21686.16
273.6589, 21731.16
274.1410, 21729.21
274.6231, 21632.41
275.1052, 21557.16
275.5873, 21552.44
276.0695, 21591.35
276.5516, 21626.56
277.0337, 21639.84
277.5158, 21642.02
277.9979, 21654.76
278.4800, 21685.87
278.9622, 21711.51
279.4443, 21728.65
279.9264, 21739.88
280.4085, 21743.92
280.8906, 21741.66
281.3727, 21743.36
281.8549, 21764.23
282.3370, 21815.47
282.8191, 21839.21
283.3012, 21816.72
283.7833, 21785.65
284.2654, 21761.23
284.7476, 21747.34
285.2297, 21747.34
285.7118, 21766.02
286.1939, 21803.20
286.6760, 21828.52
287.1581, 21837.02
287.6403, 21840.22
288.1224, 21838.99
288.6045, 21834.77
289.0866, 21829.12
289.5687, 21822.82
290.0508, 21815.99
290.5330, 21808.91
291.0151, 21797.61
291.4972, 21792.22
291.9793, 21797.38
292.4614, 21806.25
292.9435, 21814.50
293.4257, 21820.27
293.9078, 21821.32
294.3899, 21813.98
294.8720, 21796.63
295.3541, 21775.13
295.8362, 21741.97
296.3184, 21711.38
296.8005, 21695.97
297.2826, 21692.29
297.7647, 21683.35
298.2468, 21645.78
298.7289, 21580.51
299.2111, 21556.04
299.6932, 21602.92
300.1753, 21656.35
300.6574, 21695.16
301.1395, 21723.29
301.6216, 21749.84
302.1038, 21781.16
302.5859, 21811.73
303.0680, 21826.88
303.5501, 21821.13
304.0322, 21814.43
304.5143, 21805.43
304.9964, 21802.76
305.4785, 21820.31
305.9607, 21864.61
306.4428, 21908.40
306.9249, 21920.55
307.4070, 21901.27
307.8891, 21879.04
308.3712, 21859.08
308.8534, 21838.92
309.3355, 21808.87
309.8176, 21770.31
310.2997, 21752.33
310.7818, 21793.82
311.2639, 21865.64
311.7461, 21889.09
312.2282, 21844.41
312.7103, 21790.98
313.1924, 21781.14
313.6745, 21801.72
314.1566, 21816.08
314.6388, 21811.39
315.1209, 21801.11
315.6030, 21799.67
316.0851, 21806.02
316.5672, 21805.16
317.0493, 21782.18
317.5315, 21751.04
318.0136, 21753.25
318.4957, 21814.75
318.9778, 21863.78
319.4599, 21861.06
319.9420, 21828.94
320.4242, 21809.39
320.9063, 21816.51
321.3884, 21833.54
321.8705, 21835.30
322.3526, 21816.14
322.8347, 21797.20
323.3169, 21763.31
323.7990, 21741.11
324.2811, 21769.05
324.7632, 21839.92
325.2453, 21892.92
325.7274, 21867.70
326.2096, 21760.80
326.6917, 21721.62
327.1738, 21812.46
327.6559, 21892.99
328.1380, 21914.13
328.6201, 21896.18
329.1023, 21874.22
329.5844, 21865.27
330.0665, 21868.40
330.5486, 21883.42
331.0307, 21933.13
331.5128, 21956.16
331.9950, 21919.93
332.4771, 21877.10
332.9592, 21880.11
333.4413, 21932.39
333.9234, 21984.63
334.4055, 21969.69
334.8877, 21873.33
335.3698, 21814.90
335.8519, 21827.64
336.3340, 21848.79
336.8161, 21854.56
337.2982, 21849.59
337.7804, 21847.70
338.2625, 21857.89
338.7446, 21876.05
339.2267, 21890.79
339.7088, 21900.83
340.1909, 21910.98
340.6731, 21919.02
341.1552, 21930.09
341.6373, 21953.27
342.1194, 21993.70
342.6015, 22030.61
343.0836, 22040.38
343.5658, 22026.33
344.0479, 22013.44
344.5300, 22000.58
345.0121, 22000.87
345.4942, 22035.96
345.9763, 22102.44
346.4585, 22158.07
346.9406, 22184.28
347.4227, 22193.32
347.9048, 22199.53
348.3869, 22204.08
348.8690, 22207.10
349.3512, 22204.27
349.8333, 22200.17
350.3154, 22216.57
350.7975, 22285.56
351.2796, 22340.67
351.7617, 22329.82
352.2439, 22285.49
352.7260, 22282.35
353.2081, 22352.76
353.6902, 22454.18
354.1723, 22505.91
354.6544, 22471.30
355.1366, 22450.92
355.6187, 22463.01
356.1008, 22476.46
356.5829, 22456.14
357.0650, 22407.12
357.5471, 22372.94
358.0293, 22397.39
358.5114, 22481.65
358.9935, 22532.90
359.4756, 22517.28
359.9577, 22503.82
360.4398, 22511.02
360.9220, 22528.45
361.4041, 22539.68
361.8862, 22537.13
362.3683, 22528.43
362.8504, 22529.92
363.3326, 22547.15
363.8147, 22557.95
364.2968, 22557.77
364.7789, 22551.39
365.2610, 22536.13
365.7431, 22514.61
366.2253, 22499.81
366.7074, 22498.80
367.1895, 22512.25
367.6716, 22550.49
368.1537, 22631.63
368.6358, 22697.98
369.1180, 22695.02
369.6001, 22658.25
370.0822, 22646.93
370.5643, 22693.39
371.0464, 22745.04
371.5285, 22742.71
372.0107, 22695.49
372.4928, 22665.11
372.9749, 22677.46
373.4570, 22710.19
373.9391, 22730.65
374.4212, 22740.13
374.9034, 22736.91
375.3855, 22701.19
375.8676, 22663.00
376.3497, 22668.03
376.8318, 22716.74
377.3139, 22752.75
377.7961, 22725.34
378.2782, 22636.85
378.7603, 22579.99
379.2424, 22568.78
379.7245, 22566.76
380.2066, 22569.05
380.6888, 22571.73
381.1709, 22570.83
381.6530, 22564.73
382.1351, 22552.61
382.6172, 22530.84
383.0993, 22486.20
383.5815, 22460.88
384.0636, 22466.23
384.5457, 22478.25
385.0278, 22488.58
385.5099, 22494.28
385.9920, 22492.20
386.4742, 22478.22
386.9563, 22454.93
387.4384, 22435.35
387.9205, 22419.89
388.4026, 22407.32
388.8847, 22399.02
389.3669, 22392.32
389.8490, 22385.42
390.3311, 22378.27
390.8132, 22367.82
391.2953, 22344.82
391.7774, 22312.69
392.2596, 22300.80
392.7417, 22325.31
393.2238, 22351.68
393.7059, 22337.46
394.1880, 22291.57
394.6701, 22260.69
395.1523, 22263.17
395.6344, 22280.90
396.1165, 22304.62
396.5986, 22331.13
397.0807, 22344.99
397.5628, 22337.41
398.0450, 22312.31
398.5271, 22279.64
399.0092, 22233.95
399.4913, 22190.77
399.9734, 22137.04
400.4555, 22095.56
400.9377, 22105.07
401.4197, 22164.11
401.9019, 22214.90
402.3840, 22192.59
402.8661, 22088.75
403.3482, 22027.11
403.8303, 22035.35
404.3124, 22056.66
404.7946, 22090.05
405.2767, 22123.88
405.7588, 22143.87
406.2409, 22144.05
406.7230, 22129.33
407.2051, 22100.16
407.6873, 22046.92
408.1694, 22026.88
408.6515, 22080.48
409.1336, 22142.32
409.6157, 22179.34
410.0978, 22189.80
410.5800, 22177.34
411.0621, 22130.21
411.5442, 22065.87
412.0263, 22005.91
412.5084, 21946.57
412.9905, 21936.89
413.4727, 22035.87
413.9548, 22186.02
414.4369, 22258.44
414.9190, 22221.42
415.4011, 22176.58
415.8832, 22164.30
416.3654, 22171.08
416.8475, 22180.55
417.3296, 22189.00
417.8117, 22187.48
418.2938, 22162.83
418.7759, 22110.79
419.2581, 22085.54
419.7402, 22102.35
420.2223, 22124.82
420.7044, 22145.00
421.1865, 22160.39
421.6686, 22169.66
422.1508, 22172.23
422.6329, 22166.30
423.1150, 22143.92
423.5971, 22089.76
424.0792, 22061.66
424.5613, 22093.39
425.0435, 22124.66
425.5256, 22130.32
426.0077, 22109.50
426.4898, 22067.14
426.9719, 21991.94
427.4540, 21905.83
427.9362, 21869.78
428.4183, 21894.99
428.9004, 21912.66
429.3825, 21879.97
429.8646, 21835.59
430.3467, 21836.44
430.8289, 21896.05
431.3110, 21940.23
431.7931, 21916.75
432.2752, 21859.44
432.7573, 21828.78
433.2394, 21833.31
433.7216, 21833.19
434.2037, 21791.57
434.6858, 21713.05
435.1679, 21662.16
435.6500, 21634.22
436.1321, 21635.48
436.6143, 21692.64
437.0964, 21770.95
437.5785, 21823.94
438.0606, 21837.09
438.5427, 21828.14
439.0248, 21820.63
439.5070, 21815.79
439.9891, 21806.70
440.4712, 21798.38
440.9533, 21780.31
441.4354, 21731.26
441.9175, 21672.65
442.3997, 21644.27
442.8818, 21669.41
443.3639, 21720.01
443.8460, 21752.14
444.3281, 21765.35
444.8102, 21766.31
445.2924, 21750.58
445.7745, 21729.06
446.2566, 21710.79
446.7387, 21695.89
447.2208, 21685.39
447.7029, 21683.08
448.1851, 21683.24
448.6672, 21682.63
449.1493, 21679.98
449.6314, 21664.20
450.1135, 21623.33
450.5956, 21573.75
451.0778, 21562.98
451.5599, 21624.60
452.0420, 21664.30
452.5241, 21659.95
453.0062, 21639.52
453.4883, 21624.14
453.9705, 21616.43
454.4526, 21609.22
454.9347, 21595.78
455.4168, 21577.77
455.8989, 21568.54
456.3810, 21572.60
456.8632, 21578.77
457.3453, 21590.00
457.8274, 21598.92
458.3095, 21599.94
458.7916, 21591.66
459.2737, 21573.42
459.7559, 21538.02
460.2380, 21490.75
460.7201, 21453.76
461.2022, 21428.11
461.6843, 21415.00
462.1664, 21424.45
462.6486, 21446.27
463.1307, 21455.39
463.6128, 21446.36
464.0949, 21429.42
464.5770, 21400.90
465.0591, 21370.21
465.5413, 21353.58
466.0234, 21355.00
466.5055, 21371.39
466.9876, 21405.17
467.4697, 21462.88
467.9518, 21475.73
468.4340, 21394.91
468.9161, 21329.95
469.3982, 21326.90
469.8803, 21356.51
470.3624, 21374.78
470.8445, 21365.73
471.3267, 21347.99
471.8088, 21351.10
472.2909, 21378.71
472.7730, 21395.87
473.2551, 21405.92
473.7372, 21396.78
474.2194, 21342.97
474.7015, 21268.49
475.1836, 21228.56
475.6657, 21254.61
476.1478, 21302.19
476.6299, 21329.08
477.1121, 21339.72
477.5942, 21357.53
478.0763, 21394.07
478.5584, 21423.49
479.0405, 21406.41
479.5226, 21329.81
480.0048, 21288.43
480.4869, 21308.28
480.9690, 21340.04
481.4511, 21358.81
481.9332, 21369.22
482.4153, 21385.85
482.8975, 21415.57
483.3796, 21447.69
483.8617, 21461.40
484.3438, 21450.67
484.8259, 21439.52
485.3080, 21423.82
485.7902, 21412.49
486.2723, 21411.01
486.7544, 21416.97
487.2365, 21423.92
487.7186, 21426.65
488.2007, 21432.42
488.6829, 21457.78
489.1650, 21501.07
489.6471, 21530.26
490.1292, 21535.21
490.6113, 21524.93
491.0934, 21510.37
491.5756, 21492.03
492.0577, 21460.52
492.5398, 21387.76
493.0219, 21325.20
493.5040, 21320.08
493.9861, 21353.56
494.4683, 21376.21
494.9504, 21365.75
495.4325, 21334.41
495.9146, 21303.24
496.3967, 21262.94
496.8788, 21246.98
497.3610, 21286.99
497.8431, 21319.26
498.3252, 21302.41
498.8073, 21256.45
499.2894, 21229.48
499.7715, 21249.97
500.2536, 21286.60
500.7357, 21288.34
501.2179, 21255.20
501.7000, 21222.31
502.1821, 21194.87
502.6642, 21174.14
503.1463, 21167.06
503.6284, 21170.92
504.1106, 21164.13
504.5927, 21125.99
505.0748, 21091.35
505.5569, 21088.59
506.0390, 21107.56
506.5211, 21121.84
507.0033, 21121.13
507.4854, 21115.44
507.9675, 21121.23
508.4496, 21144.55
508.9317, 21158.09
509.4138, 21161.32
509.8960, 21155.91
510.3781, 21133.87
510.8602, 21105.54
511.3423, 21088.14
511.8244, 21089.37
512.3066, 21099.20
512.7887, 21107.20
513.2708, 21113.13
513.7529, 21111.87
514.2350, 21104.15
514.7172, 21086.07
515.1993, 21050.51
515.6814, 21001.19
516.1635, 20950.65
516.6456, 20872.64
517.1277, 20823.54
517.6099, 20859.11
518.0920, 20936.90
518.5741, 20983.01
519.0562, 20977.85
519.5383, 20951.39
520.0204, 20935.92
520.5026, 20931.92
520.9847, 20932.79
521.4668, 20952.51
521.9489, 20960.74
522.4310, 20954.13
522.9131, 20931.20
523.3953, 20879.35
523.8774, 20797.16
524.3595, 20727.66
524.8416, 20719.04
525.3237, 20759.59
525.8058, 20805.57
526.2880, 20862.41
526.7701, 20888.29
527.2522, 20835.84
527.7343, 20739.70
528.2164, 20702.42
528.6985, 20759.66
529.1807, 20802.97
529.6628, 20783.20
530.1449, 20742.18
530.6270, 20725.61
531.1091, 20736.45
531.5912, 20750.93
532.0734, 20749.78
532.5555, 20738.82
533.0376, 20750.34
533.5197, 20812.03
534.0018, 20842.75
534.4839, 20803.75
534.9661, 20752.82
535.4482, 20731.21
535.9303, 20738.29
536.4124, 20747.06
536.8945, 20741.97
537.3766, 20728.60
537.8588, 20711.41
538.3409, 20691.37
538.8230, 20684.89
539.3051, 20702.70
539.7872, 20728.29
540.2693, 20733.70
540.7515, 20710.79
541.2336, 20704.37
541.7157, 20730.96
542.1978, 20760.24
542.6799, 20785.54
543.1620, 20798.81
543.6442, 20784.41
544.1263, 20736.05
544.6084, 20671.02
545.0905, 20611.72
545.5726, 20555.15
546.0547, 20529.84
546.5369, 20558.13
547.0190, 20587.93
547.5011, 20589.26
547.9832, 20573.83
548.4653, 20562.32
548.9474, 20561.43
549.4296, 20560.41
549.9116, 20560.62
550.3937, 20553.44
550.8759, 20510.74
551.3580, 20429.96
551.8401, 20363.00
552.3222, 20357.58
552.8043, 20404.11
553.2864, 20419.18
553.7686, 20363.25
554.2507, 20325.16
554.7328, 20324.47
555.2149, 20335.40
555.6970, 20341.06
556.1791, 20337.58
556.6613, 20324.43
557.1434, 20299.05
557.6255, 20265.27
558.1076, 20224.56
558.5897, 20173.99
559.0718, 20157.91
559.5540, 20210.50
560.0361, 20279.96
560.5182, 20288.09
561.0003, 20234.66
561.4824, 20200.54
561.9645, 20211.02
562.4467, 20231.86
562.9288, 20246.90
563.4109, 20255.13
563.8930, 20259.90
564.3751, 20262.02
564.8572, 20252.18
565.3394, 20208.25
565.8215, 20120.15
566.3036, 20081.29
566.7857, 20134.10
567.2678, 20175.96
567.7499, 20146.48
568.2321, 20092.09
568.7142, 20080.43
569.1963, 20132.56
569.6784, 20179.72
570.1605, 20168.79
570.6426, 20126.77
571.1248, 20090.93
571.6069, 20067.04
572.0890, 20074.64
572.5711, 20135.49
573.0532, 20222.38
573.5353, 20247.19
574.0175, 20141.49
574.4996, 20079.43
574.9817, 20079.91
575.4638, 20103.66
575.9459, 20141.51
576.4280, 20181.88
576.9102, 20202.26
577.3923, 20186.87
577.8744, 20160.31
578.3565, 20166.34
578.8386, 20201.00
579.3207, 20207.97
579.8029, 20164.21
580.2850, 20127.38
580.7671, 20158.20
581.2492, 20246.93
581.7313, 20296.03
582.2134, 20286.96
582.6956, 20260.67
583.1777, 20217.49
583.6598, 20170.09
584.1419, 20128.13
584.6240, 20095.52
585.1061, 20077.51
585.5883, 20080.88
586.0704, 20100.47
586.5525, 20114.23
587.0346, 20119.67
587.5167, 20128.54
587.9988, 20155.75
588.4810, 20176.18
588.9631, 20155.61
589.4452, 20100.38
589.9273, 20073.02
590.4094, 20117.58
590.8915, 20172.97
591.3737, 20200.76
591.8558, 20203.28
592.3379, 20182.29
592.8200, 20139.04
593.3021, 20090.64
593.7842, 20055.05
594.2664, 20032.01
594.7485, 20029.88
595.2306, 20073.32
595.7127, 20101.54
596.1948, 20091.43
596.6769, 20065.72
597.1591, 20040.66
597.6412, 20019.71
598.1233, 20015.06
598.6054, 20042.54
599.0875, 20085.77
599.5696, 20126.42
600.0518, 20162.54
600.5339, 20188.82
601.0160, 20203.64
601.4981, 20203.90
601.9802, 20182.48
602.4623, 20131.77
602.9445, 20089.63
603.4266, 20058.28
603.9087, 20032.26
604.3908, 20007.86
604.8729, 19988.64
605.3550, 19989.17
605.8372, 20012.06
606.3193, 20015.41
606.8014, 19936.24
607.2835, 19811.09
607.7656, 19745.96
608.2477, 19747.70
608.7299, 19762.58
609.2120, 19768.13
609.6941, 19766.37
610.1762, 19763.09
610.6583, 19766.27
611.1404, 19744.71
611.6226, 19672.63
612.1047, 19600.63
612.5868, 19543.33
613.0689, 19508.34
613.5510, 19516.71
614.0331, 19576.04
614.5153, 19633.88
614.9974, 19609.55
615.4795, 19519.24
615.9616, 19486.91
616.4437, 19538.62
616.9258, 19561.77
617.4080, 19478.47
617.8901, 19335.91
618.3722, 19241.12
618.8543, 19196.50
619.3364, 19184.19
619.8185, 19231.85
620.3007, 19283.49
620.7828, 19301.28
621.2649, 19291.36
621.7470, 19272.84
622.2291, 19254.09
622.7112, 19238.89
623.1934, 19237.02
623.6755, 19248.20
624.1576, 19244.90
624.6397, 19222.42
625.1218, 19192.96
625.6039, 19152.96
626.0861, 19114.50
626.5682, 19105.77
627.0503, 19142.09
627.5324, 19163.85
628.0145, 19148.16
628.4966, 19117.54
628.9788, 19079.75
629.4609, 19043.55
629.9430, 19027.37
630.4251, 19040.26
630.9072, 19068.85
631.3893, 19098.40
631.8715, 19130.74
632.3536, 19127.38
632.8357, 19065.55
633.3178, 19011.45
633.7999, 19021.16
634.2820, 19055.05
634.7642, 19036.27
635.2463, 18935.78
635.7284, 18867.68
636.2105, 18899.70
636.6926, 18956.17
637.1747, 18972.72
637.6569, 18953.20
638.1390, 18921.39
638.6211, 18888.22
639.1032, 18862.49
639.5853, 18862.92
640.0674, 18892.53
640.5496, 18914.83
641.0317, 18932.52
641.5138, 18935.73
641.9959, 18906.83
642.4780, 18865.08
642.9601, 18840.42
643.4423, 18838.14
643.9244, 18836.98
644.4065, 18827.54
644.8886, 18818.04
645.3707, 18818.40
645.8528, 18824.81
646.3350, 18826.74
646.8171, 18819.63
647.2992, 18805.16
647.7813, 18779.90
648.2634, 18741.82
648.7455, 18733.41
649.2277, 18772.78
649.7098, 18803.63
650.1919, 18792.85
650.6740, 18762.43
651.1561, 18743.95
651.6382, 18741.37
652.1204, 18733.79
652.6025, 18710.62
653.0846, 18684.27
653.5667, 18659.46
654.0488, 18639.74
654.5309, 18632.92
655.0131, 18641.44
655.4952, 18654.80
655.9773, 18659.31
656.4594, 18655.33
656.9415, 18655.00
657.4236, 18661.58
657.9058, 18662.09
658.3879, 18649.16
658.8700, 18629.07
659.3521, 18603.84
659.8342, 18570.87
660.3163, 18567.15
660.7985, 18640.90
661.2806, 18704.96
661.7627, 18697.85
662.2448, 18647.75
662.7269, 18597.90
663.2090, 18562.37
663.6912, 18538.68
664.1733, 18523.80
664.6554, 18518.52
665.1375, 18530.70
665.6196, 18565.32
666.1017, 18590.21
666.5839, 18596.16
667.0660, 18587.46
667.5481, 18558.30
668.0302, 18509.77
668.5123, 18492.62
668.9944, 18545.19
669.4766, 18589.23
669.9587, 18580.25
670.4408, 18554.19
670.9229, 18560.76
671.4050, 18600.99
671.8871, 18630.15
672.3693, 18607.11
672.8514, 18559.50
673.3335, 18556.32
673.8156, 18597.43
674.2977, 18629.84
674.7798, 18639.39
675.2620, 18644.18
675.7441, 18661.21
676.2262, 18688.85
676.7083, 18708.37
677.1904, 18716.66
677.6725, 18721.85
678.1547, 18723.63
678.6368, 18724.00
679.1189, 18723.68
679.6010, 18723.34
680.0831, 18724.16
680.5652, 18726.72
681.0474, 18730.70
681.5295, 18735.61
682.0116, 18741.53
682.4937, 18749.40
682.9758, 18759.46
683.4579, 18768.83
683.9401, 18774.81
