##NAMES=Pumpellyite-(Mg)
##RRUFFID=R070130
##IDEAL CHEMISTRY=Ca_2_MgAl_2_(SiO_4_)(Si_2_O_7_)(OH)_2_&#183;H_2_O
##LOCALITY=Isle Royale National Park, Lake Superior,  Keweenaw County, Michigan, USA
##OWNER=RRUFF
##SOURCE=Michael Scott
##DESCRIPTION=Green waterworn massive pebble
##STATUS=The identification of this mineral has been made only by X-ray diffraction.
##URL=rruff.info/R070130
164.1631, 15519.40
164.6452, 15591.37
165.1273, 15665.41
165.6094, 15755.79
166.0915, 15842.87
166.5736, 15907.13
167.0558, 15928.79
167.5379, 15936.97
168.0200, 15943.46
168.5021, 15949.16
168.9842, 15966.82
169.4663, 16009.52
169.9485, 16068.53
170.4306, 16131.57
170.9127, 16203.77
171.3948, 16271.75
171.8769, 16321.72
172.3590, 16353.30
172.8412, 16373.00
173.3233, 16373.85
173.8054, 16366.04
174.2875, 16371.02
174.7696, 16404.53
175.2517, 16454.93
175.7339, 16511.52
176.2160, 16577.03
176.6981, 16634.18
177.1802, 16656.66
177.6623, 16653.54
178.1444, 16656.68
178.6266, 16688.59
179.1087, 16738.69
179.5908, 16788.82
180.0729, 16839.75
180.5550, 16882.63
181.0371, 16895.39
181.5193, 16882.77
182.0014, 16877.08
182.4835, 16904.67
182.9656, 16956.44
183.4477, 17006.72
183.9298, 17050.14
184.4120, 17090.75
184.8941, 17137.95
185.3762, 17191.86
185.8583, 17241.42
186.3404, 17274.45
186.8225, 17294.22
187.3047, 17320.58
187.7868, 17363.63
188.2689, 17412.25
188.7510, 17428.22
189.2331, 17408.04
189.7152, 17395.63
190.1974, 17449.19
190.6795, 17561.37
191.1616, 17647.02
191.6437, 17670.92
192.1258, 17649.88
192.6080, 17655.77
193.0901, 17692.95
193.5722, 17736.88
194.0543, 17753.35
194.5364, 17741.80
195.0185, 17746.70
195.5007, 17790.87
195.9828, 17869.10
196.4649, 17929.80
196.9470, 17972.87
197.4291, 18001.44
197.9112, 18013.37
198.3934, 18005.72
198.8755, 18007.84
199.3576, 18033.72
199.8397, 18083.70
200.3218, 18135.86
200.8039, 18194.44
201.2861, 18248.32
201.7682, 18271.87
202.2503, 18256.90
202.7324, 18250.61
203.2145, 18278.74
203.6966, 18346.80
204.1788, 18404.28
204.6609, 18448.74
205.1430, 18483.59
205.6251, 18514.34
206.1072, 18540.11
206.5893, 18564.68
207.0715, 18588.50
207.5536, 18609.86
208.0357, 18639.25
208.5178, 18680.47
208.9999, 18728.02
209.4820, 18767.37
209.9642, 18795.97
210.4463, 18822.61
210.9284, 18850.89
211.4105, 18878.93
211.8926, 18915.83
212.3747, 18966.44
212.8569, 19025.44
213.3390, 19075.68
213.8211, 19117.45
214.3032, 19148.91
214.7853, 19162.27
215.2674, 19142.47
215.7496, 19153.11
216.2317, 19214.05
216.7138, 19312.89
217.1959, 19376.91
217.6780, 19393.43
218.1601, 19396.41
218.6423, 19410.06
219.1244, 19439.05
219.6065, 19466.61
220.0886, 19488.53
220.5707, 19506.31
221.0528, 19535.88
221.5350, 19588.11
222.0171, 19638.05
222.4992, 19660.90
222.9813, 19634.13
223.4634, 19632.25
223.9455, 19675.10
224.4277, 19761.38
224.9098, 19830.65
225.3919, 19884.57
225.8740, 19921.08
226.3561, 19934.83
226.8382, 19908.60
227.3204, 19895.58
227.8025, 19914.05
228.2846, 19965.19
228.7667, 19982.39
229.2488, 19941.57
229.7310, 19891.02
230.2131, 19881.28
230.6952, 19937.17
231.1773, 19986.66
231.6594, 20012.11
232.1415, 20010.67
232.6237, 20024.03
233.1058, 20064.28
233.5879, 20108.43
234.0700, 20129.83
234.5521, 20116.04
235.0342, 20101.69
235.5164, 20090.28
235.9985, 20079.39
236.4806, 20095.13
236.9627, 20154.23
237.4448, 20225.47
237.9269, 20272.54
238.4091, 20289.48
238.8912, 20291.05
239.3733, 20274.09
239.8554, 20231.85
240.3375, 20215.28
240.8196, 20233.82
241.3018, 20270.96
241.7839, 20307.21
242.2660, 20347.09
242.7481, 20377.99
243.2302, 20395.09
243.7123, 20395.87
244.1945, 20396.19
244.6766, 20394.14
245.1587, 20393.01
245.6408, 20397.01
246.1229, 20405.17
246.6050, 20420.12
247.0872, 20442.28
247.5693, 20471.26
248.0514, 20511.66
248.5335, 20576.55
249.0156, 20643.87
249.4977, 20677.95
249.9799, 20663.44
250.4620, 20643.68
250.9441, 20626.48
251.4262, 20606.21
251.9083, 20619.21
252.3904, 20683.96
252.8726, 20768.51
253.3547, 20822.32
253.8368, 20839.11
254.3189, 20837.43
254.8010, 20814.75
255.2831, 20759.45
255.7653, 20743.49
256.2474, 20783.18
256.7295, 20849.58
257.2116, 20895.39
257.6937, 20909.51
258.1758, 20927.01
258.6580, 20964.92
259.1401, 21033.08
259.6222, 21066.19
260.1043, 21047.43
260.5864, 21008.00
261.0685, 20998.06
261.5507, 21025.21
262.0328, 21064.14
262.5149, 21113.15
262.9970, 21178.59
263.4791, 21211.63
263.9612, 21196.78
264.4434, 21165.56
264.9255, 21170.94
265.4076, 21226.62
265.8897, 21280.39
266.3718, 21311.68
266.8539, 21315.74
267.3361, 21335.26
267.8182, 21374.03
268.3003, 21423.36
268.7824, 21473.97
269.2645, 21529.58
269.7466, 21572.95
270.2288, 21593.29
270.7109, 21587.64
271.1930, 21601.76
271.6751, 21643.04
272.1572, 21693.30
272.6393, 21726.39
273.1215, 21740.07
273.6036, 21746.21
274.0857, 21743.17
274.5678, 21730.60
275.0499, 21742.76
275.5320, 21787.73
276.0142, 21842.26
276.4963, 21870.10
276.9784, 21866.14
277.4605, 21870.22
277.9426, 21899.26
278.4247, 21951.43
278.9069, 21998.82
279.3890, 22042.53
279.8711, 22077.82
280.3532, 22095.66
280.8354, 22094.92
281.3175, 22092.11
281.7996, 22086.68
282.2817, 22081.72
282.7638, 22108.18
283.2459, 22173.47
283.7281, 22243.62
284.2102, 22269.54
284.6923, 22251.85
285.1744, 22247.94
285.6565, 22284.66
286.1386, 22351.25
286.6208, 22399.52
287.1029, 22428.04
287.5850, 22446.53
288.0671, 22467.29
288.5492, 22489.15
289.0313, 22499.56
289.5135, 22483.00
289.9956, 22454.45
290.4777, 22468.28
290.9598, 22527.87
291.4419, 22589.20
291.9240, 22595.36
292.4062, 22559.44
292.8883, 22548.76
293.3704, 22599.00
293.8525, 22679.22
294.3346, 22721.97
294.8167, 22726.60
295.2989, 22722.32
295.7810, 22733.63
296.2631, 22756.63
296.7452, 22780.86
297.2273, 22807.59
297.7094, 22829.89
298.1916, 22830.24
298.6737, 22810.51
299.1558, 22796.18
299.6379, 22811.80
300.1200, 22847.11
300.6021, 22880.83
301.0843, 22903.11
301.5664, 22926.11
302.0485, 22968.83
302.5306, 23028.54
303.0127, 23085.52
303.4948, 23129.27
303.9770, 23161.36
304.4591, 23185.09
304.9412, 23201.48
305.4233, 23208.78
305.9054, 23194.02
306.3875, 23164.90
306.8697, 23150.63
307.3518, 23181.31
307.8339, 23231.36
308.3160, 23272.05
308.7981, 23293.69
309.2802, 23312.94
309.7624, 23337.96
310.2445, 23369.30
310.7266, 23408.09
311.2087, 23466.65
311.6908, 23526.65
312.1729, 23575.23
312.6551, 23613.23
313.1372, 23632.97
313.6193, 23618.05
314.1014, 23582.00
314.5835, 23552.14
315.0656, 23527.60
315.5478, 23520.82
316.0299, 23544.25
316.5120, 23608.02
316.9941, 23670.87
317.4762, 23731.16
317.9583, 23777.69
318.4405, 23793.86
318.9226, 23722.86
319.4047, 23663.23
319.8868, 23663.93
320.3689, 23742.52
320.8510, 23814.65
321.3332, 23857.47
321.8153, 23883.90
322.2974, 23910.13
322.7795, 23960.13
323.2616, 23990.12
323.7437, 23973.55
324.2259, 23899.27
324.7080, 23861.39
325.1901, 23903.92
325.6722, 23971.32
326.1543, 24012.82
326.6364, 23987.27
327.1186, 23978.01
327.6007, 24005.30
328.0828, 24070.01
328.5649, 24117.24
329.0470, 24136.27
329.5291, 24145.50
330.0113, 24158.23
330.4934, 24180.82
330.9755, 24197.07
331.4576, 24203.41
331.9397, 24201.18
332.4218, 24199.61
332.9040, 24195.07
333.3861, 24195.74
333.8682, 24209.39
334.3503, 24247.70
334.8324, 24268.07
335.3145, 24258.63
335.7967, 24231.61
336.2788, 24226.27
336.7609, 24243.42
337.2430, 24280.40
337.7251, 24348.97
338.2072, 24465.14
338.6894, 24515.58
339.1715, 24469.51
339.6536, 24386.37
340.1357, 24400.08
340.6178, 24527.88
341.0999, 24655.70
341.5821, 24735.10
342.0642, 24765.45
342.5463, 24770.56
343.0284, 24744.23
343.5105, 24709.26
343.9926, 24693.50
344.4748, 24696.96
344.9569, 24721.99
345.4390, 24781.37
345.9211, 24863.80
346.4032, 24925.15
346.8853, 24963.60
347.3675, 24995.49
347.8496, 25040.50
348.3317, 25093.83
348.8138, 25137.36
349.2959, 25156.78
349.7780, 25167.21
350.2602, 25195.78
350.7423, 25241.92
351.2244, 25293.90
351.7065, 25340.63
352.1887, 25386.91
352.6708, 25442.85
353.1529, 25522.53
353.6350, 25598.12
354.1171, 25636.56
354.5992, 25644.71
355.0814, 25650.67
355.5635, 25678.38
356.0456, 25710.08
356.5277, 25724.76
357.0098, 25710.55
357.4919, 25696.33
357.9741, 25698.57
358.4562, 25714.40
358.9383, 25737.54
359.4204, 25763.51
359.9025, 25796.94
360.3846, 25847.74
360.8668, 25926.63
361.3489, 25984.58
361.8310, 25979.46
362.3131, 25946.95
362.7952, 25936.73
363.2773, 25982.77
363.7595, 26035.14
364.2416, 26073.32
364.7237, 26093.20
365.2058, 26125.82
365.6879, 26199.46
366.1700, 26276.92
366.6522, 26324.56
367.1343, 26315.06
367.6164, 26301.93
368.0985, 26286.58
368.5806, 26269.84
369.0627, 26270.94
369.5449, 26305.54
370.0270, 26344.70
370.5091, 26371.70
370.9912, 26381.26
371.4733, 26387.29
371.9554, 26384.88
372.4376, 26379.91
372.9197, 26395.26
373.4018, 26440.92
373.8839, 26488.11
374.3660, 26524.70
374.8481, 26550.25
375.3303, 26563.06
375.8124, 26556.02
376.2945, 26544.46
376.7766, 26561.50
377.2587, 26613.54
377.7408, 26656.06
378.2230, 26667.36
378.7051, 26650.33
379.1872, 26642.90
379.6693, 26647.46
380.1514, 26652.47
380.6335, 26638.31
381.1157, 26607.96
381.5978, 26593.12
382.0799, 26616.13
382.5620, 26654.13
383.0441, 26644.86
383.5262, 26589.38
384.0084, 26540.36
384.4905, 26550.70
384.9726, 26599.10
385.4547, 26635.14
385.9368, 26643.58
386.4189, 26644.44
386.9011, 26663.84
387.3832, 26696.33
387.8653, 26721.20
388.3474, 26710.31
388.8295, 26693.38
389.3116, 26705.51
389.7938, 26758.72
390.2759, 26813.08
390.7580, 26847.35
391.2401, 26865.65
391.7222, 26875.38
392.2043, 26872.08
392.6865, 26867.04
393.1686, 26865.63
393.6507, 26868.44
394.1328, 26873.19
394.6149, 26881.12
395.0970, 26889.77
395.5792, 26896.88
396.0613, 26885.83
396.5434, 26890.47
397.0255, 26922.07
397.5076, 26978.43
397.9897, 27037.81
398.4719, 27132.80
398.9540, 27204.53
399.4361, 27221.58
399.9182, 27119.18
400.4003, 27063.23
400.8824, 27077.79
401.3646, 27134.55
401.8467, 27161.98
402.3288, 27137.83
402.8109, 27125.16
403.2930, 27150.51
403.7751, 27220.38
404.2573, 27286.69
404.7394, 27352.41
405.2215, 27410.12
405.7036, 27447.91
406.1857, 27464.10
406.6678, 27472.05
407.1500, 27467.81
407.6321, 27458.88
408.1142, 27490.73
408.5963, 27568.84
409.0784, 27637.37
409.5605, 27626.40
410.0427, 27556.37
410.5248, 27529.12
411.0069, 27567.95
411.4890, 27648.27
411.9711, 27752.08
412.4532, 27871.87
412.9354, 27967.72
413.4175, 27994.27
413.8996, 27988.17
414.3817, 28003.39
414.8638, 28049.56
415.3459, 28090.67
415.8281, 28089.42
416.3102, 28063.80
416.7923, 28043.78
417.2744, 28028.95
417.7565, 28034.70
418.2386, 28083.47
418.7208, 28173.23
419.2029, 28250.19
419.6850, 28296.73
420.1671, 28318.84
420.6492, 28321.34
421.1313, 28270.88
421.6135, 28241.35
422.0956, 28257.91
422.5777, 28308.61
423.0598, 28353.68
423.5420, 28388.63
424.0241, 28416.37
424.5062, 28436.62
424.9883, 28442.64
425.4704, 28459.28
425.9525, 28504.14
426.4347, 28549.49
426.9168, 28552.74
427.3989, 28483.66
427.8810, 28434.12
428.3631, 28429.14
428.8452, 28466.40
429.3274, 28513.55
429.8095, 28581.27
430.2916, 28630.64
430.7737, 28612.59
431.2558, 28523.05
431.7379, 28468.08
432.2201, 28469.10
432.7022, 28506.32
433.1843, 28538.95
433.6664, 28567.19
434.1485, 28603.34
434.6306, 28673.53
435.1128, 28756.12
435.5949, 28787.50
436.0770, 28759.29
436.5591, 28714.30
437.0412, 28685.76
437.5233, 28674.68
438.0055, 28683.87
438.4876, 28737.85
438.9697, 28796.68
439.4518, 28820.11
439.9339, 28812.08
440.4160, 28800.97
440.8982, 28781.79
441.3803, 28777.96
441.8624, 28813.31
442.3445, 28918.99
442.8266, 29019.19
443.3087, 29100.91
443.7909, 29157.96
444.2730, 29176.34
444.7551, 29107.93
445.2372, 29041.51
445.7193, 29007.07
446.2014, 29010.29
446.6836, 29029.19
447.1657, 29073.01
447.6478, 29125.79
448.1299, 29173.74
448.6120, 29218.31
449.0941, 29254.16
449.5763, 29276.73
450.0584, 29289.48
450.5405, 29310.78
451.0226, 29345.29
451.5047, 29377.04
451.9868, 29391.83
452.4690, 29387.23
452.9511, 29403.00
453.4332, 29444.54
453.9153, 29498.34
454.3974, 29549.64
454.8795, 29597.83
455.3617, 29628.57
455.8438, 29636.49
456.3259, 29623.27
456.8080, 29577.13
457.2901, 29499.95
457.7722, 29442.85
458.2544, 29463.29
458.7365, 29529.28
459.2186, 29589.42
459.7007, 29633.49
460.1828, 29666.14
460.6649, 29683.56
461.1471, 29692.02
461.6292, 29707.19
462.1113, 29749.12
462.5934, 29790.43
463.0755, 29812.29
463.5576, 29810.35
464.0398, 29809.30
464.5219, 29812.50
465.0040, 29822.01
465.4861, 29839.82
465.9682, 29857.32
466.4503, 29893.29
466.9325, 29967.94
467.4146, 30069.44
467.8967, 30134.73
468.3788, 30140.54
468.8609, 30139.41
469.3430, 30157.55
469.8252, 30205.15
470.3073, 30235.24
470.7894, 30242.31
471.2715, 30239.10
471.7536, 30242.90
472.2357, 30253.92
472.7179, 30269.15
473.2000, 30280.91
473.6821, 30297.74
474.1642, 30366.37
474.6463, 30489.29
475.1284, 30600.56
475.6106, 30645.03
476.0927, 30636.51
476.5748, 30600.81
477.0569, 30526.75
477.5390, 30472.06
478.0211, 30520.02
478.5033, 30637.50
478.9854, 30743.80
479.4675, 30808.26
479.9496, 30838.95
480.4317, 30818.09
480.9138, 30746.82
481.3960, 30714.68
481.8781, 30800.24
482.3602, 30922.04
482.8423, 31012.05
483.3244, 31032.26
483.8065, 31050.78
484.2887, 31079.28
484.7708, 31114.56
485.2529, 31147.91
485.7350, 31181.85
486.2171, 31211.08
486.6992, 31235.39
487.1814, 31255.78
487.6635, 31260.57
488.1456, 31238.42
488.6277, 31215.84
489.1098, 31226.95
489.5919, 31282.59
490.0741, 31304.35
490.5562, 31263.34
491.0383, 31194.36
491.5204, 31198.78
492.0026, 31277.61
492.4847, 31360.81
492.9668, 31406.50
493.4489, 31425.28
493.9310, 31447.01
494.4131, 31473.73
494.8953, 31495.34
495.3774, 31500.13
495.8595, 31492.96
496.3416, 31481.92
496.8237, 31459.44
497.3058, 31445.11
497.7880, 31457.55
498.2701, 31491.11
498.7522, 31525.42
499.2343, 31548.42
499.7164, 31571.40
500.1985, 31606.49
500.6807, 31666.20
501.1628, 31699.18
501.6449, 31673.36
502.1270, 31625.99
502.6091, 31600.49
503.0912, 31615.95
503.5734, 31627.19
504.0555, 31622.62
504.5376, 31607.65
505.0197, 31612.83
505.5018, 31645.57
505.9839, 31682.38
506.4661, 31705.70
506.9482, 31712.86
507.4303, 31752.51
507.9124, 31837.31
508.3945, 31921.76
508.8766, 31932.95
509.3588, 31882.09
509.8409, 31843.73
510.3230, 31845.79
510.8051, 31869.59
511.2872, 31881.31
511.7693, 31884.58
512.2515, 31902.02
512.7336, 31975.27
513.2157, 32056.71
513.6978, 32089.27
514.1799, 32055.38
514.6620, 32020.26
515.1442, 32005.84
515.6263, 32015.06
516.1084, 32051.52
516.5905, 32174.70
517.0726, 32264.13
517.5547, 32261.68
518.0369, 32182.27
518.5190, 32145.26
519.0011, 32187.24
519.4832, 32239.10
519.9653, 32268.13
520.4474, 32258.12
520.9296, 32286.35
521.4117, 32376.34
521.8938, 32473.45
522.3759, 32497.28
522.8580, 32435.81
523.3401, 32394.63
523.8223, 32397.25
524.3044, 32436.58
524.7865, 32510.71
525.2686, 32616.73
525.7507, 32704.03
526.2328, 32725.58
526.7150, 32708.78
527.1971, 32702.89
527.6792, 32711.59
528.1613, 32734.37
528.6434, 32783.40
529.1255, 32842.80
529.6077, 32891.16
530.0898, 32921.93
530.5719, 32939.13
531.0540, 32935.76
531.5361, 32918.52
532.0182, 32911.18
532.5004, 32916.43
532.9825, 32935.79
533.4646, 32973.64
533.9467, 33037.53
534.4288, 33091.31
534.9109, 33126.24
535.3931, 33159.26
535.8752, 33213.89
536.3573, 33311.86
536.8394, 33357.18
537.3215, 33318.35
537.8036, 33235.21
538.2858, 33208.54
538.7679, 33240.14
539.2500, 33297.30
539.7321, 33381.06
540.2142, 33477.91
540.6964, 33543.33
541.1785, 33576.75
541.6606, 33590.78
542.1427, 33588.41
542.6248, 33575.50
543.1069, 33556.59
543.5891, 33517.55
544.0712, 33504.61
544.5533, 33588.28
545.0354, 33717.48
545.5175, 33792.12
545.9996, 33720.14
546.4818, 33639.76
546.9639, 33605.49
547.4460, 33621.28
547.9281, 33643.66
548.4102, 33681.38
548.8923, 33713.95
549.3745, 33730.16
549.8566, 33726.47
550.3387, 33708.82
550.8208, 33656.20
551.3029, 33612.57
551.7850, 33676.07
552.2672, 33864.56
552.7493, 33980.67
553.2314, 33933.14
553.7135, 33791.58
554.1956, 33757.96
554.6777, 33827.38
555.1599, 33908.39
555.6420, 33942.45
556.1241, 33944.63
556.6062, 33929.57
557.0883, 33894.80
557.5704, 33875.34
558.0526, 33910.46
558.5347, 33971.31
559.0168, 34021.99
559.4989, 34050.06
559.9810, 34065.61
560.4631, 34059.54
560.9453, 34041.07
561.4274, 34041.43
561.9095, 34097.65
562.3916, 34140.30
562.8737, 34133.49
563.3558, 34064.09
563.8380, 34071.21
564.3201, 34191.65
564.8022, 34329.18
565.2843, 34399.91
565.7664, 34398.47
566.2485, 34390.02
566.7307, 34377.52
567.2128, 34370.35
567.6949, 34396.51
568.1770, 34448.14
568.6591, 34478.26
569.1412, 34436.85
569.6234, 34379.38
570.1055, 34389.51
570.5876, 34459.41
571.0697, 34529.02
571.5518, 34553.27
572.0339, 34567.11
572.5161, 34600.54
572.9982, 34664.80
573.4803, 34725.63
573.9624, 34773.98
574.4445, 34813.04
574.9266, 34844.91
575.4088, 34862.69
575.8909, 34883.61
576.3730, 34910.67
576.8551, 34941.80
577.3372, 34970.10
577.8193, 34993.61
578.3015, 35019.53
578.7836, 35057.91
579.2657, 35105.33
579.7478, 35115.39
580.2299, 35083.03
580.7120, 35057.08
581.1942, 35098.39
581.6763, 35181.68
582.1584, 35237.02
582.6405, 35242.80
583.1226, 35242.83
583.6047, 35281.08
584.0869, 35342.18
584.5690, 35397.56
585.0511, 35441.83
585.5332, 35471.80
586.0153, 35476.97
586.4974, 35462.00
586.9796, 35458.60
587.4617, 35480.23
587.9438, 35507.99
588.4259, 35532.57
588.9080, 35549.11
589.3901, 35583.42
589.8723, 35646.09
590.3544, 35711.62
590.8365, 35752.95
591.3186, 35768.88
591.8007, 35773.94
592.2828, 35764.67
592.7650, 35755.40
593.2471, 35776.69
593.7292, 35824.39
594.2113, 35872.07
594.6934, 35918.13
595.1755, 35951.29
595.6577, 35938.77
596.1398, 35889.09
596.6219, 35871.20
597.1040, 35950.93
597.5862, 36061.41
598.0683, 36158.81
598.5504, 36241.38
599.0325, 36291.89
599.5146, 36279.15
599.9968, 36244.69
600.4789, 36234.63
600.9610, 36282.46
601.4431, 36293.53
601.9252, 36232.35
602.4073, 36140.45
602.8895, 36135.80
603.3716, 36237.47
603.8537, 36321.50
604.3358, 36324.38
604.8179, 36270.49
605.3000, 36258.93
605.7822, 36289.61
606.2643, 36315.72
606.7464, 36291.23
607.2285, 36243.23
607.7106, 36205.27
608.1927, 36178.38
608.6749, 36183.86
609.1570, 36280.01
609.6391, 36401.01
610.1212, 36464.93
610.6033, 36398.79
611.0854, 36333.21
611.5676, 36286.16
612.0497, 36259.63
612.5318, 36259.09
613.0139, 36290.77
613.4960, 36340.53
613.9781, 36419.05
614.4603, 36520.59
614.9424, 36540.33
615.4245, 36460.23
615.9066, 36380.44
616.3887, 36400.06
616.8708, 36489.50
617.3530, 36500.79
617.8351, 36410.22
618.3172, 36316.30
618.7993, 36322.40
619.2814, 36390.52
619.7635, 36457.08
620.2457, 36509.58
620.7278, 36545.05
621.2099, 36547.71
621.6920, 36532.41
622.1741, 36533.04
622.6563, 36569.01
623.1384, 36611.06
623.6205, 36658.28
624.1026, 36709.34
624.5847, 36730.01
625.0668, 36702.45
625.5490, 36675.86
626.0311, 36683.26
626.5132, 36726.99
626.9953, 36752.57
627.4774, 36754.65
627.9595, 36759.13
628.4417, 36801.24
628.9238, 36870.10
629.4059, 36931.02
629.8880, 36977.59
630.3701, 37011.22
630.8522, 37032.09
631.3344, 37041.02
631.8165, 37040.10
632.2986, 37004.16
632.7807, 36983.62
633.2628, 37012.82
633.7449, 37084.61
634.2271, 37135.45
634.7092, 37140.72
635.1913, 37144.28
635.6734, 37165.31
636.1555, 37207.63
636.6376, 37233.11
637.1198, 37238.82
637.6019, 37234.68
638.0840, 37223.78
638.5661, 37207.99
639.0482, 37207.32
639.5303, 37225.76
640.0125, 37254.54
640.4946, 37290.27
640.9767, 37327.45
641.4588, 37354.75
641.9409, 37368.90
642.4230, 37370.28
642.9052, 37334.19
643.3873, 37282.84
643.8694, 37279.54
644.3515, 37404.00
644.8336, 37520.75
645.3157, 37572.82
645.7979, 37560.81
646.2800, 37558.47
646.7621, 37561.32
647.2442, 37581.31
647.7263, 37638.91
648.2084, 37740.61
648.6906, 37786.05
649.1727, 37766.19
649.6548, 37721.77
650.1369, 37672.96
650.6190, 37635.02
651.1011, 37661.95
651.5833, 37792.89
652.0654, 37927.48
652.5475, 37972.41
653.0296, 37957.13
653.5117, 37934.72
653.9938, 37909.90
654.4760, 37896.55
654.9581, 37900.86
655.4402, 37921.71
655.9223, 37952.73
656.4044, 38003.69
656.8865, 38050.55
657.3687, 38084.27
657.8508, 38104.84
658.3329, 38124.16
658.8150, 38141.33
659.2971, 38161.07
659.7792, 38188.85
660.2614, 38222.96
660.7435, 38259.38
661.2256, 38300.45
