##NAMES=Pumpellyite-(Mg)
##RRUFFID=R120172
##IDEAL CHEMISTRY=Ca_2_MgAl_2_(SiO_4_)(Si_2_O_7_)(OH)_2_&#183;H_2_O
##LOCALITY=Archidona, Malaga Province, Spain
##OWNER=RRUFF
##SOURCE=Bob Jenkins
##DESCRIPTION=Aggregates of dark-green acicular crystals, associated with light green epidote
##STATUS=The identification of this mineral has been confirmed only by single crystal X-ray diffraction.
##URL=rruff.info/R120172
118.2281, 923.8515
118.7102, 918.1449
119.1923, 911.9913
119.6744, 906.8443
120.1566, 902.7858
120.6387, 899.9183
121.1208, 898.3231
121.6029, 897.9424
122.0850, 898.7180
122.5671, 901.9777
123.0493, 905.7432
123.5314, 907.8275
124.0135, 907.4465
124.4956, 906.3370
124.9777, 905.8132
125.4598, 905.8396
125.9420, 906.3669
126.4241, 907.0641
126.9062, 908.2512
127.3883, 910.6371
127.8704, 914.6946
128.3525, 919.5587
128.8347, 924.1624
129.3168, 928.5121
129.7989, 932.4329
130.2810, 935.9875
130.7631, 939.0671
131.2452, 941.3961
131.7274, 943.0181
132.2095, 943.7997
132.6916, 943.4306
133.1737, 941.9132
133.6558, 939.1710
134.1379, 934.3601
134.6201, 927.5317
135.1022, 921.5916
135.5843, 917.5879
136.0664, 915.2972
136.5485, 913.0721
137.0306, 910.6907
137.5128, 908.8951
137.9949, 908.8398
138.4770, 910.9059
138.9591, 912.8392
139.4412, 914.0490
139.9233, 914.5278
140.4055, 913.9098
140.8876, 911.5781
141.3697, 908.7442
141.8518, 907.3911
142.3339, 907.7938
142.8160, 909.0305
143.2982, 911.0176
143.7803, 914.2558
144.2624, 916.4924
144.7445, 917.1154
145.2266, 916.9340
145.7087, 917.8546
146.1909, 920.9059
146.6730, 923.7853
147.1551, 925.5510
147.6372, 925.1774
148.1193, 925.4280
148.6014, 926.6223
149.0836, 928.4958
149.5657, 930.1731
150.0478, 931.6323
150.5299, 932.8838
151.0120, 933.9343
151.4941, 934.2335
151.9763, 934.9482
152.4584, 936.5320
152.9405, 938.7100
153.4226, 940.1631
153.9047, 940.0326
154.3868, 939.6331
154.8690, 939.6784
155.3511, 941.6024
155.8332, 942.5269
156.3153, 941.2339
156.7974, 938.0781
157.2795, 935.9336
157.7617, 936.3134
158.2438, 937.4695
158.7259, 938.1415
159.2080, 937.4112
159.6901, 936.7913
160.1722, 936.6547
160.6544, 937.0164
161.1365, 937.8427
161.6186, 939.7079
162.1007, 941.7811
162.5828, 943.3360
163.0649, 944.3946
163.5471, 944.6346
164.0292, 943.5707
164.5113, 941.1807
164.9934, 938.8011
165.4755, 937.0154
165.9576, 935.6198
166.4398, 934.3871
166.9219, 933.2464
167.4040, 932.1932
167.8861, 931.1253
168.3682, 930.0095
168.8503, 929.2919
169.3325, 929.6135
169.8146, 930.4941
170.2967, 931.1522
170.7788, 931.5164
171.2609, 931.3761
171.7430, 930.3414
172.2252, 928.3029
172.7073, 926.1884
173.1894, 924.4083
173.6715, 923.0803
174.1536, 922.5043
174.6357, 923.3395
175.1179, 924.7675
175.6000, 925.8109
176.0821, 926.3500
176.5642, 926.6799
177.0463, 926.8252
177.5284, 926.9334
178.0106, 927.4504
178.4927, 929.0118
178.9748, 931.0550
179.4569, 932.5189
179.9390, 933.2187
180.4211, 933.7473
180.9033, 934.7527
181.3854, 936.2035
181.8675, 937.8929
182.3496, 940.0432
182.8317, 942.3344
183.3138, 944.0129
183.7960, 944.8568
184.2781, 945.4269
184.7602, 946.7330
185.2423, 948.6530
185.7244, 950.0947
186.2065, 950.1267
186.6887, 949.0763
187.1708, 948.1310
187.6529, 947.3454
188.1350, 946.8405
188.6171, 947.0690
189.0992, 948.0060
189.5814, 948.7850
190.0635, 948.6526
190.5456, 947.7693
191.0277, 947.1905
191.5098, 946.9767
191.9919, 947.2087
192.4741, 948.0587
192.9562, 949.5245
193.4383, 951.5298
193.9204, 954.5621
194.4025, 958.4925
194.8846, 960.9193
195.3668, 961.1113
195.8489, 960.1452
196.3310, 960.7623
196.8131, 963.1498
197.2952, 965.6644
197.7773, 967.1619
198.2595, 967.6042
198.7416, 968.1000
199.2237, 968.8182
199.7058, 969.6389
200.1879, 970.1038
200.6700, 970.1041
201.1522, 970.2963
201.6343, 971.3562
202.1164, 973.4286
202.5985, 974.8923
203.0806, 975.4016
203.5627, 975.2480
204.0449, 975.2986
204.5270, 975.5436
205.0091, 976.0023
205.4912, 976.7245
205.9733, 977.7425
206.4554, 978.8328
206.9376, 980.0801
207.4197, 981.3463
207.9018, 982.0732
208.3839, 982.1003
208.8660, 982.0134
209.3481, 982.1713
209.8303, 982.5752
210.3124, 983.2889
210.7945, 984.3962
211.2766, 985.8214
211.7587, 987.3163
212.2408, 988.9804
212.7230, 990.5254
213.2051, 991.7393
213.6872, 992.5159
214.1693, 993.2507
214.6514, 993.8119
215.1335, 994.3390
215.6157, 995.5812
216.0978, 997.8276
216.5799, 1000.216
217.0620, 1002.282
217.5441, 1004.113
218.0262, 1005.291
218.5084, 1005.624
218.9905, 1005.265
219.4726, 1004.964
219.9547, 1004.712
220.4368, 1004.548
220.9189, 1004.532
221.4011, 1004.771
221.8832, 1004.971
222.3653, 1005.288
222.8474, 1005.577
223.3295, 1005.148
223.8116, 1003.962
224.2938, 1002.164
224.7759, 999.6381
225.2580, 995.7180
225.7401, 992.8033
226.2222, 991.5769
226.7043, 991.4736
227.1865, 990.0093
227.6686, 986.6928
228.1507, 982.7751
228.6328, 978.9650
229.1149, 975.3268
229.5970, 971.6449
230.0792, 967.8244
230.5613, 963.9609
231.0434, 960.6054
231.5255, 958.1547
232.0076, 955.7233
232.4897, 952.7156
232.9719, 948.3195
233.4540, 945.3203
233.9361, 944.4922
234.4182, 945.0922
234.9003, 944.4397
235.3824, 941.9540
235.8646, 939.0479
236.3467, 936.2557
236.8288, 933.0551
237.3109, 931.2119
237.7930, 931.5161
238.2751, 933.0652
238.7573, 933.0107
239.2394, 930.2694
239.7215, 927.4418
240.2036, 925.7087
240.6857, 925.6072
241.1678, 925.3668
241.6500, 925.0202
242.1321, 924.5141
242.6142, 923.7039
243.0963, 922.5521
243.5784, 921.1473
244.0605, 919.4316
244.5427, 916.9801
245.0248, 915.3307
245.5069, 914.7870
245.9890, 914.9365
246.4711, 914.9124
246.9532, 914.7683
247.4354, 914.3883
247.9175, 913.6728
248.3996, 912.4376
248.8817, 911.5320
249.3638, 911.1768
249.8459, 911.0490
250.3281, 910.4335
250.8102, 908.7297
251.2923, 907.6252
251.7744, 907.9523
252.2565, 910.3098
252.7386, 911.5026
253.2208, 910.9396
253.7029, 909.6496
254.1850, 909.2646
254.6671, 910.1563
255.1492, 911.2103
255.6313, 912.0842
256.1135, 912.7274
256.5956, 913.3886
257.0777, 913.9662
257.5598, 914.6162
258.0419, 915.6195
258.5240, 917.1985
259.0062, 918.5444
259.4883, 919.2423
259.9704, 919.1801
260.4525, 920.0887
260.9346, 922.5280
261.4167, 925.2340
261.8989, 926.6068
262.3810, 926.0402
262.8631, 925.7714
263.3452, 926.3849
263.8273, 927.9003
264.3094, 929.3605
264.7916, 930.7465
265.2737, 932.1877
265.7558, 933.7864
266.2379, 935.4732
266.7200, 937.5928
267.2021, 940.4474
267.6843, 943.8976
268.1664, 946.5408
268.6485, 947.9909
269.1306, 949.4059
269.6127, 951.8236
270.0948, 955.4528
270.5770, 959.0334
271.0591, 962.2968
271.5412, 965.3013
272.0233, 968.5759
272.5054, 972.2413
272.9875, 975.6559
273.4697, 978.3596
273.9518, 980.3438
274.4339, 981.7832
274.9160, 982.6868
275.3981, 983.0697
275.8802, 982.8216
276.3624, 981.7895
276.8445, 980.7756
277.3266, 980.5236
277.8087, 981.1434
278.2908, 980.9188
278.7729, 979.5906
279.2551, 977.5058
279.7372, 975.4083
280.2193, 973.2930
280.7014, 971.1804
281.1835, 968.8300
281.6656, 966.2590
282.1478, 964.6507
282.6299, 964.1949
283.1120, 964.4294
283.5941, 964.8254
284.0762, 965.4130
284.5583, 965.5336
285.0405, 964.6136
285.5226, 962.7985
286.0047, 961.4232
286.4868, 960.5141
286.9689, 959.9766
287.4510, 959.8839
287.9332, 960.2006
288.4153, 960.2568
288.8974, 959.7474
289.3795, 958.7623
289.8616, 957.6710
290.3438, 956.4888
290.8259, 955.0775
291.3080, 953.2359
291.7901, 951.0144
292.2722, 948.5916
292.7543, 945.9094
293.2365, 943.1411
293.7186, 940.8604
294.2007, 939.0970
294.6828, 937.2105
295.1649, 934.3348
295.6470, 930.8344
296.1292, 927.8035
296.6113, 925.5762
297.0934, 923.9562
297.5755, 922.9518
298.0576, 922.4752
298.5397, 921.6381
299.0219, 919.3707
299.5040, 916.2859
299.9861, 913.7498
300.4682, 912.1215
300.9503, 910.9517
301.4324, 909.7291
301.9146, 908.5069
302.3967, 907.4315
302.8788, 906.6703
303.3609, 906.1044
303.8430, 905.5157
304.3251, 904.8070
304.8073, 904.3278
305.2894, 904.5237
305.7715, 905.2013
306.2536, 905.9028
306.7357, 906.4577
307.2178, 906.8583
307.7000, 906.9346
308.1821, 906.6016
308.6642, 906.5239
309.1463, 907.5903
309.6284, 909.1530
310.1105, 910.2227
310.5927, 909.6953
311.0748, 908.9975
311.5569, 909.3045
312.0390, 910.6345
312.5211, 911.8295
313.0032, 912.0895
313.4854, 911.9534
313.9675, 911.9896
314.4496, 912.7089
314.9317, 913.3789
315.4138, 913.5823
315.8959, 913.4019
316.3781, 913.3065
316.8602, 913.9158
317.3423, 914.4644
317.8244, 914.3547
318.3065, 912.9682
318.7886, 911.6143
319.2708, 910.8233
319.7529, 910.4089
320.2350, 909.8435
320.7171, 908.5982
321.1992, 907.4368
321.6813, 906.8427
322.1635, 907.3409
322.6456, 907.3055
323.1277, 906.0145
323.6098, 904.0469
324.0919, 902.3689
324.5740, 901.5920
325.0562, 900.7159
325.5383, 899.3242
326.0204, 897.1762
326.5025, 895.4366
326.9846, 894.5029
327.4667, 893.8983
327.9489, 893.1047
328.4310, 891.8846
328.9131, 890.7594
329.3952, 889.7427
329.8773, 888.8353
330.3594, 888.3066
330.8416, 888.2990
331.3237, 888.5605
331.8058, 888.9210
332.2879, 889.3961
332.7700, 889.9193
333.2521, 890.3436
333.7343, 890.7838
334.2164, 891.9361
334.6985, 894.3517
335.1806, 896.5790
335.6627, 897.6010
336.1448, 896.5754
336.6270, 896.9258
337.1091, 898.9990
337.5912, 902.2831
338.0733, 906.0626
338.5554, 910.6740
339.0375, 914.5706
339.5197, 916.7327
340.0018, 916.9858
340.4839, 918.5901
340.9660, 921.7647
341.4481, 925.7430
341.9302, 929.5392
342.4124, 933.1679
342.8945, 936.8030
343.3766, 940.5535
343.8587, 944.3527
344.3408, 948.0477
344.8229, 951.5993
345.3051, 955.1762
345.7872, 958.9594
346.2693, 962.9037
346.7514, 966.8109
347.2335, 970.4972
347.7156, 974.2697
348.1978, 978.8555
348.6799, 984.1913
349.1620, 989.3900
349.6441, 993.9613
350.1262, 997.9636
350.6083, 1001.427
351.0905, 1004.318
351.5726, 1006.972
352.0547, 1009.886
352.5368, 1012.915
353.0189, 1015.624
353.5010, 1017.951
353.9832, 1019.756
354.4653, 1020.845
354.9474, 1021.211
355.4295, 1021.003
355.9116, 1020.041
356.3937, 1018.637
356.8759, 1017.273
357.3580, 1016.064
357.8401, 1014.991
358.3222, 1014.157
358.8043, 1013.501
359.2864, 1012.709
359.7686, 1011.527
360.2507, 1010.176
360.7328, 1008.829
361.2149, 1007.373
361.6970, 1006.155
362.1791, 1005.437
362.6613, 1005.050
363.1434, 1004.615
363.6255, 1003.938
364.1076, 1003.225
364.5897, 1002.623
365.0718, 1002.273
365.5540, 1001.612
366.0361, 999.9390
366.5182, 998.1055
367.0003, 997.1358
367.4824, 998.5312
367.9645, 999.3948
368.4467, 998.6930
368.9288, 996.3333
369.4109, 995.1068
369.8930, 996.0555
370.3751, 997.3665
370.8572, 997.8467
371.3394, 997.2452
371.8215, 996.1811
372.3036, 994.0457
372.7857, 991.4932
373.2678, 991.1182
373.7499, 994.3776
374.2321, 997.1992
374.7142, 997.3615
375.1963, 993.9640
375.6784, 991.7773
376.1605, 991.1526
376.6426, 991.2924
377.1248, 990.9246
377.6069, 989.9011
378.0890, 989.2318
378.5711, 989.4612
379.0532, 990.3998
379.5353, 990.6016
380.0175, 989.9952
380.4996, 989.0370
380.9817, 987.8398
381.4638, 986.5157
381.9459, 986.0833
382.4280, 987.0552
382.9102, 988.6179
383.3923, 989.0784
383.8744, 988.5345
384.3565, 988.0102
384.8386, 988.4287
385.3207, 989.2882
385.8029, 989.4447
386.2850, 988.6779
386.7671, 987.7813
387.2492, 987.7860
387.7313, 988.2932
388.2134, 988.3936
388.6956, 987.3691
389.1777, 985.9691
389.6598, 984.8727
390.1419, 984.0848
390.6240, 983.2800
391.1061, 982.3392
391.5883, 981.2557
392.0704, 979.9704
392.5525, 978.0137
393.0346, 976.5091
393.5167, 976.3463
393.9988, 977.0743
394.4810, 977.4122
394.9631, 976.5289
395.4452, 975.4455
395.9273, 974.6354
396.4094, 974.1525
396.8915, 973.9352
397.3737, 974.0775
397.8558, 974.4310
398.3379, 974.8144
398.8200, 975.1580
399.3021, 975.5564
399.7842, 976.1375
400.2664, 976.8886
400.7485, 977.1718
401.2306, 976.3500
401.7127, 975.6517
402.1948, 975.8990
402.6769, 977.5465
403.1591, 979.1905
403.6412, 981.0098
404.1233, 982.6542
404.6054, 983.1379
405.0875, 982.0765
405.5696, 980.9901
406.0518, 980.5687
406.5339, 980.8466
407.0160, 980.7967
407.4981, 980.2969
407.9802, 979.8681
408.4623, 980.0958
408.9445, 980.9899
409.4266, 982.3548
409.9087, 984.3254
410.3908, 986.6038
410.8729, 988.4377
411.3550, 989.8533
411.8372, 991.1570
412.3193, 992.6093
412.8014, 994.1248
413.2835, 995.3676
413.7656, 996.1537
414.2477, 997.2335
414.7299, 999.6430
415.2120, 1002.976
415.6941, 1006.201
416.1762, 1008.959
416.6583, 1011.315
417.1404, 1013.299
417.6226, 1014.917
418.1047, 1016.198
418.5868, 1016.711
419.0689, 1017.097
419.5510, 1018.049
420.0331, 1020.667
420.5153, 1022.624
420.9974, 1022.659
421.4795, 1021.334
421.9616, 1020.050
422.4437, 1018.473
422.9258, 1017.622
423.4080, 1018.332
423.8901, 1021.500
424.3722, 1023.241
424.8543, 1021.943
425.3364, 1019.747
425.8185, 1018.794
426.3007, 1020.576
426.7828, 1021.394
427.2649, 1020.243
427.7470, 1017.538
428.2291, 1016.038
428.7112, 1016.215
429.1934, 1016.777
429.6755, 1017.170
430.1576, 1017.499
430.6397, 1016.793
431.1218, 1014.481
431.6039, 1011.994
432.0861, 1011.998
432.5682, 1014.690
433.0503, 1016.914
433.5324, 1017.336
434.0145, 1016.520
434.4966, 1016.543
434.9788, 1017.441
435.4609, 1018.302
435.9430, 1017.934
436.4251, 1016.922
436.9072, 1016.960
437.3893, 1018.541
437.8715, 1020.775
438.3536, 1023.043
438.8357, 1025.192
439.3178, 1026.796
439.7999, 1026.926
440.2820, 1026.844
440.7642, 1028.106
441.2463, 1030.799
441.7284, 1032.640
442.2105, 1031.429
442.6926, 1029.195
443.1747, 1027.898
443.6569, 1028.694
444.1390, 1029.714
444.6211, 1030.522
445.1032, 1031.132
445.5853, 1031.564
446.0674, 1031.852
446.5496, 1031.964
447.0317, 1031.870
447.5138, 1031.523
447.9959, 1031.201
448.4780, 1030.883
448.9601, 1030.651
449.4423, 1030.617
449.9244, 1030.983
450.4065, 1031.160
450.8886, 1030.970
451.3707, 1030.537
451.8528, 1030.419
452.3350, 1030.714
452.8171, 1030.983
453.2992, 1030.808
453.7813, 1030.161
454.2634, 1030.269
454.7455, 1031.299
455.2277, 1032.547
455.7098, 1033.059
456.1919, 1032.922
456.6740, 1032.818
457.1561, 1032.935
457.6382, 1033.240
458.1204, 1033.733
458.6025, 1034.404
459.0846, 1035.115
459.5667, 1035.870
460.0488, 1036.597
460.5309, 1037.161
461.0131, 1037.501
461.4952, 1037.924
461.9773, 1038.597
462.4594, 1039.499
462.9415, 1040.606
463.4236, 1041.998
463.9058, 1043.492
464.3879, 1045.074
464.8700, 1046.709
465.3521, 1048.279
465.8342, 1049.848
466.3163, 1051.283
466.7985, 1052.455
467.2806, 1052.854
467.7627, 1053.901
468.2448, 1055.749
468.7269, 1058.184
469.2090, 1060.962
469.6912, 1064.310
470.1733, 1067.642
470.6554, 1070.842
471.1375, 1073.913
471.6196, 1076.937
472.1017, 1079.954
472.5839, 1082.807
473.0660, 1085.223
473.5481, 1087.185
474.0302, 1090.064
474.5123, 1094.184
474.9944, 1098.693
475.4766, 1102.109
475.9587, 1104.659
476.4408, 1107.793
476.9229, 1112.719
477.4050, 1118.190
477.8871, 1121.892
478.3693, 1124.001
478.8514, 1126.025
479.3335, 1129.370
479.8156, 1133.100
480.2977, 1135.881
480.7798, 1137.098
481.2620, 1138.620
481.7441, 1142.169
482.2262, 1146.547
482.7083, 1149.995
483.1904, 1151.078
483.6725, 1151.927
484.1547, 1153.529
484.6368, 1155.777
485.1189, 1157.182
485.6010, 1156.421
486.0831, 1155.623
486.5652, 1155.907
487.0474, 1157.997
487.5295, 1159.649
488.0116, 1160.980
488.4937, 1161.767
488.9758, 1161.549
489.4579, 1159.936
489.9401, 1158.534
490.4222, 1157.830
490.9043, 1157.620
491.3864, 1156.913
491.8685, 1155.662
492.3506, 1154.194
492.8328, 1152.713
493.3149, 1151.210
493.7970, 1149.588
494.2791, 1147.836
494.7612, 1145.999
495.2433, 1144.109
495.7255, 1142.164
496.2076, 1140.101
496.6897, 1137.488
497.1718, 1135.165
497.6539, 1134.346
498.1360, 1134.662
498.6182, 1134.658
499.1003, 1133.362
499.5824, 1131.617
500.0645, 1129.863
500.5466, 1127.974
501.0287, 1126.783
501.5109, 1126.938
501.9930, 1127.706
502.4751, 1128.357
502.9572, 1128.696
503.4393, 1129.010
503.9214, 1129.235
504.4036, 1129.442
504.8857, 1129.914
505.3678, 1130.855
505.8499, 1131.726
506.3320, 1132.302
506.8141, 1132.569
507.2963, 1132.851
507.7784, 1133.193
508.2605, 1133.454
508.7426, 1133.470
509.2247, 1133.253
509.7068, 1132.994
510.1890, 1132.762
510.6711, 1132.428
511.1532, 1131.705
511.6353, 1130.647
512.1174, 1129.560
512.5995, 1128.355
513.0817, 1127.318
513.5638, 1127.065
514.0459, 1127.548
514.5280, 1127.661
515.0101, 1125.722
515.4922, 1123.597
515.9744, 1123.214
516.4565, 1126.023
516.9386, 1128.526
517.4207, 1129.469
517.9028, 1129.421
518.3849, 1129.308
518.8671, 1128.546
519.3492, 1128.541
519.8313, 1129.869
520.3134, 1132.405
520.7955, 1134.554
521.2776, 1136.295
521.7598, 1137.660
522.2419, 1138.572
522.7240, 1138.921
523.2061, 1139.318
523.6882, 1139.682
524.1703, 1140.278
524.6525, 1141.528
525.1346, 1143.409
525.6167, 1145.512
526.0988, 1147.972
526.5809, 1150.297
527.0630, 1151.190
527.5452, 1150.924
528.0273, 1151.033
528.5094, 1152.784
528.9915, 1155.230
529.4736, 1157.186
529.9557, 1158.543
530.4379, 1160.283
530.9200, 1163.613
531.4021, 1167.325
531.8842, 1170.128
532.3663, 1169.887
532.8484, 1171.300
533.3306, 1177.014
533.8127, 1185.056
534.2948, 1191.129
534.7769, 1194.198
535.2590, 1196.110
535.7411, 1196.689
536.2233, 1196.021
536.7054, 1197.124
537.1875, 1200.628
537.6696, 1204.716
538.1517, 1208.441
538.6339, 1211.803
539.1160, 1214.462
539.5981, 1216.258
540.0802, 1217.734
540.5623, 1219.701
541.0444, 1222.055
541.5266, 1224.326
542.0087, 1226.724
542.4908, 1228.535
542.9729, 1228.449
543.4550, 1226.754
543.9371, 1224.641
544.4193, 1222.586
544.9014, 1220.486
545.3835, 1218.465
545.8656, 1216.568
546.3477, 1213.823
546.8298, 1209.141
547.3120, 1203.772
547.7941, 1198.799
548.2762, 1195.139
548.7583, 1190.784
549.2404, 1185.182
549.7225, 1178.911
550.2047, 1172.871
550.6868, 1166.828
551.1689, 1161.471
551.6510, 1157.153
552.1331, 1153.720
552.6152, 1150.402
553.0974, 1147.294
553.5795, 1143.900
554.0616, 1139.430
554.5437, 1134.246
555.0258, 1130.538
555.5079, 1128.548
555.9901, 1127.205
556.4722, 1125.248
556.9543, 1123.103
557.4364, 1121.714
557.9185, 1121.734
558.4006, 1121.961
558.8828, 1121.223
559.3649, 1119.934
559.8470, 1119.048
560.3291, 1118.888
560.8112, 1119.223
561.2933, 1120.019
561.7755, 1121.254
562.2576, 1122.602
562.7397, 1124.096
563.2218, 1125.584
563.7039, 1127.021
564.1860, 1128.484
564.6682, 1129.695
565.1503, 1130.574
565.6324, 1131.350
566.1145, 1132.148
566.5966, 1132.921
567.0787, 1134.531
567.5609, 1137.408
568.0430, 1140.970
568.5251, 1143.875
569.0072, 1146.228
569.4893, 1148.568
569.9714, 1151.096
570.4536, 1153.867
570.9357, 1157.032
571.4178, 1160.559
571.8999, 1164.195
572.3820, 1168.185
572.8641, 1171.930
573.3463, 1174.682
573.8284, 1175.812
574.3105, 1177.353
574.7926, 1180.048
575.2747, 1183.426
575.7568, 1186.893
576.2390, 1190.775
576.7211, 1194.273
577.2032, 1197.135
577.6853, 1199.574
578.1674, 1202.285
578.6495, 1205.426
579.1317, 1208.393
579.6138, 1211.040
580.0959, 1213.333
580.5780, 1214.613
581.0601, 1214.769
581.5422, 1215.316
582.0244, 1218.012
582.5065, 1222.063
582.9886, 1225.510
583.4707, 1228.170
583.9528, 1230.105
584.4349, 1230.680
584.9171, 1230.749
585.3992, 1231.590
585.8813, 1234.563
586.3634, 1237.400
586.8455, 1238.552
587.3276, 1238.782
587.8098, 1240.150
588.2919, 1244.095
588.7740, 1248.154
589.2561, 1251.590
589.7382, 1254.384
590.2203, 1257.274
590.7025, 1260.339
591.1846, 1263.295
591.6667, 1265.762
592.1488, 1267.668
592.6309, 1270.513
593.1130, 1274.564
593.5952, 1278.852
594.0773, 1282.390
594.5594, 1285.224
595.0415, 1287.315
595.5236, 1288.318
596.0057, 1289.309
596.4879, 1291.852
596.9700, 1295.317
597.4521, 1298.201
597.9342, 1300.103
598.4163, 1300.967
598.8984, 1300.676
599.3806, 1299.272
599.8627, 1297.113
600.3448, 1294.132
600.8269, 1290.509
601.3090, 1286.369
601.7911, 1281.804
602.2733, 1276.201
602.7554, 1269.319
603.2375, 1261.747
603.7196, 1254.242
604.2017, 1246.827
604.6838, 1238.487
605.1660, 1228.855
605.6481, 1218.677
606.1302, 1209.324
606.6123, 1200.615
607.0944, 1191.715
607.5765, 1181.971
608.0587, 1172.125
608.5408, 1162.882
609.0229, 1154.195
609.5050, 1145.563
609.9871, 1136.193
610.4692, 1127.321
610.9514, 1119.837
611.4335, 1113.775
611.9156, 1108.041
612.3977, 1103.052
612.8798, 1097.816
613.3619, 1091.622
613.8441, 1083.023
614.3262, 1077.004
