##NAMES=Pumpellyite-(Mg)
##RRUFFID=R120172
##IDEAL CHEMISTRY=Ca_2_MgAl_2_(SiO_4_)(Si_2_O_7_)(OH)_2_&#183;H_2_O
##LOCALITY=Archidona, Malaga Province, Spain
##OWNER=RRUFF
##SOURCE=Bob Jenkins
##DESCRIPTION=Aggregates of dark-green acicular crystals, associated with light green epidote
##STATUS=The identification of this mineral has been confirmed only by single crystal X-ray diffraction.
##URL=rruff.info/R120172
110.8446, 596.5817
111.3267, 597.3700
111.8088, 598.1614
112.2909, 599.2589
112.7731, 601.1084
113.2552, 603.6104
113.7373, 606.1246
114.2194, 607.7216
114.7015, 608.0560
115.1836, 607.8973
115.6658, 607.1252
116.1479, 605.9476
116.6300, 604.4456
117.1121, 602.6198
117.5942, 600.7009
118.0763, 599.2888
118.5584, 598.4836
119.0406, 597.8054
119.5227, 597.0807
120.0048, 596.3700
120.4869, 595.8525
120.9690, 595.6647
121.4511, 595.6894
121.9333, 595.6737
122.4154, 595.6754
122.8975, 595.5276
123.3796, 595.0102
123.8617, 594.0739
124.3438, 593.1468
124.8260, 592.2797
125.3081, 591.5820
125.7902, 591.2214
126.2723, 591.3253
126.7544, 591.7162
127.2365, 592.0001
127.7187, 592.1119
128.2008, 592.2207
128.6829, 592.4826
129.1650, 592.7597
129.6471, 592.8753
130.1292, 592.7237
130.6114, 592.3127
131.0935, 591.7203
131.5756, 591.0515
132.0577, 590.0850
132.5398, 588.5092
133.0219, 586.5445
133.5041, 584.6787
133.9862, 583.3214
134.4683, 582.5197
134.9504, 582.0275
135.4325, 581.8380
135.9146, 581.8871
136.3968, 582.3253
136.8789, 583.0936
137.3610, 583.7574
137.8431, 583.7438
138.3252, 582.8564
138.8073, 582.2630
139.2895, 582.0794
139.7716, 582.1960
140.2537, 582.6400
140.7358, 583.5267
141.2179, 584.3041
141.7000, 583.9567
142.1821, 582.5814
142.6643, 581.5816
143.1464, 581.7761
143.6285, 582.8666
144.1106, 583.8004
144.5927, 584.4250
145.0748, 584.7003
145.5570, 584.6104
146.0391, 584.1590
146.5212, 583.5695
147.0033, 582.9861
147.4854, 582.4001
147.9675, 581.8961
148.4497, 581.7491
148.9318, 581.5165
149.4139, 580.9114
149.8960, 579.8845
150.3781, 578.6288
150.8602, 577.4213
151.3424, 576.2453
151.8245, 575.1426
152.3066, 574.1320
152.7887, 573.1686
153.2708, 572.2534
153.7529, 571.3853
154.2351, 570.4877
154.7172, 569.3640
155.1993, 567.6591
155.6814, 566.1518
156.1635, 564.7092
156.6456, 563.5254
157.1278, 562.9570
157.6099, 563.2174
158.0920, 564.0365
158.5741, 564.2522
159.0562, 563.4924
159.5383, 562.6450
160.0205, 561.8451
160.5026, 561.1064
160.9847, 560.4563
161.4668, 559.9297
161.9489, 559.4998
162.4310, 559.0397
162.9131, 558.3616
163.3953, 557.8283
163.8774, 557.7578
164.3595, 558.1052
164.8416, 558.4237
165.3237, 558.4374
165.8058, 558.2221
166.2880, 557.9854
166.7701, 557.7990
167.2522, 557.5588
167.7343, 557.0662
168.2164, 556.2404
168.6985, 555.5515
169.1807, 555.4172
169.6628, 555.5524
170.1449, 555.6334
170.6270, 555.5488
171.1091, 555.3304
171.5912, 554.9654
172.0734, 554.1439
172.5555, 553.7919
173.0376, 554.6400
173.5197, 556.0320
174.0018, 557.0031
174.4839, 556.8750
174.9661, 555.8768
175.4482, 555.3985
175.9303, 555.7869
176.4124, 556.3788
176.8945, 557.1617
177.3766, 558.0071
177.8588, 558.6779
178.3409, 558.9417
178.8230, 558.7924
179.3051, 559.2233
179.7872, 561.0484
180.2693, 562.6503
180.7515, 563.5597
181.2336, 563.8271
181.7157, 563.6647
182.1978, 563.1913
182.6799, 562.3308
183.1620, 561.9343
183.6441, 562.2434
184.1263, 562.6796
184.6084, 563.0871
185.0905, 563.3973
185.5726, 563.4608
186.0547, 563.0682
186.5368, 562.1266
187.0190, 561.6097
187.5011, 561.6799
187.9832, 562.0406
188.4653, 562.5911
188.9474, 563.3008
189.4296, 563.9627
189.9117, 564.4319
190.3938, 564.6879
190.8759, 564.5713
191.3580, 563.5802
191.8401, 562.4293
192.3223, 562.0451
192.8044, 562.6482
193.2865, 563.4064
193.7686, 563.5308
194.2507, 563.1686
194.7328, 562.6328
195.2150, 561.9427
195.6971, 561.1504
196.1792, 560.3528
196.6613, 559.5565
197.1434, 558.7502
197.6255, 557.9507
198.1077, 557.1354
198.5898, 556.2555
199.0719, 555.1334
199.5540, 553.8810
200.0361, 553.0519
200.5182, 553.0242
201.0004, 552.9081
201.4825, 552.3621
201.9646, 551.3914
202.4467, 550.0185
202.9288, 548.1016
203.4109, 545.6837
203.8930, 543.5471
204.3752, 542.0118
204.8573, 540.4597
205.3394, 538.6892
205.8215, 536.7267
206.3036, 534.6549
206.7857, 532.5415
207.2679, 530.3865
207.7500, 528.2000
208.2321, 526.0604
208.7142, 523.8083
209.1963, 521.1290
209.6784, 518.2475
210.1606, 515.7299
210.6427, 514.1472
211.1248, 513.6492
211.6069, 512.8218
212.0890, 511.4855
212.5711, 510.0256
213.0533, 508.5994
213.5354, 507.1909
214.0175, 505.6547
214.4996, 503.8246
214.9817, 501.6114
215.4638, 499.7457
215.9460, 498.2440
216.4281, 496.9799
216.9102, 496.0389
217.3923, 495.3325
217.8744, 494.5553
218.3565, 493.4337
218.8387, 491.9244
219.3208, 490.3247
219.8029, 488.5869
220.2850, 486.8025
220.7671, 484.9229
221.2492, 482.9907
221.7314, 481.2606
222.2135, 480.0397
222.6956, 479.3593
223.1777, 478.2466
223.6598, 476.4132
224.1419, 474.3651
224.6240, 472.5148
225.1062, 470.8719
225.5883, 469.1291
226.0704, 466.8878
226.5525, 464.2770
227.0346, 462.1880
227.5167, 461.0695
227.9989, 460.2558
228.4810, 459.1905
228.9631, 457.8472
229.4452, 456.3798
229.9273, 454.7979
230.4094, 453.1863
230.8916, 451.7695
231.3737, 450.7392
231.8558, 449.8401
232.3379, 448.8022
232.8200, 447.6181
233.3021, 446.3452
233.7843, 444.9456
234.2664, 443.4851
234.7485, 442.0560
235.2306, 440.6536
235.7127, 439.3154
236.1948, 438.0234
236.6770, 436.7096
237.1591, 435.7036
237.6412, 435.5495
238.1233, 435.6813
238.6054, 435.4540
239.0875, 434.5865
239.5697, 433.3961
240.0518, 432.3433
240.5339, 431.4060
241.0160, 430.6742
241.4981, 430.3294
241.9802, 430.1344
242.4624, 429.8905
242.9445, 429.5414
243.4266, 429.0830
243.9087, 428.4483
244.3908, 427.4973
244.8729, 426.7587
245.3550, 426.5855
245.8372, 426.5618
246.3193, 426.2834
246.8014, 425.5973
247.2835, 424.7999
247.7656, 424.5367
248.2477, 425.3450
248.7299, 425.3514
249.2120, 423.5233
249.6941, 421.2905
250.1762, 419.7759
250.6583, 419.3134
251.1404, 419.3864
251.6226, 419.1094
252.1047, 418.2347
252.5868, 417.5823
253.0689, 417.6352
253.5510, 417.6437
254.0331, 416.9829
254.5153, 415.5338
254.9974, 413.7464
255.4795, 412.2665
255.9616, 411.1331
256.4437, 410.2802
256.9258, 409.5939
257.4080, 409.1994
257.8901, 409.3440
258.3722, 409.9905
258.8543, 410.7295
259.3364, 411.0416
259.8185, 410.9421
260.3007, 410.2950
260.7828, 408.5561
261.2649, 406.7973
261.7470, 405.6157
262.2291, 405.0997
262.7112, 405.0721
263.1934, 405.4122
263.6755, 406.3984
264.1576, 406.6796
264.6397, 405.8052
265.1218, 404.7498
265.6039, 403.9158
266.0861, 403.3929
266.5682, 403.2013
267.0503, 403.4332
267.5324, 404.2338
268.0145, 404.4708
268.4966, 403.6109
268.9788, 402.7909
269.4609, 402.7585
269.9430, 403.3396
270.4251, 403.7335
270.9072, 403.2113
271.3893, 401.7226
271.8715, 400.9438
272.3536, 401.3207
272.8357, 401.8042
273.3178, 402.0358
273.7999, 402.0147
274.2820, 401.8208
274.7642, 401.4843
275.2463, 401.0215
275.7284, 400.6479
276.2105, 400.4771
276.6926, 400.2488
277.1747, 399.7584
277.6568, 399.1389
278.1389, 398.6978
278.6211, 398.6151
279.1032, 398.8166
279.5853, 398.9952
280.0674, 399.3467
280.5495, 399.4623
281.0316, 399.1661
281.5138, 398.5755
281.9959, 397.8844
282.4780, 397.1723
282.9601, 396.4240
283.4422, 395.5914
283.9243, 394.5245
284.4065, 393.6565
284.8886, 393.1404
285.3707, 392.8603
285.8528, 392.6974
286.3349, 392.6323
286.8170, 392.5536
287.2992, 392.2418
287.7813, 391.6256
288.2634, 391.0490
288.7455, 390.5663
289.2276, 390.1522
289.7097, 389.8241
290.1919, 389.5920
290.6740, 389.3243
291.1561, 388.8848
291.6382, 388.2835
292.1203, 387.3763
292.6024, 385.7604
293.0846, 384.0487
293.5667, 382.8065
294.0488, 382.1036
294.5309, 381.8249
295.0130, 382.1670
295.4951, 383.0796
295.9773, 382.7870
296.4594, 379.8945
296.9415, 376.7360
297.4236, 375.2984
297.9057, 375.5476
298.3878, 375.9731
298.8700, 375.5415
299.3521, 374.3609
299.8342, 373.3991
300.3163, 372.9210
300.7984, 372.4224
301.2805, 371.3441
301.7627, 369.8849
302.2448, 369.0495
302.7269, 369.6652
303.2090, 371.0362
303.6911, 371.0435
304.1732, 368.8973
304.6554, 366.8289
305.1375, 365.9109
305.6196, 365.8352
306.1017, 365.8359
306.5838, 365.6598
307.0659, 365.3711
307.5481, 365.0699
308.0302, 364.7300
308.5123, 364.4696
308.9944, 364.3927
309.4765, 364.4077
309.9586, 364.3342
310.4408, 364.1066
310.9229, 363.8715
311.4050, 363.8763
311.8871, 364.1322
312.3692, 364.2620
312.8513, 364.2374
313.3335, 364.0245
313.8156, 363.4785
314.2977, 362.5636
314.7798, 361.6803
315.2619, 361.2945
315.7440, 361.3531
316.2262, 361.0648
316.7083, 359.8209
317.1904, 358.5913
317.6725, 358.4024
318.1546, 359.1964
318.6367, 359.8185
319.1188, 359.4079
319.6010, 358.1886
320.0831, 357.3911
320.5652, 357.3065
321.0473, 357.3352
321.5294, 357.1745
322.0115, 356.8608
322.4937, 356.5266
322.9758, 356.2545
323.4579, 355.9759
323.9400, 355.4979
324.4221, 354.6811
324.9042, 353.9959
325.3864, 353.7882
325.8685, 353.8006
326.3506, 353.4345
326.8327, 352.4109
327.3148, 351.3072
327.7969, 351.2387
328.2791, 352.4767
328.7612, 353.0233
329.2433, 351.8925
329.7254, 350.1666
330.2075, 349.0817
330.6896, 348.8507
331.1718, 349.0157
331.6539, 349.1394
332.1360, 349.2196
332.6181, 349.5470
333.1002, 350.4559
333.5823, 351.3656
334.0645, 351.8920
334.5466, 352.0186
335.0287, 351.8471
335.5108, 351.3743
335.9929, 350.6548
336.4750, 350.1273
336.9572, 349.5684
337.4393, 349.3910
337.9214, 350.0139
338.4035, 351.1583
338.8856, 352.1591
339.3677, 352.7002
339.8499, 352.9282
340.3320, 353.2128
340.8141, 353.4942
341.2962, 353.9185
341.7783, 354.6250
342.2604, 355.4503
342.7426, 356.2489
343.2247, 356.9774
343.7068, 357.4952
344.1889, 357.5402
344.6710, 356.7980
345.1531, 356.5356
345.6353, 356.8011
346.1174, 357.5239
346.5995, 358.9462
347.0816, 360.9292
347.5637, 362.7545
348.0458, 363.7586
348.5280, 363.9017
349.0101, 363.8602
349.4922, 363.3249
349.9743, 362.9472
350.4564, 363.1382
350.9385, 363.7128
351.4207, 364.2269
351.9028, 364.4188
352.3849, 364.3572
352.8670, 364.3318
353.3491, 364.5459
353.8312, 364.5468
354.3134, 363.9737
354.7955, 363.2801
355.2776, 363.0900
355.7597, 363.6056
356.2418, 364.3756
356.7239, 364.6300
357.2061, 364.0542
357.6882, 363.5640
358.1703, 362.9937
358.6524, 362.6169
359.1345, 362.7799
359.6166, 363.4069
360.0987, 364.0179
360.5808, 364.1339
361.0630, 363.6998
361.5451, 363.2804
362.0272, 362.8524
362.5093, 362.4608
362.9914, 361.9244
363.4735, 361.4501
363.9557, 361.5145
364.4378, 362.4662
364.9199, 363.9946
365.4020, 364.7543
365.8841, 364.0851
366.3662, 363.5083
366.8484, 363.0229
367.3305, 362.7999
367.8126, 363.2092
368.2947, 364.3069
368.7768, 365.4632
369.2589, 365.5317
369.7411, 363.8039
370.2232, 362.9372
370.7053, 363.8050
371.1874, 364.8360
371.6695, 365.2671
372.1516, 365.0655
372.6338, 364.5783
373.1159, 364.0123
373.5980, 363.3788
374.0801, 363.0952
374.5622, 363.5351
375.0443, 363.8717
375.5265, 363.6753
376.0086, 363.2369
376.4907, 363.0618
376.9728, 363.4636
377.4549, 364.1002
377.9370, 364.0880
378.4192, 363.0436
378.9013, 362.4477
379.3834, 363.0965
379.8655, 364.1106
380.3476, 364.8624
380.8297, 365.2257
381.3119, 365.4024
381.7940, 365.5742
382.2761, 365.7413
382.7582, 365.8461
383.2403, 365.8566
383.7224, 365.8294
384.2046, 365.7408
384.6867, 365.6346
385.1688, 365.6637
385.6509, 366.0446
386.1330, 366.5938
386.6151, 366.8566
387.0973, 366.7512
387.5794, 366.6444
388.0615, 366.7158
388.5436, 366.9240
389.0257, 367.2714
389.5078, 367.9034
389.9900, 368.4036
390.4721, 368.2725
390.9542, 367.5955
391.4363, 367.0231
391.9184, 366.6713
392.4005, 366.6508
392.8827, 367.2793
393.3648, 368.6381
393.8469, 369.5929
394.3290, 369.4870
394.8111, 368.7728
395.2932, 368.0033
395.7754, 367.2098
396.2575, 366.8396
396.7396, 367.5385
397.2217, 369.1808
397.7038, 370.1740
398.1859, 369.8645
398.6681, 369.4122
399.1501, 369.5913
399.6323, 370.2845
400.1144, 371.0421
400.5965, 371.6851
401.0786, 372.1720
401.5607, 372.3211
402.0428, 371.7843
402.5250, 371.5647
403.0071, 371.9940
403.4892, 372.7557
403.9713, 373.5203
404.4534, 374.2014
404.9355, 374.8650
405.4177, 375.6229
405.8998, 376.5591
406.3819, 377.0882
406.8640, 376.7462
407.3461, 376.4908
407.8282, 376.9038
408.3104, 377.8028
408.7925, 378.6711
409.2746, 379.2000
409.7567, 379.4323
410.2388, 379.5683
410.7209, 379.3037
411.2031, 379.3541
411.6852, 380.1617
412.1673, 381.0951
412.6494, 381.3927
413.1315, 380.9278
413.6136, 380.3973
414.0958, 380.8573
414.5779, 382.7125
415.0600, 383.9397
415.5421, 384.1494
416.0242, 384.0672
416.5063, 383.8417
416.9885, 383.5403
417.4706, 383.2195
417.9527, 382.8615
418.4348, 382.5584
418.9169, 382.6997
419.3990, 383.5892
419.8812, 384.2452
420.3633, 384.2104
420.8454, 383.9024
421.3275, 383.6538
421.8096, 383.5403
422.2917, 383.5469
422.7739, 383.7608
423.2560, 384.1594
423.7381, 384.2956
424.2202, 384.0085
424.7023, 383.5584
425.1844, 382.9649
425.6666, 382.3385
426.1487, 382.1031
426.6308, 382.7786
427.1129, 383.7916
427.5950, 384.2496
428.0771, 384.1236
428.5593, 383.9510
429.0414, 384.1497
429.5235, 384.3987
430.0056, 383.9721
430.4877, 382.4764
430.9698, 381.2025
431.4520, 380.9644
431.9341, 381.3769
432.4162, 381.7933
432.8983, 382.1025
433.3804, 382.0226
433.8625, 380.9941
434.3447, 378.8104
434.8268, 377.5700
435.3089, 378.2871
435.7910, 379.1599
436.2731, 378.7553
436.7552, 377.4052
437.2374, 376.4990
437.7195, 376.9158
438.2016, 378.2360
438.6837, 378.8550
439.1658, 378.1562
439.6479, 377.5324
440.1301, 376.9995
440.6122, 376.6261
441.0943, 376.5598
441.5764, 376.7892
442.0585, 377.0844
442.5406, 377.2071
443.0227, 377.1708
443.5049, 376.8730
443.9870, 376.1114
444.4691, 375.2970
444.9512, 374.3848
445.4333, 373.5416
445.9154, 373.0589
446.3976, 373.1258
446.8797, 373.4556
447.3618, 373.3928
447.8439, 372.8027
448.3260, 372.2162
448.8081, 371.7366
449.2903, 371.2809
449.7724, 370.8617
450.2545, 370.4473
450.7366, 369.8771
451.2187, 368.8152
451.7008, 367.4518
452.1830, 366.6801
452.6651, 366.6747
453.1472, 366.8689
453.6293, 367.1669
454.1114, 367.3953
454.5935, 367.2459
455.0757, 366.5378
455.5578, 365.6649
456.0399, 364.8764
456.5220, 364.1811
457.0041, 363.6613
457.4862, 363.4365
457.9684, 363.1874
458.4505, 362.3606
458.9326, 360.9572
459.4147, 359.8392
459.8968, 359.4864
460.3789, 359.2523
460.8611, 358.4854
461.3432, 357.2548
461.8253, 356.1344
462.3074, 355.4927
462.7895, 355.2079
463.2716, 354.7535
463.7538, 353.9566
464.2359, 353.2307
464.7180, 352.5331
465.2001, 351.9693
465.6822, 351.7960
466.1643, 351.9857
466.6465, 352.0594
467.1286, 351.4232
467.6107, 349.9444
468.0928, 348.9760
468.5749, 349.2345
469.0570, 349.2361
469.5392, 348.1509
470.0213, 346.6735
470.5034, 345.9223
470.9855, 346.4082
471.4676, 347.4942
471.9497, 348.1063
472.4319, 348.1937
472.9140, 348.0279
473.3961, 347.3132
473.8782, 346.6387
474.3603, 346.3513
474.8424, 346.4161
475.3246, 346.5954
475.8067, 346.7505
476.2888, 346.9278
476.7709, 347.3408
477.2530, 348.0768
477.7351, 348.4843
478.2173, 348.1271
478.6994, 347.3091
479.1815, 346.4551
479.6636, 345.4784
480.1457, 344.8476
480.6278, 345.3285
481.1100, 346.1803
481.5920, 345.8018
482.0742, 343.8599
482.5563, 341.8725
483.0384, 341.2583
483.5205, 342.0099
484.0026, 342.3171
484.4847, 341.9915
484.9669, 341.4555
485.4490, 340.8404
485.9311, 340.1360
486.4132, 339.2235
486.8953, 338.0607
487.3774, 336.9474
487.8596, 336.4397
488.3417, 336.9460
488.8238, 336.9203
489.3059, 335.9468
489.7880, 334.9338
490.2701, 334.3390
490.7523, 334.0658
491.2344, 333.8204
491.7165, 333.4364
492.1986, 332.9404
492.6807, 332.3480
493.1628, 331.5155
493.6450, 330.9910
494.1271, 331.2596
494.6092, 331.6133
495.0913, 331.5930
495.5734, 331.1762
496.0555, 330.6076
496.5377, 329.9066
497.0198, 329.1960
497.5019, 328.8893
497.9840, 329.0832
498.4661, 329.2724
498.9482, 329.3510
499.4304, 329.1623
499.9125, 328.3236
500.3946, 326.3690
500.8767, 324.8571
501.3588, 324.8664
501.8409, 325.7513
502.3231, 326.4367
502.8052, 326.7053
503.2873, 326.6765
503.7694, 326.4145
504.2515, 325.9065
504.7336, 325.5086
505.2158, 325.2421
505.6979, 325.0482
506.1800, 324.9947
506.6621, 324.9735
507.1442, 324.8127
507.6263, 324.4538
508.1085, 324.0030
508.5906, 323.6860
509.0727, 323.6999
509.5548, 323.1253
510.0369, 321.5643
510.5190, 319.8080
511.0012, 317.9396
511.4833, 316.1175
511.9654, 314.5617
512.4475, 313.3734
512.9296, 312.5255
513.4117, 312.1282
513.8939, 312.2936
514.3760, 312.0137
514.8581, 310.7735
515.3402, 309.3021
515.8223, 308.2023
516.3044, 307.4383
516.7866, 306.7188
517.2687, 306.0347
517.7508, 305.2616
518.2329, 304.0945
518.7150, 302.5782
519.1971, 301.3503
519.6793, 300.7991
520.1614, 300.6103
520.6435, 300.0702
521.1256, 299.0680
521.6077, 298.1147
522.0898, 297.3741
522.5720, 296.6639
523.0541, 295.7652
523.5362, 294.7195
524.0183, 293.7772
524.5004, 293.1305
524.9825, 292.7314
525.4647, 292.3281
525.9468, 292.0909
526.4289, 291.5932
526.9110, 290.4459
527.3931, 289.2799
527.8752, 288.6598
528.3574, 288.6108
528.8395, 288.7234
529.3216, 288.6606
529.8037, 288.4507
530.2858, 288.2581
530.7679, 288.0797
531.2501, 287.9273
531.7322, 287.8857
532.2143, 287.8343
532.6964, 287.6722
533.1785, 287.3984
533.6606, 286.9091
534.1428, 285.9675
534.6249, 284.7931
535.1070, 283.7782
535.5891, 282.9572
536.0712, 282.5072
536.5533, 282.6447
537.0355, 283.2889
537.5176, 283.8598
537.9997, 284.5580
538.4818, 284.9505
538.9639, 284.7964
539.4460, 284.3261
539.9282, 283.7144
540.4103, 283.0491
540.8924, 282.5489
541.3745, 282.4876
541.8566, 282.8841
542.3387, 283.0645
542.8209, 282.9166
543.3029, 282.6683
543.7850, 282.5064
544.2672, 282.2004
544.7493, 281.3964
545.2314, 280.0253
545.7135, 278.5388
546.1956, 277.3524
546.6777, 276.4669
547.1599, 276.0197
547.6420, 276.2398
548.1241, 276.4279
548.6062, 276.1113
549.0883, 275.4824
549.5704, 274.8019
550.0526, 274.0687
550.5347, 273.3882
551.0168, 272.8721
551.4989, 272.4461
551.9810, 271.9369
552.4631, 271.3065
552.9453, 270.6616
553.4274, 270.0774
553.9095, 269.5529
554.3916, 269.2340
554.8737, 269.4005
555.3558, 269.4053
555.8380, 269.0248
556.3201, 268.4041
556.8022, 267.5784
557.2843, 266.6234
557.7664, 265.9337
558.2485, 266.0810
558.7307, 267.1096
559.2128, 267.6730
559.6949, 267.4790
560.1770, 267.2148
560.6591, 267.2556
561.1412, 267.3047
561.6234, 266.9105
562.1055, 265.9195
562.5876, 264.9413
563.0697, 264.5108
563.5518, 264.5222
564.0339, 264.6366
564.5161, 264.8210
564.9982, 265.1003
565.4803, 265.6425
565.9624, 266.2833
566.4445, 266.3631
566.9266, 265.3797
567.4088, 264.5542
567.8909, 264.4035
568.3730, 264.5928
568.8551, 264.8055
569.3372, 264.9359
569.8193, 264.8122
570.3015, 264.1959
570.7836, 263.1382
571.2657, 262.6949
571.7478, 263.6026
572.2299, 264.1404
572.7120, 263.6750
573.1942, 262.9687
573.6763, 262.7559
574.1584, 263.1316
574.6405, 263.6474
575.1226, 264.0349
575.6047, 264.2531
576.0869, 264.0052
576.5690, 263.1203
577.0511, 262.5078
577.5332, 262.8883
578.0153, 263.6306
578.4974, 263.6576
578.9796, 262.7757
579.4617, 261.9804
579.9438, 261.7483
580.4259, 261.7394
580.9080, 261.5102
581.3901, 261.0773
581.8723, 260.8215
582.3544, 261.0241
582.8365, 261.5038
583.3186, 261.6407
583.8007, 261.2103
584.2828, 260.7632
584.7650, 260.3721
585.2471, 259.9167
585.7292, 259.1671
586.2113, 258.2663
586.6934, 257.6766
587.1755, 257.7825
587.6577, 258.2000
588.1398, 257.9417
588.6219, 256.8641
589.1040, 256.0886
589.5861, 255.9227
590.0682, 256.1151
590.5504, 256.5632
591.0325, 257.2010
591.5146, 257.5791
591.9967, 257.4339
592.4788, 257.0805
592.9609, 256.7362
593.4431, 256.4026
593.9252, 256.0653
594.4073, 255.7195
594.8894, 255.3696
595.3715, 254.9862
595.8536, 254.4754
596.3358, 254.3790
596.8179, 255.3585
597.3000, 255.9583
597.7821, 255.3359
598.2642, 254.1337
598.7463, 253.2935
599.2285, 253.1321
599.7106, 253.2408
600.1927, 253.2206
600.6748, 253.0643
601.1569, 252.5495
601.6390, 251.5219
602.1212, 250.4446
602.6033, 249.5625
603.0854, 248.8051
603.5675, 248.1067
604.0496, 247.4841
604.5317, 246.8363
605.0139, 246.1196
605.4960, 245.3392
605.9781, 244.4541
606.4602, 243.4842
606.9423, 242.6208
