##NAMES=Pumpellyite-(Al)
##RRUFFID=R070131
##IDEAL CHEMISTRY=Ca_2_Al_3_(SiO_4_)(Si_2_O_7_)(OH,O)_2_&#183;H_2_O
##LOCALITY=La Fl√®che Quarry, Bertrix, Luxembourg Province, Belgium
##OWNER=RRUFF
##SOURCE=Michael Scott
##DESCRIPTION=Pale green radiating fibrous to bladed crystals
##STATUS=The identification of this mineral has been confirmed only by single crystal X-ray diffraction.
##URL=rruff.info/R070131
164.7005, 3329.834
165.1826, 3363.669
165.6648, 3394.448
166.1469, 3420.698
166.6290, 3442.433
167.1111, 3458.619
167.5932, 3461.404
168.0753, 3462.392
168.5575, 3476.471
169.0396, 3506.618
169.5217, 3539.208
170.0038, 3558.755
170.4859, 3565.273
170.9680, 3570.829
171.4502, 3577.917
171.9323, 3584.608
172.4144, 3587.092
172.8965, 3584.153
173.3786, 3582.540
173.8607, 3591.441
174.3429, 3609.370
174.8250, 3623.890
175.3071, 3630.922
175.7892, 3633.877
176.2713, 3636.542
176.7534, 3639.065
177.2356, 3642.561
177.7177, 3648.407
178.1998, 3656.177
178.6819, 3664.675
179.1640, 3673.659
179.6461, 3683.168
180.1283, 3693.433
180.6104, 3704.678
181.0925, 3715.947
181.5746, 3726.794
182.0567, 3737.159
182.5388, 3746.641
183.0210, 3753.779
183.5031, 3760.458
183.9852, 3769.232
184.4673, 3780.206
184.9494, 3793.377
185.4315, 3813.006
185.9137, 3834.851
186.3958, 3850.406
186.8779, 3854.154
187.3600, 3851.355
187.8421, 3849.942
188.3242, 3850.242
188.8064, 3850.699
189.2885, 3849.688
189.7706, 3848.269
190.2527, 3848.219
190.7348, 3851.018
191.2169, 3854.835
191.6991, 3856.157
192.1812, 3853.938
192.6633, 3853.422
193.1454, 3860.415
193.6275, 3870.116
194.1096, 3876.139
194.5918, 3874.314
195.0739, 3870.658
195.5560, 3875.308
196.0381, 3890.771
196.5202, 3903.692
197.0023, 3908.946
197.4845, 3907.788
197.9666, 3898.457
198.4487, 3876.475
198.9308, 3853.984
199.4129, 3851.261
199.8950, 3873.383
200.3772, 3889.116
200.8593, 3874.024
201.3414, 3852.107
201.8235, 3846.764
202.3056, 3867.500
202.7877, 3891.757
203.2699, 3887.783
203.7520, 3849.894
204.2341, 3821.038
204.7162, 3824.060
205.1983, 3836.935
205.6804, 3843.935
206.1626, 3842.075
206.6447, 3835.700
207.1268, 3830.158
207.6089, 3826.020
208.0910, 3816.266
208.5731, 3787.202
209.0553, 3760.531
209.5374, 3755.467
210.0195, 3774.287
210.5016, 3796.194
210.9837, 3801.034
211.4658, 3788.196
211.9480, 3774.314
212.4301, 3759.012
212.9122, 3746.277
213.3943, 3741.174
213.8764, 3742.943
214.3585, 3742.837
214.8407, 3727.993
215.3228, 3699.276
215.8049, 3688.025
216.2870, 3713.049
216.7691, 3740.044
217.2512, 3746.909
217.7334, 3736.520
218.2155, 3724.741
218.6976, 3720.829
219.1797, 3724.696
219.6618, 3737.615
220.1439, 3771.928
220.6261, 3798.499
221.1082, 3797.243
221.5903, 3776.369
222.0724, 3757.155
222.5545, 3752.522
223.0366, 3759.897
223.5188, 3770.011
224.0009, 3788.797
224.4830, 3799.636
224.9651, 3787.628
225.4472, 3764.090
225.9293, 3749.168
226.4115, 3757.251
226.8936, 3777.761
227.3757, 3783.578
227.8578, 3769.153
228.3399, 3752.595
228.8220, 3738.745
229.3041, 3728.249
229.7863, 3722.998
230.2684, 3725.369
230.7505, 3730.499
231.2326, 3731.480
231.7147, 3729.294
232.1968, 3719.243
232.6790, 3690.570
233.1611, 3657.183
233.6432, 3632.000
234.1253, 3619.289
234.6074, 3611.622
235.0895, 3598.105
235.5717, 3577.011
236.0538, 3564.267
236.5359, 3575.793
237.0180, 3590.554
237.5001, 3589.844
237.9822, 3570.411
238.4644, 3548.234
238.9465, 3539.376
239.4286, 3543.535
239.9107, 3544.884
240.3928, 3537.664
240.8749, 3529.211
241.3571, 3527.426
241.8392, 3531.861
242.3213, 3532.170
242.8034, 3515.664
243.2855, 3486.698
243.7676, 3470.885
244.2498, 3478.867
244.7319, 3489.368
245.2140, 3483.151
245.6961, 3464.682
246.1782, 3451.768
246.6603, 3458.791
247.1425, 3477.688
247.6246, 3487.417
248.1067, 3486.230
248.5888, 3477.967
249.0709, 3461.265
249.5530, 3439.721
250.0352, 3420.115
250.5173, 3404.620
250.9994, 3392.533
251.4815, 3383.042
251.9636, 3376.334
252.4457, 3371.405
252.9279, 3369.287
253.4100, 3368.236
253.8921, 3364.900
254.3742, 3355.344
254.8563, 3347.957
255.3384, 3354.882
255.8206, 3375.537
256.3027, 3389.199
256.7848, 3383.680
257.2669, 3368.370
257.7490, 3358.523
258.2311, 3354.894
258.7133, 3355.534
259.1954, 3361.030
259.6775, 3370.250
260.1596, 3379.353
260.6417, 3388.794
261.1238, 3395.162
261.6060, 3391.190
262.0881, 3375.653
262.5702, 3366.121
263.0523, 3375.888
263.5344, 3395.190
264.0165, 3404.417
264.4987, 3398.246
264.9808, 3389.042
265.4629, 3392.127
265.9450, 3406.328
266.4271, 3415.616
266.9092, 3411.500
267.3914, 3404.116
267.8735, 3403.896
268.3556, 3411.750
268.8377, 3424.162
269.3198, 3440.733
269.8019, 3460.308
270.2841, 3473.168
270.7662, 3477.356
271.2483, 3476.566
271.7304, 3469.108
272.2125, 3457.349
272.6946, 3451.302
273.1768, 3457.619
273.6589, 3473.063
274.1410, 3484.488
274.6231, 3487.603
275.1052, 3492.723
275.5873, 3500.619
276.0695, 3513.024
276.5516, 3535.929
277.0337, 3572.988
277.5158, 3614.086
277.9979, 3638.403
278.4800, 3636.833
278.9622, 3637.095
279.4443, 3643.029
279.9264, 3650.982
280.4085, 3660.444
280.8906, 3670.392
281.3727, 3673.197
281.8549, 3657.677
282.3370, 3615.615
282.8191, 3587.727
283.3012, 3579.861
283.7833, 3579.610
284.2654, 3581.025
284.7476, 3583.444
285.2297, 3588.863
285.7118, 3599.876
286.1939, 3616.382
286.6760, 3622.850
287.1581, 3611.314
287.6403, 3599.225
288.1224, 3586.926
288.6045, 3577.957
289.0866, 3579.992
289.5687, 3597.839
290.0508, 3623.628
290.5330, 3631.152
291.0151, 3603.286
291.4972, 3580.485
291.9793, 3566.334
292.4614, 3558.076
292.9435, 3554.003
293.4257, 3553.347
293.9078, 3555.030
294.3899, 3559.444
294.8720, 3572.214
295.3541, 3571.226
295.8362, 3539.059
296.3184, 3507.928
296.8005, 3495.799
297.2826, 3501.738
297.7647, 3513.828
298.2468, 3524.430
298.7289, 3533.386
299.2111, 3530.141
299.6932, 3498.382
300.1753, 3474.172
300.6574, 3475.645
301.1395, 3492.563
301.6216, 3506.384
302.1038, 3506.421
302.5859, 3498.786
303.0680, 3499.043
303.5501, 3511.078
304.0322, 3520.487
304.5143, 3517.870
304.9964, 3512.538
305.4785, 3514.897
305.9607, 3528.809
306.4428, 3541.832
306.9249, 3537.005
307.4070, 3514.554
307.8891, 3500.130
308.3712, 3503.399
308.8534, 3512.949
309.3355, 3518.108
309.8176, 3519.005
310.2997, 3520.093
310.7818, 3526.587
311.2639, 3534.851
311.7461, 3532.105
312.2282, 3511.798
312.7103, 3498.070
313.1924, 3521.502
313.6745, 3569.058
314.1566, 3602.051
314.6388, 3603.465
315.1209, 3593.398
315.6030, 3590.638
316.0851, 3594.489
316.5672, 3594.529
317.0493, 3583.243
317.5315, 3565.469
318.0136, 3555.113
318.4957, 3552.324
318.9778, 3555.735
319.4599, 3571.675
319.9420, 3592.377
320.4242, 3601.436
320.9063, 3592.611
321.3884, 3578.603
321.8705, 3579.703
322.3526, 3604.378
322.8347, 3619.106
323.3169, 3616.012
323.7990, 3606.916
324.2811, 3600.690
324.7632, 3598.068
325.2453, 3594.446
325.7274, 3584.359
326.2096, 3567.290
326.6917, 3566.070
327.1738, 3600.136
327.6559, 3626.657
328.1380, 3631.199
328.6201, 3619.277
329.1023, 3597.992
329.5844, 3570.270
330.0665, 3542.525
330.5486, 3534.167
331.0307, 3562.707
331.5128, 3582.544
331.9950, 3586.091
332.4771, 3583.747
332.9592, 3582.199
333.4413, 3583.301
333.9234, 3586.646
334.4055, 3592.959
334.8877, 3603.230
335.3698, 3609.071
335.8519, 3606.429
336.3340, 3602.995
336.8161, 3601.117
337.2982, 3600.792
337.7804, 3601.653
338.2625, 3603.931
338.7446, 3606.922
339.2267, 3607.945
339.7088, 3605.200
340.1909, 3605.548
340.6731, 3615.901
341.1552, 3628.822
341.6373, 3636.066
342.1194, 3634.889
342.6015, 3633.036
343.0836, 3638.028
343.5658, 3649.177
344.0479, 3661.040
344.5300, 3673.979
345.0121, 3684.956
345.4942, 3688.142
345.9763, 3684.390
346.4585, 3686.965
346.9406, 3704.782
347.4227, 3729.576
347.9048, 3754.913
348.3869, 3780.439
348.8690, 3791.308
349.3512, 3768.645
349.8333, 3721.347
350.3154, 3702.924
350.7975, 3730.136
351.2796, 3767.114
351.7617, 3806.182
352.2439, 3842.880
352.7260, 3865.657
353.2081, 3868.776
353.6902, 3863.613
354.1723, 3871.547
354.6544, 3902.605
355.1366, 3928.965
355.6187, 3955.970
356.1008, 3974.502
356.5829, 3969.868
357.0650, 3946.003
357.5471, 3927.199
358.0293, 3937.870
358.5114, 3978.696
358.9935, 3997.803
359.4756, 3968.331
359.9577, 3945.488
360.4398, 3940.685
360.9220, 3950.117
361.4041, 3971.553
361.8862, 4004.728
362.3683, 4038.201
362.8504, 4046.920
363.3326, 4021.190
363.8147, 3999.547
364.2968, 3986.796
364.7789, 3979.970
365.2610, 3977.778
365.7431, 3980.104
366.2253, 3987.341
366.7074, 4002.804
367.1895, 4024.330
367.6716, 4040.823
368.1537, 4051.229
368.6358, 4058.196
369.1180, 4060.999
369.6001, 4061.858
370.0822, 4064.139
370.5643, 4067.905
371.0464, 4074.505
371.5285, 4088.942
372.0107, 4109.209
372.4928, 4121.173
372.9749, 4117.443
373.4570, 4106.558
373.9391, 4102.115
374.4212, 4104.673
374.9034, 4107.572
375.3855, 4105.917
375.8676, 4105.513
376.3497, 4115.278
376.8318, 4135.304
377.3139, 4155.542
377.7961, 4169.751
378.2782, 4177.587
378.7603, 4169.719
379.2424, 4137.206
379.7245, 4102.360
380.2066, 4064.963
380.6888, 4031.287
381.1709, 4012.184
381.6530, 4011.735
382.1351, 4021.173
382.6172, 4024.766
383.0993, 4020.607
383.5815, 4014.377
384.0636, 4008.353
384.5457, 3998.665
385.0278, 3978.099
385.5099, 3950.750
385.9920, 3930.156
386.4742, 3928.074
386.9563, 3940.645
387.4384, 3949.452
387.9205, 3957.909
388.4026, 3955.327
388.8847, 3927.996
389.3669, 3893.240
389.8490, 3870.336
390.3311, 3864.798
390.8132, 3864.210
391.2953, 3856.971
391.7774, 3843.920
392.2596, 3829.870
392.7417, 3812.005
393.2238, 3800.163
393.7059, 3814.241
394.1880, 3847.466
394.6701, 3860.895
395.1523, 3827.446
395.6344, 3782.264
396.1165, 3757.277
396.5986, 3751.759
397.0807, 3754.961
397.5628, 3764.285
398.0450, 3774.944
398.5271, 3771.495
399.0092, 3745.640
399.4913, 3721.336
399.9734, 3702.436
400.4555, 3686.612
400.9377, 3670.819
401.4197, 3654.828
401.9019, 3641.237
402.3840, 3632.742
402.8661, 3629.646
403.3482, 3628.057
403.8303, 3631.165
404.3124, 3632.299
404.7946, 3629.351
405.2767, 3623.465
405.7588, 3616.417
406.2409, 3608.896
406.7230, 3600.474
407.2051, 3588.599
407.6873, 3570.928
408.1694, 3561.376
408.6515, 3569.275
409.1336, 3579.702
409.6157, 3582.679
410.0978, 3579.344
410.5800, 3577.408
411.0621, 3584.659
411.5442, 3595.062
412.0263, 3593.549
412.5084, 3578.029
412.9905, 3570.858
413.4727, 3592.505
413.9548, 3625.559
414.4369, 3630.553
414.9190, 3593.030
415.4011, 3559.754
415.8832, 3553.657
416.3654, 3562.693
416.8475, 3569.535
417.3296, 3570.547
417.8117, 3567.600
418.2938, 3560.712
418.7759, 3548.414
419.2581, 3550.705
419.7402, 3588.451
420.2223, 3616.022
420.7044, 3608.019
421.1865, 3580.417
421.6686, 3560.284
422.1508, 3559.385
422.6329, 3568.472
423.1150, 3569.964
423.5971, 3560.877
424.0792, 3552.305
424.5613, 3548.329
425.0435, 3541.883
425.5256, 3526.146
426.0077, 3504.231
426.4898, 3486.675
426.9719, 3482.058
427.4540, 3484.753
427.9362, 3480.408
428.4183, 3467.706
428.9004, 3454.521
429.3825, 3445.455
429.8646, 3436.443
430.3467, 3419.831
430.8289, 3392.375
431.3110, 3373.407
431.7931, 3379.295
432.2752, 3397.555
432.7573, 3408.064
433.2394, 3407.990
433.7216, 3403.140
434.2037, 3397.899
434.6858, 3392.077
435.1679, 3383.020
435.6500, 3366.258
436.1321, 3351.911
436.6143, 3341.434
437.0964, 3335.723
437.5785, 3336.844
438.0606, 3345.138
438.5427, 3357.349
439.0248, 3369.682
439.5070, 3383.331
439.9891, 3391.940
440.4712, 3401.224
440.9533, 3399.314
441.4354, 3370.182
441.9175, 3328.740
442.3997, 3301.716
442.8818, 3303.338
443.3639, 3320.305
443.8460, 3331.762
444.3281, 3337.470
444.8102, 3341.514
445.2924, 3347.819
445.7745, 3349.093
446.2566, 3333.157
446.7387, 3302.398
447.2208, 3283.906
447.7029, 3299.639
448.1851, 3325.110
448.6672, 3331.235
449.1493, 3319.045
449.6314, 3306.200
450.1135, 3301.836
450.5956, 3303.251
451.0778, 3303.015
451.5599, 3298.570
452.0420, 3297.027
452.5241, 3302.280
453.0062, 3308.458
453.4883, 3312.017
453.9705, 3311.850
454.4526, 3306.322
454.9347, 3292.779
455.4168, 3273.049
455.8989, 3261.680
456.3810, 3261.871
456.8632, 3265.861
457.3453, 3275.010
457.8274, 3284.895
458.3095, 3292.477
458.7916, 3296.967
459.2737, 3296.697
459.7559, 3286.514
460.2380, 3269.557
460.7201, 3260.589
461.2022, 3262.457
461.6843, 3266.470
462.1664, 3268.109
462.6486, 3267.523
463.1307, 3264.830
463.6128, 3256.995
464.0949, 3251.659
464.5770, 3257.685
465.0591, 3267.647
465.5413, 3265.597
466.0234, 3247.856
466.5055, 3229.266
466.9876, 3226.660
467.4697, 3242.259
467.9518, 3254.139
468.4340, 3262.627
468.9161, 3267.581
469.3982, 3264.861
469.8803, 3259.952
470.3624, 3262.684
470.8445, 3276.343
471.3267, 3290.169
471.8088, 3285.891
472.2909, 3260.572
472.7730, 3243.202
473.2551, 3239.914
473.7372, 3239.563
474.2194, 3234.543
474.7015, 3227.588
475.1836, 3225.042
475.6657, 3230.749
476.1478, 3239.052
476.6299, 3245.422
477.1121, 3249.833
477.5942, 3250.819
478.0763, 3246.572
478.5584, 3243.529
479.0405, 3251.292
479.5226, 3272.907
480.0048, 3286.375
480.4869, 3284.045
480.9690, 3280.542
481.4511, 3282.931
481.9332, 3290.209
482.4153, 3299.168
482.8975, 3308.393
483.3796, 3318.948
483.8617, 3334.702
484.3438, 3361.009
484.8259, 3376.116
485.3080, 3366.523
485.7902, 3356.978
486.2723, 3360.818
486.7544, 3372.921
487.2365, 3379.958
487.7186, 3374.097
488.2007, 3362.670
488.6829, 3355.499
489.1650, 3352.428
489.6471, 3350.145
490.1292, 3346.723
490.6113, 3345.403
491.0934, 3352.908
491.5756, 3369.024
492.0577, 3378.945
492.5398, 3376.290
493.0219, 3370.534
493.5040, 3366.584
493.9861, 3364.805
494.4683, 3366.467
494.9504, 3372.381
495.4325, 3377.920
495.9146, 3373.479
496.3967, 3354.414
496.8788, 3336.949
497.3610, 3323.031
497.8431, 3308.774
498.3252, 3287.606
498.8073, 3265.232
499.2894, 3255.139
499.7715, 3266.957
500.2536, 3285.847
500.7357, 3288.904
501.2179, 3276.125
501.7000, 3257.839
502.1821, 3233.931
502.6642, 3208.887
503.1463, 3182.789
503.6284, 3157.060
504.1106, 3146.094
504.5927, 3173.445
505.0748, 3197.196
505.5569, 3178.794
506.0390, 3134.957
506.5211, 3109.975
507.0033, 3121.422
507.4854, 3145.410
507.9675, 3142.855
508.4496, 3100.362
508.9317, 3078.487
509.4138, 3098.182
509.8960, 3115.392
510.3781, 3110.825
510.8602, 3093.255
511.3423, 3078.958
511.8244, 3074.783
512.3066, 3074.909
512.7887, 3072.085
513.2708, 3066.424
513.7529, 3059.980
514.2350, 3052.145
514.7172, 3045.452
515.1993, 3046.449
515.6814, 3051.105
516.1635, 3044.367
516.6456, 3009.851
517.1277, 2978.691
517.6099, 2968.953
518.0920, 2973.221
518.5741, 2981.788
519.0562, 2991.409
519.5383, 2996.405
520.0204, 2988.566
520.5026, 2966.138
520.9847, 2955.305
521.4668, 2968.168
521.9489, 2979.333
522.4310, 2985.882
522.9131, 2986.749
523.3953, 2978.271
523.8774, 2959.940
524.3595, 2942.860
524.8416, 2940.756
525.3237, 2949.551
525.8058, 2948.976
526.2880, 2934.636
526.7701, 2925.332
527.2522, 2936.865
527.7343, 2960.539
528.2164, 2970.814
528.6985, 2961.630
529.1807, 2951.602
529.6628, 2944.571
530.1449, 2940.670
530.6270, 2942.079
531.1091, 2947.611
531.5912, 2950.369
532.0734, 2943.828
532.5555, 2931.838
533.0376, 2934.741
533.5197, 2964.313
534.0018, 2986.364
534.4839, 2998.069
534.9661, 2999.414
535.4482, 2982.286
535.9303, 2951.585
536.4124, 2930.881
536.8945, 2942.288
537.3766, 2967.782
537.8588, 2976.555
538.3409, 2969.772
538.8230, 2967.590
539.3051, 2980.042
539.7872, 2995.904
540.2693, 2996.535
540.7515, 2976.972
541.2336, 2964.026
541.7157, 2960.800
542.1978, 2962.376
542.6799, 2968.134
543.1620, 2976.196
543.6442, 2984.518
544.1263, 2992.174
544.6084, 2997.269
545.0905, 2996.904
545.5726, 2991.035
546.0547, 2979.212
546.5369, 2956.262
547.0190, 2934.644
547.5011, 2921.744
547.9832, 2914.395
548.4653, 2907.204
548.9474, 2899.048
549.4296, 2890.735
549.9116, 2884.405
550.3937, 2877.957
550.8759, 2865.946
551.3580, 2847.730
551.8401, 2830.340
552.3222, 2819.580
552.8043, 2814.838
553.2864, 2810.584
553.7686, 2805.420
554.2507, 2802.636
554.7328, 2806.060
555.2149, 2809.455
555.6970, 2809.405
556.1791, 2804.597
556.6613, 2792.555
557.1434, 2767.105
557.6255, 2736.296
558.1076, 2720.429
558.5897, 2720.345
559.0718, 2726.004
559.5540, 2739.466
560.0361, 2750.911
560.5182, 2744.327
561.0003, 2719.850
561.4824, 2697.626
561.9645, 2673.958
562.4467, 2659.828
562.9288, 2670.958
563.4109, 2695.247
563.8930, 2709.297
564.3751, 2704.302
564.8572, 2687.965
565.3394, 2668.420
565.8215, 2643.518
566.3036, 2633.295
566.7857, 2650.214
567.2678, 2664.149
567.7499, 2662.287
568.2321, 2651.326
568.7142, 2638.539
569.1963, 2624.504
569.6784, 2614.250
570.1605, 2611.639
570.6426, 2614.733
571.1248, 2622.077
571.6069, 2632.944
572.0890, 2641.784
572.5711, 2644.761
573.0532, 2643.804
573.5353, 2645.189
574.0175, 2655.332
574.4996, 2657.555
574.9817, 2643.377
575.4638, 2629.396
575.9459, 2625.674
576.4280, 2630.655
576.9102, 2638.652
577.3923, 2647.761
577.8744, 2655.892
578.3565, 2660.104
578.8386, 2660.483
579.3207, 2656.638
579.8029, 2645.844
580.2850, 2638.481
580.7671, 2646.396
581.2492, 2667.381
581.7313, 2679.333
582.2134, 2673.424
582.6956, 2669.216
583.1777, 2677.796
583.6598, 2688.168
584.1419, 2684.780
584.6240, 2667.993
585.1061, 2653.549
585.5883, 2655.169
586.0704, 2669.170
586.5525, 2680.702
587.0346, 2689.828
587.5167, 2696.167
587.9988, 2699.968
588.4810, 2700.427
588.9631, 2697.129
589.4452, 2690.124
589.9273, 2680.057
590.4094, 2660.698
590.8915, 2644.223
591.3737, 2641.639
591.8558, 2648.590
592.3379, 2655.917
592.8200, 2660.760
593.3021, 2664.247
593.7842, 2667.823
594.2664, 2671.559
594.7485, 2673.313
595.2306, 2667.266
595.7127, 2668.012
596.1948, 2687.720
596.6769, 2709.962
597.1591, 2716.962
597.6412, 2707.020
598.1233, 2695.653
598.6054, 2689.404
599.0875, 2688.779
599.5696, 2696.296
600.0518, 2710.875
600.5339, 2727.199
601.0160, 2743.838
601.4981, 2757.592
601.9802, 2763.053
602.4623, 2758.326
602.9445, 2752.629
603.4266, 2744.505
603.9087, 2737.140
604.3908, 2730.524
604.8729, 2725.804
605.3550, 2727.022
605.8372, 2734.905
606.3193, 2738.097
606.8014, 2718.853
607.2835, 2687.814
607.7656, 2678.126
608.2477, 2692.329
608.7299, 2703.771
609.2120, 2700.268
609.6941, 2685.068
610.1762, 2663.407
610.6583, 2629.978
611.1404, 2604.175
611.6226, 2595.590
612.1047, 2585.595
612.5868, 2555.179
613.0689, 2518.709
613.5510, 2506.521
614.0331, 2529.967
614.5153, 2559.132
614.9974, 2554.424
615.4795, 2521.194
615.9616, 2496.427
616.4437, 2484.003
616.9258, 2472.209
617.4080, 2453.469
617.8901, 2432.033
618.3722, 2417.093
618.8543, 2407.303
619.3364, 2406.635
619.8185, 2428.462
620.3007, 2448.229
620.7828, 2446.506
621.2649, 2429.140
621.7470, 2411.997
622.2291, 2402.199
622.7112, 2395.291
623.1934, 2384.803
623.6755, 2370.734
624.1576, 2356.052
624.6397, 2339.206
625.1218, 2326.181
625.6039, 2321.556
626.0861, 2322.611
626.5682, 2323.178
627.0503, 2322.652
627.5324, 2323.250
628.0145, 2327.713
628.4966, 2331.781
628.9788, 2330.436
629.4609, 2325.614
629.9430, 2324.032
630.4251, 2329.051
630.9072, 2334.782
631.3893, 2330.007
631.8715, 2313.809
632.3536, 2302.015
632.8357, 2295.982
633.3178, 2293.065
633.7999, 2293.904
634.2820, 2296.274
634.7642, 2295.948
635.2463, 2291.503
635.7284, 2288.456
636.2105, 2291.550
636.6926, 2294.507
637.1747, 2292.113
637.6569, 2284.567
638.1390, 2271.862
638.6211, 2253.798
639.1032, 2237.464
639.5853, 2237.480
640.0674, 2255.983
640.5496, 2266.486
641.0317, 2268.887
641.5138, 2261.946
641.9959, 2233.290
642.4780, 2199.571
642.9601, 2188.257
643.4423, 2206.355
643.9244, 2223.278
644.4065, 2227.759
644.8886, 2227.575
645.3707, 2228.709
645.8528, 2231.094
646.3350, 2233.535
646.8171, 2235.503
647.2992, 2235.373
647.7813, 2228.463
648.2634, 2213.894
648.7455, 2209.031
649.2277, 2218.830
649.7098, 2227.983
650.1919, 2228.415
650.6740, 2224.737
651.1561, 2223.908
651.6382, 2227.048
652.1204, 2227.681
652.6025, 2220.957
653.0846, 2213.700
653.5667, 2212.451
654.0488, 2214.615
654.5309, 2214.086
655.0131, 2208.600
655.4952, 2200.142
655.9773, 2188.684
656.4594, 2174.672
656.9415, 2175.710
657.4236, 2199.550
657.9058, 2215.275
658.3879, 2204.379
658.8700, 2183.876
659.3521, 2178.126
659.8342, 2188.221
660.3163, 2196.154
660.7985, 2198.271
661.2806, 2197.147
