##NAMES=Pyrargyrite
##RRUFFID=R050318
##IDEAL CHEMISTRY=Ag^1+^_3_Sb^3+^S^2-^_3_
##LOCALITY=unknown
##OWNER=RRUFF
##SOURCE=Eugene Schlepp
##DESCRIPTION=Black prismatic crystal
##STATUS=The identification of this mineral has been confirmed by X-ray diffraction and chemical analysis
##URL=rruff.info/R050318
##MEASURED CHEMISTRY=Ag_3.00_Sb_1.00_S_3.00_
113.809, 51.790
114.291, 48.949
114.773, 49.173
115.256, 57.830
115.738, 69.110
116.220, 76.583
116.702, 74.437
117.184, 70.882
117.666, 70.035
118.148, 73.046
118.630, 76.375
119.113, 77.725
119.595, 78.033
120.077, 79.356
120.559, 86.264
121.041, 93.054
121.523, 93.772
122.005, 82.324
122.487, 70.482
122.969, 70.346
123.451, 80.265
123.934, 88.986
124.416, 85.955
124.898, 76.402
125.380, 69.469
125.862, 70.452
126.344, 75.351
126.826, 79.312
127.308, 82.403
127.791, 83.236
128.273, 78.147
128.755, 68.649
129.237, 61.115
129.719, 59.673
130.201, 62.834
130.683, 66.376
131.165, 70.405
131.648, 73.832
132.130, 74.659
132.612, 72.860
133.094, 70.279
133.576, 68.243
134.058, 66.704
134.540, 64.172
135.022, 59.002
135.504, 52.983
135.986, 55.270
136.469, 68.091
136.951, 81.301
137.433, 83.007
137.915, 70.886
138.397, 61.187
138.879, 58.794
139.361, 63.964
139.844, 69.811
140.326, 77.661
140.808, 84.612
141.290, 84.974
141.772, 75.248
142.254, 66.723
142.736, 64.355
143.218, 71.482
143.700, 75.602
144.182, 74.821
144.665, 71.302
145.147, 72.554
145.629, 83.757
146.111, 93.772
146.593, 95.839
147.075, 80.321
147.557, 71.522
148.039, 74.426
148.522, 88.379
149.004, 96.794
149.486, 96.219
149.968, 92.165
150.450, 88.915
150.932, 87.369
151.414, 85.757
151.896, 83.028
152.378, 78.312
152.861, 77.023
153.343, 82.032
153.825, 89.857
154.307, 96.157
154.789, 100.271
155.271, 102.971
155.753, 103.957
156.235, 101.624
156.717, 101.284
157.200, 106.605
157.682, 114.655
158.164, 119.009
158.646, 112.080
159.128, 104.895
159.610, 103.707
160.092, 115.157
160.574, 125.700
161.057, 130.977
161.539, 131.634
162.021, 130.834
162.503, 128.513
162.985, 125.839
163.467, 123.784
163.949, 121.652
164.431, 121.066
164.913, 124.055
165.396, 130.495
165.878, 135.551
166.360, 133.405
166.842, 129.110
167.324, 129.159
167.806, 144.550
168.288, 159.844
168.770, 161.261
169.253, 145.875
169.735, 131.312
170.217, 132.429
170.699, 143.274
171.181, 151.786
171.663, 150.519
172.145, 144.395
172.627, 137.746
173.109, 130.010
173.592, 124.798
174.074, 127.637
174.556, 136.640
175.038, 144.616
175.520, 147.283
176.002, 146.051
176.484, 142.534
176.966, 134.964
177.449, 128.050
177.931, 129.233
178.413, 137.728
178.895, 146.209
179.377, 148.505
179.859, 146.383
180.341, 144.326
180.823, 144.805
181.305, 145.469
181.788, 140.581
182.270, 129.961
182.752, 120.341
183.234, 121.633
183.716, 130.810
184.198, 135.419
184.680, 126.760
185.162, 110.115
185.645, 99.517
186.127, 95.494
186.609, 95.397
187.091, 97.704
187.573, 102.057
188.055, 104.813
188.537, 102.028
189.019, 95.490
189.501, 94.658
189.984, 101.373
190.466, 110.476
190.948, 112.889
191.430, 108.559
191.912, 103.948
192.394, 103.484
192.876, 106.695
193.358, 108.179
193.840, 106.943
194.323, 104.294
194.805, 102.499
195.287, 101.391
195.769, 102.537
196.251, 109.377
196.733, 122.186
197.215, 128.929
197.697, 126.318
198.180, 116.963
198.662, 110.020
199.144, 105.789
199.626, 102.795
200.108, 99.094
200.590, 94.248
201.072, 93.031
201.554, 97.795
202.036, 107.418
202.519, 113.095
203.001, 113.690
203.483, 113.054
203.965, 116.183
204.447, 124.306
204.929, 129.828
205.411, 129.558
205.893, 123.520
206.376, 120.232
206.858, 120.528
207.340, 122.274
207.822, 122.478
208.304, 120.724
208.786, 118.849
209.268, 117.620
209.750, 117.196
210.232, 115.785
210.715, 112.592
211.197, 109.225
211.679, 109.129
212.161, 113.952
212.643, 117.887
213.125, 118.076
213.607, 113.331
214.089, 109.363
214.572, 105.443
215.054, 102.729
215.536, 105.514
216.018, 118.693
216.500, 127.570
216.982, 122.131
217.464, 94.308
217.946, 77.552
218.428, 76.500
218.911, 87.027
219.393, 95.563
219.875, 102.237
220.357, 106.565
220.839, 107.987
221.321, 105.782
221.803, 102.449
222.285, 97.592
222.768, 91.634
223.250, 87.105
223.732, 83.458
224.214, 81.940
224.696, 84.241
225.178, 93.843
225.660, 99.358
226.142, 98.238
226.624, 91.061
227.107, 85.259
227.589, 79.198
228.071, 76.335
228.553, 80.777
229.035, 99.380
229.517, 111.563
229.999, 112.238
230.481, 101.351
230.964, 94.321
231.446, 92.268
231.928, 92.896
232.410, 94.350
232.892, 97.954
233.374, 99.848
233.856, 98.711
234.338, 94.257
234.820, 91.146
235.303, 90.023
235.785, 89.728
236.267, 88.593
236.749, 84.429
237.231, 83.367
237.713, 87.929
238.195, 99.368
238.677, 107.772
239.159, 112.493
239.642, 114.664
240.124, 115.412
240.606, 113.006
241.088, 112.137
241.570, 115.275
242.052, 124.604
242.534, 127.299
243.016, 118.636
243.499, 106.283
243.981, 102.800
244.463, 114.416
244.945, 124.754
245.427, 127.758
245.909, 120.322
246.391, 117.631
246.873, 123.787
247.355, 132.502
247.837, 131.191
248.320, 111.793
248.802, 95.744
249.284, 91.664
249.766, 104.174
250.248, 113.946
250.730, 120.014
251.212, 123.839
251.695, 128.490
252.177, 135.267
252.659, 140.740
253.141, 143.586
253.623, 143.452
254.105, 141.558
254.587, 137.378
255.069, 131.683
255.551, 125.571
256.034, 116.982
256.516, 111.678
256.998, 113.614
257.480, 128.020
257.962, 134.909
258.444, 131.510
258.926, 121.681
259.408, 114.726
259.890, 110.941
260.373, 109.493
260.855, 110.670
261.337, 116.190
261.819, 118.774
262.301, 116.813
262.783, 112.424
263.265, 111.697
263.747, 116.168
264.229, 121.083
264.712, 124.743
265.194, 127.964
265.676, 126.271
266.158, 117.359
266.640, 104.423
267.122, 96.580
267.604, 94.366
268.086, 95.811
268.569, 101.735
269.051, 114.878
269.533, 119.590
270.015, 111.134
270.497, 95.867
270.979, 92.727
271.461, 105.457
271.943, 119.585
272.426, 126.750
272.908, 125.979
273.390, 124.011
273.872, 120.570
274.354, 116.792
274.836, 116.587
275.318, 121.195
275.800, 124.864
276.282, 122.365
276.764, 112.543
277.247, 109.240
277.729, 116.135
278.211, 128.036
278.693, 130.155
279.175, 120.428
279.657, 111.460
280.139, 112.356
280.621, 123.452
281.104, 132.643
281.586, 139.420
282.068, 142.956
282.550, 139.478
283.032, 128.052
283.514, 118.014
283.996, 116.669
284.478, 123.482
284.961, 127.597
285.443, 126.869
285.925, 124.379
286.407, 126.821
286.889, 134.306
287.371, 143.203
287.853, 152.570
288.335, 161.965
288.817, 167.973
289.299, 169.879
289.782, 168.881
290.264, 166.695
290.746, 163.345
291.228, 159.520
291.710, 153.280
292.192, 146.300
292.674, 146.392
293.156, 155.622
293.639, 169.253
294.121, 180.979
294.603, 190.661
295.085, 198.864
295.567, 207.827
296.049, 215.521
296.531, 214.820
297.013, 202.274
297.496, 188.750
297.978, 191.280
298.460, 206.800
298.942, 220.495
299.424, 223.255
299.906, 218.607
300.388, 211.451
300.870, 200.733
301.352, 192.911
301.835, 198.856
302.317, 214.586
302.799, 227.590
303.281, 229.026
303.763, 224.208
304.245, 219.637
304.727, 215.658
305.209, 213.186
305.691, 213.111
306.174, 215.179
306.656, 218.700
307.138, 222.903
307.620, 228.623
308.102, 237.652
308.584, 250.791
309.066, 263.312
309.548, 271.270
310.030, 276.257
310.513, 281.459
310.995, 287.505
311.477, 294.887
311.959, 303.793
312.441, 314.121
312.923, 326.636
313.405, 341.445
313.888, 358.763
314.370, 378.569
314.852, 406.991
315.334, 433.522
315.816, 451.063
316.298, 458.475
316.780, 465.915
317.262, 475.950
317.744, 488.969
318.227, 505.285
318.709, 530.387
319.191, 554.091
319.673, 572.345
320.155, 584.836
320.637, 595.318
321.119, 609.161
321.601, 619.606
322.083, 620.243
322.566, 598.493
323.048, 578.247
323.530, 569.363
324.012, 571.985
324.494, 563.522
324.976, 533.728
325.458, 495.629
325.940, 458.579
326.422, 418.508
326.905, 385.444
327.387, 364.684
327.869, 355.235
328.351, 339.603
328.833, 310.170
329.315, 279.967
329.797, 256.620
330.279, 245.059
330.762, 233.702
331.244, 222.785
331.726, 211.822
332.208, 198.022
332.690, 177.835
333.172, 158.927
333.654, 145.179
334.136, 137.468
334.618, 133.338
335.101, 134.400
335.583, 138.536
336.065, 139.241
336.547, 135.620
337.029, 130.380
337.511, 123.684
337.993, 113.922
338.475, 110.465
338.957, 115.825
339.440, 125.370
339.922, 129.703
340.404, 128.370
340.886, 123.998
341.368, 115.471
341.850, 102.253
342.332, 97.664
342.815, 103.743
343.297, 113.838
343.779, 118.317
344.261, 117.068
344.743, 113.868
345.225, 109.233
345.707, 103.687
346.189, 99.690
346.671, 97.301
347.154, 96.499
347.636, 98.728
348.118, 103.173
348.600, 105.465
349.082, 102.846
349.564, 97.321
350.046, 93.282
350.528, 90.755
351.010, 88.061
351.493, 81.855
351.975, 74.302
352.457, 70.785
352.939, 75.979
353.421, 83.252
353.903, 84.017
354.385, 78.995
354.867, 73.761
355.349, 71.936
355.832, 72.247
356.314, 73.042
356.796, 73.595
357.278, 74.976
357.760, 79.746
358.242, 86.470
358.724, 90.301
359.206, 89.079
359.689, 83.763
360.171, 73.421
360.653, 52.703
361.135, 38.454
361.617, 44.007
362.099, 61.205
362.581, 73.265
363.063, 69.938
363.546, 63.840
364.028, 60.375
364.510, 59.934
364.992, 62.888
365.474, 74.885
365.956, 89.071
366.438, 95.390
366.920, 84.656
367.402, 73.699
367.884, 66.738
368.367, 64.425
368.849, 63.347
369.331, 64.876
369.813, 66.802
370.295, 67.005
370.777, 63.537
371.259, 61.063
371.741, 59.763
372.224, 59.699
372.706, 63.573
373.188, 75.191
373.670, 85.868
374.152, 88.187
374.634, 78.260
375.116, 71.127
375.598, 68.510
376.081, 69.798
376.563, 73.864
377.045, 82.288
377.527, 88.538
378.009, 87.016
378.491, 77.230
378.973, 71.829
379.455, 72.868
379.937, 76.541
380.419, 75.304
380.902, 69.114
381.384, 63.576
381.866, 60.331
382.348, 59.834
382.830, 66.775
383.312, 82.882
383.794, 97.378
384.276, 93.361
384.759, 75.590
385.241, 61.842
385.723, 62.744
386.205, 70.575
386.687, 73.733
387.169, 72.330
387.651, 69.826
388.133, 69.517
388.616, 69.789
389.098, 67.980
389.580, 60.890
390.062, 54.109
390.544, 51.693
391.026, 53.222
391.508, 56.603
391.990, 63.390
392.472, 70.086
392.955, 73.950
393.437, 74.606
393.919, 72.039
394.401, 62.621
394.883, 50.032
395.365, 42.207
395.847, 44.272
396.329, 49.040
396.811, 54.129
397.294, 60.187
397.776, 63.647
398.258, 62.937
398.740, 59.726
399.222, 56.017
399.704, 50.824
400.186, 46.323
400.668, 42.840
401.151, 40.375
401.633, 39.062
402.115, 39.940
402.597, 40.925
403.079, 39.782
403.561, 34.179
404.043, 32.599
404.525, 37.818
405.008, 47.721
405.490, 52.708
405.972, 51.596
406.454, 49.371
406.936, 49.445
407.418, 52.001
407.900, 52.162
408.382, 48.985
408.864, 44.507
409.346, 41.814
409.829, 40.903
410.311, 41.660
410.793, 44.851
411.275, 49.680
411.757, 54.194
412.239, 58.473
412.721, 61.100
413.203, 60.478
413.686, 57.021
414.168, 51.542
414.650, 39.836
415.132, 29.848
415.614, 33.398
416.096, 48.677
416.578, 62.406
417.060, 65.376
417.543, 62.449
418.025, 57.970
418.507, 50.522
418.989, 46.045
419.471, 50.196
419.953, 59.850
420.435, 67.494
420.917, 70.370
421.399, 70.676
421.882, 68.362
422.364, 61.557
422.846, 58.927
423.328, 67.471
423.810, 79.132
424.292, 84.113
424.774, 75.694
425.256, 66.981
425.738, 58.918
426.221, 51.605
426.703, 49.165
427.185, 55.099
427.667, 62.075
428.149, 64.738
428.631, 61.508
429.113, 57.972
429.595, 53.779
430.078, 50.042
430.560, 50.267
431.042, 55.072
431.524, 61.195
432.006, 68.470
432.488, 76.759
432.970, 78.881
433.452, 73.692
433.934, 65.493
434.417, 59.147
434.899, 54.616
435.381, 51.758
435.863, 52.368
436.345, 53.807
436.827, 48.151
437.309, 35.740
437.791, 27.619
438.273, 39.245
438.756, 59.167
439.238, 68.869
439.720, 59.603
440.202, 46.014
440.684, 37.757
441.166, 34.199
441.648, 33.538
442.130, 37.152
442.612, 41.816
443.095, 46.026
443.577, 50.204
444.059, 51.435
444.541, 47.064
445.023, 39.820
445.505, 32.949
445.987, 24.164
446.470, 18.906
446.952, 19.452
447.434, 25.831
447.916, 31.902
448.398, 39.668
448.880, 45.227
449.362, 45.510
449.844, 36.171
450.326, 31.390
450.809, 33.594
451.291, 39.831
451.773, 42.941
452.255, 42.516
452.737, 40.440
453.219, 36.143
453.701, 29.738
454.183, 29.207
454.665, 35.586
455.148, 43.461
455.630, 46.199
456.112, 44.536
456.594, 42.949
457.076, 41.927
457.558, 42.443
458.040, 48.296
458.522, 58.496
459.004, 66.057
459.487, 63.170
459.969, 55.750
460.451, 51.974
460.933, 53.980
461.415, 56.993
461.897, 57.092
462.379, 55.863
462.862, 56.068
463.344, 60.942
463.826, 65.696
464.308, 67.902
464.790, 67.376
465.272, 66.093
465.754, 63.216
466.236, 60.573
466.718, 59.479
467.201, 65.334
467.683, 66.188
468.165, 56.548
468.647, 41.307
469.129, 36.215
469.611, 47.708
470.093, 59.896
470.575, 66.445
471.057, 66.264
471.539, 67.460
472.022, 70.797
472.504, 74.177
472.986, 75.143
473.468, 73.637
473.950, 70.044
474.432, 62.715
474.914, 54.471
475.397, 54.942
475.879, 63.901
476.361, 71.779
476.843, 69.587
477.325, 61.606
477.807, 57.471
478.289, 59.394
478.771, 61.671
479.253, 58.689
479.736, 52.036
480.218, 44.934
480.700, 34.989
481.182, 28.036
481.664, 30.680
482.146, 42.397
482.628, 51.087
483.110, 50.017
483.592, 45.202
484.075, 40.871
484.557, 35.084
485.039, 33.467
485.521, 40.321
486.003, 51.793
486.485, 58.641
486.967, 58.851
487.449, 56.790
487.931, 52.500
488.414, 45.258
488.896, 43.712
489.378, 50.662
489.860, 58.892
490.342, 60.286
490.824, 53.677
491.306, 51.073
491.788, 56.623
492.271, 65.163
492.753, 61.648
493.235, 46.340
493.717, 33.378
494.199, 31.472
494.681, 37.604
495.163, 47.768
495.645, 62.621
496.128, 71.876
496.610, 57.783
497.092, 32.876
497.574, 18.251
498.056, 30.479
498.538, 46.026
499.020, 49.031
499.502, 42.264
499.984, 37.451
500.466, 40.653
500.949, 46.016
501.431, 50.333
501.913, 52.980
502.395, 55.217
502.877, 55.825
503.359, 56.675
503.841, 60.379
504.323, 72.033
504.806, 78.596
505.288, 76.325
505.770, 66.506
506.252, 57.838
506.734, 49.745
507.216, 44.032
507.698, 41.403
508.180, 41.825
508.663, 47.722
509.145, 60.602
509.627, 74.999
510.109, 84.765
510.591, 89.781
511.073, 89.171
511.555, 79.995
512.037, 66.798
512.519, 53.673
513.002, 41.483
513.484, 35.858
513.966, 45.759
514.448, 61.516
514.930, 73.695
515.412, 80.408
515.894, 84.064
516.376, 85.584
516.859, 84.784
517.341, 81.434
517.823, 65.960
518.305, 57.573
518.787, 68.216
519.269, 97.676
519.751, 109.511
520.233, 89.794
520.715, 66.663
521.198, 55.890
521.680, 62.200
522.162, 67.183
522.644, 71.042
523.126, 72.850
523.608, 69.726
524.090, 61.009
524.572, 54.944
525.054, 55.138
525.537, 59.655
526.019, 63.959
526.501, 67.964
526.983, 69.816
527.465, 66.526
527.947, 60.486
528.429, 56.348
528.911, 55.597
529.393, 53.851
529.876, 44.308
530.358, 32.036
530.840, 25.083
531.322, 31.429
531.804, 39.214
532.286, 43.245
532.768, 43.686
533.250, 44.300
533.732, 48.400
534.215, 50.861
534.697, 48.434
535.179, 36.966
535.661, 29.760
536.143, 26.393
536.625, 27.571
537.107, 36.749
537.589, 58.943
538.072, 70.682
538.554, 63.503
539.036, 42.901
539.518, 28.876
540.000, 21.421
540.482, 18.857
540.964, 22.907
541.446, 30.857
541.929, 34.727
542.411, 33.319
542.893, 31.530
543.375, 33.973
543.857, 39.330
544.339, 45.280
544.821, 53.589
545.303, 59.637
545.786, 58.162
546.268, 51.548
546.750, 48.728
547.232, 59.122
547.714, 68.704
548.196, 70.640
548.678, 62.486
549.160, 52.797
549.642, 35.202
550.125, 20.966
550.607, 22.076
551.089, 46.710
551.571, 65.763
552.053, 75.399
552.535, 77.391
553.017, 74.789
553.499, 66.952
553.981, 61.215
554.464, 63.782
554.946, 71.632
555.428, 71.963
555.910, 64.551
556.392, 56.805
556.874, 55.753
557.356, 58.408
557.838, 60.011
558.320, 59.239
558.803, 57.666
559.285, 56.696
559.767, 55.668
560.249, 53.355
560.731, 46.846
561.213, 41.342
561.695, 38.296
562.177, 37.784
562.659, 40.376
563.142, 49.283
563.624, 58.225
564.106, 64.133
564.588, 67.364
565.070, 66.229
565.552, 59.206
566.034, 49.853
566.516, 42.494
566.999, 37.074
567.481, 34.495
567.963, 35.201
568.445, 38.702
568.927, 45.817
569.409, 55.945
569.891, 63.358
570.373, 64.369
570.856, 60.614
571.338, 51.784
571.820, 37.198
572.302, 27.243
572.784, 34.254
573.266, 46.783
573.748, 52.986
574.230, 41.643
574.713, 33.170
575.195, 33.668
575.677, 40.381
576.159, 45.996
576.641, 53.214
577.123, 55.188
577.605, 47.255
578.087, 29.548
578.569, 21.783
579.052, 26.449
579.534, 34.700
580.016, 41.351
580.498, 46.265
580.980, 44.102
581.462, 32.304
581.944, 20.449
582.426, 23.696
582.908, 37.445
583.391, 47.630
583.873, 45.709
584.355, 40.990
584.837, 40.865
585.319, 44.826
585.801, 50.905
586.283, 64.890
586.765, 75.474
587.247, 74.512
587.730, 58.096
588.212, 44.416
588.694, 35.236
589.176, 29.887
589.658, 28.355
590.140, 32.681
590.622, 36.066
591.104, 37.253
591.586, 37.848
592.069, 42.137
592.551, 50.592
593.033, 56.826
593.515, 55.824
593.997, 51.788
594.479, 59.827
594.961, 78.961
595.443, 92.805
595.925, 83.380
596.408, 64.630
596.890, 54.753
597.372, 57.616
597.854, 62.403
598.336, 63.460
598.818, 62.942
599.300, 63.336
599.782, 67.164
600.265, 69.733
600.747, 69.274
601.229, 66.906
601.711, 65.913
602.193, 68.179
602.675, 68.571
603.157, 64.743
603.639, 56.904
604.122, 50.202
604.604, 44.033
605.086, 41.608
605.568, 49.886
606.050, 65.171
606.532, 68.427
607.014, 55.283
607.496, 40.889
607.979, 43.899
608.461, 56.453
608.943, 64.108
609.425, 57.326
609.907, 48.528
610.389, 43.297
610.871, 41.455
611.353, 42.227
611.835, 48.633
612.318, 54.638
612.800, 57.498
613.282, 56.899
613.764, 57.761
614.246, 61.938
614.728, 64.909
615.210, 62.698
615.692, 54.610
616.174, 47.376
616.657, 40.675
617.139, 36.703
617.621, 40.981
618.103, 51.418
618.585, 58.402
619.067, 57.401
619.549, 53.299
620.031, 51.961
620.513, 52.291
620.996, 50.840
621.478, 41.685
621.960, 33.649
622.442, 33.769
622.924, 42.821
623.406, 48.185
623.888, 42.084
624.370, 35.843
624.852, 36.366
625.335, 48.839
625.817, 55.457
626.299, 54.024
626.781, 49.602
627.263, 48.393
627.745, 50.430
628.227, 55.376
628.709, 65.084
629.192, 74.899
629.674, 75.086
630.156, 67.496
630.638, 60.170
631.120, 57.931
631.602, 57.555
632.084, 55.881
632.566, 52.990
633.049, 51.075
633.531, 50.927
634.013, 52.241
634.495, 55.363
634.977, 62.433
635.459, 65.837
635.941, 63.553
636.423, 59.031
636.906, 55.650
637.388, 53.806
637.870, 51.342
638.352, 47.237
638.834, 43.385
639.316, 43.725
639.798, 48.062
640.280, 54.609
640.762, 65.133
641.245, 75.726
641.727, 80.830
642.209, 80.654
642.691, 75.687
643.173, 59.264
643.655, 43.103
644.137, 36.640
644.619, 41.997
645.101, 48.700
645.584, 57.032
646.066, 63.972
646.548, 67.216
647.030, 63.842
647.512, 63.103
647.994, 66.794
648.476, 71.526
648.958, 71.273
649.440, 65.768
649.923, 60.850
650.405, 57.980
650.887, 56.676
651.369, 56.383
651.851, 56.967
652.333, 57.779
652.815, 60.238
653.297, 61.543
653.779, 58.260
654.262, 50.599
654.744, 43.521
655.226, 37.858
655.708, 34.254
656.190, 33.353
656.672, 36.465
657.154, 38.990
657.636, 40.082
658.119, 41.455
658.601, 45.818
659.083, 54.461
659.565, 57.860
660.047, 48.881
660.529, 60.244
661.011, 66.669
661.493, 68.422
661.976, 51.508
662.458, 58.698
662.940, 56.228
663.422, 53.362
663.904, 63.945
664.386, 49.745
664.868, 60.115
665.350, 60.677
665.833, 65.728
666.315, 61.059
666.797, 59.136
667.279, 59.587
667.761, 57.797
668.243, 50.997
668.725, 36.314
669.207, 29.547
669.689, 31.957
670.171, 38.440
670.654, 44.705
671.136, 50.367
671.618, 52.786
672.100, 50.287
672.582, 47.347
673.064, 49.882
673.546, 55.624
674.028, 60.030
674.510, 58.491
674.993, 58.045
675.475, 65.444
675.957, 77.434
676.439, 80.873
676.921, 65.005
677.403, 50.734
677.885, 44.892
678.367, 47.159
678.849, 44.312
679.332, 33.904
679.814, 27.038
680.296, 35.422
680.778, 55.226
681.260, 64.774
681.742, 62.468
682.224, 57.160
682.706, 53.660
683.189, 53.441
683.671, 60.419
684.153, 80.923
684.635, 95.100
685.117, 88.928
685.599, 72.855
686.081, 60.860
686.563, 54.819
687.045, 53.478
687.528, 58.699
688.010, 67.929
688.492, 74.651
688.974, 78.869
689.456, 80.722
689.938, 79.829
690.420, 76.790
690.903, 72.588
691.385, 67.410
691.867, 62.929
692.349, 63.783
692.831, 63.784
693.313, 52.386
693.795, 29.349
694.277, 14.736
694.759, 25.264
