##NAMES=Pyrargyrite
##RRUFFID=R050318
##IDEAL CHEMISTRY=Ag^1+^_3_Sb^3+^S^2-^_3_
##LOCALITY=unknown
##OWNER=RRUFF
##SOURCE=Eugene Schlepp
##DESCRIPTION=Black prismatic crystal
##STATUS=The identification of this mineral has been confirmed by X-ray diffraction and chemical analysis
##URL=rruff.info/R050318
##MEASURED CHEMISTRY=Ag_3.00_Sb_1.00_S_3.00_
112.363, 3719.570
112.845, 3938.754
113.327, 4175.849
113.809, 4442.802
114.291, 4739.662
114.773, 5034.185
115.256, 5342.216
115.738, 5635.371
116.220, 5876.796
116.702, 6041.240
117.184, 6162.404
117.666, 6250.768
118.148, 6302.743
118.630, 6341.856
119.113, 6367.651
119.595, 6387.808
120.077, 6419.311
120.559, 6479.382
121.041, 6550.390
121.523, 6617.303
122.005, 6679.336
122.487, 6732.661
122.969, 6770.089
123.451, 6793.157
123.934, 6811.186
124.416, 6823.988
124.898, 6836.867
125.380, 6859.076
125.862, 6906.850
126.344, 6961.771
126.826, 6993.642
127.308, 7000.012
127.791, 7002.479
128.273, 7019.220
128.755, 7049.702
129.237, 7091.529
129.719, 7153.680
130.201, 7227.533
130.683, 7282.125
131.165, 7308.520
131.648, 7327.980
132.130, 7379.820
132.612, 7464.311
133.094, 7556.426
133.576, 7640.826
134.058, 7716.943
134.540, 7788.824
135.022, 7853.464
135.504, 7915.583
135.986, 7996.285
136.469, 8102.420
136.951, 8205.741
137.433, 8278.175
137.915, 8316.463
138.397, 8339.519
138.879, 8346.876
139.361, 8337.702
139.844, 8344.310
140.326, 8373.294
140.808, 8410.524
141.290, 8433.247
141.772, 8436.478
142.254, 8436.430
142.736, 8439.011
143.218, 8445.487
143.700, 8450.365
144.182, 8447.669
144.665, 8443.800
145.147, 8461.592
145.629, 8517.124
146.111, 8574.973
146.593, 8614.624
147.075, 8621.146
147.557, 8631.600
148.039, 8649.647
148.522, 8674.776
149.004, 8698.229
149.486, 8718.888
149.968, 8738.522
150.450, 8758.918
150.932, 8801.895
151.414, 8823.802
151.896, 8804.082
152.378, 8726.958
152.861, 8693.346
153.343, 8744.556
153.825, 8832.163
154.307, 8895.664
154.789, 8913.497
155.271, 8919.922
155.753, 8922.992
156.235, 8917.314
156.717, 8923.464
157.200, 8950.024
157.682, 8991.054
158.164, 9033.261
158.646, 9068.868
159.128, 9106.958
159.610, 9153.714
160.092, 9225.619
160.574, 9284.340
161.057, 9308.633
161.539, 9304.586
162.021, 9303.160
162.503, 9317.663
162.985, 9338.854
163.467, 9359.104
163.949, 9362.442
164.431, 9375.115
164.913, 9420.909
165.396, 9498.725
165.878, 9561.586
166.360, 9572.602
166.842, 9557.211
167.324, 9548.073
167.806, 9552.854
168.288, 9572.851
168.770, 9616.322
169.253, 9687.455
169.735, 9754.490
170.217, 9791.792
170.699, 9809.181
171.181, 9826.327
171.663, 9830.550
172.145, 9849.601
172.627, 9916.939
173.109, 10045.920
173.592, 10199.420
174.074, 10334.940
174.556, 10463.500
175.038, 10622.630
175.520, 10797.510
176.002, 11028.720
176.484, 11392.900
176.966, 11980.930
177.449, 12613.000
177.931, 13037.640
178.413, 13271.620
178.895, 13510.130
179.377, 13923.440
179.859, 14457.820
180.341, 14984.520
180.823, 15448.620
181.305, 15891.380
181.788, 16375.020
182.270, 16895.391
182.752, 17458.000
183.234, 18048.039
183.716, 18677.529
184.198, 19370.039
184.680, 20202.090
185.162, 21100.439
185.645, 22000.279
186.127, 22942.510
186.609, 23641.260
187.091, 23726.320
187.573, 23218.279
188.055, 22313.230
188.537, 20916.971
189.019, 19144.820
189.501, 17519.971
189.984, 16033.440
190.466, 14739.190
190.948, 13746.770
191.430, 13049.500
191.912, 12506.900
192.394, 12061.440
192.876, 11709.260
193.358, 11408.110
193.840, 11154.150
194.323, 10949.610
194.805, 10807.690
195.287, 10734.680
195.769, 10682.800
196.251, 10615.360
196.733, 10531.020
197.215, 10461.740
197.697, 10447.293
198.180, 10432.844
198.662, 10418.397
199.144, 10403.951
199.626, 10389.505
200.108, 10375.058
200.590, 10360.611
201.072, 10346.162
201.554, 10331.716
202.036, 10317.269
202.519, 10302.822
203.001, 10288.376
203.483, 10273.930
203.965, 10259.480
204.447, 10283.140
204.929, 10305.760
205.411, 10311.210
205.893, 10299.360
206.376, 10292.420
206.858, 10290.490
207.340, 10292.850
207.822, 10297.920
208.304, 10304.680
208.786, 10318.400
209.268, 10346.160
209.750, 10392.840
210.232, 10416.960
210.715, 10413.870
211.197, 10394.470
211.679, 10375.670
212.161, 10355.780
212.643, 10341.990
213.125, 10339.860
213.607, 10354.160
214.089, 10360.420
214.572, 10352.400
215.054, 10339.750
215.536, 10348.900
216.018, 10392.850
216.500, 10431.830
216.982, 10440.890
217.464, 10403.740
217.946, 10386.280
218.428, 10397.380
218.911, 10428.560
219.393, 10451.110
219.875, 10460.850
220.357, 10468.180
220.839, 10479.390
221.321, 10496.500
221.803, 10513.030
222.285, 10530.260
222.768, 10547.250
223.250, 10554.200
223.732, 10540.770
224.214, 10532.450
224.696, 10549.720
225.178, 10607.620
225.660, 10657.300
226.142, 10686.400
226.624, 10698.210
227.107, 10734.290
227.589, 10805.360
228.071, 10888.580
228.553, 10964.610
229.035, 11028.030
229.517, 11095.930
229.999, 11172.710
230.481, 11257.930
230.964, 11332.990
231.446, 11341.280
231.928, 11396.590
232.410, 11637.790
232.892, 12233.420
233.374, 12695.890
233.856, 12890.560
234.338, 12793.480
234.820, 12771.150
235.303, 12821.940
235.785, 12949.880
236.267, 13157.850
236.749, 13436.980
237.231, 13813.030
237.713, 14293.750
238.195, 14888.800
238.677, 15535.140
239.159, 16227.610
239.642, 16975.670
240.124, 17793.461
240.606, 18720.920
241.088, 19673.230
241.570, 20620.301
242.052, 21563.789
242.534, 22513.850
243.016, 23443.949
243.499, 24397.311
243.981, 25444.850
244.463, 26622.570
244.945, 27834.850
245.427, 29056.311
245.909, 30268.820
246.391, 31516.859
246.873, 32846.910
247.355, 34184.852
247.837, 35444.961
248.320, 36792.090
248.802, 37767.039
249.284, 38238.922
249.766, 38254.711
250.248, 37586.891
250.730, 36069.512
251.212, 33945.461
251.695, 31689.641
252.177, 29156.449
252.659, 26717.240
253.141, 24489.881
253.623, 22465.430
254.105, 20730.350
254.587, 19308.631
255.069, 18151.350
255.551, 17155.029
256.034, 16350.370
256.516, 15668.690
256.998, 15086.800
257.480, 14622.230
257.962, 14222.650
258.444, 13895.080
258.926, 13626.610
259.408, 13376.880
259.890, 13138.160
260.373, 12930.520
260.855, 12765.380
261.337, 12657.480
261.819, 12550.240
262.301, 12443.080
262.783, 12334.800
263.265, 12223.600
263.747, 12102.520
264.229, 11990.690
264.712, 11898.630
265.194, 11833.280
265.676, 11765.440
266.158, 11694.420
266.640, 11621.000
267.122, 11548.220
267.604, 11471.560
268.086, 11405.180
268.569, 11360.670
269.051, 11344.630
269.533, 11320.230
270.015, 11283.500
270.497, 11238.530
270.979, 11196.180
271.461, 11156.430
271.943, 11118.800
272.426, 11083.610
272.908, 11051.650
273.390, 11017.510
273.872, 10978.520
274.354, 10939.430
274.836, 10914.630
275.318, 10906.330
275.800, 10903.090
276.282, 10895.720
276.764, 10882.490
277.247, 10884.390
277.729, 10911.370
278.211, 10947.200
278.693, 10942.680
279.175, 10888.520
279.657, 10840.510
280.139, 10838.990
280.621, 10885.340
281.104, 10925.130
281.586, 10955.370
282.068, 10973.610
282.550, 10970.270
283.032, 10943.130
283.514, 10914.320
283.996, 10896.490
284.478, 10889.480
284.961, 10889.860
285.443, 10899.800
285.925, 10913.800
286.407, 10918.150
286.889, 10912.570
287.371, 10909.320
287.853, 10913.540
288.335, 10925.840
288.817, 10957.910
289.299, 11023.970
289.782, 11087.370
290.264, 11059.110
290.746, 10943.660
291.228, 10848.630
291.710, 10868.070
292.192, 10971.070
292.674, 11026.470
293.156, 11014.870
293.639, 10965.050
294.121, 10905.070
294.603, 10839.310
295.085, 10795.660
295.567, 10810.840
296.049, 10861.750
296.531, 10886.220
297.013, 10873.610
297.496, 10845.020
297.978, 10823.370
298.460, 10808.550
298.942, 10800.200
299.424, 10798.700
299.906, 10803.350
300.388, 10812.280
300.870, 10824.710
301.352, 10842.740
301.835, 10875.650
302.317, 10917.310
302.799, 10949.620
303.281, 10954.820
303.763, 10946.430
304.245, 10941.270
304.727, 10940.220
305.209, 10944.110
305.691, 10955.180
306.174, 10971.700
306.656, 10990.020
307.138, 11012.480
307.620, 11033.930
308.102, 11051.330
308.584, 11065.420
309.066, 11070.540
309.548, 11050.040
310.030, 11018.870
310.513, 11004.060
310.995, 11014.950
311.477, 11048.710
311.959, 11043.564
312.441, 11076.907
312.923, 11100.906
313.405, 11116.068
313.888, 11095.909
314.370, 11121.355
314.852, 11128.526
315.334, 11134.946
315.816, 11166.812
316.298, 11151.792
316.780, 11180.760
317.262, 11166.350
317.744, 11132.560
318.227, 11101.450
318.709, 11066.680
319.191, 11047.510
319.673, 11061.540
320.155, 11111.250
320.637, 11145.630
321.119, 11141.900
321.601, 11120.070
322.083, 11098.850
322.566, 11075.300
323.048, 11058.790
323.530, 11055.020
324.012, 11063.890
324.494, 11068.030
324.976, 11053.320
325.458, 11039.270
325.940, 11040.140
326.422, 11079.890
326.905, 11109.480
327.387, 11119.820
327.869, 11111.730
328.351, 11103.920
328.833, 11094.500
329.315, 11086.820
329.797, 11074.790
330.279, 11090.341
330.762, 11099.196
331.244, 11101.717
331.726, 11078.927
332.208, 11088.820
332.690, 11085.615
333.172, 11081.873
333.654, 11096.366
334.136, 11077.258
334.618, 11091.462
335.101, 11092.368
335.583, 11099.360
336.065, 11093.173
336.547, 11091.058
337.029, 11090.970
337.511, 11103.560
337.993, 11118.000
338.475, 11134.820
338.957, 11154.540
339.440, 11175.520
339.922, 11194.070
340.404, 11209.870
340.886, 11224.420
341.368, 11236.860
341.850, 11247.120
342.332, 11264.420
342.815, 11292.520
343.297, 11320.540
343.779, 11326.570
344.261, 11310.110
344.743, 11304.190
345.225, 11334.050
345.707, 11389.810
346.189, 11413.740
346.671, 11401.060
347.154, 11380.110
347.636, 11382.810
348.118, 11405.760
348.600, 11431.100
349.082, 11449.750
349.564, 11466.350
350.046, 11497.740
350.528, 11544.030
351.010, 11578.890
351.493, 11566.280
351.975, 11523.940
352.457, 11492.750
352.939, 11487.030
353.421, 11496.830
353.903, 11515.980
354.385, 11543.150
354.867, 11567.250
355.349, 11576.900
355.832, 11580.670
356.314, 11590.560
356.796, 11616.070
357.278, 11639.650
357.760, 11637.190
358.242, 11618.930
358.724, 11619.980
359.206, 11673.280
359.689, 11744.540
360.171, 11807.320
360.653, 11853.880
361.135, 11897.530
361.617, 11940.570
362.099, 11984.520
362.581, 12033.540
363.063, 12085.190
363.546, 12144.750
364.028, 12215.920
364.510, 12301.750
364.992, 12389.810
365.474, 12487.600
365.956, 12584.420
366.438, 12662.470
366.920, 12709.480
367.402, 12749.260
367.884, 12787.740
368.367, 12825.840
368.849, 12860.500
369.331, 12915.290
369.813, 12953.710
370.295, 12941.050
370.777, 12851.130
371.259, 12746.250
371.741, 12628.340
372.224, 12498.010
372.706, 12385.540
373.188, 12286.690
373.670, 12212.000
374.152, 12180.480
374.634, 12223.180
375.116, 12215.730
375.598, 12130.610
376.081, 11989.310
376.563, 11862.130
377.045, 11746.840
377.527, 11652.000
378.009, 11584.790
378.491, 11547.340
378.973, 11519.880
379.455, 11505.450
379.937, 11494.010
380.419, 11459.320
380.902, 11401.550
381.384, 11358.020
381.866, 11362.370
382.348, 11400.930
382.830, 11406.510
383.312, 11373.320
383.794, 11332.050
384.276, 11319.790
384.759, 11330.570
385.241, 11342.830
385.723, 11344.220
386.205, 11342.820
386.687, 11352.470
387.169, 11372.690
387.651, 11393.670
388.133, 11409.030
388.616, 11419.290
389.098, 11425.880
389.580, 11431.950
390.062, 11430.860
390.544, 11410.000
391.026, 11374.650
391.508, 11348.870
391.990, 11351.080
392.472, 11365.430
392.955, 11381.560
393.437, 11405.660
393.919, 11416.630
394.401, 11393.510
394.883, 11351.840
395.365, 11324.520
395.847, 11336.250
396.329, 11351.230
396.811, 11350.240
397.294, 11321.190
397.776, 11312.685
398.258, 11330.466
398.740, 11341.866
399.222, 11347.229
399.704, 11328.469
400.186, 11340.857
400.668, 11340.763
401.151, 11340.157
401.633, 11356.930
402.115, 11341.679
402.597, 11358.176
403.079, 11362.000
403.561, 11371.623
404.043, 11368.688
404.525, 11369.632
405.008, 11383.139
405.490, 11389.689
405.972, 11385.308
406.454, 11382.130
406.936, 11365.700
407.418, 11390.050
407.900, 11410.240
408.382, 11423.460
408.864, 11430.710
409.346, 11427.240
409.829, 11413.560
410.311, 11412.880
410.793, 11448.500
411.275, 11505.980
411.757, 11537.340
412.239, 11539.790
412.721, 11535.430
413.203, 11553.470
413.686, 11582.710
414.168, 11593.120
414.650, 11551.880
415.132, 11504.750
415.614, 11507.730
416.096, 11555.410
416.578, 11608.300
417.060, 11646.000
417.543, 11672.730
418.025, 11693.030
418.507, 11711.220
418.989, 11717.110
419.471, 11692.760
419.953, 11651.220
420.435, 11624.140
420.917, 11636.710
421.399, 11655.790
421.882, 11661.780
422.364, 11644.770
422.846, 11644.170
423.328, 11682.370
423.810, 11735.830
424.292, 11775.770
424.774, 11790.970
425.256, 11802.740
425.738, 11810.640
426.221, 11814.600
426.703, 11833.610
427.185, 11876.570
427.667, 11924.660
428.149, 11963.060
428.631, 11984.930
429.113, 12013.490
429.595, 12046.900
430.078, 12089.670
430.560, 12160.880
431.042, 12266.200
431.524, 12374.330
432.006, 12467.130
432.488, 12544.980
432.970, 12625.120
433.452, 12708.330
433.934, 12792.780
434.417, 12868.890
434.899, 12940.200
435.381, 13032.430
435.863, 13170.380
436.345, 13329.210
436.827, 13452.300
437.309, 13541.590
437.791, 13638.250
438.273, 13785.480
438.756, 13959.870
439.238, 14123.150
439.720, 14255.750
440.202, 14391.700
440.684, 14560.170
441.166, 14753.770
441.648, 14952.610
442.130, 15169.180
442.612, 15370.240
443.095, 15522.430
443.577, 15608.670
444.059, 15707.920
444.541, 15859.790
445.023, 16033.470
445.505, 16192.650
445.987, 16367.140
446.470, 16486.721
446.952, 16529.840
447.434, 16496.000
447.916, 16433.119
448.398, 16350.040
448.880, 16231.170
449.362, 16062.380
449.844, 15820.330
450.326, 15581.550
450.809, 15346.520
451.291, 15116.030
451.773, 14896.350
452.255, 14686.830
452.737, 14484.220
453.219, 14284.430
453.701, 14085.580
454.183, 13917.930
454.665, 13781.430
455.148, 13667.160
455.630, 13572.590
456.112, 13494.630
456.594, 13419.110
457.076, 13343.200
457.558, 13265.320
458.040, 13178.130
458.522, 13083.940
459.004, 12995.380
459.487, 12923.150
459.969, 12862.020
460.451, 12805.460
460.933, 12751.310
461.415, 12705.750
461.897, 12679.610
462.379, 12665.160
462.862, 12649.750
463.344, 12624.380
463.826, 12600.130
464.308, 12581.920
464.790, 12570.080
465.272, 12563.660
465.754, 12561.960
466.236, 12565.930
466.718, 12576.300
467.201, 12622.810
467.683, 12638.640
468.165, 12600.630
468.647, 12528.800
469.129, 12485.680
469.611, 12485.810
470.093, 12493.320
470.575, 12496.350
471.057, 12495.530
471.539, 12482.980
472.022, 12453.110
472.504, 12420.770
472.986, 12403.570
473.468, 12401.880
473.950, 12410.800
474.432, 12435.780
474.914, 12466.450
475.397, 12469.310
475.879, 12445.290
476.361, 12422.680
476.843, 12430.090
477.325, 12453.120
477.807, 12458.510
478.289, 12438.510
478.771, 12415.200
479.253, 12409.010
479.736, 12415.330
480.218, 12424.560
480.700, 12428.270
481.182, 12436.530
481.664, 12460.640
482.146, 12499.340
482.628, 12530.790
483.110, 12542.880
483.592, 12545.420
484.075, 12518.271
484.557, 12533.946
485.039, 12539.228
485.521, 12534.672
486.003, 12490.819
486.485, 12497.710
486.967, 12484.265
487.449, 12469.985
487.931, 12484.020
488.414, 12445.882
488.896, 12456.690
489.378, 12443.269
489.860, 12449.667
490.342, 12451.256
490.824, 12448.291
491.306, 12427.138
491.788, 12429.472
492.271, 12422.393
492.753, 12414.927
493.235, 12420.566
493.717, 12402.059
494.199, 12407.490
494.681, 12403.366
495.163, 12403.615
495.645, 12394.393
496.128, 12388.097
496.610, 12391.274
497.092, 12389.206
497.574, 12374.080
498.056, 12319.550
498.538, 12281.090
499.020, 12274.650
499.502, 12294.220
499.984, 12313.770
500.466, 12321.460
500.949, 12327.900
501.431, 12340.220
501.913, 12363.470
502.395, 12381.570
502.877, 12384.710
503.359, 12384.960
503.841, 12397.330
504.323, 12431.630
504.806, 12462.700
505.288, 12486.270
505.770, 12502.410
506.252, 12511.710
506.734, 12513.330
507.216, 12509.640
507.698, 12498.990
508.180, 12480.950
508.663, 12471.740
509.145, 12472.660
509.627, 12481.790
510.109, 12506.360
510.591, 12541.210
511.073, 12555.220
511.555, 12517.350
512.037, 12465.580
512.519, 12461.130
513.002, 12499.630
513.484, 12546.580
513.966, 12590.860
514.448, 12626.330
514.930, 12647.840
515.412, 12656.090
515.894, 12644.770
516.376, 12575.410
516.859, 12492.700
517.341, 12461.820
517.823, 12574.910
518.305, 12664.580
518.787, 12667.420
519.269, 12582.830
519.751, 12535.080
520.233, 12539.660
520.715, 12566.260
521.198, 12604.010
521.680, 12667.920
522.162, 12696.070
522.644, 12673.480
523.126, 12631.880
523.608, 12624.840
524.090, 12655.590
524.572, 12686.230
525.054, 12705.320
525.537, 12714.580
526.019, 12715.190
526.501, 12707.360
526.983, 12700.380
527.465, 12701.080
527.947, 12707.370
528.429, 12719.740
528.911, 12742.710
529.393, 12753.240
529.876, 12718.580
530.358, 12661.920
530.840, 12620.340
531.322, 12618.590
531.804, 12625.250
532.286, 12626.090
532.768, 12621.940
533.250, 12623.920
533.732, 12648.350
534.215, 12668.970
534.697, 12669.420
535.179, 12629.770
535.661, 12616.770
536.143, 12647.010
536.625, 12691.310
537.107, 12709.540
537.589, 12694.830
538.072, 12678.830
538.554, 12665.100
539.036, 12656.670
539.518, 12669.020
540.000, 12703.450
540.482, 12738.190
540.964, 12760.440
541.446, 12771.150
541.929, 12770.610
542.411, 12757.330
542.893, 12741.530
543.375, 12728.860
543.857, 12720.770
544.339, 12720.040
544.821, 12731.190
545.303, 12745.910
545.786, 12767.780
546.268, 12791.340
546.750, 12796.810
547.232, 12744.180
547.714, 12699.740
548.196, 12700.210
548.678, 12766.330
549.160, 12815.320
549.642, 12844.740
550.125, 12857.630
550.607, 12853.640
551.089, 12821.480
551.571, 12802.690
552.053, 12807.060
552.535, 12824.940
553.017, 12828.480
553.499, 12815.840
553.981, 12807.600
554.464, 12820.520
554.946, 12846.680
555.428, 12852.990
555.910, 12838.980
556.392, 12822.260
556.874, 12817.560
557.356, 12820.480
557.838, 12824.400
558.320, 12829.070
558.803, 12832.160
559.285, 12829.590
559.767, 12824.620
560.249, 12823.380
560.731, 12821.980
561.213, 12830.340
561.695, 12862.330
562.177, 12918.320
562.659, 12946.080
563.142, 12914.270
563.624, 12879.650
564.106, 12872.200
564.588, 12900.760
565.070, 12934.040
565.552, 12977.390
566.034, 13018.180
566.516, 13035.480
566.999, 13027.740
567.481, 13022.430
567.963, 13029.320
568.445, 13041.620
568.927, 13043.340
569.409, 13035.500
569.891, 13027.150
570.373, 13025.450
570.856, 13026.070
571.338, 13021.850
571.820, 13011.590
572.302, 13004.450
572.784, 13015.050
573.266, 13027.850
573.748, 13026.600
574.230, 12981.470
574.713, 12951.980
575.195, 12966.580
575.677, 13007.180
576.159, 13022.970
576.641, 12991.150
577.123, 12964.780
577.605, 12961.370
578.087, 12980.850
578.569, 12994.190
579.052, 12999.630
579.534, 13004.050
580.016, 13015.230
580.498, 13032.380
580.980, 13037.460
581.462, 13024.850
581.944, 13013.220
582.426, 13031.700
582.908, 13071.680
583.391, 13107.210
583.873, 13129.760
584.355, 13142.200
584.837, 13138.520
585.319, 13124.130
585.801, 13121.150
586.283, 13153.750
586.765, 13189.810
587.247, 13205.190
587.730, 13187.140
588.212, 13195.720
588.694, 13163.481
589.176, 13208.941
589.658, 13235.540
590.140, 13244.292
590.622, 13181.744
591.104, 13211.266
591.586, 13203.890
592.069, 13195.000
592.551, 13237.480
593.033, 13185.302
593.515, 13221.930
593.997, 13259.060
594.479, 13280.790
594.961, 13287.150
595.443, 13278.150
595.925, 13232.720
596.408, 13181.210
596.890, 13168.680
597.372, 13209.130
597.854, 13246.600
598.336, 13240.100
598.818, 13216.850
599.300, 13208.690
599.782, 13249.290
600.265, 13275.060
600.747, 13262.570
601.229, 13226.370
601.711, 13205.710
602.193, 13202.230
602.675, 13211.380
603.157, 13230.330
603.639, 13259.630
604.122, 13306.490
604.604, 13307.060
605.086, 13325.441
605.568, 13339.496
606.050, 13349.462
606.532, 13343.085
607.014, 13357.812
607.496, 13364.079
607.979, 13370.004
608.461, 13387.699
608.943, 13383.699
609.425, 13401.209
609.907, 13408.560
610.389, 13418.760
610.871, 13437.940
611.353, 13447.700
611.835, 13426.330
612.318, 13410.430
612.800, 13419.560
613.282, 13456.870
