##NAMES=Pyrite
##RRUFFID=R100166
##IDEAL CHEMISTRY=Fe^2+^(S_2_)^2-^
##LOCALITY=Boston Consolidated mine, Bingham Canyon, 20 mi SSW of Salt Lake City, Salt Lake County, Utah, USA
##OWNER=RRUFF
##SOURCE=Harvard microprobe standard, Mineralogical Museum, Harvard University
##DESCRIPTION=Brass-yellow pyritohedron
##STATUS=The identification of this mineral is confirmed by single-crystal X-ray diffraction and chemical analysis.
##URL=rruff.info/R100166
##MEASURED CHEMISTRY=FeS_2_ ; (Pure phase as determined by WDS analysis)
171.5487, 42.60375
172.0309, 41.06061
172.5130, 39.50080
172.9951, 38.99249
173.4772, 39.19643
173.9593, 39.59245
174.4414, 40.47686
174.9236, 41.19170
175.4057, 40.87067
175.8878, 39.50956
176.3699, 37.89235
176.8520, 36.36583
177.3341, 35.04607
177.8163, 34.19415
178.2984, 34.07060
178.7805, 34.42109
179.2626, 35.05482
179.7447, 36.00027
180.2268, 36.74036
180.7090, 36.66251
181.1911, 35.93011
181.6732, 35.02882
182.1553, 33.94258
182.6374, 32.87241
183.1195, 32.36455
183.6017, 32.48835
184.0838, 32.79370
184.5659, 32.74282
185.0480, 32.39984
185.5301, 32.08514
186.0123, 31.80064
186.4944, 31.64710
186.9765, 32.22335
187.4586, 33.78729
187.9407, 35.21581
188.4228, 34.40368
188.9050, 31.59703
189.3871, 29.35650
189.8692, 29.48506
190.3513, 31.46408
190.8334, 32.64841
191.3155, 32.79074
191.7977, 32.43019
192.2798, 32.36623
192.7619, 32.59749
193.2440, 32.89107
193.7261, 33.27256
194.2082, 33.70039
194.6904, 33.58418
195.1725, 32.73272
195.6546, 31.64332
196.1367, 31.34151
196.6188, 31.87643
197.1009, 32.48196
197.5831, 32.77052
198.0652, 32.74636
198.5473, 32.60262
199.0294, 32.30949
199.5115, 31.95881
199.9937, 31.70769
200.4758, 31.54822
200.9579, 31.54157
201.4400, 31.86460
201.9221, 32.57164
202.4042, 32.76686
202.8864, 32.19588
203.3685, 31.29176
203.8506, 31.21660
204.3327, 32.19886
204.8148, 33.08336
205.2969, 33.10377
205.7791, 32.09111
206.2612, 31.48851
206.7433, 31.50904
207.2254, 31.88580
207.7075, 31.90672
208.1896, 31.46146
208.6718, 30.98271
209.1539, 30.70524
209.6360, 30.66687
210.1181, 30.67606
210.6002, 30.80671
211.0823, 30.93488
211.5645, 30.63885
212.0466, 29.73189
212.5287, 28.84110
213.0108, 28.27284
213.4929, 28.02521
213.9750, 28.10669
214.4572, 28.61577
214.9393, 29.41330
215.4214, 30.16980
215.9035, 31.02225
216.3856, 31.55885
216.8678, 31.42065
217.3499, 30.26023
217.8320, 29.57290
218.3141, 29.54097
218.7962, 29.99333
219.2783, 30.46652
219.7605, 31.09884
220.2426, 31.49176
220.7247, 31.31088
221.2068, 30.16506
221.6889, 29.60212
222.1710, 29.92630
222.6532, 30.82070
223.1353, 31.25608
223.6174, 31.00776
224.0995, 30.68506
224.5816, 30.63934
225.0637, 31.11074
225.5459, 31.21362
226.0280, 30.71717
226.5101, 29.87996
226.9922, 29.55198
227.4743, 30.04525
227.9564, 30.55087
228.4386, 30.65713
228.9207, 30.15804
229.4028, 29.75440
229.8849, 29.47400
230.3670, 29.29033
230.8492, 29.15438
231.3313, 29.21566
231.8134, 29.10186
232.2955, 28.53964
232.7776, 27.04754
233.2597, 26.28004
233.7419, 26.51422
234.2240, 27.40338
234.7061, 28.03247
235.1882, 28.24877
235.6703, 28.43821
236.1524, 28.77557
236.6346, 29.35019
237.1167, 29.90750
237.5988, 30.68246
238.0809, 31.36465
238.5630, 31.11508
239.0451, 29.21630
239.5273, 27.46535
240.0094, 26.63906
240.4915, 27.14220
240.9736, 27.51463
241.4557, 27.70502
241.9378, 27.78937
242.4200, 27.93682
242.9021, 28.23680
243.3842, 28.46143
243.8663, 28.50353
244.3484, 28.27350
244.8306, 28.12743
245.3127, 28.07782
245.7948, 28.10622
246.2769, 28.19020
246.7590, 28.37047
247.2411, 28.54034
247.7233, 28.72586
248.2054, 29.05678
248.6875, 28.83614
249.1696, 27.57832
249.6517, 26.09598
250.1338, 25.83994
250.6160, 27.60518
251.0981, 29.16932
251.5802, 29.78363
252.0623, 29.26596
252.5444, 28.73702
253.0265, 28.09377
253.5087, 27.52753
253.9908, 27.38610
254.4729, 27.97222
254.9550, 28.35346
255.4371, 28.11711
255.9192, 27.10710
256.4014, 26.84055
256.8835, 27.74942
257.3656, 28.97377
257.8477, 29.41683
258.3298, 28.66302
258.8120, 28.06822
259.2941, 28.04468
259.7762, 28.64359
260.2583, 28.93995
260.7404, 28.88503
261.2225, 28.59095
261.7047, 28.09615
262.1868, 27.20685
262.6689, 26.63169
263.1510, 26.59488
263.6331, 27.07915
264.1152, 27.48678
264.5974, 27.86389
265.0795, 28.08728
265.5616, 27.96064
266.0437, 27.31665
266.5258, 26.88793
267.0079, 26.89810
267.4901, 27.27417
267.9722, 27.31461
268.4543, 26.86955
268.9364, 26.39095
269.4185, 26.30419
269.9006, 26.73813
270.3828, 26.96978
270.8649, 26.75293
271.3470, 26.26325
271.8291, 26.50622
272.3112, 27.84670
272.7933, 28.96721
273.2755, 28.60847
273.7576, 26.43800
274.2397, 25.13580
274.7218, 25.21015
275.2039, 26.24783
275.6860, 27.10232
276.1682, 27.82969
276.6503, 28.19338
277.1324, 27.86257
277.6145, 26.76137
278.0966, 26.06736
278.5787, 25.97338
279.0609, 26.21469
279.5430, 26.17532
280.0251, 25.80163
280.5072, 25.48474
280.9893, 25.48705
281.4715, 25.80653
281.9536, 26.04828
282.4357, 26.21495
282.9178, 26.26216
283.3999, 25.97012
283.8820, 25.30470
284.3642, 24.90522
284.8463, 25.29610
285.3284, 26.37586
285.8105, 26.85860
286.2926, 26.62047
286.7747, 26.16824
287.2569, 26.25220
287.7390, 26.85003
288.2211, 27.37730
288.7032, 27.57226
289.1853, 27.49892
289.6674, 27.50816
290.1496, 27.63843
290.6317, 27.60994
291.1138, 26.80428
291.5959, 25.38831
292.0780, 24.56335
292.5602, 24.96041
293.0423, 26.11844
293.5244, 26.88083
294.0065, 27.23202
294.4886, 27.46067
294.9707, 27.90481
295.4529, 28.46646
295.9350, 28.77112
296.4171, 28.65339
296.8992, 28.29552
297.3813, 28.02168
297.8634, 27.82185
298.3456, 27.56390
298.8277, 27.13704
299.3098, 26.58139
299.7919, 25.90851
300.2740, 24.95151
300.7561, 24.19287
301.2383, 24.51273
301.7204, 25.70720
302.2025, 26.83077
302.6846, 27.41085
303.1667, 27.51502
303.6488, 27.11634
304.1310, 26.03595
304.6131, 25.01072
305.0952, 24.89638
305.5773, 25.45119
306.0594, 26.01970
306.5415, 26.30750
307.0237, 26.41059
307.5058, 26.39572
307.9879, 26.25009
308.4700, 26.11783
308.9521, 26.11472
309.4343, 26.19946
309.9164, 26.29810
310.3985, 26.39749
310.8806, 26.48664
311.3627, 26.55176
311.8448, 26.59258
312.3270, 26.63428
312.8091, 26.83252
313.2912, 26.99605
313.7733, 26.89895
314.2554, 26.13735
314.7375, 25.37481
315.2197, 24.96511
315.7018, 24.87884
316.1839, 24.87698
316.6660, 24.68385
317.1481, 24.61621
317.6302, 24.96076
318.1124, 26.34492
318.5945, 27.45361
319.0766, 27.77135
319.5587, 27.44385
320.0408, 26.98921
320.5229, 26.37590
321.0051, 25.81583
321.4872, 25.42312
321.9693, 25.23503
322.4514, 25.18634
322.9335, 25.15409
323.4156, 25.26054
323.8978, 25.74152
324.3799, 27.03280
324.8620, 28.36119
325.3441, 29.41875
325.8262, 30.03154
326.3083, 30.82294
326.7905, 31.98286
327.2726, 33.30466
327.7547, 34.51801
328.2368, 35.73680
328.7189, 36.73026
329.2010, 37.50068
329.6832, 38.06044
330.1653, 38.18001
330.6474, 37.34262
331.1295, 36.43749
331.6116, 36.18205
332.0938, 36.83899
332.5759, 37.75166
333.0580, 39.00486
333.5401, 40.51805
334.0222, 41.60659
334.5043, 42.22020
334.9865, 42.49341
335.4686, 42.30909
335.9507, 41.03456
336.4328, 41.08966
336.9149, 42.92708
337.3970, 46.03130
337.8792, 48.85540
338.3613, 51.15318
338.8434, 53.97140
339.3255, 58.04963
339.8076, 63.65837
340.2898, 68.44128
340.7719, 72.13428
341.2540, 75.52836
341.7361, 79.89891
342.2182, 85.22963
342.7003, 91.12759
343.1825, 98.70346
343.6646, 107.0907
344.1467, 109.9453
344.6288, 107.0341
345.1109, 99.91228
345.5930, 88.01768
346.0752, 72.12569
346.5573, 58.56319
347.0394, 48.82533
347.5215, 42.26661
348.0036, 37.69975
348.4857, 35.12414
348.9679, 33.46664
349.4500, 32.16723
349.9321, 31.16140
350.4142, 30.26191
350.8963, 29.42641
351.3784, 28.70686
351.8606, 28.17874
352.3427, 27.83601
352.8248, 27.64857
353.3069, 27.83258
353.7890, 28.07578
354.2711, 27.90590
354.7533, 27.25705
355.2354, 26.48697
355.7175, 25.78424
356.1996, 25.18760
356.6817, 24.76475
357.1638, 24.88367
357.6460, 24.94070
358.1281, 24.13184
358.6102, 22.56750
359.0923, 21.62364
359.5744, 22.73462
360.0565, 24.56596
360.5387, 25.79904
361.0208, 25.53843
361.5029, 25.28047
361.9850, 25.60654
362.4671, 26.44351
362.9492, 27.57166
363.4314, 29.30138
363.9135, 31.02063
364.3956, 32.41248
364.8777, 33.43666
365.3598, 34.13164
365.8419, 34.19786
366.3241, 34.00928
366.8062, 34.12621
367.2883, 34.83840
367.7704, 35.65887
368.2526, 36.56452
368.7347, 37.63826
369.2168, 38.28694
369.6989, 38.00757
370.1810, 37.61207
370.6631, 37.77836
371.1453, 38.92148
371.6274, 40.00558
372.1095, 40.82204
372.5916, 41.45570
373.0737, 42.37502
373.5558, 43.35370
374.0380, 44.96176
374.5201, 47.63028
375.0022, 51.62353
375.4843, 55.72877
375.9664, 59.96140
376.4485, 64.23780
376.9307, 68.44930
377.4128, 72.49429
377.8949, 76.75403
378.3770, 81.36290
378.8591, 86.28978
379.3412, 92.24303
379.8234, 100.0427
380.3055, 105.8058
380.7876, 104.5991
381.2697, 96.66929
381.7518, 86.23575
382.2339, 73.14255
382.7161, 59.27104
383.1982, 48.66496
383.6803, 41.37394
384.1624, 36.29622
384.6445, 33.50832
385.1266, 32.36042
385.6088, 31.29568
386.0909, 30.11055
386.5730, 28.87889
387.0551, 27.60607
387.5372, 26.35888
388.0193, 25.30702
388.5015, 24.45265
388.9836, 23.89828
389.4657, 23.94780
389.9478, 24.63982
390.4299, 25.14960
390.9120, 24.62312
391.3942, 23.67819
391.8763, 23.08768
392.3584, 23.58305
392.8405, 24.05153
393.3226, 23.71810
393.8047, 22.79071
394.2869, 22.22093
394.7690, 22.95861
395.2511, 23.77412
395.7332, 23.83641
396.2154, 22.54196
396.6975, 21.48883
397.1796, 21.01938
397.6617, 20.99312
398.1438, 21.16494
398.6259, 21.75442
399.1081, 22.29159
399.5902, 22.66917
400.0723, 22.88877
400.5544, 22.92689
401.0365, 22.62317
401.5186, 22.25586
402.0008, 22.07188
402.4829, 22.24503
402.9650, 22.25422
403.4471, 21.93200
403.9292, 21.40267
404.4113, 21.23567
404.8935, 21.58094
405.3756, 21.94011
405.8577, 22.05862
406.3398, 21.91360
406.8219, 21.65540
407.3040, 21.21402
407.7862, 20.79618
408.2683, 20.73075
408.7504, 21.02678
409.2325, 21.39622
409.7146, 21.89962
410.1967, 22.36593
410.6789, 22.02731
411.1610, 20.84825
411.6431, 19.79083
412.1252, 19.95402
412.6073, 20.92241
413.0894, 21.48134
413.5716, 21.28750
414.0537, 20.82368
414.5358, 20.52947
415.0179, 20.42583
415.5000, 20.57274
415.9821, 21.27339
416.4643, 22.09345
416.9464, 22.55968
417.4285, 22.61800
417.9106, 22.56716
418.3927, 22.69616
418.8748, 22.79358
419.3570, 22.60711
419.8391, 21.52243
420.3212, 20.64783
420.8033, 20.63610
421.2854, 21.30096
421.7675, 21.75822
422.2497, 21.52149
422.7318, 21.16879
423.2139, 21.00497
423.6960, 21.12826
424.1781, 21.30146
424.6602, 21.54951
425.1424, 21.82087
425.6245, 22.02924
426.1066, 21.95450
426.5887, 22.10090
427.0709, 22.72077
427.5530, 23.81343
428.0351, 24.39255
428.5172, 24.21100
428.9993, 23.86148
429.4814, 23.73211
429.9636, 23.81803
430.4457, 24.23456
430.9278, 25.24749
431.4099, 26.34231
431.8920, 26.20518
432.3741, 24.67092
432.8563, 23.17587
433.3384, 22.40940
433.8205, 22.26640
434.3026, 22.03128
434.7847, 21.68130
435.2668, 21.40855
435.7490, 21.54697
436.2311, 21.95553
436.7132, 22.10844
437.1953, 21.78261
437.6774, 21.25896
438.1595, 20.88272
438.6417, 20.63068
439.1238, 20.40664
439.6059, 20.12432
440.0880, 19.85505
440.5701, 19.66904
441.0522, 19.57336
441.5344, 19.56395
442.0165, 19.71443
442.4986, 19.92441
442.9807, 20.07007
443.4628, 20.05352
443.9449, 20.02091
444.4271, 20.01529
444.9092, 20.03755
445.3913, 20.08808
445.8734, 20.37856
446.3555, 20.53424
446.8376, 20.32823
447.3198, 19.44243
447.8019, 18.79105
448.2840, 18.36102
448.7661, 18.19044
449.2482, 18.37968
449.7303, 19.24529
450.2125, 19.91780
450.6946, 20.11139
451.1767, 19.88061
451.6588, 20.10993
452.1409, 21.05602
452.6230, 21.87212
453.1052, 21.87242
453.5873, 20.99296
454.0694, 20.08747
454.5515, 19.14119
455.0337, 18.36275
455.5158, 18.25062
455.9979, 18.75843
456.4800, 19.21542
456.9621, 19.30430
457.4442, 19.15583
457.9264, 19.02465
458.4085, 18.91410
458.8906, 18.91512
459.3727, 19.32014
459.8548, 19.83341
460.3369, 19.93531
460.8191, 19.39709
461.3012, 18.70973
461.7833, 18.13679
462.2654, 17.70949
462.7475, 17.49356
463.2296, 17.54813
463.7118, 17.79384
464.1939, 18.33813
464.6760, 19.19692
465.1581, 19.71511
465.6402, 19.28468
466.1223, 18.67920
466.6045, 18.44781
467.0866, 19.18373
467.5687, 19.65176
468.0508, 19.67488
468.5329, 19.39887
469.0150, 19.13483
469.4972, 18.86377
469.9793, 18.63950
470.4614, 18.49767
470.9435, 18.44483
471.4256, 18.34788
471.9077, 18.20847
472.3899, 18.02243
472.8720, 17.73981
473.3541, 17.33633
473.8362, 17.07118
474.3183, 16.93796
474.8004, 17.02057
475.2826, 17.66175
475.7647, 18.81225
476.2468, 19.77203
476.7289, 20.10690
477.2110, 20.01452
477.6931, 19.98366
478.1753, 20.01799
478.6574, 19.80215
479.1395, 18.65475
479.6216, 17.20850
480.1037, 16.43001
480.5858, 16.76128
481.0680, 17.44883
481.5501, 18.11051
482.0322, 18.74339
482.5143, 19.33498
482.9964, 20.20435
483.4786, 20.75281
483.9607, 20.44595
484.4428, 19.17031
484.9249, 18.41716
485.4070, 18.86313
485.8892, 19.69157
486.3713, 20.34941
486.8534, 21.16566
487.3355, 21.26724
487.8176, 20.17237
488.2997, 18.50574
488.7819, 17.63917
489.2640, 17.95123
489.7461, 18.18381
490.2282, 17.77186
490.7103, 16.79112
491.1924, 16.74281
491.6746, 17.81071
492.1567, 19.04881
492.6388, 19.69164
493.1209, 19.77653
493.6030, 19.51687
494.0851, 18.85746
494.5673, 18.09761
495.0494, 17.59698
495.5315, 17.34887
496.0136, 17.34652
496.4957, 17.78485
496.9778, 18.34686
497.4600, 18.63606
497.9421, 18.68276
498.4242, 18.81237
498.9063, 19.33809
499.3884, 19.96619
499.8705, 20.48709
500.3527, 20.93623
500.8348, 21.07151
501.3169, 20.54444
501.7990, 19.71970
502.2811, 19.10675
502.7632, 19.17896
503.2454, 19.06567
503.7275, 18.33133
504.2096, 17.08435
504.6917, 16.52045
505.1738, 16.90947
505.6559, 17.61828
506.1381, 18.44440
506.6202, 19.58766
507.1023, 19.95150
507.5844, 19.31548
508.0665, 18.29952
508.5486, 17.74207
509.0308, 17.65172
509.5129, 17.55733
509.9950, 17.24582
510.4771, 16.94165
510.9592, 17.29938
511.4413, 18.24076
511.9235, 19.03104
512.4056, 19.00796
512.8877, 18.61363
513.3698, 18.62659
513.8519, 19.14483
514.3340, 19.42785
514.8162, 18.54977
515.2983, 17.26636
515.7804, 16.49516
516.2625, 16.84823
516.7446, 17.32840
517.2267, 17.56540
517.7089, 17.63398
518.1910, 17.71381
518.6731, 17.75053
519.1552, 17.89292
519.6373, 18.36506
520.1194, 19.26871
520.6016, 19.42312
521.0837, 18.17828
521.5658, 16.90747
522.0479, 16.74410
522.5300, 18.16664
523.0121, 18.89242
523.4943, 18.56112
523.9764, 17.74821
524.4585, 17.56067
524.9406, 18.01953
525.4227, 18.25812
525.9048, 17.78275
526.3870, 16.96416
526.8691, 16.76822
527.3513, 17.16410
527.8334, 17.68154
528.3155, 18.06540
528.7976, 18.33252
529.2797, 18.55057
529.7618, 18.75951
530.2440, 18.73250
530.7261, 17.97323
531.2082, 16.98711
531.6903, 16.43442
532.1724, 16.75520
532.6545, 17.29445
533.1367, 18.05767
533.6188, 18.91103
534.1009, 19.41236
534.5830, 19.22360
535.0651, 18.92370
535.5472, 18.67467
536.0294, 18.47012
536.5115, 18.35740
536.9936, 18.37897
537.4757, 18.43317
537.9578, 18.40509
538.4399, 18.25649
538.9221, 18.31795
539.4042, 18.72733
539.8863, 19.18035
540.3684, 18.97301
540.8505, 18.17789
541.3326, 17.68453
541.8148, 18.14330
542.2969, 18.95292
542.7790, 18.83661
543.2611, 17.92909
543.7432, 17.29942
544.2253, 18.13180
544.7075, 19.36493
545.1896, 19.83858
545.6717, 19.28122
546.1538, 18.61597
546.6359, 18.24990
547.1180, 18.02982
547.6002, 17.79818
548.0823, 17.38925
548.5644, 17.11417
549.0465, 16.99695
549.5286, 17.05179
550.0107, 17.36532
550.4929, 18.38918
550.9750, 18.97452
551.4571, 18.56786
551.9392, 17.15942
552.4213, 16.40781
552.9034, 16.41899
553.3856, 16.73529
553.8677, 17.11362
554.3498, 17.52989
554.8319, 17.58817
555.3140, 17.14132
555.7961, 16.73230
556.2783, 17.32463
556.7604, 18.55567
557.2425, 19.39222
557.7246, 19.35547
558.2067, 18.86206
558.6888, 17.87408
559.1710, 16.66880
559.6531, 16.21163
560.1352, 18.10531
560.6173, 19.99749
561.0994, 20.27481
561.5815, 18.59330
562.0637, 17.24939
562.5458, 16.74131
563.0279, 16.70437
563.5100, 16.86966
563.9921, 17.41438
564.4742, 17.85893
564.9564, 18.23671
565.4385, 18.47544
565.9206, 18.40849
566.4027, 17.98091
566.8848, 17.50490
567.3669, 16.99493
567.8491, 16.54063
568.3312, 16.59092
568.8133, 17.12162
569.2954, 17.49595
569.7775, 17.04464
570.2596, 16.22933
570.7418, 15.92042
571.2239, 16.17525
571.7060, 16.62653
572.1881, 17.17801
572.6702, 17.69110
573.1523, 18.01610
573.6345, 18.08489
574.1166, 18.01016
574.5987, 17.73958
575.0808, 17.37116
575.5629, 17.06254
576.0450, 16.52564
576.5272, 16.43512
577.0093, 17.19226
577.4914, 18.59808
577.9735, 19.31515
578.4556, 19.09849
578.9377, 18.68735
579.4199, 18.44906
579.9020, 18.39264
580.3841, 18.09022
580.8662, 17.48244
581.3483, 16.95051
581.8304, 17.07599
582.3126, 17.62733
582.7947, 17.71060
583.2768, 17.01096
583.7589, 16.26234
584.2410, 16.38212
584.7231, 17.01607
585.2053, 17.46315
585.6874, 17.29280
586.1696, 16.98095
586.6517, 16.60448
587.1338, 16.24899
587.6159, 16.27551
588.0980, 17.39987
588.5801, 18.37137
589.0623, 18.54408
589.5444, 17.75881
590.0265, 17.24868
590.5086, 17.06996
590.9907, 17.09452
591.4728, 17.27746
591.9550, 17.66247
592.4371, 17.90919
592.9192, 17.97376
593.4013, 17.93594
593.8834, 17.82971
594.3655, 17.68929
594.8477, 17.76220
595.3298, 18.28250
595.8119, 18.85712
596.2940, 18.92372
596.7761, 18.58239
597.2582, 18.17156
597.7404, 17.76464
598.2225, 17.43272
598.7046, 17.28763
599.1867, 17.33047
599.6688, 17.25927
600.1509, 16.81887
600.6331, 16.35367
601.1152, 16.09531
601.5973, 16.16897
602.0794, 16.14082
602.5615, 15.83609
603.0436, 15.59755
603.5258, 15.90557
604.0079, 16.90362
604.4900, 17.70068
604.9721, 18.20914
605.4542, 18.35785
605.9363, 17.69127
606.4185, 16.33983
606.9006, 15.41896
607.3827, 15.71448
607.8648, 16.57501
608.3469, 17.13574
608.8290, 17.42766
609.3112, 17.59350
609.7933, 17.48831
610.2754, 17.45438
610.7575, 17.91223
611.2396, 19.01278
611.7217, 19.66012
612.2039, 19.26140
612.6860, 18.46732
613.1681, 17.74710
613.6502, 16.95352
614.1323, 16.54626
614.6144, 16.69804
615.0966, 17.09415
615.5787, 17.27657
616.0608, 17.20760
616.5429, 17.18332
617.0250, 17.34612
617.5071, 17.51055
617.9893, 17.05267
618.4714, 16.07907
618.9535, 15.43397
619.4356, 15.82597
619.9177, 16.63822
620.3998, 17.17168
620.8820, 17.41763
621.3641, 17.41347
621.8462, 16.70851
622.3283, 16.08571
622.8104, 16.28251
623.2925, 17.71950
623.7747, 18.62391
624.2568, 18.16303
624.7389, 17.36206
625.2210, 17.04312
625.7031, 17.40836
626.1852, 17.85421
626.6674, 18.47272
627.1495, 19.01166
627.6316, 18.93015
628.1137, 18.19662
628.5958, 17.62761
629.0779, 17.49639
629.5601, 17.62096
630.0422, 17.68649
630.5243, 17.69906
631.0064, 17.68950
631.4885, 17.72887
631.9706, 17.71760
632.4528, 17.49087
632.9349, 17.07455
633.4170, 16.76816
633.8991, 16.78622
634.3812, 16.89250
634.8633, 16.91986
635.3455, 16.76424
635.8276, 16.82159
636.3097, 17.16574
636.7918, 17.66308
637.2739, 18.31069
637.7560, 19.29413
638.2382, 19.53973
638.7203, 18.70610
639.2024, 17.59529
639.6845, 17.58146
640.1666, 18.51692
640.6487, 19.19874
641.1309, 19.26230
641.6130, 18.90518
642.0951, 18.16286
642.5772, 17.19610
643.0594, 16.49100
643.5415, 16.26139
644.0236, 16.37615
644.5057, 17.06482
644.9879, 18.20545
645.4700, 18.72036
645.9521, 17.63752
646.4342, 16.53652
646.9163, 16.13030
647.3984, 16.52956
647.8806, 16.84658
648.3627, 17.01746
648.8448, 17.23141
649.3269, 17.74114
649.8090, 18.54540
650.2911, 19.01917
650.7733, 19.10455
651.2554, 18.94123
651.7375, 18.57986
652.2196, 18.10375
652.7017, 17.67967
653.1838, 17.24111
653.6660, 17.09148
654.1481, 17.87595
654.6302, 19.04513
655.1123, 19.63710
655.5944, 18.59938
656.0765, 17.70514
656.5587, 17.62902
657.0408, 18.19279
657.5229, 18.49187
658.0050, 18.30261
658.4871, 18.22663
658.9692, 18.53635
659.4514, 19.17988
659.9335, 19.57468
660.4156, 19.70485
660.8977, 19.71185
661.3798, 19.84925
661.8619, 19.92604
662.3441, 19.15325
662.8262, 17.45523
663.3083, 16.12230
663.7904, 16.59592
664.2725, 17.78945
664.7546, 18.47445
665.2368, 18.19802
