##NAMES=Pyrite
##RRUFFID=R100166
##IDEAL CHEMISTRY=Fe^2+^(S_2_)^2-^
##LOCALITY=Boston Consolidated mine, Bingham Canyon, 20 mi SSW of Salt Lake City, Salt Lake County, Utah, USA
##OWNER=RRUFF
##SOURCE=Harvard microprobe standard, Mineralogical Museum, Harvard University
##DESCRIPTION=Brass-yellow pyritohedron
##STATUS=The identification of this mineral is confirmed by single-crystal X-ray diffraction and chemical analysis.
##URL=rruff.info/R100166
##MEASURED CHEMISTRY=FeS_2_ ; (Pure phase as determined by WDS analysis)
145.5667, 110.7058
146.0488, 109.8281
146.5310, 109.1369
147.0131, 108.0689
147.4952, 106.4500
147.9773, 104.8456
148.4594, 104.0488
148.9415, 103.9123
149.4237, 103.7169
149.9058, 103.3496
150.3879, 102.7394
150.8700, 101.6169
151.3521, 99.60829
151.8342, 97.50467
152.3164, 95.92431
152.7985, 94.83511
153.2806, 93.94430
153.7627, 93.07576
154.2448, 92.22697
154.7269, 91.41912
155.2091, 90.59814
155.6912, 89.87624
156.1733, 89.27689
156.6554, 88.81492
157.1375, 88.54751
157.6196, 88.62854
158.1018, 89.28347
158.5839, 89.61498
159.0660, 89.44388
159.5481, 89.07301
160.0302, 88.64182
160.5123, 88.20058
160.9945, 87.75710
161.4766, 87.31185
161.9587, 86.66087
162.4408, 86.34643
162.9229, 86.67632
163.4050, 87.17092
163.8871, 87.30611
164.3693, 86.89338
164.8514, 86.25677
165.3335, 86.20722
165.8156, 87.54129
166.2977, 88.34799
166.7798, 88.27434
167.2620, 87.58174
167.7441, 86.51877
168.2262, 85.08150
168.7083, 83.59501
169.1904, 83.06533
169.6725, 83.86417
170.1547, 84.69398
170.6368, 85.11440
171.1189, 85.17184
171.6010, 84.97994
172.0831, 84.44313
172.5652, 83.80156
173.0474, 83.54384
173.5295, 83.85745
174.0116, 84.19624
174.4937, 84.08152
174.9758, 83.51464
175.4579, 83.02206
175.9401, 83.03167
176.4222, 83.12765
176.9043, 82.81214
177.3864, 81.88738
177.8685, 80.78893
178.3506, 80.01860
178.8328, 79.58530
179.3149, 79.46897
179.7970, 79.95919
180.2791, 80.61226
180.7612, 81.06834
181.2433, 81.20339
181.7255, 81.06802
182.2076, 80.75300
182.6897, 80.18610
183.1718, 79.55264
183.6539, 78.82299
184.1360, 78.08625
184.6181, 77.45248
185.1003, 76.97933
185.5824, 76.61086
186.0645, 76.13187
186.5466, 75.00906
187.0287, 74.47337
187.5108, 75.27776
187.9930, 76.59269
188.4751, 77.31550
188.9572, 76.79817
189.4393, 75.30976
189.9214, 74.35091
190.4035, 74.37867
190.8857, 74.42904
191.3678, 74.34830
191.8499, 74.17141
192.3320, 73.97260
192.8141, 73.79093
193.2962, 73.62920
193.7784, 73.51046
194.2605, 73.56651
194.7426, 73.51945
195.2247, 73.11349
195.7068, 72.49641
196.1889, 72.10247
196.6711, 72.23938
197.1532, 72.80752
197.6353, 73.21693
198.1174, 73.61248
198.5995, 73.74517
199.0816, 73.34425
199.5638, 72.47928
200.0459, 71.60730
200.5280, 70.92527
201.0101, 70.46879
201.4922, 70.26186
201.9743, 70.54829
202.4565, 70.83959
202.9386, 70.59650
203.4207, 69.79893
203.9028, 69.18096
204.3849, 69.33443
204.8670, 69.85571
205.3492, 70.17555
205.8313, 70.16415
206.3134, 69.95332
206.7955, 69.66885
207.2776, 69.29244
207.7597, 68.92833
208.2419, 68.53535
208.7240, 68.21147
209.2061, 68.08865
209.6882, 68.24004
210.1703, 68.54489
210.6524, 68.89774
211.1346, 69.50464
211.6167, 69.58575
212.0988, 68.34598
212.5809, 66.75565
213.0630, 65.77585
213.5451, 65.83446
214.0273, 66.52666
214.5094, 66.93436
214.9915, 66.81827
215.4736, 66.84959
215.9557, 67.29401
216.4378, 67.86724
216.9200, 68.31099
217.4021, 68.51035
217.8842, 68.49778
218.3663, 68.34589
218.8484, 67.90728
219.3305, 67.53803
219.8127, 67.27518
220.2948, 67.09666
220.7769, 66.96688
221.2590, 66.86958
221.7411, 66.83119
222.2232, 66.93370
222.7054, 67.40459
223.1875, 67.74727
223.6696, 67.85558
224.1517, 67.84952
224.6338, 67.89617
225.1159, 68.07188
225.5980, 68.28032
226.0802, 68.23722
226.5623, 67.40035
227.0444, 66.96035
227.5265, 67.32545
228.0086, 68.04493
228.4907, 68.55386
228.9729, 68.61462
229.4550, 68.35159
229.9371, 68.06719
230.4192, 67.76223
230.9013, 67.43702
231.3834, 67.02258
231.8656, 66.60380
232.3477, 66.27865
232.8298, 66.07092
233.3119, 66.02733
233.7940, 66.33723
234.2761, 67.19650
234.7583, 67.85201
235.2404, 68.02525
235.7225, 67.88542
236.2046, 67.68193
236.6867, 67.45216
237.1688, 67.29878
237.6510, 67.53891
238.1331, 68.30517
238.6152, 68.69544
239.0973, 67.95122
239.5794, 66.64192
240.0615, 66.08454
240.5437, 66.82503
241.0258, 68.00861
241.5079, 68.58093
241.9900, 68.59195
242.4721, 68.23766
242.9542, 67.36107
243.4364, 66.17415
243.9185, 65.23573
244.4006, 64.71345
244.8827, 64.36015
245.3648, 63.94341
245.8469, 63.47134
246.3290, 62.99244
246.8112, 62.45563
247.2933, 61.92448
247.7754, 61.59578
248.2575, 61.54662
248.7396, 61.63010
249.2217, 61.77906
249.7039, 61.96626
250.1860, 62.09233
250.6681, 62.16658
251.1502, 62.14817
251.6323, 61.83402
252.1144, 61.00671
252.5966, 60.22704
253.0787, 59.82277
253.5608, 59.70560
254.0429, 59.68115
254.5250, 59.66476
255.0071, 59.65790
255.4893, 59.65293
255.9714, 59.58860
256.4535, 59.63778
256.9356, 60.03271
257.4177, 60.55302
257.8998, 60.80418
258.3820, 60.44202
258.8641, 59.71367
259.3462, 59.57172
259.8283, 60.57766
260.3104, 61.23570
260.7925, 60.92680
261.2747, 60.08142
261.7568, 59.21426
262.2389, 58.52961
262.7210, 58.06647
263.2031, 57.96195
263.6852, 58.41858
264.1674, 58.91185
264.6495, 59.53529
265.1316, 60.03988
265.6137, 60.09507
266.0958, 59.54120
266.5779, 58.63784
267.0601, 57.97890
267.5422, 57.58394
268.0243, 57.44406
268.5064, 57.62822
268.9885, 57.97787
269.4706, 58.44793
269.9528, 59.00800
270.4349, 59.47028
270.9170, 59.39498
271.3991, 58.25341
271.8812, 57.63192
272.3633, 58.12473
272.8455, 58.78114
273.3276, 58.81610
273.8097, 58.06828
274.2918, 57.00062
274.7739, 56.27449
275.2560, 55.87580
275.7382, 55.90792
276.2202, 56.86706
276.7024, 57.79580
277.1845, 58.00125
277.6666, 57.44553
278.1487, 56.64838
278.6308, 56.24383
279.1129, 56.37716
279.5951, 56.41119
280.0772, 56.21611
280.5593, 56.05005
281.0414, 56.06935
281.5235, 56.25975
282.0056, 56.49671
282.4878, 56.65894
282.9699, 56.73105
283.4520, 56.84766
283.9341, 57.03772
284.4162, 57.23800
284.8983, 57.48991
285.3805, 57.73954
285.8626, 57.84550
286.3447, 57.67137
286.8268, 57.22610
287.3089, 57.02031
287.7910, 57.39632
288.2732, 57.62700
288.7553, 57.32999
289.2374, 56.74447
289.7195, 56.39968
290.2016, 56.65433
290.6837, 57.32430
291.1659, 57.36169
291.6480, 55.96591
292.1301, 54.87703
292.6122, 54.45996
293.0943, 54.49830
293.5764, 54.69285
294.0586, 54.90958
294.5407, 55.17531
295.0228, 55.56511
295.5049, 56.45287
295.9870, 56.99921
296.4691, 56.90077
296.9513, 56.56456
297.4334, 56.50834
297.9155, 56.88536
298.3976, 57.31998
298.8797, 57.16899
299.3618, 56.02069
299.8440, 55.00075
300.3261, 53.89496
300.8082, 53.05139
301.2903, 52.85859
301.7724, 53.34568
302.2545, 54.10740
302.7367, 54.71393
303.2188, 55.19195
303.7009, 55.29162
304.1830, 54.59752
304.6651, 53.89791
305.1472, 53.74659
305.6294, 54.10998
306.1115, 54.56047
306.5936, 54.73343
307.0757, 54.61020
307.5578, 54.54355
308.0399, 54.49256
308.5221, 54.52481
309.0042, 54.72097
309.4863, 55.03054
309.9684, 55.33993
310.4505, 55.58870
310.9326, 55.76618
311.4148, 55.77716
311.8969, 55.37388
312.3790, 55.11566
312.8611, 55.31846
313.3432, 55.72129
313.8253, 55.86600
314.3075, 55.52922
314.7896, 54.91579
315.2717, 54.54460
315.7538, 54.43409
316.2359, 54.54566
316.7180, 54.63334
317.2001, 55.04968
317.6823, 56.20008
318.1644, 58.20364
318.6465, 60.85033
319.1286, 63.84197
319.6107, 67.16648
320.0928, 70.95267
320.5750, 75.69604
321.0571, 80.56014
321.5392, 85.52660
322.0213, 90.28046
322.5034, 93.52806
322.9855, 93.72747
323.4677, 90.31278
323.9498, 87.74045
324.4319, 85.93348
324.9140, 84.87595
325.3961, 84.55254
325.8782, 84.96451
326.3604, 86.18788
326.8425, 88.36082
327.3246, 91.38855
327.8067, 94.25051
328.2888, 96.83188
328.7709, 99.40807
329.2531, 102.2001
329.7352, 104.9989
330.2173, 107.3423
330.6994, 108.9785
331.1815, 110.3014
331.6636, 112.4003
332.1458, 115.4141
332.6279, 119.1217
333.1100, 123.1183
333.5921, 127.9787
334.0742, 134.2630
334.5563, 142.0972
335.0385, 151.4089
335.5206, 162.0323
336.0027, 174.1834
336.4848, 187.4670
336.9669, 203.0387
337.4490, 218.8260
337.9312, 238.7730
338.4133, 259.7950
338.8954, 269.5320
339.3775, 255.2333
339.8596, 214.6412
340.3417, 177.5723
340.8239, 139.9693
341.3060, 109.4559
341.7881, 90.62362
342.2702, 80.88287
342.7523, 75.48512
343.2344, 71.71644
343.7166, 69.42742
344.1987, 67.94516
344.6808, 68.56625
345.1629, 68.53598
345.6450, 67.50382
346.1271, 65.74077
346.6093, 63.33459
347.0914, 60.37937
347.5735, 57.31803
348.0556, 55.04613
348.5377, 53.85907
349.0198, 52.99375
349.5020, 52.58084
349.9841, 52.33681
350.4662, 52.05890
350.9483, 51.73719
351.4304, 51.51099
351.9125, 51.53844
352.3947, 51.84561
352.8768, 52.23516
353.3589, 52.82780
353.8410, 53.38127
354.3231, 53.59848
354.8052, 53.71175
355.2874, 54.20126
355.7695, 55.41272
356.2516, 57.24368
356.7337, 59.18148
357.2158, 61.71109
357.6979, 63.63958
358.1800, 64.62576
358.6621, 65.00640
359.1443, 65.11939
359.6264, 65.09727
360.1085, 64.90130
360.5906, 64.36047
361.0727, 63.14948
361.5548, 62.46275
362.0370, 62.51957
362.5191, 63.01826
363.0012, 63.90913
363.4833, 65.12716
363.9654, 66.45398
364.4475, 67.66743
364.9297, 68.75538
365.4118, 69.93604
365.8939, 71.29012
366.3760, 72.65293
366.8581, 73.73682
367.3402, 74.78200
367.8224, 76.31250
368.3045, 78.76652
368.7866, 81.79178
369.2687, 84.15957
369.7508, 85.11966
370.2329, 87.12864
370.7151, 91.38962
371.1972, 96.83140
371.6793, 102.6889
372.1614, 108.7604
372.6435, 114.7752
373.1256, 120.7070
373.6078, 126.6491
374.0899, 131.3105
374.5720, 137.2865
375.0541, 138.8295
375.5362, 130.1182
376.0183, 111.9905
376.5005, 93.10425
376.9826, 77.89440
377.4647, 66.26982
377.9468, 58.07905
378.4289, 54.07185
378.9110, 51.90662
379.3932, 50.64778
379.8753, 49.98745
380.3574, 49.38940
380.8395, 48.63623
381.3216, 47.91854
381.8037, 47.56361
382.2859, 47.58092
382.7680, 47.43142
383.2501, 46.62288
383.7322, 45.69813
384.2143, 45.55711
384.6964, 46.43821
385.1786, 47.31945
385.6607, 47.62190
386.1428, 47.47585
386.6249, 47.18169
387.1070, 46.75916
387.5891, 46.34386
388.0713, 46.09029
388.5534, 45.98377
389.0355, 45.97765
389.5176, 46.20807
389.9997, 46.44450
390.4818, 46.38796
390.9640, 46.04487
391.4461, 45.76796
391.9282, 45.83910
392.4103, 46.17242
392.8924, 46.28695
393.3745, 45.91390
393.8567, 45.63470
394.3388, 45.85480
394.8209, 46.30946
395.3030, 46.44571
395.7851, 46.03676
396.2672, 45.35460
396.7494, 44.84386
397.2315, 44.44349
397.7136, 44.40969
398.1957, 45.18253
398.6778, 46.03914
399.1599, 46.38765
399.6420, 46.17892
400.1241, 45.67558
400.6063, 45.06593
401.0884, 44.33757
401.5705, 43.87341
402.0526, 43.75194
402.5347, 43.76429
403.0168, 43.91093
403.4990, 44.13738
403.9811, 44.35414
404.4632, 44.51618
404.9453, 44.68048
405.4274, 45.02660
405.9095, 46.01227
406.3917, 46.36488
406.8738, 45.53736
407.3559, 44.50508
407.8380, 43.88367
408.3201, 43.78524
408.8022, 44.05407
409.2844, 44.66317
409.7665, 45.66676
410.2486, 46.05892
410.7307, 45.04765
411.2128, 44.26633
411.6949, 44.36794
412.1771, 44.98023
412.6592, 45.47318
413.1413, 45.52491
413.6234, 45.32938
414.1055, 45.27299
414.5876, 45.34232
415.0698, 45.59634
415.5519, 46.36234
416.0340, 47.10715
416.5161, 47.42566
416.9982, 47.28460
417.4803, 46.99716
417.9625, 46.81841
418.4446, 46.72649
418.9267, 46.53678
419.4088, 46.13551
419.8909, 45.82543
420.3730, 45.85016
420.8552, 46.09679
421.3373, 46.35570
421.8194, 46.60039
422.3015, 46.78194
422.7836, 46.80995
423.2657, 46.68622
423.7479, 46.55947
424.2300, 46.44637
424.7121, 46.40418
425.1942, 46.51943
425.6763, 46.81533
426.1584, 47.13790
426.6406, 47.53561
427.1227, 47.88568
427.6048, 47.88977
428.0869, 47.47198
428.5690, 47.06295
429.0511, 47.04562
429.5333, 47.44332
430.0154, 47.92571
430.4975, 48.87200
430.9796, 49.54522
431.4617, 49.38378
431.9438, 48.60963
432.4260, 47.81149
432.9081, 47.27357
433.3902, 46.85194
433.8723, 46.18451
434.3544, 44.73365
434.8365, 43.95886
435.3187, 44.49631
435.8008, 45.33602
436.2829, 45.63482
436.7650, 45.31783
437.2471, 44.83489
437.7292, 44.61503
438.2114, 44.66899
438.6935, 44.52276
439.1756, 43.73310
439.6577, 43.23761
440.1398, 43.52462
440.6219, 44.14644
441.1040, 44.46114
441.5862, 44.19917
442.0683, 43.67964
442.5504, 43.49909
443.0325, 43.78405
443.5146, 44.01974
443.9967, 44.09423
444.4789, 44.16665
444.9610, 44.48193
445.4431, 44.91121
445.9252, 44.98203
446.4073, 44.13055
446.8894, 42.68258
447.3716, 41.91428
447.8537, 41.97956
448.3358, 42.34732
448.8179, 43.09549
449.3000, 43.88900
449.7821, 44.30626
450.2643, 44.19460
450.7464, 44.02062
451.2285, 44.28566
451.7106, 44.87262
452.1927, 45.16488
452.6748, 44.97857
453.1570, 44.59832
453.6391, 44.20971
454.1212, 43.83421
454.6033, 43.63710
455.0854, 43.85871
455.5675, 44.12668
456.0497, 44.01180
456.5318, 43.58587
457.0139, 43.33453
457.4960, 43.54437
457.9781, 44.03946
458.4602, 44.36532
458.9424, 44.60308
459.4245, 44.55482
459.9066, 43.86967
460.3887, 43.05777
460.8708, 42.70117
461.3529, 42.85150
461.8351, 43.08318
462.3172, 42.96176
462.7993, 42.46419
463.2814, 42.37177
463.7635, 43.15968
464.2456, 43.77810
464.7278, 43.84189
465.2099, 43.62127
465.6920, 43.52224
466.1741, 43.69864
466.6562, 43.95924
467.1383, 43.95448
467.6205, 43.55524
468.1026, 43.29245
468.5847, 43.34010
469.0668, 43.38697
469.5489, 43.23900
470.0310, 42.96782
470.5132, 42.79899
470.9953, 42.91580
471.4774, 43.18419
471.9595, 43.23544
472.4416, 43.00305
472.9237, 42.80022
473.4059, 42.69225
473.8880, 42.69713
474.3701, 42.90225
474.8522, 43.32676
475.3343, 43.66601
475.8164, 43.61352
476.2986, 43.33818
476.7807, 43.35584
477.2628, 43.81177
477.7449, 44.06458
478.2270, 43.42395
478.7091, 42.15276
479.1913, 41.39355
479.6734, 41.47922
480.1555, 41.78020
480.6376, 42.06799
481.1197, 42.32757
481.6018, 42.54530
482.0839, 42.72074
482.5660, 42.79994
483.0482, 42.68589
483.5303, 42.29222
484.0124, 42.01927
484.4945, 41.77318
484.9766, 41.72609
485.4587, 42.25195
485.9409, 43.04999
486.4230, 43.37336
486.9051, 42.77410
487.3872, 41.61579
487.8693, 40.99217
488.3514, 41.38179
488.8336, 41.39550
489.3157, 40.43902
489.7978, 39.52212
490.2799, 39.37611
490.7620, 39.96840
491.2441, 40.78773
491.7263, 41.57317
492.2084, 42.23751
492.6905, 42.26036
493.1726, 41.33594
493.6547, 40.50707
494.1368, 40.21777
494.6190, 40.23687
495.1011, 40.42429
495.5832, 40.78851
496.0653, 41.05922
496.5474, 40.80481
497.0295, 40.28452
497.5117, 40.42488
497.9938, 41.52221
498.4759, 42.60597
498.9580, 42.85746
499.4401, 42.38784
499.9222, 41.90377
500.4044, 41.35253
500.8865, 40.89129
501.3686, 40.68591
501.8507, 40.61595
502.3328, 40.36742
502.8149, 39.82398
503.2971, 39.29064
503.7792, 39.22043
504.2613, 39.78054
504.7434, 40.22599
505.2255, 40.67824
505.7076, 40.91239
506.1898, 40.69139
506.6719, 40.18439
507.1540, 39.71852
507.6361, 39.46370
508.1182, 39.35902
508.6003, 39.25081
509.0825, 39.07146
509.5646, 39.07149
510.0467, 39.44305
510.5288, 39.85595
511.0109, 40.13934
511.4930, 40.30330
511.9752, 40.46070
512.4573, 40.79573
512.9394, 41.09851
513.4215, 40.75506
513.9036, 39.63032
514.3857, 38.71307
514.8679, 38.48820
515.3500, 38.58793
515.8321, 38.49834
516.3142, 38.17689
516.7963, 37.96846
517.2784, 38.04858
517.7606, 38.31562
518.2427, 38.69883
518.7248, 39.17569
519.2069, 39.54235
519.6890, 39.63847
520.1711, 39.52374
520.6533, 39.49192
521.1354, 39.73338
521.6175, 39.79342
522.0996, 39.42030
522.5817, 38.93288
523.0638, 38.69407
523.5460, 38.73475
524.0281, 38.76189
524.5102, 38.42969
524.9923, 37.76352
525.4744, 37.72675
525.9565, 39.01046
526.4387, 40.03365
526.9208, 40.29678
527.4029, 40.25262
527.8850, 40.47378
528.3671, 41.08004
528.8492, 41.52448
529.3314, 40.99779
529.8135, 39.64524
530.2956, 38.91526
530.7777, 39.01101
531.2598, 39.48218
531.7419, 40.45813
532.2241, 41.53640
532.7062, 41.99360
533.1883, 41.44976
533.6704, 40.77020
534.1525, 40.46481
534.6346, 40.47137
535.1168, 40.70510
535.5989, 41.16779
536.0810, 41.62896
536.5631, 41.82894
537.0452, 41.75255
537.5273, 41.83366
538.0095, 42.33643
538.4916, 42.68814
538.9737, 42.49923
539.4558, 42.08612
539.9379, 41.95103
540.4200, 42.24693
540.9022, 42.69848
541.3843, 42.88179
541.8664, 42.68749
542.3485, 42.84978
542.8306, 43.74199
543.3127, 44.59834
543.7948, 45.15393
544.2769, 45.52628
544.7590, 45.89463
545.2411, 46.32215
545.7233, 46.78505
546.2054, 47.26381
546.6875, 47.75696
547.1696, 48.20932
547.6517, 48.58883
548.1339, 48.96936
548.6160, 49.48357
549.0981, 50.05647
549.5802, 50.46453
550.0623, 50.75532
550.5444, 50.77304
551.0266, 50.10812
551.5087, 49.11868
551.9908, 48.75326
552.4729, 49.32270
552.9550, 50.07607
553.4371, 50.05989
553.9193, 49.11500
554.4014, 48.33974
554.8835, 47.65760
555.3656, 47.20131
555.8477, 47.36608
556.3298, 47.67060
556.8120, 47.23436
557.2941, 45.77533
557.7762, 44.19353
558.2583, 44.01616
558.7404, 45.52845
559.2225, 46.01115
559.7047, 44.61108
560.1868, 43.17741
560.6689, 42.60334
561.1510, 42.57098
561.6331, 42.52773
562.1152, 42.28067
562.5974, 42.06758
563.0795, 42.23118
563.5616, 42.62922
564.0437, 42.71149
564.5258, 42.33080
565.0079, 41.79237
565.4901, 41.30306
565.9722, 40.88488
566.4543, 40.70171
566.9364, 41.08925
567.4185, 41.32755
567.9006, 40.93641
568.3828, 40.30844
568.8649, 40.01542
569.3470, 40.19749
569.8291, 40.59522
570.3112, 40.95615
570.7933, 41.29756
571.2755, 41.29695
571.7576, 40.49884
572.2397, 39.93026
572.7218, 40.03169
573.2039, 40.38372
573.6860, 40.43784
574.1682, 40.06927
574.6503, 39.77868
575.1324, 40.17908
575.6145, 41.08734
576.0966, 41.67525
576.5787, 41.84752
577.0609, 41.87172
577.5430, 41.86943
578.0251, 41.83636
578.5072, 41.76092
578.9893, 41.60700
579.4714, 41.49176
579.9536, 41.64088
580.4357, 41.75911
580.9178, 41.29913
581.3999, 40.30519
581.8820, 39.53897
582.3641, 39.63276
582.8463, 40.40444
583.3284, 40.78815
583.8105, 40.50051
584.2926, 40.21810
584.7747, 39.77021
585.2568, 39.51133
585.7390, 39.92164
586.2211, 40.85402
586.7032, 41.56366
587.1853, 41.40908
587.6674, 40.73281
588.1495, 40.47895
588.6317, 40.70689
589.1138, 41.00275
589.5959, 41.32276
590.0780, 41.56722
590.5601, 41.59614
591.0422, 41.41386
591.5244, 41.24571
592.0065, 41.14614
592.4886, 41.10061
592.9707, 41.12676
593.4528, 41.20056
593.9349, 41.26642
594.4171, 41.30676
594.8992, 41.26947
595.3813, 41.03975
595.8634, 40.48346
596.3455, 40.13495
596.8276, 40.05894
597.3098, 40.09032
597.7919, 40.26189
598.2740, 40.46673
598.7561, 40.52369
599.2382, 40.35380
599.7203, 40.11432
600.2025, 39.94497
600.6846, 39.85114
601.1667, 40.11784
601.6488, 40.97907
602.1309, 41.78934
602.6130, 42.12303
603.0952, 42.08512
603.5773, 41.80261
604.0594, 41.10538
604.5415, 40.51952
605.0236, 40.32231
605.5057, 40.40141
605.9879, 40.66800
606.4700, 41.07566
606.9521, 41.39869
607.4342, 41.41354
607.9163, 41.18910
608.3984, 41.26122
608.8806, 42.06594
609.3627, 42.56371
609.8448, 42.65082
610.3269, 42.42258
610.8090, 41.73957
611.2911, 40.75720
611.7733, 40.02604
612.2554, 39.99699
612.7375, 40.41388
613.2196, 40.72377
613.7017, 40.92992
614.1838, 40.98680
614.6660, 40.78012
615.1481, 40.54022
615.6302, 40.56781
616.1123, 40.84208
616.5944, 41.07665
617.0765, 41.24496
617.5587, 41.32624
618.0408, 41.27314
618.5229, 41.12591
619.0050, 40.91856
619.4871, 40.66865
619.9692, 40.53698
620.4514, 40.79324
620.9335, 41.53419
621.4156, 41.92708
621.8977, 41.62594
622.3798, 41.37472
622.8619, 41.37690
623.3441, 41.52114
623.8262, 41.69093
624.3083, 41.85582
624.7904, 42.01243
625.2725, 42.23919
625.7546, 42.44676
626.2367, 42.31982
626.7188, 41.81159
627.2009, 41.33468
627.6830, 41.10563
628.1652, 41.03912
628.6473, 40.90801
629.1294, 40.59834
629.6115, 40.58173
630.0936, 41.32069
630.5757, 42.03899
631.0579, 42.10093
631.5400, 41.66044
632.0221, 41.18267
632.5042, 40.89826
632.9863, 40.82066
633.4684, 41.02576
633.9506, 41.58966
634.4327, 42.07732
634.9148, 42.58836
635.3969, 42.84935
635.8790, 42.48452
636.3611, 41.86595
636.8433, 41.68127
637.3254, 42.21680
637.8075, 42.83385
638.2896, 43.19252
638.7717, 43.27564
639.2538, 42.91458
