##NAMES=Pyrite
##RRUFFID=R050070
##IDEAL CHEMISTRY=Fe^2+^(S_2_)^2-^
##LOCALITY=Mina San Jose de Huanzala, Minero de Huallanca District, Department de Huanuco, Peru
##OWNER=RRUFF
##SOURCE=Rock Currier
##DESCRIPTION=Brass-yellow metallic cube
##STATUS=The identification of this mineral has been confirmed by X-ray diffraction and chemical analysis
##URL=rruff.info/R050070
##MEASURED CHEMISTRY=Fe_1.00_S_2.00_
118.6088, 136.0455
119.0909, 135.4291
119.5731, 137.4321
120.0552, 143.3251
120.5373, 151.6347
121.0194, 160.6000
121.5015, 170.7992
121.9836, 179.9344
122.4658, 186.9959
122.9479, 192.9554
123.4300, 198.8547
123.9121, 205.3271
124.3942, 211.4551
124.8763, 214.5264
125.3585, 211.5469
125.8406, 210.7455
126.3227, 214.0714
126.8048, 220.1772
127.2869, 228.0418
127.7690, 237.3744
128.2512, 247.4604
128.7333, 254.7402
129.2154, 253.0844
129.6975, 256.4572
130.1796, 271.5938
130.6617, 292.2557
131.1439, 309.1248
131.6260, 315.9853
132.1081, 314.7861
132.5902, 320.8484
133.0723, 343.4389
133.5544, 364.2072
134.0366, 376.7256
134.5187, 385.1217
135.0008, 396.9902
135.4829, 417.5876
135.9650, 446.4960
136.4471, 475.5236
136.9293, 505.3265
137.4114, 534.5059
137.8935, 565.6815
138.3756, 596.2182
138.8577, 621.4834
139.3398, 638.6631
139.8220, 647.6936
140.3041, 641.9200
140.7862, 614.7921
141.2683, 582.9257
141.7504, 549.1699
142.2325, 515.9362
142.7147, 488.9172
143.1968, 473.0407
143.6789, 468.8856
144.1610, 464.5129
144.6431, 457.7377
145.1252, 452.5786
145.6074, 450.4608
146.0895, 451.7372
146.5716, 457.5594
147.0537, 469.7546
147.5358, 488.6015
148.0179, 505.9088
148.5001, 521.9752
148.9822, 536.3277
149.4643, 547.1180
149.9464, 554.6443
150.4285, 563.7199
150.9106, 578.7463
151.3928, 599.4794
151.8749, 620.3406
152.3570, 641.3762
152.8391, 662.1935
153.3212, 683.6477
153.8033, 705.8619
154.2855, 725.2717
154.7676, 739.1978
155.2497, 747.8154
155.7318, 751.7867
156.2139, 747.8188
156.6960, 740.8781
157.1782, 738.0472
157.6603, 740.6757
158.1424, 740.4975
158.6245, 727.7181
159.1066, 706.8630
159.5887, 688.5938
160.0709, 674.9286
160.5530, 665.6148
161.0351, 661.6583
161.5172, 664.3480
161.9993, 667.7032
162.4814, 666.2555
162.9636, 662.4133
163.4457, 660.6837
163.9278, 663.8953
164.4099, 669.8281
164.8920, 675.2452
165.3741, 681.0677
165.8563, 683.6293
166.3384, 678.9532
166.8205, 669.7858
167.3026, 660.3733
167.7847, 652.1036
168.2668, 644.7422
168.7490, 638.0496
169.2311, 632.6415
169.7132, 626.3768
170.1953, 617.5004
170.6774, 607.1867
171.1595, 597.1428
171.6417, 587.7542
172.1238, 579.2964
172.6059, 573.3110
173.0880, 572.4988
173.5701, 568.4926
174.0522, 554.8116
174.5344, 536.4454
175.0165, 520.6086
175.4986, 510.6819
175.9807, 505.5200
176.4628, 502.2172
176.9449, 501.7993
177.4271, 501.4157
177.9092, 499.7255
178.3913, 497.4522
178.8734, 495.6626
179.3555, 495.0779
179.8376, 495.1035
180.3197, 493.6240
180.8019, 488.7340
181.2840, 485.8508
181.7661, 486.5208
182.2482, 489.8191
182.7303, 494.8287
183.2124, 501.3341
183.6946, 508.9044
184.1767, 516.5190
184.6588, 524.9219
185.1409, 531.8414
185.6230, 539.6650
186.1051, 544.9754
186.5873, 543.0708
187.0694, 531.0087
187.5515, 512.6048
188.0336, 497.6647
188.5157, 488.0463
188.9978, 479.1599
189.4800, 470.2480
189.9621, 461.3785
190.4442, 452.3181
190.9263, 442.9557
191.4084, 433.8674
191.8905, 426.3313
192.3727, 419.9250
192.8548, 416.1289
193.3369, 416.0881
193.8190, 417.8295
194.3011, 419.4539
194.7832, 420.2029
195.2654, 420.7254
195.7475, 422.7636
196.2296, 428.6224
196.7117, 431.5083
197.1938, 428.2403
197.6759, 423.4135
198.1581, 421.3505
198.6402, 423.4484
199.1223, 427.3392
199.6044, 428.1687
200.0865, 422.5837
200.5686, 420.8180
201.0508, 426.2909
201.5329, 433.6190
202.0150, 438.7856
202.4971, 440.6723
202.9792, 440.6816
203.4613, 441.2866
203.9435, 443.8894
204.4256, 443.7441
204.9077, 438.1425
205.3898, 431.8980
205.8719, 428.8173
206.3540, 429.3932
206.8362, 430.7617
207.3183, 428.6220
207.8004, 420.8011
208.2825, 415.0608
208.7646, 414.5122
209.2467, 413.4559
209.7289, 407.7124
210.2110, 397.3455
210.6931, 386.1377
211.1752, 379.3398
211.6573, 379.8238
212.1395, 374.0773
212.6216, 354.6131
213.1037, 335.7730
213.5858, 325.1064
214.0679, 322.2607
214.5500, 322.0657
215.0322, 319.7800
215.5143, 315.2844
215.9964, 309.4141
216.4785, 298.3700
216.9606, 289.4482
217.4427, 287.0103
217.9249, 289.4532
218.4070, 291.7253
218.8891, 289.2941
219.3712, 281.9658
219.8533, 276.9805
220.3354, 277.3048
220.8176, 277.1963
221.2997, 275.3921
221.7818, 271.9493
222.2639, 266.8510
222.7460, 259.5192
223.2281, 250.5222
223.7103, 246.6475
224.1924, 253.4333
224.6745, 259.6722
225.1566, 263.6752
225.6387, 265.5614
226.1208, 265.6666
226.6030, 264.0921
227.0851, 261.0745
227.5672, 257.5025
228.0493, 252.0497
228.5314, 247.8932
229.0135, 245.6116
229.4957, 244.8038
229.9778, 245.3860
230.4599, 247.3863
230.9420, 249.8983
231.4241, 250.5914
231.9062, 248.2556
232.3884, 246.0728
232.8705, 244.4390
233.3526, 243.1248
233.8347, 241.6141
234.3168, 239.7970
234.7989, 238.5254
235.2811, 239.7350
235.7632, 245.4711
236.2453, 248.7640
236.7274, 246.2755
237.2095, 243.3857
237.6916, 244.2000
238.1738, 249.2574
238.6559, 255.4957
239.1380, 259.2330
239.6201, 260.0143
240.1022, 259.9198
240.5843, 258.4589
241.0665, 256.5971
241.5486, 255.1583
242.0307, 253.9206
242.5128, 251.6801
242.9949, 246.1007
243.4770, 236.5006
243.9592, 231.8607
244.4413, 238.8211
244.9234, 244.6225
245.4055, 244.6881
245.8876, 239.6656
246.3697, 231.7319
246.8519, 220.2330
247.3340, 206.4328
247.8161, 203.2015
248.2982, 221.5454
248.7803, 235.8958
249.2624, 235.0370
249.7446, 225.1153
250.2267, 216.0829
250.7088, 213.1263
251.1909, 214.6117
251.6730, 215.9527
252.1551, 217.1230
252.6373, 218.2015
253.1194, 219.9703
253.6015, 221.3834
254.0836, 221.1514
254.5657, 218.6731
255.0478, 214.9209
255.5300, 211.0823
256.0121, 206.8575
256.4942, 203.7492
256.9763, 203.5429
257.4584, 203.8613
257.9406, 202.7492
258.4227, 199.7562
258.9048, 196.5570
259.3869, 195.0547
259.8690, 195.3323
260.3511, 195.3617
260.8333, 194.8159
261.3154, 193.8208
261.7975, 191.9820
262.2796, 189.4377
262.7617, 187.7652
263.2438, 189.1186
263.7260, 192.7353
264.2081, 193.9901
264.6902, 191.5076
265.1723, 187.9061
265.6544, 183.7926
266.1365, 179.8606
266.6187, 178.7463
267.1008, 183.7543
267.5829, 192.0470
268.0650, 197.5835
268.5471, 199.7630
269.0292, 200.6757
269.5114, 201.8365
269.9935, 202.6840
270.4756, 201.9194
270.9577, 197.5459
271.4398, 192.7854
271.9219, 192.0147
272.4041, 195.3727
272.8862, 197.7394
273.3683, 195.2013
273.8504, 190.7561
274.3325, 190.2000
274.8146, 195.2615
275.2968, 201.5746
275.7789, 207.8511
276.2610, 213.4018
276.7431, 214.7825
277.2252, 209.2410
277.7073, 201.0140
278.1895, 197.4725
278.6716, 199.4194
279.1537, 201.0732
279.6358, 200.4414
280.1179, 198.1513
280.6000, 194.9285
281.0822, 190.7569
281.5643, 186.7030
282.0464, 184.1498
282.5285, 183.2289
283.0106, 182.2875
283.4927, 181.6443
283.9749, 180.5883
284.4570, 177.7559
284.9391, 173.2851
285.4212, 169.7949
285.9033, 169.9285
286.3854, 173.5649
286.8676, 174.3688
287.3497, 169.5181
287.8318, 164.8440
288.3139, 163.7044
288.7960, 165.0903
289.2781, 166.0395
289.7603, 164.8552
290.2424, 162.0879
290.7245, 160.0618
291.2066, 159.0006
291.6887, 158.3356
292.1708, 158.1898
292.6530, 158.3245
293.1351, 158.3450
293.6172, 158.1237
294.0993, 158.0401
294.5814, 158.8160
295.0635, 161.2553
295.5457, 163.0466
296.0278, 164.6541
296.5099, 165.3376
296.9920, 163.9841
297.4741, 160.8285
297.9562, 157.4813
298.4384, 155.4447
298.9205, 154.6619
299.4026, 155.7072
299.8847, 160.9215
300.3668, 165.5699
300.8489, 167.5578
301.3311, 167.7094
301.8131, 168.2727
302.2953, 171.0736
302.7774, 175.1123
303.2595, 174.8584
303.7416, 165.4157
304.2237, 158.9241
304.7058, 159.3731
305.1880, 163.0560
305.6701, 166.2148
306.1522, 167.4754
306.6343, 167.5113
307.1164, 166.8306
307.5985, 164.5855
308.0807, 164.8184
308.5628, 171.4433
309.0449, 178.5724
309.5270, 183.0783
310.0091, 184.5616
310.4912, 183.8137
310.9734, 180.4337
311.4555, 174.7753
311.9376, 170.9281
312.4197, 169.9576
312.9018, 169.7930
313.3839, 168.8388
313.8661, 167.5437
314.3482, 167.1423
314.8303, 168.9564
315.3124, 171.6672
315.7945, 172.7447
316.2766, 171.9010
316.7588, 171.1233
317.2409, 171.8161
317.7230, 173.1332
318.2051, 173.7027
318.6872, 173.3234
319.1693, 172.2434
319.6515, 170.3262
320.1336, 167.7632
320.6157, 165.2880
321.0978, 162.9901
321.5799, 161.1661
322.0620, 160.5130
322.5442, 161.2209
323.0263, 161.6227
323.5084, 159.8262
323.9905, 158.0636
324.4726, 159.5972
324.9547, 164.9700
325.4369, 171.4456
325.9190, 175.3423
326.4011, 176.2060
326.8832, 185.7040
327.3653, 209.3603
327.8474, 236.2327
328.3296, 261.5779
328.8117, 285.1828
329.2938, 308.0477
329.7759, 331.2029
330.2580, 353.5819
330.7401, 369.5657
331.2223, 370.6505
331.7044, 375.9518
332.1865, 391.3482
332.6686, 410.1612
333.1507, 424.4767
333.6328, 432.1031
334.1150, 437.7711
334.5971, 448.9290
335.0792, 468.4223
335.5613, 485.6219
336.0434, 493.9711
336.5255, 505.9799
337.0077, 527.2604
337.4898, 557.9075
337.9719, 595.7830
338.4540, 638.9999
338.9361, 687.7976
339.4182, 744.0602
339.9004, 804.7797
340.3825, 878.2407
340.8646, 972.1996
341.3467, 1076.915
341.8288, 1188.838
342.3109, 1313.149
342.7931, 1415.226
343.2752, 1441.712
343.7573, 1387.357
344.2394, 1292.275
344.7215, 1141.701
345.2036, 970.0693
345.6858, 792.5598
346.1679, 611.4102
346.6500, 457.1828
347.1321, 353.0035
347.6142, 290.3259
348.0963, 248.2516
348.5785, 228.3814
349.0606, 218.0159
349.5427, 210.7022
350.0248, 205.3799
350.5069, 198.9295
350.9890, 188.9954
351.4712, 179.1382
351.9533, 172.6866
352.4354, 169.0747
352.9175, 164.9227
353.3996, 157.9438
353.8817, 150.2509
354.3639, 148.1718
354.8460, 154.8611
355.3281, 159.2724
355.8102, 156.6618
356.2923, 151.5255
356.7744, 149.5054
357.2566, 151.6889
357.7387, 155.0120
358.2208, 156.1651
358.7029, 154.9068
359.1850, 152.5403
359.6671, 146.8581
360.1493, 142.4113
360.6314, 142.9363
361.1135, 146.2378
361.5956, 146.6928
362.0777, 140.4787
362.5598, 130.7318
363.0420, 129.3655
363.5241, 143.6676
364.0062, 154.8476
364.4883, 157.7243
364.9704, 158.7502
365.4525, 164.2412
365.9347, 175.1265
366.4168, 186.2619
366.8989, 191.4326
367.3810, 190.3058
367.8631, 189.2129
368.3452, 187.0767
368.8274, 186.7070
369.3095, 191.0429
369.7916, 198.1066
370.2737, 202.9111
370.7558, 201.0099
371.2379, 197.2580
371.7201, 200.8108
372.2022, 212.4553
372.6843, 223.5582
373.1664, 228.7487
373.6485, 232.4816
374.1306, 241.6497
374.6128, 257.6670
375.0949, 274.7210
375.5770, 288.6606
376.0591, 301.6017
376.5412, 317.8580
377.0233, 338.4304
377.5055, 361.8547
377.9876, 390.0604
378.4697, 423.8943
378.9518, 439.7328
379.4339, 430.2859
379.9160, 408.9909
380.3982, 380.6732
380.8803, 346.8340
381.3624, 308.5809
381.8445, 265.6241
382.3266, 221.7893
382.8087, 188.0646
383.2909, 170.0820
383.7730, 156.3102
384.2551, 147.4306
384.7372, 141.9732
385.2193, 139.7684
385.7014, 140.2053
386.1836, 141.1929
386.6657, 140.5938
387.1478, 138.3467
387.6299, 135.7207
388.1120, 132.2502
388.5941, 128.9093
389.0763, 125.8365
389.5584, 123.1399
390.0405, 120.8371
390.5226, 118.7300
391.0047, 117.5565
391.4868, 119.0481
391.9690, 123.5682
392.4511, 127.2801
392.9332, 129.4247
393.4153, 130.0334
393.8974, 128.6913
394.3795, 125.4472
394.8617, 122.8345
395.3438, 122.7039
395.8259, 123.7856
396.3080, 124.1029
396.7901, 123.4884
397.2722, 121.9531
397.7544, 118.6582
398.2365, 114.4623
398.7186, 113.4013
399.2007, 118.9291
399.6828, 123.6613
400.1649, 124.1455
400.6471, 122.0945
401.1292, 120.4736
401.6113, 120.2525
402.0934, 120.1342
402.5755, 117.9283
403.0576, 112.0118
403.5398, 109.1390
404.0219, 110.9776
404.5040, 113.8309
404.9861, 116.4825
405.4682, 118.5558
405.9503, 119.6975
406.4325, 119.6438
406.9146, 118.5976
407.3967, 117.2360
407.8788, 115.4574
408.3609, 113.5637
408.8430, 110.4342
409.3252, 107.9734
409.8073, 108.2140
410.2894, 111.2956
410.7715, 114.7140
411.2536, 116.3967
411.7357, 116.5857
412.2179, 116.2984
412.7000, 115.2967
413.1821, 114.5450
413.6642, 114.3920
414.1463, 114.9930
414.6284, 117.0064
415.1106, 122.2389
415.5927, 126.8673
416.0748, 128.1945
416.5569, 126.6579
417.0390, 122.8886
417.5211, 116.5261
418.0033, 110.1606
418.4854, 107.8201
418.9675, 110.7628
419.4496, 113.8084
419.9317, 118.3052
420.4138, 121.6008
420.8960, 120.6412
421.3781, 116.6790
421.8602, 113.9485
422.3423, 115.3184
422.8244, 119.7426
423.3065, 122.6848
423.7887, 123.2949
424.2708, 123.6711
424.7529, 123.8941
425.2350, 124.0917
425.7171, 124.5940
426.1992, 125.3277
426.6814, 125.5784
427.1635, 124.0676
427.6456, 121.0570
428.1277, 120.1277
428.6098, 122.6127
429.0919, 124.6150
429.5741, 123.5760
430.0562, 120.9398
430.5383, 118.6885
431.0204, 117.1291
431.5025, 116.3839
431.9846, 116.9954
432.4668, 118.5813
432.9489, 119.7174
433.4310, 119.9594
433.9131, 119.9631
434.3952, 120.7938
434.8773, 122.6485
435.3595, 122.8044
435.8416, 119.2353
436.3237, 115.6164
436.8058, 114.0847
437.2879, 114.3601
437.7701, 115.4975
438.2522, 117.0667
438.7343, 118.8600
439.2164, 120.4853
439.6985, 123.2340
440.1806, 123.3366
440.6628, 118.8685
441.1449, 113.6149
441.6270, 109.3368
442.1091, 106.4732
442.5912, 105.2606
443.0733, 106.2954
443.5555, 108.9762
444.0376, 111.0169
444.5197, 112.3284
445.0018, 113.2448
445.4839, 113.2998
445.9660, 113.3368
446.4482, 114.5492
446.9303, 117.3168
447.4124, 119.3435
447.8945, 119.0489
448.3766, 117.0471
448.8587, 113.8190
449.3409, 109.2042
449.8230, 106.4314
450.3051, 108.7797
450.7872, 115.6036
451.2693, 119.8210
451.7514, 118.7987
452.2336, 118.4407
452.7157, 121.8046
453.1978, 126.5853
453.6799, 129.5565
454.1620, 129.7900
454.6441, 128.4841
455.1263, 127.2351
455.6084, 126.3121
456.0905, 123.9324
456.5726, 115.6980
457.0547, 110.6057
457.5368, 114.1549
458.0190, 122.0308
458.5011, 127.0264
458.9832, 125.7980
459.4653, 122.1725
459.9474, 122.0680
460.4295, 125.5634
460.9117, 126.9791
461.3938, 123.9417
461.8759, 120.2854
462.3580, 119.5179
462.8401, 121.1777
463.3222, 123.0175
463.8044, 125.2087
464.2865, 126.7219
464.7686, 126.1102
465.2507, 123.8798
465.7328, 121.9988
466.2149, 121.3045
466.6971, 121.4732
467.1792, 121.9621
467.6613, 123.3330
468.1434, 123.7738
468.6255, 122.0337
469.1076, 120.4635
469.5898, 120.3968
470.0719, 121.7978
470.5540, 124.5199
471.0361, 128.8754
471.5182, 133.4207
472.0003, 133.3788
472.4825, 126.5448
472.9646, 121.1406
473.4467, 120.7029
473.9288, 120.9863
474.4109, 119.0749
474.8930, 115.0056
475.3752, 111.0486
475.8573, 107.9588
476.3394, 106.0240
476.8215, 106.2896
477.3036, 108.7946
477.7857, 110.8772
478.2679, 110.8980
478.7500, 109.9115
479.2321, 110.8896
479.7142, 115.6560
480.1963, 117.6366
480.6784, 113.0748
481.1606, 106.8771
481.6427, 102.9771
482.1248, 101.8825
482.6069, 103.1250
483.0890, 106.8236
483.5711, 112.0428
484.0533, 113.2952
484.5354, 106.2328
485.0175, 102.4005
485.4996, 105.6797
485.9817, 110.8374
486.4638, 114.0008
486.9460, 114.6644
487.4281, 114.2370
487.9102, 113.3274
488.3923, 112.1966
488.8744, 111.6927
489.3565, 111.8989
489.8387, 112.3379
490.3208, 113.1502
490.8029, 113.8272
491.2850, 113.2466
491.7671, 110.7784
492.2492, 108.8876
492.7314, 108.3269
493.2135, 108.8316
493.6956, 110.7273
494.1777, 113.6979
494.6598, 115.9886
495.1419, 116.1460
495.6241, 114.5496
496.1062, 113.6526
496.5883, 113.5956
497.0704, 114.1202
497.5525, 115.4139
498.0346, 117.0990
498.5168, 119.8220
498.9989, 123.0751
499.4810, 124.1924
499.9631, 119.3203
500.4452, 110.6103
500.9273, 106.5588
501.4095, 107.9637
501.8916, 110.8395
502.3737, 115.2057
502.8558, 118.9746
503.3379, 118.3990
503.8200, 112.0507
504.3022, 107.1595
504.7843, 108.0983
505.2664, 110.9664
505.7485, 110.5698
506.2306, 107.0503
506.7127, 104.9940
507.1949, 107.8663
507.6770, 114.0701
508.1591, 116.5014
508.6412, 110.5812
509.1233, 107.5778
509.6054, 110.1817
510.0876, 114.1509
510.5697, 116.9973
511.0518, 118.2568
511.5339, 118.0470
512.0161, 115.9409
512.4982, 112.7551
512.9803, 110.8350
513.4624, 110.4199
513.9445, 109.9259
514.4266, 108.9949
514.9088, 107.5368
515.3909, 105.1596
515.8730, 101.7145
516.3551, 99.20191
516.8372, 98.20045
517.3193, 98.40084
517.8015, 100.5306
518.2836, 103.8219
518.7657, 105.3346
519.2478, 103.3233
519.7299, 99.41649
520.2120, 97.59068
520.6942, 99.60236
521.1763, 100.3392
521.6584, 97.67619
522.1405, 95.86029
522.6226, 98.77673
523.1047, 104.4301
523.5869, 107.1889
524.0690, 103.1419
524.5511, 96.90195
525.0332, 96.74231
525.5153, 102.6157
525.9974, 107.0133
526.4796, 108.1702
526.9617, 107.2955
527.4438, 104.4392
527.9259, 99.97475
528.4080, 97.92169
528.8901, 101.1776
529.3723, 104.6867
529.8544, 105.4873
530.3365, 104.3778
530.8186, 102.5248
531.3007, 100.3985
531.7828, 99.26633
532.2650, 101.4005
532.7471, 107.8586
533.2292, 110.9772
533.7113, 107.0577
534.1934, 103.9787
534.6755, 105.0292
535.1577, 107.9768
535.6398, 109.7101
536.1219, 109.2892
536.6040, 108.1323
537.0861, 106.8507
537.5682, 105.8684
538.0504, 107.2825
538.5325, 111.7593
539.0146, 115.2544
539.4967, 114.3757
539.9788, 110.1526
540.4609, 107.8040
540.9431, 107.8796
541.4252, 108.8040
541.9073, 111.4799
542.3894, 114.0764
542.8715, 114.4797
543.3536, 112.7901
543.8358, 111.0147
544.3179, 110.9456
544.8000, 111.8923
545.2821, 110.1580
545.7642, 103.5601
546.2463, 100.3092
546.7285, 105.9307
547.2106, 113.1604
547.6927, 116.3132
548.1748, 115.4515
548.6569, 114.3889
549.1390, 114.4280
549.6211, 115.3307
550.1032, 117.9400
550.5853, 121.4751
551.0674, 121.9521
551.5496, 117.2909
552.0317, 111.4870
552.5138, 111.4357
552.9959, 120.1604
553.4780, 124.3565
553.9601, 122.1047
554.4423, 118.0964
554.9244, 111.2584
555.4065, 104.8195
555.8886, 104.3332
556.3707, 111.9829
556.8528, 121.6692
557.3350, 126.6561
557.8171, 127.2095
558.2992, 124.6326
558.7813, 117.6185
559.2634, 112.0492
559.7455, 112.8239
560.2277, 117.9609
560.7098, 120.7823
561.1919, 120.5023
561.6740, 119.2121
562.1561, 116.6559
562.6382, 113.9625
563.1204, 112.7221
563.6025, 112.7601
564.0846, 112.0292
564.5667, 108.6433
565.0488, 104.0067
565.5309, 104.1162
566.0131, 111.5143
566.4952, 117.2303
566.9773, 119.3023
567.4594, 119.5059
567.9415, 117.9949
568.4236, 115.3153
568.9058, 113.5220
569.3879, 114.1778
569.8700, 115.4629
570.3521, 115.5250
570.8342, 114.6556
571.3163, 113.9315
571.7985, 113.7212
572.2806, 113.2900
572.7627, 111.5690
573.2448, 108.2659
573.7269, 106.4123
574.2090, 106.5950
574.6912, 107.4256
575.1733, 108.9964
575.6554, 110.8084
576.1375, 112.4521
576.6196, 113.8002
577.1017, 114.7393
577.5839, 114.6432
578.0660, 114.0627
578.5481, 115.3802
579.0302, 118.9672
579.5123, 121.3524
579.9944, 120.5672
580.4766, 117.9914
580.9587, 116.0554
581.4408, 114.5775
581.9229, 114.1827
582.4050, 115.5148
582.8871, 117.4614
583.3693, 120.8641
583.8514, 124.0926
584.3335, 122.8993
584.8156, 115.2762
585.2977, 106.5078
585.7798, 105.9873
586.2620, 114.6619
586.7441, 120.5644
587.2262, 122.8751
587.7083, 122.8276
588.1904, 119.7786
588.6725, 115.2090
589.1547, 111.4033
589.6368, 108.5701
590.1189, 106.7201
590.6010, 105.8543
591.0831, 105.9738
591.5652, 107.6747
592.0474, 110.6052
592.5295, 112.9756
593.0116, 113.5800
593.4937, 112.8170
593.9758, 111.8423
594.4579, 110.4479
594.9401, 109.3479
595.4222, 108.3180
595.9043, 107.8817
596.3864, 108.0380
596.8685, 109.0228
597.3506, 111.7866
597.8328, 118.2764
598.3149, 123.4972
598.7970, 121.2344
599.2791, 114.3280
599.7612, 110.2939
600.2433, 110.5721
600.7255, 111.9261
601.2076, 111.4726
601.6897, 109.6531
602.1718, 110.1311
602.6539, 117.4339
603.1360, 120.7557
603.6182, 114.7854
604.1003, 108.1621
604.5824, 108.1611
605.0645, 113.9140
605.5466, 119.2604
606.0287, 120.7905
606.5109, 119.8603
606.9930, 117.6065
607.4751, 114.3524
607.9572, 112.8109
608.4393, 113.8143
608.9214, 116.1889
609.4036, 119.6018
609.8857, 124.0446
610.3678, 123.9339
610.8499, 113.7878
611.3320, 106.4799
611.8141, 107.0977
612.2963, 110.6347
612.7784, 112.2324
613.2605, 111.2889
613.7426, 109.7967
614.2247, 108.6464
614.7068, 108.5193
615.1890, 112.0051
