##NAMES=Pyrite
##RRUFFID=R070692
##IDEAL CHEMISTRY=Fe^2+^(S_2_)^2-^
##LOCALITY=Pohla, Schwarzenberg, Erzebirge, Saxony, Germany
##OWNER=RRUFF
##SOURCE=James Shigley
##DESCRIPTION=Yellow-brown metallic prismatic crystals with light blue tarnish, pseudomorph after argentopyrite. Even though they look like good crystals, the sample is extremely fine-grained.
##STATUS=The identification of this mineral has been confirmed by single-crystal X-ray diffraction.
##URL=rruff.info/R070692
137.7988, 1083.672
138.2809, 1101.614
138.7630, 1116.967
139.2451, 1134.208
139.7272, 1158.801
140.2094, 1196.914
140.6915, 1209.299
141.1736, 1183.874
141.6557, 1139.679
142.1378, 1119.065
142.6199, 1133.524
143.1021, 1151.906
143.5842, 1154.301
144.0663, 1141.415
144.5484, 1135.086
145.0305, 1137.066
145.5126, 1146.510
145.9948, 1158.841
146.4769, 1178.235
146.9590, 1197.105
147.4411, 1209.940
147.9232, 1216.834
148.4053, 1218.200
148.8875, 1212.244
149.3696, 1196.947
149.8517, 1186.059
150.3338, 1181.761
150.8159, 1180.941
151.2980, 1180.131
151.7802, 1176.944
152.2623, 1175.703
152.7444, 1178.580
153.2265, 1189.759
153.7086, 1196.103
154.1908, 1190.915
154.6729, 1179.707
155.1550, 1174.821
155.6371, 1192.863
156.1192, 1208.048
156.6013, 1206.720
157.0834, 1169.231
157.5656, 1135.111
158.0477, 1113.479
158.5298, 1103.255
159.0119, 1097.634
159.4940, 1095.104
159.9761, 1095.948
160.4583, 1100.428
160.9404, 1111.389
161.4225, 1123.554
161.9046, 1136.118
162.3867, 1149.286
162.8688, 1158.522
163.3510, 1159.957
163.8331, 1156.536
164.3152, 1152.407
164.7973, 1148.802
165.2794, 1145.405
165.7615, 1141.592
166.2437, 1136.656
166.7258, 1133.280
167.2079, 1133.990
167.6900, 1137.672
168.1721, 1141.556
168.6542, 1144.203
169.1364, 1146.216
169.6185, 1148.063
170.1006, 1149.192
170.5827, 1151.093
171.0648, 1156.950
171.5469, 1165.829
172.0291, 1171.823
172.5112, 1167.808
172.9933, 1158.876
173.4754, 1152.922
173.9575, 1155.136
174.4396, 1160.134
174.9218, 1162.114
175.4039, 1161.074
175.8860, 1157.965
176.3681, 1150.029
176.8502, 1140.181
177.3323, 1135.895
177.8144, 1148.877
178.2966, 1167.624
178.7787, 1169.317
179.2608, 1150.490
179.7429, 1126.632
180.2250, 1114.502
180.7071, 1113.025
181.1893, 1117.479
181.6714, 1130.857
182.1535, 1148.274
182.6356, 1155.984
183.1177, 1149.945
183.5998, 1137.725
184.0820, 1131.235
184.5641, 1130.215
185.0462, 1130.796
185.5283, 1129.552
186.0104, 1127.251
186.4925, 1128.021
186.9747, 1134.798
187.4568, 1143.834
187.9389, 1144.080
188.4210, 1134.888
188.9031, 1124.609
189.3852, 1123.312
189.8674, 1129.964
190.3495, 1132.951
190.8316, 1125.571
191.3137, 1111.358
191.7958, 1107.683
192.2779, 1116.264
192.7601, 1129.521
193.2422, 1138.828
193.7243, 1143.980
194.2064, 1147.201
194.6885, 1149.589
195.1706, 1151.088
195.6528, 1149.905
196.1349, 1146.072
196.6170, 1139.385
197.0991, 1127.350
197.5812, 1108.909
198.0633, 1093.484
198.5455, 1087.079
199.0276, 1090.171
199.5097, 1094.156
199.9918, 1099.122
200.4739, 1104.093
200.9560, 1106.220
201.4381, 1105.048
201.9203, 1102.754
202.4024, 1101.178
202.8845, 1100.771
203.3666, 1097.332
203.8487, 1087.254
204.3308, 1073.791
204.8130, 1076.837
205.2951, 1103.427
205.7772, 1130.432
206.2593, 1135.430
206.7414, 1112.411
207.2235, 1093.308
207.7057, 1085.663
208.1878, 1088.945
208.6699, 1089.656
209.1520, 1086.733
209.6341, 1082.820
210.1162, 1080.771
210.5984, 1080.880
211.0805, 1081.870
211.5626, 1083.115
212.0447, 1084.391
212.5268, 1088.351
213.0089, 1096.402
213.4911, 1105.802
213.9732, 1111.737
214.4553, 1112.726
214.9374, 1113.644
215.4195, 1116.683
215.9016, 1123.009
216.3838, 1127.094
216.8659, 1129.200
217.3480, 1128.895
217.8301, 1124.343
218.3122, 1112.283
218.7943, 1101.884
219.2765, 1097.611
219.7586, 1101.552
220.2407, 1106.336
220.7228, 1112.314
221.2049, 1118.929
221.6870, 1124.314
222.1691, 1128.565
222.6513, 1131.477
223.1334, 1132.824
223.6155, 1132.312
224.0976, 1130.966
224.5797, 1128.741
225.0618, 1125.731
225.5440, 1121.880
226.0261, 1114.839
226.5082, 1109.956
226.9903, 1112.502
227.4724, 1129.054
227.9545, 1139.507
228.4367, 1137.902
228.9188, 1124.351
229.4009, 1120.646
229.8830, 1133.198
230.3651, 1149.094
230.8472, 1154.582
231.3294, 1141.614
231.8115, 1133.304
232.2936, 1136.596
232.7757, 1153.375
233.2578, 1162.809
233.7399, 1162.933
234.2221, 1157.342
234.7042, 1149.377
235.1863, 1134.551
235.6684, 1125.178
236.1505, 1126.278
236.6326, 1141.267
237.1148, 1151.393
237.5969, 1155.298
238.0790, 1155.155
238.5611, 1154.299
239.0432, 1152.510
239.5253, 1150.281
240.0075, 1147.297
240.4896, 1142.213
240.9717, 1140.343
241.4538, 1142.491
241.9359, 1147.496
242.4180, 1153.729
242.9002, 1164.679
243.3823, 1171.602
243.8644, 1169.988
244.3465, 1153.856
244.8286, 1142.089
245.3107, 1133.575
245.7928, 1129.645
246.2750, 1135.693
246.7571, 1160.692
247.2392, 1182.876
247.7213, 1190.852
248.2034, 1177.684
248.6855, 1165.567
249.1677, 1154.780
249.6498, 1145.651
250.1319, 1139.911
250.6140, 1138.758
251.0961, 1139.253
251.5782, 1139.152
252.0604, 1135.837
252.5425, 1138.431
253.0246, 1151.423
253.5067, 1171.765
253.9888, 1181.862
254.4709, 1177.716
254.9531, 1168.754
255.4352, 1160.352
255.9173, 1150.314
256.3994, 1146.562
256.8815, 1153.352
257.3636, 1168.915
257.8458, 1173.067
258.3279, 1158.446
258.8100, 1142.880
259.2921, 1142.952
259.7742, 1167.307
260.2563, 1184.740
260.7385, 1188.195
261.2206, 1178.493
261.7027, 1173.549
262.1848, 1175.532
262.6669, 1179.100
263.1490, 1178.343
263.6312, 1170.254
264.1133, 1166.744
264.5954, 1171.501
265.0775, 1184.266
265.5596, 1195.833
266.0417, 1207.649
266.5239, 1215.976
267.0060, 1214.965
267.4881, 1200.729
267.9702, 1190.199
268.4523, 1188.980
268.9344, 1197.068
269.4166, 1200.443
269.8987, 1197.434
270.3808, 1192.428
270.8629, 1191.217
271.3450, 1195.022
271.8271, 1197.261
272.3093, 1194.963
272.7914, 1188.104
273.2735, 1185.221
273.7556, 1187.469
274.2377, 1191.588
274.7198, 1194.537
275.2020, 1197.108
275.6841, 1193.842
276.1662, 1177.951
276.6483, 1149.771
277.1304, 1142.286
277.6125, 1161.910
278.0946, 1189.103
278.5768, 1193.900
279.0589, 1173.907
279.5410, 1154.909
280.0231, 1146.083
280.5052, 1147.140
280.9873, 1154.066
281.4695, 1168.809
281.9516, 1184.879
282.4337, 1191.812
282.9158, 1189.285
283.3979, 1185.687
283.8800, 1184.899
284.3622, 1186.544
284.8443, 1186.037
285.3264, 1182.898
285.8085, 1178.929
286.2906, 1176.149
286.7727, 1174.605
287.2549, 1175.076
287.7370, 1179.544
288.2191, 1186.939
288.7012, 1191.015
289.1833, 1191.096
289.6654, 1189.485
290.1476, 1188.940
290.6297, 1189.443
291.1118, 1190.701
291.5939, 1193.345
292.0760, 1196.718
292.5581, 1198.122
293.0403, 1196.922
293.5224, 1195.659
294.0045, 1197.979
294.4866, 1203.431
294.9687, 1209.252
295.4508, 1215.525
295.9330, 1221.030
296.4151, 1221.397
296.8972, 1215.085
297.3793, 1209.118
297.8614, 1214.043
298.3435, 1227.150
298.8257, 1238.617
299.3078, 1244.204
299.7899, 1244.520
300.2720, 1238.232
300.7541, 1223.498
301.2362, 1210.301
301.7184, 1210.154
302.2005, 1219.959
302.6826, 1230.960
303.1647, 1238.132
303.6468, 1244.109
304.1289, 1253.930
304.6111, 1269.780
305.0932, 1281.206
305.5753, 1275.330
306.0574, 1257.839
306.5395, 1242.451
307.0216, 1234.034
307.5038, 1231.594
307.9859, 1235.730
308.4680, 1247.788
308.9501, 1259.819
309.4322, 1264.792
309.9143, 1265.889
310.3965, 1269.002
310.8786, 1276.641
311.3607, 1287.433
311.8428, 1303.186
312.3249, 1326.508
312.8070, 1342.027
313.2892, 1334.370
313.7713, 1314.451
314.2534, 1300.288
314.7355, 1304.853
315.2176, 1312.934
315.6997, 1314.444
316.1819, 1305.587
316.6640, 1303.819
317.1461, 1325.710
317.6282, 1356.726
318.1103, 1376.319
318.5924, 1366.584
319.0746, 1353.709
319.5567, 1347.143
320.0388, 1347.696
320.5209, 1354.736
321.0030, 1371.346
321.4851, 1393.434
321.9673, 1415.959
322.4494, 1440.355
322.9315, 1462.578
323.4136, 1482.310
323.8957, 1500.388
324.3778, 1511.898
324.8599, 1510.048
325.3420, 1503.589
325.8242, 1502.538
326.3063, 1506.348
326.7884, 1516.842
327.2705, 1537.871
327.7526, 1572.691
328.2347, 1597.919
328.7169, 1604.274
329.1990, 1605.916
329.6811, 1617.841
330.1632, 1649.765
330.6453, 1678.953
331.1274, 1700.866
331.6096, 1714.831
332.0917, 1730.121
332.5738, 1750.827
333.0559, 1768.807
333.5380, 1773.625
334.0201, 1754.475
334.5023, 1745.377
334.9844, 1754.724
335.4665, 1781.854
335.9486, 1810.807
336.4307, 1846.252
336.9128, 1876.118
337.3950, 1887.042
337.8771, 1874.236
338.3592, 1862.599
338.8413, 1856.416
339.3234, 1855.406
339.8055, 1860.518
340.2877, 1874.817
340.7698, 1885.081
341.2519, 1876.188
341.7340, 1847.114
342.2161, 1821.972
342.6982, 1805.125
343.1804, 1795.367
343.6625, 1792.004
344.1446, 1795.975
344.6267, 1796.373
345.1088, 1781.963
345.5909, 1755.112
346.0731, 1729.470
346.5552, 1706.934
347.0373, 1688.103
347.5194, 1673.094
348.0015, 1662.037
348.4836, 1655.506
348.9658, 1654.136
349.4479, 1657.578
349.9300, 1666.187
350.4121, 1682.410
350.8942, 1698.690
351.3763, 1704.723
351.8585, 1702.003
352.3406, 1697.094
352.8227, 1686.775
353.3048, 1679.076
353.7869, 1688.460
354.2690, 1723.650
354.7512, 1757.414
355.2333, 1759.012
355.7154, 1740.720
356.1975, 1732.843
356.6796, 1759.693
357.1617, 1798.352
357.6439, 1830.942
358.1260, 1854.832
358.6081, 1874.192
359.0902, 1888.048
359.5723, 1899.476
360.0544, 1913.633
360.5366, 1934.313
361.0187, 1956.753
361.5008, 1978.798
361.9829, 2000.321
362.4650, 2021.447
362.9471, 2040.857
363.4293, 2060.487
363.9114, 2082.717
364.3935, 2110.868
364.8756, 2139.082
365.3577, 2167.168
365.8398, 2195.656
366.3220, 2218.144
366.8041, 2228.573
367.2862, 2234.994
367.7683, 2244.864
368.2504, 2256.963
368.7325, 2274.055
369.2146, 2298.445
369.6967, 2330.210
370.1789, 2359.625
370.6610, 2387.585
371.1431, 2411.525
371.6252, 2428.727
372.1073, 2436.045
372.5894, 2443.426
373.0716, 2454.169
373.5537, 2466.492
374.0358, 2467.907
374.5179, 2454.818
375.0000, 2438.769
375.4821, 2429.633
375.9643, 2430.017
376.4464, 2420.488
376.9285, 2396.581
377.4106, 2363.613
377.8927, 2339.578
378.3748, 2326.825
378.8570, 2304.630
379.3391, 2252.230
379.8212, 2174.138
380.3033, 2111.532
380.7854, 2071.792
381.2675, 2040.122
381.7497, 1992.189
382.2318, 1929.174
382.7139, 1868.881
383.1960, 1819.636
383.6781, 1779.104
384.1602, 1745.531
384.6424, 1719.691
385.1245, 1693.455
385.6066, 1652.121
386.0887, 1602.593
386.5708, 1564.336
387.0529, 1557.832
387.5351, 1559.815
388.0172, 1544.199
388.4993, 1509.923
388.9814, 1474.788
389.4635, 1451.132
389.9456, 1433.438
390.4278, 1414.509
390.9099, 1389.499
391.3920, 1364.314
391.8741, 1339.720
392.3562, 1316.377
392.8383, 1300.820
393.3205, 1308.898
393.8026, 1318.677
394.2847, 1313.117
394.7668, 1262.449
395.2489, 1224.521
395.7310, 1218.498
396.2132, 1237.341
396.6953, 1250.921
397.1774, 1253.013
397.6595, 1250.504
398.1416, 1246.532
398.6237, 1241.963
399.1059, 1234.752
399.5880, 1221.668
400.0701, 1206.498
400.5522, 1197.627
401.0343, 1197.109
401.5164, 1200.013
401.9986, 1206.422
402.4807, 1219.118
402.9628, 1221.680
403.4449, 1210.311
403.9270, 1192.977
404.4091, 1180.781
404.8913, 1174.517
405.3734, 1170.376
405.8555, 1167.166
406.3376, 1164.994
406.8197, 1165.510
407.3018, 1169.098
407.7840, 1173.707
408.2661, 1178.144
408.7482, 1182.244
409.2303, 1183.595
409.7124, 1179.860
410.1945, 1174.358
410.6767, 1176.142
411.1588, 1184.738
411.6409, 1191.640
412.1230, 1189.591
412.6051, 1181.314
413.0872, 1171.313
413.5693, 1158.236
414.0515, 1148.114
414.5336, 1148.899
415.0157, 1157.985
415.4978, 1167.126
415.9799, 1173.043
416.4620, 1176.199
416.9442, 1176.318
417.4263, 1172.417
417.9084, 1169.116
418.3905, 1168.404
418.8726, 1169.979
419.3547, 1173.432
419.8369, 1181.508
420.3190, 1188.892
420.8011, 1194.161
421.2832, 1197.356
421.7653, 1196.546
422.2474, 1186.088
422.7296, 1174.087
423.2117, 1167.658
423.6938, 1176.099
424.1759, 1180.390
424.6580, 1175.766
425.1401, 1163.499
425.6223, 1157.057
426.1044, 1162.056
426.5865, 1166.484
427.0686, 1161.961
427.5507, 1142.768
428.0328, 1130.580
428.5150, 1127.946
428.9971, 1132.455
429.4792, 1140.009
429.9613, 1152.800
430.4434, 1160.256
430.9255, 1154.050
431.4077, 1134.605
431.8898, 1123.494
432.3719, 1122.988
432.8540, 1124.806
433.3361, 1115.863
433.8182, 1097.639
434.3004, 1082.659
434.7825, 1075.723
435.2646, 1075.183
435.7467, 1080.065
436.2288, 1090.354
436.7109, 1098.875
437.1931, 1100.288
437.6752, 1095.764
438.1573, 1086.254
438.6394, 1064.603
439.1215, 1047.504
439.6036, 1055.278
440.0858, 1081.282
440.5679, 1099.517
441.0500, 1090.624
441.5321, 1072.663
442.0142, 1058.848
442.4963, 1052.981
442.9785, 1047.689
443.4606, 1038.982
443.9427, 1029.588
444.4248, 1024.237
444.9069, 1029.524
445.3890, 1033.645
445.8712, 1031.838
446.3533, 1021.942
446.8354, 1016.052
447.3175, 1016.173
447.7996, 1018.925
448.2817, 1021.535
448.7639, 1025.117
449.2460, 1025.996
449.7281, 1021.013
450.2102, 1012.413
450.6923, 1015.490
451.1744, 1034.380
451.6566, 1053.660
452.1387, 1062.984
452.6208, 1062.232
453.1029, 1056.930
453.5850, 1046.270
454.0671, 1033.671
454.5493, 1025.008
455.0314, 1020.045
455.5135, 1016.730
455.9956, 1014.703
456.4777, 1013.418
456.9598, 1011.182
457.4420, 1007.779
457.9240, 1005.222
458.4062, 1006.518
458.8883, 1009.832
459.3704, 1011.763
459.8525, 1008.498
460.3346, 1005.538
460.8167, 1008.163
461.2989, 1015.518
461.7810, 1021.746
462.2631, 1022.506
462.7452, 1022.101
463.2273, 1023.983
463.7094, 1031.377
464.1916, 1036.861
464.6737, 1039.519
465.1558, 1038.992
465.6379, 1034.490
466.1200, 1019.232
466.6021, 1006.359
467.0843, 1000.044
467.5664, 1001.517
468.0485, 1003.906
468.5306, 1008.383
469.0127, 1012.671
469.4948, 1013.475
469.9770, 1008.177
470.4591, 1007.546
470.9412, 1015.935
471.4233, 1030.421
471.9054, 1036.008
472.3875, 1031.264
472.8697, 1025.290
473.3518, 1025.193
473.8339, 1030.061
474.3160, 1033.705
474.7981, 1035.848
475.2802, 1035.594
475.7624, 1029.076
476.2445, 1018.234
476.7266, 1010.769
477.2087, 1013.405
477.6908, 1020.148
478.1729, 1023.288
478.6551, 1022.485
479.1372, 1022.159
479.6193, 1027.787
480.1014, 1034.666
480.5835, 1037.287
481.0656, 1027.786
481.5478, 1019.976
482.0299, 1021.010
482.5120, 1028.708
482.9941, 1034.061
483.4762, 1032.512
483.9583, 1029.899
484.4405, 1029.249
484.9226, 1033.003
485.4047, 1034.058
485.8868, 1030.464
486.3689, 1025.116
486.8510, 1022.167
487.3332, 1022.740
487.8153, 1023.654
488.2974, 1024.858
488.7795, 1026.157
489.2616, 1023.403
489.7437, 1015.549
490.2259, 1007.089
490.7080, 1001.220
491.1901, 997.9181
491.6722, 998.3956
492.1543, 1004.096
492.6364, 1011.342
493.1186, 1015.360
493.6007, 1015.891
494.0828, 1011.706
494.5649, 993.9774
495.0470, 974.3279
495.5291, 972.2906
496.0113, 990.4911
496.4934, 1008.517
496.9755, 1009.982
497.4576, 1002.964
497.9397, 997.9461
498.4218, 1001.480
498.9040, 1004.934
499.3861, 1003.919
499.8682, 999.3955
500.3503, 996.2741
500.8324, 995.6492
501.3145, 996.9061
501.7967, 1000.002
502.2788, 1006.670
502.7609, 1011.650
503.2430, 1012.821
503.7251, 1013.422
504.2072, 1020.043
504.6893, 1039.857
505.1714, 1048.573
505.6536, 1034.848
506.1357, 1002.180
506.6178, 986.5975
507.0999, 990.2863
507.5820, 1001.932
508.0641, 1016.576
508.5463, 1032.948
509.0284, 1039.927
509.5105, 1033.891
509.9926, 1022.224
510.4747, 1013.379
510.9568, 1007.514
511.4390, 1005.243
511.9211, 1008.571
512.4032, 1014.767
512.8853, 1022.361
513.3674, 1031.407
513.8495, 1036.776
514.3317, 1033.400
514.8138, 1025.721
515.2959, 1018.165
515.7780, 1011.050
516.2601, 1005.200
516.7422, 1001.515
517.2244, 999.4440
517.7065, 996.8343
518.1886, 991.8946
518.6707, 987.8298
519.1528, 985.6523
519.6349, 985.4518
520.1171, 987.2191
520.5992, 992.6837
521.0813, 998.1951
521.5634, 998.7144
522.0455, 992.8805
522.5276, 989.4583
523.0098, 990.9083
523.4919, 995.7889
523.9740, 999.4168
524.4561, 1001.786
524.9382, 1004.552
525.4203, 1010.527
525.9025, 1017.606
526.3846, 1020.434
526.8667, 1018.037
527.3488, 1013.646
527.8309, 1010.323
528.3130, 1007.159
528.7952, 1002.499
529.2773, 989.0447
529.7594, 979.5907
530.2415, 984.7011
530.7236, 1002.448
531.2057, 1017.305
531.6879, 1022.117
532.1700, 1023.722
532.6521, 1026.183
533.1342, 1032.594
533.6163, 1035.089
534.0984, 1032.567
534.5806, 1026.515
535.0627, 1018.270
535.5448, 1004.821
536.0269, 996.0105
536.5090, 996.4077
536.9911, 1004.385
537.4733, 1005.483
537.9554, 998.2433
538.4375, 990.6922
538.9196, 989.1260
539.4017, 992.8541
539.8839, 997.8999
540.3660, 1004.416
540.8481, 1010.392
541.3302, 1013.621
541.8123, 1014.343
542.2944, 1013.233
542.7766, 1005.496
543.2587, 999.5865
543.7408, 1007.312
544.2229, 1027.465
544.7050, 1040.040
545.1871, 1028.111
545.6693, 1009.282
546.1514, 996.4652
546.6335, 993.8625
547.1156, 994.2615
547.5977, 999.8993
548.0798, 1007.377
548.5620, 1009.899
549.0441, 1003.292
549.5262, 998.0334
550.0083, 995.7434
550.4904, 996.5192
550.9725, 1006.191
551.4547, 1028.723
551.9368, 1048.956
552.4189, 1053.743
552.9010, 1043.961
553.3831, 1029.458
553.8652, 1009.091
554.3474, 990.3725
554.8295, 986.5969
555.3116, 994.4783
555.7937, 1002.735
556.2758, 1007.810
556.7579, 1009.499
557.2401, 1005.154
557.7222, 995.3682
558.2043, 988.7848
558.6864, 991.5796
559.1685, 998.4533
559.6506, 1005.583
560.1328, 1013.633
560.6149, 1019.282
561.0970, 1021.856
561.5791, 1021.632
562.0612, 1018.775
562.5433, 1007.539
563.0255, 1002.441
563.5076, 1010.601
563.9897, 1030.196
564.4718, 1035.063
564.9539, 1020.283
565.4360, 1004.594
565.9182, 1003.452
566.4003, 1015.722
566.8824, 1022.981
567.3645, 1022.862
567.8466, 1019.459
568.3287, 1018.245
568.8109, 1018.374
569.2930, 1017.144
569.7750, 1008.264
570.2571, 1001.157
570.7393, 1008.596
571.2214, 1028.184
571.7035, 1043.630
572.1856, 1045.808
572.6677, 1042.047
573.1498, 1037.061
573.6320, 1031.525
574.1141, 1024.900
574.5962, 1011.363
575.0783, 998.9811
575.5604, 998.2579
576.0425, 1016.941
576.5247, 1033.984
577.0068, 1047.418
577.4889, 1056.473
577.9710, 1054.820
578.4531, 1040.119
578.9352, 1025.369
579.4174, 1017.793
579.8995, 1016.958
580.3816, 1021.441
580.8637, 1031.967
581.3458, 1042.211
581.8279, 1047.155
582.3101, 1046.591
582.7922, 1039.211
583.2743, 1017.716
583.7564, 998.4062
584.2385, 994.8889
584.7206, 1003.415
585.2028, 1012.295
585.6849, 1018.519
586.1670, 1022.731
586.6491, 1024.516
587.1312, 1023.041
587.6133, 1023.351
588.0955, 1025.114
588.5776, 1029.116
589.0597, 1037.515
589.5418, 1055.414
590.0239, 1062.036
590.5060, 1051.599
590.9882, 1032.887
591.4703, 1024.960
591.9524, 1027.945
592.4345, 1033.040
592.9166, 1037.773
593.3987, 1041.552
593.8809, 1043.746
594.3630, 1044.270
594.8451, 1041.188
595.3272, 1024.986
595.8093, 1007.849
596.2914, 1006.469
596.7736, 1029.859
597.2557, 1052.035
597.7378, 1059.642
598.2199, 1058.689
598.7020, 1057.961
599.1841, 1063.871
599.6663, 1065.034
600.1484, 1057.568
600.6305, 1042.789
601.1126, 1027.978
601.5947, 1009.295
602.0768, 997.7755
602.5590, 1003.140
603.0411, 1027.300
603.5232, 1038.184
604.0053, 1033.487
604.4874, 1023.875
604.9695, 1021.033
605.4517, 1023.494
605.9338, 1025.278
606.4159, 1023.849
606.8980, 1022.744
607.3801, 1026.657
607.8622, 1034.172
608.3444, 1041.239
608.8265, 1049.546
609.3086, 1053.921
609.7907, 1048.292
610.2728, 1031.504
610.7549, 1021.721
611.2371, 1031.387
611.7192, 1042.608
612.2013, 1043.507
612.6834, 1024.302
613.1655, 1015.490
613.6476, 1022.292
614.1298, 1034.742
614.6119, 1034.272
615.0940, 1019.177
615.5761, 1010.125
616.0582, 1015.536
616.5403, 1029.324
617.0225, 1037.801
617.5046, 1041.247
617.9867, 1042.886
618.4688, 1044.821
618.9509, 1046.104
619.4330, 1045.601
619.9152, 1043.138
620.3973, 1039.425
620.8794, 1032.675
621.3615, 1025.903
621.8436, 1021.994
622.3257, 1021.761
622.8079, 1024.298
623.2900, 1030.978
623.7721, 1040.084
624.2542, 1048.235
624.7363, 1055.552
625.2184, 1061.794
625.7006, 1067.900
626.1827, 1073.173
626.6648, 1070.739
627.1469, 1059.938
627.6290, 1047.722
628.1111, 1036.652
628.5933, 1028.357
629.0754, 1029.710
629.5575, 1043.219
630.0396, 1055.428
630.5217, 1051.966
631.0038, 1040.673
631.4860, 1032.740
631.9681, 1037.700
632.4502, 1040.597
