##NAMES=Pyrite
##RRUFFID=R080030
##IDEAL CHEMISTRY=Fe^2+^(S_2_)^2-^
##LOCALITY=Schaft 209, Aue, Niederschlema, Erzgebirge, Saxony, Germany
##OWNER=RRUFF
##SOURCE=William W. Pinch
##DESCRIPTION=Dark-bronze and blue, tarnished pseudohexagonal prisms; bright grey when a fresh surface is exposed. Associated with wire silver. These crystals were labeled argentopyrite, but are pseudomorphs.
##STATUS=The identification of this mineral has been confirmed by X-ray diffraction and chemical analysis
##URL=rruff.info/R080030
##MEASURED CHEMISTRY=Fe_1.04_Ag_0.01_As_0.08_S_2_
158.8006, 34.81247
159.2827, 35.41468
159.7648, 35.91580
160.2469, 36.19547
160.7290, 36.26033
161.2112, 36.16902
161.6933, 35.66031
162.1754, 35.13396
162.6575, 34.92238
163.1396, 35.67091
163.6217, 36.26599
164.1039, 36.12664
164.5860, 35.26153
165.0681, 34.43073
165.5502, 33.95649
166.0323, 33.71155
166.5145, 33.54354
166.9966, 33.22076
167.4787, 33.08801
167.9608, 33.48819
168.4429, 34.46473
168.9250, 35.35595
169.4072, 35.68901
169.8893, 35.68596
170.3714, 35.69751
170.8535, 35.99068
171.3356, 36.29273
171.8177, 36.39322
172.2999, 36.27532
172.7820, 35.97428
173.2641, 35.37878
173.7462, 34.61324
174.2283, 33.94207
174.7104, 33.44458
175.1926, 33.12304
175.6747, 33.00779
176.1568, 33.11966
176.6389, 33.34602
177.1210, 33.60437
177.6031, 33.89360
178.0853, 34.21215
178.5674, 34.70432
179.0495, 35.19177
179.5316, 35.36133
180.0137, 35.11108
180.4958, 34.71447
180.9780, 34.43424
181.4601, 34.26878
181.9422, 34.21434
182.4243, 34.44429
182.9064, 34.77515
183.3885, 34.71466
183.8707, 34.03231
184.3528, 33.25096
184.8349, 33.20907
185.3170, 33.85065
185.7991, 34.61764
186.2812, 35.24702
186.7633, 35.70551
187.2455, 35.83431
187.7276, 35.51556
188.2097, 34.98610
188.6918, 34.67115
189.1739, 34.57198
189.6560, 34.55017
190.1382, 34.53299
190.6203, 34.51533
191.1024, 34.45620
191.5845, 34.33089
192.0666, 34.17757
192.5487, 34.10118
193.0309, 34.11004
193.5130, 34.11227
193.9951, 34.01012
194.4772, 33.81107
194.9593, 33.64404
195.4414, 33.49872
195.9236, 33.41677
196.4057, 33.59600
196.8878, 34.07536
197.3699, 34.58581
197.8520, 34.91188
198.3341, 35.05468
198.8163, 35.05090
199.2984, 34.82774
199.7805, 34.47322
200.2626, 34.44952
200.7447, 34.83152
201.2268, 35.25755
201.7090, 35.28873
202.1911, 34.85802
202.6732, 34.71385
203.1553, 35.21169
203.6374, 36.17490
204.1195, 36.29390
204.6017, 35.33056
205.0838, 34.16133
205.5659, 33.72823
206.0480, 34.18294
206.5301, 34.49865
207.0122, 34.35966
207.4944, 33.82928
207.9765, 33.64536
208.4586, 33.92200
208.9407, 34.31101
209.4228, 34.39662
209.9049, 34.05651
210.3871, 33.90960
210.8692, 34.19120
211.3513, 34.87171
211.8334, 35.25740
212.3155, 35.27736
212.7976, 35.12034
213.2798, 34.93984
213.7619, 34.66453
214.2440, 34.60369
214.7261, 34.94991
215.2082, 35.70819
215.6903, 36.00677
216.1725, 35.70012
216.6546, 35.13488
217.1367, 34.62831
217.6188, 34.07429
218.1009, 33.87508
218.5830, 34.28389
219.0652, 35.36404
219.5473, 35.82652
220.0294, 35.37599
220.5115, 34.67732
220.9936, 34.53664
221.4757, 35.21569
221.9579, 35.83988
222.4400, 36.17143
222.9221, 36.17752
223.4042, 36.34765
223.8863, 36.81415
224.3684, 37.30414
224.8506, 37.49413
225.3327, 37.26624
225.8148, 36.98546
226.2969, 36.73222
226.7790, 36.50703
227.2611, 36.26243
227.7433, 35.93681
228.2254, 35.64928
228.7075, 35.55520
229.1896, 35.77129
229.6717, 35.94520
230.1538, 35.96260
230.6360, 35.79454
231.1181, 35.80240
231.6002, 36.09734
232.0823, 36.46247
232.5644, 36.65427
233.0465, 36.62232
233.5287, 36.50676
234.0108, 36.28075
234.4929, 35.91245
234.9750, 35.82235
235.4571, 36.25642
235.9392, 36.73435
236.4214, 36.67141
236.9035, 35.60434
237.3856, 34.86594
237.8677, 34.85417
238.3498, 35.64507
238.8319, 36.09514
239.3141, 35.99792
239.7962, 35.75279
240.2783, 35.79462
240.7604, 36.33553
241.2425, 36.76225
241.7246, 36.92936
242.2068, 36.82348
242.6889, 36.71732
243.1710, 36.55284
243.6531, 36.44355
244.1352, 36.52034
244.6173, 36.90933
245.0995, 37.24575
245.5816, 37.47896
246.0637, 37.60946
246.5458, 37.57787
247.0279, 37.26223
247.5100, 36.90934
247.9922, 36.77100
248.4743, 36.98552
248.9564, 37.12992
249.4385, 37.08725
249.9206, 36.86473
250.4027, 36.81466
250.8848, 37.02810
251.3670, 37.31115
251.8491, 37.50432
252.3312, 37.61825
252.8133, 37.60986
253.2954, 37.38530
253.7775, 36.97339
254.2597, 36.88903
254.7418, 37.31871
255.2239, 37.84026
255.7060, 38.08880
256.1881, 37.88363
256.6703, 37.85326
257.1524, 38.17046
257.6345, 38.77273
258.1166, 39.11821
258.5987, 39.15174
259.0808, 39.00677
259.5630, 38.72124
260.0451, 38.16384
260.5272, 37.84871
261.0093, 37.89805
261.4914, 38.24737
261.9735, 38.54942
262.4557, 38.78287
262.9378, 39.00230
263.4199, 39.28288
263.9020, 39.72367
264.3841, 39.87978
264.8662, 39.58764
265.3484, 39.00604
265.8305, 38.73708
266.3126, 38.84998
266.7947, 39.13286
267.2768, 39.53307
267.7589, 40.17022
268.2411, 40.43766
268.7232, 40.13393
269.2053, 39.52082
269.6874, 39.39571
270.1695, 39.89652
270.6516, 40.51676
271.1338, 41.00558
271.6159, 41.36060
272.0980, 41.62684
272.5801, 41.82339
273.0622, 41.91898
273.5443, 41.75373
274.0265, 41.21337
274.5086, 40.82841
274.9907, 40.97528
275.4728, 41.75108
275.9549, 42.17565
276.4370, 42.11254
276.9192, 41.85212
277.4013, 41.95324
277.8834, 42.47607
278.3655, 43.03036
278.8476, 43.47709
279.3297, 43.82180
279.8118, 44.02731
280.2939, 44.08252
280.7761, 44.02235
281.2582, 43.76674
281.7403, 43.26900
282.2224, 43.11776
282.7045, 43.68849
283.1866, 44.90472
283.6688, 45.89033
284.1509, 46.65808
284.6330, 47.15783
285.1151, 47.17363
285.5972, 46.70666
286.0793, 46.46330
286.5615, 46.75943
287.0436, 47.47980
287.5257, 48.08395
288.0078, 48.55766
288.4899, 49.00304
288.9720, 49.53842
289.4542, 50.15563
289.9363, 50.77489
290.4184, 51.40825
290.9005, 52.01201
291.3826, 52.39236
291.8647, 52.53076
292.3469, 52.77419
292.8290, 53.51516
293.3111, 54.65472
293.7932, 55.78804
294.2753, 56.87200
294.7574, 57.84753
295.2396, 58.53560
295.7217, 58.95094
296.2038, 59.29605
296.6859, 59.57681
297.1680, 59.89402
297.6501, 60.55358
298.1323, 61.66980
298.6144, 63.05071
299.0965, 64.56966
299.5786, 66.20021
300.0607, 67.66521
300.5428, 68.63492
301.0250, 69.37047
301.5071, 70.42376
301.9892, 71.95647
302.4713, 73.57112
302.9534, 74.80627
303.4355, 75.74854
303.9177, 76.73479
304.3998, 77.93302
304.8819, 79.27329
305.3640, 80.68398
305.8461, 82.19736
306.3282, 83.62476
306.8104, 84.83108
307.2925, 85.83871
307.7746, 86.66660
308.2567, 87.12305
308.7388, 87.52550
309.2209, 88.23227
309.7031, 89.27271
310.1852, 90.27972
310.6673, 90.85586
311.1494, 91.27963
311.6315, 91.94751
312.1136, 93.29455
312.5958, 94.72861
313.0779, 95.83712
313.5600, 96.63418
314.0421, 97.43369
314.5242, 98.40042
315.0063, 99.44418
315.4885, 100.4657
315.9706, 101.2363
316.4527, 102.1948
316.9348, 103.7129
317.4169, 105.6606
317.8990, 107.4568
318.3812, 108.7779
318.8633, 109.9225
319.3454, 111.1114
319.8275, 112.6542
320.3096, 113.8451
320.7917, 114.5996
321.2739, 114.8664
321.7560, 114.5110
322.2381, 113.2777
322.7202, 111.5905
323.2023, 109.5773
323.6844, 107.0641
324.1666, 104.6798
324.6487, 102.8372
325.1308, 101.1462
325.6129, 99.01047
326.0950, 95.72090
326.5771, 92.55683
327.0593, 89.88181
327.5414, 87.76551
328.0235, 85.89546
328.5056, 84.11330
328.9877, 82.64262
329.4698, 81.73508
329.9520, 81.65224
330.4341, 81.81863
330.9162, 82.24102
331.3983, 82.93274
331.8804, 83.46178
332.3625, 83.68698
332.8447, 83.86803
333.3268, 84.18703
333.8089, 84.62127
334.2910, 85.24800
334.7731, 86.13787
335.2552, 87.24629
335.7374, 88.27470
336.2195, 89.10064
336.7016, 90.05623
337.1837, 91.43096
337.6658, 93.45322
338.1479, 95.06828
338.6301, 96.10886
339.1122, 96.78324
339.5943, 97.53082
340.0764, 98.34187
340.5585, 99.24069
341.0406, 100.4092
341.5228, 101.9353
342.0049, 102.5889
342.4870, 102.2951
342.9691, 101.2999
343.4512, 99.90739
343.9333, 98.09858
344.4155, 95.95472
344.8976, 93.22438
345.3797, 90.15154
345.8618, 88.20351
346.3439, 87.44744
346.8260, 87.25612
347.3082, 86.98766
347.7903, 86.70338
348.2724, 86.82044
348.7545, 87.50713
349.2366, 88.59174
349.7188, 89.79098
350.2009, 91.11069
350.6830, 92.47775
351.1651, 93.83720
351.6472, 95.21268
352.1293, 96.60587
352.6115, 97.96516
353.0936, 99.43556
353.5757, 101.4096
354.0578, 103.7031
354.5399, 105.7053
355.0220, 106.7066
355.5042, 107.3916
355.9863, 108.6273
356.4684, 110.5307
356.9505, 112.5878
357.4326, 114.5830
357.9147, 116.4342
358.3969, 118.0024
358.8790, 118.9758
359.3611, 119.8547
359.8432, 121.1272
360.3253, 122.7727
360.8074, 124.0909
361.2896, 124.6384
361.7717, 124.7458
362.2538, 124.7174
362.7359, 124.7034
363.2180, 124.4967
363.7001, 123.9832
364.1823, 123.2046
364.6644, 122.3264
365.1465, 121.0553
365.6286, 119.9440
366.1107, 119.3556
366.5928, 119.7721
367.0750, 119.8518
367.5571, 119.0109
368.0392, 117.7641
368.5213, 116.9969
369.0034, 117.2575
369.4855, 117.5687
369.9677, 117.6643
370.4498, 117.4946
370.9319, 117.3329
371.4140, 117.0336
371.8961, 116.8297
372.3782, 116.9599
372.8604, 117.5701
373.3425, 118.2734
373.8246, 119.1710
374.3067, 120.1739
374.7888, 120.5850
375.2709, 120.2888
375.7531, 119.5959
376.2352, 118.7079
376.7173, 117.6741
377.1994, 116.3289
377.6815, 114.7913
378.1636, 112.8074
378.6458, 109.6664
379.1279, 105.1598
379.6100, 100.5129
380.0921, 96.06905
380.5742, 91.86102
381.0563, 88.29978
381.5385, 85.46230
382.0206, 83.00484
382.5027, 80.53425
382.9848, 78.06009
383.4669, 75.89633
383.9490, 74.16164
384.4312, 72.76905
384.9133, 71.63691
385.3954, 70.75574
385.8775, 69.73013
386.3596, 68.11914
386.8417, 66.15586
387.3239, 64.29906
387.8060, 62.66499
388.2881, 61.15576
388.7702, 59.53545
389.2523, 57.92334
389.7344, 56.68913
390.2166, 56.52388
390.6987, 56.55071
391.1808, 55.76568
391.6629, 53.95070
392.1450, 52.23785
392.6271, 51.45364
393.1093, 51.18882
393.5914, 50.91274
394.0735, 50.42871
394.5556, 49.89391
395.0377, 49.40130
395.5198, 48.94135
396.0020, 48.39345
396.4841, 47.56919
396.9662, 46.73782
397.4483, 46.08717
397.9304, 45.90541
398.4125, 45.55114
398.8947, 44.63975
399.3768, 43.48082
399.8589, 42.83931
400.3410, 43.30250
400.8231, 43.79051
401.3052, 43.98737
401.7874, 43.83321
402.2695, 43.61366
402.7516, 43.31709
403.2337, 42.96335
403.7158, 42.54152
404.1979, 41.90989
404.6800, 41.51938
405.1621, 41.49456
405.6443, 41.79273
406.1264, 42.14362
406.6085, 42.62894
407.0906, 42.96162
407.5727, 42.88421
408.0548, 42.36055
408.5370, 41.83721
409.0191, 41.29260
409.5012, 40.88359
409.9833, 41.07224
410.4654, 41.85085
410.9475, 42.43007
411.4297, 42.29085
411.9118, 41.64388
412.3939, 41.21120
412.8760, 41.00888
413.3581, 40.90443
413.8402, 40.84240
414.3224, 40.78410
414.8045, 40.61234
415.2866, 40.19165
415.7687, 39.76807
416.2508, 39.68268
416.7329, 39.86757
417.2151, 40.01792
417.6972, 39.89850
418.1793, 39.68588
418.6614, 39.53292
419.1435, 39.45501
419.6256, 39.47571
420.1078, 39.69492
420.5899, 40.00214
421.0720, 40.24202
421.5541, 40.41375
422.0362, 40.45510
422.5183, 40.30853
423.0005, 39.97709
423.4826, 39.61369
423.9647, 39.15843
424.4468, 38.74265
424.9289, 38.46070
425.4110, 38.34902
425.8932, 38.33535
426.3753, 38.51786
426.8574, 38.78856
427.3395, 38.88573
427.8216, 38.67768
428.3037, 38.47657
428.7859, 38.47407
429.2680, 38.77584
429.7501, 38.45072
430.2322, 37.16872
430.7143, 35.73267
431.1964, 35.11770
431.6786, 35.51111
432.1607, 35.73917
432.6428, 35.54458
433.1249, 35.05005
433.6070, 34.62414
434.0891, 34.26899
434.5713, 33.96424
435.0534, 33.74527
435.5355, 33.58088
436.0176, 33.27093
436.4997, 32.76220
436.9818, 32.27628
437.4640, 32.11502
437.9461, 32.20222
438.4282, 32.29692
438.9103, 32.32190
439.3924, 32.28887
439.8745, 32.16283
440.3567, 31.96220
440.8388, 31.83157
441.3209, 32.01022
441.8030, 32.24035
442.2851, 32.21325
442.7672, 31.71423
443.2494, 31.29166
443.7315, 31.41550
444.2136, 31.79711
444.6957, 31.91060
445.1778, 31.14115
445.6599, 30.47697
446.1421, 30.41087
446.6242, 31.03191
447.1063, 31.47484
447.5884, 31.55550
448.0705, 31.44992
448.5526, 31.28405
449.0348, 30.95797
449.5169, 30.72338
449.9990, 30.66548
450.4811, 30.69692
450.9632, 30.55471
451.4453, 30.14093
451.9275, 29.74134
452.4096, 29.49919
452.8917, 29.44430
453.3738, 29.15328
453.8559, 28.49847
454.3380, 27.91593
454.8202, 28.02594
455.3023, 28.83665
455.7844, 29.39408
456.2665, 29.41377
456.7486, 29.13476
457.2307, 29.08595
457.7129, 29.24949
458.1950, 29.38316
458.6771, 29.31237
459.1592, 29.10714
459.6413, 28.88180
460.1234, 28.63678
460.6056, 28.44784
461.0877, 28.37408
461.5698, 28.40244
462.0519, 28.51169
462.5340, 28.81399
463.0161, 29.08349
463.4983, 29.17134
463.9804, 29.09841
464.4625, 28.96294
464.9446, 28.58865
465.4267, 28.31980
465.9088, 28.44401
466.3910, 29.24849
466.8731, 29.74222
467.3552, 29.42770
467.8373, 28.80044
468.3194, 28.49228
468.8015, 28.94007
469.2837, 29.22222
469.7658, 29.13686
470.2479, 28.72735
470.7300, 28.41992
471.2121, 28.19629
471.6942, 28.10247
472.1764, 28.22025
472.6585, 28.62803
473.1406, 28.81965
473.6227, 28.72386
474.1048, 28.50924
474.5869, 28.39548
475.0691, 28.38233
475.5512, 28.51697
476.0333, 28.95468
476.5154, 29.47468
476.9975, 29.41690
477.4796, 28.80617
477.9618, 28.16056
478.4439, 27.84913
478.9260, 27.76951
479.4081, 27.77722
479.8902, 27.88695
480.3723, 27.92302
480.8545, 27.46950
481.3366, 26.87279
481.8187, 26.73065
482.3008, 27.88890
482.7829, 29.04764
483.2650, 29.41201
483.7472, 29.06506
484.2293, 28.72285
484.7114, 28.69128
485.1935, 28.69057
485.6756, 28.54176
486.1577, 28.10203
486.6399, 27.76479
487.1220, 27.65626
487.6041, 27.63249
488.0862, 27.50128
488.5683, 27.11919
489.0504, 26.86625
489.5326, 26.84640
490.0147, 27.03091
490.4968, 27.21426
490.9789, 27.41326
491.4610, 27.56187
491.9431, 27.61576
492.4253, 27.57349
492.9074, 27.45602
493.3895, 27.23598
493.8716, 27.02536
494.3537, 26.99526
494.8358, 27.12000
495.3180, 27.24558
495.8001, 27.28976
496.2822, 27.33009
496.7643, 27.57065
497.2464, 27.96140
497.7285, 28.20135
498.2107, 27.87014
498.6928, 27.41079
499.1749, 27.33428
499.6570, 27.78506
500.1391, 28.22008
500.6212, 28.37280
501.1034, 28.33370
501.5855, 28.20971
502.0676, 27.70257
502.5497, 27.46353
503.0318, 27.94894
503.5139, 28.96490
503.9961, 29.42239
504.4782, 28.74074
504.9603, 28.00360
505.4424, 27.63951
505.9245, 27.78179
506.4066, 27.70258
506.8888, 27.24654
507.3709, 26.76666
507.8530, 26.67990
508.3351, 27.06677
508.8172, 27.41370
509.2993, 27.66785
509.7815, 27.79116
510.2636, 27.55418
510.7457, 26.96182
511.2278, 26.58213
511.7099, 26.94393
512.1920, 27.71681
512.6741, 28.07047
513.1563, 27.97664
513.6384, 27.80955
514.1205, 27.89606
514.6026, 28.10940
515.0847, 28.26990
515.5668, 28.33304
516.0490, 28.32744
516.5311, 28.21192
517.0132, 28.04373
517.4953, 27.93843
517.9774, 28.05119
518.4595, 28.12916
518.9417, 27.97651
519.4238, 27.56458
519.9059, 27.44630
520.3880, 28.03775
520.8701, 28.66348
521.3522, 28.96189
521.8344, 28.80993
522.3165, 28.57207
522.7986, 28.21638
523.2807, 27.80182
523.7628, 27.41140
524.2449, 27.02215
524.7271, 26.75225
525.2092, 26.62918
525.6913, 26.65372
526.1734, 26.92931
526.6555, 27.46410
527.1376, 27.85667
527.6198, 27.59838
528.1019, 27.01090
528.5840, 26.88723
529.0661, 27.34036
529.5482, 27.93345
530.0303, 28.43665
530.5125, 28.77862
530.9946, 28.84986
531.4767, 28.46057
531.9588, 27.96555
532.4409, 27.41649
532.9230, 26.89635
533.4052, 26.62917
533.8873, 26.85863
534.3694, 27.20762
534.8515, 27.55563
535.3336, 27.91908
535.8157, 28.15695
536.2979, 28.26514
536.7800, 28.25567
537.2621, 28.12151
537.7442, 27.79888
538.2263, 27.48838
538.7084, 27.10396
539.1906, 26.83495
539.6727, 27.20752
540.1548, 28.30070
540.6369, 29.09586
541.1190, 29.07917
541.6011, 28.55763
542.0833, 28.53419
542.5654, 28.98136
543.0475, 29.31410
543.5296, 28.91045
544.0117, 28.17814
544.4938, 27.78744
544.9760, 27.85712
545.4581, 27.99500
545.9402, 27.96323
546.4223, 27.80863
546.9044, 27.59124
547.3865, 27.10713
547.8687, 26.79922
548.3508, 26.97428
548.8329, 27.46395
549.3150, 27.72904
549.7971, 27.33388
550.2792, 27.05959
550.7614, 27.22590
551.2435, 27.89282
551.7256, 28.26641
552.2077, 28.24736
552.6898, 28.08279
553.1719, 27.93181
553.6541, 27.78527
554.1362, 27.76178
554.6183, 27.92869
555.1004, 28.09909
555.5825, 27.84546
556.0646, 27.25391
556.5468, 26.92373
557.0289, 27.24610
557.5110, 27.80260
557.9931, 27.93214
558.4752, 27.70188
558.9573, 27.46400
559.4395, 27.35067
559.9216, 27.37428
560.4037, 27.66902
560.8858, 28.31439
561.3679, 28.62324
561.8500, 27.86023
562.3322, 26.87996
562.8143, 26.41457
563.2964, 27.19794
563.7785, 27.73763
564.2606, 27.81625
564.7427, 27.63264
565.2249, 27.57425
565.7070, 27.70259
566.1891, 27.82678
566.6712, 27.90341
567.1533, 27.93233
567.6354, 27.87832
568.1176, 27.71224
568.5997, 27.64313
569.0818, 28.01153
569.5639, 28.62967
570.0460, 28.61689
570.5281, 27.84860
571.0103, 27.04049
571.4924, 26.89402
571.9745, 27.20347
572.4566, 27.64237
572.9387, 28.28597
573.4208, 28.74958
573.9030, 28.60857
574.3851, 28.11123
574.8672, 27.80291
575.3493, 28.16750
575.8314, 28.45817
576.3135, 28.27112
576.7957, 27.59705
577.2778, 27.31110
577.7599, 27.71118
578.2420, 28.19628
578.7241, 28.45599
579.2062, 28.43707
579.6884, 28.41605
580.1705, 28.39524
580.6526, 28.36766
581.1347, 28.29363
581.6168, 28.17775
582.0989, 28.19597
582.5811, 28.45590
583.0632, 28.73837
583.5453, 28.60327
584.0274, 28.16566
584.5095, 27.85200
584.9916, 28.04159
585.4738, 28.34162
585.9559, 28.32346
586.4380, 28.02780
586.9201, 27.84733
587.4022, 28.08676
587.8843, 28.41104
588.3665, 28.57302
588.8486, 28.43439
589.3307, 28.47895
589.8128, 29.12062
590.2949, 29.75257
590.7770, 29.78231
591.2592, 28.79519
591.7413, 28.18236
592.2234, 28.16660
592.7055, 28.52171
593.1876, 28.79161
593.6697, 28.97481
594.1519, 29.09740
594.6340, 29.17038
595.1161, 29.18735
595.5982, 29.15221
596.0803, 29.05792
596.5624, 28.83556
597.0446, 28.15115
597.5267, 27.44801
598.0088, 27.41516
598.4909, 28.15799
598.9730, 28.80344
599.4551, 28.80675
599.9373, 28.52232
600.4194, 28.27057
600.9015, 28.06036
601.3836, 27.96506
601.8657, 27.91510
602.3478, 28.01437
602.8300, 28.49644
603.3121, 29.83209
603.7942, 30.61704
604.2763, 30.43801
604.7584, 29.52618
605.2405, 28.75661
605.7227, 28.12632
606.2048, 27.63298
606.6869, 27.11334
607.1690, 26.71771
607.6511, 27.20407
608.1332, 28.57827
608.6154, 29.73626
609.0975, 29.45648
609.5796, 28.55665
610.0617, 28.17855
610.5438, 28.65451
611.0259, 29.17091
611.5081, 29.29422
611.9902, 29.20384
612.4723, 29.11363
612.9544, 29.08858
613.4365, 29.04715
613.9186, 28.90133
614.4008, 28.73911
614.8829, 28.81125
615.3650, 29.33442
615.8471, 29.63029
616.3292, 29.40904
616.8113, 28.76779
617.2935, 28.38909
617.7756, 28.28560
618.2577, 28.30917
618.7398, 28.40450
619.2219, 28.54366
619.7040, 28.63552
620.1862, 28.67056
620.6683, 28.73327
621.1504, 28.98919
621.6325, 29.27636
622.1146, 29.38493
622.5967, 29.19782
623.0789, 28.97790
623.5610, 28.82133
624.0431, 28.70701
624.5252, 28.60457
625.0073, 28.39206
625.4894, 28.34347
625.9716, 28.60912
626.4537, 29.05542
626.9358, 29.20890
627.4179, 28.93794
627.9000, 28.73920
628.3821, 28.86808
628.8643, 29.24574
629.3464, 29.34694
629.8285, 29.16741
630.3106, 28.86719
630.7927, 28.44661
631.2748, 28.01763
631.7570, 27.83003
632.2391, 27.92142
632.7212, 28.05098
633.2033, 28.04099
633.6854, 27.97314
634.1675, 27.92853
634.6497, 27.89124
635.1318, 27.94057
635.6139, 28.28183
636.0960, 28.66998
636.5781, 28.69505
637.0602, 27.92594
637.5424, 27.51550
638.0245, 27.78997
638.5066, 28.48679
638.9887, 28.75968
639.4708, 28.54828
639.9529, 28.30093
640.4351, 28.21199
640.9172, 28.23670
641.3993, 28.20646
641.8814, 28.13127
642.3635, 28.15288
642.8456, 28.48456
643.3278, 28.91158
643.8099, 29.20168
644.2920, 29.32755
644.7741, 29.31376
645.2562, 28.99855
645.7383, 28.64906
646.2205, 28.49900
646.7026, 28.73519
647.1847, 28.91770
647.6668, 29.02682
648.1489, 29.07091
648.6310, 29.03280
649.1132, 28.84891
649.5953, 28.82236
650.0774, 29.07110
650.5595, 29.42750
651.0416, 29.48536
