##NAMES=Pyrite
##RRUFFID=R080030
##IDEAL CHEMISTRY=Fe^2+^(S_2_)^2-^
##LOCALITY=Schaft 209, Aue, Niederschlema, Erzgebirge, Saxony, Germany
##OWNER=RRUFF
##SOURCE=William W. Pinch
##DESCRIPTION=Dark-bronze and blue, tarnished pseudohexagonal prisms; bright grey when a fresh surface is exposed. Associated with wire silver. These crystals were labeled argentopyrite, but are pseudomorphs.
##STATUS=The identification of this mineral has been confirmed by X-ray diffraction and chemical analysis
##URL=rruff.info/R080030
##MEASURED CHEMISTRY=Fe_1.04_Ag_0.01_As_0.08_S_2_
158.0915, 42.53590
158.5736, 42.12701
159.0558, 41.95202
159.5379, 42.28917
160.0200, 43.23655
160.5021, 44.34093
160.9842, 44.73810
161.4663, 44.27314
161.9485, 43.78709
162.4306, 43.42480
162.9127, 43.16582
163.3948, 42.97710
163.8769, 42.86719
164.3590, 42.79403
164.8412, 42.68475
165.3233, 42.52980
165.8054, 42.38827
166.2875, 42.30492
166.7696, 42.27160
167.2517, 42.21783
167.7339, 42.02854
168.2160, 41.89434
168.6981, 42.02253
169.1802, 42.45687
169.6623, 42.99342
170.1444, 43.53202
170.6266, 44.13158
171.1087, 44.35534
171.5908, 43.61803
172.0729, 42.70336
172.5550, 42.15814
173.0371, 42.14957
173.5193, 42.39606
174.0014, 42.42781
174.4835, 42.12280
174.9656, 41.85809
175.4477, 41.68150
175.9298, 41.57170
176.4120, 41.52385
176.8941, 41.53635
177.3762, 41.58691
177.8583, 41.61092
178.3404, 41.54657
178.8225, 41.54101
179.3047, 41.68921
179.7868, 41.87512
180.2689, 41.93602
180.7510, 41.78125
181.2331, 41.48945
181.7152, 41.42254
182.1974, 41.90407
182.6795, 42.24281
183.1616, 42.34306
183.6437, 42.22245
184.1258, 41.85598
184.6079, 41.17602
185.0900, 40.29087
185.5722, 39.93813
186.0543, 40.47808
186.5364, 41.03465
187.0185, 41.26545
187.5006, 41.24203
187.9827, 41.23646
188.4649, 41.46839
188.9470, 41.81870
189.4291, 41.79970
189.9112, 41.00784
190.3933, 40.21959
190.8754, 39.96687
191.3576, 40.21934
191.8397, 40.59876
192.3218, 40.98803
192.8039, 41.31417
193.2860, 41.42768
193.7681, 41.14819
194.2503, 40.79364
194.7324, 40.77001
195.2145, 41.14378
195.6966, 41.40260
196.1787, 41.00103
196.6608, 40.37208
197.1430, 40.04370
197.6251, 40.28518
198.1072, 40.78980
198.5893, 41.03941
199.0714, 40.95037
199.5535, 40.81848
200.0357, 40.67499
200.5178, 40.58929
200.9999, 40.68247
201.4820, 41.07066
201.9641, 41.59972
202.4462, 41.81457
202.9284, 41.49711
203.4105, 41.21541
203.8926, 41.20678
204.3747, 41.30342
204.8568, 41.28025
205.3389, 40.99583
205.8211, 40.52607
206.3032, 40.22185
206.7853, 40.21858
207.2674, 40.23108
207.7495, 40.14215
208.2316, 40.04478
208.7138, 40.11278
209.1959, 40.47588
209.6780, 41.05635
210.1601, 41.27412
210.6422, 40.53111
211.1243, 40.04179
211.6065, 40.17632
212.0886, 40.69064
212.5707, 41.17870
213.0528, 41.38242
213.5349, 41.32880
214.0170, 41.26404
214.4992, 41.05819
214.9813, 40.97893
215.4634, 41.29329
215.9455, 41.79362
216.4276, 42.02782
216.9097, 41.67270
217.3919, 40.80930
217.8740, 40.21345
218.3561, 39.92864
218.8382, 39.79509
219.3203, 39.77443
219.8024, 39.86139
220.2845, 40.07499
220.7667, 40.47284
221.2488, 40.99055
221.7309, 41.28259
222.2130, 41.19997
222.6951, 41.06609
223.1772, 41.03063
223.6594, 41.07959
224.1415, 41.14556
224.6236, 41.20746
225.1057, 41.24876
225.5878, 41.23594
226.0699, 41.17853
226.5521, 41.05922
227.0342, 40.79751
227.5163, 40.41465
227.9984, 40.14298
228.4805, 40.13634
228.9626, 40.30935
229.4448, 40.48382
229.9269, 40.69228
230.4090, 40.83452
230.8911, 40.74712
231.3732, 40.42820
231.8553, 40.24302
232.3375, 40.46339
232.8196, 40.85440
233.3017, 41.15405
233.7838, 41.34890
234.2659, 41.39258
234.7480, 41.14644
235.2302, 40.56769
235.7123, 40.11781
236.1944, 40.14428
236.6765, 40.28048
237.1586, 40.16158
237.6407, 39.67064
238.1229, 39.18229
238.6050, 39.24374
239.0871, 39.99591
239.5692, 40.54030
240.0513, 40.36547
240.5334, 40.04903
241.0156, 40.00347
241.4977, 40.32368
241.9798, 40.73972
242.4619, 40.88422
242.9440, 40.68035
243.4261, 40.49783
243.9083, 40.31689
244.3904, 40.23001
244.8725, 40.34492
245.3546, 40.66937
245.8367, 41.06231
246.3188, 41.36929
246.8010, 41.63660
247.2831, 41.65678
247.7652, 41.12461
248.2473, 40.56828
248.7294, 40.37092
249.2115, 40.55858
249.6937, 40.81999
250.1758, 40.71241
250.6579, 40.01952
251.1400, 39.53963
251.6221, 39.16888
252.1042, 39.05755
252.5864, 39.46593
253.0685, 40.32809
253.5506, 41.22186
254.0327, 41.62782
254.5148, 41.37369
254.9969, 41.15660
255.4790, 40.92896
255.9612, 40.76687
256.4433, 40.73317
256.9254, 40.81765
257.4075, 40.95738
257.8896, 41.09380
258.3718, 41.24282
258.8539, 41.31023
259.3360, 41.34245
259.8181, 41.27486
260.3002, 40.97850
260.7823, 40.51707
261.2645, 40.11953
261.7466, 40.01044
262.2287, 40.23367
262.7108, 40.43331
263.1929, 40.55114
263.6750, 40.70301
264.1572, 40.99938
264.6393, 41.39564
265.1214, 41.73500
265.6035, 41.88866
266.0856, 41.84973
266.5677, 41.80828
267.0499, 41.65499
267.5320, 41.60280
268.0141, 41.85919
268.4962, 42.31408
268.9783, 42.62940
269.4604, 42.54019
269.9426, 42.09712
270.4247, 41.96087
270.9068, 42.30193
271.3889, 42.69442
271.8710, 43.05945
272.3531, 43.35914
272.8352, 43.50390
273.3174, 43.41913
273.7995, 43.16211
274.2816, 43.01408
274.7637, 42.95784
275.2458, 42.99857
275.7279, 43.19073
276.2101, 43.48083
276.6922, 43.74195
277.1743, 43.90229
277.6564, 44.02686
278.1385, 44.32991
278.6206, 44.88676
279.1028, 45.43067
279.5849, 45.98183
280.0670, 46.45608
280.5491, 46.67193
281.0312, 46.53286
281.5133, 46.20029
281.9955, 45.90802
282.4776, 45.51690
282.9597, 45.55035
283.4418, 46.49268
283.9239, 47.85096
284.4060, 48.84467
284.8882, 49.25600
285.3703, 49.36233
285.8524, 49.49502
286.3345, 49.65059
286.8166, 49.84446
287.2987, 50.13291
287.7809, 50.44006
288.2630, 50.60467
288.7451, 50.57441
289.2272, 50.62761
289.7093, 51.12773
290.1914, 52.04815
290.6736, 52.90539
291.1557, 53.58238
291.6378, 54.18999
292.1199, 54.84307
292.6020, 55.55201
293.0841, 56.28454
293.5663, 57.03519
294.0484, 57.79224
294.5305, 58.49119
295.0126, 59.11976
295.4947, 59.68877
295.9768, 60.10689
296.4590, 60.38606
296.9411, 60.86937
297.4232, 61.80482
297.9053, 63.12053
298.3874, 64.51280
298.8695, 66.11715
299.3517, 67.63653
299.8338, 68.76627
300.3159, 69.56356
300.7980, 70.40935
301.2801, 71.49040
301.7622, 72.71133
302.2444, 73.92313
302.7265, 75.27782
303.2086, 76.28008
303.6907, 76.40264
304.1728, 75.88533
304.6549, 75.58913
305.1371, 75.79728
305.6192, 76.34324
306.1013, 76.99266
306.5834, 77.74995
307.0655, 78.53141
307.5476, 79.41292
308.0298, 80.28919
308.5119, 80.90083
308.9940, 81.15556
309.4761, 81.23037
309.9582, 81.20815
310.4403, 81.11087
310.9225, 81.23611
311.4046, 81.76083
311.8867, 82.53863
312.3688, 83.41016
312.8509, 84.39964
313.3330, 85.27563
313.8152, 85.87861
314.2973, 86.20808
314.7794, 86.17968
315.2615, 85.44905
315.7436, 84.54314
316.2257, 84.13841
316.7079, 84.26740
317.1900, 84.26126
317.6721, 83.74174
318.1542, 82.76115
318.6363, 81.51466
319.1184, 79.92982
319.6006, 78.18963
320.0827, 76.35939
320.5648, 74.45938
321.0469, 72.66665
321.5290, 71.13381
322.0111, 69.67229
322.4933, 67.88165
322.9754, 65.60452
323.4575, 63.48008
323.9396, 61.82105
324.4217, 60.57810
324.9038, 59.64121
325.3860, 59.02676
325.8681, 58.61860
326.3502, 58.29030
326.8323, 58.03500
327.3144, 57.80938
327.7965, 57.61420
328.2787, 57.43412
328.7608, 57.25968
329.2429, 57.09946
329.7250, 56.89396
330.2071, 56.48618
330.6892, 55.93520
331.1714, 55.62646
331.6535, 55.73452
332.1356, 56.05647
332.6177, 56.43650
333.0998, 56.86486
333.5819, 57.24458
334.0641, 57.51794
334.5462, 57.67929
335.0283, 57.76243
335.5104, 57.68563
335.9925, 57.61077
336.4746, 57.71735
336.9568, 57.94619
337.4389, 58.03783
337.9210, 57.90334
338.4031, 57.51842
338.8852, 56.84068
339.3673, 55.81080
339.8495, 54.69368
340.3316, 53.54638
340.8137, 52.39790
341.2958, 51.29162
341.7779, 50.23961
342.2600, 49.25088
342.7421, 48.31395
343.2242, 47.40325
343.7064, 46.68835
344.1885, 46.38145
344.6706, 46.19625
345.1527, 45.74906
345.6348, 44.98629
346.1169, 44.27406
346.5991, 43.98716
347.0812, 44.15281
347.5633, 44.14259
348.0454, 43.68264
348.5275, 43.27160
349.0096, 43.33192
349.4918, 43.78204
349.9739, 44.17640
350.4560, 44.22343
350.9381, 44.00970
351.4202, 43.97561
351.9023, 44.29714
352.3845, 44.56324
352.8666, 44.53148
353.3487, 44.37551
353.8308, 44.45111
354.3129, 44.91817
354.7950, 45.55172
355.2772, 45.90376
355.7593, 45.81585
356.2414, 45.79288
356.7235, 45.92172
357.2056, 46.11157
357.6877, 46.26327
358.1699, 46.36272
358.6520, 46.47242
359.1341, 46.65610
359.6162, 46.91833
360.0983, 47.26812
360.5804, 47.77353
361.0626, 48.29534
361.5447, 48.66819
362.0268, 48.97407
362.5089, 49.51827
362.9910, 50.55891
363.4731, 52.01033
363.9553, 53.02612
364.4374, 53.34642
364.9195, 53.58363
365.4016, 53.75127
365.8837, 53.94227
366.3658, 54.32486
366.8480, 54.96839
367.3301, 55.69786
367.8122, 56.12251
368.2943, 55.92220
368.7764, 55.90329
369.2585, 56.14216
369.7407, 56.49387
370.2228, 56.95469
370.7049, 57.46455
371.1870, 57.81126
371.6691, 57.71243
372.1512, 57.05272
372.6334, 56.65210
373.1155, 56.51271
373.5976, 56.61434
374.0797, 57.20052
374.5618, 58.02081
375.0439, 58.57981
375.5261, 58.53012
376.0082, 57.99018
376.4903, 57.55297
376.9724, 57.16481
377.4545, 56.97798
377.9366, 57.24648
378.4188, 57.60019
378.9009, 57.59982
379.3830, 57.10788
379.8651, 56.45165
380.3472, 56.25405
380.8293, 56.80452
381.3115, 56.84494
381.7936, 55.95947
382.2757, 54.79073
382.7578, 53.64626
383.2399, 52.53179
383.7220, 51.27815
384.2042, 49.64818
384.6863, 47.67791
385.1684, 45.99018
385.6505, 44.82244
386.1326, 43.58351
386.6147, 41.82499
387.0969, 39.88136
387.5790, 38.30082
388.0611, 37.35197
388.5432, 36.79640
389.0253, 36.15808
389.5074, 35.35083
389.9896, 34.83717
390.4717, 35.20168
390.9538, 35.67307
391.4359, 35.51563
391.9180, 34.60405
392.4001, 33.65662
392.8823, 33.28970
393.3644, 33.41966
393.8465, 33.54641
394.3286, 33.63757
394.8107, 33.63690
395.2928, 33.48934
395.7750, 33.21782
396.2571, 32.88816
396.7392, 32.44286
397.2213, 31.99115
397.7034, 31.73565
398.1855, 31.69950
398.6677, 31.58182
399.1498, 31.04041
399.6319, 30.36812
400.1140, 30.24760
400.5961, 31.03192
401.0782, 31.80570
401.5604, 32.00306
402.0425, 31.76651
402.5246, 31.51048
403.0067, 31.36049
403.4888, 31.24490
403.9709, 31.03499
404.4531, 30.70782
404.9352, 30.47429
405.4173, 30.41699
405.8994, 30.44278
406.3815, 30.50116
406.8636, 30.57329
407.3458, 30.56879
407.8279, 30.39370
408.3100, 30.06246
408.7921, 29.83525
409.2742, 29.66993
409.7563, 29.63705
410.2385, 29.89465
410.7206, 30.28314
411.2027, 30.50300
411.6848, 30.42401
412.1669, 30.18071
412.6490, 30.05446
413.1311, 30.22964
413.6133, 30.19582
414.0954, 29.75391
414.5775, 29.25692
415.0596, 28.94706
415.5417, 28.85147
416.0238, 28.88009
416.5060, 28.97247
416.9881, 29.13351
417.4702, 29.15326
417.9523, 28.80602
418.4344, 28.55865
418.9165, 28.59092
419.3987, 28.77118
419.8808, 28.88799
420.3629, 28.84129
420.8450, 28.74232
421.3271, 28.88065
421.8092, 29.47948
422.2914, 29.74064
422.7735, 29.28158
423.2556, 28.70649
423.7377, 28.39134
424.2198, 28.34920
424.7019, 28.34009
425.1841, 28.10769
425.6662, 27.68842
426.1483, 27.51645
426.6304, 27.80489
427.1125, 27.99196
427.5946, 27.68060
428.0768, 27.15278
428.5589, 26.85143
429.0410, 26.98963
429.5231, 27.27431
430.0052, 27.31677
430.4873, 27.11107
430.9695, 26.93787
431.4516, 26.88229
431.9337, 26.89417
432.4158, 26.91155
432.8979, 26.93422
433.3800, 26.97529
433.8622, 27.07522
434.3443, 27.18789
434.8264, 27.24297
435.3085, 27.23597
435.7906, 27.14218
436.2727, 26.90704
436.7549, 26.56004
437.2370, 26.26172
437.7191, 25.90136
438.2012, 25.70932
438.6833, 26.01006
439.1654, 26.57544
439.6476, 26.78255
440.1297, 26.35343
440.6118, 25.67489
441.0939, 25.42374
441.5760, 25.80896
442.0581, 26.05406
442.5403, 25.96543
443.0224, 25.84059
443.5045, 25.98847
443.9866, 26.35901
444.4687, 26.59652
444.9508, 26.38863
445.4330, 25.79929
445.9151, 25.54033
446.3972, 25.88703
446.8793, 26.24595
447.3614, 26.66434
447.8435, 26.99127
448.3257, 26.99860
448.8078, 26.63834
449.2899, 26.16316
449.7720, 25.98497
450.2541, 26.26489
450.7362, 26.28089
451.2184, 25.66782
451.7005, 25.12740
452.1826, 25.02610
452.6647, 25.22871
453.1468, 25.34739
453.6289, 25.08964
454.1111, 24.66534
454.5932, 24.72301
455.0753, 25.48689
455.5574, 26.05835
456.0395, 25.89638
456.5216, 25.55582
457.0038, 25.50705
457.4859, 25.81840
457.9680, 26.12261
458.4501, 26.11356
458.9322, 25.86424
459.4143, 25.62249
459.8965, 25.38686
460.3786, 25.24158
460.8607, 25.35368
461.3428, 25.61468
461.8249, 25.73664
462.3070, 25.54711
462.7892, 25.32281
463.2713, 25.30520
463.7534, 25.43872
464.2355, 25.49251
464.7176, 25.35168
465.1997, 25.16555
465.6819, 25.23405
466.1640, 25.67051
466.6461, 25.90900
467.1282, 25.71557
467.6103, 25.42337
468.0924, 25.33524
468.5746, 25.43594
469.0567, 25.49100
469.5388, 25.31556
470.0209, 24.95657
470.5030, 24.73524
470.9851, 24.67862
471.4673, 24.73660
471.9494, 25.01270
472.4315, 25.34384
472.9136, 25.57437
473.3957, 25.66384
473.8778, 25.66768
474.3600, 25.64283
474.8421, 25.58396
475.3242, 25.53796
475.8063, 25.60049
476.2884, 25.56798
476.7705, 25.36188
477.2527, 25.01875
477.7348, 24.55569
478.2169, 23.93162
478.6990, 23.35594
479.1811, 23.24944
479.6632, 23.67687
480.1454, 24.00696
480.6275, 23.93583
481.1096, 23.88027
481.5917, 24.29858
482.0738, 25.12647
482.5559, 25.75018
483.0380, 25.72346
483.5201, 25.37779
484.0023, 25.28423
484.4844, 25.47378
484.9665, 25.55479
485.4486, 25.25225
485.9307, 24.72063
486.4128, 24.38176
486.8950, 24.30402
487.3771, 24.26020
487.8592, 24.21438
488.3413, 24.13970
488.8234, 23.94046
489.3055, 23.61227
489.7877, 23.37177
490.2698, 23.45753
490.7519, 23.89315
491.2340, 24.19730
491.7161, 24.39483
492.1982, 24.46329
492.6804, 24.31143
493.1625, 24.05371
493.6446, 23.83938
494.1267, 23.72518
494.6088, 23.68470
495.0909, 23.67970
495.5731, 23.71546
496.0552, 23.77028
496.5373, 23.91845
497.0194, 24.01472
497.5015, 23.94697
497.9836, 23.78209
498.4658, 23.65946
498.9479, 23.63924
499.4300, 23.72894
499.9121, 24.02760
500.3942, 24.60666
500.8763, 24.92150
501.3585, 24.54826
501.8406, 24.08125
502.3227, 24.17388
502.8048, 24.81063
503.2869, 25.23738
503.7690, 24.91619
504.2512, 24.24186
504.7333, 23.80086
505.2154, 23.62265
505.6975, 23.53496
506.1796, 23.44790
506.6617, 23.37444
507.1439, 23.36103
507.6260, 23.46500
508.1081, 23.51389
508.5902, 23.50533
509.0723, 23.39605
509.5544, 23.00595
510.0366, 22.36713
510.5187, 21.89807
511.0008, 22.02463
511.4829, 22.74412
511.9650, 23.30045
512.4471, 23.64585
512.9293, 23.88347
513.4114, 23.97659
513.8935, 23.99647
514.3756, 24.03924
514.8577, 24.12641
515.3398, 24.17305
515.8220, 24.03376
516.3041, 23.68175
516.7862, 23.44360
517.2683, 23.41471
517.7504, 23.38274
518.2325, 23.11512
518.7147, 22.80854
519.1968, 22.85330
519.6789, 23.50575
520.1610, 24.23779
520.6431, 24.45021
521.1252, 24.18944
521.6074, 23.80154
522.0895, 23.30968
522.5716, 22.83243
523.0537, 22.48546
523.5358, 22.25884
524.0179, 22.15513
524.5001, 22.21488
524.9822, 22.36127
525.4643, 22.63538
525.9464, 22.95893
526.4285, 23.07118
526.9106, 22.83773
527.3928, 22.48100
527.8749, 22.42681
528.3570, 22.87713
528.8391, 23.16782
529.3212, 23.25068
529.8033, 23.23093
530.2855, 23.14490
530.7676, 23.00600
531.2497, 22.79865
531.7318, 22.49616
532.2139, 22.19389
532.6960, 22.17989
533.1782, 22.59176
533.6603, 22.90017
534.1424, 22.87862
534.6245, 22.84014
535.1066, 23.03202
535.5887, 23.39898
536.0709, 23.64424
536.5530, 23.54118
537.0351, 23.23244
537.5172, 22.92951
537.9993, 22.62702
538.4814, 22.47220
538.9636, 22.55012
539.4457, 22.79217
539.9278, 23.10957
540.4099, 23.52428
540.8920, 23.87267
541.3741, 24.23814
541.8563, 24.43326
542.3384, 24.05741
542.8205, 23.23759
543.3026, 22.75763
543.7847, 23.17939
544.2668, 24.17953
544.7490, 24.57124
545.2311, 23.66487
545.7132, 23.08172
546.1953, 23.07871
546.6774, 23.23018
547.1595, 23.25396
547.6417, 23.12349
548.1238, 22.92282
548.6059, 22.67581
549.0880, 22.44024
549.5701, 22.49630
550.0522, 23.01199
550.5344, 23.38326
551.0165, 23.26731
551.4986, 23.03541
551.9807, 22.98156
552.4628, 23.12309
552.9449, 23.24789
553.4271, 23.26905
553.9092, 23.17990
554.3913, 22.87531
554.8734, 22.34976
555.3555, 22.02321
555.8376, 22.19842
556.3198, 22.65815
556.8019, 22.83291
557.2840, 22.63101
557.7661, 22.43012
558.2482, 22.17331
558.7303, 22.03675
559.2125, 22.34505
559.6946, 22.98625
560.1767, 23.37753
560.6588, 23.06490
561.1409, 22.27183
561.6230, 21.99201
562.1052, 22.69697
562.5873, 23.10617
563.0694, 22.93719
563.5515, 22.59332
564.0336, 22.26867
564.5157, 22.02497
564.9979, 21.94526
565.4800, 22.15996
565.9621, 22.53816
566.4442, 22.71001
566.9263, 22.63337
567.4084, 22.65896
567.8906, 23.10986
568.3727, 23.55085
568.8548, 23.31443
569.3369, 22.34669
569.8190, 21.62633
570.3011, 21.57539
570.7833, 21.86625
571.2654, 22.33008
571.7475, 22.87249
572.2296, 23.13686
572.7117, 22.89791
573.1938, 22.38936
573.6760, 22.18356
574.1581, 22.57194
574.6402, 22.73059
575.1223, 22.41629
575.6044, 22.10732
576.0865, 22.12660
576.5687, 22.39075
577.0508, 22.63255
577.5329, 22.70044
578.0150, 22.65660
578.4971, 22.62621
578.9792, 22.61087
579.4614, 22.59765
579.9435, 22.55495
580.4256, 22.54799
580.9077, 22.68489
581.3898, 22.90871
581.8719, 22.99954
582.3541, 22.78605
582.8362, 22.49191
583.3183, 22.33021
583.8004, 22.27250
584.2825, 22.19614
584.7646, 22.04725
585.2468, 21.94292
585.7289, 22.06128
586.2110, 22.46684
586.6931, 22.71046
587.1752, 22.70875
587.6573, 22.64651
588.1394, 22.60960
588.6215, 22.55776
589.1036, 22.37779
589.5858, 22.04274
590.0679, 21.72445
590.5500, 21.67735
591.0321, 21.92841
591.5142, 22.16852
591.9963, 22.41715
592.4785, 22.62298
592.9606, 22.76476
593.4427, 22.85657
593.9248, 22.93670
594.4069, 23.03541
594.8890, 23.01932
595.3712, 22.58136
595.8533, 21.98802
596.3354, 21.97327
596.8175, 22.65879
597.2996, 23.31797
597.7817, 23.41479
598.2639, 23.04945
598.7460, 22.75413
599.2281, 22.51433
599.7102, 22.35138
600.1923, 22.24150
600.6744, 22.22989
601.1566, 22.46418
601.6387, 22.87247
602.1208, 23.14514
602.6029, 23.03154
603.0850, 22.61978
603.5671, 22.23271
604.0493, 21.82991
604.5314, 21.55868
605.0135, 21.41262
605.4956, 21.44806
605.9777, 21.86787
606.4598, 22.57660
606.9420, 23.04836
607.4241, 22.80048
607.9062, 22.34303
608.3883, 22.34149
608.8704, 22.71032
609.3525, 22.99192
609.8347, 23.03409
610.3168, 22.88863
610.7989, 22.57698
611.2810, 22.01465
611.7631, 21.73927
612.2452, 21.91998
612.7274, 22.19038
613.2095, 22.53510
613.6916, 22.82239
614.1737, 22.82170
614.6558, 22.47293
615.1379, 22.02704
615.6201, 21.79202
616.1022, 21.77253
616.5843, 21.84066
617.0664, 22.07768
617.5485, 22.25504
618.0306, 22.11279
618.5128, 21.91869
618.9949, 22.06889
619.4770, 22.69382
619.9591, 23.22847
620.4412, 23.33783
620.9233, 23.16598
621.4055, 22.83813
621.8876, 22.39613
622.3697, 22.08119
622.8518, 22.04946
623.3339, 22.22934
623.8160, 22.41393
624.2982, 22.64206
624.7803, 22.80784
625.2624, 22.87869
625.7445, 22.91900
626.2266, 23.01516
626.7087, 23.11084
627.1909, 23.05648
627.6730, 22.75996
628.1551, 22.34504
628.6372, 21.98107
629.1193, 21.66372
629.6014, 21.54069
630.0836, 21.73820
630.5657, 21.95684
631.0478, 21.90467
631.5299, 21.69000
632.0120, 21.58075
632.4941, 21.63214
632.9763, 21.77041
633.4584, 22.06198
633.9405, 22.37577
634.4226, 22.44399
634.9047, 22.25759
635.3868, 22.15455
635.8690, 22.45466
636.3511, 23.06890
636.8332, 23.36764
637.3153, 23.13885
637.7974, 22.93642
638.2795, 22.86839
638.7617, 22.81372
639.2438, 22.62491
639.7259, 22.35279
640.2080, 22.23596
640.6901, 22.49833
641.1722, 22.89012
641.6544, 23.01505
642.1365, 22.89747
642.6186, 22.76369
643.1007, 22.65861
643.5828, 22.61066
644.0649, 22.67483
644.5471, 22.85901
645.0292, 22.96478
645.5113, 22.89341
645.9934, 22.85913
646.4755, 22.96713
646.9576, 23.14219
647.4398, 23.30783
647.9219, 23.43713
648.4040, 23.50440
648.8861, 23.46188
649.3682, 23.33856
649.8503, 23.34909
650.3325, 23.58954
