##NAMES=Pyroxene
##RRUFFID=R110130
##LOCALITY=Little Deer Creek eclogite, Skagit County, Washington, USA
##OWNER=RRUFF
##SOURCE=Bart Cannon
##DESCRIPTION=Blocky transparent green crystals coating a surface of a rock. Single crystal X-ray diffraction shows that this sample is composed of exsolution lamellae of diopside and jadeite
##STATUS=The identification of this mineral has been confirmed only by single crystal X-ray diffraction.
##URL=rruff.info/R110130
164.7382, 68.55047
165.2203, 69.76071
165.7024, 70.82310
166.1845, 71.64214
166.6666, 72.73168
167.1487, 74.58568
167.6309, 78.18662
168.1130, 81.72918
168.5951, 83.93434
169.0772, 84.98327
169.5593, 85.89619
170.0414, 86.94029
170.5236, 88.29444
171.0057, 90.16811
171.4878, 93.12625
171.9699, 96.27235
172.4520, 98.70340
172.9341, 100.4888
173.4163, 102.3674
173.8984, 105.3667
174.3805, 108.7842
174.8626, 111.3674
175.3447, 111.5293
175.8268, 111.2676
176.3090, 113.1243
176.7911, 117.1015
177.2732, 121.3405
177.7553, 123.5915
178.2374, 124.3077
178.7195, 125.1111
179.2017, 127.0114
179.6838, 129.3071
180.1659, 130.6956
180.6480, 131.1214
181.1301, 131.6178
181.6122, 133.6278
182.0944, 136.6753
182.5765, 139.1327
183.0586, 139.6779
183.5407, 139.2567
184.0228, 140.1079
184.5049, 142.4193
184.9871, 145.0489
185.4692, 146.7307
185.9513, 147.5618
186.4334, 147.9385
186.9155, 147.9539
187.3976, 147.6590
187.8798, 147.2171
188.3619, 146.6336
188.8440, 145.9143
189.3261, 144.9236
189.8082, 143.6883
190.2903, 142.7203
190.7725, 142.2980
191.2546, 142.3670
191.7367, 142.7852
192.2188, 143.6862
192.7009, 144.5765
193.1830, 144.4900
193.6652, 143.4273
194.1473, 142.2968
194.6294, 141.5258
195.1115, 141.1028
195.5936, 140.9816
196.0757, 141.2381
196.5579, 141.6534
197.0400, 141.6493
197.5221, 141.1497
198.0042, 141.0152
198.4863, 141.9013
198.9684, 143.8178
199.4506, 145.5353
199.9327, 146.9217
200.4148, 148.1119
200.8969, 149.4944
201.3790, 151.1903
201.8611, 152.5193
202.3433, 152.9464
202.8254, 152.3863
203.3075, 151.9429
203.7896, 151.6324
204.2717, 151.5384
204.7538, 151.9611
205.2360, 153.0036
205.7181, 154.1658
206.2002, 155.0948
206.6823, 155.7086
207.1644, 156.6775
207.6465, 158.2904
208.1287, 160.1575
208.6108, 161.0784
209.0929, 160.8270
209.5750, 160.2574
210.0571, 159.9069
210.5392, 159.8599
211.0214, 159.6077
211.5035, 159.0253
211.9856, 158.2397
212.4677, 157.6763
212.9498, 157.3875
213.4319, 157.2094
213.9141, 157.1705
214.3962, 157.5034
214.8783, 157.0820
215.3604, 155.4854
215.8425, 153.1100
216.3246, 151.7134
216.8067, 151.7208
217.2889, 151.8567
217.7710, 151.2343
218.2531, 149.4302
218.7352, 148.1571
219.2173, 147.8023
219.6994, 148.0770
220.1816, 147.5149
220.6637, 145.5003
221.1458, 143.6862
221.6279, 143.3338
222.1100, 145.3460
222.5921, 146.3950
223.0743, 146.0200
223.5564, 144.4788
224.0385, 142.8361
224.5206, 140.8620
225.0027, 139.2047
225.4848, 138.3667
225.9670, 138.8126
226.4491, 138.9825
226.9312, 138.7538
227.4133, 138.1646
227.8954, 137.3067
228.3775, 135.9585
228.8597, 134.6910
229.3418, 133.9084
229.8239, 133.8866
230.3060, 133.6867
230.7881, 133.0943
231.2702, 132.2497
231.7524, 131.9394
232.2345, 132.6643
232.7166, 133.2139
233.1987, 132.7122
233.6808, 130.2138
234.1629, 128.8200
234.6451, 129.2728
235.1272, 131.0111
235.6093, 131.4766
236.0914, 129.8210
236.5735, 128.0586
237.0556, 127.3860
237.5378, 128.5022
238.0199, 129.1441
238.5020, 128.8565
238.9841, 128.0008
239.4662, 128.1944
239.9483, 130.4684
240.4305, 132.3919
240.9126, 132.5256
241.3947, 129.6737
241.8768, 127.7235
242.3589, 127.2896
242.8410, 127.8523
243.3232, 127.4294
243.8053, 125.1115
244.2874, 123.0611
244.7695, 122.4294
245.2516, 123.7809
245.7337, 125.3099
246.2159, 127.2348
246.6980, 129.2689
247.1801, 130.4158
247.6622, 130.2935
248.1443, 129.8752
248.6264, 129.6298
249.1086, 129.7187
249.5907, 129.5446
250.0728, 128.8232
250.5549, 127.9112
251.0370, 127.8561
251.5191, 129.2438
252.0013, 130.5648
252.4834, 131.0844
252.9655, 130.3162
253.4476, 130.0694
253.9297, 130.7187
254.4118, 131.7247
254.8940, 131.8117
255.3761, 130.5026
255.8582, 129.1117
256.3403, 128.1152
256.8224, 127.4569
257.3046, 127.4333
257.7867, 128.3421
258.2688, 129.6905
258.7509, 130.5300
259.2330, 130.7492
259.7151, 130.6577
260.1973, 130.1596
260.6794, 128.9344
261.1615, 128.8726
261.6436, 130.4633
262.1257, 132.7916
262.6078, 134.3445
263.0900, 134.9761
263.5721, 135.1517
264.0542, 134.9224
264.5363, 134.1949
265.0184, 133.6877
265.5005, 133.4298
265.9827, 133.3503
266.4648, 133.2698
266.9469, 133.0265
267.4290, 133.2919
267.9111, 134.6099
268.3932, 137.1158
268.8754, 138.0885
269.3575, 136.9181
269.8396, 135.1490
270.3217, 134.8814
270.8038, 136.5281
271.2859, 138.0772
271.7681, 139.0692
272.2502, 139.5012
272.7323, 139.1534
273.2144, 137.6965
273.6965, 136.1388
274.1786, 135.7768
274.6608, 136.9162
275.1429, 137.5384
275.6250, 136.9347
276.1071, 135.3339
276.5892, 134.4967
277.0714, 134.5810
277.5535, 135.0179
278.0356, 135.3129
278.5177, 135.4515
278.9998, 135.5713
279.4819, 135.6266
279.9641, 135.6974
280.4462, 136.2899
280.9283, 137.5655
281.4104, 138.6735
281.8925, 138.6662
282.3746, 137.5208
282.8568, 136.9972
283.3389, 137.5376
283.8210, 138.7626
284.3031, 139.5053
284.7852, 139.6862
285.2673, 140.1162
285.7495, 141.7399
286.2316, 144.4187
286.7137, 146.1738
287.1958, 146.5130
287.6779, 146.1779
288.1600, 146.7542
288.6422, 148.2552
289.1243, 149.7997
289.6064, 150.9792
290.0885, 151.7695
290.5706, 151.8523
291.0527, 151.0482
291.5349, 149.8912
292.0170, 149.1685
292.4991, 148.8646
292.9812, 148.7597
293.4633, 148.9723
293.9454, 149.3130
294.4276, 149.1329
294.9097, 148.3542
295.3918, 147.2605
295.8739, 146.0979
296.3560, 144.8990
296.8381, 143.7592
297.3203, 142.6070
297.8024, 141.5800
298.2845, 140.7995
298.7666, 140.2241
299.2487, 140.3482
299.7308, 142.4948
300.2130, 145.8771
300.6951, 148.1905
301.1772, 147.7577
301.6593, 146.1062
302.1414, 145.2368
302.6235, 145.1522
303.1057, 145.6813
303.5878, 147.3183
304.0699, 149.4146
304.5520, 150.6960
305.0341, 150.1863
305.5162, 149.2081
305.9984, 149.0805
306.4805, 149.7370
306.9626, 150.7160
307.4447, 152.0910
307.9268, 153.4792
308.4089, 154.2972
308.8911, 154.0598
309.3732, 153.7369
309.8553, 154.1733
310.3374, 155.1916
310.8195, 156.2046
311.3016, 156.3318
311.7838, 156.5739
312.2659, 158.0401
312.7480, 161.5263
313.2301, 164.8353
313.7122, 166.3532
314.1943, 166.7680
314.6765, 167.4933
315.1586, 169.1896
315.6407, 171.3722
316.1228, 173.9543
316.6049, 177.1133
317.0870, 179.7976
317.5692, 181.0615
318.0513, 181.6586
318.5334, 182.6337
319.0155, 184.7100
319.4976, 186.9057
319.9797, 188.6008
320.4619, 189.6698
320.9440, 191.3466
321.4261, 194.3860
321.9082, 198.0168
322.3903, 201.4987
322.8724, 205.1416
323.3546, 208.1448
323.8367, 209.8875
324.3188, 210.4353
324.8009, 211.6145
325.2830, 214.0361
325.7651, 216.9704
326.2473, 219.9422
326.7294, 223.4742
327.2115, 226.3988
327.6936, 227.9483
328.1757, 228.5564
328.6578, 230.4499
329.1400, 235.1606
329.6221, 239.9092
330.1042, 243.5706
330.5863, 245.7714
331.0684, 247.4878
331.5505, 248.3375
332.0327, 248.7604
332.5148, 249.7324
332.9969, 251.5303
333.4790, 253.5082
333.9611, 255.6132
334.4432, 258.0869
334.9254, 259.6049
335.4075, 259.6790
335.8896, 259.1790
336.3717, 259.2730
336.8538, 260.0507
337.3359, 261.2479
337.8180, 263.1412
338.3001, 265.6957
338.7823, 266.6302
339.2644, 265.4859
339.7465, 263.6285
340.2286, 262.4177
340.7107, 262.0242
341.1928, 261.2807
341.6750, 259.7228
342.1571, 257.7412
342.6392, 257.0728
343.1213, 257.8854
343.6034, 259.0948
344.0855, 260.1866
344.5677, 261.1313
345.0498, 261.2714
345.5319, 260.3685
346.0140, 258.8864
346.4961, 257.7375
346.9782, 256.9081
347.4604, 255.9040
347.9425, 254.2072
348.4246, 252.0716
348.9067, 250.5689
349.3888, 249.8381
349.8709, 249.3229
350.3531, 248.1458
350.8352, 246.5496
351.3173, 245.4412
351.7994, 245.6608
352.2815, 246.4510
352.7636, 246.4551
353.2458, 245.6705
353.7279, 244.8214
354.2100, 244.6645
354.6921, 244.8361
355.1742, 244.7126
355.6563, 244.0687
356.1385, 243.0786
356.6206, 241.6043
357.1027, 239.7923
357.5848, 238.4100
358.0669, 238.2057
358.5490, 238.4875
359.0312, 238.5833
359.5133, 238.2583
359.9954, 237.9739
360.4775, 238.0359
360.9596, 238.3360
361.4417, 238.6395
361.9239, 238.5952
362.4060, 238.7304
362.8881, 239.4836
363.3702, 241.0676
363.8523, 242.3622
364.3344, 242.4470
364.8166, 242.2449
365.2987, 242.8144
365.7808, 245.3229
366.2629, 247.6921
366.7450, 249.2616
367.2271, 250.0231
367.7093, 250.9315
368.1914, 252.3741
368.6735, 253.8197
369.1556, 254.9255
369.6377, 254.9420
370.1198, 255.5170
370.6020, 257.0945
371.0841, 259.3255
371.5662, 260.9105
372.0483, 261.1647
372.5304, 261.5770
373.0125, 262.7952
373.4947, 265.0887
373.9768, 267.4910
374.4589, 270.4678
374.9410, 273.2077
375.4231, 274.1401
375.9052, 272.5260
376.3874, 271.2091
376.8695, 271.0700
377.3516, 272.0922
377.8337, 273.5258
378.3158, 275.7455
378.7979, 277.4306
379.2801, 276.9329
379.7622, 274.1414
380.2443, 271.5528
380.7264, 269.5834
381.2085, 268.1486
381.6906, 267.2791
382.1728, 266.9962
382.6549, 266.3112
383.1370, 264.1944
383.6191, 261.0302
384.1012, 258.4547
384.5833, 256.6648
385.0655, 255.2619
385.5476, 253.8319
386.0297, 252.3591
386.5118, 250.8729
386.9939, 249.3929
387.4760, 247.8896
387.9582, 246.3327
388.4403, 244.7107
388.9224, 242.9946
389.4045, 240.9519
389.8866, 238.8759
390.3687, 237.1965
390.8509, 236.4892
391.3330, 235.7866
391.8151, 234.2264
392.2972, 232.0232
392.7793, 230.0214
393.2614, 228.9370
393.7436, 228.0305
394.2257, 226.6677
394.7078, 224.4439
395.1899, 222.5089
395.6720, 221.2458
396.1541, 220.5286
396.6363, 220.1564
397.1184, 220.3109
397.6005, 220.5849
398.0826, 220.9115
398.5647, 221.3138
399.0468, 221.5137
399.5290, 221.4185
400.0111, 221.1463
400.4932, 220.7916
400.9753, 220.3213
401.4574, 219.8070
401.9395, 219.1525
402.4217, 218.4391
402.9038, 218.1535
403.3859, 218.8602
403.8680, 219.1677
404.3501, 218.1777
404.8322, 215.2299
405.3144, 213.3625
405.7965, 212.8022
406.2786, 213.0733
406.7607, 213.7323
407.2428, 215.0091
407.7249, 215.3634
408.2071, 213.9170
408.6892, 211.0322
409.1713, 209.0365
409.6534, 207.9850
410.1355, 207.4723
410.6176, 207.6318
411.0998, 208.2083
411.5819, 207.5989
412.0640, 205.2448
412.5461, 201.9789
413.0282, 198.7728
413.5103, 195.7029
413.9925, 193.1369
414.4746, 192.0047
414.9567, 191.2490
415.4388, 189.1064
415.9209, 185.3183
416.4030, 181.0962
416.8852, 177.3428
417.3673, 173.8170
417.8494, 170.1150
418.3315, 165.4232
418.8136, 161.0185
419.2957, 157.8451
419.7779, 155.7776
420.2600, 153.7613
420.7421, 151.5976
421.2242, 149.1470
421.7063, 146.2743
422.1884, 142.3833
422.6706, 139.0684
423.1527, 137.1864
423.6348, 136.0656
424.1169, 134.4325
424.5990, 131.3733
425.0811, 128.4479
425.5633, 126.1412
426.0454, 124.5223
426.5275, 123.0250
427.0096, 121.6698
427.4917, 120.3996
427.9738, 119.1855
428.4560, 118.1429
428.9381, 116.8823
429.4202, 115.1666
429.9023, 113.2593
430.3844, 112.1931
430.8665, 112.4277
431.3487, 112.2086
431.8308, 110.1981
432.3129, 106.2474
432.7950, 103.9116
433.2771, 103.5484
433.7592, 103.9689
434.2414, 103.7371
434.7235, 102.8897
435.2056, 101.8199
435.6877, 100.4664
436.1698, 99.10256
436.6519, 98.39654
437.1341, 98.32028
437.6162, 98.32554
438.0983, 97.95909
438.5804, 97.40961
439.0625, 97.08323
439.5446, 97.16637
440.0268, 97.07085
440.5089, 95.76089
440.9910, 93.89540
441.4731, 92.83828
441.9552, 94.25981
442.4373, 95.83950
442.9195, 95.91737
443.4016, 94.47852
443.8837, 93.13072
444.3658, 92.57221
444.8479, 92.34736
445.3300, 92.09768
445.8122, 91.45305
446.2943, 91.16357
446.7764, 91.74931
447.2585, 92.79333
447.7406, 93.22581
448.2227, 91.98160
448.7049, 91.11552
449.1870, 91.43034
449.6691, 93.25951
450.1512, 94.20040
450.6333, 93.77067
451.1154, 92.97039
451.5976, 92.79035
452.0797, 93.47199
452.5618, 93.96352
453.0439, 94.04192
453.5260, 93.86069
454.0081, 93.96912
454.4903, 94.43639
454.9724, 94.74620
455.4545, 94.51712
455.9366, 93.83320
456.4187, 93.21145
456.9008, 92.63895
457.3830, 92.30926
457.8651, 92.66380
458.3472, 93.49171
458.8293, 94.07577
459.3114, 93.99516
459.7935, 93.75403
460.2757, 94.07145
460.7578, 94.84077
461.2399, 95.53040
461.7220, 95.66871
462.2041, 95.65073
462.6862, 95.94597
463.1684, 96.75497
463.6505, 97.27307
464.1326, 96.63249
464.6147, 95.59146
465.0968, 95.12333
465.5789, 96.23798
466.0611, 97.24777
466.5432, 97.51432
467.0253, 97.11079
467.5074, 96.98939
467.9895, 97.41047
468.4716, 98.01975
468.9538, 98.69863
469.4359, 99.68995
469.9180, 100.1514
470.4001, 99.64932
470.8822, 98.91887
471.3643, 99.05683
471.8465, 100.1951
472.3286, 101.8680
472.8107, 104.2350
473.2928, 107.0442
473.7749, 108.8751
474.2570, 109.5657
474.7392, 110.0695
475.2213, 111.1132
475.7034, 112.6173
476.1855, 114.1350
476.6676, 115.7128
477.1497, 116.9849
477.6319, 117.2285
478.1140, 116.7030
478.5961, 116.2446
479.0782, 116.4994
479.5603, 116.8378
480.0424, 116.5607
480.5246, 115.6926
481.0067, 114.4602
481.4888, 112.7414
481.9709, 110.8712
482.4530, 109.1667
482.9352, 107.7643
483.4173, 106.3382
483.8994, 104.3024
484.3815, 102.2547
484.8636, 101.1254
485.3457, 102.2488
485.8279, 103.1543
486.3100, 103.0487
486.7921, 101.9139
487.2742, 101.0558
487.7563, 100.4078
488.2384, 100.0980
488.7206, 100.2716
489.2027, 101.2212
489.6848, 101.8671
490.1669, 102.1624
490.6490, 102.1899
491.1311, 101.8970
491.6133, 101.1546
492.0954, 101.0515
492.5775, 102.2413
493.0596, 104.2426
493.5417, 105.0442
494.0238, 104.6210
494.5060, 104.3438
494.9881, 105.3891
495.4702, 107.3470
495.9523, 109.3713
496.4344, 111.4427
496.9165, 113.0918
497.3987, 113.1454
497.8808, 112.5064
498.3629, 112.8780
498.8450, 115.8789
499.3271, 119.3502
499.8092, 121.8979
500.2914, 123.6793
500.7735, 125.3965
501.2556, 127.2449
501.7377, 129.2218
502.2198, 131.3589
502.7019, 133.7978
503.1841, 136.0959
503.6662, 137.9686
504.1483, 139.7787
504.6304, 141.9813
505.1125, 145.2973
505.5946, 147.7833
506.0768, 148.9968
506.5589, 149.1392
507.0410, 149.3852
507.5231, 150.0441
508.0052, 149.9385
508.4873, 147.9744
508.9695, 144.1513
509.4516, 141.6835
509.9337, 140.8581
510.4158, 140.2626
510.8979, 137.9903
511.3800, 134.4313
511.8622, 131.4381
512.3443, 129.5724
512.8264, 128.3874
513.3085, 127.6506
513.7906, 127.1574
514.2728, 126.1719
514.7549, 123.8230
515.2370, 121.1021
515.7191, 118.8398
516.2012, 117.1071
516.6833, 115.5505
517.1655, 113.7980
517.6476, 112.2408
518.1297, 111.2228
518.6118, 111.5079
519.0939, 111.4726
519.5760, 110.6091
520.0582, 109.2708
520.5403, 108.2780
521.0224, 107.7449
521.5045, 107.4357
521.9866, 107.5097
522.4688, 107.9614
522.9509, 107.1826
523.4330, 104.4772
523.9151, 102.1400
524.3972, 102.4079
524.8793, 105.3545
525.3615, 107.0758
525.8436, 106.9597
526.3257, 106.2956
526.8078, 107.4049
527.2899, 109.8250
527.7720, 111.2929
528.2542, 110.2384
528.7363, 108.2702
529.2184, 107.4188
529.7005, 107.5793
530.1826, 108.1345
530.6647, 109.1704
531.1469, 110.1558
531.6290, 110.4682
532.1111, 109.7967
532.5932, 109.5746
533.0753, 110.7983
533.5574, 112.5708
534.0396, 113.9410
534.5217, 113.9176
535.0038, 114.4753
535.4859, 116.3670
535.9680, 119.0708
536.4501, 120.9778
536.9323, 121.9692
537.4144, 122.3386
537.8965, 121.8829
538.3786, 120.5579
538.8607, 120.4561
539.3428, 121.8328
539.8250, 123.6434
540.3071, 124.9143
540.7892, 125.6934
541.2713, 126.6069
541.7534, 127.7524
542.2355, 129.0249
542.7177, 130.4370
543.1998, 131.8899
543.6819, 133.0298
544.1640, 133.2646
544.6461, 133.4007
545.1282, 134.4543
545.6104, 136.2335
546.0925, 137.5690
546.5746, 137.0436
547.0567, 136.4354
547.5388, 137.2154
548.0209, 140.2900
548.5031, 142.3380
548.9852, 141.4744
549.4673, 139.8322
549.9494, 139.7202
550.4315, 142.7610
550.9136, 144.8181
551.3958, 145.0897
551.8779, 144.1985
552.3600, 144.0659
552.8421, 144.9417
553.3242, 145.6896
553.8063, 145.7479
554.2885, 145.2248
554.7706, 145.0157
555.2527, 145.1488
555.7348, 145.3043
556.2169, 145.0425
556.6990, 144.5936
557.1812, 144.7055
557.6633, 145.6937
558.1454, 146.4851
558.6275, 145.6293
559.1096, 143.9145
559.5917, 142.7105
560.0739, 143.5818
560.5560, 144.1569
561.0381, 142.9563
561.5202, 140.3586
562.0023, 138.0243
562.4844, 136.4258
562.9666, 135.1276
563.4487, 134.0174
563.9308, 133.1492
564.4129, 132.1525
564.8950, 130.9140
565.3771, 129.6679
565.8593, 128.5715
566.3414, 127.6065
566.8235, 126.9679
567.3056, 126.9212
567.7877, 126.8177
568.2698, 125.1812
568.7520, 122.1016
569.2341, 119.3147
569.7162, 117.3819
570.1983, 116.1937
570.6804, 115.8217
571.1625, 116.1436
571.6447, 116.2861
572.1268, 115.6792
572.6089, 114.6197
573.0910, 113.3656
573.5731, 111.9256
574.0552, 110.3848
574.5374, 108.3754
575.0195, 106.4678
575.5016, 105.1854
575.9837, 105.0531
576.4658, 105.0312
576.9479, 105.2919
577.4301, 105.5371
577.9122, 105.1268
578.3943, 103.6792
578.8764, 102.3216
579.3585, 101.3921
579.8406, 100.8185
580.3228, 100.0651
580.8049, 99.09372
581.2870, 98.19170
581.7691, 97.46269
582.2512, 96.94831
582.7333, 96.91227
583.2155, 97.41841
583.6976, 97.93436
584.1797, 98.09208
584.6617, 97.89732
585.1439, 97.36860
585.6260, 96.53971
586.1081, 95.33025
586.5902, 92.90209
587.0723, 90.13329
587.5544, 88.74976
588.0366, 90.74203
588.5187, 92.63511
589.0008, 93.13350
589.4829, 92.29572
589.9650, 91.95748
590.4471, 92.46546
590.9293, 93.02353
591.4114, 93.33875
591.8935, 93.46003
592.3756, 92.89589
592.8577, 91.45712
593.3398, 89.83610
593.8220, 88.75173
594.3041, 88.14498
594.7862, 87.49901
595.2683, 86.62922
595.7504, 85.93375
596.2325, 86.24110
596.7147, 87.15291
597.1968, 87.62777
597.6789, 86.75500
598.1610, 85.66447
598.6431, 85.35278
599.1252, 85.60303
599.6074, 85.38665
600.0895, 83.44288
600.5716, 81.70230
601.0537, 81.35042
601.5358, 82.96041
602.0179, 83.56944
602.5001, 82.68262
602.9822, 81.24544
603.4643, 79.94130
603.9464, 78.82864
604.4285, 77.47542
604.9106, 75.62526
605.3928, 73.92477
605.8749, 73.54712
606.3570, 74.39110
606.8391, 75.13184
607.3212, 75.32048
607.8033, 75.25241
608.2855, 75.61890
608.7676, 76.18569
609.2497, 76.10253
609.7318, 74.05760
610.2139, 71.79057
610.6960, 70.79513
611.1782, 71.10135
611.6603, 71.39858
612.1424, 71.23104
612.6245, 70.90827
613.1066, 70.58152
613.5887, 70.09766
614.0709, 70.03215
614.5530, 70.74886
615.0351, 71.55833
615.5172, 71.75462
615.9993, 71.26969
616.4814, 70.36366
616.9636, 68.79550
617.4457, 67.24295
617.9278, 67.30433
618.4099, 68.81716
618.8920, 70.08971
619.3741, 70.43471
619.8563, 70.14000
620.3384, 69.37527
620.8205, 68.24796
621.3026, 67.29840
621.7847, 66.70450
622.2668, 66.50079
622.7490, 66.94312
623.2311, 68.13995
623.7132, 68.87566
624.1953, 68.39017
624.6774, 67.63149
625.1595, 67.24644
625.6417, 67.28076
626.1238, 67.65361
626.6059, 68.52385
627.0880, 69.55569
627.5701, 70.35316
628.0522, 70.92437
628.5344, 71.16241
629.0165, 70.96955
629.4986, 70.54429
629.9807, 70.14712
630.4628, 69.81621
630.9449, 69.76307
631.4271, 70.40488
631.9092, 71.17127
632.3913, 71.34463
632.8734, 71.01772
633.3555, 70.79575
633.8376, 70.70139
634.3198, 71.02016
634.8019, 72.14491
635.2840, 74.39067
635.7661, 75.95751
636.2482, 76.36226
636.7303, 76.30299
637.2125, 76.17509
637.6946, 75.82666
638.1767, 75.89164
638.6588, 76.48918
639.1409, 77.33849
639.6230, 78.06303
640.1052, 78.67153
640.5873, 79.21329
641.0694, 79.62630
641.5515, 80.10035
642.0336, 81.10502
642.5157, 82.42384
642.9979, 83.44074
643.4800, 83.11014
643.9621, 82.97493
644.4442, 84.59960
644.9263, 87.61385
645.4084, 89.75954
645.8906, 89.31913
646.3727, 88.69566
646.8548, 89.10860
647.3369, 90.74104
647.8190, 92.02708
648.3011, 92.82284
648.7833, 93.47258
649.2654, 94.03130
649.7475, 94.43273
650.2296, 95.98592
650.7117, 99.05214
651.1938, 102.1633
651.6760, 102.9644
652.1581, 102.2387
652.6402, 102.4857
653.1223, 104.7476
653.6044, 107.3509
654.0865, 108.5905
654.5687, 109.1387
655.0508, 110.2941
655.5329, 112.8370
656.0150, 115.7872
656.4971, 118.9796
656.9792, 122.3334
657.4614, 125.4724
657.9435, 128.0920
658.4256, 130.8837
658.9077, 133.9653
659.3898, 137.3540
659.8719, 141.5806
