##NAMES=Pyrolusite
##RRUFFID=R040153
##IDEAL CHEMISTRY=Mn^4+^O_2_
##LOCALITY=San Carlos mine, Mapimi, Durango, Mexico
##OWNER=RRUFF
##SOURCE=University of Arizona Mineral Museum
##DESCRIPTION=Gray massive with small crystals in crevices
##STATUS=The identification of this mineral has been confirmed by X-ray diffraction and chemical analysis
##URL=rruff.info/R040153
##MEASURED CHEMISTRY=(Mn_0.97_Zn_0.02_Fe_0.01_)O_2_
199.685, 379.377
200.167, 381.502
200.650, 383.393
201.132, 386.716
201.614, 388.802
202.096, 386.165
202.578, 377.917
203.060, 368.338
203.542, 365.254
204.024, 372.025
204.506, 378.268
204.988, 384.180
205.471, 388.656
205.953, 390.626
206.435, 389.890
206.917, 387.428
207.399, 384.367
207.881, 379.704
208.363, 376.957
208.845, 375.949
209.328, 376.885
209.810, 381.477
210.292, 389.462
210.774, 396.999
211.256, 398.178
211.738, 389.863
212.220, 384.371
212.702, 383.914
213.184, 384.817
213.667, 385.255
214.149, 384.924
214.631, 384.462
215.113, 384.414
215.595, 384.533
216.077, 386.039
216.559, 391.451
217.041, 396.176
217.523, 397.806
218.006, 396.384
218.488, 393.583
218.970, 390.919
219.452, 388.441
219.934, 385.826
220.416, 380.845
220.898, 377.694
221.380, 379.859
221.863, 385.900
222.345, 390.897
222.827, 389.609
223.309, 381.654
223.791, 377.538
224.273, 382.583
224.755, 386.541
225.237, 385.879
225.719, 381.286
226.202, 374.766
226.684, 366.765
227.166, 357.656
227.648, 353.469
228.130, 360.195
228.612, 364.830
229.094, 361.353
229.577, 353.081
230.059, 345.913
230.541, 343.239
231.023, 344.575
231.505, 348.231
231.987, 357.272
232.469, 363.903
232.951, 365.342
233.433, 363.399
233.915, 360.321
234.398, 356.876
234.880, 353.447
235.362, 351.220
235.844, 350.949
236.326, 350.319
236.808, 347.465
237.290, 344.414
237.772, 343.491
238.255, 345.731
238.737, 349.782
239.219, 354.238
239.701, 360.536
240.183, 362.528
240.665, 354.480
241.147, 343.681
241.629, 335.648
242.111, 331.832
242.594, 330.657
243.076, 330.763
243.558, 332.422
244.040, 333.532
244.522, 332.751
245.004, 331.806
245.486, 332.393
245.968, 334.728
246.451, 336.419
246.933, 333.786
247.415, 326.962
247.897, 324.356
248.379, 331.293
248.861, 339.043
249.343, 340.676
249.825, 336.403
250.307, 331.275
250.790, 328.437
251.272, 327.552
251.754, 327.048
252.236, 326.760
252.718, 326.866
253.200, 327.562
253.682, 328.746
254.164, 330.043
254.646, 330.284
255.129, 330.641
255.611, 334.863
256.093, 345.003
256.575, 353.608
257.057, 353.259
257.539, 347.139
258.021, 341.826
258.503, 339.535
258.986, 338.901
259.468, 338.843
259.950, 339.547
260.432, 338.766
260.914, 333.426
261.396, 325.901
261.878, 321.670
262.360, 322.513
262.842, 325.694
263.325, 330.107
263.807, 335.487
264.289, 339.406
264.771, 340.153
265.253, 339.022
265.735, 339.594
266.217, 343.827
266.699, 346.316
267.181, 342.396
267.664, 334.499
268.146, 329.363
268.628, 329.717
269.110, 333.393
269.592, 336.626
270.074, 339.664
270.556, 341.843
271.039, 342.233
271.521, 341.918
272.003, 342.874
272.485, 345.713
272.967, 348.292
273.449, 347.244
273.931, 340.726
274.413, 337.746
274.895, 341.799
275.378, 347.611
275.860, 351.095
276.342, 351.716
276.824, 350.488
277.306, 348.018
277.788, 344.004
278.270, 341.771
278.752, 340.505
279.234, 341.473
279.717, 347.417
280.199, 356.513
280.681, 363.358
281.163, 363.803
281.645, 358.708
282.127, 357.296
282.609, 364.703
283.091, 369.791
283.573, 368.095
284.056, 363.060
284.538, 360.255
285.020, 362.466
285.502, 367.386
285.984, 368.459
286.466, 361.855
286.948, 356.707
287.431, 353.862
287.913, 352.445
288.395, 351.827
288.877, 351.785
289.359, 352.243
289.841, 353.379
290.323, 356.063
290.805, 356.950
291.287, 353.052
291.770, 349.792
292.252, 351.629
292.734, 357.774
293.216, 362.828
293.698, 360.385
294.180, 350.030
294.662, 345.302
295.144, 352.451
295.626, 358.472
296.109, 357.254
296.591, 351.044
297.073, 345.049
297.555, 342.736
298.037, 342.573
298.519, 339.153
299.001, 330.019
299.483, 323.395
299.966, 325.052
300.448, 330.170
300.930, 333.049
301.412, 331.436
301.894, 328.284
302.376, 327.989
302.858, 330.846
303.340, 330.940
303.822, 323.384
304.305, 314.332
304.787, 310.904
305.269, 314.080
305.751, 319.016
306.233, 323.928
306.715, 328.320
307.197, 330.302
307.679, 328.804
308.161, 326.204
308.644, 325.487
309.126, 326.480
309.608, 326.598
310.090, 324.705
310.572, 321.804
311.054, 318.433
311.536, 314.661
312.018, 312.455
312.500, 314.022
312.983, 319.155
313.465, 322.151
313.947, 322.794
314.429, 321.579
314.911, 316.848
315.393, 310.191
315.875, 306.426
316.358, 308.585
316.840, 314.750
317.322, 317.845
317.804, 314.823
318.286, 312.766
318.768, 312.667
319.250, 313.984
319.732, 316.928
320.214, 321.363
320.697, 325.211
321.179, 324.635
321.661, 315.412
322.143, 311.615
322.625, 318.576
323.107, 325.777
323.589, 325.518
324.071, 318.679
324.553, 312.199
325.036, 312.881
325.518, 320.824
326.000, 324.976
326.482, 321.669
326.964, 318.321
327.446, 317.519
327.928, 317.916
328.410, 317.040
328.892, 313.354
329.375, 308.268
329.857, 305.531
330.339, 306.401
330.821, 306.164
331.303, 301.246
331.785, 295.959
332.267, 294.172
332.749, 296.779
333.232, 300.931
333.714, 305.130
334.196, 309.178
334.678, 309.093
335.160, 300.703
335.642, 292.638
336.124, 294.210
336.606, 303.954
337.089, 311.247
337.571, 309.648
338.053, 303.503
338.535, 299.279
339.017, 297.409
339.499, 297.509
339.981, 300.368
340.463, 305.158
340.945, 307.964
341.427, 306.772
341.910, 305.326
342.392, 307.379
342.874, 311.129
343.356, 310.267
343.838, 300.943
344.320, 288.171
344.802, 283.931
345.284, 293.582
345.767, 301.771
346.249, 307.403
346.731, 310.537
347.213, 310.387
347.695, 307.156
348.177, 303.049
348.659, 300.342
349.141, 298.859
349.624, 299.886
350.106, 307.370
350.588, 313.150
351.070, 313.103
351.552, 308.735
352.034, 303.389
352.516, 298.928
352.998, 295.643
353.480, 295.235
353.963, 301.181
354.445, 303.872
354.927, 298.644
355.409, 291.345
355.891, 287.585
356.373, 288.924
356.855, 292.357
357.337, 294.785
357.819, 296.209
358.302, 296.516
358.784, 293.982
359.266, 292.262
359.748, 294.864
360.230, 300.873
360.712, 305.544
361.194, 305.606
361.676, 303.076
362.159, 301.464
362.641, 300.918
363.123, 301.081
363.605, 302.900
364.087, 305.021
364.569, 303.618
365.051, 294.102
365.533, 286.609
366.016, 288.610
366.498, 296.990
366.980, 304.322
367.462, 308.055
367.944, 309.300
368.426, 309.813
368.908, 309.759
369.390, 308.432
369.872, 305.269
370.354, 301.214
370.837, 295.645
371.319, 289.352
371.801, 285.474
372.283, 287.061
372.765, 294.038
373.247, 299.532
373.729, 302.881
374.211, 305.445
374.694, 308.471
375.176, 310.550
375.658, 309.001
376.140, 302.614
376.622, 294.624
377.104, 291.322
377.586, 294.143
378.068, 296.771
378.551, 297.668
379.033, 298.634
379.515, 301.042
379.997, 304.736
380.479, 308.084
380.961, 309.676
381.443, 309.993
381.925, 310.956
382.407, 313.119
382.890, 314.481
383.372, 313.510
383.854, 310.876
384.336, 307.528
384.818, 302.445
385.300, 298.214
385.782, 297.294
386.264, 298.954
386.746, 300.209
387.229, 299.520
387.711, 299.200
388.193, 304.132
388.675, 317.170
389.157, 325.482
389.639, 324.239
390.121, 320.027
390.603, 318.474
391.086, 319.813
391.568, 320.963
392.050, 319.195
392.532, 314.723
393.014, 312.621
393.496, 314.901
393.978, 317.315
394.460, 320.348
394.943, 322.632
395.425, 321.803
395.907, 317.081
396.389, 311.596
396.871, 311.068
397.353, 317.303
397.835, 320.237
398.317, 314.516
398.799, 309.158
399.281, 310.079
399.764, 315.945
400.246, 320.713
400.728, 319.714
401.210, 315.517
401.692, 314.177
402.174, 316.280
402.656, 317.628
403.138, 315.564
403.621, 311.541
404.103, 308.419
404.585, 306.467
405.067, 305.109
405.549, 304.204
406.031, 303.686
406.513, 303.553
406.995, 303.833
407.478, 304.034
407.960, 303.319
408.442, 301.184
408.924, 301.311
409.406, 308.098
409.888, 312.807
410.370, 308.993
410.852, 299.599
411.334, 291.581
411.817, 288.843
412.299, 290.150
412.781, 292.193
413.263, 296.479
413.745, 298.615
414.227, 297.693
414.709, 295.180
415.191, 291.662
415.673, 287.441
416.156, 283.230
416.638, 279.399
417.120, 276.037
417.602, 273.704
418.084, 272.238
418.566, 272.155
419.048, 275.663
419.530, 280.312
420.013, 282.107
420.495, 279.356
420.977, 275.032
421.459, 270.823
421.941, 266.902
422.423, 263.781
422.905, 261.496
423.387, 260.445
423.870, 261.525
424.352, 265.311
424.834, 268.299
425.316, 269.972
425.798, 271.071
426.280, 272.632
426.762, 274.150
427.244, 273.750
427.726, 270.009
428.208, 264.104
428.691, 260.632
429.173, 262.137
429.655, 262.212
430.137, 258.286
430.619, 254.179
431.101, 253.189
431.583, 255.604
432.065, 258.984
432.548, 261.499
433.030, 263.112
433.512, 263.267
433.994, 261.304
434.476, 259.145
434.958, 257.454
435.440, 256.316
435.922, 256.045
436.405, 257.193
436.887, 258.305
437.369, 257.405
437.851, 255.407
438.333, 256.141
438.815, 261.398
439.297, 266.633
439.779, 265.308
440.261, 255.488
440.744, 250.322
441.226, 253.954
441.708, 258.890
442.190, 261.000
442.672, 260.680
443.154, 259.493
443.636, 258.159
444.118, 257.268
444.600, 258.844
445.083, 265.982
445.565, 269.614
446.047, 267.523
446.529, 263.465
447.011, 258.569
447.493, 253.697
447.975, 251.005
448.457, 254.048
448.940, 260.461
449.422, 260.624
449.904, 252.387
450.386, 245.498
450.868, 245.666
451.350, 249.620
451.832, 252.397
452.314, 253.095
452.797, 254.115
453.279, 257.729
453.761, 262.240
454.243, 264.832
454.725, 264.971
455.207, 263.050
455.689, 259.016
456.171, 252.725
456.653, 247.968
457.135, 243.310
457.618, 241.537
458.100, 245.137
458.582, 251.630
459.064, 258.315
459.546, 264.100
460.028, 268.012
460.510, 268.228
460.992, 263.996
461.474, 259.635
461.957, 252.753
462.439, 248.656
462.921, 252.047
463.403, 259.947
463.885, 265.443
464.367, 265.119
464.849, 261.693
465.332, 257.669
465.814, 253.185
466.296, 250.004
466.778, 248.707
467.260, 248.923
467.742, 250.204
468.224, 252.432
468.706, 255.974
469.188, 263.702
469.671, 270.492
470.153, 272.237
470.635, 269.510
471.117, 264.752
471.599, 259.063
472.081, 253.480
472.563, 251.428
473.045, 255.589
473.527, 258.618
474.010, 258.954
474.492, 258.972
474.974, 260.590
475.456, 263.634
475.938, 266.359
476.420, 267.925
476.902, 268.111
477.384, 266.050
477.866, 261.493
478.349, 255.732
478.831, 246.852
479.313, 238.694
479.795, 237.751
480.277, 246.224
480.759, 254.217
481.241, 257.586
481.723, 258.476
482.206, 259.395
482.688, 260.667
483.170, 261.691
483.652, 261.941
484.134, 261.538
484.616, 261.531
485.098, 262.123
485.580, 262.897
486.062, 263.796
486.545, 264.874
487.027, 266.627
487.509, 268.913
487.991, 270.407
488.473, 268.863
488.955, 264.871
489.437, 264.151
489.919, 267.988
490.402, 272.081
490.884, 275.419
491.366, 277.270
491.848, 275.666
492.330, 268.509
492.812, 262.988
493.294, 265.823
493.776, 272.207
494.259, 272.630
494.741, 265.590
495.223, 258.521
495.705, 258.423
496.187, 265.063
496.669, 267.921
497.151, 262.953
497.633, 259.346
498.115, 259.783
498.598, 262.086
499.080, 264.266
499.562, 265.645
500.044, 265.938
500.526, 263.954
501.008, 259.852
501.490, 258.808
501.972, 262.991
502.454, 266.060
502.937, 262.109
503.419, 255.673
503.901, 253.792
504.383, 259.392
504.865, 265.414
505.347, 267.687
505.829, 267.386
506.311, 266.238
506.793, 264.590
507.276, 263.240
507.758, 262.831
508.240, 263.362
508.722, 264.978
509.204, 269.517
509.686, 272.854
510.168, 273.489
510.651, 272.851
511.133, 272.632
511.615, 273.169
512.097, 273.386
512.579, 271.365
513.061, 267.441
513.543, 266.354
514.025, 269.098
514.507, 272.434
514.990, 275.766
515.472, 278.239
515.954, 277.818
516.436, 272.434
516.918, 268.983
517.400, 273.501
517.882, 281.199
518.364, 284.522
518.846, 282.492
519.329, 278.774
519.811, 276.064
520.293, 274.425
520.775, 274.491
521.257, 277.667
521.739, 280.902
522.221, 285.101
522.703, 288.463
523.185, 288.468
523.668, 285.243
524.150, 282.406
524.632, 283.490
525.114, 287.588
525.596, 291.290
526.078, 294.703
526.560, 297.134
527.042, 297.399
527.524, 296.975
528.007, 299.072
528.489, 305.083
528.971, 308.944
529.453, 306.845
529.935, 302.960
530.417, 301.403
530.899, 302.328
531.381, 304.127
531.864, 305.903
532.346, 307.375
532.828, 307.396
533.310, 304.958
533.792, 303.009
534.274, 301.898
534.756, 301.298
535.238, 301.449
535.721, 302.046
536.203, 301.943
536.685, 299.814
537.167, 297.071
537.649, 296.490
538.131, 297.871
538.613, 297.910
539.095, 294.928
539.578, 290.976
540.060, 289.055
540.542, 289.379
541.024, 290.956
541.506, 296.056
541.988, 300.175
542.470, 300.342
542.952, 297.680
543.434, 294.144
543.917, 290.567
544.399, 288.346
544.881, 290.839
545.363, 299.111
545.845, 304.254
546.327, 304.706
546.809, 303.087
547.291, 299.386
547.773, 295.039
548.256, 293.357
548.738, 296.124
549.220, 300.148
549.702, 305.423
550.184, 309.983
550.666, 308.368
551.148, 299.587
551.630, 290.004
552.112, 285.679
552.595, 286.551
553.077, 288.654
553.559, 295.448
554.041, 299.244
554.523, 295.284
555.005, 289.987
555.487, 290.625
555.969, 297.905
556.451, 304.948
556.934, 305.508
557.416, 301.445
557.898, 297.604
558.380, 293.830
558.862, 292.471
559.344, 295.856
559.826, 301.308
560.308, 302.740
560.791, 298.373
561.273, 296.562
561.755, 301.541
562.237, 307.036
562.719, 307.608
563.201, 304.630
563.683, 303.124
564.165, 305.962
564.648, 310.672
565.130, 311.748
565.612, 308.310
566.094, 305.952
566.576, 306.428
567.058, 306.726
567.540, 302.862
568.022, 297.231
568.505, 296.840
568.987, 308.162
569.469, 319.076
569.951, 319.556
570.433, 313.947
570.915, 310.676
571.397, 311.680
571.879, 314.520
572.361, 316.983
572.844, 319.058
573.326, 320.548
573.808, 321.223
574.290, 321.585
574.772, 320.736
575.254, 320.249
575.736, 322.312
576.218, 326.878
576.700, 330.541
577.183, 329.785
577.665, 326.905
578.147, 326.999
578.629, 329.974
579.111, 331.061
579.593, 327.501
580.075, 322.186
580.557, 320.356
581.039, 323.795
581.522, 326.145
582.004, 327.186
582.486, 327.375
582.968, 327.336
583.450, 326.534
583.932, 323.414
584.414, 317.230
584.896, 310.806
585.378, 307.872
585.861, 308.320
586.343, 310.759
586.825, 316.486
587.307, 320.348
587.789, 316.781
588.271, 309.063
588.753, 307.304
589.235, 315.648
589.718, 323.070
590.200, 325.972
590.682, 326.496
591.164, 326.580
591.646, 326.473
592.128, 325.498
592.610, 322.947
593.092, 319.743
593.575, 319.044
594.057, 321.707
594.539, 323.657
595.021, 323.382
595.503, 322.989
595.985, 325.281
596.467, 329.180
596.949, 329.804
597.432, 321.282
597.914, 313.501
598.396, 314.033
598.878, 319.842
599.360, 326.101
599.842, 331.325
600.324, 333.935
600.806, 331.843
601.288, 325.273
601.771, 320.094
602.253, 315.389
602.735, 313.750
603.217, 317.728
603.699, 323.420
604.181, 328.599
604.663, 332.691
605.145, 333.521
605.627, 326.347
606.110, 317.675
606.592, 315.676
607.074, 319.456
607.556, 324.525
608.038, 329.303
608.520, 333.841
609.002, 338.727
609.484, 345.193
609.966, 345.894
610.449, 332.453
610.931, 322.634
611.413, 324.139
611.895, 330.740
612.377, 334.322
612.859, 332.879
613.341, 331.069
613.823, 332.637
614.305, 336.327
614.788, 340.856
615.270, 345.913
615.752, 346.850
616.234, 340.166
616.716, 330.451
617.198, 327.678
617.680, 335.845
618.162, 341.717
618.645, 343.604
619.127, 345.115
619.609, 349.740
620.091, 354.675
620.573, 353.629
621.055, 343.657
621.537, 334.197
622.019, 336.881
622.502, 348.120
622.984, 356.259
623.466, 360.131
623.948, 360.655
624.430, 357.343
624.912, 351.902
625.394, 349.605
625.876, 352.188
626.359, 355.215
626.841, 362.696
627.323, 366.912
627.805, 358.409
628.287, 343.394
628.769, 336.835
629.251, 346.727
629.733, 361.528
630.215, 365.951
630.698, 362.045
631.180, 360.270
631.662, 362.135
632.144, 365.522
632.626, 369.380
633.108, 373.447
633.590, 376.551
634.072, 379.417
634.554, 380.326
635.037, 375.710
635.519, 371.984
636.001, 375.384
636.483, 383.693
636.965, 389.795
637.447, 389.426
637.929, 386.981
638.411, 389.281
638.893, 395.479
639.376, 399.484
639.858, 399.798
640.340, 400.694
640.822, 406.159
641.304, 414.975
641.786, 420.141
642.268, 417.472
642.750, 417.256
643.232, 419.937
643.715, 425.830
644.197, 438.012
644.679, 453.787
645.161, 465.264
645.643, 467.176
646.125, 465.500
646.607, 470.376
647.089, 480.136
647.572, 482.172
648.054, 472.481
648.536, 465.692
649.018, 475.295
649.500, 497.874
649.982, 511.351
650.464, 506.761
650.946, 505.796
651.429, 512.168
651.911, 521.016
652.393, 530.317
652.875, 538.981
653.357, 544.989
653.839, 546.538
654.321, 546.940
654.803, 552.029
655.286, 560.096
655.768, 562.481
656.250, 557.204
656.732, 550.896
657.214, 548.052
657.696, 548.675
658.178, 552.728
658.660, 565.549
659.142, 574.203
659.625, 575.732
660.107, 575.192
660.589, 576.284
661.071, 578.136
661.553, 577.443
662.035, 572.146
662.517, 565.265
662.999, 558.987
663.481, 553.744
663.964, 551.688
664.446, 553.086
664.928, 553.382
665.410, 548.974
665.892, 541.193
666.374, 535.201
666.856, 531.002
667.338, 528.678
667.820, 532.253
668.303, 533.719
668.785, 527.314
669.267, 515.715
669.749, 505.010
670.231, 497.173
670.713, 491.090
671.195, 486.841
671.677, 483.446
672.159, 479.275
672.642, 474.130
673.124, 468.242
673.606, 461.443
674.088, 454.891
674.570, 452.193
675.052, 455.832
675.534, 455.860
676.016, 450.930
676.499, 443.252
676.981, 430.852
677.463, 417.393
677.945, 410.250
678.427, 412.889
678.909, 414.706
679.391, 409.358
679.873, 401.164
680.356, 394.592
680.838, 389.741
681.320, 385.118
681.802, 379.934
682.284, 374.904
682.766, 371.065
683.248, 368.430
683.730, 367.528
684.213, 369.985
684.695, 370.688
685.177, 366.079
685.659, 358.558
686.141, 351.786
686.623, 345.261
687.105, 341.884
687.587, 347.757
688.069, 351.817
688.552, 341.854
689.034, 325.690
689.516, 319.984
689.998, 329.913
690.480, 342.829
690.962, 343.257
691.444, 333.937
691.926, 329.277
692.408, 329.956
692.891, 329.651
693.373, 325.607
693.855, 319.775
694.337, 314.391
694.819, 308.940
695.301, 307.158
695.783, 313.770
696.265, 318.269
696.747, 315.577
697.230, 309.971
697.712, 306.500
698.194, 305.768
698.676, 304.542
699.158, 299.350
699.640, 293.225
700.122, 291.002
700.604, 292.043
701.086, 293.437
701.569, 294.356
702.051, 296.131
702.533, 300.622
703.015, 307.416
703.497, 310.495
703.979, 308.820
704.461, 305.254
704.943, 298.080
705.426, 291.009
705.908, 285.821
706.390, 282.818
706.872, 282.597
707.354, 286.952
707.836, 291.759
708.318, 294.941
708.800, 296.697
709.282, 297.015
709.765, 296.102
710.247, 294.659
710.729, 293.109
711.211, 291.483
711.693, 289.716
712.175, 287.733
712.657, 286.671
713.140, 287.266
713.622, 287.332
714.104, 284.513
714.586, 280.454
715.068, 279.843
715.550, 284.724
716.032, 288.118
716.514, 290.816
716.996, 290.003
717.479, 290.003
717.961, 290.003
718.443, 290.003
718.925, 290.003
719.407, 290.003
719.889, 290.003
720.371, 281.406
720.853, 281.931
721.335, 276.256
721.818, 272.549
722.300, 274.457
722.782, 278.137
723.264, 278.705
723.746, 276.516
724.228, 276.516
724.710, 276.516
725.192, 276.516
725.674, 276.516
726.157, 277.763
726.639, 279.920
727.121, 277.746
727.603, 272.745
728.085, 266.144
728.567, 261.761
729.049, 264.116
729.531, 269.606
730.013, 272.268
730.496, 271.459
730.978, 270.923
731.460, 273.807
731.942, 278.220
732.424, 278.554
732.906, 274.462
733.388, 273.991
733.870, 279.660
734.353, 285.401
734.835, 286.413
735.317, 284.193
735.799, 284.634
736.281, 289.053
736.763, 293.656
737.245, 301.621
737.727, 306.419
738.209, 301.408
738.692, 291.449
739.174, 285.591
739.656, 286.746
740.138, 289.468
740.620, 288.787
741.102, 287.435
741.584, 291.195
742.067, 298.655
742.549, 302.254
743.031, 298.968
743.513, 294.053
743.995, 295.014
744.477, 301.587
744.959, 301.858
745.441, 301.858
745.923, 301.858
746.406, 301.858
746.888, 301.858
747.370, 301.858
747.852, 301.858
748.334, 308.374
748.816, 314.554
749.298, 315.826
749.780, 307.609
750.263, 299.524
750.745, 303.856
751.227, 317.659
751.709, 326.721
752.191, 322.524
752.673, 314.000
753.155, 312.308
753.637, 315.359
754.119, 317.244
