##NAMES=Pyrolusite
##RRUFFID=R050361
##IDEAL CHEMISTRY=Mn^4+^O_2_
##LOCALITY=Serra do Navio, Amapa, Brazil
##OWNER=RRUFF
##SOURCE=University of Arizona Mineral Museum
##DESCRIPTION=Black prismatic crystals
##STATUS=The identification of this mineral has been confirmed by X-ray diffraction and chemical analysis
##URL=rruff.info/R050361
##MEASURED CHEMISTRY=Mn_1.00_O_2_
91.87140, 0.0000000E+00
92.35352, 5.793733
92.83563, 6.572196
93.31775, 6.904108
93.79987, 6.508301
94.28198, 5.628682
94.76410, 4.969729
95.24622, 4.701205
95.72833, 4.694411
96.21045, 4.751105
96.69257, 4.879532
97.17468, 4.949119
97.65680, 4.690261
98.13892, 4.114314
98.62103, 3.938261
99.10315, 4.536967
99.58527, 5.743970
100.0674, 6.296248
100.5495, 5.993874
101.0316, 5.465459
101.5137, 5.565793
101.9958, 6.521877
102.4780, 7.299877
102.9601, 7.459426
103.4422, 6.838940
103.9243, 6.669770
104.4064, 7.020386
104.8885, 7.775646
105.3707, 8.807956
105.8528, 10.46830
106.3349, 11.90115
106.8170, 12.78978
107.2991, 13.07516
107.7813, 12.90019
108.2634, 11.74449
108.7455, 10.05049
109.2276, 9.335737
109.7097, 10.56369
110.1918, 12.07181
110.6740, 13.17368
111.1561, 13.44339
111.6382, 13.76557
112.1203, 14.09103
112.6024, 14.46904
113.0845, 15.18324
113.5667, 16.76733
114.0488, 18.42850
114.5309, 19.64891
115.0130, 19.86953
115.4951, 20.04249
115.9772, 20.52081
116.4594, 21.30126
116.9415, 21.90141
117.4236, 22.03718
117.9057, 21.93524
118.3878, 21.83865
118.8699, 21.52151
119.3521, 21.46328
119.8342, 21.93339
120.3163, 22.95997
120.7984, 24.39148
121.2805, 26.59101
121.7626, 29.10487
122.2448, 31.15749
122.7269, 32.65721
123.2090, 33.38858
123.6911, 32.89641
124.1732, 30.90198
124.6553, 28.65103
125.1375, 26.98457
125.6196, 25.93270
126.1017, 25.59048
126.5838, 26.46532
127.0659, 28.02318
127.5480, 29.33297
128.0302, 30.27806
128.5123, 30.91900
128.9944, 31.26526
129.4765, 31.33523
129.9586, 31.30113
130.4407, 31.34787
130.9229, 31.41270
131.4050, 31.18697
131.8871, 30.47403
132.3692, 29.56765
132.8513, 29.09696
133.3334, 29.02182
133.8156, 29.19268
134.2977, 29.78499
134.7798, 30.87347
135.2619, 31.63500
135.7440, 31.70335
136.2261, 31.31290
136.7083, 31.64216
137.1904, 32.79850
137.6725, 34.29982
138.1546, 35.92508
138.6367, 37.87659
139.1188, 38.91988
139.6010, 38.64802
140.0831, 37.07053
140.5652, 35.12194
141.0473, 32.46002
141.5294, 29.85829
142.0115, 28.44831
142.4937, 28.65899
142.9758, 28.98164
143.4579, 28.90188
143.9400, 28.22547
144.4221, 28.10407
144.9042, 28.70023
145.3864, 29.74386
145.8685, 30.84309
146.3506, 32.56192
146.8327, 33.59513
147.3148, 33.36290
147.7969, 30.91240
148.2791, 29.36138
148.7612, 29.12217
149.2433, 29.73042
149.7254, 30.12646
150.2075, 30.11470
150.6896, 30.06142
151.1718, 30.09109
151.6539, 30.14063
152.1360, 30.36037
152.6181, 30.97590
153.1002, 31.79832
153.5823, 32.25856
154.0645, 32.16108
154.5466, 31.81673
155.0287, 31.36868
155.5108, 30.73514
155.9929, 30.10772
156.4750, 29.48698
156.9572, 28.88557
157.4393, 28.37259
157.9214, 27.90352
158.4035, 27.55538
158.8856, 27.37391
159.3677, 27.53349
159.8499, 27.69485
160.3320, 27.65042
160.8141, 27.46508
161.2962, 27.54525
161.7783, 28.50439
162.2604, 29.57078
162.7426, 30.10807
163.2247, 29.54709
163.7068, 28.75601
164.1889, 27.91978
164.6710, 27.07879
165.1531, 26.63655
165.6353, 27.30865
166.1174, 28.31024
166.5995, 28.79632
167.0816, 27.82216
167.5637, 26.71265
168.0458, 26.33376
168.5280, 26.70095
169.0101, 27.28511
169.4922, 28.00237
169.9743, 28.67710
170.4564, 29.05764
170.9385, 28.94582
171.4207, 28.55499
171.9028, 27.95948
172.3849, 27.15032
172.8670, 26.46347
173.3491, 26.19194
173.8312, 26.22049
174.3134, 26.32960
174.7955, 26.53039
175.2776, 26.70909
175.7597, 26.65870
176.2418, 26.33470
176.7239, 26.06840
177.2061, 26.33829
177.6882, 26.93823
178.1703, 27.30359
178.6524, 26.84072
179.1345, 26.05085
179.6166, 25.89576
180.0988, 26.52813
180.5809, 27.25571
181.0630, 27.18796
181.5451, 26.49723
182.0272, 25.87718
182.5093, 25.74002
182.9915, 25.93008
183.4736, 26.05787
183.9557, 26.07486
184.4378, 26.11096
184.9199, 26.45498
185.4020, 27.04326
185.8842, 27.46766
186.3663, 27.46085
186.8484, 27.09729
187.3305, 26.57688
187.8126, 25.83644
188.2947, 25.13436
188.7769, 24.96582
189.2590, 25.30660
189.7411, 25.65493
190.2232, 25.62676
190.7053, 25.30914
191.1874, 25.30835
191.6696, 25.75455
192.1517, 26.37979
192.6338, 26.68211
193.1159, 26.65298
193.5980, 26.54282
194.0801, 26.52946
194.5623, 26.59764
195.0444, 26.49172
195.5265, 26.13725
196.0086, 25.67195
196.4907, 25.37537
196.9728, 25.25455
197.4550, 25.23897
197.9371, 25.34581
198.4192, 25.57902
198.9013, 25.66808
199.3834, 25.54942
199.8655, 25.31581
200.3477, 25.17991
200.8298, 25.14734
201.3119, 25.19183
201.7940, 25.34618
202.2761, 25.63199
202.7582, 25.78014
203.2404, 25.74614
203.7225, 25.57665
204.2046, 25.34015
204.6867, 24.97036
205.1688, 24.75986
205.6509, 24.98312
206.1331, 25.73908
206.6152, 26.26818
207.0973, 26.44591
207.5794, 26.38757
208.0615, 26.46400
208.5436, 26.73174
209.0258, 26.98586
209.5079, 27.08463
209.9900, 26.99249
210.4721, 26.92179
210.9542, 26.92469
211.4363, 26.94825
211.9185, 26.77771
212.4006, 26.31452
212.8827, 25.86752
213.3648, 25.65476
213.8469, 25.74744
214.3290, 25.79540
214.8112, 25.74900
215.2933, 25.64411
215.7754, 25.61226
216.2575, 25.67727
216.7396, 25.77009
217.2217, 25.85976
217.7039, 25.96304
218.1860, 26.00655
218.6681, 25.96134
219.1502, 25.85643
219.6323, 25.81617
220.1144, 25.91302
220.5966, 25.95156
221.0787, 25.77862
221.5608, 25.24164
222.0429, 24.92137
222.5250, 24.92724
223.0071, 25.16737
223.4893, 25.32163
223.9714, 25.42774
224.4535, 25.39288
224.9356, 25.11783
225.4177, 24.40754
225.8998, 23.93771
226.3820, 23.78685
226.8641, 23.89177
227.3462, 24.06522
227.8283, 24.39676
228.3104, 24.66009
228.7925, 24.73139
229.2747, 24.55201
229.7568, 24.29865
230.2389, 23.90798
230.7210, 23.45538
231.2031, 23.18625
231.6852, 23.10480
232.1674, 23.19904
232.6495, 23.51583
233.1316, 24.29535
233.6137, 24.73660
234.0958, 24.64304
234.5779, 24.23242
235.0601, 24.14496
235.5422, 24.61897
236.0243, 25.07004
236.5064, 25.23057
236.9885, 24.97348
237.4706, 24.69814
237.9528, 24.36315
238.4349, 24.02511
238.9170, 23.83651
239.3991, 23.85807
239.8812, 23.93803
240.3633, 24.01013
240.8455, 24.04314
241.3276, 24.15801
241.8097, 24.43905
242.2918, 24.76910
242.7739, 24.87104
243.2560, 24.60704
243.7382, 24.32805
244.2203, 24.16951
244.7024, 24.17768
245.1845, 24.17467
245.6666, 24.14417
246.1487, 24.11044
246.6309, 24.11622
247.1130, 24.15237
247.5951, 24.24496
248.0772, 24.42512
248.5593, 24.74812
249.0414, 24.95102
249.5236, 24.96720
250.0057, 24.90480
250.4878, 24.94901
250.9699, 25.15910
251.4520, 25.37503
251.9341, 25.59222
252.4163, 25.87592
252.8984, 25.81022
253.3805, 25.18466
253.8626, 24.36815
254.3447, 23.91604
254.8268, 23.91286
255.3090, 24.09126
255.7911, 24.43594
256.2732, 24.99114
256.7553, 25.34523
257.2374, 25.43859
257.7195, 25.38960
258.2017, 25.30937
258.6838, 25.10537
259.1659, 25.09149
259.6480, 25.44164
260.1301, 26.17888
260.6122, 26.57449
261.0944, 26.55064
261.5765, 26.28060
262.0586, 25.89546
262.5407, 25.29234
263.0228, 24.87618
263.5049, 24.83247
263.9871, 25.13470
264.4692, 25.03153
264.9513, 24.24463
265.4334, 23.49578
265.9155, 23.59499
266.3976, 24.92499
266.8798, 25.77425
267.3619, 25.67327
267.8440, 24.77268
268.3261, 24.32913
268.8082, 24.47413
269.2903, 24.79886
269.7725, 24.97154
270.2546, 24.94334
270.7367, 24.99714
271.2188, 25.24349
271.7009, 25.58827
272.1830, 25.55665
272.6652, 24.99520
273.1473, 24.47840
273.6294, 24.49121
274.1115, 25.16395
274.5936, 25.53537
275.0757, 25.41513
275.5579, 25.00338
276.0400, 24.88430
276.5221, 25.10305
277.0042, 25.43099
277.4863, 25.82771
277.9684, 26.32168
278.4506, 26.44838
278.9327, 26.08416
279.4148, 25.45442
279.8969, 25.00167
280.3790, 24.73090
280.8611, 24.60233
281.3433, 24.64014
281.8254, 24.84338
282.3075, 25.03014
282.7896, 25.21830
283.2717, 25.34083
283.7538, 25.22847
284.2360, 24.86971
284.7181, 24.57687
285.2002, 24.52777
285.6823, 24.69136
286.1644, 24.76665
286.6465, 24.72786
287.1287, 24.69100
287.6108, 24.89587
288.0929, 25.31977
288.5750, 25.53874
289.0571, 25.27884
289.5392, 24.68377
290.0214, 24.34274
290.5035, 24.27554
290.9856, 24.30344
291.4677, 24.28193
291.9498, 24.20754
292.4319, 24.04365
292.9141, 23.67085
293.3962, 23.25918
293.8783, 23.29662
294.3604, 23.79007
294.8425, 24.30001
295.3246, 24.41032
295.8068, 24.22374
296.2889, 24.09311
296.7710, 24.14781
297.2531, 24.24396
297.7352, 24.10776
298.2173, 23.76362
298.6995, 23.41188
299.1816, 23.14665
299.6637, 22.98388
300.1458, 22.97611
300.6279, 23.15670
301.1100, 23.43958
301.5922, 23.83622
302.0743, 24.28308
302.5564, 24.52364
303.0385, 24.16026
303.5206, 23.57804
304.0027, 23.35897
304.4849, 23.63308
304.9670, 24.04872
305.4491, 24.31707
305.9312, 24.47001
306.4133, 24.58404
306.8954, 24.76460
307.3776, 24.89012
307.8597, 24.77133
308.3418, 24.37176
308.8239, 24.01923
309.3060, 24.05308
309.7881, 24.27840
310.2703, 24.38632
310.7524, 24.17208
311.2345, 23.85579
311.7166, 23.50568
312.1987, 23.13495
312.6808, 22.97632
313.1630, 23.43686
313.6451, 24.07379
314.1272, 24.41392
314.6093, 24.14795
315.0914, 23.69213
315.5735, 23.05243
316.0557, 22.31212
316.5378, 21.91453
317.0199, 22.47548
317.5020, 23.20222
317.9841, 23.48873
318.4662, 22.80771
318.9484, 22.25100
319.4305, 22.26320
319.9126, 22.67954
320.3947, 23.06721
320.8768, 23.37017
321.3589, 23.56063
321.8411, 23.60759
322.3232, 23.44963
322.8053, 23.28920
323.2874, 23.08793
323.7695, 22.92101
324.2516, 22.90756
324.7338, 23.23910
325.2159, 23.56693
325.6980, 23.84017
326.1801, 24.11124
326.6622, 24.07220
327.1443, 23.29083
327.6265, 22.36835
328.1086, 21.90933
328.5907, 22.19760
329.0728, 22.64921
329.5549, 23.29323
330.0370, 24.13615
330.5192, 24.70287
331.0013, 24.97774
331.4834, 24.99600
331.9655, 24.75713
332.4476, 24.03485
332.9297, 23.44329
333.4119, 23.07268
333.8940, 22.87746
334.3761, 22.63685
334.8582, 22.20916
335.3403, 21.96602
335.8224, 22.18237
336.3046, 23.14651
336.7867, 23.69272
337.2688, 23.69922
337.7509, 23.35649
338.2330, 23.02296
338.7151, 22.69000
339.1973, 22.39738
339.6794, 22.10131
340.1615, 21.78872
340.6436, 21.88507
341.1257, 22.52968
341.6078, 23.27805
342.0900, 23.49601
342.5721, 23.13688
343.0542, 22.84216
343.5363, 22.81383
344.0184, 22.99937
344.5005, 23.23990
344.9827, 23.56076
345.4648, 23.73877
345.9469, 23.40411
346.4290, 22.64515
346.9111, 22.21675
347.3932, 22.34070
347.8754, 22.75528
348.3575, 22.96187
348.8396, 22.97671
349.3217, 22.99914
349.8038, 23.22428
350.2859, 23.55284
350.7681, 23.71558
351.2502, 23.64719
351.7323, 23.54037
352.2144, 23.64459
352.6965, 23.89957
353.1786, 24.12005
353.6608, 24.23393
354.1429, 24.25313
354.6250, 24.10501
355.1071, 23.77796
355.5892, 23.60012
356.0714, 24.08364
356.5535, 24.82527
357.0356, 25.22579
357.5177, 24.81534
357.9998, 24.19942
358.4819, 23.71371
358.9641, 23.36637
359.4462, 23.22315
359.9283, 23.59511
360.4104, 24.03749
360.8925, 24.14249
361.3746, 23.56958
361.8568, 23.08088
362.3389, 23.14683
362.8210, 23.52868
363.3031, 23.68604
363.7852, 23.24705
364.2673, 22.70748
364.7495, 22.27956
365.2316, 21.98894
365.7137, 21.79819
366.1958, 21.61011
366.6779, 21.55145
367.1600, 21.76982
367.6422, 23.03101
368.1243, 23.79563
368.6064, 23.47520
369.0885, 21.99085
369.5706, 21.06007
370.0527, 20.95928
370.5349, 21.19088
371.0170, 21.46572
371.4991, 22.00599
371.9812, 22.18659
372.4633, 21.74266
372.9454, 20.91651
373.4276, 20.59089
373.9097, 20.96969
374.3918, 21.49045
374.8739, 21.92002
375.3560, 22.27292
375.8381, 22.50447
376.3203, 22.63230
376.8024, 22.61348
377.2845, 22.29281
377.7666, 21.58751
378.2487, 21.04456
378.7308, 20.85863
379.2130, 20.99492
379.6951, 21.29581
380.1772, 21.79741
380.6593, 22.28980
381.1414, 22.63207
381.6235, 22.81531
382.1057, 22.71965
382.5878, 22.16886
383.0699, 21.53498
383.5520, 21.68390
384.0341, 22.53666
384.5162, 23.27440
384.9984, 23.23443
385.4805, 22.72780
385.9626, 22.44524
386.4447, 22.48388
386.9268, 22.59033
387.4089, 22.46797
387.8911, 22.21397
388.3732, 22.04990
388.8553, 22.13634
389.3374, 22.31840
389.8195, 22.48364
390.3016, 22.62426
390.7838, 22.69185
391.2659, 22.63172
391.7480, 22.49148
392.2301, 22.29901
392.7122, 21.86721
393.1943, 21.65306
393.6765, 22.18140
394.1586, 23.14445
394.6407, 23.65922
395.1228, 22.98377
395.6049, 22.13903
396.0870, 21.67727
396.5692, 21.84446
397.0513, 21.80558
397.5334, 21.03613
398.0155, 20.09087
398.4976, 19.67256
398.9797, 20.34398
399.4619, 21.01487
399.9440, 21.49886
400.4261, 21.79597
400.9082, 22.04167
401.3903, 22.37642
401.8724, 22.52567
402.3546, 22.25146
402.8367, 21.18521
403.3188, 20.52005
403.8009, 20.43698
404.2830, 20.74344
404.7651, 20.99377
405.2473, 21.22767
405.7294, 21.27949
406.2115, 20.93947
406.6936, 20.18502
407.1757, 20.06055
407.6578, 20.75356
408.1400, 21.56884
408.6221, 21.61320
409.1042, 20.90560
409.5863, 20.32278
410.0684, 20.16299
410.5505, 20.22262
411.0327, 19.91497
411.5148, 19.25488
411.9969, 18.73338
412.4790, 18.82832
412.9611, 19.31101
413.4432, 19.64176
413.9254, 19.74722
414.4075, 19.71489
414.8896, 19.55977
415.3717, 19.33682
415.8538, 19.17662
416.3359, 19.15598
416.8181, 19.21795
417.3002, 19.34013
417.7823, 19.51951
418.2644, 19.67398
418.7465, 19.79285
419.2286, 19.85031
419.7108, 19.81836
420.1929, 19.65690
420.6750, 19.44894
421.1571, 19.19754
421.6392, 18.92003
422.1213, 18.66802
422.6035, 18.27057
423.0856, 18.05920
423.5677, 18.27451
424.0498, 19.15407
424.5319, 19.65955
425.0140, 19.32943
425.4962, 18.77396
425.9783, 18.62913
426.4604, 19.42390
426.9425, 19.84156
427.4246, 19.51780
427.9067, 18.59595
428.3889, 18.10152
428.8710, 18.13292
429.3531, 18.41564
429.8352, 18.91614
430.3173, 19.75931
430.7994, 20.08576
431.2816, 19.73270
431.7637, 19.08286
432.2458, 18.72244
432.7279, 18.65860
433.2100, 18.77847
433.6921, 19.19050
434.1743, 19.73374
434.6564, 19.66528
435.1385, 18.96111
435.6206, 18.33505
436.1027, 18.61132
436.5848, 19.45019
437.0670, 19.87919
437.5491, 19.60914
438.0312, 19.14758
438.5133, 19.04790
438.9954, 19.22348
439.4775, 19.43348
439.9597, 19.66072
440.4418, 19.80014
440.9239, 19.71400
441.4060, 19.39462
441.8881, 19.06123
442.3702, 18.83050
442.8524, 18.65385
443.3345, 18.47689
443.8166, 18.06810
444.2987, 17.91225
444.7808, 18.38935
445.2629, 19.26306
445.7451, 19.84545
446.2272, 19.75751
446.7093, 19.54871
447.1914, 19.42318
447.6735, 19.42975
448.1556, 19.37629
448.6378, 19.15259
449.1199, 18.94315
449.6020, 18.94390
450.0841, 19.23663
450.5662, 19.58290
451.0483, 20.02888
451.5305, 20.49938
452.0126, 20.59603
452.4947, 20.20261
452.9768, 19.79656
453.4589, 19.67115
453.9410, 19.83427
454.4232, 19.90149
454.9053, 19.84455
455.3874, 19.75669
455.8695, 19.73715
456.3516, 19.78653
456.8337, 19.91297
457.3159, 20.15597
457.7980, 20.44816
458.2801, 20.70604
458.7622, 20.92066
459.2443, 21.03313
459.7264, 20.89886
460.2086, 20.67723
460.6907, 20.56982
461.1728, 20.60607
461.6549, 20.75467
462.1370, 21.11603
462.6191, 21.54873
463.1013, 21.83660
463.5834, 21.88089
464.0655, 21.78178
464.5476, 21.49311
465.0297, 21.05087
465.5118, 20.72613
465.9940, 20.64333
466.4761, 20.66582
466.9582, 20.72541
467.4403, 20.84509
467.9224, 20.95525
468.4045, 21.16534
468.8867, 21.31899
469.3688, 21.14859
469.8509, 20.35402
470.3330, 19.80015
470.8151, 19.78969
471.2972, 20.24589
471.7794, 20.29128
472.2615, 19.75914
472.7436, 19.27244
473.2257, 19.35308
473.7078, 20.01417
474.1899, 20.46485
474.6721, 20.62513
475.1542, 20.62735
475.6363, 20.67210
476.1184, 20.74093
476.6005, 20.71139
477.0826, 20.46657
477.5648, 20.13460
478.0469, 19.90054
478.5290, 19.76412
479.0111, 19.72336
479.4932, 19.85455
479.9753, 20.04723
480.4575, 20.17222
480.9396, 20.19982
481.4217, 20.18064
481.9038, 20.10058
482.3859, 20.00348
482.8680, 19.95510
483.3502, 19.96967
483.8323, 20.04354
484.3144, 20.23130
484.7965, 20.51568
485.2786, 20.68680
485.7607, 20.66861
486.2429, 20.56067
486.7250, 20.36916
487.2071, 19.83051
487.6892, 19.81510
488.1713, 20.68487
488.6534, 21.82454
489.1356, 22.30116
489.6177, 21.87477
490.0998, 21.48144
490.5819, 21.30286
491.0640, 21.33665
491.5461, 21.66714
492.0283, 22.35195
492.5104, 22.92568
492.9925, 22.92768
493.4746, 22.49488
493.9567, 22.37449
494.4388, 22.65951
494.9210, 23.03636
495.4031, 23.23097
495.8852, 23.24042
496.3673, 23.03583
496.8494, 22.24488
497.3315, 21.58302
497.8137, 21.98303
498.2958, 23.19373
498.7779, 24.16626
499.2600, 24.30022
499.7421, 24.04418
500.2242, 23.62442
500.7064, 22.98569
501.1885, 22.55933
501.6706, 22.50608
502.1527, 22.71614
502.6348, 23.08282
503.1169, 24.02360
503.5991, 24.59756
504.0812, 24.47199
504.5633, 23.88208
505.0454, 23.73177
505.5275, 24.29139
506.0096, 24.83005
506.4918, 25.04132
506.9739, 24.89796
507.4560, 24.76119
507.9381, 24.61469
508.4202, 24.51811
508.9023, 24.52468
509.3845, 24.63415
509.8666, 24.87496
510.3487, 25.31517
510.8308, 25.77336
511.3129, 25.84648
511.7950, 25.62666
512.2772, 25.54366
512.7593, 25.94648
513.2414, 26.54562
513.7235, 26.97586
514.2056, 27.23831
514.6877, 27.54787
515.1699, 28.17429
515.6520, 28.84181
516.1341, 29.26960
516.6162, 29.23782
517.0983, 29.27512
517.5804, 29.53839
518.0626, 29.98478
518.5447, 30.54417
519.0268, 31.34865
519.5089, 32.11567
519.9910, 32.82221
520.4731, 33.46248
520.9553, 33.85188
521.4374, 33.75055
521.9195, 33.74971
522.4016, 34.26056
522.8837, 35.43164
523.3658, 36.27910
523.8480, 36.71919
524.3301, 36.99915
524.8122, 37.38704
525.2943, 37.88405
525.7764, 38.58280
526.2585, 39.63057
526.7407, 40.75345
527.2228, 41.40665
527.7049, 41.66048
528.1870, 41.90717
528.6691, 42.41343
529.1512, 43.03241
529.6334, 43.62098
530.1155, 44.17527
530.5976, 44.63845
531.0797, 44.87758
531.5618, 45.06178
532.0439, 45.36465
532.5261, 46.00490
533.0082, 46.51825
533.4903, 46.90369
533.9724, 47.07882
534.4545, 46.87048
534.9366, 45.89779
535.4188, 44.96072
535.9009, 44.27332
536.3830, 43.82804
536.8651, 43.27497
537.3472, 42.60341
537.8293, 41.85056
538.3115, 41.04826
538.7936, 40.20245
539.2757, 39.25412
539.7578, 38.17057
540.2399, 37.08934
540.7220, 36.16478
541.2042, 35.39928
541.6863, 34.72932
542.1684, 34.08903
542.6505, 33.58095
543.1326, 33.49397
543.6147, 33.70815
544.0969, 33.76162
544.5790, 33.22710
545.0611, 32.52279
545.5432, 31.99283
546.0253, 31.67472
546.5074, 31.37640
546.9896, 30.96012
547.4717, 30.56616
547.9538, 30.31331
548.4359, 30.46263
548.9180, 30.42059
549.4001, 29.92768
549.8823, 29.28160
550.3644, 29.00108
550.8465, 29.25222
551.3286, 29.56558
551.8107, 29.89476
552.2928, 30.20503
552.7750, 30.17090
553.2571, 29.72210
553.7392, 29.27608
554.2213, 29.10290
554.7034, 29.17135
555.1855, 29.27938
555.6677, 29.40808
556.1498, 29.64660
556.6319, 29.82117
557.1140, 30.15281
557.5961, 30.35419
558.0782, 30.43229
558.5604, 30.01794
559.0425, 30.23949
559.5246, 30.44293
560.0067, 30.42206
560.4888, 30.29189
560.9709, 30.17529
561.4531, 30.11840
561.9352, 30.12322
562.4173, 30.19301
562.8994, 30.44455
563.3815, 30.66616
563.8636, 30.74093
564.3458, 30.58718
564.8279, 30.50318
565.3100, 30.49057
565.7921, 30.54469
566.2742, 30.51727
566.7563, 30.75279
567.2385, 30.85802
567.7206, 30.84001
568.2027, 30.32951
568.6848, 30.45494
569.1669, 30.32553
569.6490, 30.18567
570.1312, 30.40059
570.6133, 29.96173
571.0954, 30.17104
571.5775, 30.12161
572.0596, 30.19061
572.5417, 30.00317
573.0239, 29.89492
573.5060, 29.52507
573.9881, 29.15373
574.4702, 28.81520
574.9523, 28.51122
575.4344, 28.26896
575.9166, 28.12924
576.3987, 28.31379
576.8808, 28.29549
577.3629, 27.91205
577.8450, 27.29634
578.3271, 26.88375
578.8093, 26.71384
579.2914, 26.63445
579.7735, 26.62785
580.2556, 26.67252
580.7377, 26.62488
581.2198, 26.49033
581.7020, 26.19230
582.1841, 25.44751
582.6662, 24.51275
583.1483, 24.04572
583.6304, 24.19574
584.1125, 24.51242
584.5947, 24.70983
585.0768, 24.79098
585.5589, 24.75646
586.0410, 24.44046
586.5231, 24.19693
587.0052, 24.24663
587.4874, 24.48800
587.9695, 24.64655
588.4516, 24.79880
588.9337, 24.72152
