##NAMES=Pyromorphite
##RRUFFID=R050015
##IDEAL CHEMISTRY=Pb^2+^_5_(PO_4_)_3_Cl
##LOCALITY=Bunker Hill mine, Shoshone County, Idaho, USA
##OWNER=RRUFF
##SOURCE=Eugene Schlepp
##DESCRIPTION=Yellowish green prismatic hexagonal single crystals
##STATUS=The identification of this mineral has been confirmed by X-ray diffraction and chemical analysis
##URL=rruff.info/R050015
##MEASURED CHEMISTRY=Pb_5.00_((P_0.88_As_0.12_)O_4_)_3_Cl_1.00_
63.64752, 9.757082
64.12964, 6.702970
64.61176, 4.633851
65.09387, 3.690393
65.57599, 3.894189
66.05811, 4.343469
66.54022, 5.402040
67.02234, 6.402861
67.50446, 6.989526
67.98657, 7.267164
68.46869, 7.643148
68.95081, 8.573550
69.43292, 10.24896
69.91504, 11.92202
70.39716, 15.04319
70.87927, 17.20498
71.36139, 16.22790
71.84351, 11.90633
72.32562, 6.330622
72.80774, 2.607195
73.28986, 1.391812
73.77197, 1.385973
74.25409, 3.761562
74.73621, 6.942801
75.21832, 9.136472
75.70044, 9.669263
76.18256, 9.034226
76.66467, 8.192000
77.14679, 6.845736
77.62891, 5.898850
78.11102, 6.075756
78.59314, 6.947233
79.07526, 7.081011
79.55737, 5.206279
80.03949, 2.804956
80.52161, 3.051986
81.00372, 7.146821
81.48584, 11.94303
81.96796, 15.65920
82.45007, 18.29953
82.93219, 19.36987
83.41431, 17.88227
83.89642, 14.80040
84.37854, 11.06452
84.86066, 5.831573
85.34277, 1.050299
85.82489, 0.1768652
86.30701, 4.572703
86.78912, 9.178702
87.27124, 12.27503
87.75336, 14.05002
88.23547, 14.39472
88.71759, 12.58329
89.19971, 9.474196
89.68182, 8.575871
90.16394, 12.13081
90.64606, 15.04120
91.12817, 15.26993
91.61029, 13.68810
92.09241, 11.87079
92.57452, 10.92623
93.05664, 10.86240
93.53876, 10.92326
94.02087, 11.37751
94.50299, 11.71893
94.98511, 11.54045
95.46722, 11.04514
95.94934, 10.82531
96.43146, 11.53408
96.91357, 13.47068
97.39569, 14.97596
97.87781, 16.40877
98.35992, 17.25097
98.84204, 16.72996
99.32416, 15.02327
99.80627, 13.34222
100.2884, 13.25453
100.7705, 15.69990
101.2526, 17.50038
101.7347, 19.07136
102.2169, 19.82079
102.6990, 18.45889
103.1811, 14.79036
103.6632, 11.01135
104.1453, 11.09214
104.6274, 17.51490
105.1096, 21.45903
105.5917, 20.55363
106.0738, 17.07815
106.5559, 13.82477
107.0380, 11.55333
107.5201, 10.27286
108.0023, 10.28821
108.4844, 11.70567
108.9665, 13.40390
109.4486, 15.46703
109.9307, 17.57384
110.4128, 18.70470
110.8950, 18.09374
111.3771, 16.82308
111.8592, 16.90681
112.3413, 18.85821
112.8234, 20.52013
113.3055, 20.01311
113.7877, 17.62299
114.2698, 16.02068
114.7519, 16.53785
115.2340, 18.20237
115.7161, 19.65913
116.1982, 20.58275
116.6804, 21.86667
117.1625, 25.41981
117.6446, 31.87040
118.1267, 35.61744
118.6088, 30.14257
119.0909, 22.85683
119.5731, 20.25509
120.0552, 24.84237
120.5373, 32.46965
121.0194, 36.27111
121.5015, 34.01273
121.9836, 34.35980
122.4658, 43.09523
122.9479, 54.19614
123.4300, 61.77592
123.9121, 63.19056
124.3942, 60.75980
124.8763, 59.81870
125.3585, 60.39131
125.8406, 62.69563
126.3227, 67.37876
126.8048, 73.27645
127.2869, 79.19596
127.7690, 84.50984
128.2512, 89.35179
128.7333, 94.11610
129.2154, 99.50638
129.6975, 103.8262
130.1796, 105.1977
130.6617, 105.6571
131.1439, 108.4355
131.6260, 115.8684
132.1081, 126.9291
132.5902, 133.5284
133.0723, 130.6427
133.5544, 128.1697
134.0366, 127.1635
134.5187, 127.9049
135.0008, 130.9740
135.4829, 137.1257
135.9650, 146.0619
136.4471, 150.9989
136.9293, 146.8212
137.4114, 144.2515
137.8935, 146.4678
138.3756, 152.9104
138.8577, 162.0572
139.3398, 173.2812
139.8220, 186.6425
140.3041, 196.3495
140.7862, 197.0684
141.2683, 199.9926
141.7504, 211.9695
142.2325, 231.1275
142.7147, 249.9654
143.1968, 262.7184
143.6789, 269.0853
144.1610, 276.5677
144.6431, 285.4292
145.1252, 294.9951
145.6074, 304.6850
146.0895, 314.5950
146.5716, 325.5320
147.0537, 338.3996
147.5358, 353.2527
148.0179, 367.3376
148.5001, 381.5886
148.9822, 394.4135
149.4643, 405.1091
149.9464, 413.6183
150.4285, 419.0724
150.9106, 419.3286
151.3928, 415.0461
151.8749, 414.1285
152.3570, 420.0290
152.8391, 427.6555
153.3212, 432.3364
153.8033, 433.6797
154.2855, 434.1080
154.7676, 435.6128
155.2497, 437.8138
155.7318, 439.0490
156.2139, 436.4866
156.6960, 434.1000
157.1782, 437.0613
157.6603, 446.1412
158.1424, 456.8933
158.6245, 466.6282
159.1066, 475.4587
159.5887, 483.4199
160.0709, 488.2578
160.5530, 493.0422
161.0351, 503.2076
161.5172, 520.2725
161.9993, 537.2806
162.4814, 549.2167
162.9636, 557.5375
163.4457, 564.4778
163.9278, 569.1426
164.4099, 573.2858
164.8920, 580.1999
165.3741, 590.4367
165.8563, 601.9091
166.3384, 614.8242
166.8205, 627.9439
167.3026, 638.9239
167.7847, 645.7463
168.2668, 650.2073
168.7490, 656.1625
169.2311, 663.8917
169.7132, 672.6415
170.1953, 682.3888
170.6774, 692.7470
171.1595, 703.2552
171.6417, 714.3231
172.1238, 725.1500
172.6059, 733.6149
173.0880, 739.1231
173.5701, 743.2979
174.0522, 746.1240
174.5344, 748.4304
175.0165, 751.5624
175.4986, 756.9073
175.9807, 763.0751
176.4628, 765.4364
176.9449, 760.1165
177.4271, 758.3568
177.9092, 766.3517
178.3913, 779.4675
178.8734, 791.8141
179.3555, 801.1783
179.8376, 807.4589
180.3197, 809.4710
180.8019, 802.3406
181.2840, 799.8550
181.7661, 811.7222
182.2482, 828.3940
182.7303, 836.9931
183.2124, 829.6686
183.6946, 812.9427
184.1767, 806.2281
184.6588, 816.7438
185.1409, 824.9783
185.6230, 824.5992
186.1051, 819.8569
186.5873, 815.4244
187.0694, 813.3983
187.5515, 813.1123
188.0336, 812.8873
188.5157, 813.0682
188.9978, 812.6572
189.4800, 811.4837
189.9621, 809.7169
190.4442, 808.0027
190.9263, 806.8115
191.4084, 804.7065
191.8905, 797.1932
192.3727, 777.5894
192.8548, 764.7737
193.3369, 764.7976
193.8190, 770.4866
194.3011, 775.8817
194.7832, 778.6759
195.2654, 778.6565
195.7475, 774.6354
196.2296, 762.3464
196.7117, 754.1525
197.1938, 752.7916
197.6759, 754.7852
198.1581, 758.0181
198.6402, 761.6554
199.1223, 764.5688
199.6044, 764.4029
200.0865, 759.3339
200.5686, 754.6787
201.0508, 751.4303
201.5329, 748.3828
202.0150, 743.8340
202.4971, 737.5422
202.9792, 731.9186
203.4613, 731.3712
203.9435, 739.1517
204.4256, 744.7511
204.9077, 747.4782
205.3898, 748.4138
205.8719, 748.1310
206.3540, 746.8054
206.8362, 744.4438
207.3183, 740.3102
207.8004, 731.9759
208.2825, 728.4216
208.7646, 733.9101
209.2467, 740.3098
209.7289, 743.4430
210.2110, 742.5765
210.6931, 739.0162
211.1752, 733.4819
211.6573, 724.4290
212.1395, 719.3518
212.6216, 721.9910
213.1037, 725.1360
213.5858, 723.8789
214.0679, 719.1616
214.5500, 716.2700
215.0322, 721.3698
215.5143, 736.3335
215.9964, 746.6962
216.4785, 746.4982
216.9606, 747.3312
217.4427, 754.9155
217.9249, 767.6826
218.4070, 780.4514
218.8891, 789.3134
219.3712, 794.2719
219.8533, 795.0822
220.3354, 782.3621
220.8176, 774.5796
221.2997, 781.2306
221.7818, 796.7419
222.2639, 809.2427
222.7460, 809.5815
223.2281, 799.3730
223.7103, 796.0704
224.1924, 808.6232
224.6745, 818.6855
225.1566, 819.3312
225.6387, 815.7100
226.1208, 816.1359
226.6030, 825.8196
227.0851, 842.1375
227.5672, 854.0038
228.0493, 858.2885
228.5314, 862.0054
229.0135, 867.4261
229.4957, 872.5807
229.9778, 874.2446
230.4599, 870.7941
230.9420, 865.3718
231.4241, 866.1008
231.9062, 877.2596
232.3884, 887.5247
232.8705, 893.7750
233.3526, 899.4816
233.8347, 908.2060
234.3168, 921.0074
234.7989, 935.5421
235.2811, 947.6196
235.7632, 956.1298
236.2453, 964.8320
236.7274, 973.4078
237.2095, 982.7509
237.6916, 993.6265
238.1738, 1006.120
238.6559, 1019.695
239.1380, 1035.373
239.6201, 1056.028
240.1022, 1067.887
240.5843, 1060.434
241.0665, 1052.303
241.5486, 1052.009
242.0307, 1059.940
242.5128, 1071.838
242.9949, 1084.280
243.4770, 1097.359
243.9592, 1110.129
244.4413, 1122.790
244.9234, 1135.019
245.4055, 1146.341
245.8876, 1157.108
246.3697, 1167.989
246.8519, 1179.109
247.3340, 1190.740
247.8161, 1205.109
248.2982, 1226.704
248.7803, 1244.917
249.2624, 1254.517
249.7446, 1258.989
250.2267, 1263.416
250.7088, 1269.664
251.1909, 1278.634
251.6730, 1294.338
252.1551, 1322.503
252.6373, 1345.685
253.1194, 1353.058
253.6015, 1355.236
254.0836, 1364.456
254.5657, 1386.112
255.0478, 1412.507
255.5300, 1430.845
256.0121, 1438.644
256.4942, 1447.614
256.9763, 1464.305
257.4584, 1481.545
257.9406, 1493.364
258.4227, 1498.342
258.9048, 1502.060
259.3869, 1511.453
259.8690, 1526.921
260.3511, 1538.784
260.8333, 1540.519
261.3154, 1542.431
261.7975, 1553.275
262.2796, 1572.773
262.7617, 1592.150
263.2438, 1606.477
263.7260, 1615.812
264.2081, 1619.525
264.6902, 1614.131
265.1723, 1608.287
265.6544, 1608.860
266.1365, 1614.290
266.6187, 1619.548
267.1008, 1623.388
267.5829, 1625.254
268.0650, 1622.914
268.5471, 1614.827
269.0292, 1607.423
269.5114, 1607.419
269.9935, 1610.987
270.4756, 1611.427
270.9577, 1604.788
271.4398, 1596.146
271.9219, 1591.712
272.4041, 1591.620
272.8862, 1590.973
273.3683, 1588.015
273.8504, 1582.469
274.3325, 1574.103
274.8146, 1561.403
275.2968, 1548.567
275.7789, 1538.239
276.2610, 1530.108
276.7431, 1522.766
277.2252, 1515.609
277.7073, 1509.236
278.1895, 1505.046
278.6716, 1503.660
279.1537, 1501.211
279.6358, 1498.189
280.1179, 1492.778
280.6000, 1479.189
281.0822, 1454.650
281.5643, 1431.035
282.0464, 1425.033
282.5285, 1438.556
283.0106, 1445.502
283.4927, 1438.469
283.9749, 1426.484
284.4570, 1418.076
284.9391, 1413.703
285.4212, 1407.696
285.9033, 1394.149
286.3854, 1373.490
286.8676, 1361.248
287.3497, 1366.359
287.8318, 1370.408
288.3139, 1363.378
288.7960, 1347.900
289.2781, 1331.280
289.7603, 1317.074
290.2424, 1305.570
290.7245, 1298.511
291.2066, 1301.239
291.6887, 1301.490
292.1708, 1295.226
292.6530, 1286.274
293.1351, 1280.134
293.6172, 1278.658
294.0993, 1278.320
294.5814, 1272.910
295.0635, 1260.147
295.5457, 1246.004
296.0278, 1222.484
296.5099, 1203.434
296.9920, 1202.647
297.4741, 1219.111
297.9562, 1238.445
298.4384, 1245.845
298.9205, 1239.735
299.4026, 1232.311
299.8847, 1218.748
300.3668, 1208.700
300.8489, 1208.874
301.3310, 1215.162
301.8131, 1218.272
302.2953, 1211.318
302.7774, 1197.088
303.2595, 1190.221
303.7416, 1196.704
304.2237, 1202.045
304.7058, 1203.688
305.1880, 1202.606
305.6701, 1199.193
306.1522, 1193.497
306.6343, 1187.473
307.1164, 1184.742
307.5985, 1186.432
308.0807, 1187.245
308.5628, 1184.623
309.0449, 1181.987
309.5270, 1181.355
310.0091, 1182.909
310.4912, 1185.612
310.9734, 1188.957
311.4555, 1192.865
311.9376, 1196.403
312.4197, 1199.526
312.9018, 1202.184
313.3839, 1206.626
313.8661, 1210.927
314.3482, 1209.724
314.8303, 1197.946
315.3124, 1180.357
315.7945, 1163.029
316.2766, 1144.708
316.7588, 1134.443
317.2409, 1144.405
317.7230, 1163.401
318.2051, 1172.542
318.6872, 1166.224
319.1693, 1155.689
319.6515, 1147.676
320.1336, 1142.102
320.6157, 1138.546
321.0978, 1137.103
321.5799, 1137.332
322.0620, 1139.526
322.5442, 1144.534
323.0263, 1146.486
323.5084, 1141.534
323.9905, 1133.532
324.4726, 1127.221
324.9547, 1123.377
325.4369, 1120.984
325.9190, 1119.523
326.4011, 1119.143
326.8832, 1116.748
327.3653, 1110.487
327.8474, 1103.982
328.3296, 1098.848
328.8117, 1095.126
329.2938, 1092.699
329.7759, 1091.618
330.2580, 1091.528
330.7401, 1090.855
331.2223, 1090.559
331.7044, 1088.458
332.1865, 1084.222
332.6686, 1078.107
333.1507, 1068.462
333.6328, 1055.393
334.1150, 1044.040
334.5971, 1043.572
335.0792, 1062.059
335.5613, 1069.255
336.0434, 1057.514
336.5255, 1042.694
337.0077, 1030.792
337.4898, 1022.888
337.9719, 1018.841
338.4540, 1019.527
338.9361, 1024.155
339.4182, 1025.278
339.9004, 1019.527
340.3825, 1015.220
340.8646, 1016.515
341.3467, 1019.862
341.8288, 1021.010
342.3109, 1018.441
342.7931, 1012.839
343.2752, 1003.478
343.7573, 989.1506
344.2394, 979.9672
344.7215, 984.9988
345.2036, 990.6423
345.6858, 983.8809
346.1679, 964.5001
346.6500, 947.0582
347.1321, 942.2170
347.6142, 946.2882
348.0963, 949.5978
348.5785, 951.5606
349.0606, 951.6809
349.5427, 949.2665
350.0248, 944.6367
350.5069, 938.3932
350.9890, 927.4908
351.4712, 917.4715
351.9533, 914.1068
352.4354, 916.1861
352.9175, 917.1061
353.3996, 913.3110
353.8817, 906.9629
354.3639, 904.3340
354.8460, 908.9496
355.3281, 909.2851
355.8102, 896.5876
356.2923, 881.0544
356.7744, 877.1019
357.2566, 887.1292
357.7387, 899.3605
358.2208, 900.0897
358.7029, 886.2913
359.1850, 877.6689
359.6671, 877.5349
360.1493, 878.4731
360.6314, 878.6898
361.1135, 877.3162
361.5956, 872.8156
362.0777, 863.9427
362.5598, 852.3504
363.0420, 843.9556
363.5241, 839.3609
364.0062, 837.3854
364.4883, 838.6174
364.9704, 841.5878
365.4525, 846.5563
365.9347, 852.9750
366.4168, 857.2142
366.8989, 853.9001
367.3810, 842.4144
367.8631, 833.1186
368.3452, 825.7533
368.8274, 821.6813
369.3095, 822.8281
369.7916, 827.4769
370.2737, 831.7206
370.7558, 834.5392
371.2379, 835.2557
371.7201, 831.5224
372.2022, 822.7408
372.6843, 815.3715
373.1664, 812.6789
373.6485, 812.7545
374.1306, 812.4315
374.6128, 811.3672
375.0949, 810.8218
375.5770, 811.8752
376.0591, 813.8401
376.5412, 814.9756
377.0233, 814.7421
377.5055, 815.2277
377.9876, 819.3555
378.4697, 827.6411
378.9518, 832.2332
379.4339, 829.6439
379.9160, 826.3779
380.3982, 826.9803
380.8803, 830.1937
381.3624, 831.5522
381.8445, 828.3178
382.3266, 822.7119
382.8087, 821.4819
383.2909, 828.3710
383.7730, 835.0930
384.2551, 842.8229
384.7372, 849.4280
385.2193, 852.6049
385.7014, 852.3482
386.1836, 851.1875
386.6657, 852.4803
387.1478, 856.6250
387.6299, 855.0494
388.1120, 837.1955
388.5941, 826.0856
389.0763, 833.4228
389.5584, 851.1394
390.0405, 867.0485
390.5226, 876.6149
391.0047, 880.6037
391.4868, 878.7397
391.9690, 870.2448
392.4511, 863.5313
392.9332, 862.5994
393.4153, 862.6818
393.8974, 859.3265
394.3795, 852.4757
394.8617, 844.6016
395.3438, 835.4330
395.8259, 826.5203
396.3080, 820.7495
396.7901, 818.4969
397.2722, 817.2691
397.7544, 814.9011
398.2365, 812.2055
398.7186, 812.8014
399.2007, 820.7798
399.6828, 827.3932
400.1649, 827.0173
400.6471, 823.5645
401.1292, 823.9440
401.6113, 830.4567
402.0934, 839.8005
402.5755, 847.6024
403.0576, 854.8079
403.5398, 856.8964
404.0219, 849.8336
404.5040, 842.1631
404.9861, 836.5403
405.4682, 833.9766
405.9503, 836.0880
406.4325, 844.4161
406.9146, 856.9550
407.3967, 866.4966
407.8788, 872.0861
408.3609, 876.5075
408.8430, 884.7161
409.3252, 889.2669
409.8073, 880.5639
410.2894, 858.3209
410.7715, 837.6699
411.2536, 834.3533
411.7357, 844.6824
412.2179, 849.8629
412.7000, 847.8986
413.1821, 842.6526
413.6642, 835.1475
414.1463, 826.3303
414.6284, 818.2150
415.1106, 811.5041
415.5927, 805.1253
416.0748, 797.2043
416.5569, 788.8250
417.0390, 784.2362
417.5211, 785.6411
418.0033, 788.5909
418.4854, 786.2191
418.9675, 776.5519
419.4496, 768.0226
419.9317, 760.6559
420.4138, 754.7661
420.8960, 750.8323
421.3781, 748.5806
421.8602, 747.5968
422.3423, 747.9058
422.8244, 748.6005
423.3065, 745.5011
423.7887, 733.8159
424.2708, 725.8665
424.7529, 723.2235
425.2350, 724.2094
425.7171, 730.1176
426.1992, 739.7657
426.6814, 746.3033
427.1635, 739.7991
427.6456, 721.9278
428.1277, 714.6824
428.6098, 724.1735
429.0919, 732.5811
429.5741, 726.6002
430.0562, 714.7875
430.5383, 710.8546
431.0204, 721.6405
431.5025, 733.0576
431.9846, 731.8516
432.4668, 721.3105
432.9489, 713.2532
433.4310, 710.9274
433.9131, 711.0100
434.3952, 709.2842
434.8773, 705.3499
435.3595, 704.6636
435.8416, 713.4472
436.3237, 720.2212
436.8058, 714.6154
437.2879, 701.1364
437.7701, 692.2388
438.2522, 694.5654
438.7343, 703.5944
439.2164, 707.7417
439.6985, 703.1887
440.1806, 700.4403
440.6628, 699.9583
441.1449, 700.8868
441.6270, 703.4700
442.1091, 707.1088
442.5912, 710.1373
443.0733, 711.0290
443.5555, 710.4254
444.0376, 711.0839
444.5197, 713.8260
445.0018, 715.5242
445.4839, 714.2535
445.9660, 711.6929
446.4482, 709.2740
446.9303, 707.1595
447.4124, 705.3455
447.8945, 704.7045
448.3766, 704.1896
448.8587, 700.5838
449.3409, 693.1223
449.8230, 687.2072
450.3051, 687.5416
450.7872, 693.5459
451.2693, 698.1306
451.7514, 702.2687
452.2336, 704.0052
452.7157, 700.1375
453.1978, 694.3895
453.6799, 693.0088
454.1620, 697.4484
454.6441, 702.3296
455.1263, 700.0316
455.6084, 688.5456
456.0905, 681.2988
456.5726, 682.3986
457.0547, 683.7781
457.5368, 682.9857
458.0190, 680.8895
458.5011, 679.1490
458.9832, 678.5116
459.4653, 678.2230
459.9474, 676.5718
460.4295, 673.5095
460.9117, 673.1945
461.3938, 678.5142
461.8759, 683.9319
462.3580, 684.0891
462.8401, 679.8669
463.3222, 675.6163
463.8044, 673.8575
464.2865, 671.4911
464.7686, 663.6229
465.2507, 652.2028
465.7328, 645.5247
466.2149, 647.7503
466.6971, 654.6042
467.1792, 657.7891
467.6613, 655.2287
468.1434, 653.1329
468.6255, 653.2983
469.1076, 652.3723
469.5898, 646.2002
470.0719, 636.9456
470.5540, 630.9378
471.0361, 632.4470
471.5182, 639.0493
472.0003, 644.1115
472.4825, 647.9260
472.9646, 649.2881
473.4467, 643.0010
473.9288, 637.7474
474.4109, 641.7783
474.8930, 654.1223
475.3752, 663.1212
475.8573, 657.8651
476.3394, 646.6943
476.8215, 646.3494
477.3036, 657.3110
477.7857, 662.6089
478.2679, 650.9458
478.7500, 630.5905
479.2321, 622.5567
479.7142, 632.5239
480.1963, 638.6154
480.6784, 630.8749
481.1606, 621.3892
481.6427, 622.7731
482.1248, 634.4291
482.6069, 646.6880
483.0890, 652.6727
483.5711, 652.8829
484.0533, 649.7235
484.5354, 638.6705
485.0175, 631.8085
485.4996, 632.5640
485.9817, 636.4056
486.4638, 640.7135
486.9460, 644.7543
487.4281, 647.5385
487.9102, 647.5704
488.3923, 645.7885
488.8744, 645.2558
489.3565, 646.2817
489.8387, 646.8388
490.3208, 645.3972
490.8029, 643.1125
491.2850, 642.8042
491.7671, 645.9725
492.2492, 646.7934
492.7314, 640.6346
493.2135, 632.5955
493.6956, 628.5905
494.1777, 629.0262
494.6598, 630.9069
495.1419, 632.1367
495.6241, 632.7371
496.1062, 632.8406
496.5883, 631.6267
497.0704, 631.0847
497.5525, 633.0469
498.0346, 634.6088
498.5168, 632.8076
498.9989, 627.6935
499.4810, 622.1909
499.9631, 618.2918
500.4452, 615.9391
500.9273, 615.4926
501.4095, 617.6069
501.8916, 618.6901
502.3737, 615.3052
502.8558, 611.1556
503.3379, 613.0827
503.8200, 623.5147
504.3022, 630.1539
504.7843, 624.8350
505.2664, 615.3329
505.7485, 611.2581
506.2306, 612.7076
506.7127, 613.1858
507.1949, 607.8300
507.6770, 598.7573
508.1591, 595.3956
508.6412, 603.9877
509.1233, 609.2424
509.6054, 606.3981
510.0876, 603.1205
510.5697, 605.6886
511.0518, 613.6725
511.5339, 621.9520
512.0161, 626.6624
512.4982, 629.1413
512.9803, 634.1058
513.4624, 642.6051
513.9445, 646.7763
514.4266, 641.8654
514.9088, 632.8903
515.3909, 626.2805
515.8730, 622.1265
516.3551, 618.7897
516.8372, 614.1061
517.3193, 611.2269
517.8015, 615.9426
518.2836, 625.8467
518.7657, 630.6244
519.2478, 624.2861
519.7299, 611.8336
520.2120, 605.3845
520.6942, 609.4381
521.1763, 610.9441
521.6584, 606.9800
522.1405, 603.4926
522.6226, 604.5777
523.1047, 608.7936
523.5869, 611.7407
524.0690, 610.5323
524.5511, 608.2172
525.0332, 610.8015
525.5153, 618.2378
525.9974, 622.9117
526.4796, 622.7065
526.9617, 619.7024
527.4438, 614.9859
527.9259, 608.8394
528.4080, 604.1747
528.8901, 600.9920
529.3723, 599.7993
529.8544, 602.7818
530.3365, 607.6111
530.8186, 609.9527
531.3007, 608.3285
531.7828, 603.8713
532.2650, 597.0129
532.7471, 586.0173
533.2292, 583.4820
533.7113, 598.7506
534.1934, 611.9573
534.6755, 617.1130
535.1577, 616.6561
535.6398, 613.1570
536.1219, 606.9208
536.6040, 601.7105
537.0861, 601.3098
537.5682, 604.7579
538.0504, 609.7957
538.5325, 616.5542
539.0146, 621.7046
539.4967, 622.5214
539.9788, 619.7333
540.4609, 617.1374
540.9431, 615.9608
541.4252, 613.2618
541.9073, 605.5599
542.3894, 597.9349
542.8715, 595.9004
543.3536, 599.3961
543.8358, 604.3067
544.3179, 607.7316
544.8000, 609.5576
545.2821, 608.7786
545.7642, 603.8870
546.2463, 600.5839
546.7285, 603.9767
547.2106, 606.6845
547.6926, 600.1521
548.1747, 585.4588
548.6569, 576.5432
549.1390, 583.6285
549.6211, 596.6528
550.1032, 606.3033
550.5853, 612.4086
551.0674, 615.0920
551.5496, 614.2672
552.0317, 610.7882
552.5138, 605.5938
552.9959, 597.0191
553.4780, 592.4518
553.9601, 595.6611
554.4423, 598.2279
554.9244, 594.7023
555.4065, 588.9427
555.8886, 587.9931
556.3707, 594.5712
556.8528, 602.4805
557.3350, 604.4900
557.8171, 601.0681
558.2992, 595.3436
558.7813, 586.5055
559.2634, 578.7983
