##NAMES=Pyromorphite
##RRUFFID=R050015
##IDEAL CHEMISTRY=Pb^2+^_5_(PO_4_)_3_Cl
##LOCALITY=Bunker Hill mine, Shoshone County, Idaho, USA
##OWNER=RRUFF
##SOURCE=Eugene Schlepp
##DESCRIPTION=Yellowish green prismatic hexagonal single crystals
##STATUS=The identification of this mineral has been confirmed by X-ray diffraction and chemical analysis
##URL=rruff.info/R050015
##MEASURED CHEMISTRY=Pb_5.00_((P_0.88_As_0.12_)O_4_)_3_Cl_1.00_
107.7177, 141.3505
108.1998, 148.8004
108.6819, 156.6053
109.1640, 165.4626
109.6461, 175.4612
110.1282, 186.8658
110.6104, 199.2384
111.0925, 212.5010
111.5746, 226.7649
112.0567, 241.9769
112.5388, 257.7182
113.0209, 274.6913
113.5031, 293.2251
113.9852, 310.9953
114.4673, 332.3483
114.9494, 360.0790
115.4315, 393.5554
115.9136, 427.2215
116.3958, 455.6025
116.8779, 484.2963
117.3600, 518.8663
117.8421, 566.4615
118.3242, 616.6740
118.8063, 661.9855
119.2885, 701.1877
119.7706, 744.1605
120.2527, 796.8242
120.7348, 857.5923
121.2169, 923.8586
121.6990, 991.4160
122.1812, 1064.467
122.6633, 1147.107
123.1454, 1240.213
123.6275, 1341.978
124.1096, 1452.999
124.5917, 1572.103
125.0739, 1694.498
125.5560, 1817.361
126.0381, 1940.801
126.5202, 2068.379
127.0023, 2203.333
127.4844, 2339.873
127.9666, 2465.247
128.4487, 2579.635
128.9308, 2697.966
129.4129, 2835.850
129.8950, 2990.762
130.3772, 3142.247
130.8593, 3282.813
131.3414, 3416.328
131.8235, 3555.414
132.3056, 3698.248
132.7877, 3848.744
133.2699, 4014.808
133.7520, 4197.916
134.2341, 4379.630
134.7162, 4551.878
135.1983, 4715.417
135.6804, 4878.315
136.1626, 5038.906
136.6447, 5198.524
137.1268, 5359.966
137.6089, 5523.076
138.0910, 5684.334
138.5731, 5840.317
139.0553, 5994.809
139.5374, 6134.148
140.0195, 6252.879
140.5016, 6356.310
140.9837, 6459.760
141.4658, 6564.115
141.9480, 6668.688
142.4301, 6771.645
142.9122, 6870.277
143.3943, 6972.588
143.8764, 7080.575
144.3585, 7193.265
144.8407, 7310.188
145.3228, 7432.075
145.8049, 7556.890
146.2870, 7680.880
146.7691, 7790.011
147.2512, 7914.741
147.7334, 8065.779
148.2155, 8254.918
148.6976, 8423.604
149.1797, 8555.240
149.6618, 8671.536
150.1439, 8799.936
150.6261, 8958.585
151.1082, 9111.573
151.5903, 9248.565
152.0724, 9365.060
152.5545, 9474.403
153.0366, 9576.756
153.5188, 9671.986
154.0009, 9759.467
154.4830, 9842.616
154.9651, 9916.275
155.4472, 9978.267
155.9293, 10020.15
156.4115, 10062.20
156.8936, 10112.77
157.3757, 10167.87
157.8578, 10214.44
158.3399, 10236.23
158.8221, 10255.42
159.3042, 10286.77
159.7863, 10353.68
160.2684, 10413.78
160.7505, 10444.98
161.2326, 10451.99
161.7148, 10468.99
162.1969, 10510.68
162.6790, 10569.44
163.1611, 10637.25
163.6432, 10715.87
164.1253, 10799.93
164.6075, 10883.82
165.0896, 10967.23
165.5717, 11062.41
166.0538, 11190.33
166.5359, 11332.00
167.0180, 11460.51
167.5002, 11547.71
167.9823, 11629.31
168.4644, 11731.35
168.9465, 11856.51
169.4286, 11996.70
169.9107, 12161.92
170.3929, 12337.86
170.8750, 12498.74
171.3571, 12619.06
171.8392, 12721.04
172.3213, 12826.98
172.8034, 12938.38
173.2856, 13054.32
173.7677, 13182.91
174.2498, 13318.38
174.7319, 13438.63
175.2140, 13542.80
175.6961, 13620.99
176.1783, 13650.79
176.6604, 13613.01
177.1425, 13552.40
177.6246, 13528.85
178.1067, 13536.24
178.5888, 13533.11
179.0710, 13489.84
179.5531, 13414.31
180.0352, 13322.74
180.5173, 13217.22
180.9994, 13100.09
181.4815, 12974.10
181.9637, 12838.43
182.4458, 12702.89
182.9279, 12577.87
183.4100, 12459.74
183.8921, 12332.67
184.3742, 12191.54
184.8564, 12038.53
185.3385, 11883.44
185.8206, 11725.25
186.3027, 11561.01
186.7848, 11384.56
187.2669, 11197.09
187.7491, 11001.73
188.2312, 10793.16
188.7133, 10578.14
189.1954, 10379.05
189.6775, 10199.05
190.1596, 10026.39
190.6418, 9844.190
191.1239, 9653.441
191.6060, 9463.240
192.0881, 9280.413
192.5702, 9103.175
193.0524, 8911.955
193.5345, 8702.719
194.0166, 8491.252
194.4987, 8306.663
194.9808, 8150.193
195.4629, 8001.305
195.9451, 7851.704
196.4272, 7699.667
196.9093, 7558.409
197.3914, 7429.310
197.8735, 7309.440
198.3556, 7194.867
198.8378, 7086.733
199.3199, 6979.173
199.8020, 6866.896
200.2841, 6749.817
200.7662, 6645.104
201.2483, 6556.770
201.7305, 6478.607
202.2126, 6393.942
202.6947, 6300.016
203.1768, 6209.889
203.6589, 6133.596
204.1410, 6074.450
204.6232, 6009.412
205.1053, 5932.740
205.5874, 5850.523
206.0695, 5786.199
206.5516, 5746.637
207.0337, 5706.932
207.5159, 5646.749
207.9980, 5561.451
208.4801, 5483.452
208.9622, 5418.387
209.4443, 5363.655
209.9264, 5305.429
210.4086, 5240.414
210.8907, 5178.290
211.3728, 5130.313
211.8549, 5103.186
212.3370, 5065.149
212.8191, 5007.389
213.3013, 4933.383
213.7834, 4868.045
214.2655, 4812.955
214.7476, 4763.795
215.2297, 4719.059
215.7118, 4681.713
216.1940, 4638.634
216.6761, 4584.030
217.1582, 4518.721
217.6403, 4468.189
218.1224, 4439.799
218.6045, 4417.109
219.0867, 4384.151
219.5688, 4337.514
220.0509, 4289.029
220.5330, 4241.580
221.0151, 4194.551
221.4972, 4148.209
221.9794, 4100.951
222.4615, 4055.718
222.9436, 4015.865
223.4257, 3984.942
223.9078, 3951.440
224.3899, 3911.832
224.8721, 3864.699
225.3542, 3823.593
225.8363, 3790.805
226.3184, 3761.530
226.8005, 3728.692
227.2827, 3688.007
227.7648, 3652.623
228.2469, 3628.254
228.7290, 3617.562
229.2111, 3597.524
229.6932, 3564.386
230.1754, 3525.201
230.6575, 3488.435
231.1396, 3454.887
231.6217, 3422.824
232.1038, 3391.969
232.5859, 3362.501
233.0681, 3333.364
233.5502, 3304.927
234.0323, 3276.678
234.5144, 3246.781
234.9965, 3211.826
235.4786, 3181.471
235.9608, 3160.013
236.4429, 3150.663
236.9250, 3136.555
237.4071, 3116.964
237.8892, 3093.133
238.3713, 3066.172
238.8535, 3032.183
239.3356, 3001.654
239.8177, 2979.020
240.2998, 2967.250
240.7819, 2951.181
241.2640, 2926.240
241.7462, 2899.397
242.2283, 2883.981
242.7104, 2889.830
243.1925, 2890.865
243.6746, 2877.139
244.1567, 2843.093
244.6389, 2812.688
245.1210, 2786.011
245.6031, 2762.953
246.0852, 2743.515
246.5673, 2727.547
247.0494, 2715.541
247.5316, 2709.125
248.0137, 2711.924
248.4958, 2707.534
248.9779, 2692.771
249.4600, 2672.613
249.9421, 2657.305
250.4243, 2651.039
250.9064, 2641.907
251.3885, 2624.418
251.8706, 2594.560
252.3527, 2569.830
252.8348, 2552.852
253.3170, 2539.419
253.7991, 2521.000
254.2812, 2494.352
254.7633, 2469.286
255.2454, 2449.293
255.7275, 2435.061
256.2097, 2424.924
256.6918, 2422.816
257.1739, 2422.224
257.6560, 2408.967
258.1381, 2374.958
258.6202, 2344.930
259.1024, 2329.426
259.5845, 2332.978
260.0666, 2333.172
260.5487, 2330.406
261.0308, 2323.958
261.5129, 2310.768
261.9951, 2287.065
262.4772, 2265.904
262.9593, 2252.890
263.4414, 2249.289
263.9235, 2248.396
264.4056, 2253.451
264.8878, 2258.149
265.3699, 2248.633
265.8520, 2217.882
266.3341, 2192.824
266.8162, 2187.424
267.2983, 2206.870
267.7805, 2211.972
268.2626, 2198.631
268.7447, 2175.385
269.2268, 2156.885
269.7089, 2144.571
270.1910, 2131.827
270.6732, 2113.734
271.1553, 2088.795
271.6374, 2075.764
272.1195, 2078.268
272.6016, 2087.354
273.0837, 2088.760
273.5659, 2081.581
274.0480, 2071.486
274.5301, 2059.344
275.0122, 2045.043
275.4943, 2034.051
275.9764, 2027.161
276.4586, 2022.091
276.9407, 2014.965
277.4228, 2005.460
277.9049, 1997.444
278.3870, 1993.242
278.8691, 1992.627
279.3513, 1990.435
279.8334, 1986.553
280.3155, 1981.382
280.7976, 1973.704
281.2798, 1963.288
281.7619, 1957.399
282.2440, 1961.549
282.7261, 1973.823
283.2082, 1979.225
283.6903, 1976.954
284.1725, 1970.759
284.6546, 1963.211
285.1367, 1954.560
285.6188, 1949.953
286.1009, 1954.142
286.5830, 1964.142
287.0652, 1965.701
287.5473, 1957.667
288.0294, 1947.988
288.5115, 1944.144
288.9936, 1946.046
289.4757, 1953.146
289.9579, 1968.996
290.4400, 1989.009
290.9221, 1998.254
291.4042, 1995.785
291.8863, 1994.354
292.3684, 1987.447
292.8506, 2019.478
293.3327, 2044.717
293.8148, 2063.530
294.2969, 2056.677
294.7790, 2082.967
295.2611, 2095.975
295.7433, 2108.441
296.2254, 2139.397
296.7075, 2154.732
297.1896, 2187.438
297.6717, 2213.746
298.1538, 2238.580
298.6360, 2269.234
299.1181, 2305.632
299.6002, 2343.522
300.0823, 2378.692
300.5644, 2413.523
301.0465, 2452.378
301.5287, 2494.594
302.0108, 2543.485
302.4929, 2606.970
302.9750, 2682.867
303.4571, 2755.049
303.9392, 2807.097
304.4214, 2851.065
304.9035, 2904.319
305.3856, 2970.351
305.8677, 3045.823
306.3498, 3129.719
306.8319, 3220.254
307.3141, 3313.163
307.7962, 3406.751
308.2783, 3499.745
308.7604, 3592.776
309.2425, 3685.326
309.7246, 3775.014
310.2068, 3858.725
310.6889, 3938.455
311.1710, 4020.300
311.6531, 4114.268
312.1352, 4207.309
312.6173, 4287.239
313.0995, 4346.607
313.5816, 4406.412
314.0637, 4480.186
314.5458, 4561.315
315.0279, 4637.927
315.5100, 4705.239
315.9922, 4767.012
316.4743, 4825.019
316.9564, 4879.392
317.4385, 4930.293
317.9206, 4980.986
318.4027, 5027.509
318.8849, 5064.324
319.3670, 5088.104
319.8491, 5103.541
320.3312, 5108.438
320.8133, 5099.610
321.2954, 5099.355
321.7776, 5131.182
322.2597, 5166.378
322.7418, 5174.341
323.2239, 5117.932
323.7060, 5066.572
324.1881, 5038.914
324.6703, 5037.607
325.1524, 5033.296
325.6345, 5026.647
326.1166, 5014.895
326.5987, 4995.810
327.0808, 4971.856
327.5630, 4937.487
328.0451, 4883.640
328.5272, 4812.046
329.0093, 4761.245
329.4914, 4750.745
329.9735, 4744.463
330.4557, 4717.085
330.9378, 4643.360
331.4199, 4593.085
331.9020, 4578.539
332.3841, 4592.541
332.8662, 4600.729
333.3484, 4602.639
333.8305, 4599.320
334.3126, 4591.610
334.7947, 4580.532
335.2768, 4560.931
335.7589, 4527.500
336.2411, 4488.236
336.7232, 4464.693
337.2053, 4462.753
337.6874, 4459.841
338.1695, 4442.650
338.6516, 4408.702
339.1338, 4384.960
339.6159, 4375.686
340.0980, 4370.982
340.5801, 4353.333
341.0622, 4321.174
341.5443, 4288.377
342.0265, 4262.869
342.5086, 4243.082
342.9907, 4211.222
343.4728, 4166.515
343.9549, 4113.784
344.4370, 4054.522
344.9192, 3990.380
345.4013, 3934.971
345.8834, 3900.089
346.3655, 3876.171
346.8476, 3840.349
347.3297, 3792.724
347.8119, 3736.138
348.2940, 3667.493
348.7761, 3591.368
349.2582, 3523.439
349.7403, 3469.551
350.2225, 3422.620
350.7046, 3373.698
351.1867, 3322.460
351.6688, 3269.811
352.1509, 3210.616
352.6331, 3151.759
353.1152, 3105.090
353.5973, 3078.338
354.0794, 3054.763
354.5615, 3017.409
355.0436, 2970.504
355.5258, 2926.920
356.0079, 2897.804
356.4900, 2872.843
356.9721, 2840.854
357.4542, 2795.991
357.9363, 2758.123
358.4185, 2743.285
358.9006, 2742.470
359.3827, 2740.089
359.8648, 2729.087
360.3469, 2715.734
360.8290, 2700.745
361.3112, 2682.796
361.7933, 2673.640
362.2754, 2681.932
362.7575, 2698.957
363.2396, 2715.314
363.7217, 2721.801
364.2039, 2734.289
364.6860, 2760.810
365.1681, 2801.709
365.6502, 2835.802
366.1323, 2854.336
366.6144, 2869.424
367.0966, 2889.393
367.5787, 2907.114
368.0608, 2938.698
368.5429, 2990.321
369.0250, 3058.508
369.5071, 3123.729
369.9893, 3180.569
370.4714, 3240.388
370.9535, 3309.590
371.4356, 3392.904
371.9177, 3471.907
372.3998, 3539.144
372.8820, 3605.999
373.3641, 3698.180
373.8462, 3821.618
374.3283, 3954.192
374.8104, 4085.058
375.2925, 4214.318
375.7747, 4353.883
376.2568, 4504.887
376.7389, 4666.248
377.2210, 4835.859
377.7031, 5013.924
378.1852, 5196.240
378.6674, 5381.114
379.1495, 5569.452
379.6316, 5773.781
380.1137, 5992.729
380.5958, 6224.605
381.0779, 6467.508
381.5601, 6722.826
382.0422, 6976.586
382.5243, 7225.336
383.0064, 7479.318
383.4885, 7765.602
383.9706, 8081.637
384.4528, 8388.473
384.9349, 8655.994
385.4170, 8900.392
385.8991, 9158.725
386.3812, 9446.083
386.8633, 9724.547
387.3455, 9965.654
387.8276, 10171.09
388.3097, 10348.43
388.7918, 10502.70
389.2739, 10627.11
389.7560, 10720.03
390.2382, 10782.46
390.7203, 10799.55
391.2024, 10774.58
391.6845, 10696.48
392.1666, 10551.42
392.6487, 10304.40
393.1309, 10017.59
393.6130, 9709.653
394.0951, 9381.082
394.5772, 9043.002
395.0593, 8669.606
395.5414, 8305.167
396.0236, 7980.970
396.5057, 7703.760
396.9878, 7462.763
397.4699, 7263.354
397.9520, 7101.752
398.4341, 6966.568
398.9163, 6843.606
399.3984, 6762.077
399.8805, 6735.598
400.3626, 6776.973
400.8447, 6836.200
401.3268, 6915.995
401.8090, 7011.605
402.2911, 7117.508
402.7732, 7230.347
403.2553, 7359.902
403.7374, 7512.213
404.2195, 7685.982
404.7017, 7859.625
405.1838, 8036.119
405.6659, 8206.229
406.1480, 8364.013
406.6301, 8510.313
407.1122, 8641.947
407.5944, 8766.955
408.0765, 8868.285
408.5586, 8899.848
409.0407, 8862.619
409.5228, 8787.695
410.0049, 8695.450
410.4871, 8582.239
410.9692, 8434.079
411.4513, 8246.821
411.9334, 8033.304
412.4155, 7796.531
412.8976, 7539.744
413.3798, 7282.340
413.8619, 7016.744
414.3440, 6759.511
414.8261, 6531.575
415.3082, 6332.162
415.7903, 6130.406
416.2725, 5893.834
416.7546, 5646.609
417.2367, 5411.186
417.7188, 5211.202
418.2009, 5012.605
418.6830, 4797.723
419.1652, 4571.026
419.6473, 4357.342
420.1294, 4164.239
420.6115, 3984.882
421.0937, 3811.463
421.5758, 3640.554
422.0579, 3488.602
422.5400, 3362.012
423.0221, 3254.400
423.5042, 3152.813
423.9864, 3059.469
424.4685, 2970.121
424.9506, 2881.433
425.4327, 2793.881
425.9148, 2716.369
426.3969, 2652.344
426.8791, 2594.448
427.3612, 2537.409
427.8433, 2481.269
428.3254, 2426.247
428.8075, 2372.345
429.2896, 2319.779
429.7718, 2269.511
430.2539, 2220.804
430.7360, 2177.551
431.2181, 2145.584
431.7002, 2123.844
432.1823, 2095.957
432.6645, 2059.971
433.1466, 2021.502
433.6287, 1991.877
434.1108, 1968.426
434.5929, 1937.020
435.0750, 1883.530
435.5572, 1822.335
436.0393, 1780.202
436.5214, 1756.461
437.0035, 1736.784
437.4856, 1710.686
437.9677, 1681.701
438.4499, 1655.896
438.9320, 1639.536
439.4141, 1618.647
439.8962, 1576.569
440.3783, 1521.713
440.8604, 1474.512
441.3426, 1449.074
441.8247, 1430.645
442.3068, 1411.635
442.7889, 1391.069
443.2710, 1370.573
443.7531, 1348.353
444.2353, 1327.344
444.7174, 1310.407
445.1995, 1304.826
445.6816, 1296.061
446.1637, 1277.954
446.6458, 1252.213
447.1280, 1236.174
447.6101, 1236.310
448.0922, 1239.003
448.5743, 1237.367
449.0564, 1231.549
449.5385, 1219.887
450.0207, 1198.838
450.5028, 1175.176
450.9849, 1163.149
451.4670, 1165.141
451.9491, 1167.245
452.4312, 1164.268
452.9134, 1156.758
453.3955, 1148.631
453.8776, 1139.833
454.3597, 1131.020
454.8418, 1123.589
455.3239, 1116.922
455.8061, 1108.478
456.2882, 1096.644
456.7703, 1084.229
457.2524, 1073.726
457.7345, 1065.634
458.2166, 1061.846
458.6988, 1069.042
459.1809, 1078.415
459.6630, 1079.560
460.1451, 1070.551
460.6272, 1059.845
461.1093, 1052.566
461.5915, 1046.819
462.0736, 1040.399
462.5557, 1031.543
463.0378, 1022.890
463.5199, 1015.562
464.0020, 1009.461
464.4842, 1003.459
464.9663, 999.9865
465.4484, 994.6342
465.9305, 984.5734
466.4126, 963.5657
466.8947, 948.4458
467.3769, 940.2778
467.8590, 937.5377
468.3411, 938.4803
468.8232, 946.1519
469.3053, 951.4528
469.7874, 952.0660
470.2696, 948.1063
470.7517, 941.1989
471.2338, 930.7644
471.7159, 919.2456
472.1980, 907.9467
472.6801, 896.8959
473.1623, 888.9204
473.6444, 884.5499
474.1265, 883.0039
474.6086, 885.6330
475.0907, 891.2633
475.5728, 892.3051
476.0550, 879.5317
476.5371, 861.3839
477.0192, 853.0652
477.5013, 855.1519
477.9834, 857.5582
478.4655, 850.7741
478.9477, 840.1533
479.4298, 832.8582
479.9119, 832.7900
480.3940, 834.1725
480.8761, 833.5580
481.3582, 831.9606
481.8404, 832.3205
482.3225, 839.1636
482.8046, 845.2380
483.2867, 847.4861
483.7688, 845.4714
484.2509, 840.2234
484.7331, 826.9203
485.2152, 812.9819
485.6973, 805.1862
486.1794, 806.1774
486.6615, 809.1050
487.1436, 814.7574
487.6258, 821.7158
488.1079, 821.7879
488.5900, 811.6824
489.0721, 803.8125
489.5542, 807.2267
490.0363, 822.0735
490.5185, 830.4970
491.0006, 831.0931
491.4827, 828.1949
491.9648, 826.7381
492.4470, 826.5286
492.9291, 826.5424
493.4112, 826.3078
493.8933, 826.2195
494.3754, 827.8289
494.8575, 830.6632
495.3397, 831.6557
495.8218, 826.1559
496.3039, 819.0304
496.7860, 816.0140
497.2681, 818.8033
497.7502, 822.1079
498.2324, 822.5421
498.7145, 821.9591
499.1966, 822.8886
499.6787, 828.8894
500.1608, 833.6672
500.6429, 834.5625
501.1251, 831.8300
501.6072, 830.1411
502.0893, 831.0455
502.5714, 831.9587
503.0535, 831.6605
503.5356, 829.7091
504.0178, 827.3452
504.4999, 823.4044
504.9820, 820.1520
505.4641, 822.0125
505.9462, 830.3549
506.4283, 836.5470
506.9105, 837.4174
507.3926, 834.3685
507.8747, 833.1193
508.3568, 833.7742
508.8389, 834.2236
509.3210, 832.3406
509.8032, 829.0375
510.2853, 827.0822
510.7674, 827.1379
511.2495, 827.1785
511.7316, 825.3431
512.2137, 821.9330
512.6959, 817.6130
513.1780, 805.4492
513.6601, 798.4164
514.1422, 811.3353
514.6243, 840.4721
515.1064, 860.1995
515.5886, 852.0799
516.0707, 837.3373
516.5528, 828.8809
517.0349, 830.9473
517.5170, 833.7095
517.9991, 838.1705
518.4813, 842.0786
518.9634, 842.1184
519.4455, 834.5026
519.9276, 829.6822
520.4097, 831.0359
520.8918, 837.2388
521.3740, 838.7811
521.8561, 833.9041
522.3382, 830.1919
522.8203, 833.2777
523.3024, 842.7348
523.7845, 851.9828
524.2667, 860.9053
524.7488, 868.8769
525.2309, 874.1252
525.7130, 877.7626
526.1951, 883.6677
526.6772, 895.0621
527.1594, 907.6855
527.6415, 915.1100
528.1236, 918.7267
528.6057, 924.8747
529.0878, 939.9539
529.5699, 957.0605
530.0521, 969.4420
530.5342, 974.1537
531.0163, 984.1925
531.4984, 1009.043
531.9805, 1039.152
532.4626, 1064.457
532.9448, 1078.190
533.4269, 1093.540
533.9090, 1112.118
534.3911, 1133.392
534.8732, 1153.996
535.3553, 1171.584
535.8375, 1193.546
536.3196, 1224.857
536.8017, 1266.681
537.2838, 1299.809
537.7659, 1322.053
538.2480, 1343.862
538.7302, 1378.412
539.2123, 1423.998
539.6944, 1466.503
540.1765, 1502.224
540.6586, 1534.777
541.1407, 1568.803
541.6229, 1604.494
542.1050, 1642.980
542.5871, 1695.546
543.0692, 1744.260
543.5513, 1768.907
544.0334, 1768.443
544.5156, 1766.702
544.9977, 1771.864
545.4798, 1782.036
545.9619, 1795.923
546.4440, 1816.295
546.9261, 1835.884
547.4083, 1854.128
547.8904, 1870.947
548.3725, 1885.599
548.8546, 1895.260
549.3367, 1907.911
549.8188, 1928.274
550.3010, 1954.837
550.7831, 1970.992
551.2652, 1977.527
551.7473, 1970.943
552.2294, 1945.718
552.7115, 1903.292
553.1937, 1858.568
553.6758, 1812.880
554.1579, 1764.261
554.6400, 1709.469
555.1221, 1649.440
555.6042, 1587.730
556.0864, 1521.995
556.5685, 1457.794
557.0506, 1397.595
557.5327, 1342.907
558.0148, 1300.513
558.4969, 1284.273
558.9791, 1273.300
559.4612, 1252.868
559.9433, 1217.850
560.4254, 1192.592
560.9075, 1183.713
561.3896, 1185.547
561.8718, 1192.948
562.3539, 1210.273
562.8360, 1225.396
563.3181, 1234.563
563.8002, 1242.202
564.2823, 1261.120
564.7645, 1294.116
565.2466, 1324.913
565.7287, 1344.576
566.2108, 1356.430
566.6929, 1376.397
567.1750, 1404.443
567.6572, 1437.763
568.1393, 1475.673
568.6214, 1516.433
569.1035, 1555.732
569.5856, 1593.565
570.0677, 1628.658
570.5499, 1658.958
571.0320, 1686.445
571.5141, 1714.461
571.9962, 1760.613
572.4783, 1791.253
572.9604, 1790.137
573.4426, 1760.631
573.9247, 1720.562
574.4068, 1671.939
574.8889, 1613.746
575.3710, 1543.714
575.8531, 1459.646
576.3353, 1379.079
576.8174, 1300.341
577.2995, 1228.739
577.7816, 1169.354
578.2637, 1123.154
578.7458, 1082.346
579.2280, 1046.099
579.7101, 1014.236
580.1922, 988.4078
580.6743, 967.5630
581.1564, 945.7537
581.6385, 915.1792
582.1207, 884.7316
582.6028, 868.4902
583.0849, 865.0837
583.5670, 862.6193
584.0491, 852.1674
584.5313, 841.1189
585.0134, 836.3329
585.4955, 841.8538
585.9776, 843.7401
586.4597, 833.9078
586.9418, 820.5278
587.4240, 813.0536
587.9061, 815.5529
588.3882, 818.1829
588.8703, 821.7318
589.3524, 824.2438
589.8345, 818.1566
590.3167, 800.4382
590.7988, 785.8074
591.2809, 782.3478
591.7630, 787.5865
592.2451, 788.8805
592.7272, 786.0884
593.2094, 782.8079
593.6915, 782.1627
594.1736, 783.1320
594.6557, 783.8267
595.1378, 783.9229
595.6199, 783.7629
596.1021, 782.0823
596.5842, 780.7063
597.0663, 782.2461
597.5485, 792.3215
598.0306, 800.4097
598.5127, 801.0673
598.9948, 796.3836
599.4769, 795.7348
599.9590, 805.7441
600.4412, 812.4615
600.9233, 809.7044
601.4054, 796.4742
601.8875, 790.1256
602.3696, 792.8049
602.8517, 797.2224
603.3339, 796.8952
