##NAMES=Pyrosmalite-(Fe)
##RRUFFID=R060438
##IDEAL CHEMISTRY=Fe^2+^_8_Si_6_O_15_(OH)_10_
##LOCALITY=Monchi mine, Brugillos del Cerro, Badoz Province, Spain
##OWNER=RRUFF
##SOURCE=Michael Scott
##DESCRIPTION=Colorless hexagonal prisms
##STATUS=The identification of this mineral is confirmed by single-crystal X-ray diffraction and chemical analysis.
##URL=rruff.info/R060438
##MEASURED CHEMISTRY=(Fe^2+^_7.44_Mn_0.31_Mg_0.25_)_Σ=8_Si_6.00_O_15_((OH)_8.20_Cl_1.80_)_Σ=10_ ; OH estimated by difference and charge balance
161.9064, 151.1273
162.3885, 154.5942
162.8706, 159.0198
163.3527, 163.2531
163.8349, 166.4347
164.3170, 168.8680
164.7991, 172.0033
165.2812, 177.1653
165.7633, 183.0595
166.2454, 188.5059
166.7276, 192.5835
167.2097, 196.6238
167.6918, 201.5396
168.1739, 207.2083
168.6560, 212.9777
169.1381, 217.7939
169.6203, 222.5944
170.1024, 227.0657
170.5845, 233.4942
171.0666, 240.5767
171.5487, 246.5078
172.0309, 251.3614
172.5130, 256.2746
172.9951, 261.9502
173.4772, 268.1989
173.9593, 274.7562
174.4414, 281.3515
174.9236, 288.2491
175.4057, 295.8618
175.8878, 304.2639
176.3699, 312.4496
176.8520, 319.1881
177.3341, 325.1430
177.8163, 331.7925
178.2984, 340.4460
178.7805, 349.8584
179.2626, 358.0932
179.7447, 364.9169
180.2268, 371.3530
180.7090, 378.0399
181.1911, 385.0193
181.6732, 392.3781
182.1553, 400.4198
182.6374, 408.8169
183.1195, 416.6284
183.6017, 423.8961
184.0838, 430.8039
184.5659, 437.8001
185.0480, 444.7905
185.5301, 451.6497
186.0123, 458.0065
186.4944, 464.1368
186.9765, 470.8033
187.4586, 478.2043
187.9407, 485.7242
188.4228, 492.7511
188.9050, 499.2425
189.3871, 505.0397
189.8692, 510.0820
190.3513, 514.3275
190.8334, 517.4130
191.3155, 519.0358
191.7977, 520.2026
192.2798, 522.9487
192.7619, 527.2757
193.2440, 530.7682
193.7261, 532.3811
194.2082, 532.1437
194.6904, 530.2778
195.1725, 526.7010
195.6546, 521.7349
196.1367, 516.1724
196.6188, 510.0396
197.1009, 502.8064
197.5831, 493.8917
198.0652, 483.2254
198.5473, 472.5274
199.0294, 461.6598
199.5115, 451.1016
199.9937, 441.9991
200.4758, 434.6324
200.9579, 427.5728
201.4400, 419.8666
201.9221, 411.3726
202.4042, 404.1265
202.8864, 398.3062
203.3685, 393.7066
203.8506, 390.0276
204.3327, 387.4610
204.8148, 385.1561
205.2969, 383.0279
205.7791, 381.3211
206.2612, 377.8260
206.7433, 371.8029
207.2254, 364.3915
207.7075, 358.7789
208.1896, 355.6515
208.6718, 352.2839
209.1539, 347.0312
209.6360, 339.6133
210.1181, 331.9703
210.6002, 324.0439
211.0823, 316.0504
211.5645, 308.6583
212.0466, 302.0334
212.5287, 295.5586
213.0108, 288.7602
213.4929, 281.2812
213.9750, 274.8111
214.4572, 269.7741
214.9393, 265.6803
215.4214, 260.8388
215.9035, 254.8330
216.3856, 248.8746
216.8678, 243.7527
217.3499, 239.6006
217.8320, 235.6281
218.3141, 231.9278
218.7962, 228.3643
219.2783, 224.4277
219.7605, 219.6944
220.2426, 215.4044
220.7247, 212.3644
221.2068, 211.0672
221.6889, 209.6242
222.1710, 207.9454
222.6532, 206.0791
223.1353, 204.1643
223.6174, 201.9453
224.0995, 200.0765
224.5816, 199.1369
225.0637, 200.1000
225.5459, 199.3989
226.0280, 196.3066
226.5101, 191.6170
226.9922, 187.8451
227.4743, 185.2464
227.9564, 183.1044
228.4386, 181.0900
228.9207, 179.3503
229.4028, 177.4227
229.8849, 175.0211
230.3670, 172.4868
230.8492, 170.8077
231.3313, 170.5806
231.8134, 170.3286
232.2955, 169.3328
232.7776, 167.2363
233.2597, 165.2071
233.7419, 162.9389
234.2240, 160.8268
234.7061, 160.1490
235.1882, 162.0440
235.6703, 163.6453
236.1524, 163.5906
236.6346, 160.7755
237.1167, 158.8679
237.5988, 158.2289
238.0809, 158.3548
238.5630, 157.9839
239.0451, 156.5087
239.5273, 155.4565
240.0094, 155.6515
240.4915, 158.0570
240.9736, 159.1021
241.4557, 158.1006
241.9378, 156.0477
242.4200, 155.0488
242.9021, 155.6266
243.3842, 156.4241
243.8663, 156.8769
244.3484, 156.6812
244.8306, 157.1047
245.3127, 158.5352
245.7948, 160.3753
246.2769, 161.4340
246.7590, 161.1114
247.2411, 161.0195
247.7233, 161.8959
248.2054, 164.2708
248.6875, 165.5496
249.1696, 165.0735
249.6517, 163.9360
250.1338, 163.9962
250.6160, 165.9629
251.0981, 167.8581
251.5802, 169.0050
252.0623, 169.2359
252.5444, 169.6264
253.0265, 170.2085
253.5087, 170.9229
253.9908, 171.6434
254.4729, 172.2474
254.9550, 173.1284
255.4371, 174.5378
255.9192, 176.5907
256.4014, 178.1688
256.8835, 179.3430
257.3656, 179.9703
257.8477, 179.7515
258.3298, 178.1489
258.8120, 176.9102
259.2941, 176.5498
259.7762, 177.1281
260.2583, 177.5007
260.7404, 177.4710
261.2225, 177.4785
261.7047, 178.0997
262.1868, 179.6921
262.6689, 180.9340
263.1510, 181.3875
263.6331, 181.0817
264.1152, 181.4068
264.5974, 182.7086
265.0795, 184.1027
265.5616, 184.7498
266.0437, 184.5932
266.5258, 183.8395
267.0079, 182.1267
267.4901, 179.6937
267.9722, 179.0611
268.4543, 180.9928
268.9364, 183.1932
269.4185, 183.5055
269.9006, 181.2841
270.3828, 180.0572
270.8649, 180.6346
271.3470, 182.5813
271.8291, 183.8566
272.3112, 184.3567
272.7933, 184.4783
273.2755, 184.3636
273.7576, 183.9168
274.2397, 183.8961
274.7218, 184.5318
275.2039, 185.5635
275.6860, 186.0449
276.1682, 185.7491
276.6503, 185.7737
277.1324, 187.1571
277.6145, 190.0599
278.0966, 191.9146
278.5787, 192.1954
279.0609, 191.7227
279.5430, 192.4320
280.0251, 194.5116
280.5072, 196.6293
280.9893, 198.3612
281.4715, 199.6946
281.9536, 199.6416
282.4357, 197.8734
282.9178, 195.2643
283.3999, 193.1822
283.8820, 191.6329
284.3642, 190.4272
284.8463, 189.7292
285.3284, 189.4441
285.8105, 188.4809
286.2926, 186.7090
286.7747, 184.6270
287.2569, 182.6772
287.7390, 180.8772
288.2211, 179.7608
288.7032, 179.8481
289.1853, 180.8461
289.6674, 181.3907
290.1496, 181.4248
290.6317, 181.4102
291.1138, 181.8596
291.5959, 182.7363
292.0780, 183.7472
292.5602, 184.7878
293.0423, 185.9099
293.5244, 187.1626
294.0065, 188.5326
294.4886, 190.2767
294.9707, 193.0501
295.4529, 196.5114
295.9350, 199.3011
296.4171, 200.7672
296.8992, 201.6975
297.3813, 203.3747
297.8634, 205.7639
298.3456, 208.6094
298.8277, 211.7922
299.3098, 215.2595
299.7919, 218.9275
300.2740, 222.8393
300.7561, 226.7916
301.2383, 230.3294
301.7204, 233.5720
302.2025, 236.8243
302.6846, 240.6486
303.1667, 244.5255
303.6488, 247.6451
304.1310, 249.6861
304.6131, 251.4862
305.0952, 254.0270
305.5773, 256.9962
306.0594, 259.5392
306.5415, 260.6416
307.0237, 261.3838
307.5058, 263.0831
307.9879, 265.9803
308.4700, 268.9355
308.9521, 271.1434
309.4343, 272.8143
309.9164, 274.3752
310.3985, 276.1989
310.8806, 277.8676
311.3627, 278.8224
311.8448, 279.0376
312.3270, 279.6115
312.8091, 281.6137
313.2912, 284.2155
313.7733, 286.4384
314.2554, 287.6133
314.7375, 288.6017
315.2197, 289.4964
315.7018, 290.4115
316.1839, 292.1849
316.6660, 295.9943
317.1481, 300.4228
317.6302, 304.2448
318.1124, 306.4989
318.5945, 308.9674
319.0766, 311.9552
319.5587, 315.5763
320.0408, 320.2481
320.5229, 326.5516
321.0051, 333.6235
321.4872, 341.0263
321.9693, 348.5816
322.4514, 356.5172
322.9335, 365.4827
323.4156, 374.8105
323.8978, 383.2138
324.3799, 390.7196
324.8620, 397.0537
325.3441, 402.1821
325.8262, 406.1242
326.3083, 408.6215
326.7905, 410.4815
327.2726, 410.6195
327.7547, 407.6973
328.2368, 401.7440
328.7189, 392.6446
329.2010, 379.6071
329.6832, 362.4078
330.1653, 345.0585
330.6474, 326.5326
331.1295, 308.6170
331.6116, 292.5617
332.0938, 278.7823
332.5759, 266.1623
333.0580, 254.7834
333.5401, 244.5056
334.0222, 235.0242
334.5043, 225.9754
334.9865, 218.1049
335.4686, 211.8555
335.9507, 207.5547
336.4328, 204.0261
336.9149, 201.4507
337.3970, 199.4426
337.8792, 197.0118
338.3613, 193.9173
338.8434, 190.9856
339.3255, 188.6037
339.8076, 186.8333
340.2898, 185.1473
340.7719, 183.6221
341.2540, 182.0328
341.7361, 179.8280
342.2182, 176.9456
342.7003, 174.4006
343.1825, 172.5756
343.6646, 171.4037
344.1467, 170.7237
344.6288, 170.6415
345.1109, 170.4838
345.5930, 169.1573
346.0752, 166.8613
346.5573, 165.5578
347.0394, 166.1494
347.5215, 167.6356
348.0036, 167.4281
348.4857, 165.5761
348.9679, 164.1189
349.4500, 165.1057
349.9321, 167.7136
350.4142, 169.5218
350.8963, 170.0645
351.3784, 169.9695
351.8606, 169.5018
352.3427, 168.9199
352.8248, 169.1865
353.3069, 171.7160
353.7890, 175.0800
354.2711, 177.1876
354.7533, 177.7457
355.2354, 178.2210
355.7175, 179.6632
356.1996, 181.8935
356.6817, 184.6000
357.1638, 188.4936
357.6460, 192.1983
358.1281, 194.4047
358.6102, 195.2165
359.0923, 196.1837
359.5744, 198.0327
360.0565, 200.5158
360.5387, 203.4421
361.0208, 207.3848
361.5029, 210.9900
361.9850, 213.6397
362.4671, 215.4634
362.9492, 216.8097
363.4314, 217.6690
363.9135, 218.1808
364.3956, 218.3632
364.8777, 218.0419
365.3598, 217.8245
365.8419, 218.4123
366.3241, 219.0595
366.8062, 218.6378
367.2883, 215.9978
367.7704, 213.2310
368.2526, 210.8985
368.7347, 209.0930
369.2168, 207.2307
369.6989, 205.1177
370.1810, 203.0464
370.6631, 201.2760
371.1453, 200.4525
371.6274, 198.9229
372.1095, 196.0139
372.5916, 192.0539
373.0737, 189.3636
373.5558, 188.4023
374.0380, 187.9903
374.5201, 187.5356
375.0022, 187.0808
375.4843, 186.4550
375.9664, 185.6403
376.4485, 184.6629
376.9307, 183.4844
377.4128, 182.0355
377.8949, 180.7216
378.3770, 179.7647
378.8591, 179.1469
379.3412, 178.4734
379.8234, 177.7676
380.3055, 176.9437
380.7876, 175.7564
381.2697, 174.2356
381.7518, 173.0943
382.2339, 172.5640
382.7161, 172.4975
383.1982, 172.6669
383.6803, 173.0619
384.1624, 173.4113
384.6445, 173.1276
385.1266, 172.6514
385.6088, 173.2842
386.0909, 175.5050
386.5730, 177.9624
387.0551, 179.2295
387.5372, 179.4534
388.0193, 179.0616
388.5015, 177.7251
388.9836, 176.1753
389.4657, 175.2087
389.9478, 174.8770
390.4299, 174.7891
390.9120, 174.5525
391.3942, 174.4419
391.8763, 174.8072
392.3584, 176.2796
392.8405, 177.7669
393.3226, 178.5241
393.8047, 178.7458
394.2869, 179.3222
394.7690, 181.5693
395.2511, 183.6191
395.7332, 184.1501
396.2154, 181.9743
396.6975, 180.3424
397.1796, 180.0237
397.6617, 180.6542
398.1438, 181.5963
398.6259, 183.2428
399.1081, 184.7298
399.5902, 185.7162
400.0723, 186.0880
400.5544, 186.7514
401.0365, 187.9642
401.5186, 189.2765
402.0008, 190.3686
402.4829, 191.5507
402.9650, 191.8850
403.4471, 190.9050
403.9292, 188.9960
404.4113, 187.8296
404.8935, 187.5965
405.3756, 187.6444
405.8577, 187.6732
406.3398, 187.6815
406.8219, 187.6789
407.3040, 187.6474
407.7862, 187.6462
408.2683, 187.7623
408.7504, 187.9997
409.2325, 188.3160
409.7146, 188.7603
410.1967, 189.2612
410.6789, 189.5625
411.1610, 189.6587
411.6431, 189.7516
412.1252, 189.7994
412.6073, 189.9643
413.0894, 190.9021
413.5716, 193.0813
414.0537, 195.2675
414.5358, 195.6633
415.0179, 194.7089
415.5000, 193.8585
415.9821, 193.8232
416.4643, 194.3369
416.9464, 195.4498
417.4285, 197.2267
417.9106, 198.4123
418.3927, 197.7298
418.8748, 196.1474
419.3570, 194.8288
419.8391, 194.3763
420.3212, 194.0468
420.8033, 193.4801
421.2854, 192.7506
421.7675, 192.1942
422.2497, 192.6936
422.7318, 192.8172
423.2139, 191.6439
423.6960, 188.1941
424.1781, 185.3958
424.6602, 184.4309
425.1424, 184.0730
425.6245, 182.5086
426.1066, 178.5131
426.5887, 174.8735
427.0709, 172.1071
427.5530, 170.2125
428.0351, 169.1409
428.5172, 169.5530
428.9993, 169.8620
429.4814, 168.7126
429.9636, 165.5250
430.4457, 163.1486
430.9278, 161.9762
431.4099, 161.5772
431.8920, 161.0989
432.3741, 160.5425
432.8563, 159.8528
433.3384, 158.7883
433.8205, 157.4842
434.3026, 156.9201
434.7847, 157.1254
435.2668, 157.7890
435.7490, 159.0267
436.2311, 160.5518
436.7132, 161.2612
437.1953, 160.6912
437.6774, 159.4229
438.1595, 157.9521
438.6417, 156.3730
439.1238, 155.0757
439.6059, 154.4470
440.0880, 154.1428
440.5701, 153.8743
441.0522, 153.6406
441.5344, 153.2116
442.0165, 152.7021
442.4986, 151.8362
442.9807, 150.2734
443.4628, 146.9147
443.9449, 143.8039
444.4271, 141.8948
444.9092, 141.0029
445.3913, 140.0152
445.8734, 138.3247
446.3555, 136.7503
446.8376, 135.6815
447.3198, 135.1348
447.8019, 135.1464
448.2840, 136.2199
448.7661, 137.6295
449.2482, 138.3683
449.7303, 138.2175
450.2125, 137.7310
450.6946, 136.8422
451.1767, 135.6105
451.6588, 134.9846
452.1409, 135.0887
452.6230, 135.4981
453.1052, 135.9291
453.5873, 136.3788
454.0694, 136.9218
454.5515, 137.5358
455.0337, 138.2982
455.5158, 139.4148
455.9979, 140.8673
456.4800, 142.2378
456.9621, 143.1946
457.4442, 144.0033
457.9264, 145.3682
458.4085, 147.2665
458.8906, 149.2779
459.3727, 151.1514
459.8548, 152.8787
460.3369, 154.3168
460.8191, 155.2392
461.3012, 156.3836
461.7833, 158.6160
462.2654, 161.5061
462.7475, 164.1474
463.2296, 165.5665
463.7118, 167.1388
464.1939, 169.9666
464.6760, 174.1583
465.1581, 177.6585
465.6402, 178.9012
466.1223, 179.7483
466.6045, 181.4916
467.0866, 185.3374
467.5687, 188.7924
468.0508, 191.9346
468.5329, 194.5916
469.0150, 196.3439
469.4972, 196.5682
469.9793, 196.8206
470.4614, 197.7788
470.9435, 199.5345
471.4256, 200.0970
471.9077, 199.1942
472.3899, 197.6497
472.8720, 196.2786
473.3541, 195.1333
473.8362, 193.1595
474.3183, 189.8935
474.8004, 186.2097
475.2826, 183.8608
475.7647, 182.7826
476.2468, 182.0776
476.7289, 181.0974
477.2110, 180.2011
477.6931, 180.2101
478.1753, 181.1252
478.6574, 182.6480
479.1395, 184.9996
479.6216, 187.6709
480.1037, 189.8024
480.5858, 190.7118
481.0680, 191.9230
481.5501, 194.9919
482.0322, 199.1177
482.5143, 202.6030
482.9964, 204.3355
483.4786, 205.6687
483.9607, 207.4874
484.4428, 209.9282
484.9249, 211.3080
485.4070, 211.0678
485.8892, 209.7939
486.3713, 207.8633
486.8534, 205.4174
487.3355, 202.1895
487.8176, 198.0026
488.2997, 193.0950
488.7819, 187.7381
489.2640, 181.4806
489.7461, 175.7537
490.2282, 171.1334
490.7103, 167.5182
491.1924, 163.8874
491.6746, 160.2113
492.1567, 156.5425
492.6388, 152.5811
493.1209, 148.4521
493.6030, 145.9559
494.0851, 145.6723
494.5673, 146.0099
495.0494, 144.4865
495.5315, 141.5636
496.0136, 138.9655
496.4957, 137.6846
496.9778, 137.0220
497.4600, 136.2731
497.9421, 135.4308
498.4242, 134.4620
498.9063, 133.2144
499.3884, 131.9020
499.8705, 130.6319
500.3527, 129.2840
500.8348, 128.3635
501.3169, 128.1204
501.7990, 128.4086
502.2811, 129.0297
502.7632, 131.0882
503.2454, 132.2471
503.7275, 131.4209
504.2096, 128.8753
504.6917, 127.5303
505.1738, 128.1098
505.6559, 128.9252
506.1381, 129.1386
506.6202, 128.6800
507.1023, 127.8397
507.5844, 126.4769
508.0665, 124.9919
508.5486, 123.8267
509.0308, 122.9737
509.5129, 122.7307
509.9950, 123.3428
510.4771, 124.4297
510.9592, 125.1786
511.4413, 125.6188
511.9235, 126.0824
512.4056, 126.7573
512.8877, 127.5911
513.3698, 128.6962
513.8519, 130.1231
514.3340, 131.1182
514.8162, 130.7322
515.2983, 129.7441
515.7804, 129.0940
516.2625, 129.3107
516.7446, 129.5989
517.2267, 129.5605
517.7089, 129.3571
518.1910, 129.3839
518.6731, 130.4669
519.1552, 131.1012
519.6373, 130.3784
520.1194, 128.0595
520.6016, 126.9600
521.0837, 127.7371
521.5658, 129.0081
522.0479, 129.8706
522.5300, 130.3409
523.0121, 130.2579
523.4943, 129.4642
523.9764, 128.3074
524.4585, 127.2430
524.9406, 126.2779
525.4227, 125.8528
525.9048, 126.3363
526.3870, 127.3701
526.8691, 128.2281
527.3513, 128.8962
527.8334, 129.1296
528.3155, 128.2054
528.7976, 126.9405
529.2797, 126.7832
529.7618, 128.1391
530.2440, 129.1527
530.7261, 127.9546
531.2082, 125.8050
531.6903, 124.3391
532.1724, 124.7474
532.6545, 125.2032
533.1367, 125.0179
533.6188, 124.3848
534.1009, 124.0002
534.5830, 123.9745
535.0651, 124.2170
535.5472, 124.7556
536.0294, 125.6517
536.5115, 126.4577
536.9936, 127.2279
537.4757, 127.8337
537.9578, 128.1616
538.4399, 128.1977
538.9221, 128.0417
539.4042, 127.6656
539.8863, 127.1645
540.3684, 126.6583
540.8505, 126.1545
541.3326, 125.7416
541.8148, 125.4156
542.2969, 125.2267
542.7790, 125.3473
543.2611, 125.7398
543.7432, 126.1035
544.2253, 126.5042
544.7075, 126.6303
545.1896, 125.9102
545.6717, 124.0322
546.1538, 122.6600
546.6359, 123.1312
547.1180, 124.3123
547.6002, 124.9935
548.0823, 124.0162
548.5644, 123.5291
549.0465, 124.4081
549.5286, 126.0771
550.0107, 126.7970
550.4929, 125.6450
550.9750, 124.9524
551.4571, 125.7231
551.9392, 127.9715
552.4213, 129.1440
552.9034, 129.0906
553.3856, 128.4612
553.8677, 127.4544
554.3498, 126.1560
554.8319, 125.7595
555.3140, 126.5491
555.7961, 127.6427
556.2783, 127.6667
556.7604, 127.0350
557.2425, 126.9443
557.7246, 128.2236
558.2067, 129.8336
558.6888, 130.9890
559.1710, 131.6713
559.6531, 131.7860
560.1352, 130.2714
560.6173, 128.9774
561.0994, 129.3510
561.5815, 131.7779
562.0637, 133.4159
562.5458, 132.7037
563.0279, 131.6606
563.5100, 131.7991
563.9921, 134.2402
564.4742, 135.8956
564.9564, 136.5406
565.4385, 136.4918
565.9206, 136.1169
566.4027, 135.2778
566.8848, 134.8085
567.3669, 134.9493
567.8491, 135.6299
568.3312, 136.8145
568.8133, 138.4743
569.2954, 139.9967
569.7775, 141.0889
570.2596, 141.7361
570.7418, 141.5989
571.2239, 140.6236
571.7060, 140.0245
572.1881, 141.2056
572.6702, 143.0481
573.1523, 144.3177
573.6345, 144.5007
574.1166, 144.4301
574.5987, 143.7897
575.0808, 143.2147
575.5629, 143.7637
576.0450, 147.1303
576.5272, 149.9097
577.0093, 151.2441
577.4914, 151.3625
577.9735, 151.7632
578.4556, 152.4236
578.9377, 153.4098
579.4199, 154.8189
579.9020, 156.6407
580.3841, 158.7554
580.8662, 161.2847
581.3483, 163.4436
581.8304, 163.7773
582.3126, 162.9727
582.7947, 163.6448
583.2768, 166.6705
583.7589, 170.0830
584.2410, 171.5703
584.7231, 171.9216
585.2053, 172.6991
585.6874, 174.6704
586.1696, 177.1379
586.6517, 179.8574
587.1338, 182.7880
587.6159, 185.7820
588.0980, 188.7678
588.5801, 191.8291
589.0623, 194.9631
589.5444, 198.1248
590.0265, 201.5887
590.5086, 205.3013
590.9907, 209.3829
591.4728, 213.9322
591.9550, 218.9064
592.4371, 224.3806
592.9192, 230.2899
593.4013, 236.7374
593.8834, 244.0090
594.3655, 252.0082
594.8477, 260.0382
595.3298, 267.3021
595.8119, 275.0899
596.2940, 285.5587
596.7761, 298.0584
597.2582, 310.7274
597.7404, 321.2236
598.2225, 332.5555
598.7046, 346.9335
599.1867, 364.4203
599.6688, 383.3449
600.1509, 403.0772
600.6331, 424.3936
601.1152, 447.6507
601.5973, 473.4034
602.0794, 500.0633
602.5615, 526.7957
603.0436, 555.0176
603.5258, 586.2311
604.0079, 620.7410
604.4900, 655.9486
604.9721, 691.0045
605.4542, 726.5545
605.9363, 763.4065
606.4185, 801.3541
606.9006, 841.6848
607.3827, 884.4807
607.8648, 929.5036
608.3469, 975.5878
608.8290, 1023.043
609.3112, 1071.070
609.7933, 1119.555
610.2754, 1169.748
610.7575, 1219.876
611.2396, 1272.597
611.7217, 1325.156
612.2039, 1379.286
612.6860, 1430.893
613.1681, 1477.411
613.6502, 1517.450
614.1323, 1554.526
614.6144, 1590.850
615.0966, 1621.819
615.5787, 1642.021
616.0608, 1651.240
616.5429, 1650.195
617.0250, 1639.236
617.5071, 1618.027
617.9893, 1585.547
618.4714, 1541.873
618.9535, 1489.478
619.4356, 1426.135
619.9177, 1355.723
620.3998, 1281.045
620.8820, 1202.675
621.3641, 1125.178
621.8462, 1047.538
622.3283, 972.9456
622.8104, 904.4088
623.2925, 842.3506
623.7747, 784.1832
624.2568, 728.7595
624.7389, 677.5759
625.2210, 631.9445
625.7031, 593.0092
626.1852, 557.0145
626.6674, 524.1458
627.1495, 494.1737
627.6316, 467.0760
628.1137, 442.8730
628.5958, 421.1213
629.0779, 401.8627
629.5601, 384.7932
630.0422, 369.7705
630.5243, 356.6562
631.0064, 344.1405
631.4885, 330.5894
631.9706, 317.9581
632.4528, 308.6221
632.9349, 302.4534
633.4170, 296.3994
633.8991, 288.8876
634.3812, 281.2841
634.8633, 274.2164
635.3455, 267.7167
635.8276, 262.1937
636.3097, 258.1839
636.7918, 254.6447
637.2739, 250.6427
637.7560, 246.0021
638.2382, 241.7085
638.7203, 237.8562
639.2024, 234.4037
639.6845, 231.3183
640.1666, 228.5614
640.6487, 225.9233
641.1309, 223.1768
641.6130, 220.6859
642.0951, 219.2280
642.5772, 218.4991
643.0594, 217.7114
643.5415, 216.5757
644.0236, 215.1695
644.5057, 213.3823
644.9879, 211.2683
645.4700, 209.3576
645.9521, 208.1618
646.4342, 206.8178
646.9163, 204.8305
647.3984, 202.0051
647.8806, 199.7711
648.3627, 198.1575
648.8448, 197.0540
649.3269, 196.5355
649.8090, 196.6038
650.2911, 196.3326
650.7733, 195.6022
651.2554, 194.7425
651.7375, 193.9311
652.2196, 193.2960
652.7017, 193.2724
653.1838, 194.4778
653.6660, 195.3370
654.1481, 194.1284
654.6302, 191.8080
655.1123, 190.0480
655.5944, 189.5139
