##NAMES=Pyrosmalite-(Fe)
##RRUFFID=R060438
##IDEAL CHEMISTRY=Fe^2+^_8_Si_6_O_15_(OH)_10_
##LOCALITY=Monchi mine, Brugillos del Cerro, Badoz Province, Spain
##OWNER=RRUFF
##SOURCE=Michael Scott
##DESCRIPTION=Colorless hexagonal prisms
##STATUS=The identification of this mineral is confirmed by single-crystal X-ray diffraction and chemical analysis.
##URL=rruff.info/R060438
##MEASURED CHEMISTRY=(Fe^2+^_7.44_Mn_0.31_Mg_0.25_)_Σ=8_Si_6.00_O_15_((OH)_8.20_Cl_1.80_)_Σ=10_ ; OH estimated by difference and charge balance
203.9028, 48.97428
204.3849, 48.19439
204.8670, 46.17177
205.3492, 44.52877
205.8313, 43.54107
206.3134, 43.04974
206.7955, 42.96532
207.2776, 43.36340
207.7597, 43.81859
208.2419, 44.41438
208.7240, 44.86516
209.2061, 44.80386
209.6882, 44.02993
210.1703, 42.86725
210.6524, 41.80708
211.1346, 40.79089
211.6167, 40.06653
212.0988, 39.90092
212.5809, 39.95088
213.0630, 39.82760
213.5451, 39.33431
214.0273, 38.76721
214.5094, 38.91587
214.9915, 40.53304
215.4736, 41.47447
215.9557, 40.80744
216.4378, 39.60713
216.9200, 39.01922
217.4021, 39.57370
217.8842, 40.77082
218.3663, 41.20165
218.8484, 40.34680
219.3305, 39.39619
219.8127, 38.22432
220.2948, 37.14058
220.7769, 36.47860
221.2590, 36.39040
221.7411, 36.74160
222.2232, 37.13295
222.7054, 37.31994
223.1875, 37.87925
223.6696, 39.53406
224.1517, 41.33867
224.6338, 42.07536
225.1159, 41.19922
225.5980, 39.28142
226.0802, 37.97083
226.5623, 37.68901
227.0444, 37.54737
227.5265, 37.50690
228.0086, 37.56805
228.4907, 37.76373
228.9729, 38.11373
229.4550, 38.54702
229.9371, 38.86483
230.4192, 38.85208
230.9013, 39.06073
231.3834, 39.93753
231.8656, 41.00677
232.3477, 41.51979
232.8298, 41.15586
233.3119, 40.25311
233.7940, 39.42567
234.2761, 38.41047
234.7583, 38.02163
235.2404, 39.03070
235.7225, 40.71618
236.2046, 41.78849
236.6867, 41.75959
237.1688, 41.13568
237.6510, 40.73231
238.1331, 40.53819
238.6152, 40.47351
239.0973, 40.86968
239.5794, 41.35757
240.0615, 40.95063
240.5437, 39.03792
241.0258, 36.88385
241.5079, 36.27092
241.9900, 37.13810
242.4721, 38.16529
242.9542, 38.75420
243.4364, 39.08888
243.9185, 39.72290
244.4006, 40.96538
244.8827, 42.14010
245.3648, 42.42197
245.8469, 41.93559
246.3290, 41.56135
246.8112, 41.83677
247.2933, 42.56414
247.7754, 43.22203
248.2575, 43.94184
248.7396, 44.20866
249.2217, 43.31798
249.7039, 41.60866
250.1860, 40.24755
250.6681, 40.13409
251.1502, 40.91797
251.6323, 41.28114
252.1144, 41.01276
252.5966, 40.55227
253.0787, 40.01135
253.5608, 39.49175
254.0429, 39.23839
254.5250, 39.58504
255.0071, 40.31777
255.4893, 40.54631
255.9714, 39.89640
256.4535, 39.33451
256.9356, 39.40786
257.4177, 39.82871
257.8998, 40.10289
258.3820, 39.86220
258.8641, 39.32576
259.3462, 39.36565
259.8283, 40.62513
260.3104, 41.37410
260.7925, 40.83020
261.2747, 39.59705
261.7568, 38.42532
262.2389, 37.64917
262.7210, 37.22324
263.2031, 37.05429
263.6852, 37.39679
264.1674, 37.55642
264.6495, 37.13764
265.1316, 36.57515
265.6137, 36.36943
266.0958, 36.74863
266.5779, 37.46818
267.0601, 37.93175
267.5422, 37.90773
268.0243, 38.04242
268.5064, 38.69588
268.9885, 39.38753
269.4706, 39.72021
269.9528, 39.55071
270.4349, 38.95707
270.9170, 37.92242
271.3991, 35.60518
271.8812, 34.60962
272.3633, 36.25751
272.8455, 38.33081
273.3276, 38.92479
273.8097, 37.67525
274.2918, 35.82755
274.7739, 35.43409
275.2560, 37.86167
275.7382, 38.78748
276.2202, 37.23883
276.7024, 35.24921
277.1845, 33.94004
277.6666, 33.53889
278.1487, 33.76283
278.6308, 34.37083
279.1129, 35.65249
279.5951, 36.27767
280.0772, 35.97169
280.5593, 35.38113
281.0414, 34.63951
281.5235, 33.87998
282.0056, 33.36655
282.4878, 33.40741
282.9699, 34.13104
283.4520, 34.47077
283.9341, 34.01359
284.4162, 33.63161
284.8983, 33.67272
285.3805, 34.09274
285.8626, 34.75611
286.3447, 35.64331
286.8268, 36.73422
287.3089, 36.87731
287.7910, 34.87274
288.2732, 33.28491
288.7553, 32.89381
289.2374, 33.45835
289.7195, 34.61609
290.2016, 36.24589
290.6837, 38.08618
291.1659, 38.64019
291.6480, 36.19359
292.1301, 34.46947
292.6122, 34.35992
293.0943, 35.26394
293.5764, 36.49662
294.0586, 37.77570
294.5407, 38.86243
295.0228, 39.10875
295.5049, 36.98205
295.9870, 35.88533
296.4691, 36.86380
296.9513, 38.53147
297.4334, 39.29823
297.9155, 38.66867
298.3976, 37.46958
298.8797, 37.08533
299.3618, 38.05354
299.8440, 38.92029
300.3261, 39.94365
300.8082, 40.70493
301.2903, 40.57737
301.7724, 39.56127
302.2545, 38.59967
302.7367, 38.90450
303.2188, 41.04619
303.7009, 42.20538
304.1830, 41.61322
304.6651, 40.76780
305.1472, 40.65501
305.6294, 41.25054
306.1115, 41.85237
306.5936, 41.77906
307.0757, 40.95910
307.5578, 41.06696
308.0399, 43.27520
308.5221, 45.08551
309.0042, 45.09565
309.4863, 43.77488
309.9684, 42.45276
310.4505, 41.97924
310.9326, 42.22770
311.4148, 42.34389
311.8969, 41.95458
312.3790, 41.87980
312.8611, 42.63961
313.3432, 43.78451
313.8253, 44.53918
314.3075, 44.52576
314.7896, 44.07792
315.2717, 44.05796
315.7538, 44.96796
316.2359, 45.58144
316.7180, 45.56617
317.2001, 45.31175
317.6823, 45.19840
318.1644, 45.34248
318.6465, 45.71342
319.1286, 46.29558
319.6107, 47.26890
320.0928, 47.99970
320.5750, 48.32059
321.0571, 48.52482
321.5392, 48.80175
322.0213, 49.18658
322.5034, 49.66935
322.9855, 50.26605
323.4677, 51.02450
323.9498, 51.52463
324.4319, 51.43919
324.9140, 51.43885
325.3961, 52.23642
325.8782, 53.48232
326.3604, 54.05863
326.8425, 53.08336
327.3246, 50.73530
327.8067, 49.02744
328.2888, 48.68803
328.7709, 48.06828
329.2531, 46.50795
329.7352, 44.43703
330.2173, 42.53455
330.6994, 41.11665
331.1815, 40.10247
331.6636, 39.27105
332.1458, 38.98121
332.6279, 38.42933
333.1100, 37.17610
333.5921, 35.85860
334.0742, 35.20202
334.5563, 35.38247
335.0385, 35.88861
335.5206, 35.98077
336.0027, 35.47513
336.4848, 34.98838
336.9669, 34.26759
337.4490, 33.75142
337.9312, 33.99545
338.4133, 34.84776
338.8954, 35.43745
339.3775, 34.82722
339.8596, 32.82029
340.3417, 32.10346
340.8239, 34.13319
341.3060, 35.76384
341.7881, 35.48936
342.2702, 33.97646
342.7523, 32.73594
343.2344, 32.73154
343.7166, 33.66379
344.1987, 34.07602
344.6808, 33.36370
345.1629, 32.78526
345.6450, 32.45044
346.1271, 32.30794
346.6093, 32.36834
347.0914, 32.61971
347.5735, 32.89369
348.0556, 32.83964
348.5377, 32.11770
349.0198, 31.68505
349.5020, 31.56437
349.9841, 31.66877
350.4662, 32.04508
350.9483, 32.63462
351.4304, 33.22808
351.9125, 33.58895
352.3947, 33.67920
352.8768, 33.78638
353.3589, 33.85813
353.8410, 33.99755
354.3231, 34.42129
354.8052, 34.93899
355.2874, 35.11494
355.7695, 34.57942
356.2516, 33.53283
356.7337, 33.15066
357.2158, 34.22180
357.6979, 34.89398
358.1800, 34.43191
358.6621, 33.59654
359.1443, 33.22196
359.6264, 33.62653
360.1085, 34.52447
360.5906, 35.56072
361.0727, 37.13228
361.5548, 37.75953
362.0370, 36.31446
362.5191, 34.68760
363.0012, 34.04105
363.4833, 34.46259
363.9654, 35.31463
364.4475, 36.09553
364.9297, 36.82379
365.4118, 37.15565
365.8939, 36.78689
366.3760, 36.32621
366.8581, 36.00534
367.3402, 35.78014
367.8224, 35.52607
368.3045, 35.14397
368.7866, 34.70687
369.2687, 34.41825
369.7508, 34.26513
370.2329, 34.30618
370.7151, 35.12512
371.1972, 35.86928
371.6793, 35.37047
372.1614, 33.13624
372.6435, 30.83647
373.1256, 30.82526
373.6078, 33.29140
374.0899, 35.31560
374.5720, 36.26287
375.0541, 36.55343
375.5362, 36.38028
376.0183, 35.80157
376.5005, 35.14634
376.9826, 34.42020
377.4647, 33.75928
377.9468, 33.82131
378.4289, 35.06085
378.9110, 36.09602
379.3932, 35.82814
379.8753, 34.72217
380.3574, 33.57810
380.8395, 32.52084
381.3216, 31.64648
381.8037, 31.06603
382.2859, 30.77789
382.7680, 30.80414
383.2501, 31.41319
383.7322, 32.17485
384.2143, 32.28028
384.6964, 31.41831
385.1786, 30.95211
385.6607, 32.19676
386.1428, 34.44662
386.6249, 35.80223
387.1070, 35.74012
387.5891, 34.91990
388.0713, 33.60028
388.5534, 31.84939
389.0355, 31.22124
389.5176, 32.92681
389.9997, 35.34084
390.4818, 36.94667
390.9640, 37.66366
391.4461, 37.91472
391.9282, 37.91754
392.4103, 37.68122
392.8924, 37.32986
393.3745, 36.70748
393.8567, 36.14951
394.3388, 35.78429
394.8209, 35.57653
395.3030, 35.47032
395.7851, 35.44679
396.2672, 35.49703
396.7494, 35.61258
397.2315, 35.82528
397.7136, 36.02856
398.1957, 36.10146
398.6778, 36.24275
399.1599, 36.73153
399.6420, 37.52677
400.1241, 38.21794
400.6063, 38.39042
401.0884, 38.01739
401.5705, 38.08750
402.0526, 39.03929
402.5347, 39.88346
403.0168, 40.33053
403.4990, 40.46850
403.9811, 40.46318
404.4632, 40.39462
404.9453, 40.22940
405.4274, 39.85618
405.9095, 38.96258
406.3917, 38.40705
406.8738, 38.53709
407.3559, 38.74555
407.8380, 38.52309
408.3201, 37.86406
408.8022, 37.18276
409.2844, 36.88006
409.7665, 36.97337
410.2486, 37.20375
410.7307, 37.60996
411.2128, 38.12579
411.6949, 39.18662
412.1771, 40.25037
412.6592, 40.29338
413.1413, 38.63354
413.6234, 36.28846
414.1055, 35.52993
414.5876, 36.81981
415.0698, 38.29418
415.5519, 40.21315
416.0340, 41.68750
416.5161, 41.71144
416.9982, 40.28178
417.4803, 38.90509
417.9625, 39.18986
418.4446, 40.81334
418.9267, 41.46148
419.4088, 40.55505
419.8909, 39.41675
420.3730, 38.96074
420.8552, 38.90411
421.3373, 38.67751
421.8194, 37.98980
422.3015, 37.15548
422.7836, 36.63467
423.2657, 36.42130
423.7479, 35.89692
424.2300, 34.42862
424.7121, 32.88586
425.1942, 32.76830
425.6763, 34.41596
426.1584, 35.69939
426.6406, 35.45621
427.1227, 34.32864
427.6048, 33.22406
428.0869, 32.25047
428.5690, 31.78320
429.0511, 32.35121
429.5333, 33.95965
430.0154, 35.05989
430.4975, 35.67528
430.9796, 35.75512
431.4617, 34.98571
431.9438, 33.64442
432.4260, 32.36065
432.9081, 31.41102
433.3902, 30.79329
433.8723, 30.54523
434.3544, 31.24559
434.8365, 31.33917
435.3187, 29.96004
435.8008, 28.49613
436.2829, 28.38507
436.7650, 29.58992
437.2471, 30.75692
437.7292, 30.54373
438.2114, 28.89802
438.6935, 27.92651
439.1756, 27.90313
439.6577, 28.26722
440.1398, 29.49337
440.6219, 30.84560
441.1040, 31.19622
441.5862, 30.07625
442.0683, 28.34538
442.5504, 27.59322
443.0325, 28.10413
443.5146, 28.72110
443.9967, 29.72614
444.4789, 30.49413
444.9610, 30.43847
445.4431, 29.76950
445.9252, 29.33540
446.4073, 30.06887
446.8894, 31.47306
447.3716, 31.37139
447.8537, 28.95002
448.3358, 27.05993
448.8179, 27.57195
449.3000, 29.00488
449.7821, 29.75758
450.2643, 29.39224
450.7464, 28.86184
451.2285, 29.08471
451.7106, 29.89132
452.1927, 30.45806
452.6748, 30.66596
453.1570, 30.50521
453.6391, 29.58864
454.1212, 28.13828
454.6033, 27.31687
455.0854, 28.00295
455.5675, 28.98271
456.0497, 28.97570
456.5318, 28.15033
457.0139, 27.68989
457.4960, 28.25182
457.9781, 29.49755
458.4602, 30.56317
458.9424, 31.57120
459.4245, 32.20351
459.9066, 32.06708
460.3887, 31.71316
460.8708, 31.71833
461.3529, 32.15608
461.8351, 32.76384
462.3172, 33.36110
462.7993, 33.96122
463.2814, 33.98767
463.7635, 32.59595
464.2456, 31.63888
464.7278, 31.74813
465.2099, 32.51303
465.6920, 33.45357
466.1741, 34.36992
466.6562, 35.12024
467.1383, 35.47075
467.6205, 35.38725
468.1026, 35.00842
468.5847, 33.46667
469.0668, 32.42089
469.5489, 33.11435
470.0310, 34.99146
470.5132, 36.42256
470.9953, 36.14835
471.4774, 35.01158
471.9595, 35.40908
472.4416, 37.88382
472.9237, 39.86779
473.4059, 40.10135
473.8880, 39.61836
474.3701, 39.19007
474.8522, 38.88933
475.3343, 38.88439
475.8164, 39.54160
476.2986, 40.55317
476.7807, 41.04491
477.2628, 40.80316
477.7449, 40.68396
478.2270, 41.55842
478.7091, 43.11257
479.1913, 43.98907
479.6734, 43.22045
480.1555, 42.76100
480.6376, 44.18782
481.1197, 46.59341
481.6018, 47.96655
482.0839, 47.61643
482.5660, 46.54328
483.0482, 46.16613
483.5303, 46.83778
484.0124, 46.89622
484.4945, 45.52156
484.9766, 44.34084
485.4587, 44.41001
485.9409, 45.38738
486.4230, 46.41547
486.9051, 47.04744
487.3872, 47.21626
487.8693, 46.65717
488.3514, 44.76677
488.8336, 43.26811
489.3157, 42.25177
489.7978, 41.62699
490.2799, 41.51274
490.7620, 41.79051
491.2441, 42.04299
491.7263, 41.84039
492.2084, 41.34105
492.6905, 41.46157
493.1726, 42.68685
493.6547, 43.36167
494.1368, 42.16723
494.6190, 40.38619
495.1011, 39.34179
495.5832, 39.32835
496.0653, 39.52994
496.5474, 39.45293
497.0295, 39.10967
497.5117, 38.47350
497.9938, 37.47626
498.4759, 36.44620
498.9580, 35.59962
499.4401, 34.94084
499.9222, 34.44859
500.4044, 34.19362
500.8865, 34.02885
501.3686, 34.14439
501.8507, 34.26068
502.3328, 33.49748
502.8149, 31.50744
503.2971, 29.61248
503.7792, 29.91208
504.2613, 33.60429
504.7434, 35.08782
505.2255, 32.44044
505.7076, 29.73473
506.1898, 29.12932
506.6719, 29.93661
507.1540, 30.51430
507.6361, 30.00132
508.1182, 28.77662
508.6003, 27.66347
509.0825, 26.59549
509.5646, 25.81659
510.0467, 25.23980
510.5288, 25.05427
511.0109, 25.69620
511.4930, 26.90034
511.9752, 27.78018
512.4573, 27.72057
512.9394, 27.00672
513.4215, 26.14538
513.9036, 25.04331
514.3857, 24.38274
514.8679, 24.64173
515.3500, 25.33376
515.8321, 25.96176
516.3142, 26.57044
516.7963, 26.60632
517.2784, 25.04996
517.7606, 23.14293
518.2427, 22.95554
518.7248, 24.56979
519.2069, 26.01737
519.6890, 25.95971
520.1711, 24.68645
520.6533, 23.62540
521.1354, 22.23092
521.6175, 21.71149
522.0996, 23.21367
522.5817, 25.14161
523.0638, 25.77135
523.5460, 24.91123
524.0281, 23.61746
524.5102, 22.89932
524.9923, 22.73776
525.4744, 22.34502
525.9565, 21.14825
526.4387, 20.50157
526.9208, 21.26926
527.4029, 22.38198
527.8850, 22.62947
528.3671, 21.73439
528.8492, 20.54264
529.3314, 19.77251
529.8135, 19.43155
530.2956, 19.73703
530.7777, 21.11893
531.2598, 22.27775
531.7419, 22.08785
532.2241, 21.20653
532.7062, 20.66611
533.1883, 20.73692
533.6704, 21.00415
534.1525, 21.35432
534.6346, 21.67351
535.1168, 21.57038
535.5989, 20.91117
536.0810, 20.34897
536.5631, 20.71831
537.0452, 22.07886
537.5273, 22.33501
538.0095, 20.12264
538.4916, 18.43125
538.9737, 18.90927
539.4558, 20.41883
539.9379, 21.18533
540.4200, 20.65022
540.9022, 19.61663
541.3843, 19.19937
541.8664, 19.52001
542.3485, 19.77076
542.8306, 19.91179
543.3127, 20.01989
543.7948, 20.04637
544.2769, 20.07626
544.7590, 20.29635
545.2411, 20.81276
545.7233, 21.26941
546.2054, 21.08093
546.6875, 20.30665
547.1696, 19.85322
547.6517, 19.92543
548.1339, 20.21108
548.6160, 20.73899
549.0981, 21.30929
549.5802, 21.24844
550.0623, 19.62188
550.5444, 18.19281
551.0266, 18.40100
551.5087, 19.63652
551.9908, 20.47999
552.4729, 20.49574
552.9550, 20.21282
553.4371, 20.34886
553.9193, 21.09567
554.4014, 21.04343
554.8835, 19.11153
555.3656, 17.69247
555.8477, 18.04800
556.3298, 19.33320
556.8120, 20.36016
557.2941, 20.67954
557.7762, 20.44175
558.2583, 19.58242
558.7404, 17.91043
559.2225, 17.31070
559.7047, 18.66673
560.1868, 20.03291
560.6689, 20.54266
561.1510, 20.44371
561.6331, 20.10083
562.1152, 19.51462
562.5974, 19.01718
563.0795, 18.79831
563.5616, 18.90720
564.0437, 19.81642
564.5258, 21.88910
565.0079, 23.48161
565.4901, 22.71258
565.9722, 19.73520
566.4543, 18.16470
566.9364, 19.15906
567.4185, 20.22146
567.9006, 20.39257
568.3828, 20.05837
568.8649, 19.64190
569.3470, 19.31365
569.8291, 19.35587
570.3112, 20.27227
570.7933, 22.18332
571.2755, 22.81277
571.7576, 20.85444
572.2397, 19.22297
572.7218, 18.76633
573.2039, 18.91073
573.6860, 18.98287
574.1682, 18.81747
574.6503, 18.74588
575.1324, 19.22711
575.6145, 20.09730
576.0966, 20.56082
576.5787, 20.45868
577.0609, 20.38612
577.5430, 20.73257
578.0251, 21.35444
578.5072, 21.92266
578.9893, 22.55010
579.4714, 22.85428
579.9536, 22.37537
580.4357, 21.65692
580.9178, 21.44409
581.3999, 21.77035
581.8820, 22.06205
582.3641, 21.84481
582.8463, 21.25440
583.3284, 21.08889
583.8105, 21.75629
584.2926, 22.26987
584.7747, 22.72723
585.2568, 22.88679
585.7390, 22.30742
586.2211, 21.17139
586.7032, 20.26209
587.1853, 20.07695
587.6674, 20.56051
588.1495, 21.80990
588.6317, 24.03677
589.1138, 25.73203
589.5959, 26.41566
590.0780, 26.32266
590.5601, 25.53703
591.0422, 24.07284
591.5244, 23.04004
592.0065, 22.74886
592.4886, 23.05584
592.9707, 24.19227
593.4528, 25.86669
593.9349, 27.13282
594.4171, 27.54632
594.8992, 27.52909
595.3813, 27.81565
595.8634, 28.51312
596.3455, 29.20988
596.8276, 30.00329
597.3098, 30.69458
597.7919, 30.91027
598.2740, 31.04381
598.7561, 31.84806
599.2382, 33.65712
599.7203, 35.73686
600.2025, 37.02124
600.6846, 37.54306
601.1667, 38.37492
601.6488, 39.72771
602.1309, 41.18374
602.6130, 42.68367
603.0952, 44.05145
603.5773, 44.71511
604.0594, 43.83912
604.5415, 43.70972
605.0236, 46.26558
605.5057, 50.01669
605.9879, 52.63617
606.4700, 53.77923
606.9521, 54.43775
607.4342, 55.35108
607.9163, 56.51952
608.3984, 57.98538
608.8806, 60.32070
609.3627, 62.14394
609.8448, 62.56505
610.3269, 63.02378
610.8090, 65.04661
611.2911, 68.35905
611.7733, 71.18571
612.2554, 72.17722
612.7375, 71.96043
613.2196, 72.04304
613.7017, 72.49162
614.1838, 72.46523
614.6660, 71.37792
615.1481, 70.11553
615.6302, 70.04768
616.1123, 71.06310
616.5944, 71.09734
617.0765, 69.32200
617.5587, 66.82921
618.0408, 64.11707
618.5229, 61.28045
619.0050, 58.33918
619.4871, 55.31111
619.9692, 52.50171
620.4514, 50.35083
620.9335, 48.92165
621.4156, 47.61456
621.8977, 46.77423
622.3798, 45.63402
622.8619, 43.68990
623.3441, 41.50508
623.8262, 39.76860
624.3083, 38.64281
624.7904, 37.67255
625.2725, 36.32908
625.7546, 34.86621
626.2367, 34.21696
626.7188, 34.52795
627.2009, 34.38483
627.6830, 32.78732
628.1652, 30.48083
628.6473, 29.22006
629.1294, 29.27141
629.6115, 29.28390
630.0936, 29.19193
630.5757, 28.88414
631.0579, 27.98044
631.5400, 26.79704
632.0221, 26.14018
632.5042, 26.42974
632.9863, 27.25367
633.4684, 27.95096
633.9506, 28.60667
634.4327, 28.70508
634.9148, 27.95300
635.3969, 26.95686
635.8790, 25.83965
636.3611, 24.75161
636.8433, 23.92589
637.3254, 23.39524
637.8075, 23.22856
638.2896, 23.69803
638.7717, 24.50610
639.2538, 25.15527
639.7360, 25.56369
640.2181, 25.63634
640.7002, 25.24115
641.1823, 24.51471
641.6644, 24.00923
642.1465, 23.84877
642.6287, 23.75719
643.1108, 23.75232
643.5929, 23.79706
644.0750, 23.72031
644.5571, 23.66922
645.0392, 24.13222
645.5214, 25.52340
646.0035, 27.07380
646.4856, 27.36186
646.9677, 26.39274
647.4498, 25.41067
647.9319, 24.54557
648.4141, 23.88634
648.8962, 23.58822
649.3783, 23.57228
649.8604, 23.54387
650.3425, 23.24029
650.8246, 23.24799
651.3068, 24.17825
651.7889, 25.34782
652.2710, 25.91123
652.7531, 25.77366
653.2352, 25.31244
653.7173, 24.79598
654.1995, 24.23603
654.6816, 23.63177
655.1637, 22.80842
655.6458, 22.36553
656.1279, 22.83322
656.6100, 23.34884
657.0922, 23.18283
657.5743, 22.60822
658.0564, 22.67303
658.5385, 24.41178
659.0206, 26.05835
659.5027, 25.34261
659.9849, 23.18684
660.4670, 22.45626
660.9491, 23.84950
661.4312, 25.43131
661.9133, 25.33346
662.3954, 23.72812
662.8776, 23.07803
663.3597, 24.71727
663.8418, 25.56436
664.3239, 24.61997
664.8060, 23.30474
665.2881, 22.73928
665.7703, 22.94321
666.2524, 23.36087
666.7345, 23.73707
667.2166, 23.98044
667.6987, 23.80784
668.1808, 23.23642
668.6630, 22.95004
669.1451, 23.20612
669.6272, 23.55811
670.1093, 23.58298
670.5914, 23.29658
671.0735, 23.00742
671.5557, 22.59869
672.0378, 22.33627
672.5199, 22.60143
673.0020, 22.88633
673.4841, 22.46424
673.9662, 21.38184
674.4484, 20.40332
674.9305, 20.12145
675.4126, 20.37583
675.8947, 20.69261
676.3768, 21.13434
676.8589, 21.32402
677.3411, 20.79504
677.8232, 20.44220
678.3053, 21.40461
678.7874, 23.19876
679.2695, 23.99776
679.7516, 22.52198
680.2338, 21.04657
680.7159, 21.32684
681.1980, 22.31392
681.6801, 22.05877
682.1622, 20.39927
682.6443, 19.08286
683.1265, 19.66000
683.6086, 21.61500
684.0907, 22.38687
684.5728, 21.37574
685.0549, 20.49103
685.5370, 19.64773
686.0192, 19.30613
686.5013, 20.23999
686.9834, 21.92265
687.4655, 22.81952
687.9476, 22.00616
688.4297, 20.86713
688.9119, 20.82363
689.3940, 21.35835
689.8761, 21.08701
690.3582, 19.79068
690.8403, 18.68000
691.3224, 18.75175
691.8046, 19.72044
692.2867, 20.23213
692.7688, 20.05174
693.2509, 19.77204
693.7330, 19.16966
694.2151, 18.71218
694.6973, 18.72182
695.1794, 19.10004
695.6615, 19.62117
696.1436, 20.27023
696.6257, 20.74359
697.1078, 20.62851
697.5900, 20.05509
