##NAMES=Pyrochlore
##RRUFFID=R060151
##IDEAL CHEMISTRY=Ca_2_Nb_2_O_7_
##LOCALITY=Oka, Quebec, Canada
##OWNER=RRUFF
##SOURCE=Marcus Origlieri
##DESCRIPTION=Reddish-brown octahedral crystals associated with calcite
##STATUS=The identification of this mineral has been confirmed by X-ray diffraction and chemical analysis
##URL=rruff.info/R060151
##MEASURED CHEMISTRY=(Ca_1.41_Na_0.59_)_Σ=2_(Nb_1.49_Ti_0.26_Ce_0.15_Fe^3+^_0.05_La_0.02_Nd_0.02_Mn_0.02_)_Σ=2_(O_5.40_(OH)_1.10_F_0.50_)_Σ=7_
90.26367, 21.57867
90.74579, 21.52852
91.22791, 21.56816
91.71002, 21.68448
92.19214, 21.76039
92.67426, 21.67818
93.15637, 21.47800
93.63850, 21.24907
94.12061, 20.77267
94.60273, 20.34778
95.08485, 20.95769
95.56696, 22.74475
96.04908, 24.56668
96.53120, 24.90936
97.01331, 23.83280
97.49543, 22.66084
97.97755, 21.90204
98.45966, 21.54849
98.94178, 21.34585
99.42390, 21.31192
99.90602, 21.40020
100.3881, 21.59605
100.8703, 21.98141
101.3524, 22.18068
101.8345, 21.90012
102.3166, 20.96410
102.7987, 20.32060
103.2808, 20.09246
103.7630, 20.20235
104.2451, 20.33554
104.7272, 20.53351
105.2093, 20.70156
105.6914, 20.76220
106.1735, 20.57769
106.6557, 20.52366
107.1378, 20.68588
107.6199, 21.07381
108.1020, 21.40761
108.5841, 21.62565
109.0662, 21.82416
109.5484, 22.09196
110.0305, 22.36646
110.5126, 22.77487
110.9947, 23.29820
111.4768, 23.89953
111.9590, 24.81019
112.4411, 26.30971
112.9232, 28.07681
113.4053, 29.65374
113.8874, 30.56209
114.3695, 31.60431
114.8517, 33.00649
115.3338, 34.68429
115.8159, 37.00499
116.2980, 40.31964
116.7801, 44.39196
117.2622, 48.66327
117.7444, 52.81887
118.2265, 57.20181
118.7086, 62.03508
119.1907, 67.53842
119.6728, 73.32905
120.1549, 78.62576
120.6371, 83.81737
121.1192, 90.51064
121.6013, 100.4723
122.0834, 112.0888
122.5655, 123.5325
123.0477, 134.0971
123.5298, 144.4039
124.0119, 154.9019
124.4940, 165.5962
124.9761, 176.6071
125.4582, 187.9682
125.9404, 199.6390
126.4225, 211.4482
126.9046, 223.6821
127.3867, 235.9064
127.8688, 247.4119
128.3509, 258.1763
128.8331, 268.4398
129.3152, 278.4688
129.7973, 288.2712
130.2794, 297.6410
130.7615, 305.3212
131.2436, 312.3321
131.7258, 322.3418
132.2079, 335.8546
132.6900, 351.2901
133.1721, 366.6270
133.6542, 381.7987
134.1364, 396.7144
134.6185, 411.4749
135.1006, 426.1341
135.5827, 440.3847
136.0648, 454.3057
136.5469, 467.8430
137.0291, 480.9815
137.5112, 493.7094
137.9933, 505.7289
138.4754, 517.1282
138.9575, 527.9192
139.4396, 537.3453
139.9218, 544.9968
140.4039, 551.1808
140.8860, 557.0731
141.3681, 562.3150
141.8502, 567.8419
142.3323, 574.3649
142.8145, 582.4783
143.2966, 590.2452
143.7787, 597.0423
144.2608, 602.9592
144.7429, 609.8314
145.2251, 618.1500
145.7072, 627.0697
146.1893, 635.7917
146.6714, 643.8073
147.1535, 652.3612
147.6356, 661.6177
148.1178, 671.5453
148.5999, 682.1508
149.0820, 693.9761
149.5641, 706.2139
150.0462, 717.8022
150.5283, 728.4902
151.0105, 738.6326
151.4926, 741.5188
151.9747, 742.7645
152.4568, 743.9932
152.9389, 745.5673
153.4210, 747.0886
153.9032, 748.0120
154.3853, 748.0283
154.8674, 747.6832
155.3495, 747.1448
155.8316, 746.4334
156.3138, 745.5031
156.7959, 744.1022
157.2780, 742.4828
157.7601, 741.1330
158.2422, 740.3431
158.7243, 739.6676
159.2065, 738.8326
159.6886, 737.5092
160.1707, 736.4930
160.6528, 736.1230
161.1349, 736.2255
161.6170, 736.3617
162.0992, 736.1318
162.5813, 736.0141
163.0634, 736.3624
163.5455, 737.6655
164.0276, 738.8721
164.5097, 739.7285
164.9919, 740.1745
165.4740, 739.9561
165.9561, 737.8458
166.4382, 735.5238
166.9203, 734.5500
167.4025, 736.7399
167.8846, 738.9854
168.3667, 739.0206
168.8488, 737.1718
169.3309, 735.5230
169.8130, 735.9037
170.2952, 737.0409
170.7773, 737.3470
171.2594, 735.7155
171.7415, 733.4839
172.2236, 731.7220
172.7057, 730.3953
173.1879, 729.1114
173.6700, 727.5119
174.1521, 725.7526
174.6342, 724.0982
175.1163, 722.6523
175.5984, 721.3226
176.0806, 720.1597
176.5627, 719.1609
177.0448, 717.8989
177.5269, 716.0176
178.0090, 713.5987
178.4911, 710.7740
178.9733, 707.2229
179.4554, 703.4593
179.9375, 700.3743
180.4196, 698.0682
180.9017, 695.8572
181.3839, 692.9564
181.8660, 689.5605
182.3481, 686.2294
182.8302, 683.1130
183.3123, 680.2923
183.7944, 678.1620
184.2766, 676.8525
184.7587, 675.5448
185.2408, 673.0727
185.7229, 669.6136
186.2050, 666.0714
186.6871, 662.8566
187.1693, 659.8947
187.6514, 657.0940
188.1335, 654.3774
188.6156, 651.8820
189.0977, 650.0001
189.5798, 648.6833
190.0620, 647.0266
190.5441, 644.2619
191.0262, 640.5786
191.5083, 637.3965
191.9904, 634.8427
192.4725, 632.5440
192.9547, 629.6815
193.4368, 626.2015
193.9189, 623.1179
194.4010, 621.3088
194.8831, 620.6659
195.3652, 619.4453
195.8474, 617.5614
196.3295, 615.0256
196.8116, 611.4570
197.2937, 606.7082
197.7758, 602.4283
198.2579, 600.0420
198.7401, 599.6069
199.2222, 598.1127
199.7043, 595.0848
200.1864, 591.2086
200.6685, 588.1109
201.1507, 585.9772
201.6328, 583.7974
202.1149, 580.8212
202.5970, 576.9299
203.0791, 573.4268
203.5612, 570.4863
204.0434, 567.9824
204.5255, 565.7181
205.0076, 563.8057
205.4897, 561.7638
205.9718, 559.2084
206.4539, 556.0236
206.9361, 553.0857
207.4182, 550.5793
207.9003, 548.3342
208.3824, 545.6720
208.8645, 542.4556
209.3466, 539.1709
209.8288, 535.9636
210.3109, 532.7006
210.7930, 530.1246
211.2751, 528.4247
211.7572, 527.4308
212.2393, 526.6218
212.7215, 526.3116
213.2036, 525.5160
213.6857, 523.3469
214.1678, 519.1404
214.6499, 515.8288
215.1321, 513.9315
215.6142, 513.0659
216.0963, 511.6288
216.5784, 509.5031
217.0605, 507.0450
217.5426, 504.3390
218.0248, 501.1152
218.5069, 498.5440
218.9890, 496.8823
219.4711, 495.9650
219.9532, 495.0107
220.4353, 494.0731
220.9175, 493.0062
221.3996, 491.5013
221.8817, 488.2019
222.3638, 488.3138
222.8459, 488.1119
223.3280, 487.6129
223.8102, 485.9271
224.2923, 485.7738
224.7744, 485.0064
225.2565, 484.2138
225.7386, 484.2762
226.2208, 482.7629
226.7029, 482.8118
227.1850, 482.2371
227.6671, 481.5952
228.1492, 480.7900
228.6313, 480.0702
229.1135, 479.5543
229.5956, 479.2025
230.0777, 479.1543
230.5598, 479.5426
231.0419, 480.2650
231.5240, 480.8260
232.0062, 481.2407
232.4883, 481.4865
232.9704, 481.4635
233.4525, 480.7762
233.9346, 480.7223
234.4167, 481.6079
234.8989, 483.2276
235.3810, 484.5761
235.8631, 485.3590
236.3452, 486.2719
236.8273, 487.8609
237.3095, 490.9012
237.7916, 492.8643
238.2737, 493.1920
238.7558, 492.3105
239.2379, 492.0107
239.7200, 492.3871
240.2022, 493.2077
240.6843, 494.4041
241.1664, 496.1875
241.6485, 497.8964
242.1306, 499.5520
242.6127, 501.1248
243.0949, 502.3834
243.5770, 503.0436
244.0591, 503.8102
244.5412, 505.1520
245.0233, 507.7367
245.5054, 509.3961
245.9876, 509.5982
246.4697, 508.8997
246.9518, 509.1015
247.4339, 510.6348
247.9160, 512.4307
248.3981, 513.9454
248.8803, 514.9716
249.3624, 516.2467
249.8445, 517.9553
250.3266, 519.8658
250.8087, 521.3056
251.2909, 521.9386
251.7730, 522.6006
252.2551, 523.6543
252.7372, 525.2104
253.2193, 526.8954
253.7014, 528.7933
254.1836, 530.7650
254.6657, 532.4929
255.1478, 533.9952
255.6299, 535.2258
256.1120, 536.0823
256.5941, 536.2999
257.0763, 537.0477
257.5584, 538.6462
258.0405, 540.5910
258.5226, 541.7544
259.0047, 541.6946
259.4868, 541.7959
259.9690, 542.6390
260.4511, 544.4130
260.9332, 546.1004
261.4153, 547.7967
261.8974, 549.3438
262.3795, 550.3193
262.8617, 550.3348
263.3438, 550.7477
263.8259, 552.2919
264.3080, 555.2733
264.7901, 556.9875
265.2722, 556.9395
265.7544, 556.2078
266.2365, 556.3590
266.7186, 557.6148
267.2007, 559.0785
267.6829, 560.6078
268.1650, 562.2587
268.6471, 563.2759
269.1292, 563.6168
269.6113, 563.4305
270.0934, 562.6480
270.5756, 560.9064
271.0577, 559.9823
271.5398, 560.6312
272.0219, 562.7983
272.5040, 564.3057
272.9861, 565.0685
273.4683, 565.3278
273.9504, 565.2004
274.4325, 564.5856
274.9146, 564.1607
275.3967, 564.1893
275.8788, 564.5762
276.3610, 564.5569
276.8431, 564.0814
277.3252, 563.3563
277.8073, 562.4613
278.2894, 561.3619
278.7715, 560.5745
279.2537, 560.3596
279.7358, 560.5037
280.2179, 560.0508
280.7000, 558.9241
281.1821, 557.5607
281.6642, 556.3232
282.1464, 555.2156
282.6285, 553.8362
283.1106, 551.9379
283.5927, 549.8748
284.0748, 548.7908
284.5569, 548.7852
285.0391, 548.7784
285.5212, 547.8235
286.0033, 546.0182
286.4854, 544.6873
286.9675, 544.1821
287.4496, 543.9243
287.9318, 542.7054
288.4139, 540.4979
288.8960, 538.0342
289.3781, 535.5637
289.8602, 533.1339
290.3424, 531.0713
290.8245, 529.5287
291.3066, 528.0507
291.7887, 525.9351
292.2708, 523.2206
292.7530, 520.2843
293.2351, 517.1479
293.7172, 513.9421
294.1993, 511.2158
294.6814, 509.0250
295.1635, 507.0779
295.6457, 505.0992
296.1278, 503.0825
296.6099, 501.0289
297.0920, 499.0681
297.5741, 497.0714
298.0562, 494.7733
298.5384, 492.1750
299.0205, 489.4583
299.5026, 486.7167
299.9847, 484.0100
300.4668, 481.4026
300.9489, 479.0385
301.4311, 476.7812
301.9132, 474.5871
302.3953, 472.4323
302.8774, 470.1200
303.3595, 467.3487
303.8416, 464.3205
304.3238, 461.3076
304.8059, 458.4557
305.2880, 455.6786
305.7701, 452.9665
306.2522, 450.2908
306.7343, 447.6459
307.2165, 444.8120
307.6986, 442.0428
308.1807, 439.7137
308.6628, 438.1690
309.1449, 436.6094
309.6270, 434.2467
310.1092, 431.2819
310.5913, 428.4434
311.0734, 426.2348
311.5555, 424.2557
312.0376, 422.1661
312.5197, 419.8245
313.0019, 417.5689
313.4840, 415.5181
313.9661, 413.6612
314.4482, 411.9567
314.9304, 410.7411
315.4125, 409.4235
315.8946, 407.6111
316.3767, 405.1776
316.8588, 402.6461
317.3409, 400.3390
317.8231, 398.0208
318.3052, 395.3910
318.7873, 391.5031
319.2694, 388.0028
319.7515, 385.7535
320.2336, 384.8857
320.7158, 383.9673
321.1979, 382.7592
321.6800, 381.2564
322.1621, 379.4563
322.6442, 376.8569
323.1263, 374.4712
323.6085, 372.6083
324.0906, 371.2403
324.5727, 369.8725
325.0548, 368.8102
325.5369, 367.5044
326.0190, 365.6259
326.5012, 362.0480
326.9833, 359.1812
327.4654, 357.6071
327.9475, 357.0016
328.4296, 356.0793
328.9117, 354.6017
329.3939, 353.0176
329.8760, 351.4945
330.3581, 350.0882
330.8402, 348.6183
331.3223, 346.9998
331.8044, 345.3234
332.2866, 343.7680
332.7687, 342.3517
333.2508, 341.0345
333.7329, 339.7801
334.2150, 338.5583
334.6971, 337.5040
335.1793, 336.5940
335.6614, 335.8617
336.1435, 335.5416
336.6256, 336.1272
337.1077, 335.7731
337.5899, 333.6540
338.0720, 329.8929
338.5541, 327.5005
339.0362, 326.8409
339.5183, 326.7138
340.0005, 326.0215
340.4826, 324.6649
340.9647, 323.4487
341.4468, 322.5710
341.9289, 321.8980
342.4110, 320.8633
342.8932, 319.3893
343.3753, 318.0922
343.8574, 317.6281
344.3395, 317.9093
344.8216, 317.6254
345.3037, 316.5005
345.7859, 315.0334
346.2680, 314.1128
346.7501, 313.6992
347.2322, 313.3389
347.7143, 312.5490
348.1964, 311.5995
348.6786, 311.5960
349.1607, 312.7403
349.6428, 313.8595
350.1249, 313.4264
350.6070, 311.8478
351.0891, 310.3869
351.5713, 309.7534
352.0534, 309.4623
352.5355, 308.7174
353.0176, 307.5482
353.4997, 306.4222
353.9818, 305.7965
354.4640, 305.4404
354.9461, 304.9948
355.4282, 304.3658
355.9103, 303.6100
356.3924, 302.6566
356.8745, 301.5766
357.3567, 300.6694
357.8388, 300.4345
358.3209, 300.2578
358.8030, 299.5276
359.2851, 297.9371
359.7672, 296.3436
360.2494, 294.9305
360.7315, 293.8511
361.2136, 293.4035
361.6957, 294.4420
362.1779, 295.5224
362.6600, 296.0062
363.1421, 295.8343
363.6242, 295.0698
364.1063, 293.0618
364.5884, 290.7295
365.0706, 289.0298
365.5527, 288.7394
366.0348, 288.4857
366.5169, 287.8337
366.9990, 286.8214
367.4811, 286.2146
367.9633, 286.6928
368.4454, 287.1765
368.9275, 287.0405
369.4096, 285.6944
369.8917, 284.5427
370.3738, 283.6970
370.8560, 283.0539
371.3381, 282.3294
371.8202, 281.3730
372.3023, 280.5358
372.7844, 280.0647
373.2665, 280.2081
373.7487, 279.6367
374.2308, 277.9184
374.7129, 275.9228
375.1950, 274.8878
375.6771, 275.1279
376.1592, 275.3305
376.6414, 275.1465
377.1235, 274.6157
377.6056, 274.1561
378.0877, 273.8163
378.5698, 273.3834
379.0519, 272.5529
379.5341, 271.3291
380.0162, 270.3518
380.4983, 269.7624
380.9804, 269.4479
381.4625, 269.3604
381.9446, 269.4877
382.4268, 269.2524
382.9089, 267.7825
383.3910, 265.6230
383.8731, 264.7179
384.3553, 265.4130
384.8374, 266.4359
385.3195, 266.2547
385.8016, 265.1731
386.2837, 264.0790
386.7658, 263.2844
387.2480, 262.7440
387.7301, 262.4077
388.2122, 262.2768
388.6943, 262.3253
389.1764, 262.9436
389.6585, 263.5974
390.1407, 263.5624
390.6228, 262.3489
391.1049, 260.8144
391.5870, 259.2022
392.0691, 257.6713
392.5512, 256.7015
393.0334, 257.2135
393.5155, 257.8700
393.9976, 257.7886
394.4797, 256.6959
394.9618, 255.3940
395.4439, 253.8287
395.9261, 252.2876
396.4082, 251.1577
396.8903, 250.6803
397.3724, 250.4519
397.8545, 250.4896
398.3366, 250.8080
398.8188, 250.8662
399.3009, 250.6100
399.7830, 250.0917
400.2651, 249.3229
400.7472, 247.9221
401.2293, 246.8435
401.7115, 246.2108
402.1936, 245.9163
402.6757, 245.6785
403.1578, 245.6528
403.6399, 245.4080
404.1220, 244.6777
404.6042, 243.3206
405.0863, 242.2919
405.5684, 241.6717
406.0505, 241.2668
406.5326, 240.8431
407.0147, 240.3924
407.4969, 239.9858
407.9790, 239.6649
408.4611, 239.3969
408.9432, 239.0413
409.4254, 238.5965
409.9075, 238.1127
410.3896, 237.6286
410.8717, 237.1379
411.3538, 236.6004
411.8359, 236.0039
412.3181, 235.3907
412.8002, 234.8533
413.2823, 234.3696
413.7644, 233.8119
414.2465, 232.9063
414.7286, 231.9803
415.2108, 231.5752
415.6929, 231.7342
416.1750, 231.8279
416.6571, 231.2562
417.1392, 230.3642
417.6213, 229.6003
418.1035, 229.2011
418.5856, 228.8858
419.0677, 228.5345
419.5498, 228.1451
420.0319, 227.7224
420.5140, 227.2007
420.9962, 226.6895
421.4783, 226.2625
421.9604, 225.9648
422.4425, 225.6602
422.9246, 225.3479
423.4067, 225.0081
423.8889, 224.6087
424.3710, 224.1355
424.8531, 223.6140
425.3352, 223.0379
425.8173, 222.4072
426.2994, 221.8178
426.7816, 221.3746
427.2637, 220.8710
427.7458, 220.1113
428.2279, 218.7831
428.7100, 217.9715
429.1921, 217.9166
429.6743, 218.3093
430.1564, 218.4595
430.6385, 218.3478
431.1206, 218.0657
431.6028, 217.5933
432.0849, 216.9390
432.5670, 216.4077
433.0491, 216.0180
433.5312, 215.6716
434.0133, 215.3152
434.4955, 214.9302
434.9776, 214.3498
435.4597, 213.4178
435.9418, 212.4185
436.4239, 211.9220
436.9060, 211.8720
437.3882, 211.8772
437.8703, 211.7045
438.3524, 211.4281
438.8345, 211.1478
439.3166, 210.8722
439.7987, 210.5930
440.2809, 210.3339
440.7630, 210.0575
441.2451, 209.7096
441.7272, 209.2601
442.2093, 208.7409
442.6914, 207.9782
443.1736, 207.0641
443.6557, 206.4291
444.1378, 206.4701
444.6199, 206.4148
445.1020, 206.2682
445.5841, 205.7574
446.0663, 205.7169
446.5484, 205.4880
447.0305, 205.2513
447.5126, 205.2771
447.9947, 204.8193
448.4768, 204.8409
448.9590, 204.6711
449.4411, 204.5889
449.9232, 204.3171
450.4053, 204.1038
450.8874, 204.0803
451.3695, 203.9517
451.8517, 203.6579
452.3338, 203.5813
452.8159, 203.1169
453.2980, 202.9928
453.7801, 203.0155
454.2622, 202.7313
454.7444, 202.6581
455.2265, 202.5046
455.7086, 202.6149
456.1907, 202.8099
456.6729, 202.8712
457.1550, 203.0044
457.6371, 203.5921
458.1192, 204.3984
458.6013, 204.8181
459.0834, 204.5496
459.5656, 204.1224
460.0477, 204.0824
460.5298, 204.3505
461.0119, 204.6913
461.4940, 204.9812
461.9761, 205.3008
462.4583, 205.7052
462.9404, 206.2021
463.4225, 206.7903
463.9046, 207.3475
464.3867, 208.0577
464.8688, 209.0800
465.3510, 210.8789
465.8331, 212.5218
466.3152, 213.6798
466.7973, 214.5013
467.2794, 215.5153
467.7615, 216.8073
468.2437, 218.2620
468.7258, 219.8771
469.2079, 221.6695
469.6900, 223.4467
470.1721, 225.1838
470.6542, 226.9152
471.1364, 228.5926
471.6185, 230.0782
472.1006, 232.1123
472.5827, 235.0297
473.0648, 238.4524
473.5469, 241.1317
474.0291, 243.0054
474.5112, 244.8798
474.9933, 247.1941
475.4754, 249.8941
475.9575, 252.7553
476.4396, 255.7729
476.9218, 258.9487
477.4039, 262.2891
477.8860, 265.7647
478.3681, 269.2788
478.8503, 272.8112
479.3324, 276.3531
479.8145, 279.9082
480.2966, 283.4951
480.7787, 287.0226
481.2608, 290.3727
481.7430, 293.7723
482.2251, 297.4960
482.7072, 301.6865
483.1893, 305.5204
483.6714, 308.2757
484.1535, 310.7333
484.6357, 313.6816
485.1178, 318.1129
485.5999, 322.0871
486.0820, 324.9267
486.5641, 327.0027
487.0462, 329.8023
487.5284, 333.8828
488.0105, 337.9605
488.4926, 341.5962
488.9747, 344.7168
489.4568, 347.6362
489.9389, 350.1977
490.4211, 352.7999
490.9032, 355.9416
491.3853, 359.6798
491.8674, 363.2014
492.3495, 366.2745
492.8316, 369.0762
493.3138, 371.9829
493.7959, 374.9900
494.2780, 377.9480
494.7601, 380.7682
495.2422, 383.4629
495.7243, 385.9821
496.2065, 388.3523
496.6886, 390.5745
497.1707, 392.7948
497.6528, 394.8788
498.1349, 396.5941
498.6170, 397.4548
499.0992, 398.5763
499.5813, 401.0341
500.0634, 404.2437
500.5455, 406.7954
501.0276, 407.6060
501.5097, 408.2191
501.9919, 409.1877
502.4740, 410.5464
502.9561, 412.2768
503.4382, 414.9629
503.9203, 417.6232
504.4025, 419.5727
504.8846, 420.3957
505.3667, 421.3213
505.8488, 422.4399
506.3309, 423.6809
506.8130, 424.8926
507.2952, 426.0641
507.7773, 427.2542
508.2594, 428.5378
508.7415, 429.8554
509.2236, 430.8535
509.7057, 431.5075
510.1879, 432.1631
510.6700, 433.0717
511.1521, 434.2148
511.6342, 435.6308
512.1163, 437.4064
512.5984, 439.1118
513.0806, 440.0460
513.5627, 440.5752
514.0448, 441.4649
514.5269, 443.6995
515.0090, 445.8698
515.4911, 446.9586
515.9733, 447.0735
516.4554, 447.0076
516.9375, 446.4547
517.4196, 446.2594
517.9017, 447.0635
518.3839, 449.5643
518.8660, 451.5196
519.3481, 452.2223
519.8302, 452.4713
520.3123, 453.1454
520.7944, 454.8487
521.2766, 455.8472
521.7587, 455.5560
522.2408, 454.4189
522.7229, 454.2667
523.2050, 455.3719
523.6871, 456.4842
524.1693, 456.8403
524.6514, 456.5233
525.1335, 456.7074
525.6156, 457.4632
526.0977, 458.2821
526.5798, 458.6150
527.0620, 458.5952
527.5441, 458.6100
528.0262, 458.7446
528.5083, 458.9445
528.9904, 459.1920
529.4725, 459.4541
529.9547, 459.6562
530.4368, 459.7800
530.9189, 459.8016
531.4010, 459.6732
531.8831, 459.3911
532.3652, 459.0840
532.8474, 458.7471
533.3295, 458.4232
533.8116, 458.1526
534.2937, 458.1373
534.7758, 457.8280
535.2579, 456.8670
535.7401, 455.7867
536.2222, 455.4726
536.7043, 456.4503
537.1865, 456.9602
537.6686, 456.5333
538.1507, 455.3735
538.6328, 454.3252
539.1149, 453.3487
539.5970, 452.7079
540.0792, 452.9284
540.5613, 453.7118
541.0434, 453.5240
541.5255, 452.2440
542.0076, 450.6271
542.4897, 449.2346
542.9719, 448.0532
543.4540, 447.0644
543.9361, 446.3586
544.4182, 445.6831
544.9003, 444.5582
545.3824, 443.3188
545.8646, 442.7149
546.3467, 444.1329
546.8288, 445.2752
547.3109, 444.7721
547.7930, 442.5406
548.2751, 440.8365
548.7573, 440.5132
549.2394, 440.4087
549.7215, 439.8985
550.2036, 438.7750
550.6857, 437.7300
551.1678, 436.8057
551.6500, 435.9235
552.1321, 434.9066
552.6142, 433.6759
553.0963, 432.8659
553.5784, 432.7984
554.0605, 433.1023
554.5427, 432.7905
555.0248, 431.8868
555.5069, 430.7941
555.9890, 429.3507
556.4711, 428.0122
556.9532, 427.8732
557.4354, 428.9647
557.9175, 429.9655
558.3996, 429.7101
558.8817, 428.8958
559.3638, 428.2775
559.8459, 428.1042
560.3281, 428.0038
560.8102, 427.7026
561.2923, 427.4099
561.7744, 427.4584
562.2565, 428.0578
562.7386, 428.8533
563.2208, 429.8941
563.7029, 431.1149
564.1850, 432.0862
564.6671, 432.6455
565.1492, 433.2317
565.6313, 434.0675
566.1135, 435.1622
566.5956, 436.3281
567.0777, 437.5952
567.5598, 438.7982
568.0419, 439.5789
568.5240, 440.0763
569.0062, 441.1077
569.4883, 442.9285
569.9704, 445.0794
570.4525, 447.1782
570.9346, 449.1558
571.4167, 450.7403
571.8989, 451.2671
572.3810, 451.8481
572.8631, 453.4589
573.3452, 455.9344
573.8273, 458.1971
574.3094, 459.5379
574.7916, 460.7794
575.2737, 462.3803
575.7558, 464.4988
576.2379, 466.5953
576.7200, 468.6988
577.2021, 470.7135
577.6843, 472.4671
578.1664, 473.6171
578.6485, 475.5797
579.1306, 478.8388
579.6127, 482.6258
580.0948, 485.3835
580.5770, 487.0983
581.0591, 488.8878
581.5412, 491.4044
582.0233, 494.1429
582.5054, 495.8518
582.9875, 496.6259
583.4697, 497.3576
583.9518, 498.4179
584.4340, 499.8606
584.9161, 501.8746
