##NAMES=Pyrophyllite
##RRUFFID=R050108
##IDEAL CHEMISTRY=Al_2_Si_4_O_10_(OH)_2_
##LOCALITY=Graves Mountain, Lincoln County, Georgia, USA
##OWNER=RRUFF
##SOURCE=Rock Currier
##DESCRIPTION=Lamellar radial aggregates
##STATUS=The identification of this mineral has been confirmed by X-ray diffraction and chemical analysis
##URL=rruff.info/R050108
##MEASURED CHEMISTRY=(Al_.976_Fe_.020_Mg_.002_Ca_.001_)_2_Si_4_O_10_(OH)_2_
118.2057, 9301.185
118.6879, 9301.350
119.1700, 9310.261
119.6521, 9325.988
120.1342, 9334.247
120.6163, 9326.218
121.0984, 9318.544
121.5805, 9315.488
122.0627, 9315.988
122.5448, 9316.844
123.0269, 9314.897
123.5090, 9308.906
123.9911, 9307.631
124.4732, 9315.271
124.9554, 9322.914
125.4375, 9325.300
125.9196, 9322.192
126.4017, 9317.585
126.8838, 9316.483
127.3659, 9321.178
127.8481, 9322.342
128.3302, 9316.245
128.8123, 9308.055
129.2944, 9303.682
129.7765, 9305.016
130.2586, 9309.153
130.7408, 9312.149
131.2229, 9314.211
131.7050, 9315.437
132.1871, 9315.389
132.6692, 9314.456
133.1513, 9314.505
133.6335, 9318.635
134.1156, 9321.060
134.5977, 9314.403
135.0798, 9297.330
135.5619, 9280.787
136.0440, 9276.459
136.5262, 9286.286
137.0083, 9294.988
137.4904, 9297.697
137.9725, 9298.276
138.4546, 9298.822
138.9367, 9299.951
139.4189, 9301.354
139.9010, 9301.945
140.3831, 9298.833
140.8652, 9300.516
141.3473, 9314.956
141.8294, 9331.350
142.3116, 9338.021
142.7937, 9329.013
143.2758, 9308.373
143.7579, 9293.217
144.2400, 9286.116
144.7221, 9282.447
145.2043, 9285.295
145.6864, 9291.006
146.1685, 9293.064
146.6506, 9286.608
147.1327, 9272.663
147.6148, 9266.092
148.0969, 9270.600
148.5791, 9277.125
149.0612, 9281.498
149.5433, 9284.098
150.0254, 9288.389
150.5075, 9298.499
150.9896, 9313.282
151.4718, 9321.278
151.9539, 9316.971
152.4360, 9308.891
152.9181, 9305.957
153.4002, 9309.460
153.8823, 9311.802
154.3645, 9301.434
154.8466, 9284.537
155.3287, 9275.232
155.8108, 9284.848
156.2929, 9304.600
156.7750, 9313.365
157.2572, 9304.790
157.7393, 9294.918
158.2214, 9293.771
158.7035, 9298.873
159.1856, 9304.782
159.6677, 9308.316
160.1499, 9309.562
160.6320, 9310.100
161.1141, 9308.760
161.5962, 9307.924
162.0783, 9310.959
162.5604, 9316.025
163.0426, 9317.787
163.5247, 9309.879
164.0068, 9289.571
164.4889, 9274.367
164.9710, 9266.521
165.4531, 9261.618
165.9353, 9258.787
166.4174, 9257.447
166.8995, 9256.590
167.3816, 9254.735
167.8637, 9250.253
168.3458, 9249.654
168.8279, 9256.919
169.3101, 9264.863
169.7922, 9267.845
170.2743, 9264.767
170.7564, 9259.148
171.2385, 9256.340
171.7206, 9259.260
172.2028, 9257.666
172.6849, 9246.119
173.1670, 9231.563
173.6491, 9222.829
174.1312, 9222.968
174.6133, 9226.518
175.0955, 9223.501
175.5776, 9213.062
176.0597, 9203.580
176.5418, 9197.373
177.0239, 9193.893
177.5060, 9192.510
177.9882, 9194.702
178.4703, 9196.396
178.9524, 9191.908
179.4345, 9180.968
179.9166, 9168.814
180.3987, 9157.575
180.8809, 9147.401
181.3630, 9139.809
181.8451, 9136.218
182.3272, 9134.842
182.8093, 9134.775
183.2914, 9136.068
183.7736, 9136.300
184.2557, 9132.346
184.7378, 9123.530
185.2199, 9115.782
185.7020, 9109.914
186.1841, 9105.885
186.6663, 9103.830
187.1484, 9103.756
187.6305, 9105.607
188.1126, 9109.751
188.5947, 9117.213
189.0768, 9124.092
189.5589, 9130.463
190.0411, 9135.821
190.5232, 9139.696
191.0053, 9141.967
191.4874, 9143.086
191.9695, 9144.276
192.4516, 9148.441
192.9338, 9147.323
193.4159, 9136.340
193.8980, 9122.725
194.3801, 9113.494
194.8622, 9111.110
195.3443, 9112.162
195.8265, 9108.760
196.3086, 9096.471
196.7907, 9084.317
197.2728, 9072.067
197.7549, 9060.107
198.2370, 9048.491
198.7192, 9037.197
199.2013, 9026.884
199.6834, 9019.808
200.1655, 9018.709
200.6476, 9016.561
201.1297, 9010.957
201.6119, 9003.762
202.0940, 8998.384
202.5761, 8996.640
203.0582, 8996.739
203.5403, 8993.637
204.0224, 8985.578
204.5046, 8978.588
204.9867, 8976.814
205.4688, 8978.038
205.9509, 8975.807
206.4330, 8966.201
206.9151, 8953.358
207.3973, 8945.530
207.8794, 8943.937
208.3615, 8943.596
208.8436, 8943.283
209.3257, 8942.521
209.8078, 8937.965
210.2899, 8926.080
210.7721, 8911.604
211.2542, 8900.697
211.7363, 8893.909
212.2184, 8889.300
212.7005, 8885.534
213.1826, 8882.600
213.6648, 8880.827
214.1469, 8881.143
214.6290, 8882.139
215.1111, 8883.385
215.5932, 8884.997
216.0753, 8884.661
216.5575, 8877.933
217.0396, 8863.142
217.5217, 8853.101
218.0038, 8858.324
218.4859, 8864.827
218.9680, 8863.092
219.4502, 8851.295
219.9323, 8836.279
220.4144, 8826.916
220.8965, 8825.010
221.3786, 8822.807
221.8607, 8819.850
222.3429, 8815.947
222.8250, 8810.247
223.3071, 8802.785
223.7892, 8795.346
224.2713, 8791.035
224.7534, 8792.309
225.2356, 8790.940
225.7177, 8785.029
226.1998, 8777.873
226.6819, 8770.985
227.1640, 8765.026
227.6461, 8760.498
228.1283, 8758.785
228.6104, 8763.842
229.0925, 8763.856
229.5746, 8758.080
230.0567, 8748.703
230.5388, 8734.569
231.0210, 8716.537
231.5031, 8700.021
231.9852, 8693.458
232.4673, 8704.076
232.9494, 8711.021
233.4315, 8715.380
233.9137, 8715.779
234.3958, 8708.061
234.8779, 8692.370
235.3600, 8676.767
235.8421, 8673.047
236.3242, 8689.069
236.8064, 8699.384
237.2885, 8700.815
237.7706, 8698.641
238.2527, 8697.012
238.7348, 8696.850
239.2169, 8697.006
239.6991, 8695.390
240.1812, 8690.104
240.6633, 8691.127
241.1454, 8705.662
241.6275, 8722.854
242.1096, 8732.504
242.5918, 8732.757
243.0739, 8728.467
243.5560, 8724.673
244.0381, 8721.520
244.5202, 8716.774
245.0023, 8709.019
245.4845, 8700.167
245.9666, 8691.644
246.4487, 8683.565
246.9308, 8677.080
247.4129, 8672.892
247.8950, 8671.101
248.3772, 8673.446
248.8593, 8683.721
249.3414, 8696.571
249.8235, 8706.129
250.3056, 8711.849
250.7877, 8714.991
251.2698, 8716.092
251.7520, 8715.284
252.2341, 8712.678
252.7162, 8705.135
253.1983, 8697.250
253.6804, 8694.771
254.1625, 8698.108
254.6447, 8705.325
255.1268, 8720.707
255.6089, 8738.576
256.0910, 8747.879
256.5731, 8738.585
257.0552, 8724.421
257.5374, 8724.877
258.0195, 8742.287
258.5016, 8762.514
258.9837, 8780.658
259.4658, 8796.264
259.9479, 8809.284
260.4301, 8822.873
260.9122, 8829.503
261.3943, 8817.500
261.8764, 8784.276
262.3585, 8744.206
262.8406, 8697.956
263.3228, 8650.139
263.8049, 8604.152
264.2870, 8560.193
264.7691, 8520.295
265.2512, 8486.603
265.7333, 8458.466
266.2155, 8439.055
266.6976, 8440.021
267.1797, 8444.433
267.6618, 8438.880
268.1439, 8419.888
268.6260, 8396.939
269.1082, 8381.102
269.5903, 8373.050
270.0724, 8368.382
270.5545, 8367.846
271.0366, 8369.558
271.5187, 8375.008
272.0009, 8383.758
272.4830, 8389.470
272.9651, 8383.089
273.4472, 8361.877
273.9293, 8344.264
274.4114, 8333.883
274.8936, 8326.506
275.3757, 8321.689
275.8578, 8318.711
276.3399, 8315.227
276.8220, 8308.446
277.3041, 8297.830
277.7863, 8288.172
278.2684, 8280.269
278.7505, 8272.801
279.2326, 8265.384
279.7147, 8258.038
280.1968, 8250.818
280.6789, 8243.302
281.1610, 8235.357
281.6432, 8230.877
282.1253, 8233.911
282.6074, 8236.775
283.0895, 8237.145
283.5716, 8235.533
284.0537, 8233.569
284.5359, 8232.710
285.0180, 8232.615
285.5001, 8229.215
285.9822, 8215.963
286.4643, 8206.840
286.9464, 8210.213
287.4286, 8218.826
287.9107, 8220.369
288.3928, 8206.749
288.8749, 8182.962
289.3570, 8171.718
289.8391, 8188.429
290.3213, 8197.865
290.8034, 8189.647
291.2855, 8173.445
291.7676, 8160.310
292.2497, 8155.343
292.7318, 8155.638
293.2140, 8153.615
293.6961, 8146.103
294.1782, 8141.337
294.6603, 8144.986
295.1424, 8148.788
295.6245, 8143.630
296.1067, 8127.229
296.5888, 8106.873
297.0709, 8095.710
297.5530, 8101.921
298.0351, 8101.847
298.5172, 8090.892
298.9994, 8077.738
299.4815, 8068.506
299.9636, 8064.051
300.4457, 8060.667
300.9278, 8052.987
301.4099, 8037.539
301.8921, 8029.505
302.3742, 8035.428
302.8563, 8041.750
303.3384, 8041.612
303.8205, 8035.056
304.3026, 8025.659
304.7848, 8016.270
305.2669, 8006.483
305.7490, 8000.320
306.2311, 8003.169
306.7132, 8004.011
307.1953, 7997.752
307.6775, 7986.431
308.1596, 7974.873
308.6417, 7966.356
309.1238, 7960.674
309.6059, 7955.698
310.0880, 7952.522
310.5702, 7948.864
311.0523, 7943.029
311.5344, 7936.791
312.0165, 7933.576
312.4986, 7935.345
312.9807, 7939.292
313.4629, 7936.124
313.9450, 7913.455
314.4271, 7899.854
314.9092, 7903.478
315.3913, 7913.715
315.8734, 7921.514
316.3556, 7923.466
316.8377, 7919.916
317.3198, 7910.569
317.8019, 7887.307
318.2840, 7873.374
318.7661, 7874.555
319.2483, 7879.597
319.7304, 7882.125
320.2125, 7880.385
320.6946, 7874.419
321.1767, 7863.352
321.6588, 7844.177
322.1409, 7831.794
322.6230, 7830.988
323.1052, 7831.356
323.5873, 7828.985
324.0694, 7823.522
324.5515, 7815.819
325.0336, 7806.191
325.5157, 7794.693
325.9979, 7785.207
326.4800, 7778.741
326.9621, 7773.359
327.4442, 7768.533
327.9263, 7764.581
328.4084, 7763.081
328.8906, 7765.323
329.3727, 7769.113
329.8548, 7765.138
330.3369, 7742.719
330.8190, 7726.026
331.3011, 7720.782
331.7833, 7720.678
332.2654, 7719.104
332.7475, 7713.659
333.2296, 7706.681
333.7117, 7702.720
334.1938, 7703.975
334.6760, 7704.081
335.1581, 7703.067
335.6402, 7700.909
336.1223, 7696.470
336.6044, 7690.210
337.0865, 7684.889
337.5687, 7684.293
338.0508, 7690.290
338.5329, 7691.975
339.0150, 7687.148
339.4971, 7680.310
339.9792, 7672.966
340.4614, 7665.101
340.9435, 7655.603
341.4256, 7643.022
341.9077, 7627.981
342.3898, 7618.209
342.8719, 7619.497
343.3541, 7619.720
343.8362, 7615.491
344.3183, 7608.976
344.8004, 7603.133
345.2825, 7599.392
345.7646, 7597.271
346.2468, 7595.723
346.7289, 7595.711
347.2110, 7594.366
347.6931, 7591.469
348.1752, 7587.224
348.6573, 7581.380
349.1395, 7573.987
349.6216, 7566.069
350.1037, 7558.360
350.5858, 7550.091
351.0679, 7545.126
351.5500, 7547.973
352.0322, 7550.566
352.5143, 7548.779
352.9964, 7543.081
353.4785, 7536.663
353.9606, 7532.459
354.4427, 7530.302
354.9249, 7525.899
355.4070, 7516.689
355.8891, 7508.604
356.3712, 7505.199
356.8533, 7503.935
357.3354, 7500.015
357.8176, 7489.907
358.2997, 7477.737
358.7818, 7475.188
359.2639, 7488.120
359.7460, 7496.043
360.2281, 7490.544
360.7103, 7479.334
361.1924, 7467.508
361.6745, 7456.274
362.1566, 7447.177
362.6387, 7444.321
363.1208, 7448.741
363.6029, 7446.477
364.0851, 7427.009
364.5672, 7407.659
365.0493, 7401.611
365.5314, 7407.154
366.0135, 7411.690
366.4956, 7403.013
366.9778, 7385.112
367.4599, 7378.313
367.9420, 7390.973
368.4241, 7399.906
368.9062, 7386.787
369.3883, 7361.872
369.8705, 7342.796
370.3526, 7337.970
370.8347, 7340.322
371.3168, 7340.708
371.7989, 7339.275
372.2810, 7334.505
372.7632, 7322.078
373.2453, 7307.959
373.7274, 7300.284
374.2095, 7301.343
374.6916, 7302.052
375.1737, 7293.875
375.6559, 7278.904
376.1380, 7267.419
376.6201, 7262.174
377.1022, 7260.416
377.5843, 7260.195
378.0664, 7261.264
378.5486, 7260.928
379.0307, 7259.149
379.5128, 7255.005
379.9949, 7245.627
380.4770, 7230.145
380.9591, 7215.500
381.4413, 7206.075
381.9234, 7201.778
382.4055, 7201.281
382.8876, 7210.453
383.3697, 7217.692
383.8518, 7213.348
384.3340, 7199.876
384.8161, 7186.591
385.2982, 7177.001
385.7803, 7170.647
386.2624, 7167.815
386.7445, 7170.635
387.2267, 7170.124
387.7088, 7161.050
388.1909, 7148.388
388.6730, 7138.831
389.1551, 7133.789
389.6372, 7130.771
390.1194, 7127.252
390.6015, 7123.143
391.0836, 7119.025
391.5657, 7113.778
392.0478, 7109.481
392.5299, 7108.393
393.0121, 7109.587
393.4942, 7109.848
393.9763, 7107.071
394.4584, 7101.785
394.9405, 7096.770
395.4226, 7091.566
395.9048, 7087.173
396.3869, 7085.306
396.8690, 7083.684
397.3511, 7078.718
397.8332, 7069.507
398.3153, 7059.331
398.7975, 7053.354
399.2796, 7053.112
399.7617, 7053.384
400.2438, 7057.776
400.7259, 7059.591
401.2080, 7053.253
401.6902, 7040.425
402.1723, 7027.271
402.6544, 7018.509
403.1365, 7013.927
403.6186, 7010.846
404.1007, 7011.546
404.5828, 7011.065
405.0649, 7009.923
405.5471, 7006.608
406.0292, 6997.608
406.5113, 6981.594
406.9934, 6964.739
407.4755, 6958.794
407.9576, 6968.636
408.4398, 6974.603
408.9219, 6974.612
409.4040, 6970.425
409.8861, 6960.329
410.3682, 6945.858
410.8503, 6932.692
411.3325, 6925.648
411.8146, 6924.048
412.2967, 6923.147
412.7788, 6923.400
413.2609, 6923.571
413.7430, 6923.728
414.2252, 6923.324
414.7073, 6921.473
415.1894, 6917.659
415.6715, 6912.793
416.1536, 6908.170
416.6357, 6903.847
417.1179, 6898.493
417.6000, 6890.440
418.0821, 6882.359
418.5642, 6876.697
419.0463, 6873.492
419.5284, 6871.478
420.0106, 6872.185
420.4927, 6873.258
420.9748, 6868.620
421.4569, 6856.673
421.9390, 6843.933
422.4211, 6835.021
422.9033, 6829.240
423.3854, 6824.206
423.8675, 6818.892
424.3496, 6815.063
424.8317, 6814.810
425.3138, 6817.280
425.7960, 6819.788
426.2781, 6821.773
426.7602, 6822.198
427.2423, 6818.208
427.7244, 6808.384
428.2065, 6799.886
428.6887, 6795.634
429.1708, 6792.312
429.6529, 6785.863
430.1350, 6776.135
430.6171, 6766.561
431.0992, 6759.836
431.5814, 6755.995
432.0635, 6755.195
432.5456, 6763.549
433.0277, 6767.529
433.5098, 6759.005
433.9919, 6744.195
434.4741, 6733.634
434.9562, 6731.741
435.4383, 6734.059
435.9204, 6731.405
436.4025, 6718.938
436.8846, 6710.597
437.3668, 6710.132
437.8489, 6710.056
438.3310, 6704.421
438.8131, 6694.327
439.2952, 6686.185
439.7773, 6686.509
440.2595, 6693.742
440.7416, 6691.527
441.2237, 6670.822
441.7058, 6653.748
442.1879, 6647.675
442.6700, 6647.130
443.1522, 6645.884
443.6343, 6641.889
444.1164, 6637.629
444.5985, 6636.671
445.0806, 6639.349
445.5627, 6641.632
446.0448, 6645.770
446.5269, 6646.002
447.0091, 6635.544
447.4912, 6617.487
447.9733, 6603.587
448.4554, 6603.853
448.9375, 6610.271
449.4196, 6606.994
449.9018, 6592.706
450.3839, 6579.723
450.8660, 6574.720
451.3481, 6574.447
451.8302, 6572.613
452.3123, 6568.113
452.7945, 6564.634
453.2766, 6565.849
453.7587, 6569.119
454.2408, 6568.821
454.7229, 6563.552
455.2050, 6556.378
455.6872, 6550.228
456.1693, 6545.172
456.6514, 6539.804
457.1335, 6531.628
457.6156, 6525.444
458.0977, 6525.374
458.5799, 6529.589
459.0620, 6533.975
459.5441, 6536.825
460.0262, 6537.229
460.5083, 6532.768
460.9904, 6517.817
461.4726, 6506.637
461.9547, 6502.542
462.4368, 6499.702
462.9189, 6492.705
463.4010, 6482.126
463.8831, 6473.427
464.3653, 6471.903
464.8474, 6476.908
465.3295, 6477.825
465.8116, 6472.214
466.2937, 6465.329
466.7758, 6456.424
467.2580, 6447.753
467.7401, 6442.290
468.2222, 6440.938
468.7043, 6440.430
469.1864, 6436.369
469.6685, 6428.483
470.1507, 6420.525
470.6328, 6411.544
471.1149, 6404.101
471.5970, 6400.269
472.0791, 6398.935
472.5612, 6397.242
473.0434, 6394.063
473.5255, 6389.684
474.0076, 6384.251
474.4897, 6377.724
474.9718, 6371.077
475.4539, 6364.377
475.9361, 6358.034
476.4182, 6353.057
476.9003, 6349.815
477.3824, 6345.329
477.8645, 6337.265
478.3466, 6327.857
478.8288, 6320.368
479.3109, 6315.119
479.7930, 6310.500
480.2751, 6305.458
480.7572, 6300.031
481.2393, 6294.094
481.7215, 6286.584
482.2036, 6280.002
482.6857, 6276.520
483.1678, 6273.810
483.6499, 6268.015
484.1320, 6258.238
484.6142, 6247.706
485.0963, 6240.456
485.5784, 6236.638
486.0605, 6235.493
486.5426, 6240.785
487.0247, 6244.541
487.5068, 6243.360
487.9890, 6238.611
488.4711, 6232.647
488.9532, 6226.552
489.4353, 6220.801
489.9174, 6217.232
490.3995, 6217.548
490.8817, 6214.193
491.3638, 6201.127
491.8459, 6187.892
492.3280, 6179.832
492.8101, 6176.606
493.2922, 6174.708
493.7744, 6172.870
494.2565, 6170.608
494.7386, 6166.409
495.2207, 6159.938
495.7028, 6153.652
496.1849, 6147.589
496.6671, 6143.132
497.1492, 6143.052
497.6313, 6149.062
498.1134, 6152.637
498.5955, 6148.354
499.0776, 6139.601
499.5598, 6131.358
500.0419, 6124.380
500.5240, 6118.406
501.0061, 6113.891
501.4882, 6110.466
501.9703, 6103.546
502.4525, 6088.469
502.9346, 6075.835
503.4167, 6071.032
503.8988, 6069.791
504.3809, 6066.165
504.8630, 6058.440
505.3452, 6049.249
505.8273, 6041.794
506.3094, 6035.956
506.7915, 6032.604
507.2736, 6035.894
507.7557, 6037.252
508.2379, 6032.343
508.7200, 6023.989
509.2021, 6017.314
509.6842, 6014.748
510.1663, 6013.114
510.6484, 6005.672
511.1306, 5990.920
511.6127, 5981.225
512.0948, 5982.520
512.5769, 5985.166
513.0590, 5982.525
513.5411, 5975.733
514.0233, 5969.292
514.5054, 5966.350
514.9875, 5964.024
515.4696, 5957.374
515.9517, 5946.730
516.4338, 5938.581
516.9160, 5936.831
517.3981, 5937.343
517.8802, 5932.583
518.3623, 5921.929
518.8444, 5911.671
519.3265, 5902.601
519.8087, 5894.940
520.2908, 5889.441
520.7729, 5885.744
521.2550, 5881.978
521.7371, 5876.817
522.2192, 5870.868
522.7014, 5866.576
523.1835, 5866.049
523.6656, 5864.403
524.1477, 5861.628
524.6298, 5857.563
525.1119, 5851.317
525.5941, 5843.325
526.0762, 5835.675
526.5583, 5830.167
527.0404, 5826.509
527.5225, 5822.142
528.0046, 5814.671
528.4868, 5811.329
528.9689, 5820.142
529.4510, 5830.464
529.9331, 5831.239
530.4152, 5820.662
530.8973, 5808.583
531.3795, 5803.075
531.8616, 5801.969
532.3437, 5799.026
532.8258, 5793.703
533.3079, 5786.606
533.7900, 5775.877
534.2722, 5764.104
534.7543, 5759.103
535.2364, 5766.027
535.7185, 5771.005
536.2006, 5767.661
536.6827, 5759.146
537.1649, 5749.550
537.6470, 5739.784
538.1291, 5729.491
538.6112, 5717.578
539.0933, 5703.956
539.5754, 5697.081
540.0576, 5707.084
540.5397, 5711.394
541.0218, 5699.755
541.5039, 5682.628
541.9860, 5672.073
542.4681, 5671.237
542.9503, 5674.901
543.4324, 5677.857
543.9145, 5680.172
544.3966, 5680.434
544.8787, 5678.614
545.3608, 5674.612
545.8430, 5666.433
546.3251, 5656.963
546.8072, 5650.610
547.2892, 5649.136
547.7714, 5648.116
548.2535, 5642.898
548.7356, 5634.920
549.2177, 5629.356
549.6998, 5627.517
550.1819, 5626.193
550.6641, 5622.024
551.1462, 5615.708
551.6283, 5612.770
552.1104, 5617.253
552.5925, 5620.595
553.0746, 5618.741
553.5568, 5613.807
554.0389, 5608.759
554.5210, 5604.405
555.0031, 5600.268
555.4852, 5595.981
555.9673, 5591.692
556.4495, 5585.444
556.9316, 5572.378
557.4137, 5562.771
557.8958, 5561.685
558.3779, 5564.133
558.8600, 5564.165
559.3422, 5560.029
559.8243, 5554.234
560.3064, 5549.547
560.7885, 5545.870
561.2706, 5542.016
561.7527, 5538.477
562.2349, 5533.655
562.7170, 5524.196
563.1991, 5513.411
563.6812, 5507.218
564.1633, 5508.594
564.6454, 5509.977
565.1276, 5506.054
565.6097, 5499.022
566.0918, 5492.488
566.5739, 5487.135
567.0560, 5484.413
567.5381, 5486.854
568.0203, 5493.923
568.5024, 5493.249
568.9845, 5476.220
569.4666, 5463.303
569.9487, 5461.825
570.4308, 5464.819
570.9130, 5465.098
571.3951, 5461.067
571.8772, 5454.883
572.3593, 5448.049
572.8414, 5440.761
573.3235, 5436.774
573.8057, 5439.482
574.2878, 5439.374
574.7699, 5430.605
575.2520, 5419.357
575.7341, 5411.715
576.2162, 5408.745
576.6984, 5407.308
577.1805, 5406.697
577.6626, 5405.795
578.1447, 5401.270
578.6268, 5392.708
579.1089, 5385.026
579.5911, 5380.914
580.0732, 5379.822
580.5553, 5380.461
581.0374, 5384.627
581.5195, 5386.437
582.0016, 5382.077
582.4838, 5376.701
582.9659, 5376.376
583.4480, 5380.064
583.9301, 5380.945
584.4122, 5373.812
584.8943, 5361.497
585.3765, 5354.942
585.8586, 5358.501
586.3407, 5358.734
586.8228, 5350.645
587.3049, 5341.821
587.7870, 5337.288
588.2692, 5336.495
588.7513, 5335.603
589.2334, 5332.396
589.7155, 5327.948
590.1976, 5324.021
590.6797, 5320.604
591.1619, 5316.888
591.6440, 5312.443
592.1261, 5307.922
592.6082, 5303.847
593.0903, 5300.127
593.5724, 5298.199
594.0546, 5299.938
594.5367, 5301.884
595.0188, 5302.958
595.5009, 5302.414
595.9830, 5298.532
596.4651, 5290.655
596.9473, 5280.800
597.4294, 5271.588
597.9115, 5262.425
598.3936, 5256.771
598.8757, 5258.750
599.3578, 5260.003
599.8400, 5258.969
600.3221, 5255.416
600.8042, 5247.772
601.2863, 5235.213
601.7684, 5224.324
602.2505, 5224.591
602.7327, 5232.955
603.2148, 5234.710
603.6969, 5227.047
604.1790, 5218.491
604.6611, 5214.937
605.1432, 5214.739
605.6254, 5211.997
606.1075, 5204.688
606.5896, 5198.611
607.0717, 5197.300
607.5538, 5197.105
608.0359, 5194.161
608.5181, 5188.156
609.0002, 5180.184
609.4823, 5170.446
609.9644, 5160.440
610.4465, 5157.202
610.9286, 5165.954
611.4108, 5171.281
611.8929, 5171.066
612.3750, 5167.521
612.8571, 5159.771
613.3392, 5149.585
613.8214, 5142.239
614.3035, 5142.521
