##NAMES=Pyroaurite
##RRUFFID=R120011
##IDEAL CHEMISTRY=Mg_6_Fe^3+^_2_CO_3_(OH)_16_&#183;4H_2_O
##LOCALITY=Scotch Lake quarry, Scotch Lake, Cape Breton County, Nova Scotia, Canada
##OWNER=RRUFF
##SOURCE=Donald Doell
##DESCRIPTION=Orange hexagonal tablets
##STATUS=The identification of this mineral has been confirmed only by single crystal X-ray diffraction.
##URL=rruff.info/R120011
175.4918, 115.8384
175.9739, 114.7142
176.4561, 113.7512
176.9382, 112.9898
177.4203, 112.2331
177.9024, 111.3947
178.3845, 110.6254
178.8666, 110.1325
179.3488, 109.8772
179.8309, 109.5581
180.3130, 108.7476
180.7951, 107.1517
181.2772, 105.6987
181.7593, 104.5176
182.2415, 103.3809
182.7236, 102.0063
183.2057, 100.3663
183.6878, 98.82558
184.1699, 97.97826
184.6520, 98.41548
185.1342, 98.39589
185.6163, 97.46548
186.0984, 96.24698
186.5805, 95.55291
187.0626, 95.66157
187.5447, 95.88574
188.0269, 94.87571
188.5090, 92.27707
188.9911, 90.11756
189.4732, 88.94112
189.9553, 88.47923
190.4374, 88.35795
190.9196, 88.56209
191.4017, 88.87399
191.8838, 89.03569
192.3659, 89.07793
192.8480, 88.87945
193.3301, 88.13444
193.8123, 87.04070
194.2944, 86.36893
194.7765, 86.52671
195.2586, 86.92448
195.7407, 86.93932
196.2228, 86.56679
196.7050, 86.06200
197.1871, 85.67757
197.6692, 85.39556
198.1513, 84.75601
198.6334, 83.01954
199.1155, 81.47466
199.5977, 81.06063
200.0798, 81.80458
200.5619, 82.97857
201.0440, 84.06636
201.5261, 85.14566
202.0082, 85.64442
202.4904, 84.76802
202.9725, 83.79514
203.4546, 83.34881
203.9367, 83.50378
204.4188, 83.95263
204.9009, 84.32732
205.3831, 84.57398
205.8652, 84.91384
206.3473, 85.77627
206.8294, 86.42085
207.3115, 86.20735
207.7936, 85.13848
208.2758, 83.86308
208.7579, 83.32850
209.2400, 84.00276
209.7221, 84.42194
210.2042, 84.74029
210.6863, 84.75504
211.1685, 84.03807
211.6506, 82.63438
212.1327, 81.27647
212.6148, 81.09840
213.0969, 83.12514
213.5790, 84.17888
214.0612, 83.30944
214.5433, 82.12620
215.0254, 82.11730
215.5075, 83.56669
215.9896, 85.36545
216.4717, 85.89269
216.9539, 84.36989
217.4360, 83.35409
217.9181, 83.20173
218.4002, 83.41476
218.8823, 83.48567
219.3644, 83.29099
219.8466, 83.09525
220.3287, 83.35432
220.8108, 84.22136
221.2929, 84.66067
221.7750, 84.33595
222.2571, 83.58571
222.7393, 82.75323
223.2214, 81.88313
223.7035, 81.09511
224.1856, 80.52335
224.6677, 80.14312
225.1498, 80.04472
225.6320, 80.41908
226.1141, 81.05053
226.5962, 81.67665
227.0783, 82.35146
227.5604, 82.73122
228.0425, 82.11977
228.5247, 80.78596
229.0068, 79.88642
229.4889, 80.24094
229.9710, 81.31240
230.4531, 81.84504
230.9352, 81.50547
231.4174, 81.06459
231.8995, 81.22105
232.3816, 81.76979
232.8637, 82.14896
233.3458, 81.85648
233.8279, 81.16190
234.3101, 81.03611
234.7922, 81.93197
235.2743, 82.66013
235.7564, 82.33904
236.2385, 81.38236
236.7206, 80.61865
237.2028, 80.54017
237.6849, 81.03117
238.1670, 81.67004
238.6491, 82.82901
239.1312, 83.53305
239.6133, 83.20196
240.0955, 82.24533
240.5776, 81.33878
241.0597, 80.87402
241.5418, 80.77817
242.0239, 80.70203
242.5060, 80.54015
242.9882, 80.56464
243.4703, 81.00830
243.9524, 81.63738
244.4345, 82.11711
244.9166, 82.24654
245.3987, 82.08968
245.8809, 81.94112
246.3630, 81.79354
246.8451, 81.66617
247.3272, 81.49962
247.8093, 81.36978
248.2914, 81.41560
248.7736, 81.73007
249.2557, 82.20361
249.7378, 82.37914
250.2199, 81.89455
250.7020, 81.54812
251.1841, 81.33979
251.6663, 81.35517
252.1484, 81.83693
252.6305, 82.91971
253.1126, 84.25101
253.5947, 84.72227
254.0768, 83.21770
254.5590, 82.14104
255.0411, 81.95798
255.5232, 82.14844
256.0053, 82.07506
256.4874, 81.47192
256.9695, 80.62941
257.4517, 80.24979
257.9338, 80.87596
258.4159, 81.35103
258.8980, 81.57336
259.3801, 81.68185
259.8622, 81.78860
260.3444, 81.93601
260.8265, 82.16808
261.3086, 82.59020
261.7907, 83.70953
262.2728, 84.16408
262.7549, 83.17896
263.2371, 81.89078
263.7192, 81.60668
264.2013, 82.64624
264.6834, 84.06263
265.1655, 84.36899
265.6476, 82.69785
266.1298, 82.06550
266.6119, 83.44714
267.0940, 85.38399
267.5761, 86.42088
268.0582, 86.29783
268.5403, 85.91463
269.0225, 86.39368
269.5046, 88.05204
269.9867, 89.08206
270.4688, 88.80320
270.9509, 88.27753
271.4330, 88.45482
271.9152, 89.43232
272.3973, 90.66337
272.8794, 91.71913
273.3615, 92.57117
273.8436, 93.06583
274.3257, 92.68073
274.8079, 92.30614
275.2900, 92.70838
275.7721, 93.89778
276.2542, 95.30125
276.7363, 96.53357
277.2184, 97.60457
277.7006, 98.74818
278.1827, 100.0235
278.6648, 101.3160
279.1469, 102.5314
279.6290, 103.6754
280.1111, 104.8301
280.5933, 106.0713
281.0754, 107.3468
281.5575, 108.5116
282.0396, 109.6016
282.5217, 110.5402
283.0038, 111.0667
283.4860, 111.3072
283.9681, 111.9554
284.4502, 113.4360
284.9323, 115.4452
285.4144, 117.3142
285.8965, 119.0594
286.3787, 120.6429
286.8608, 122.1213
287.3429, 123.4364
287.8250, 124.3688
288.3071, 124.7610
288.7892, 124.8352
289.2714, 124.9656
289.7535, 125.1883
290.2356, 125.2207
290.7177, 124.8750
291.1998, 124.2376
291.6819, 123.5247
292.1641, 122.7710
292.6462, 121.9690
293.1283, 121.1802
293.6104, 120.3956
294.0925, 119.3577
294.5746, 117.7640
295.0568, 115.8846
295.5389, 114.2347
296.0210, 112.8713
296.5031, 111.7501
296.9852, 110.9645
297.4673, 110.4060
297.9495, 109.7846
298.4316, 108.9609
298.9137, 108.0413
299.3958, 107.1845
299.8779, 106.4027
300.3600, 105.6384
300.8422, 104.7733
301.3243, 103.9144
301.8064, 103.3051
302.2885, 103.2464
302.7706, 103.2101
303.2527, 102.4101
303.7349, 100.7698
304.2170, 99.43593
304.6991, 99.25624
305.1812, 99.55796
305.6633, 99.35796
306.1454, 98.32797
306.6276, 97.31688
307.1097, 97.30990
307.5918, 98.22741
308.0739, 98.61739
308.5560, 97.67164
309.0381, 96.26827
309.5203, 95.35384
310.0024, 94.95911
310.4845, 94.93747
310.9666, 95.62172
311.4487, 96.74678
311.9308, 96.86338
312.4130, 95.18016
312.8951, 93.14291
313.3772, 92.00971
313.8593, 91.69392
314.3414, 91.77684
314.8235, 92.37263
315.3057, 93.20052
315.7878, 93.49139
316.2699, 93.04137
316.7520, 92.38441
317.2341, 91.82325
317.7162, 91.35583
318.1984, 90.99785
318.6805, 90.79918
319.1626, 90.69557
319.6447, 90.61415
320.1268, 90.57283
320.6089, 90.46219
321.0911, 90.01562
321.5732, 89.52058
322.0553, 89.46246
322.5374, 90.20718
323.0195, 90.97170
323.5016, 90.72988
323.9838, 89.46944
324.4659, 88.60218
324.9480, 88.93598
325.4301, 89.76242
325.9122, 90.22759
326.3943, 90.26589
326.8765, 90.07327
327.3586, 89.61019
327.8407, 88.96502
328.3228, 88.69887
328.8049, 89.16469
329.2870, 89.73491
329.7692, 89.67818
330.2513, 89.05579
330.7334, 88.55180
331.2155, 88.68214
331.6976, 89.15080
332.1797, 89.17519
332.6619, 88.49838
333.1440, 87.87354
333.6261, 88.19567
334.1082, 89.07298
334.5903, 89.55893
335.0724, 89.07205
335.5546, 88.18966
336.0367, 87.61872
336.5188, 87.37770
337.0009, 87.31262
337.4830, 87.42952
337.9651, 87.64455
338.4473, 87.77251
338.9294, 87.66299
339.4115, 87.67075
339.8936, 88.28969
340.3757, 89.40464
340.8578, 90.10349
341.3400, 89.93290
341.8221, 89.28219
342.3042, 88.69083
342.7863, 88.09589
343.2684, 87.84204
343.7505, 88.25438
344.2327, 89.12631
344.7148, 90.05272
345.1969, 91.05500
345.6790, 91.80807
346.1611, 91.65986
346.6432, 90.76900
347.1254, 90.17193
347.6075, 90.32055
348.0896, 90.81772
348.5717, 91.29829
349.0538, 91.74485
349.5359, 91.85775
350.0181, 91.13663
350.5002, 89.86794
350.9823, 89.32922
351.4644, 90.27559
351.9465, 91.38513
352.4286, 91.83265
352.9108, 91.68506
353.3929, 91.24757
353.8750, 90.60350
354.3571, 89.81604
354.8392, 88.98734
355.3214, 87.89520
355.8035, 87.22890
356.2856, 87.58376
356.7677, 88.47027
357.2498, 89.00623
357.7319, 88.92570
358.2141, 88.52555
358.6962, 88.08054
359.1783, 87.49111
359.6604, 87.48254
360.1425, 88.96481
360.6246, 90.55468
361.1068, 90.64597
361.5889, 89.20307
362.0710, 87.85519
362.5531, 88.10268
363.0352, 89.90958
363.5173, 90.71211
363.9995, 89.54379
364.4816, 88.43240
364.9637, 88.42896
365.4458, 89.26121
365.9279, 90.19259
366.4100, 90.86953
366.8922, 91.31869
367.3743, 91.59563
367.8564, 91.38740
368.3385, 91.45802
368.8206, 92.19003
369.3027, 93.13006
369.7849, 93.72610
370.2670, 93.82933
370.7491, 93.71733
371.2312, 93.75948
371.7133, 93.98703
372.1954, 94.30318
372.6776, 94.70422
373.1597, 95.18616
373.6418, 95.80701
374.1239, 96.52487
374.6060, 97.20567
375.0881, 97.74839
375.5703, 98.15406
376.0524, 98.53264
376.5345, 98.85303
377.0166, 99.18554
377.4987, 99.36611
377.9808, 99.61746
378.4630, 100.3914
378.9451, 101.9019
379.4272, 103.6879
379.9093, 104.6204
380.3914, 104.0555
380.8735, 103.6745
381.3557, 103.4893
381.8378, 103.5209
382.3199, 103.8656
382.8020, 104.4893
383.2841, 105.1792
383.7662, 105.6896
384.2484, 105.9905
384.7305, 106.3345
385.2126, 106.8711
385.6947, 107.3052
386.1768, 107.6598
386.6589, 107.8290
387.1411, 107.5753
387.6232, 106.6724
388.1053, 105.3706
388.5874, 104.6191
389.0695, 104.7835
389.5516, 104.8184
390.0338, 104.4362
390.5159, 103.8610
390.9980, 103.2152
391.4801, 102.5384
391.9622, 102.0112
392.4443, 101.9370
392.9265, 102.3769
393.4086, 102.6901
393.8907, 102.9234
394.3728, 102.8651
394.8549, 102.2220
395.3370, 101.1405
395.8192, 100.1666
396.3013, 99.73571
396.7834, 99.67585
397.2655, 99.43208
397.7476, 98.98292
398.2297, 98.40550
398.7119, 97.46786
399.1940, 96.50658
399.6761, 96.04153
400.1582, 96.36324
400.6403, 96.85278
401.1224, 96.91201
401.6046, 96.55624
402.0867, 96.02429
402.5688, 95.29115
403.0509, 94.51308
403.5330, 93.83035
404.0151, 93.23666
404.4973, 92.82720
404.9794, 92.71453
405.4615, 92.79311
405.9436, 92.95940
406.4257, 93.23401
406.9078, 93.31863
407.3900, 92.81705
407.8721, 91.87576
408.3542, 91.27445
408.8363, 91.25182
409.3184, 91.41862
409.8005, 91.63583
410.2827, 91.85816
410.7648, 91.90797
411.2469, 91.67074
411.7290, 91.28962
412.2111, 91.07571
412.6932, 90.99514
413.1754, 91.11980
413.6575, 91.90408
414.1396, 92.66425
414.6217, 92.56214
415.1038, 91.50260
415.5859, 90.13430
416.0681, 89.03475
416.5502, 88.19771
417.0323, 87.83286
417.5144, 88.20943
417.9965, 88.69183
418.4786, 88.98537
418.9608, 89.19943
419.4429, 89.66966
419.9250, 90.59280
420.4071, 91.66653
420.8892, 92.03159
421.3713, 91.07593
421.8535, 90.30091
422.3356, 89.72465
422.8177, 89.34648
423.2998, 89.12468
423.7819, 89.07824
424.2640, 89.34548
424.7462, 90.21707
425.2283, 91.79137
425.7104, 92.53986
426.1925, 91.58442
426.6746, 90.71124
427.1567, 90.30672
427.6389, 90.34420
428.1210, 90.83794
428.6031, 91.86912
429.0852, 93.05595
429.5673, 93.48567
430.0494, 92.82755
430.5316, 92.60965
431.0137, 93.69415
431.4958, 95.00018
431.9779, 95.86019
432.4600, 96.23204
432.9421, 96.46402
433.4243, 96.69400
433.9064, 96.97651
434.3885, 97.63023
434.8706, 98.87890
435.3527, 100.0154
435.8348, 100.5246
436.3170, 100.6300
436.7991, 100.6357
437.2812, 100.4433
437.7633, 100.4147
438.2454, 101.1015
438.7275, 102.3721
439.2097, 103.2113
439.6918, 103.0447
440.1739, 102.6291
440.6560, 103.3076
441.1381, 105.1965
441.6202, 106.5486
442.1024, 106.5129
442.5845, 105.8897
443.0666, 105.5322
443.5487, 105.5266
444.0308, 105.6424
444.5129, 105.7302
444.9951, 105.7890
445.4772, 105.8190
445.9593, 105.6676
446.4414, 105.6665
446.9235, 106.2696
447.4056, 106.9846
447.8878, 106.9366
448.3699, 105.8445
448.8520, 104.3926
449.3341, 103.6316
449.8162, 103.8453
450.2983, 103.9901
450.7805, 104.1468
451.2626, 104.1735
451.7447, 103.9619
452.2268, 103.5547
452.7089, 103.1092
453.1910, 102.7646
453.6732, 102.4005
454.1553, 101.4241
454.6374, 99.08078
455.1195, 97.43492
455.6016, 97.29713
456.0837, 97.58397
456.5659, 97.34786
457.0480, 96.43399
457.5301, 95.42836
458.0122, 94.99250
458.4943, 95.11086
458.9764, 95.04350
459.4586, 94.66776
459.9407, 94.25081
460.4228, 94.08106
460.9049, 93.95045
461.3870, 93.43484
461.8691, 92.21334
462.3513, 90.83591
462.8334, 89.97444
463.3155, 89.61498
463.7976, 89.42150
464.2797, 89.40663
464.7618, 89.37678
465.2440, 89.03609
465.7261, 88.37823
466.2082, 87.81726
466.6903, 87.54700
467.1724, 87.41650
467.6545, 87.34086
468.1367, 87.29113
468.6188, 86.95106
469.1009, 85.95528
469.5830, 84.54215
470.0651, 83.89696
470.5472, 84.54570
471.0294, 85.18288
471.5115, 85.64079
471.9936, 85.83887
472.4757, 85.59312
472.9578, 84.88156
473.4399, 83.97709
473.9221, 83.17467
474.4042, 82.44543
474.8863, 82.00486
475.3684, 81.92647
475.8505, 82.01542
476.3326, 82.27437
476.8148, 82.63726
477.2969, 83.06440
477.7790, 83.54286
478.2611, 83.93822
478.7432, 83.87243
479.2253, 83.05675
479.7075, 82.60510
480.1896, 82.92451
480.6717, 83.40606
481.1538, 83.82274
481.6359, 84.12093
482.1180, 84.24771
482.6002, 84.09303
483.0823, 83.76500
483.5644, 83.63881
484.0465, 83.84060
484.5286, 83.76633
485.0107, 82.75729
485.4929, 81.53150
485.9750, 80.96954
486.4571, 81.24776
486.9392, 81.74971
487.4213, 82.21078
487.9034, 82.61288
488.3856, 82.92695
488.8677, 83.15666
489.3498, 83.23112
489.8319, 82.96107
490.3140, 82.41729
490.7961, 82.36357
491.2783, 83.05278
491.7604, 83.95786
492.2425, 85.12291
492.7246, 86.28666
493.2067, 86.88195
493.6888, 86.70813
494.1710, 86.25296
494.6531, 86.26379
495.1352, 86.88192
495.6173, 87.55233
496.0994, 88.40956
496.5815, 89.18172
497.0637, 89.64027
497.5458, 89.91397
498.0279, 90.32097
498.5100, 91.06116
498.9921, 91.93608
499.4742, 92.41304
499.9564, 92.27853
500.4385, 92.28368
500.9206, 92.63741
501.4027, 93.07993
501.8848, 93.38175
502.3669, 93.59118
502.8491, 94.00047
503.3312, 94.79086
503.8133, 95.92915
504.2954, 97.45180
504.7775, 99.48243
505.2596, 101.2750
505.7418, 102.2944
506.2239, 102.9646
506.7060, 103.7943
507.1881, 104.7094
507.6702, 106.2066
508.1523, 109.0419
508.6345, 112.4569
509.1166, 115.0658
509.5987, 116.6712
510.0808, 118.1925
510.5629, 120.3775
511.0450, 123.1689
511.5272, 125.9151
512.0093, 128.4024
512.4914, 131.1164
512.9735, 134.3215
513.4556, 137.7915
513.9377, 141.2927
514.4199, 144.7268
514.9020, 148.1134
515.3841, 151.3829
515.8662, 154.4503
516.3483, 157.9505
516.8304, 162.5826
517.3126, 166.8981
517.7947, 169.9973
518.2768, 172.6618
518.7589, 176.0124
519.2410, 180.4951
519.7231, 185.7305
520.2053, 191.4652
520.6874, 197.7615
521.1695, 203.4110
521.6516, 207.8148
522.1337, 212.0897
522.6158, 216.9443
523.0980, 222.2769
523.5801, 227.8605
524.0622, 234.1266
524.5443, 240.0803
525.0264, 244.4182
525.5085, 247.3902
525.9907, 250.3705
526.4728, 254.0589
526.9549, 257.5246
527.4370, 259.3758
527.9191, 259.5565
528.4012, 258.7663
528.8834, 256.8747
529.3655, 254.2012
529.8476, 250.8222
530.3297, 246.8355
530.8118, 242.4598
531.2939, 237.8026
531.7761, 232.8615
532.2582, 227.6269
532.7403, 222.0541
533.2224, 216.2471
533.7045, 210.1993
534.1866, 203.9819
534.6688, 197.4084
535.1509, 190.6586
535.6330, 184.1876
536.1151, 178.2802
536.5972, 172.8661
537.0793, 167.6786
537.5615, 162.7285
538.0436, 158.0718
538.5257, 153.7997
539.0078, 149.8427
539.4899, 146.1905
539.9720, 142.8235
540.4542, 139.5727
540.9363, 136.4227
541.4184, 133.3217
541.9005, 130.1066
542.3826, 126.7941
542.8647, 123.8307
543.3469, 121.6146
543.8290, 119.7046
544.3111, 116.8432
544.7932, 112.5156
545.2753, 108.6231
545.7574, 105.2604
546.2396, 102.5361
546.7217, 100.8635
547.2038, 100.0081
547.6859, 99.10925
548.1680, 97.54453
548.6501, 95.47069
549.1323, 93.56773
549.6144, 91.83228
550.0965, 90.30626
550.5786, 89.01925
551.0607, 87.88325
551.5428, 86.91763
552.0250, 86.07171
552.5071, 85.16088
552.9892, 83.97637
553.4713, 82.64979
553.9534, 81.54605
554.4355, 80.68407
554.9177, 79.96806
555.3998, 79.45177
555.8819, 78.99657
556.3640, 78.42480
556.8461, 77.73026
557.3282, 76.94971
557.8104, 76.07561
558.2925, 75.13094
558.7746, 74.03600
559.2567, 72.83630
559.7388, 71.89922
560.2209, 71.45430
560.7031, 71.40232
561.1852, 71.42868
561.6673, 71.99114
562.1494, 71.95854
562.6315, 70.63448
563.1136, 69.24400
563.5958, 68.75480
564.0779, 69.07014
564.5600, 69.51292
565.0421, 69.63484
565.5242, 69.47820
566.0063, 69.14030
566.4885, 68.52553
566.9706, 68.01463
567.4527, 67.84550
567.9348, 67.70132
568.4169, 67.31358
568.8990, 66.71323
569.3812, 66.19087
569.8633, 66.05803
570.3454, 66.01230
570.8275, 65.47620
571.3096, 64.49896
571.7917, 63.87605
572.2739, 64.08166
572.7560, 64.58256
573.2381, 64.30742
573.7202, 62.90844
574.2023, 62.14686
574.6844, 62.80638
575.1666, 63.61137
575.6487, 63.63831
576.1308, 63.06979
576.6129, 62.56367
577.0950, 62.46595
577.5771, 62.56446
578.0593, 62.34010
578.5414, 61.54694
579.0235, 61.10442
579.5056, 61.38644
579.9877, 61.72410
580.4698, 61.91034
580.9520, 61.91168
581.4341, 61.66806
581.9162, 61.04570
582.3983, 60.39181
582.8804, 60.30597
583.3625, 60.71296
583.8447, 60.74785
584.3268, 60.06763
584.8089, 59.29148
585.2910, 59.09142
585.7731, 59.41426
586.2552, 59.71385
586.7374, 59.95194
587.2195, 60.14782
587.7016, 60.29151
588.1837, 60.40410
588.6658, 60.56018
589.1479, 60.77230
589.6301, 60.89291
590.1122, 60.71362
590.5943, 60.19109
591.0764, 59.78457
591.5585, 59.72118
592.0406, 59.50262
592.5228, 58.64154
593.0049, 57.73748
593.4870, 57.61854
593.9691, 58.47487
594.4512, 59.48278
594.9333, 59.94584
595.4155, 59.91662
595.8976, 59.48814
596.3797, 58.51854
596.8618, 57.82133
597.3439, 57.99601
597.8260, 58.73744
598.3082, 59.27211
598.7903, 59.59946
599.2724, 59.72456
599.7545, 59.44079
600.2366, 59.08460
600.7188, 59.12684
601.2009, 59.51525
601.6830, 59.69031
602.1651, 59.21872
602.6472, 58.38126
603.1293, 58.30300
603.6115, 59.92530
604.0936, 60.54744
604.5757, 58.91911
605.0578, 57.28382
605.5399, 57.30251
606.0220, 58.57590
606.5042, 59.48449
606.9863, 59.00271
607.4684, 57.86459
607.9505, 57.20391
608.4326, 57.01159
608.9147, 56.93979
609.3969, 56.88466
609.8790, 56.95057
610.3611, 57.40559
610.8432, 58.19721
611.3253, 58.56551
611.8074, 58.08288
612.2896, 57.52230
612.7717, 57.33646
613.2538, 57.33508
613.7359, 57.12614
614.2180, 56.61072
614.7001, 56.10307
615.1823, 56.01316
615.6644, 56.37413
616.1465, 56.44046
616.6286, 55.80603
617.1107, 55.44277
617.5928, 55.87844
618.0750, 56.52699
618.5571, 56.66526
619.0392, 56.18601
619.5213, 55.86452
620.0034, 56.67588
620.4855, 57.96937
620.9677, 58.05342
621.4498, 56.81430
621.9319, 55.85758
622.4140, 56.06365
622.8961, 56.93396
623.3782, 57.43560
623.8604, 57.50343
624.3425, 57.46813
624.8246, 57.35114
625.3067, 57.15540
625.7888, 56.79311
626.2709, 56.35898
626.7531, 56.09416
627.2352, 56.12335
627.7173, 56.24174
628.1994, 56.05230
628.6815, 55.48706
629.1636, 54.96688
629.6458, 54.33303
630.1279, 53.99907
630.6100, 54.39238
631.0921, 55.13531
631.5742, 55.48936
632.0563, 55.09696
632.5385, 54.82549
633.0206, 55.70143
633.5027, 57.03919
633.9848, 57.29765
634.4669, 56.27733
634.9490, 55.17975
635.4312, 54.85431
635.9133, 55.17420
636.3954, 55.54179
636.8775, 56.15945
637.3596, 56.54178
637.8417, 56.77015
638.3239, 56.67858
638.8060, 55.87197
639.2881, 54.61029
639.7702, 53.65237
640.2523, 53.46260
640.7344, 53.79788
641.2166, 54.27279
641.6987, 54.89780
642.1808, 55.46849
642.6629, 55.98023
643.1450, 56.37593
643.6271, 56.66985
644.1093, 56.82331
644.5914, 56.61699
645.0735, 55.55472
645.5556, 54.66192
646.0377, 54.44928
646.5198, 54.68447
647.0020, 55.22606
647.4841, 55.95090
647.9662, 56.36595
648.4483, 55.94574
648.9304, 54.86909
649.4125, 54.43620
649.8947, 55.08285
650.3768, 55.56362
650.8589, 55.44083
651.3410, 55.26372
651.8231, 55.60507
652.3052, 56.31882
652.7874, 56.57266
653.2695, 55.60591
653.7516, 54.30322
654.2337, 53.73048
654.7158, 53.78461
655.1979, 54.06187
655.6801, 54.49204
656.1622, 54.84515
656.6443, 54.82328
657.1264, 54.39473
657.6085, 54.20900
658.0906, 54.33173
658.5728, 54.57701
659.0549, 55.14394
659.5370, 55.66718
660.0191, 55.72009
660.5012, 55.28496
660.9833, 54.70771
661.4655, 54.14001
661.9476, 53.71737
662.4297, 54.10883
662.9118, 55.49387
663.3939, 56.20668
663.8760, 55.34977
664.3582, 54.06916
664.8403, 53.82275
665.3224, 54.51527
665.8045, 54.99085
666.2866, 54.81362
666.7687, 54.64039
667.2509, 54.99162
667.7330, 55.53985
668.2151, 55.68657
668.6972, 55.30196
669.1793, 54.75883
669.6614, 54.35606
670.1436, 54.13021
670.6257, 54.72136
671.1078, 56.92346
671.5899, 58.30209
672.0720, 57.37705
672.5541, 55.93139
