##NAMES=Pyrochroite
##RRUFFID=R100045
##IDEAL CHEMISTRY=Mn^2+^(OH)_2_
##LOCALITY=N'Chwaning II mine, Kalahari Manganese Field, Northern Cape Province, South Africa
##OWNER=RRUFF
##SOURCE=Marcus Origlieri
##DESCRIPTION=Red platy crystals frozen in matrix
##STATUS=The identification of this mineral has been confirmed by single-crystal X-ray diffraction.
##URL=rruff.info/R100045
92.49744, 193.0598
92.97955, 191.3581
93.46167, 186.6821
93.94379, 181.9543
94.42590, 178.8756
94.90802, 176.6149
95.39014, 173.8172
95.87225, 170.3614
96.35437, 166.9755
96.83649, 164.1521
97.31860, 161.6208
97.80072, 159.0712
98.28284, 156.1317
98.76495, 152.7871
99.24707, 149.7498
99.72919, 146.9758
100.2113, 144.6096
100.6934, 142.6079
101.1755, 140.9710
101.6577, 139.7474
102.1398, 138.9776
102.6219, 138.6904
103.1040, 138.6777
103.5861, 139.2994
104.0682, 139.8135
104.5504, 139.7478
105.0325, 139.0566
105.5146, 138.0835
105.9967, 137.2881
106.4788, 136.7821
106.9609, 136.1177
107.4431, 134.9710
107.9252, 133.7168
108.4073, 132.9525
108.8894, 132.9781
109.3715, 133.3039
109.8536, 133.1075
110.3358, 132.3953
110.8179, 131.3893
111.3000, 129.7556
111.7821, 127.6318
112.2642, 126.4537
112.7463, 127.6378
113.2285, 129.5484
113.7106, 130.5225
114.1927, 130.1478
114.6748, 129.1706
115.1569, 128.6036
115.6390, 128.5972
116.1212, 128.6154
116.6033, 128.4927
117.0854, 128.3102
117.5675, 128.1758
118.0496, 128.1660
118.5317, 128.2067
119.0139, 127.9298
119.4960, 126.5696
119.9781, 125.7173
120.4602, 126.1199
120.9423, 127.2217
121.4244, 127.9945
121.9066, 127.5700
122.3887, 125.7993
122.8708, 124.9636
123.3529, 125.8787
123.8350, 126.7712
124.3171, 126.7007
124.7993, 125.6903
125.2814, 124.4714
125.7635, 123.7334
126.2456, 123.5829
126.7277, 123.6646
127.2098, 124.4045
127.6920, 125.1820
128.1741, 125.2092
128.6562, 124.2255
129.1383, 123.0021
129.6204, 122.5813
130.1025, 122.8615
130.5847, 123.1190
131.0668, 123.0677
131.5489, 122.7640
132.0310, 122.3756
132.5131, 121.7892
132.9952, 121.3007
133.4774, 121.2296
133.9595, 121.5741
134.4416, 121.9072
134.9237, 121.8060
135.4058, 121.2020
135.8879, 120.6424
136.3701, 120.1571
136.8522, 119.7984
137.3343, 119.6664
137.8164, 119.7755
138.2985, 119.9714
138.7806, 120.0325
139.2628, 120.1059
139.7449, 119.7078
140.2270, 118.1530
140.7091, 116.4810
141.1912, 115.7287
141.6733, 116.3633
142.1555, 117.9461
142.6376, 118.9686
143.1197, 119.1669
143.6018, 119.0414
144.0839, 118.4282
144.5660, 117.5400
145.0482, 116.6120
145.5303, 115.7209
146.0124, 114.9599
146.4945, 115.0297
146.9766, 116.6860
147.4587, 118.2331
147.9409, 118.9406
148.4230, 118.8981
148.9051, 118.5948
149.3872, 118.3143
149.8693, 118.0370
150.3514, 117.6777
150.8336, 116.9612
151.3157, 116.3307
151.7978, 116.2197
152.2799, 116.6789
152.7620, 117.3606
153.2441, 118.2849
153.7263, 119.2475
154.2084, 119.8543
154.6905, 119.8660
155.1726, 119.4442
155.6547, 118.8843
156.1368, 118.0417
156.6190, 117.3391
157.1011, 116.9540
157.5832, 116.8437
158.0653, 116.9460
158.5474, 117.3569
159.0295, 118.0306
159.5117, 118.3419
159.9938, 117.8812
160.4759, 117.4362
160.9580, 117.2143
161.4401, 117.2345
161.9222, 117.4951
162.4044, 118.0970
162.8865, 119.1966
163.3686, 119.7014
163.8507, 119.3967
164.3328, 118.7427
164.8149, 117.5948
165.2971, 116.1387
165.7792, 114.9788
166.2613, 114.9003
166.7434, 116.5500
167.2255, 117.4058
167.7076, 116.9520
168.1898, 116.1856
168.6719, 115.7071
169.1540, 115.6647
169.6361, 115.9829
170.1182, 116.6445
170.6003, 118.0284
171.0825, 118.7132
171.5646, 118.2447
172.0467, 117.1946
172.5288, 116.1968
173.0109, 115.4342
173.4930, 114.7233
173.9752, 113.5813
174.4573, 111.8309
174.9394, 110.6947
175.4215, 110.9216
175.9036, 112.0133
176.3857, 112.8587
176.8679, 113.1178
177.3500, 113.0593
177.8321, 112.9983
178.3142, 112.9114
178.7963, 112.9840
179.2784, 113.5889
179.7606, 114.6118
180.2427, 115.0360
180.7248, 114.1360
181.2069, 112.9075
181.6890, 112.2108
182.1711, 112.1158
182.6533, 112.3041
183.1354, 112.4588
183.6175, 112.5478
184.0996, 112.8605
184.5817, 113.9826
185.0638, 115.0319
185.5460, 115.4157
186.0281, 115.0169
186.5102, 114.2434
186.9923, 113.5994
187.4744, 113.0302
187.9565, 112.7655
188.4387, 112.9374
188.9208, 113.3113
189.4029, 113.8380
189.8850, 114.4781
190.3671, 115.0343
190.8492, 115.1360
191.3314, 114.6328
191.8135, 113.8383
192.2956, 112.3110
192.7777, 110.7674
193.2598, 109.8595
193.7419, 109.8417
194.2241, 110.4674
194.7062, 111.1444
195.1883, 112.3407
195.6704, 113.0088
196.1525, 112.7950
196.6346, 112.1464
197.1168, 111.4823
197.5989, 110.9684
198.0810, 110.6944
198.5631, 110.9735
199.0452, 112.6566
199.5273, 113.7442
200.0095, 113.5443
200.4916, 112.5938
200.9737, 111.6893
201.4558, 111.1211
201.9379, 110.9377
202.4200, 111.3996
202.9022, 113.1264
203.3843, 114.3234
203.8664, 113.8971
204.3485, 112.3860
204.8306, 111.2988
205.3127, 111.3667
205.7949, 112.1676
206.2770, 112.7597
206.7591, 113.2286
207.2412, 113.3644
207.7233, 112.8314
208.2054, 111.7466
208.6876, 110.8625
209.1697, 110.5856
209.6518, 110.6011
210.1339, 110.3523
210.6160, 109.6782
211.0981, 109.1512
211.5803, 109.3769
212.0624, 110.3571
212.5445, 111.2155
213.0266, 111.5306
213.5087, 111.6408
213.9908, 111.9417
214.4730, 112.5502
214.9551, 113.0068
215.4372, 112.6040
215.9193, 111.1388
216.4014, 110.0736
216.8836, 110.1452
217.3657, 110.6041
217.8478, 111.0163
218.3299, 111.2773
218.8120, 111.4813
219.2941, 111.7723
219.7763, 112.2041
220.2584, 112.5390
220.7405, 112.7095
221.2226, 112.7915
221.7047, 112.9155
222.1868, 113.1009
222.6690, 113.1113
223.1511, 112.4035
223.6332, 110.2573
224.1153, 109.0788
224.5974, 109.6682
225.0795, 110.7761
225.5617, 111.4898
226.0438, 111.5617
226.5259, 111.4049
227.0080, 111.7974
227.4901, 113.3454
227.9722, 114.3154
228.4544, 114.6155
228.9365, 114.4390
229.4186, 113.7821
229.9007, 112.6980
230.3828, 111.4502
230.8649, 110.4853
231.3471, 109.7330
231.8292, 109.4543
232.3113, 109.9211
232.7934, 110.6551
233.2755, 111.2938
233.7576, 111.7271
234.2398, 112.0543
234.7219, 112.4310
235.2040, 112.8888
235.6861, 113.3464
236.1682, 113.9069
236.6503, 114.4130
237.1325, 114.7596
237.6146, 114.9109
238.0967, 114.8106
238.5788, 114.3064
239.0609, 112.9967
239.5430, 112.2680
240.0252, 112.5210
240.5073, 113.2048
240.9894, 113.8569
241.4715, 114.3677
241.9536, 114.7124
242.4357, 114.8334
242.9179, 114.6867
243.4000, 114.4956
243.8821, 114.2267
244.3642, 113.9481
244.8463, 113.6766
245.3284, 113.4053
245.8106, 113.3035
246.2927, 113.6999
246.7748, 114.6250
247.2569, 115.2591
247.7390, 115.3246
248.2211, 115.1059
248.7033, 114.9334
249.1854, 114.8596
249.6675, 114.7936
250.1496, 114.6079
250.6317, 114.3262
251.1138, 114.1374
251.5960, 114.2540
252.0781, 114.4113
252.5602, 114.0710
253.0423, 113.0502
253.5244, 112.3208
254.0065, 113.2357
254.4887, 115.1987
254.9708, 116.5512
255.4529, 116.4426
255.9350, 115.6675
256.4171, 115.3539
256.8992, 115.6263
257.3813, 115.9379
257.8635, 115.7152
258.3456, 115.2758
258.8277, 115.1930
259.3098, 115.8679
259.7919, 116.8438
260.2740, 117.4468
260.7562, 117.6029
261.2383, 117.7019
261.7204, 118.1311
262.2025, 118.5937
262.6846, 118.6687
263.1667, 118.0915
263.6489, 117.2508
264.1310, 116.6076
264.6131, 116.1227
265.0952, 116.0090
265.5773, 117.0027
266.0594, 118.1656
266.5416, 118.4161
267.0237, 117.1932
267.5058, 115.7089
267.9879, 115.9049
268.4700, 118.2936
268.9521, 119.9867
269.4343, 119.1236
269.9164, 117.6152
270.3985, 116.9682
270.8806, 117.5970
271.3627, 118.5656
271.8448, 118.5792
272.3270, 117.3750
272.8091, 116.5890
273.2912, 117.0744
273.7733, 117.8162
274.2554, 118.2200
274.7375, 118.1834
275.2197, 117.9560
275.7018, 117.8279
276.1839, 117.8346
276.6660, 117.7083
277.1481, 116.9941
277.6302, 116.4504
278.1124, 116.6042
278.5945, 117.4225
279.0766, 118.3593
279.5587, 118.8071
280.0408, 118.6833
280.5229, 118.8416
281.0051, 119.9893
281.4872, 120.8382
281.9693, 120.5201
282.4514, 119.3163
282.9335, 118.2636
283.4156, 118.4118
283.8978, 119.7986
284.3799, 120.5882
284.8620, 120.1974
285.3441, 119.7499
285.8262, 119.6213
286.3083, 119.7391
286.7905, 119.8919
287.2726, 119.9431
287.7547, 119.8967
288.2368, 119.7833
288.7189, 119.4419
289.2010, 119.2319
289.6832, 119.4522
290.1653, 119.8236
290.6474, 119.8523
291.1295, 119.1747
291.6116, 118.0804
292.0938, 117.8250
292.5759, 119.3694
293.0580, 120.3820
293.5401, 120.0066
294.0222, 119.0631
294.5043, 118.4892
294.9865, 118.7103
295.4686, 119.4122
295.9507, 119.8405
296.4328, 119.8753
296.9149, 119.8259
297.3970, 119.6811
297.8792, 119.5111
298.3613, 119.3669
298.8434, 119.2658
299.3255, 119.2074
299.8076, 119.1964
300.2897, 119.2530
300.7719, 119.3126
301.2540, 119.5636
301.7361, 119.6811
302.2182, 119.3378
302.7003, 118.5462
303.1824, 117.6911
303.6646, 117.2463
304.1467, 117.3263
304.6288, 117.4167
305.1109, 117.5142
305.5930, 117.6242
306.0751, 117.7989
306.5573, 118.0020
307.0394, 118.1099
307.5215, 117.9619
308.0036, 117.5192
308.4857, 117.3890
308.9678, 118.0168
309.4500, 118.5297
309.9321, 118.6399
310.4142, 118.4404
310.8963, 118.1540
311.3784, 117.9218
311.8605, 117.7379
312.3427, 117.5553
312.8248, 117.2795
313.3069, 117.1241
313.7890, 117.4073
314.2711, 117.7492
314.7532, 117.4750
315.2354, 116.2047
315.7175, 114.5489
316.1996, 114.3929
316.6817, 117.2641
317.1638, 119.2365
317.6459, 119.4964
318.1281, 118.9863
318.6102, 118.5010
319.0923, 118.3033
319.5744, 118.1888
320.0565, 117.7708
320.5386, 116.7716
321.0208, 116.1232
321.5029, 115.8374
321.9850, 115.8679
322.4671, 116.3436
322.9492, 117.1904
323.4313, 118.0541
323.9135, 118.5431
324.3956, 118.5853
324.8777, 118.6036
325.3598, 118.2033
325.8419, 118.1437
326.3240, 119.2911
326.8062, 121.1163
327.2883, 122.1683
327.7704, 121.0681
328.2525, 118.0074
328.7346, 116.3887
329.2167, 117.1452
329.6989, 118.4340
330.1810, 120.4242
330.6631, 122.5140
331.1452, 123.7804
331.6273, 123.6558
332.1094, 122.6387
332.5916, 122.3175
333.0737, 123.2483
333.5558, 123.9401
334.0379, 123.9083
334.5200, 123.6746
335.0021, 123.7679
335.4843, 124.3526
335.9664, 125.1142
336.4485, 125.6205
336.9306, 125.9725
337.4127, 125.7442
337.8948, 123.8988
338.3770, 122.2402
338.8591, 122.0524
339.3412, 123.3158
339.8233, 124.9086
340.3055, 125.7083
340.7876, 125.6314
341.2697, 125.5750
341.7518, 125.5853
342.2339, 125.5702
342.7160, 125.4024
343.1982, 125.1750
343.6803, 125.1120
344.1624, 125.4128
344.6445, 125.9923
345.1266, 126.4431
345.6087, 126.8359
346.0909, 126.9552
346.5730, 126.4808
347.0551, 125.8250
347.5372, 125.5907
348.0193, 126.1061
348.5014, 126.8536
348.9836, 126.8307
349.4657, 125.8062
349.9478, 124.7849
350.4299, 123.9078
350.9120, 123.2047
351.3941, 122.7336
351.8763, 122.5030
352.3584, 122.4313
352.8405, 122.4577
353.3226, 122.5833
353.8047, 122.7675
354.2868, 123.0357
354.7690, 123.3346
355.2511, 123.7298
355.7332, 124.1595
356.2153, 124.3789
356.6974, 124.1709
357.1795, 123.6157
357.6617, 122.9737
358.1438, 122.1278
358.6259, 121.4595
359.1080, 121.1634
359.5901, 121.1746
360.0722, 121.4830
360.5544, 122.3768
361.0365, 123.2267
361.5186, 123.0305
362.0007, 121.6682
362.4828, 120.1675
362.9649, 118.5166
363.4471, 117.2074
363.9292, 117.0286
364.4113, 118.3522
364.8934, 119.4828
365.3755, 118.5921
365.8576, 116.1530
366.3398, 114.9129
366.8219, 116.0035
367.3040, 117.7365
367.7861, 118.3653
368.2682, 117.9878
368.7503, 117.3593
369.2325, 116.5186
369.7146, 115.6915
370.1967, 115.3959
370.6788, 115.7709
371.1609, 116.0710
371.6430, 115.5895
372.1252, 114.5548
372.6073, 113.7485
373.0894, 113.3288
373.5715, 113.1265
374.0536, 113.1543
374.5357, 113.3516
375.0179, 113.3194
375.5000, 112.7775
375.9821, 111.9654
376.4642, 111.4600
376.9463, 111.3660
377.4284, 111.2911
377.9106, 110.9794
378.3927, 110.6180
378.8748, 110.6050
379.3569, 111.0796
379.8390, 111.6554
380.3211, 111.8258
380.8033, 111.5139
381.2854, 111.2141
381.7675, 111.0545
382.2496, 110.8529
382.7317, 110.2705
383.2138, 109.3933
383.6960, 108.9087
384.1781, 109.4776
384.6602, 110.9699
385.1423, 111.4707
385.6244, 110.1762
386.1065, 108.9868
386.5887, 108.3735
387.0708, 108.3116
387.5529, 108.9121
388.0350, 110.2662
388.5171, 111.8337
388.9992, 112.4169
389.4814, 111.0848
389.9635, 110.1392
390.4456, 109.5699
390.9277, 109.3841
391.4098, 109.8889
391.8919, 110.9520
392.3741, 111.7740
392.8562, 111.3983
393.3383, 109.5457
393.8204, 108.6508
394.3025, 109.5728
394.7846, 110.4892
395.2668, 110.8881
395.7489, 110.8168
396.2310, 110.3830
396.7131, 109.5998
397.1952, 108.6754
397.6773, 108.3763
398.1595, 109.2654
398.6416, 109.8558
399.1237, 109.8167
399.6058, 109.5231
400.0879, 109.2293
400.5700, 109.0189
401.0522, 108.9301
401.5343, 109.0650
402.0164, 109.4852
402.4985, 109.7618
402.9806, 109.9650
403.4627, 109.9165
403.9449, 109.3267
404.4270, 108.4059
404.9091, 107.6598
405.3912, 107.3692
405.8733, 107.4952
406.3554, 108.0532
406.8376, 109.3899
407.3197, 110.2927
407.8018, 109.9287
408.2839, 109.0570
408.7660, 108.4089
409.2481, 108.1638
409.7303, 108.0835
410.2124, 107.9275
410.6945, 107.7061
411.1766, 107.5544
411.6587, 107.4486
412.1408, 107.5020
412.6230, 107.8931
413.1051, 108.5698
413.5872, 109.1424
414.0693, 109.5612
414.5514, 109.7344
415.0335, 109.3519
415.5157, 108.3349
415.9978, 107.4442
416.4799, 107.1733
416.9620, 107.4247
417.4441, 107.8154
417.9262, 108.6097
418.4084, 109.1720
418.8905, 108.8364
419.3726, 107.9772
419.8547, 107.6618
420.3368, 108.3524
420.8189, 109.3923
421.3011, 109.6581
421.7832, 108.9092
422.2653, 108.4613
422.7474, 108.6802
423.2295, 109.1040
423.7116, 109.4000
424.1938, 109.5181
424.6759, 109.4713
425.1580, 109.2421
425.6401, 108.8457
426.1222, 108.5622
426.6043, 108.3040
427.0865, 108.2382
427.5686, 108.5117
428.0507, 108.9694
428.5328, 109.4395
429.0149, 109.8520
429.4970, 110.1568
429.9792, 110.2561
430.4613, 110.0390
430.9434, 109.8501
431.4255, 109.8085
431.9076, 109.6885
432.3897, 109.0992
432.8719, 108.2632
433.3540, 107.9183
433.8361, 108.7843
434.3182, 110.6160
434.8003, 111.5812
435.2824, 110.9599
435.7646, 110.5527
436.2467, 111.1536
436.7288, 112.0070
437.2109, 112.2498
437.6930, 111.6072
438.1751, 110.6388
438.6573, 109.9232
439.1394, 109.4490
439.6215, 109.4802
440.1036, 110.6361
440.5857, 111.6522
441.0678, 111.5330
441.5500, 110.5421
442.0321, 109.7118
442.5142, 109.5331
442.9963, 109.8524
443.4784, 110.5535
443.9605, 111.7196
444.4427, 112.6283
444.9248, 112.9721
445.4069, 112.7711
445.8890, 111.9957
446.3711, 110.3073
446.8532, 108.9827
447.3354, 108.9690
447.8175, 109.8023
448.2996, 110.5639
448.7817, 111.0847
449.2638, 111.2808
449.7459, 110.9078
450.2281, 109.9203
450.7102, 109.3948
451.1923, 109.6880
451.6744, 110.1712
452.1565, 110.4913
452.6386, 110.6729
453.1208, 110.8351
453.6029, 111.0292
454.0850, 111.2843
454.5671, 111.6874
455.0492, 112.8278
455.5313, 113.2784
456.0135, 112.3252
456.4956, 111.1471
456.9777, 110.7695
457.4598, 111.2589
457.9419, 111.9308
458.4240, 112.1296
458.9062, 111.8467
459.3883, 111.6867
459.8704, 111.5998
460.3525, 111.7137
460.8346, 112.2330
461.3167, 112.9031
461.7989, 113.4171
462.2810, 113.6599
462.7631, 113.7158
463.2452, 113.7026
463.7273, 113.6180
464.2094, 113.4590
464.6916, 112.9017
465.1737, 112.5945
465.6558, 113.2289
466.1379, 114.5046
466.6200, 115.3337
467.1021, 114.8531
467.5843, 113.6608
468.0664, 112.9347
468.5485, 112.7127
469.0306, 112.6645
469.5127, 112.6532
469.9948, 112.7389
470.4770, 113.0687
470.9591, 113.7704
471.4412, 114.2532
471.9233, 114.0608
472.4054, 113.4901
472.8875, 113.0020
473.3697, 112.6647
473.8518, 112.6606
474.3339, 113.3687
474.8160, 114.7458
475.2981, 115.1661
475.7802, 113.7732
476.2624, 112.3519
476.7445, 111.6132
477.2266, 111.4238
477.7087, 111.5408
478.1908, 111.8709
478.6729, 112.3186
479.1551, 112.7269
479.6372, 113.1725
480.1193, 113.3767
480.6014, 113.1008
481.0835, 112.8311
481.5656, 112.8507
482.0478, 113.1146
482.5299, 113.4608
483.0120, 113.8139
483.4941, 114.1087
483.9762, 114.0216
484.4583, 113.1926
484.9405, 112.7289
485.4226, 113.2420
485.9047, 113.9054
486.3868, 114.0599
486.8689, 113.6340
487.3510, 113.0357
487.8332, 112.4498
488.3153, 111.9447
488.7974, 111.9415
489.2795, 112.6940
489.7616, 113.3593
490.2437, 113.1342
490.7259, 112.5550
491.2080, 112.4841
491.6901, 113.2738
492.1722, 114.1961
492.6543, 114.9060
493.1364, 115.3390
493.6186, 115.1981
494.1007, 114.3109
494.5828, 113.2471
495.0649, 112.6526
495.5470, 112.5786
496.0291, 112.5084
496.5113, 112.3645
496.9934, 112.2769
497.4755, 112.3630
497.9576, 112.5663
498.4397, 112.7436
498.9218, 112.8239
499.4040, 112.8530
499.8861, 112.9202
500.3682, 112.9271
500.8503, 113.1712
501.3324, 114.0474
501.8145, 114.7981
502.2967, 114.8338
502.7788, 114.3007
503.2609, 113.7705
503.7430, 113.6222
504.2251, 113.8016
504.7072, 114.1590
505.1894, 114.8977
505.6715, 115.3451
506.1536, 114.9624
506.6357, 114.4702
507.1178, 114.4333
507.5999, 114.9181
508.0821, 115.6099
508.5642, 116.6187
509.0463, 117.6492
509.5284, 117.6174
510.0105, 116.2019
510.4926, 114.8809
510.9748, 114.6471
511.4569, 115.1481
511.9390, 115.5302
512.4211, 115.7930
512.9032, 115.8511
513.3853, 115.4512
513.8674, 114.8734
514.3495, 114.6486
514.8317, 114.8925
515.3138, 115.2701
515.7959, 115.4533
516.2780, 115.4303
516.7601, 115.3645
517.2422, 114.8787
517.7244, 114.7755
518.2065, 115.9483
518.6886, 117.4654
519.1707, 117.7018
519.6528, 116.1581
520.1349, 114.2307
520.6171, 114.2276
521.0992, 116.8071
521.5813, 118.6313
522.0634, 119.5421
522.5455, 119.7830
523.0276, 118.9647
523.5098, 117.6024
523.9919, 116.6442
524.4740, 116.5782
524.9561, 116.8735
525.4382, 116.6347
525.9203, 115.8458
526.4025, 115.5831
526.8846, 116.4089
527.3667, 117.4215
527.8488, 117.7370
528.3309, 117.4462
528.8130, 117.0917
529.2952, 116.6659
529.7773, 116.3692
530.2594, 116.4939
530.7415, 116.9479
531.2236, 117.2935
531.7057, 117.3202
532.1879, 117.1874
532.6700, 117.1933
533.1521, 117.3660
533.6342, 117.6365
534.1163, 118.3248
534.5984, 118.8371
535.0806, 118.5853
535.5627, 117.7995
536.0448, 117.2191
536.5269, 117.3304
537.0090, 117.8429
537.4911, 117.7871
537.9733, 116.5959
538.4554, 116.0995
538.9375, 117.2815
539.4196, 118.5528
539.9017, 118.7721
540.3839, 118.0990
540.8660, 117.6001
541.3481, 118.0893
541.8302, 119.1415
542.3123, 119.8850
542.7944, 120.3264
543.2766, 120.3667
543.7587, 119.6980
544.2408, 118.8220
544.7229, 118.5666
545.2050, 119.0335
545.6871, 119.1979
546.1693, 118.1085
546.6514, 116.9156
547.1335, 117.1621
547.6156, 118.7129
548.0977, 120.0449
548.5798, 120.1914
549.0620, 119.5133
549.5441, 119.2295
550.0262, 119.6096
550.5083, 120.0505
550.9904, 121.1732
551.4725, 121.8823
551.9547, 120.7770
552.4368, 118.3228
552.9189, 116.4278
553.4010, 116.5557
553.8831, 118.3068
554.3652, 120.3007
554.8474, 123.0673
555.3295, 124.7119
555.8116, 123.9225
556.2937, 122.3872
556.7758, 121.0819
557.2579, 120.1319
557.7401, 119.5173
558.2222, 119.2020
558.7043, 119.2268
559.1864, 119.9125
559.6685, 121.2657
560.1506, 122.1500
560.6328, 121.8712
561.1149, 120.9166
561.5970, 120.2580
562.0791, 119.7835
562.5612, 119.8501
563.0433, 121.1941
563.5255, 122.6021
564.0076, 122.8887
564.4897, 122.2119
564.9718, 121.6118
565.4539, 121.7707
565.9360, 122.4312
566.4182, 122.7015
566.9003, 122.2539
567.3824, 122.0400
567.8645, 122.1909
568.3466, 122.5113
568.8287, 123.0806
569.3109, 123.7432
569.7930, 124.0289
570.2751, 123.5161
570.7572, 122.5841
571.2393, 121.9702
571.7214, 121.6731
572.2036, 121.7340
572.6857, 122.3391
573.1678, 123.1284
573.6499, 123.7367
574.1320, 124.1682
574.6141, 124.3787
575.0963, 124.2707
575.5784, 124.0020
576.0605, 123.6103
576.5426, 123.1645
577.0247, 122.8208
577.5068, 122.6376
577.9890, 122.6895
578.4711, 123.1582
578.9532, 124.3434
579.4353, 125.1793
579.9174, 125.4937
580.3995, 125.6805
580.8817, 125.7931
581.3638, 125.9413
581.8459, 126.3646
582.3280, 127.2126
582.8101, 128.0864
583.2922, 128.2299
583.7744, 127.5756
584.2565, 127.1898
584.7386, 127.3612
585.2207, 127.6085
585.7029, 127.5359
586.1850, 127.2712
586.6671, 127.1632
587.1492, 127.5151
587.6313, 127.7482
588.1135, 126.9587
588.5956, 125.7755
589.0777, 125.9307
589.5598, 127.8924
