##NAMES=Pyrobelonite
##RRUFFID=R100056
##IDEAL CHEMISTRY=Pb^2+^Mn^2+^V^5+^O_4_(OH)
##LOCALITY=Langban, Filipstad, Varmland, Sweden
##OWNER=RRUFF
##SOURCE=William W Pinch
##DESCRIPTION=Isolated red blocky crystals
##STATUS=The identification of this mineral has been confirmed by single-crystal X-ray diffraction.
##URL=rruff.info/R100056
90.49219, 10.51481
90.97430, 11.04044
91.45642, 11.22772
91.93854, 10.72407
92.42065, 9.984935
92.90277, 9.769653
93.38489, 10.21657
93.86700, 10.76422
94.34912, 10.69747
94.83124, 10.09552
95.31335, 9.409369
95.79547, 8.837586
96.27759, 8.391346
96.75970, 8.103186
97.24182, 8.000727
97.72394, 8.035402
98.20605, 8.137438
98.68817, 8.317847
99.17029, 8.478511
99.65240, 8.539219
100.1345, 8.494979
100.6166, 8.423161
101.0988, 8.338791
101.5809, 8.239755
102.0630, 8.069433
102.5451, 7.750605
103.0272, 7.494767
103.5093, 7.592597
103.9915, 8.219401
104.4736, 8.743419
104.9557, 8.978097
105.4378, 8.874273
105.9199, 8.743608
106.4020, 8.519644
106.8842, 8.300410
107.3663, 8.284496
107.8484, 8.832733
108.3305, 9.164998
108.8126, 8.972566
109.2947, 7.730107
109.7769, 6.836186
110.2590, 6.423342
110.7411, 6.380766
111.2232, 6.374974
111.7053, 6.307756
112.1874, 6.341039
112.6696, 6.548608
113.1517, 7.285535
113.6338, 7.822421
114.1159, 7.995799
114.5980, 7.845648
115.0801, 7.664608
115.5623, 7.416627
116.0444, 7.213600
116.5265, 7.142249
117.0086, 7.351933
117.4907, 7.585386
117.9728, 7.818171
118.4550, 8.052713
118.9371, 8.070742
119.4192, 7.564590
119.9013, 6.831484
120.3834, 6.258160
120.8655, 6.061011
121.3477, 6.041166
121.8298, 6.109438
122.3119, 6.284425
122.7940, 6.394697
123.2761, 6.221339
123.7582, 5.883426
124.2404, 5.646134
124.7225, 5.636741
125.2046, 5.812282
125.6867, 6.205575
126.1688, 6.960244
126.6509, 7.595995
127.1331, 7.405313
127.6152, 6.537979
128.0973, 5.738497
128.5794, 5.626372
129.0615, 5.963708
129.5436, 6.170474
130.0258, 6.059601
130.5079, 5.828583
130.9900, 5.833751
131.4721, 6.074892
131.9542, 6.397409
132.4363, 6.613552
132.9185, 6.760676
133.4006, 7.121763
133.8827, 7.922514
134.3648, 8.966014
134.8469, 9.502848
135.3290, 9.438058
135.8112, 9.283702
136.2933, 9.714216
136.7754, 10.77746
137.2575, 11.69327
137.7396, 12.10258
138.2217, 12.01951
138.7039, 12.27651
139.1860, 12.95352
139.6681, 13.84683
140.1502, 14.67688
140.6323, 15.42634
141.1144, 16.14246
141.5966, 16.81421
142.0787, 17.39523
142.5608, 18.15656
143.0429, 19.21655
143.5250, 20.38852
144.0071, 21.21339
144.4893, 21.51576
144.9714, 21.74398
145.4535, 22.08770
145.9356, 22.58487
146.4177, 23.12617
146.8998, 23.68048
147.3820, 24.27418
147.8641, 25.03932
148.3462, 25.93202
148.8283, 27.02710
149.3104, 28.39450
149.7925, 30.43450
150.2747, 32.21412
150.7568, 33.54064
151.2389, 34.45726
151.7210, 35.48178
152.2031, 36.69006
152.6852, 37.94862
153.1674, 39.18840
153.6495, 40.54429
154.1316, 41.72542
154.6137, 42.71285
155.0958, 43.50639
155.5779, 44.05361
156.0601, 44.16915
156.5422, 44.11723
157.0243, 44.12184
157.5064, 44.50555
157.9885, 44.68714
158.4706, 44.37613
158.9528, 43.48376
159.4349, 42.79246
159.9170, 42.69733
160.3991, 42.85179
160.8812, 42.85523
161.3633, 42.27412
161.8455, 41.77261
162.3276, 41.68064
162.8097, 42.09801
163.2918, 42.58316
163.7739, 43.03488
164.2560, 43.38558
164.7382, 43.33514
165.2203, 42.90358
165.7024, 42.52824
166.1845, 42.45205
166.6666, 42.77887
167.1487, 43.14599
167.6309, 43.30273
168.1130, 43.35510
168.5951, 43.52437
169.0772, 44.05816
169.5593, 44.67554
170.0414, 45.12704
170.5236, 45.32662
171.0057, 45.46354
171.4878, 45.61449
171.9699, 45.80280
172.4520, 46.09767
172.9341, 46.70292
173.4163, 47.37779
173.8984, 47.77116
174.3805, 47.56889
174.8626, 47.46218
175.3447, 48.30087
175.8268, 49.90307
176.3090, 51.43575
176.7911, 52.27682
177.2732, 52.68014
177.7553, 53.05296
178.2374, 53.55872
178.7195, 54.01276
179.2017, 54.27320
179.6838, 54.32878
180.1659, 54.01806
180.6480, 53.05962
181.1301, 51.64342
181.6122, 50.17623
182.0944, 48.71157
182.5765, 47.30685
183.0586, 46.03551
183.5407, 44.91734
184.0228, 43.86628
184.5049, 42.83297
184.9871, 41.81490
185.4692, 40.83135
185.9513, 39.76218
186.4334, 38.76888
186.9155, 38.30291
187.3976, 38.40031
187.8798, 38.62440
188.3619, 38.65204
188.8440, 38.46735
189.3261, 37.93495
189.8082, 36.74150
190.2903, 35.16722
190.7725, 34.26997
191.2546, 34.10784
191.7367, 34.25086
192.2188, 34.22414
192.7009, 34.03738
193.1830, 33.88190
193.6652, 33.89483
194.1473, 34.02312
194.6294, 33.88807
195.1115, 33.43832
195.5936, 32.89822
196.0757, 32.49761
196.5579, 32.23166
197.0400, 32.21371
197.5221, 32.70188
198.0042, 33.62989
198.4863, 33.84498
198.9684, 33.14518
199.4506, 32.17749
199.9327, 31.99070
200.4148, 32.66937
200.8969, 33.32609
201.3790, 33.59737
201.8611, 33.46965
202.3433, 33.26603
202.8254, 32.91615
203.3075, 32.59991
203.7896, 32.74773
204.2717, 33.49371
204.7538, 34.02452
205.2360, 33.83266
205.7181, 32.78617
206.2002, 32.26359
206.6823, 32.37594
207.1644, 32.87485
207.6465, 33.37085
208.1287, 33.90962
208.6108, 34.27387
209.0929, 34.26826
209.5750, 33.76292
210.0571, 33.64274
210.5392, 34.07283
211.0214, 34.74128
211.5035, 34.96148
211.9856, 34.59159
212.4677, 34.16643
212.9498, 33.89222
213.4319, 33.75987
213.9140, 33.84206
214.3962, 34.20858
214.8783, 34.74578
215.3604, 35.21163
215.8425, 35.64882
216.3246, 35.92830
216.8067, 35.95967
217.2889, 35.65593
217.7710, 35.39061
218.2531, 35.13676
218.7352, 34.93989
219.2173, 34.93229
219.6994, 35.21545
220.1816, 35.49329
220.6637, 35.61041
221.1458, 35.46111
221.6279, 35.46456
222.1100, 35.67739
222.5921, 36.02621
223.0743, 36.32239
223.5564, 36.52731
224.0385, 36.74638
224.5206, 37.02445
225.0027, 37.38197
225.4848, 37.77116
225.9670, 38.27160
226.4491, 38.77490
226.9312, 38.97131
227.4133, 38.69651
227.8954, 38.37828
228.3775, 38.20594
228.8597, 38.18456
229.3418, 38.30443
229.8239, 38.66417
230.3060, 39.13826
230.7881, 39.32776
231.2702, 38.97329
231.7524, 38.72891
232.2345, 38.88552
232.7166, 39.52697
233.1987, 40.43670
233.6808, 41.97332
234.1629, 43.68056
234.6451, 44.27462
235.1272, 43.15784
235.6093, 41.81321
236.0914, 40.88218
236.5735, 40.52649
237.0556, 40.22645
237.5378, 40.02421
238.0199, 39.86685
238.5020, 39.60875
238.9841, 39.16424
239.4662, 38.74259
239.9483, 38.42756
240.4305, 38.23526
240.9126, 38.12481
241.3947, 38.14295
241.8768, 38.22747
242.3589, 38.21640
242.8410, 38.03804
243.3232, 37.87226
243.8053, 37.79014
244.2874, 37.79429
244.7695, 37.88226
245.2516, 38.09993
245.7337, 38.38362
246.2159, 38.59222
246.6980, 38.70826
247.1801, 38.77673
247.6622, 38.79045
248.1443, 38.67080
248.6264, 38.75342
249.1086, 39.23837
249.5907, 39.83016
250.0728, 39.85957
250.5549, 38.95448
251.0370, 38.11357
251.5191, 37.73761
252.0013, 37.98192
252.4834, 38.20052
252.9655, 38.46399
253.4476, 38.65752
253.9297, 38.49540
254.4118, 37.67397
254.8940, 37.06910
255.3761, 37.07173
255.8582, 37.90650
256.3403, 38.44096
256.8224, 38.58220
257.3046, 38.49641
257.7867, 38.45750
258.2688, 38.50725
258.7509, 38.51634
259.2330, 38.43383
259.7151, 38.24236
260.1973, 38.05541
260.6794, 37.85089
261.1615, 37.67709
261.6436, 37.60773
262.1257, 37.64998
262.6078, 37.78089
263.0900, 38.02731
263.5721, 38.41497
264.0542, 38.66224
264.5363, 38.69165
265.0184, 38.67506
265.5005, 38.86324
265.9827, 39.34159
266.4648, 39.76800
266.9469, 40.02570
267.4290, 40.10901
267.9111, 40.25523
268.3932, 40.50755
268.8754, 40.75344
269.3575, 40.82229
269.8396, 40.63054
270.3217, 40.58034
270.8038, 40.82170
271.2859, 41.33551
271.7681, 41.70851
272.2502, 41.93924
272.7323, 42.03381
273.2144, 41.91216
273.6965, 41.49109
274.1786, 41.31354
274.6608, 41.57294
275.1429, 42.19309
275.6250, 42.58986
276.1071, 42.68607
276.5892, 42.77917
277.0714, 43.17474
277.5535, 43.91364
278.0356, 44.59138
278.5177, 45.12786
278.9998, 45.54872
279.4819, 45.91803
279.9641, 46.20805
280.4462, 46.57927
280.9283, 47.22960
281.4104, 48.16649
281.8925, 48.97348
282.3746, 49.55864
282.8568, 49.99529
283.3389, 50.41909
283.8210, 50.80261
284.3031, 51.38334
284.7852, 52.48388
285.2673, 54.05310
285.7495, 55.32501
286.2316, 56.14735
286.7137, 56.70924
287.1958, 57.40982
287.6779, 58.25397
288.1600, 59.05975
288.6422, 59.68890
289.1243, 60.16963
289.6064, 60.63374
290.0885, 61.06178
290.5706, 61.56636
291.0527, 62.29347
291.5349, 63.24527
292.0170, 64.45654
292.4991, 66.08048
292.9812, 68.00295
293.4633, 69.76701
293.9454, 71.36275
294.4276, 72.79774
294.9097, 73.96517
295.3918, 74.92278
295.8739, 75.95237
296.3560, 77.29697
296.8381, 78.79726
297.3203, 80.01556
297.8024, 80.91753
298.2845, 81.72835
298.7666, 82.66473
299.2487, 83.69215
299.7308, 84.73465
300.2130, 85.80919
300.6951, 86.86143
301.1772, 87.92940
301.6593, 89.00997
302.1414, 89.73943
302.6235, 89.55533
303.1057, 88.79321
303.5878, 88.13890
304.0699, 87.96592
304.5520, 87.89112
305.0341, 87.41228
305.5162, 86.57497
305.9984, 85.73853
306.4805, 85.10709
306.9626, 84.65538
307.4447, 84.37669
307.9268, 84.35251
308.4089, 84.37967
308.8911, 84.16666
309.3732, 83.80727
309.8553, 83.69033
310.3374, 84.35076
310.8195, 85.22506
311.3016, 85.65588
311.7838, 85.20246
312.2659, 84.93803
312.7480, 85.65530
313.2301, 87.10861
313.7122, 88.69614
314.1943, 90.19749
314.6765, 91.71119
315.1586, 93.30071
315.6407, 94.95934
316.1228, 96.73502
316.6049, 98.70798
317.0870, 100.8014
317.5692, 102.8577
318.0513, 104.5254
318.5334, 106.4016
319.0155, 108.9229
319.4976, 112.2674
319.9797, 115.3474
320.4619, 117.5672
320.9440, 119.4273
321.4261, 121.4600
321.9082, 123.6078
322.3903, 126.1414
322.8724, 129.3889
323.3546, 133.3702
323.8367, 136.9394
324.3188, 139.4743
324.8009, 141.7520
325.2830, 144.3371
325.7651, 147.7728
326.2473, 151.0248
326.7294, 153.7697
327.2115, 156.1051
327.6936, 158.8069
328.1757, 162.4819
328.6578, 166.0958
329.1400, 169.1544
329.6221, 171.6549
330.1042, 173.5517
330.5863, 174.6260
331.0684, 175.0904
331.5505, 175.5933
332.0327, 176.6911
332.5148, 177.1740
332.9969, 176.4739
333.4790, 174.1631
333.9611, 171.8858
334.4432, 169.6978
334.9254, 167.4996
335.4075, 165.1979
335.8896, 162.9112
336.3717, 160.2434
336.8538, 157.0633
337.3359, 153.3102
337.8180, 149.3682
338.3001, 145.1664
338.7823, 140.8965
339.2644, 136.9029
339.7465, 133.2669
340.2286, 129.4225
340.7107, 125.1526
341.1928, 120.5187
341.6750, 116.4067
342.1571, 112.8094
342.6392, 109.5361
343.1213, 106.3475
343.6034, 103.2656
344.0855, 100.5726
344.5677, 98.48568
345.0498, 96.66772
345.5319, 94.24229
346.0140, 91.18566
346.4961, 88.20508
346.9782, 85.85474
347.4604, 83.99211
347.9425, 81.96896
348.4246, 79.61887
348.9067, 77.35685
349.3888, 75.90092
349.8709, 75.12624
350.3531, 74.33715
350.8352, 73.13443
351.3173, 71.69585
351.7994, 70.28823
352.2815, 68.91687
352.7636, 67.70438
353.2458, 66.90484
353.7279, 66.35158
354.2100, 65.68287
354.6921, 64.65561
355.1742, 63.52148
355.6563, 62.56947
356.1385, 61.78122
356.6206, 60.92948
357.1027, 59.64450
357.5848, 58.28924
358.0669, 57.33071
358.5490, 57.26847
359.0312, 57.07317
359.5133, 55.72505
359.9954, 53.63391
360.4775, 52.05401
360.9596, 51.97359
361.4417, 52.35940
361.9239, 52.54240
362.4060, 52.41769
362.8881, 52.08913
363.3702, 51.38923
363.8523, 50.54858
364.3344, 49.92078
364.8166, 49.84075
365.2987, 49.77832
365.7808, 49.53422
366.2629, 49.07898
366.7450, 48.59392
367.2271, 47.79127
367.7093, 47.12623
368.1914, 46.99887
368.6735, 48.25836
369.1556, 49.15671
369.6377, 49.31449
370.1198, 48.82210
370.6020, 48.41374
371.0841, 48.06193
371.5662, 47.81864
372.0483, 47.71793
372.5304, 47.80611
373.0125, 47.96193
373.4947, 48.27748
373.9768, 48.62429
374.4589, 48.64912
374.9410, 48.12997
375.4231, 47.74938
375.9052, 47.85160
376.3874, 48.54111
376.8695, 48.86488
377.3516, 48.73549
377.8337, 48.39310
378.3158, 48.11848
378.7979, 47.91799
379.2801, 47.73798
379.7622, 47.58974
380.2443, 47.44735
380.7264, 47.12096
381.2085, 46.57447
381.6906, 46.11143
382.1728, 45.98243
382.6549, 46.16364
383.1370, 46.53841
383.6191, 47.14277
384.1012, 47.83611
384.5833, 48.47711
385.0655, 49.04481
385.5476, 49.39353
386.0297, 49.24142
386.5118, 48.86757
386.9939, 48.79486
387.4760, 49.08810
387.9582, 49.52732
388.4403, 50.00201
388.9224, 50.47156
389.4045, 50.84956
389.8866, 51.03008
390.3687, 51.15779
390.8509, 51.34192
391.3330, 51.58043
391.8151, 51.85103
392.2972, 52.22502
392.7793, 52.58295
393.2614, 52.78554
393.7436, 52.54918
394.2257, 52.50248
394.7078, 53.06507
395.1899, 54.03491
395.6720, 54.88152
396.1541, 55.48913
396.6363, 55.89500
397.1184, 56.06198
397.6005, 55.87021
398.0826, 55.81076
398.5647, 55.94775
399.0468, 56.25932
399.5290, 56.71893
400.0111, 57.13896
400.4932, 57.91779
400.9753, 59.32774
401.4574, 61.37053
401.9395, 62.90612
402.4217, 63.54292
402.9038, 64.09841
403.3859, 65.08878
403.8680, 66.53489
404.3501, 68.41519
404.8322, 70.88901
405.3144, 73.71312
405.7965, 76.07762
406.2786, 77.78628
406.7607, 79.72848
407.2428, 82.38862
407.7249, 85.80399
408.2071, 89.08343
408.6892, 92.20793
409.1713, 95.30499
409.6534, 98.55035
410.1355, 101.9257
410.6176, 105.2952
411.0998, 108.5318
411.5819, 111.8201
412.0640, 115.6561
412.5461, 119.9967
413.0282, 124.6040
413.5103, 129.2518
413.9925, 133.9767
414.4746, 138.9616
414.9567, 144.3234
415.4388, 149.7211
415.9209, 154.7309
416.4030, 159.5201
416.8852, 164.6519
417.3673, 170.7590
417.8494, 177.0161
418.3315, 182.7573
418.8136, 187.8878
419.2957, 192.9847
419.7779, 198.5440
420.2600, 204.1146
420.7421, 209.1523
421.2242, 213.1375
421.7063, 217.0104
422.1884, 221.3775
422.6706, 225.9765
423.1527, 229.9858
423.6348, 233.4723
424.1169, 236.0748
424.5990, 237.6606
425.0811, 238.1667
425.5633, 237.7171
426.0454, 235.9839
426.5275, 233.4690
427.0096, 230.7300
427.4917, 227.5339
427.9738, 224.5170
428.4560, 222.0125
428.9381, 219.9444
429.4202, 217.0172
429.9023, 212.9879
430.3844, 208.6169
430.8665, 204.6263
431.3487, 201.1979
431.8308, 196.9420
432.3129, 191.5574
432.7950, 185.5294
433.2771, 179.8856
433.7592, 174.6791
434.2414, 169.6824
434.7235, 164.7522
435.2056, 159.9477
435.6877, 155.7016
436.1698, 152.0899
436.6519, 148.2991
437.1341, 143.2223
437.6162, 137.3772
438.0983, 131.9955
438.5804, 127.5104
439.0625, 123.4982
439.5446, 119.4923
440.0268, 115.5472
440.5089, 111.8591
440.9910, 108.6664
441.4731, 105.7165
441.9552, 102.7648
442.4373, 99.82113
442.9195, 96.82578
443.4016, 93.43112
443.8837, 90.07632
444.3658, 87.29530
444.8479, 85.67484
445.3300, 84.21976
445.8122, 82.64397
446.2943, 80.96223
446.7764, 79.25510
447.2585, 77.47500
447.7406, 75.71864
448.2227, 74.01986
448.7049, 72.36443
449.1870, 70.81913
449.6691, 69.37766
450.1512, 68.05628
450.6333, 66.93832
451.1154, 66.14145
451.5976, 65.27531
452.0797, 64.23931
452.5618, 63.03944
453.0439, 61.76547
453.5260, 60.37743
454.0081, 59.11327
454.4903, 58.18995
454.9724, 57.61142
455.4545, 57.15456
455.9366, 56.83152
456.4187, 56.54924
456.9008, 56.22156
457.3830, 55.82608
457.8651, 55.23737
458.3472, 54.14407
458.8293, 52.88995
459.3114, 52.16296
459.7935, 51.96881
460.2757, 51.79938
460.7578, 51.19380
461.2399, 50.38054
461.7220, 49.67973
462.2041, 49.19444
462.6862, 48.79244
463.1684, 48.44172
463.6505, 48.10756
464.1326, 47.71795
464.6147, 47.09575
465.0968, 46.52935
465.5789, 46.23448
466.0611, 46.27397
466.5432, 46.18481
467.0253, 45.78752
467.5074, 45.27092
467.9895, 44.79425
468.4716, 44.37121
468.9538, 43.97196
469.4359, 43.57901
469.9180, 43.21188
470.4001, 42.94438
470.8822, 42.84180
471.3643, 42.73047
471.8465, 42.57806
472.3286, 42.40390
472.8107, 41.91101
473.2928, 40.96840
473.7749, 40.04361
474.2570, 39.76995
474.7392, 40.14181
475.2213, 40.39860
475.7034, 40.36611
476.1855, 40.13669
476.6676, 39.86283
477.1497, 39.54788
477.6319, 39.23861
478.1140, 39.01153
478.5961, 38.78961
479.0782, 38.36552
479.5603, 37.70200
480.0424, 37.17232
480.5246, 37.23905
481.0067, 37.58746
481.4888, 37.76806
481.9709, 37.51406
482.4530, 37.19997
482.9352, 36.95414
483.4173, 36.79212
483.8994, 36.76327
484.3815, 37.13941
484.8636, 37.44365
485.3457, 37.41598
485.8279, 36.94532
486.3100, 36.49897
486.7921, 35.98747
487.2742, 35.58942
487.7563, 35.49091
488.2384, 36.02449
488.7206, 36.27053
489.2027, 36.00821
489.6848, 35.40477
490.1669, 35.08361
490.6490, 35.14121
491.1311, 35.19632
491.6133, 35.04005
492.0954, 34.67688
492.5775, 34.39741
493.0596, 34.19979
493.5417, 34.10285
494.0238, 34.22153
494.5060, 34.48964
494.9881, 34.58693
495.4702, 34.40020
495.9523, 34.05814
496.4344, 33.68896
496.9165, 33.30874
497.3987, 32.97945
497.8808, 32.64574
498.3629, 32.42966
498.8450, 32.55523
499.3271, 33.05962
499.8092, 33.39748
500.2914, 33.01783
500.7735, 32.46034
501.2556, 32.23180
501.7377, 32.79617
502.2198, 33.29530
502.7019, 33.52016
503.1841, 33.54488
503.6662, 33.57661
504.1483, 33.75175
504.6304, 33.80479
505.1125, 33.59912
505.5946, 33.09798
506.0768, 32.84528
506.5589, 33.00794
507.0410, 33.17469
507.5231, 32.90947
508.0052, 32.08924
508.4873, 31.71326
508.9695, 32.03202
509.4516, 32.63031
509.9337, 32.62459
510.4158, 32.05498
510.8979, 31.68838
511.3800, 32.08994
511.8622, 32.84998
512.3443, 33.00908
512.8264, 32.58883
513.3085, 32.02006
513.7906, 31.43695
514.2728, 30.97281
514.7549, 30.84597
515.2370, 31.18881
515.7191, 31.59150
516.2012, 31.91439
516.6833, 32.10521
517.1655, 32.08996
517.6476, 31.56433
518.1297, 31.10751
518.6118, 30.96961
519.0939, 31.12444
519.5760, 31.22015
520.0582, 31.19031
520.5403, 31.11349
521.0224, 31.00217
521.5045, 30.79137
521.9866, 30.74198
522.4688, 30.91182
522.9509, 31.17900
523.4330, 31.38531
523.9151, 31.50678
524.3972, 31.71150
524.8793, 32.07362
525.3615, 32.50584
525.8436, 32.83255
526.3257, 33.05244
526.8078, 33.06334
527.2899, 32.60456
527.7720, 31.92761
528.2542, 31.66132
528.7363, 31.84319
529.2184, 32.09655
529.7005, 32.12683
530.1826, 32.02586
530.6647, 31.92162
531.1469, 31.88913
531.6290, 31.79539
532.1111, 31.41264
532.5932, 30.92573
533.0753, 30.71216
533.5574, 31.23079
534.0396, 31.70180
534.5217, 31.83962
535.0038, 31.61386
535.4859, 31.36091
535.9680, 31.02331
536.4501, 30.72753
536.9323, 30.54315
537.4144, 30.47538
537.8965, 30.52393
538.3786, 30.75662
538.8607, 31.01457
539.3428, 30.99583
539.8250, 30.67035
540.3071, 30.49239
540.7892, 30.64924
541.2713, 30.99133
541.7534, 31.13378
542.2355, 31.09451
542.7177, 31.06135
543.1998, 31.28271
543.6819, 31.53852
544.1640, 31.39589
544.6461, 30.80170
545.1282, 30.28927
545.6104, 30.35030
546.0925, 30.65585
546.5746, 30.83136
547.0567, 30.63721
547.5388, 30.49039
548.0209, 30.61361
548.5031, 30.87912
548.9852, 31.00832
549.4673, 30.92797
549.9494, 30.73407
550.4315, 30.36791
550.9136, 29.83129
551.3958, 29.56705
551.8779, 29.61480
552.3600, 29.86917
552.8421, 30.36903
553.3242, 31.17757
553.8063, 31.58636
554.2885, 31.49349
554.7706, 31.19938
555.2527, 31.08428
555.7348, 31.12528
556.2169, 31.17355
556.6990, 31.15563
557.1812, 31.16001
557.6633, 31.43873
558.1454, 31.88606
558.6275, 32.10441
559.1096, 31.66499
559.5917, 31.03945
560.0739, 30.56952
560.5560, 30.27734
561.0381, 30.15156
561.5202, 30.32662
562.0023, 30.58270
562.4844, 30.75552
562.9666, 30.73835
563.4487, 30.76389
563.9308, 30.87122
564.4129, 31.01603
564.8950, 31.14408
565.3771, 31.29745
565.8593, 31.32310
566.3414, 31.11909
566.8235, 30.76918
567.3056, 30.69866
567.7877, 30.95180
568.2698, 31.16316
568.7520, 31.01345
569.2341, 30.63161
569.7162, 30.51473
570.1983, 30.68547
570.6804, 31.00854
571.1625, 31.59686
571.6447, 32.19183
572.1268, 32.32027
572.6089, 31.66399
573.0910, 30.97188
573.5731, 30.78287
574.0552, 30.87660
574.5374, 30.86339
575.0195, 30.24408
575.5016, 29.87716
575.9837, 30.24947
576.4658, 31.27930
576.9479, 31.89814
577.4301, 31.89433
577.9122, 31.69410
578.3943, 31.42091
578.8764, 31.02227
579.3585, 30.89972
579.8406, 31.15482
580.3228, 31.45972
580.8049, 31.43266
581.2870, 31.09525
581.7691, 30.82438
582.2512, 30.68009
582.7333, 30.63972
583.2155, 30.72706
583.6975, 30.89895
584.1796, 31.02471
584.6617, 30.98937
585.1439, 30.91837
585.6260, 30.96450
586.1081, 31.09273
586.5902, 31.12625
587.0723, 30.76531
587.5544, 30.45609
588.0366, 30.51253
588.5187, 31.09029
