##NAMES=Pyrope
##RRUFFID=R040159
##IDEAL CHEMISTRY=Mg_3_Al_2_(SiO_4_)_3_
##LOCALITY=Meronitz, Bohemia
##OWNER=RRUFF
##SOURCE=University of Arizona Mineral Museum
##DESCRIPTION=Deep red crystal fragments
##STATUS=The identification of this mineral has been confirmed by X-ray diffraction and chemical analysis
##URL=rruff.info/R040159
##MEASURED CHEMISTRY=(Mg_2.17_Fe^2+^_0.47_Ca_0.34_Mn_0.02_)_Σ=3_(Al_1.86_Cr_0.11_Ti_0.03_)_Σ=2_((Si_0.99_Al_0.01_)_Σ=1_O_4_)_3_; trace amounts of Rb?
158.3399, 5558.192
158.8221, 5584.908
159.3042, 5609.767
159.7863, 5634.763
160.2684, 5656.091
160.7505, 5670.242
161.2326, 5678.325
161.7148, 5687.889
162.1969, 5705.243
162.6790, 5724.490
163.1611, 5739.736
163.6432, 5746.101
164.1253, 5750.492
164.6075, 5755.205
165.0896, 5760.272
165.5717, 5768.519
166.0538, 5782.790
166.5359, 5801.043
167.0180, 5820.340
167.5002, 5842.404
167.9823, 5863.384
168.4644, 5878.217
168.9465, 5885.201
169.4286, 5895.308
169.9107, 5921.604
170.3929, 5957.075
170.8750, 5987.630
171.3571, 6002.336
171.8392, 6009.745
172.3213, 6018.573
172.8034, 6029.878
173.2856, 6042.385
173.7677, 6051.885
174.2498, 6060.702
174.7319, 6076.532
175.2140, 6112.440
175.6961, 6156.372
176.1783, 6188.468
176.6604, 6200.941
177.1425, 6207.457
177.6246, 6226.688
178.1067, 6256.391
178.5888, 6283.271
179.0710, 6295.289
179.5531, 6297.079
180.0352, 6297.336
180.5173, 6294.240
180.9994, 6294.605
181.4815, 6313.079
181.9637, 6349.323
182.4458, 6387.583
182.9279, 6417.162
183.4100, 6438.430
183.8921, 6452.065
184.3742, 6449.237
184.8564, 6442.889
185.3385, 6470.940
185.8206, 6536.375
186.3027, 6602.889
186.7848, 6629.695
187.2669, 6621.492
187.7491, 6615.228
188.2312, 6624.365
188.7133, 6645.406
189.1954, 6666.282
189.6775, 6686.815
190.1596, 6707.400
190.6418, 6729.822
191.1239, 6753.877
191.6060, 6775.568
192.0881, 6794.660
192.5702, 6810.686
193.0524, 6815.540
193.5345, 6804.610
194.0166, 6794.406
194.4987, 6816.974
194.9808, 6874.861
195.4629, 6927.208
195.9451, 6951.794
196.4272, 6949.509
196.9093, 6946.619
197.3914, 6941.326
197.8735, 6939.553
198.3556, 6955.560
198.8378, 6991.888
199.3199, 7029.324
199.8020, 7057.764
200.2841, 7076.555
200.7662, 7092.048
201.2483, 7103.619
201.7305, 7112.977
202.2126, 7125.248
202.6947, 7141.784
203.1768, 7156.176
203.6589, 7163.416
204.1410, 7162.175
204.6232, 7163.036
205.1053, 7167.882
205.5874, 7175.005
206.0695, 7176.207
206.5516, 7166.889
207.0337, 7163.729
207.5159, 7183.198
207.9980, 7232.452
208.4801, 7268.578
208.9622, 7285.500
209.4443, 7285.300
209.9264, 7275.596
210.4086, 7251.333
210.8907, 7227.654
211.3728, 7216.877
211.8549, 7221.738
212.3370, 7230.608
212.8191, 7245.227
213.3013, 7263.603
213.7834, 7267.995
214.2655, 7251.967
214.7476, 7232.262
215.2297, 7223.868
215.7118, 7230.452
216.1940, 7238.107
216.6761, 7244.841
217.1582, 7250.683
217.6403, 7255.539
218.1224, 7259.537
218.6045, 7262.309
219.0867, 7263.622
219.5688, 7263.828
220.0509, 7261.463
220.5330, 7254.810
221.0151, 7243.578
221.4972, 7237.571
221.9794, 7236.932
222.4615, 7241.282
222.9436, 7252.427
223.4257, 7278.710
223.9078, 7294.111
224.3899, 7288.452
224.8721, 7259.056
225.3542, 7244.243
225.8363, 7253.024
226.3184, 7267.723
226.8005, 7264.370
227.2827, 7225.844
227.7648, 7202.546
228.2469, 7212.282
228.7290, 7261.182
229.2111, 7294.886
229.6932, 7309.012
230.1754, 7311.121
230.6575, 7309.962
231.1396, 7301.987
231.6217, 7297.132
232.1038, 7299.052
232.5859, 7309.500
233.0681, 7317.774
233.5502, 7325.784
234.0323, 7330.260
234.5144, 7324.236
234.9965, 7295.746
235.4786, 7277.257
235.9608, 7281.105
236.4429, 7313.200
236.9250, 7339.947
237.4071, 7360.981
237.8892, 7376.668
238.3713, 7386.447
238.8535, 7384.722
239.3356, 7386.609
239.8177, 7399.296
240.2998, 7428.870
240.7819, 7444.918
241.2640, 7440.398
241.7462, 7426.708
242.2283, 7425.021
242.7104, 7446.761
243.1925, 7461.450
243.6746, 7454.448
244.1567, 7412.020
244.6389, 7396.780
245.1210, 7421.856
245.6031, 7466.209
246.0852, 7492.330
246.5673, 7492.427
247.0494, 7487.447
247.5316, 7483.168
248.0137, 7477.528
248.4958, 7480.375
248.9779, 7496.125
249.4600, 7517.881
249.9421, 7532.470
250.4243, 7537.740
250.9064, 7539.843
251.3885, 7539.700
251.8706, 7534.574
252.3527, 7536.466
252.8348, 7546.003
253.3170, 7562.090
253.7991, 7585.893
254.2812, 7628.147
254.7633, 7656.930
255.2454, 7654.780
255.7275, 7607.583
256.2097, 7583.137
256.6918, 7589.795
257.1739, 7613.718
257.6560, 7630.309
258.1381, 7638.809
258.6202, 7641.468
259.1024, 7637.694
259.5845, 7625.036
260.0666, 7616.121
260.5487, 7610.930
261.0308, 7609.536
261.5129, 7611.189
261.9951, 7614.103
262.4772, 7624.450
262.9593, 7648.200
263.4414, 7691.491
263.9235, 7719.263
264.4056, 7728.601
264.8878, 7725.372
265.3699, 7717.124
265.8520, 7699.024
266.3341, 7689.595
266.8162, 7699.274
267.2983, 7732.264
267.7805, 7756.820
268.2626, 7771.530
268.7447, 7779.089
269.2268, 7782.696
269.7089, 7780.775
270.1910, 7780.531
270.6732, 7784.951
271.1553, 7794.386
271.6374, 7805.330
272.1195, 7818.342
272.6016, 7832.066
273.0837, 7845.515
273.5659, 7860.063
274.0480, 7867.745
274.5301, 7863.890
275.0122, 7848.082
275.4943, 7829.698
275.9764, 7804.239
276.4586, 7784.675
276.9407, 7795.959
277.4228, 7841.729
277.9049, 7885.373
278.3870, 7913.018
278.8691, 7925.109
279.3513, 7930.598
279.8334, 7928.168
280.3155, 7922.516
280.7976, 7920.333
281.2798, 7921.850
281.7619, 7921.871
282.2440, 7916.409
282.7261, 7906.870
283.2082, 7905.273
283.6903, 7913.132
284.1725, 7923.374
284.6546, 7926.299
285.1367, 7922.216
285.6188, 7919.785
286.1009, 7922.702
286.5830, 7929.808
287.0652, 7934.711
287.5473, 7936.435
288.0294, 7941.490
288.5115, 7961.593
288.9936, 7994.485
289.4757, 8020.693
289.9579, 8032.345
290.4400, 8033.133
290.9221, 8031.085
291.4042, 8025.740
291.8863, 8023.337
292.3684, 8033.138
292.8506, 8052.290
293.3327, 8068.159
293.8148, 8073.248
294.2969, 8074.720
294.7790, 8092.688
295.2611, 8127.249
295.7433, 8153.680
296.2254, 8137.290
296.7075, 8094.291
297.1896, 8071.832
297.6717, 8093.084
298.1538, 8132.905
298.6360, 8153.545
299.1181, 8156.423
299.6002, 8156.086
300.0823, 8160.879
300.5644, 8170.748
301.0465, 8186.127
301.5287, 8209.613
302.0108, 8235.500
302.4929, 8259.200
302.9750, 8280.409
303.4571, 8296.058
303.9392, 8300.056
304.4214, 8298.615
304.9035, 8299.760
305.3856, 8304.258
305.8677, 8313.646
306.3498, 8335.403
306.8319, 8364.938
307.3141, 8386.438
307.7962, 8382.902
308.2783, 8370.091
308.7604, 8362.536
309.2425, 8362.299
309.7246, 8369.951
310.2068, 8393.373
310.6889, 8425.973
311.1710, 8450.924
311.6531, 8445.391
312.1352, 8438.106
312.6173, 8454.543
313.0995, 8509.069
313.5816, 8556.516
314.0637, 8568.098
314.5458, 8558.497
315.0279, 8555.529
315.5100, 8579.487
315.9922, 8605.619
316.4743, 8620.814
316.9564, 8622.121
317.4385, 8618.429
317.9206, 8604.740
318.4027, 8589.596
318.8849, 8584.928
319.3670, 8601.517
319.8491, 8622.463
320.3312, 8643.412
320.8133, 8664.987
321.2954, 8680.867
321.7776, 8689.853
322.2597, 8692.708
322.7418, 8690.251
323.2239, 8659.030
323.7060, 8646.022
324.1881, 8675.724
324.6703, 8754.498
325.1524, 8801.098
325.6345, 8784.644
326.1166, 8746.768
326.5987, 8720.676
327.0808, 8708.845
327.5630, 8706.166
328.0451, 8712.948
328.5272, 8729.045
329.0093, 8752.242
329.4914, 8792.328
329.9735, 8830.120
330.4557, 8851.553
330.9378, 8840.547
331.4199, 8841.510
331.9020, 8861.381
332.3841, 8896.451
332.8662, 8929.312
333.3484, 8960.554
333.8305, 8988.199
334.3126, 9009.733
334.7947, 9020.364
335.2768, 9039.311
335.7589, 9069.337
336.2411, 9107.157
336.7232, 9146.442
337.2053, 9188.130
337.6874, 9227.717
338.1695, 9262.316
338.6516, 9290.698
339.1338, 9323.387
339.6159, 9362.528
340.0980, 9402.434
340.5801, 9430.521
341.0622, 9445.628
341.5443, 9462.780
342.0265, 9488.924
342.5086, 9523.095
342.9907, 9559.229
343.4728, 9597.378
343.9549, 9636.101
344.4370, 9671.112
344.9192, 9703.073
345.4013, 9740.615
345.8834, 9788.178
346.3655, 9842.613
346.8476, 9894.650
347.3297, 9944.079
347.8119, 9991.417
348.2940, 10032.90
348.7761, 10071.86
349.2582, 10116.87
349.7403, 10170.69
350.2225, 10232.52
350.7046, 10302.80
351.1867, 10381.55
351.6688, 10464.19
352.1509, 10555.28
352.6331, 10646.34
353.1152, 10722.16
353.5973, 10771.28
354.0794, 10819.66
354.5615, 10889.27
355.0436, 10976.96
355.5258, 11073.08
356.0079, 11185.25
356.4900, 11296.37
356.9721, 11391.02
357.4542, 11464.84
357.9363, 11529.01
358.4185, 11587.71
358.9006, 11641.21
359.3827, 11690.01
359.8648, 11738.95
360.3469, 11779.54
360.8290, 11809.09
361.3112, 11828.15
361.7933, 11830.27
362.2754, 11809.12
362.7575, 11771.77
363.2396, 11725.69
363.7217, 11678.71
364.2039, 11617.61
364.6860, 11533.11
365.1681, 11424.60
365.6502, 11321.62
366.1323, 11227.77
366.6144, 11139.56
367.0966, 11054.30
367.5787, 10968.70
368.0608, 10891.23
368.5429, 10827.89
369.0250, 10774.58
369.5071, 10710.63
369.9893, 10620.62
370.4714, 10538.17
370.9535, 10482.91
371.4356, 10477.52
371.9177, 10446.24
372.3998, 10371.14
372.8820, 10278.11
373.3641, 10232.99
373.8462, 10260.28
374.3283, 10271.92
374.8104, 10224.12
375.2925, 10108.97
375.7747, 10023.88
376.2568, 9973.137
376.7389, 9942.464
377.2210, 9918.849
377.7031, 9903.446
378.1852, 9878.016
378.6674, 9831.908
379.1495, 9771.554
379.6316, 9721.419
380.1137, 9682.061
380.5958, 9651.696
381.0779, 9633.384
381.5601, 9624.407
382.0422, 9612.839
382.5243, 9595.698
383.0064, 9574.662
383.4885, 9550.722
383.9706, 9524.248
384.4528, 9499.651
384.9349, 9488.236
385.4170, 9478.367
385.8991, 9444.057
386.3812, 9371.478
386.8633, 9305.781
387.3455, 9298.141
387.8276, 9329.937
388.3097, 9358.586
388.7918, 9361.082
389.2739, 9352.580
389.7560, 9344.219
390.2382, 9336.914
390.7203, 9329.053
391.2024, 9322.952
391.6845, 9314.796
392.1666, 9300.045
392.6487, 9273.209
393.1309, 9243.228
393.6130, 9210.214
394.0951, 9175.055
394.5772, 9148.186
395.0593, 9136.702
395.5414, 9131.488
396.0236, 9126.966
396.5057, 9114.020
396.9878, 9111.649
397.4699, 9133.560
397.9520, 9168.957
398.4341, 9183.430
398.9163, 9154.584
399.3984, 9128.014
399.8805, 9121.430
400.3626, 9143.728
400.8447, 9160.186
401.3268, 9172.739
401.8090, 9177.984
402.2911, 9167.099
402.7732, 9128.452
403.2553, 9105.213
403.7374, 9115.335
404.2195, 9156.059
404.7017, 9175.539
405.1838, 9169.445
405.6659, 9153.740
406.1480, 9141.876
406.6301, 9133.851
407.1122, 9124.299
407.5944, 9107.913
408.0765, 9093.972
408.5586, 9112.084
409.0407, 9161.633
409.5228, 9207.255
410.0049, 9222.686
410.4871, 9215.756
410.9692, 9208.146
411.4513, 9202.125
411.9334, 9194.929
412.4155, 9177.508
412.8976, 9155.240
413.3798, 9144.028
413.8619, 9162.010
414.3440, 9188.063
414.8261, 9199.737
415.3082, 9196.566
415.7903, 9190.338
416.2725, 9185.126
416.7546, 9182.504
417.2367, 9184.401
417.7188, 9197.196
418.2009, 9208.254
418.6830, 9211.033
419.1652, 9207.076
419.6473, 9201.916
420.1294, 9196.753
420.6115, 9191.342
421.0937, 9182.990
421.5758, 9160.873
422.0579, 9159.068
422.5400, 9208.602
423.0221, 9275.579
423.5042, 9304.920
423.9864, 9258.466
424.4685, 9215.004
424.9506, 9192.604
425.4327, 9193.372
425.9148, 9191.417
426.3969, 9181.895
426.8791, 9175.151
427.3612, 9182.930
427.8433, 9213.225
428.3254, 9231.355
428.8075, 9226.265
429.2896, 9208.119
429.7718, 9215.342
430.2539, 9252.884
430.7360, 9289.407
431.2181, 9304.517
431.7002, 9299.680
432.1823, 9295.826
432.6645, 9293.792
433.1466, 9293.402
433.6287, 9293.336
434.1108, 9294.225
434.5929, 9299.729
435.0750, 9318.433
435.5572, 9339.589
436.0393, 9337.395
436.5214, 9313.260
437.0035, 9297.088
437.4856, 9329.197
437.9677, 9378.935
438.4499, 9400.443
438.9320, 9365.634
439.4141, 9327.975
439.8962, 9331.901
440.3783, 9363.289
440.8604, 9385.828
441.3426, 9370.516
441.8247, 9351.396
442.3068, 9349.396
442.7889, 9370.754
443.2710, 9390.084
443.7531, 9407.322
444.2353, 9416.439
444.7174, 9411.052
445.1995, 9363.346
445.6816, 9330.521
446.1637, 9322.654
446.6458, 9338.568
447.1280, 9369.329
447.6101, 9436.883
448.0922, 9495.192
448.5743, 9515.007
449.0564, 9476.434
449.5385, 9453.159
450.0207, 9450.935
450.5028, 9461.325
450.9849, 9468.422
451.4670, 9470.877
451.9491, 9476.822
452.4312, 9492.805
452.9134, 9516.271
453.3955, 9525.764
453.8776, 9519.766
454.3597, 9510.560
454.8418, 9510.274
455.3239, 9517.101
455.8061, 9523.913
456.2882, 9530.040
456.7703, 9534.081
457.2524, 9525.321
457.7345, 9509.682
458.2166, 9511.507
458.6988, 9572.605
459.1809, 9645.091
459.6630, 9671.330
460.1451, 9640.550
460.6272, 9602.188
461.1093, 9575.924
461.5915, 9563.940
462.0736, 9569.699
462.5557, 9621.104
463.0378, 9664.154
463.5199, 9665.048
464.0020, 9631.770
464.4842, 9625.554
464.9663, 9702.307
465.4484, 9777.415
465.9305, 9803.396
466.4126, 9729.840
466.8947, 9694.185
467.3769, 9717.743
467.8590, 9769.805
468.3411, 9800.512
468.8232, 9800.855
469.3053, 9796.656
469.7874, 9790.991
470.2696, 9784.705
470.7517, 9798.922
471.2338, 9841.815
471.7159, 9879.996
472.1980, 9871.789
472.6801, 9818.972
473.1623, 9804.478
473.6444, 9850.744
474.1265, 9918.818
474.6086, 9937.566
475.0907, 9914.009
475.5728, 9893.567
476.0550, 9906.063
476.5371, 9935.006
477.0192, 9951.466
477.5013, 9954.340
477.9834, 9960.725
478.4655, 9992.822
478.9477, 10033.65
479.4298, 10060.13
479.9119, 10056.90
480.3940, 10049.02
480.8761, 10043.07
481.3582, 10041.82
481.8404, 10053.49
482.3225, 10096.01
482.8046, 10139.47
483.2867, 10171.50
483.7688, 10190.61
484.2509, 10199.67
484.7331, 10185.37
485.2152, 10168.08
485.6973, 10166.75
486.1794, 10187.68
486.6615, 10215.42
487.1436, 10257.62
487.6258, 10305.61
488.1079, 10311.30
488.5900, 10258.15
489.0721, 10208.35
489.5542, 10205.67
490.0363, 10250.70
490.5185, 10260.92
491.0006, 10227.88
491.4827, 10180.97
491.9648, 10158.22
492.4470, 10155.90
492.9291, 10153.83
493.4112, 10141.17
493.8933, 10128.58
494.3754, 10134.91
494.8575, 10158.04
495.3397, 10184.07
495.8218, 10209.66
496.3039, 10230.94
496.7860, 10240.35
497.2681, 10232.35
497.7502, 10230.90
498.2324, 10253.33
498.7145, 10288.67
499.1966, 10322.43
499.6787, 10343.15
500.1608, 10368.65
500.6429, 10407.37
501.1251, 10458.33
501.6072, 10504.65
502.0893, 10549.21
502.5714, 10585.90
503.0535, 10610.53
503.5356, 10615.04
504.0178, 10626.30
504.4999, 10644.23
504.9820, 10668.93
505.4641, 10706.02
505.9462, 10760.93
506.4283, 10798.66
506.9105, 10803.97
507.3926, 10785.31
507.8747, 10774.78
508.3568, 10772.52
508.8389, 10775.38
509.3210, 10792.95
509.8032, 10813.79
510.2853, 10800.61
510.7674, 10742.16
511.2495, 10678.00
511.7316, 10644.17
512.2137, 10634.76
512.6959, 10638.05
513.1780, 10670.71
513.6601, 10696.30
514.1422, 10685.37
514.6243, 10642.53
515.1064, 10600.87
515.5886, 10569.36
516.0707, 10545.70
516.5528, 10529.09
517.0349, 10520.54
517.5170, 10516.29
517.9991, 10519.06
518.4813, 10524.78
518.9634, 10529.22
519.4455, 10537.43
519.9276, 10534.69
520.4097, 10511.26
520.8918, 10472.98
521.3740, 10457.48
521.8561, 10469.29
522.3382, 10488.91
522.8203, 10510.42
523.3024, 10532.44
523.7845, 10528.65
524.2667, 10491.56
524.7488, 10451.47
525.2309, 10447.21
525.7130, 10471.16
526.1951, 10497.51
526.6772, 10524.06
527.1594, 10542.44
527.6415, 10533.30
528.1236, 10503.74
528.6057, 10484.74
529.0878, 10503.22
529.5699, 10533.16
530.0521, 10556.67
530.5342, 10572.16
531.0163, 10578.94
531.4984, 10567.21
531.9805, 10550.85
532.4626, 10544.51
532.9448, 10561.64
533.4269, 10575.07
533.9090, 10578.81
534.3911, 10576.34
534.8732, 10581.37
535.3553, 10597.56
535.8375, 10614.44
536.3196, 10624.68
536.8017, 10627.39
537.2838, 10648.63
537.7659, 10694.29
538.2480, 10739.68
538.7302, 10748.20
539.2123, 10727.45
539.6944, 10732.62
540.1765, 10784.95
540.6586, 10851.28
541.1407, 10882.06
541.6229, 10886.60
542.1050, 10898.91
542.5871, 10943.87
543.0692, 11000.46
543.5513, 11050.38
544.0334, 11092.28
544.5156, 11133.45
544.9977, 11173.16
545.4798, 11215.95
545.9619, 11265.76
546.4440, 11335.85
546.9261, 11394.38
547.4083, 11424.75
547.8904, 11443.45
548.3725, 11479.08
548.8546, 11534.98
549.3367, 11603.01
549.8188, 11684.28
550.3010, 11777.48
550.7831, 11868.88
551.2652, 11960.06
551.7473, 12044.58
552.2294, 12113.53
552.7115, 12168.98
553.1937, 12229.17
553.6758, 12296.09
554.1579, 12365.47
554.6400, 12440.57
555.1221, 12514.97
555.6042, 12567.75
556.0864, 12572.98
556.5685, 12573.03
557.0506, 12617.31
557.5327, 12693.52
558.0148, 12755.17
558.4969, 12788.07
558.9791, 12793.05
559.4612, 12767.26
559.9433, 12707.29
560.4254, 12634.46
560.9075, 12552.97
561.3896, 12459.78
561.8718, 12351.02
562.3539, 12214.30
562.8360, 12081.70
563.3181, 11951.36
563.8002, 11829.84
564.2823, 11736.97
564.7645, 11681.70
565.2466, 11617.63
565.7287, 11520.13
566.2108, 11398.78
566.6929, 11299.17
567.1750, 11222.06
567.6572, 11167.31
568.1393, 11157.17
568.6214, 11166.71
569.1035, 11141.62
569.5856, 11065.89
570.0677, 10985.20
570.5499, 10933.03
571.0320, 10901.16
571.5141, 10876.07
571.9962, 10860.69
572.4783, 10843.30
572.9604, 10809.50
573.4426, 10766.10
573.9247, 10747.48
574.4068, 10783.25
574.8889, 10823.36
575.3710, 10850.64
575.8531, 10864.58
576.3353, 10866.01
576.8174, 10850.16
577.2995, 10828.89
577.7816, 10811.62
578.2637, 10798.16
578.7458, 10792.46
579.2280, 10796.36
579.7101, 10805.95
580.1922, 10817.36
580.6743, 10829.50
581.1564, 10836.25
581.6385, 10828.88
582.1207, 10817.69
582.6028, 10819.43
583.0849, 10832.03
583.5670, 10839.26
584.0491, 10815.42
584.5313, 10792.69
585.0134, 10799.87
585.4955, 10852.06
585.9776, 10898.46
586.4597, 10932.71
586.9418, 10951.49
587.4240, 10949.11
587.9061, 10897.79
588.3882, 10870.37
588.8703, 10886.88
589.3524, 10928.95
589.8345, 10938.84
590.3167, 10907.36
590.7988, 10878.76
591.2809, 10872.24
591.7630, 10884.60
592.2451, 10904.68
592.7272, 10933.00
593.2094, 10955.86
593.6915, 10958.97
594.1736, 10949.07
594.6557, 10937.29
595.1378, 10924.20
595.6199, 10915.56
596.1021, 10922.86
596.5842, 10935.55
597.0663, 10938.61
597.5485, 10912.10
598.0306, 10890.91
598.5127, 10886.10
598.9948, 10895.85
599.4769, 10912.26
599.9590, 10954.08
600.4412, 10979.03
600.9233, 10966.46
601.4054, 10912.51
601.8875, 10882.99
602.3696, 10884.08
602.8517, 10894.98
603.3339, 10897.61
603.8160, 10893.01
604.2981, 10894.48
604.7802, 10903.67
605.2623, 10918.67
605.7444, 10942.17
606.2266, 10969.92
606.7087, 10989.25
607.1908, 10990.89
607.6729, 10987.70
608.1550, 10988.70
608.6371, 10993.15
609.1193, 10998.66
609.6014, 11003.77
610.0835, 11010.13
610.5656, 11021.86
611.0477, 11041.68
611.5298, 11045.77
612.0120, 11021.67
612.4941, 10993.54
612.9762, 10977.04
613.4583, 10973.95
613.9404, 10976.58
614.4225, 10985.91
614.9047, 10998.75
615.3868, 11012.83
615.8689, 11027.76
616.3510, 11036.83
616.8331, 11036.46
617.3152, 11031.35
617.7974, 11023.59
618.2795, 11016.03
618.7616, 11019.18
619.2437, 11047.31
619.7258, 11081.96
620.2079, 11113.66
620.6901, 11141.41
621.1722, 11156.36
621.6543, 11139.95
622.1364, 11120.58
622.6185, 11117.41
623.1006, 11139.25
623.5828, 11160.54
624.0649, 11185.09
624.5470, 11205.58
625.0291, 11208.10
625.5112, 11185.81
625.9933, 11183.93
626.4755, 11215.28
626.9576, 11264.94
627.4397, 11302.67
627.9218, 11329.94
628.4039, 11358.09
628.8860, 11394.14
629.3682, 11433.67
629.8503, 11474.44
630.3324, 11515.13
630.8145, 11544.76
631.2966, 11545.14
631.7787, 11540.08
632.2609, 11545.25
632.7430, 11562.81
633.2251, 11590.26
633.7072, 11630.15
634.1893, 11677.85
634.6714, 11730.99
635.1536, 11796.20
635.6357, 11852.39
636.1178, 11896.92
636.5999, 11932.29
637.0820, 11961.26
637.5641, 11983.49
638.0463, 12003.02
638.5284, 12013.88
639.0105, 12029.37
639.4926, 12089.78
639.9747, 12186.38
640.4568, 12266.70
640.9390, 12286.25
641.4211, 12284.17
641.9032, 12303.86
642.3853, 12348.24
642.8674, 12367.59
643.3495, 12325.72
643.8317, 12262.68
644.3138, 12205.22
644.7959, 12159.97
645.2780, 12113.85
645.7601, 12067.92
646.2422, 12020.40
646.7244, 11966.53
647.2065, 11903.99
647.6886, 11849.30
648.1707, 11805.96
648.6528, 11771.89
649.1349, 11747.37
649.6171, 11730.41
650.0992, 11706.41
650.5813, 11654.39
651.0634, 11600.37
651.5455, 11583.50
652.0276, 11596.84
652.5098, 11603.88
652.9919, 11572.84
