##NAMES=Pyrophyllite
##RRUFFID=R050108
##IDEAL CHEMISTRY=Al_2_Si_4_O_10_(OH)_2_
##LOCALITY=Graves Mountain, Lincoln County, Georgia, USA
##OWNER=RRUFF
##SOURCE=Rock Currier
##DESCRIPTION=Lamellar radial aggregates
##STATUS=The identification of this mineral has been confirmed by X-ray diffraction and chemical analysis
##URL=rruff.info/R050108
##MEASURED CHEMISTRY=(Al_.976_Fe_.020_Mg_.002_Ca_.001_)_2_Si_4_O_10_(OH)_2_
148.3056, 8805.778
148.7878, 8821.729
149.2699, 8829.079
149.7520, 8832.330
150.2341, 8837.311
150.7162, 8843.447
151.1983, 8851.745
151.6805, 8863.236
152.1626, 8880.216
152.6447, 8893.974
153.1268, 8902.475
153.6089, 8908.078
154.0910, 8914.623
154.5732, 8923.766
155.0553, 8932.650
155.5374, 8940.025
156.0195, 8944.468
156.5016, 8950.033
156.9837, 8958.160
157.4659, 8967.756
157.9480, 8976.539
158.4301, 8982.348
158.9122, 8988.474
159.3943, 8996.156
159.8764, 9004.472
160.3586, 9016.240
160.8407, 9035.386
161.3228, 9059.049
161.8049, 9079.260
162.2870, 9091.168
162.7691, 9100.063
163.2512, 9109.241
163.7334, 9119.140
164.2155, 9129.704
164.6976, 9139.721
165.1797, 9149.865
165.6618, 9163.086
166.1439, 9184.627
166.6261, 9207.793
167.1082, 9226.621
167.5903, 9235.869
168.0724, 9244.094
168.5545, 9257.959
169.0366, 9276.320
169.5188, 9291.865
170.0009, 9300.109
170.4830, 9303.266
170.9651, 9304.053
171.4472, 9301.354
171.9293, 9298.383
172.4115, 9298.256
172.8936, 9300.799
173.3757, 9303.287
173.8578, 9301.615
174.3399, 9298.963
174.8220, 9300.174
175.3042, 9310.616
175.7863, 9323.604
176.2684, 9331.438
176.7505, 9334.126
177.2326, 9336.112
177.7147, 9340.619
178.1969, 9347.111
178.6790, 9354.431
179.1611, 9362.462
179.6432, 9370.780
180.1253, 9378.529
180.6074, 9385.540
181.0896, 9392.840
181.5717, 9402.485
182.0538, 9413.438
182.5359, 9422.795
183.0180, 9428.365
183.5001, 9431.544
183.9823, 9434.420
184.4644, 9436.795
184.9465, 9440.489
185.4286, 9449.189
185.9107, 9461.867
186.3928, 9472.612
186.8750, 9475.338
187.3571, 9473.826
187.8392, 9481.458
188.3213, 9499.729
188.8034, 9521.030
189.2855, 9534.300
189.7677, 9540.283
190.2498, 9547.226
190.7319, 9559.197
191.2140, 9575.481
191.6961, 9592.003
192.1782, 9608.330
192.6603, 9625.989
193.1425, 9648.322
193.6246, 9675.247
194.1067, 9700.936
194.5888, 9726.162
195.0709, 9749.650
195.5530, 9757.673
196.0352, 9747.889
196.5173, 9727.149
196.9994, 9705.037
197.4815, 9681.344
197.9636, 9658.346
198.4457, 9632.806
198.9279, 9604.604
199.4100, 9595.238
199.8921, 9609.959
200.3742, 9635.557
200.8563, 9647.395
201.3384, 9643.799
201.8206, 9636.667
202.3027, 9629.359
202.7848, 9621.205
203.2669, 9622.584
203.7490, 9636.361
204.2311, 9656.717
204.7133, 9672.537
205.1954, 9683.872
205.6775, 9691.063
206.1596, 9693.553
206.6417, 9690.777
207.1238, 9687.357
207.6060, 9682.413
208.0881, 9677.908
208.5702, 9678.250
209.0523, 9684.035
209.5344, 9692.718
210.0165, 9704.020
210.4987, 9719.103
210.9808, 9730.814
211.4629, 9737.693
211.9450, 9741.876
212.4271, 9748.021
212.9092, 9756.049
213.3914, 9765.976
213.8735, 9779.505
214.3556, 9799.543
214.8377, 9810.679
215.3198, 9808.654
215.8019, 9799.850
216.2841, 9800.835
216.7662, 9816.284
217.2483, 9831.693
217.7304, 9839.439
218.2125, 9836.063
218.6946, 9836.006
219.1767, 9839.670
219.6589, 9846.807
220.1410, 9858.755
220.6231, 9881.467
221.1052, 9897.949
221.5873, 9898.028
222.0694, 9871.948
222.5516, 9856.865
223.0337, 9854.988
223.5158, 9863.415
223.9979, 9876.640
224.4800, 9899.060
224.9621, 9918.225
225.4443, 9926.610
225.9264, 9915.783
226.4085, 9916.550
226.8906, 9934.646
227.3727, 9962.053
227.8548, 9980.421
228.3370, 9986.100
228.8191, 9988.525
229.3012, 9990.841
229.7833, 9991.390
230.2654, 9996.557
230.7475, 10008.02
231.2297, 10023.59
231.7118, 10038.90
232.1939, 10056.11
232.6760, 10069.57
233.1581, 10075.82
233.6402, 10069.73
234.1224, 10070.59
234.6045, 10082.03
235.0866, 10098.83
235.5687, 10108.85
236.0508, 10105.05
236.5329, 10105.62
237.0151, 10119.65
237.4972, 10155.72
237.9793, 10178.62
238.4614, 10182.52
238.9435, 10175.95
239.4256, 10175.76
239.9078, 10185.41
240.3899, 10196.01
240.8720, 10204.29
241.3541, 10208.93
241.8362, 10216.69
242.3183, 10230.27
242.8005, 10245.97
243.2826, 10256.69
243.7647, 10257.90
244.2468, 10261.89
244.7289, 10273.71
245.2110, 10296.36
245.6931, 10314.66
246.1753, 10327.74
246.6574, 10336.98
247.1395, 10343.78
247.6216, 10344.36
248.1037, 10348.67
248.5858, 10360.74
249.0680, 10382.38
249.5501, 10400.54
250.0322, 10414.48
250.5143, 10425.30
250.9964, 10433.87
251.4785, 10437.28
251.9607, 10443.79
252.4428, 10457.31
252.9249, 10479.31
253.4070, 10494.17
253.8891, 10496.88
254.3712, 10497.26
254.8534, 10508.15
255.3355, 10536.27
255.8176, 10560.90
256.2997, 10575.57
256.7818, 10579.33
257.2639, 10590.31
257.7461, 10609.86
258.2282, 10635.23
258.7103, 10664.07
259.1924, 10698.83
259.6745, 10731.85
260.1566, 10760.89
260.6388, 10786.36
261.1209, 10811.49
261.6030, 10840.77
262.0851, 10863.81
262.5672, 10871.00
263.0493, 10860.74
263.5315, 10838.15
264.0136, 10798.66
264.4957, 10745.61
264.9778, 10708.51
265.4599, 10692.41
265.9420, 10684.28
266.4242, 10673.80
266.9063, 10658.90
267.3884, 10648.58
267.8705, 10644.97
268.3526, 10646.92
268.8347, 10648.69
269.3169, 10649.81
269.7990, 10651.46
270.2811, 10653.56
270.7632, 10654.84
271.2453, 10661.93
271.7274, 10677.91
272.2096, 10699.02
272.6917, 10712.70
273.1738, 10716.59
273.6559, 10719.96
274.1380, 10729.93
274.6201, 10748.61
275.1023, 10760.14
275.5844, 10760.72
276.0665, 10756.08
276.5486, 10761.61
277.0307, 10780.42
277.5128, 10797.07
277.9950, 10801.43
278.4771, 10792.29
278.9592, 10789.33
279.4413, 10794.94
279.9234, 10804.71
280.4055, 10808.62
280.8877, 10805.31
281.3698, 10806.39
281.8519, 10819.52
282.3340, 10844.57
282.8161, 10865.31
283.2982, 10881.10
283.7804, 10893.72
284.2625, 10906.71
284.7446, 10920.27
285.2267, 10928.06
285.7088, 10923.45
286.1909, 10909.16
286.6730, 10905.62
287.1552, 10913.87
287.6373, 10928.33
288.1194, 10945.01
288.6015, 10963.62
289.0836, 10977.11
289.5657, 10980.33
290.0479, 10977.12
290.5300, 10982.54
291.0121, 10997.44
291.4942, 11013.31
291.9763, 11020.24
292.4584, 11019.86
292.9406, 11022.34
293.4227, 11031.27
293.9048, 11043.98
294.3869, 11054.88
294.8690, 11063.96
295.3511, 11071.96
295.8333, 11079.29
296.3154, 11085.97
296.7975, 11092.59
297.2796, 11099.52
297.7617, 11105.93
298.2438, 11109.34
298.7260, 11110.29
299.2081, 11112.79
299.6902, 11123.46
300.1723, 11137.43
300.6544, 11143.68
301.1365, 11138.80
301.6187, 11130.86
302.1008, 11128.41
302.5829, 11130.96
303.0650, 11136.41
303.5471, 11142.62
304.0292, 11151.22
304.5114, 11166.13
304.9935, 11189.00
305.4756, 11211.20
305.9577, 11223.53
306.4398, 11228.91
306.9219, 11234.38
307.4041, 11244.90
307.8862, 11256.01
308.3683, 11263.04
308.8504, 11265.50
309.3325, 11266.78
309.8146, 11267.12
310.2968, 11268.26
310.7789, 11272.86
311.2610, 11284.49
311.7431, 11298.29
312.2252, 11312.85
312.7073, 11327.83
313.1895, 11338.22
313.6716, 11336.20
314.1537, 11330.24
314.6358, 11329.18
315.1179, 11339.64
315.6000, 11351.55
316.0822, 11359.78
316.5643, 11365.10
317.0464, 11370.47
317.5285, 11377.60
318.0106, 11384.96
318.4927, 11390.77
318.9749, 11390.90
319.4570, 11395.86
319.9391, 11413.49
320.4212, 11438.67
320.9033, 11459.93
321.3854, 11475.38
321.8676, 11484.59
322.3497, 11485.65
322.8318, 11474.53
323.3139, 11466.43
323.7960, 11467.38
324.2781, 11472.64
324.7603, 11475.41
325.2424, 11468.21
325.7245, 11464.52
326.2066, 11470.16
326.6887, 11487.57
327.1708, 11501.70
327.6530, 11507.81
328.1351, 11511.95
328.6172, 11519.74
329.0993, 11541.53
329.5814, 11555.95
330.0635, 11555.60
330.5457, 11541.24
331.0278, 11537.11
331.5099, 11550.54
331.9920, 11568.22
332.4741, 11581.41
332.9562, 11587.69
333.4384, 11593.63
333.9205, 11599.13
334.4026, 11604.39
334.8847, 11610.67
335.3668, 11618.56
335.8489, 11626.37
336.3311, 11633.21
336.8132, 11638.80
337.2953, 11643.83
337.7774, 11646.97
338.2595, 11650.49
338.7416, 11659.36
339.2238, 11675.74
339.7059, 11691.21
340.1880, 11702.59
340.6701, 11709.80
341.1522, 11716.07
341.6343, 11721.36
342.1164, 11726.25
342.5985, 11731.10
343.0807, 11735.86
343.5628, 11742.71
344.0449, 11753.40
344.5270, 11766.65
345.0091, 11776.27
345.4912, 11781.82
345.9734, 11787.68
346.4555, 11799.37
346.9376, 11815.75
347.4197, 11827.34
347.9018, 11830.42
348.3839, 11830.27
348.8661, 11836.56
349.3482, 11848.94
349.8303, 11864.33
350.3124, 11885.50
350.7945, 11908.07
351.2766, 11919.06
351.7588, 11915.33
352.2409, 11908.11
352.7230, 11910.39
353.2051, 11920.04
353.6872, 11930.84
354.1693, 11942.72
354.6515, 11952.90
355.1336, 11955.14
355.6157, 11949.25
356.0978, 11946.06
356.5799, 11958.80
357.0620, 11978.81
357.5442, 11993.00
358.0263, 11992.03
358.5084, 11988.33
358.9905, 11993.16
359.4726, 12004.41
359.9547, 12011.22
360.4369, 11997.14
360.9190, 11981.54
361.4011, 11982.33
361.8832, 12012.70
362.3653, 12041.34
362.8474, 12052.63
363.3296, 12052.25
363.8117, 12052.18
364.2938, 12054.25
364.7759, 12059.36
365.2580, 12068.92
365.7401, 12084.36
366.2223, 12098.31
366.7044, 12111.73
367.1865, 12121.79
367.6686, 12125.50
368.1507, 12110.34
368.6328, 12101.37
369.1150, 12107.18
369.5971, 12128.14
370.0792, 12143.03
370.5613, 12147.10
371.0434, 12148.24
371.5255, 12151.19
372.0077, 12157.38
372.4898, 12163.33
372.9719, 12169.12
373.4540, 12174.69
373.9361, 12179.66
374.4182, 12183.74
374.9004, 12187.71
375.3825, 12191.89
375.8646, 12196.32
376.3467, 12199.93
376.8288, 12200.95
377.3109, 12203.09
377.7931, 12212.60
378.2752, 12230.93
378.7573, 12249.77
379.2394, 12268.25
379.7215, 12285.39
380.2036, 12294.48
380.6858, 12294.19
381.1679, 12291.24
381.6500, 12291.27
382.1321, 12294.14
382.6142, 12297.79
383.0963, 12302.26
383.5785, 12307.02
384.0606, 12310.90
384.5427, 12314.05
385.0248, 12317.56
385.5069, 12323.11
385.9890, 12329.56
386.4712, 12333.07
386.9533, 12332.69
387.4354, 12333.37
387.9175, 12328.71
388.3996, 12341.29
388.8817, 12351.42
389.3639, 12359.24
389.8460, 12357.82
390.3281, 12368.33
390.8102, 12374.07
391.2923, 12379.60
391.7744, 12391.79
392.2566, 12391.72
392.7387, 12403.80
393.2208, 12411.03
393.7029, 12420.48
394.1850, 12425.12
394.6671, 12432.71
395.1493, 12437.49
395.6314, 12454.44
396.1135, 12469.98
396.5956, 12475.78
397.0777, 12467.99
397.5598, 12462.58
398.0419, 12461.86
398.5240, 12465.82
399.0062, 12474.45
399.4883, 12495.48
399.9704, 12512.90
400.4525, 12521.36
400.9346, 12521.11
401.4167, 12523.18
401.8989, 12527.40
402.3810, 12533.90
402.8631, 12543.05
403.3452, 12557.03
403.8273, 12569.56
404.3094, 12581.60
404.7916, 12591.44
405.2737, 12593.94
405.7558, 12585.93
406.2379, 12578.56
406.7200, 12575.25
407.2021, 12576.03
407.6843, 12583.66
408.1664, 12600.11
408.6485, 12618.53
409.1306, 12631.63
409.6127, 12639.53
410.0948, 12643.34
410.5770, 12641.96
411.0591, 12637.77
411.5412, 12636.74
412.0233, 12638.86
412.5054, 12642.42
412.9875, 12647.11
413.4697, 12652.31
413.9518, 12654.56
414.4339, 12651.71
414.9160, 12653.03
415.3981, 12676.29
415.8802, 12712.32
416.3624, 12739.12
416.8445, 12740.26
417.3266, 12731.03
417.8087, 12724.31
418.2908, 12720.36
418.7729, 12719.10
419.2551, 12722.69
419.7372, 12727.95
420.2193, 12731.50
420.7014, 12730.34
421.1835, 12730.70
421.6656, 12737.20
422.1478, 12747.34
422.6299, 12755.17
423.1120, 12757.99
423.5941, 12758.96
424.0762, 12757.38
424.5583, 12750.58
425.0405, 12753.10
425.5226, 12775.47
426.0047, 12803.73
426.4868, 12824.20
426.9689, 12833.88
427.4510, 12839.31
427.9332, 12838.56
428.4153, 12833.28
428.8974, 12833.38
429.3795, 12841.73
429.8616, 12850.97
430.3438, 12856.39
430.8259, 12855.82
431.3080, 12862.17
431.7901, 12879.08
432.2722, 12898.13
432.7543, 12906.07
433.2365, 12901.96
433.7186, 12896.44
434.2007, 12892.86
434.6828, 12890.55
435.1649, 12885.85
435.6470, 12878.45
436.1292, 12873.23
436.6113, 12874.31
437.0934, 12880.67
437.5755, 12889.85
438.0576, 12901.97
438.5397, 12914.83
439.0219, 12926.10
439.5040, 12935.95
439.9861, 12944.80
440.4682, 12955.67
440.9503, 12964.15
441.4324, 12963.05
441.9146, 12952.40
442.3967, 12945.48
442.8788, 12954.75
443.3609, 12970.19
443.8430, 12981.21
444.3251, 12981.15
444.8073, 12981.98
445.2894, 12989.81
445.7715, 13001.80
446.2536, 13010.64
446.7357, 13011.53
447.2178, 13011.31
447.7000, 13011.95
448.1821, 13012.79
448.6642, 13016.46
449.1463, 13022.70
449.6284, 13031.48
450.1105, 13043.41
450.5927, 13062.60
451.0747, 13077.13
451.5569, 13084.53
452.0390, 13086.35
452.5211, 13089.31
453.0032, 13094.58
453.4853, 13098.46
453.9674, 13097.99
454.4496, 13092.94
454.9317, 13092.76
455.4138, 13098.80
455.8959, 13106.88
456.3780, 13112.10
456.8601, 13114.75
457.3423, 13115.70
457.8244, 13113.53
458.3065, 13111.31
458.7886, 13114.86
459.2707, 13123.92
459.7528, 13136.20
460.2350, 13152.31
460.7171, 13169.82
461.1992, 13185.50
461.6813, 13198.52
462.1634, 13210.39
462.6455, 13223.50
463.1277, 13235.88
463.6098, 13244.76
464.0919, 13243.58
464.5740, 13243.55
465.0561, 13250.22
465.5382, 13262.98
466.0204, 13277.55
466.5025, 13299.60
466.9846, 13318.19
467.4667, 13326.59
467.9488, 13319.81
468.4309, 13312.24
468.9131, 13303.60
469.3952, 13295.16
469.8773, 13288.30
470.3594, 13280.70
470.8415, 13278.87
471.3236, 13286.77
471.8058, 13302.78
472.2879, 13311.73
472.7700, 13311.45
473.2521, 13309.93
473.7342, 13313.16
474.2163, 13321.76
474.6985, 13326.79
475.1806, 13327.49
475.6627, 13325.60
476.1448, 13320.43
476.6269, 13313.12
477.1090, 13314.06
477.5912, 13332.96
478.0733, 13358.33
478.5554, 13366.21
479.0375, 13358.23
479.5196, 13350.67
480.0017, 13354.88
480.4839, 13366.01
480.9660, 13378.80
481.4481, 13393.09
481.9302, 13405.86
482.4123, 13415.90
482.8944, 13422.93
483.3766, 13426.62
483.8587, 13420.22
484.3408, 13417.03
484.8229, 13423.73
485.3050, 13439.40
485.7871, 13454.79
486.2693, 13471.27
486.7514, 13484.62
487.2335, 13491.72
487.7156, 13488.34
488.1977, 13488.26
488.6798, 13492.90
489.1620, 13499.69
489.6441, 13505.93
490.1262, 13513.40
490.6083, 13515.06
491.0904, 13506.08
491.5725, 13490.65
492.0547, 13490.47
492.5368, 13508.75
493.0189, 13525.52
493.5010, 13527.79
493.9831, 13517.33
494.4652, 13502.03
494.9474, 13480.71
495.4295, 13464.81
495.9116, 13472.66
496.3937, 13497.00
496.8758, 13516.70
497.3579, 13521.71
497.8401, 13522.61
498.3222, 13529.89
498.8043, 13542.46
499.2864, 13556.78
499.7685, 13573.38
500.2506, 13588.87
500.7328, 13598.94
501.2149, 13601.65
501.6970, 13607.73
502.1791, 13626.22
502.6612, 13647.25
503.1433, 13661.52
503.6255, 13665.91
504.1076, 13665.46
504.5897, 13654.46
505.0718, 13639.07
505.5539, 13638.19
506.0360, 13664.13
506.5181, 13686.72
507.0002, 13693.84
507.4824, 13684.47
507.9645, 13681.05
508.4466, 13685.41
508.9287, 13691.64
509.4108, 13693.09
509.8929, 13689.77
510.3751, 13690.68
510.8572, 13698.01
511.3393, 13708.06
511.8214, 13711.90
512.3035, 13711.51
512.7856, 13718.23
513.2678, 13747.08
513.7499, 13781.46
514.2320, 13797.71
514.7141, 13796.37
515.1962, 13788.75
515.6783, 13775.86
516.1605, 13763.74
516.6426, 13758.79
517.1247, 13764.46
517.6068, 13772.20
518.0889, 13782.38
518.5710, 13791.87
519.0532, 13795.97
519.5353, 13782.98
520.0174, 13776.48
520.4995, 13786.11
520.9816, 13809.29
521.4637, 13826.22
521.9459, 13835.58
522.4280, 13840.32
522.9101, 13840.62
523.3922, 13834.79
523.8743, 13831.73
524.3564, 13830.75
524.8386, 13833.36
525.3207, 13842.60
525.8028, 13858.31
526.2849, 13874.71
526.7670, 13891.50
527.2491, 13906.67
527.7313, 13913.73
528.2134, 13914.19
528.6955, 13916.77
529.1776, 13927.85
529.6597, 13943.19
530.1418, 13959.53
530.6240, 13976.31
531.1061, 13987.69
531.5882, 13989.75
532.0703, 13984.37
532.5524, 13971.53
533.0345, 13941.47
533.5167, 13921.83
533.9988, 13928.90
534.4809, 13951.11
534.9630, 13968.66
535.4451, 13974.38
535.9272, 13980.34
536.4094, 13990.21
536.8915, 14003.46
537.3736, 14013.19
537.8557, 14019.83
538.3378, 14022.56
538.8199, 14019.30
539.3021, 14008.55
539.7842, 14003.18
540.2663, 14003.60
540.7484, 14008.30
541.2305, 14018.82
541.7126, 14033.79
542.1948, 14040.00
542.6769, 14029.76
543.1590, 14015.92
543.6411, 14021.26
544.1232, 14041.08
544.6053, 14057.60
545.0875, 14057.65
545.5696, 14052.53
546.0517, 14051.52
546.5338, 14055.18
547.0159, 14063.33
547.4980, 14083.73
547.9802, 14103.99
548.4623, 14113.44
548.9444, 14099.16
549.4265, 14093.78
549.9086, 14107.59
550.3907, 14131.07
550.8729, 14150.79
551.3550, 14165.13
551.8371, 14177.63
552.3192, 14187.89
552.8013, 14196.34
553.2834, 14207.23
553.7656, 14222.07
554.2477, 14232.88
554.7298, 14231.43
555.2119, 14219.70
555.6940, 14219.98
556.1761, 14233.50
556.6583, 14249.78
557.1404, 14260.00
557.6225, 14265.04
558.1046, 14266.72
558.5867, 14265.54
559.0688, 14261.69
559.5510, 14251.66
560.0331, 14239.64
560.5152, 14233.43
560.9973, 14242.19
561.4794, 14252.43
561.9615, 14256.46
562.4437, 14255.09
562.9258, 14257.23
563.4079, 14270.58
563.8900, 14282.72
564.3721, 14286.98
564.8542, 14280.12
565.3364, 14275.99
565.8185, 14275.48
566.3006, 14276.60
566.7827, 14277.65
567.2648, 14278.70
567.7469, 14279.11
568.2291, 14278.22
568.7112, 14277.80
569.1933, 14280.83
569.6754, 14287.47
570.1575, 14298.11
570.6396, 14316.94
571.1218, 14338.03
571.6039, 14350.80
572.0860, 14355.95
572.5681, 14359.73
573.0502, 14362.63
573.5323, 14367.84
574.0145, 14379.54
574.4966, 14399.59
574.9787, 14417.62
575.4608, 14425.85
575.9429, 14431.28
576.4250, 14440.58
576.9072, 14460.96
577.3893, 14476.89
577.8714, 14485.84
578.3535, 14489.74
578.8356, 14492.26
579.3177, 14492.25
579.7999, 14494.28
580.2820, 14502.02
580.7641, 14513.62
581.2462, 14514.47
581.7283, 14503.72
582.2104, 14492.58
582.6926, 14488.53
583.1747, 14490.59
583.6568, 14497.80
584.1389, 14510.99
584.6210, 14521.57
585.1031, 14516.26
585.5853, 14504.85
586.0674, 14502.44
586.5495, 14520.29
587.0316, 14535.90
587.5137, 14534.72
587.9958, 14523.74
588.4779, 14516.53
588.9600, 14513.90
589.4421, 14518.15
589.9243, 14536.01
590.4064, 14564.67
590.8885, 14577.91
591.3706, 14566.30
591.8527, 14554.29
592.3348, 14554.79
592.8170, 14569.38
593.2991, 14578.59
593.7812, 14581.50
594.2633, 14582.67
594.7454, 14586.98
595.2275, 14593.67
595.7097, 14597.84
596.1918, 14596.75
596.6739, 14598.72
597.1560, 14621.62
597.6381, 14654.68
598.1202, 14674.63
598.6024, 14655.60
599.0845, 14635.41
599.5666, 14639.21
600.0487, 14661.34
600.5308, 14679.76
601.0129, 14684.65
601.4951, 14687.40
601.9772, 14692.46
602.4593, 14700.28
602.9414, 14708.33
603.4235, 14718.95
603.9056, 14727.07
604.3878, 14728.61
604.8699, 14722.51
605.3520, 14715.90
605.8341, 14707.07
606.3162, 14703.39
606.7983, 14720.58
607.2805, 14754.11
607.7626, 14777.58
608.2447, 14780.93
608.7268, 14775.93
609.2089, 14772.94
609.6910, 14773.38
610.1732, 14781.34
610.6553, 14809.15
611.1374, 14836.13
611.6195, 14845.11
612.1016, 14837.97
612.5837, 14837.11
613.0659, 14854.64
613.5480, 14874.90
614.0301, 14889.24
614.5122, 14894.96
614.9943, 14906.31
615.4764, 14928.63
615.9586, 14949.56
616.4407, 14956.89
616.9228, 14948.63
617.4049, 14942.41
617.8870, 14940.23
618.3691, 14940.08
618.8513, 14937.41
619.3334, 14933.53
619.8155, 14934.94
620.2976, 14946.53
620.7797, 14961.22
621.2618, 14971.67
621.7440, 14978.59
622.2261, 14984.11
622.7082, 14989.43
623.1903, 14993.66
623.6724, 14996.52
624.1545, 14998.05
624.6367, 14998.13
625.1188, 14993.38
625.6009, 14990.35
626.0830, 14992.92
626.5651, 15003.60
627.0472, 15009.55
627.5294, 15008.06
628.0115, 15006.01
628.4936, 15012.15
628.9757, 15026.56
629.4578, 15034.26
629.9399, 15031.37
630.4221, 15025.98
630.9042, 15029.49
631.3863, 15040.16
631.8684, 15052.90
632.3505, 15068.47
632.8326, 15082.45
633.3148, 15090.88
633.7969, 15094.68
634.2790, 15096.41
634.7611, 15094.53
635.2432, 15093.45
635.7253, 15096.48
636.2075, 15103.90
636.6896, 15107.31
637.1717, 15102.87
637.6538, 15099.05
638.1359, 15100.67
638.6180, 15108.99
639.1002, 15114.40
639.5823, 15116.07
640.0644, 15117.50
640.5465, 15122.41
641.0286, 15130.28
641.5107, 15138.51
641.9929, 15146.88
642.4750, 15154.33
642.9571, 15158.73
643.4392, 15161.23
643.9213, 15163.75
644.4034, 15161.69
