##NAMES=Pyrochlore
##RRUFFID=R070742
##IDEAL CHEMISTRY=Ca_2_Nb_2_O_7_
##LOCALITY=Alakurtti pegmatite, North Karelia, Murmanskaja Oblast', Northern Region, Russia
##OWNER=RRUFF
##SOURCE=Michael Scott
##DESCRIPTION=Vitreous brown metamict fragments
##STATUS=The identification of this mineral has been made only by X-ray diffraction.
##URL=rruff.info/R070742
204.0156, 11730.72
204.4977, 11741.90
204.9798, 11760.06
205.4619, 11787.44
205.9440, 11800.26
206.4262, 11790.86
206.9083, 11771.04
207.3904, 11776.42
207.8725, 11818.61
208.3546, 11853.35
208.8367, 11849.12
209.3189, 11793.45
209.8010, 11751.13
210.2831, 11730.90
210.7652, 11727.54
211.2473, 11717.21
211.7294, 11696.80
212.2116, 11676.19
212.6937, 11663.91
213.1758, 11662.91
213.6579, 11662.52
214.1400, 11665.23
214.6221, 11670.00
215.1043, 11652.82
215.5864, 11599.28
216.0685, 11545.15
216.5506, 11531.88
217.0327, 11580.75
217.5148, 11615.61
217.9970, 11613.95
218.4791, 11572.50
218.9612, 11548.82
219.4433, 11549.98
219.9254, 11561.26
220.4075, 11563.41
220.8897, 11552.12
221.3718, 11539.10
221.8539, 11526.22
222.3360, 11511.19
222.8181, 11505.42
223.3002, 11511.65
223.7824, 11525.22
224.2645, 11536.60
224.7466, 11540.22
225.2287, 11551.88
225.7108, 11584.36
226.1929, 11660.72
226.6750, 11691.80
227.1572, 11658.15
227.6393, 11585.17
228.1214, 11537.25
228.6035, 11523.35
229.0856, 11521.96
229.5677, 11524.34
230.0499, 11533.46
230.5320, 11539.15
231.0141, 11539.62
231.4962, 11536.09
231.9783, 11532.76
232.4604, 11525.08
232.9426, 11523.24
233.4247, 11536.41
233.9068, 11580.60
234.3889, 11606.37
234.8710, 11607.20
235.3531, 11584.83
235.8353, 11552.23
236.3174, 11497.97
236.7995, 11446.79
237.2816, 11418.60
237.7637, 11425.23
238.2458, 11432.50
238.7280, 11436.21
239.2101, 11436.43
239.6922, 11435.08
240.1743, 11428.16
240.6564, 11423.56
241.1385, 11430.35
241.6207, 11460.49
242.1028, 11480.34
242.5849, 11481.41
243.0670, 11462.00
243.5491, 11443.36
244.0313, 11421.05
244.5134, 11403.16
244.9955, 11402.22
245.4776, 11436.87
245.9597, 11455.80
246.4418, 11441.28
246.9240, 11384.68
247.4061, 11345.12
247.8882, 11327.24
248.3703, 11323.50
248.8524, 11325.42
249.3345, 11341.42
249.8167, 11348.25
250.2988, 11334.77
250.7809, 11290.96
251.2630, 11267.97
251.7451, 11278.11
252.2272, 11301.74
252.7094, 11301.44
253.1915, 11261.20
253.6736, 11223.92
254.1557, 11206.90
254.6378, 11218.86
255.1199, 11223.02
255.6021, 11216.40
256.0842, 11203.40
256.5663, 11193.15
257.0484, 11185.18
257.5305, 11180.88
258.0126, 11181.95
258.4948, 11191.94
258.9769, 11198.08
259.4590, 11200.78
259.9411, 11199.70
260.4232, 11193.29
260.9053, 11180.13
261.3875, 11164.51
261.8696, 11149.46
262.3517, 11138.29
262.8338, 11115.96
263.3159, 11071.94
263.7980, 11018.54
264.2802, 11005.01
264.7623, 11051.32
265.2444, 11096.94
265.7265, 11099.49
266.2086, 11040.74
266.6907, 11006.57
267.1729, 11013.29
267.6550, 11047.96
268.1371, 11061.19
268.6192, 11047.57
269.1013, 11023.71
269.5834, 10999.57
270.0656, 10975.23
270.5477, 10951.49
271.0298, 10928.70
271.5119, 10906.86
271.9940, 10884.06
272.4761, 10858.45
272.9583, 10837.55
273.4404, 10828.77
273.9225, 10834.76
274.4046, 10840.58
274.8867, 10848.06
275.3688, 10853.48
275.8510, 10836.24
276.3331, 10791.50
276.8152, 10739.20
277.2973, 10692.36
277.7794, 10650.14
278.2615, 10621.83
278.7437, 10612.04
279.2258, 10617.13
279.7079, 10620.41
280.1900, 10621.04
280.6721, 10623.36
281.1542, 10640.47
281.6364, 10674.26
282.1185, 10676.00
282.6006, 10621.46
283.0827, 10529.66
283.5648, 10479.87
284.0469, 10476.97
284.5291, 10490.91
285.0112, 10492.32
285.4933, 10481.82
285.9754, 10482.48
286.4575, 10511.00
286.9396, 10552.06
287.4217, 10544.49
287.9038, 10482.71
288.3860, 10410.97
288.8681, 10374.29
289.3502, 10369.17
289.8323, 10361.95
290.3144, 10339.82
290.7965, 10309.84
291.2787, 10292.69
291.7608, 10288.91
292.2429, 10291.25
292.7250, 10297.44
293.2071, 10305.61
293.6892, 10305.72
294.1714, 10292.11
294.6535, 10269.90
295.1356, 10249.38
295.6177, 10230.78
296.0998, 10212.74
296.5819, 10192.90
297.0641, 10172.29
297.5462, 10154.53
298.0283, 10144.68
298.5104, 10136.60
298.9925, 10118.75
299.4746, 10090.97
299.9568, 10060.24
300.4389, 10024.37
300.9210, 9989.565
301.4031, 9969.784
301.8852, 9978.315
302.3673, 9999.559
302.8495, 10016.70
303.3316, 10029.33
303.8137, 10034.71
304.2958, 10020.90
304.7779, 9998.808
305.2600, 9988.490
305.7422, 10018.19
306.2243, 10049.60
306.7064, 10035.92
307.1885, 9979.368
307.6706, 9926.646
308.1527, 9921.117
308.6349, 9937.649
309.1170, 9941.539
309.5991, 9902.946
310.0812, 9859.815
310.5633, 9844.010
311.0454, 9853.861
311.5276, 9861.284
312.0097, 9842.395
312.4918, 9814.451
312.9739, 9796.481
313.4560, 9819.371
313.9381, 9834.264
314.4203, 9800.784
314.9024, 9723.394
315.3845, 9664.313
315.8666, 9664.817
316.3487, 9692.155
316.8308, 9715.377
317.3130, 9730.836
317.7951, 9735.157
318.2772, 9723.150
318.7593, 9696.006
319.2414, 9667.143
319.7235, 9633.366
320.2057, 9603.578
320.6878, 9584.856
321.1699, 9576.969
321.6520, 9582.375
322.1341, 9616.960
322.6162, 9675.588
323.0984, 9704.625
323.5805, 9667.084
324.0626, 9612.544
324.5447, 9574.454
325.0268, 9561.260
325.5089, 9560.279
325.9911, 9579.683
326.4732, 9616.008
326.9553, 9635.311
327.4374, 9616.479
327.9195, 9592.452
328.4016, 9582.353
328.8838, 9615.392
329.3659, 9624.803
329.8480, 9592.082
330.3301, 9526.188
330.8122, 9483.870
331.2943, 9477.595
331.7765, 9481.876
332.2586, 9482.980
332.7407, 9479.295
333.2228, 9475.590
333.7049, 9473.259
334.1870, 9471.371
334.6692, 9465.812
335.1513, 9456.652
335.6334, 9444.136
336.1155, 9427.029
336.5976, 9401.553
337.0797, 9383.747
337.5619, 9376.373
338.0440, 9376.431
338.5261, 9377.457
339.0082, 9381.817
339.4903, 9379.735
339.9724, 9363.434
340.4546, 9330.705
340.9367, 9300.785
341.4188, 9273.827
341.9009, 9250.760
342.3830, 9235.402
342.8651, 9228.938
343.3473, 9221.172
343.8294, 9204.104
344.3115, 9179.052
344.7936, 9162.140
345.2757, 9154.090
345.7578, 9154.974
346.2400, 9172.636
346.7221, 9205.339
347.2042, 9226.443
347.6863, 9212.950
348.1684, 9176.238
348.6505, 9153.365
349.1327, 9146.279
349.6148, 9149.049
350.0969, 9156.701
350.5790, 9168.379
351.0611, 9181.536
351.5432, 9205.756
352.0254, 9226.772
352.5075, 9217.935
352.9896, 9176.086
353.4717, 9125.484
353.9538, 9080.842
354.4359, 9044.017
354.9181, 9020.104
355.4002, 9022.720
355.8823, 9032.506
356.3644, 9028.184
356.8465, 9009.456
357.3286, 8997.291
357.8108, 9017.090
358.2929, 9048.568
358.7750, 9065.516
359.2571, 9049.508
359.7392, 9023.963
360.2213, 8995.729
360.7035, 8965.878
361.1856, 8947.190
361.6677, 8959.727
362.1498, 8978.828
362.6319, 8983.237
363.1140, 8946.330
363.5962, 8915.044
364.0783, 8908.427
364.5604, 8922.483
365.0425, 8928.913
365.5246, 8921.428
366.0067, 8904.080
366.4889, 8879.524
366.9710, 8816.536
367.4531, 8782.983
367.9352, 8809.475
368.4173, 8878.004
368.8994, 8908.219
369.3815, 8865.333
369.8636, 8813.118
370.3458, 8778.455
370.8279, 8763.212
371.3100, 8762.843
371.7921, 8787.457
372.2742, 8824.684
372.7563, 8843.145
373.2385, 8833.884
373.7206, 8820.118
374.2027, 8810.493
374.6848, 8805.586
375.1669, 8802.946
375.6490, 8804.694
376.1312, 8806.432
376.6133, 8798.741
377.0954, 8778.184
377.5775, 8762.222
378.0596, 8759.660
378.5417, 8770.056
379.0239, 8772.479
379.5060, 8763.599
379.9881, 8756.859
380.4702, 8778.063
380.9523, 8825.811
381.4344, 8854.375
381.9166, 8840.998
382.3987, 8798.782
382.8808, 8765.403
383.3629, 8741.301
383.8450, 8721.734
384.3271, 8699.114
384.8093, 8676.849
385.2914, 8667.558
385.7735, 8682.941
386.2556, 8705.354
386.7377, 8710.580
387.2198, 8699.952
387.7020, 8683.436
388.1841, 8659.083
388.6662, 8636.241
389.1483, 8629.948
389.6304, 8656.565
390.1125, 8680.486
390.5947, 8667.285
391.0768, 8628.040
391.5589, 8597.313
392.0410, 8607.776
392.5231, 8624.156
393.0052, 8602.938
393.4874, 8618.084
393.9695, 8624.844
394.4516, 8623.666
394.9337, 8590.778
395.4158, 8598.838
395.8979, 8590.487
396.3801, 8581.463
396.8622, 8595.285
397.3443, 8567.009
397.8264, 8580.470
398.3085, 8577.270
398.7906, 8581.695
399.2728, 8569.608
399.7549, 8562.621
400.2370, 8572.152
400.7191, 8572.537
401.2012, 8558.550
401.6833, 8563.460
402.1655, 8534.606
402.6476, 8535.381
403.1297, 8548.938
403.6118, 8535.782
404.0939, 8540.994
404.5760, 8516.430
405.0582, 8529.145
405.5403, 8520.006
406.0224, 8480.598
406.5045, 8443.903
406.9866, 8438.997
407.4688, 8468.409
407.9509, 8479.804
408.4330, 8461.583
408.9151, 8431.001
409.3972, 8426.710
409.8793, 8448.738
410.3615, 8472.344
410.8436, 8486.707
411.3257, 8491.842
411.8078, 8485.499
412.2899, 8465.860
412.7720, 8442.777
413.2542, 8426.393
413.7363, 8416.154
414.2184, 8410.052
414.7005, 8405.903
415.1826, 8406.162
415.6647, 8417.174
416.1469, 8439.143
416.6290, 8458.135
417.1111, 8461.921
417.5932, 8456.971
418.0753, 8451.719
418.5574, 8452.368
419.0396, 8450.188
419.5217, 8433.194
420.0038, 8405.388
420.4859, 8392.604
420.9680, 8434.972
421.4501, 8477.920
421.9323, 8481.664
422.4144, 8395.855
422.8965, 8331.134
423.3786, 8315.421
423.8607, 8335.758
424.3428, 8353.962
424.8250, 8372.219
425.3071, 8383.842
425.7892, 8384.813
426.2713, 8367.706
426.7534, 8360.648
427.2355, 8368.749
427.7177, 8383.581
428.1998, 8393.191
428.6819, 8397.084
429.1640, 8395.662
429.6461, 8386.184
430.1282, 8368.825
430.6104, 8358.355
431.0925, 8354.217
431.5746, 8357.376
432.0567, 8374.372
432.5388, 8405.784
433.0209, 8424.756
433.5031, 8425.852
433.9852, 8410.891
434.4673, 8374.720
434.9494, 8318.342
435.4315, 8273.470
435.9136, 8274.491
436.3958, 8305.081
436.8779, 8323.038
437.3600, 8320.718
437.8421, 8309.629
438.3242, 8297.725
438.8063, 8286.669
439.2885, 8280.951
439.7706, 8290.285
440.2527, 8301.582
440.7348, 8298.868
441.2169, 8278.860
441.6990, 8266.249
442.1812, 8283.106
442.6633, 8312.097
443.1454, 8332.791
443.6275, 8338.738
444.1096, 8335.092
444.5917, 8315.935
445.0739, 8283.213
445.5560, 8264.007
446.0381, 8281.009
446.5202, 8301.382
447.0023, 8305.785
447.4844, 8269.678
447.9666, 8248.053
448.4487, 8250.795
448.9308, 8267.684
449.4129, 8269.358
449.8950, 8243.775
450.3771, 8223.208
450.8593, 8224.992
451.3413, 8256.806
451.8235, 8263.646
452.3056, 8236.809
452.7877, 8198.889
453.2698, 8179.354
453.7519, 8179.380
454.2340, 8186.176
454.7162, 8199.409
455.1983, 8215.721
455.6804, 8222.006
456.1625, 8217.737
456.6446, 8212.046
457.1267, 8216.664
457.6089, 8226.132
458.0910, 8222.970
458.5731, 8196.411
459.0552, 8169.117
459.5373, 8173.635
460.0194, 8201.677
460.5016, 8225.871
460.9837, 8224.891
461.4658, 8216.293
461.9479, 8218.494
462.4300, 8236.904
462.9121, 8247.516
463.3943, 8224.637
463.8764, 8168.892
464.3585, 8192.366
464.8406, 8204.506
465.3227, 8205.920
465.8048, 8164.482
466.2870, 8178.377
466.7691, 8170.098
467.2512, 8160.910
467.7333, 8182.593
468.2154, 8147.388
468.6975, 8168.583
469.1797, 8167.263
469.6618, 8176.247
470.1439, 8162.919
470.6260, 8156.483
471.1081, 8172.367
471.5902, 8175.891
472.0724, 8159.995
472.5545, 8169.634
473.0366, 8133.650
473.5187, 8137.701
474.0008, 8159.026
474.4829, 8144.251
474.9651, 8154.298
475.4472, 8154.892
475.9293, 8112.524
476.4114, 8144.872
476.8935, 8144.907
477.3756, 8111.765
477.8578, 8141.551
478.3399, 8112.983
478.8220, 8105.245
479.3041, 8113.181
479.7862, 8104.776
480.2683, 8122.135
480.7505, 8114.674
481.2326, 8104.996
481.7147, 8104.995
482.1968, 8077.571
482.6789, 8101.022
483.1610, 8089.721
483.6432, 8095.694
484.1253, 8105.583
484.6074, 8085.492
485.0895, 8097.140
485.5716, 8059.567
486.0537, 8063.180
486.5359, 8062.356
487.0180, 8087.858
487.5001, 8050.526
487.9822, 8052.994
488.4643, 8072.408
488.9464, 8068.111
489.4286, 8073.727
489.9107, 8049.993
490.3928, 8053.832
490.8749, 8050.070
491.3570, 8072.571
491.8391, 8074.339
492.3213, 8078.793
492.8034, 8101.629
493.2855, 8104.072
493.7676, 8091.736
494.2497, 8074.542
494.7318, 8052.922
495.2140, 8035.804
495.6961, 8037.165
496.1782, 8046.766
496.6603, 8044.824
497.1424, 8020.710
497.6245, 7998.351
498.1067, 7997.704
498.5888, 8012.947
499.0709, 8030.499
499.5530, 8042.115
500.0351, 8055.911
500.5172, 8082.949
500.9994, 8127.813
501.4815, 8150.101
501.9636, 8118.758
502.4457, 8071.643
502.9278, 8042.892
503.4099, 8042.397
503.8921, 8051.359
504.3742, 8077.907
504.8563, 8114.261
505.3384, 8125.482
505.8205, 8101.563
506.3026, 8072.668
506.7848, 8052.489
507.2669, 8041.773
507.7490, 8035.498
508.2311, 8034.188
508.7132, 8036.701
509.1953, 8044.207
509.6775, 8055.830
510.1596, 8061.660
510.6417, 8055.416
511.1238, 8042.929
511.6059, 8031.599
512.0880, 8022.001
512.5701, 8022.933
513.0522, 8054.347
513.5344, 8094.152
514.0165, 8112.239
514.4986, 8097.213
514.9807, 8077.774
515.4628, 8068.656
515.9449, 8067.672
516.4271, 8071.181
516.9092, 8090.652
517.3913, 8102.813
517.8734, 8092.294
518.3555, 8057.522
518.8376, 8038.625
519.3198, 8060.187
519.8019, 8084.952
520.2840, 8090.007
520.7661, 8064.188
521.2482, 8040.065
521.7303, 8016.438
522.2125, 7996.595
522.6946, 7989.238
523.1767, 7996.170
523.6588, 8007.399
524.1409, 8021.876
524.6230, 8038.024
525.1052, 8042.776
525.5873, 8034.437
526.0694, 8028.202
526.5515, 8045.076
527.0336, 8076.521
527.5157, 8097.575
527.9979, 8100.224
528.4800, 8093.351
528.9621, 8077.425
529.4442, 8058.178
529.9263, 8052.055
530.4084, 8085.170
530.8906, 8121.896
531.3727, 8134.110
531.8548, 8116.260
532.3369, 8101.527
532.8190, 8103.600
533.3011, 8112.244
533.7833, 8118.113
534.2654, 8114.211
534.7475, 8114.376
535.2296, 8122.581
535.7117, 8135.872
536.1938, 8143.293
536.6760, 8141.062
537.1581, 8140.458
537.6402, 8148.461
538.1223, 8166.480
538.6044, 8172.881
539.0865, 8143.479
539.5687, 8173.867
540.0508, 8192.918
540.5329, 8201.243
541.0150, 8166.718
541.4971, 8187.525
541.9792, 8186.158
542.4614, 8183.883
542.9435, 8212.478
543.4256, 8184.185
543.9077, 8212.292
544.3898, 8217.884
544.8719, 8233.780
545.3541, 8227.366
545.8362, 8227.842
546.3183, 8250.638
546.8004, 8261.074
547.2825, 8252.090
547.7646, 8268.642
548.2468, 8239.571
548.7289, 8250.534
549.2110, 8278.771
549.6931, 8270.909
550.1752, 8287.868
550.6573, 8295.375
551.1395, 8259.921
551.6216, 8299.180
552.1037, 8306.127
552.5858, 8279.898
553.0679, 8316.597
553.5500, 8294.941
554.0322, 8366.462
554.5143, 8410.629
554.9964, 8411.235
555.4785, 8389.854
555.9606, 8383.603
556.4427, 8390.423
556.9249, 8399.276
557.4070, 8405.041
557.8891, 8408.388
558.3712, 8408.457
558.8533, 8404.448
559.3354, 8403.806
559.8176, 8413.868
560.2997, 8427.754
560.7818, 8438.445
561.2639, 8440.461
561.7460, 8442.807
562.2281, 8443.594
562.7103, 8445.362
563.1924, 8458.209
563.6745, 8496.941
564.1566, 8526.659
564.6387, 8529.165
565.1208, 8499.193
565.6030, 8498.996
566.0851, 8538.936
566.5672, 8585.095
567.0493, 8601.619
567.5314, 8589.703
568.0135, 8579.189
568.4957, 8577.704
568.9778, 8576.724
569.4599, 8554.655
569.9420, 8518.021
570.4241, 8495.309
570.9063, 8513.034
571.3884, 8544.952
571.8705, 8564.337
572.3526, 8569.848
572.8347, 8576.390
573.3168, 8594.925
573.7990, 8615.992
574.2811, 8631.246
574.7632, 8634.836
575.2453, 8638.687
575.7274, 8647.917
576.2095, 8658.077
576.6917, 8659.903
577.1738, 8648.759
577.6559, 8636.479
578.1380, 8623.713
578.6201, 8611.142
579.1022, 8610.834
579.5844, 8623.502
580.0665, 8645.537
580.5486, 8681.374
581.0307, 8727.554
581.5128, 8755.981
581.9949, 8761.343
582.4771, 8756.241
582.9592, 8750.890
583.4413, 8747.070
583.9234, 8749.178
584.4055, 8765.969
584.8876, 8784.017
585.3698, 8792.336
585.8519, 8792.533
586.3340, 8793.382
586.8161, 8783.406
587.2982, 8786.598
587.7803, 8823.558
588.2625, 8924.139
588.7446, 8984.720
589.2267, 8980.136
589.7088, 8948.336
590.1909, 8927.777
590.6730, 8918.840
591.1552, 8921.456
591.6373, 8939.375
592.1194, 8966.513
592.6015, 8984.958
593.0836, 8994.327
593.5657, 9000.820
594.0479, 9006.945
594.5300, 9012.755
595.0121, 9022.933
595.4942, 9038.019
595.9763, 9040.332
596.4584, 8990.288
596.9406, 8927.256
597.4227, 8905.639
597.9048, 8964.199
598.3869, 9022.197
598.8690, 9040.931
599.3511, 9033.202
599.8333, 9024.428
600.3154, 9005.207
600.7975, 9001.664
601.2796, 9033.124
601.7617, 9098.112
602.2438, 9120.601
602.7260, 9078.347
603.2081, 9032.825
603.6902, 9029.821
604.1723, 9074.573
604.6544, 9090.176
605.1365, 9065.793
605.6187, 9034.276
606.1008, 9045.544
606.5829, 9089.630
607.0650, 9125.043
607.5471, 9139.660
608.0292, 9138.164
608.5114, 9111.015
608.9935, 9068.539
609.4756, 9047.265
609.9577, 9089.653
610.4398, 9141.460
610.9219, 9167.819
611.4041, 9162.322
611.8862, 9157.199
612.3683, 9149.218
612.8504, 9150.200
613.3325, 9170.666
613.8146, 9231.811
614.2968, 9269.982
614.7789, 9275.789
615.2610, 9262.848
615.7431, 9255.725
616.2252, 9254.571
616.7073, 9257.514
617.1895, 9263.238
617.6716, 9272.950
618.1537, 9297.744
618.6358, 9335.704
619.1179, 9358.310
619.6000, 9330.926
620.0822, 9283.489
620.5643, 9252.089
621.0464, 9242.244
621.5285, 9241.517
622.0106, 9243.006
622.4927, 9250.142
622.9749, 9266.635
623.4570, 9319.604
623.9391, 9350.246
624.4212, 9335.051
624.9033, 9293.644
625.3854, 9276.282
625.8676, 9291.118
626.3497, 9313.042
626.8318, 9339.803
627.3139, 9368.488
627.7960, 9362.622
628.2781, 9317.387
628.7603, 9276.737
629.2424, 9283.752
629.7245, 9322.796
630.2066, 9354.207
630.6887, 9372.723
631.1708, 9384.008
631.6530, 9391.030
632.1351, 9394.634
632.6172, 9396.107
633.0993, 9391.814
633.5814, 9389.878
634.0635, 9396.047
634.5457, 9407.670
635.0278, 9414.434
635.5099, 9415.608
635.9920, 9410.928
636.4741, 9393.109
636.9562, 9359.535
637.4384, 9371.382
637.9205, 9449.219
638.4026, 9516.305
638.8847, 9484.176
639.3668, 9368.076
639.8489, 9323.578
640.3311, 9382.347
640.8132, 9460.359
641.2953, 9445.770
641.7774, 9375.693
642.2595, 9331.527
642.7416, 9363.646
643.2238, 9412.213
643.7059, 9452.191
644.1880, 9479.769
644.6701, 9483.378
645.1522, 9422.648
645.6343, 9370.691
646.1165, 9362.149
646.5986, 9401.560
647.0807, 9436.815
647.5628, 9474.419
648.0449, 9499.103
648.5270, 9492.031
649.0092, 9449.253
649.4913, 9428.490
649.9734, 9436.023
650.4555, 9459.636
650.9376, 9487.330
651.4197, 9517.898
651.9019, 9547.978
652.3840, 9590.442
652.8661, 9614.705
653.3482, 9571.322
653.8303, 9482.250
654.3124, 9414.856
654.7946, 9400.825
655.2767, 9411.391
655.7588, 9441.855
656.2409, 9494.798
656.7230, 9526.658
657.2051, 9526.712
657.6872, 9515.394
658.1693, 9502.729
658.6514, 9487.013
659.1335, 9479.788
659.6157, 9484.319
660.0978, 9491.049
660.5799, 9486.544
661.0620, 9472.733
661.5441, 9458.480
662.0262, 9443.201
662.5084, 9433.758
662.9905, 9450.022
663.4726, 9480.001
663.9547, 9490.998
664.4368, 9439.884
664.9189, 9389.576
665.4011, 9377.052
665.8832, 9402.032
666.3653, 9423.576
666.8474, 9434.175
667.3295, 9439.847
667.8116, 9442.966
668.2938, 9443.706
668.7759, 9438.624
669.2580, 9424.591
669.7401, 9411.598
670.2222, 9413.390
670.7043, 9428.335
671.1865, 9438.034
671.6686, 9438.470
672.1507, 9435.101
672.6328, 9437.151
673.1149, 9441.039
673.5970, 9437.872
674.0792, 9418.656
674.5613, 9396.364
675.0434, 9374.258
675.5255, 9354.085
676.0076, 9343.679
676.4897, 9350.618
676.9719, 9361.678
677.4540, 9373.211
677.9361, 9385.588
678.4182, 9391.753
678.9003, 9389.917
679.3824, 9384.935
679.8646, 9380.541
680.3467, 9376.468
680.8288, 9369.874
681.3109, 9359.523
681.7930, 9350.518
682.2751, 9355.465
682.7573, 9365.354
683.2394, 9360.807
683.7215, 9321.241
684.2036, 9285.375
684.6857, 9280.699
685.1678, 9296.126
685.6500, 9305.679
686.1321, 9287.655
686.6142, 9280.617
687.0963, 9304.966
687.5784, 9354.556
688.0605, 9366.673
688.5427, 9326.363
689.0248, 9286.882
689.5069, 9281.240
689.9890, 9305.822
690.4711, 9320.234
690.9532, 9323.588
691.4354, 9321.274
691.9175, 9317.475
692.3996, 9311.465
692.8817, 9301.792
693.3638, 9287.265
693.8459, 9271.526
694.3281, 9251.523
694.8102, 9233.254
695.2923, 9224.887
695.7744, 9229.474
696.2565, 9243.104
696.7386, 9270.741
697.2208, 9305.720
697.7029, 9332.567
698.1850, 9353.542
698.6671, 9357.325
699.1492, 9332.274
699.6313, 9289.185
700.1135, 9264.288
700.5956, 9257.259
701.0777, 9263.450
701.5598, 9296.728
