##NAMES=Pyrope
##RRUFFID=R070637
##IDEAL CHEMISTRY=Mg_3_Al_2_(SiO_4_)_3_
##LOCALITY=Dora Maira Massif, Piedmont, Italy
##OWNER=RRUFF
##SOURCE=Jibamitra Ganguly
##DESCRIPTION=Colorless massive, associated with muscovite, quartz and small black rutile
##STATUS=The identification of this mineral has been confirmed by single-crystal X-ray diffraction.
##URL=rruff.info/R070637
154.8397, 10107.30
155.3218, 10113.20
155.8039, 10074.90
156.2860, 10059.44
156.7682, 10093.93
157.2503, 10153.31
157.7324, 10206.88
158.2145, 10261.99
158.6966, 10298.34
159.1787, 10300.62
159.6609, 10243.97
160.1430, 10206.13
160.6251, 10231.77
161.1072, 10295.37
161.5893, 10337.91
162.0714, 10316.13
162.5536, 10278.44
163.0357, 10258.00
163.5178, 10276.40
163.9999, 10298.63
164.4820, 10308.97
164.9641, 10309.00
165.4463, 10307.95
165.9284, 10308.24
166.4105, 10310.43
166.8926, 10315.09
167.3747, 10316.73
167.8568, 10324.52
168.3390, 10347.93
168.8211, 10387.58
169.3032, 10427.74
169.7853, 10438.92
170.2674, 10444.30
170.7495, 10484.57
171.2317, 10609.31
171.7138, 10763.99
172.1959, 10895.13
172.6780, 10995.36
173.1601, 11077.44
173.6422, 11149.06
174.1244, 11210.98
174.6065, 11263.78
175.0886, 11316.32
175.5707, 11358.85
176.0528, 11376.26
176.5349, 11362.13
177.0171, 11326.40
177.4992, 11277.39
177.9813, 11215.64
178.4634, 11143.15
178.9455, 11048.45
179.4276, 10943.72
179.9098, 10855.25
180.3919, 10795.27
180.8740, 10754.10
181.3561, 10715.93
181.8382, 10681.16
182.3203, 10645.96
182.8025, 10600.82
183.2846, 10550.44
183.7667, 10511.72
184.2488, 10498.10
184.7309, 10502.33
185.2130, 10505.84
185.6951, 10509.25
186.1773, 10509.91
186.6594, 10498.67
187.1415, 10477.52
187.6236, 10465.47
188.1057, 10483.82
188.5878, 10523.60
189.0700, 10536.00
189.5521, 10504.87
190.0342, 10463.23
190.5163, 10481.54
190.9984, 10561.27
191.4805, 10642.85
191.9627, 10676.43
192.4448, 10666.14
192.9269, 10667.23
193.4090, 10692.93
193.8911, 10733.28
194.3732, 10754.08
194.8554, 10751.42
195.3375, 10752.90
195.8196, 10795.78
196.3017, 10881.70
196.7838, 10942.71
197.2659, 10953.62
197.7481, 10923.43
198.2302, 10907.74
198.7123, 10906.09
199.1944, 10921.13
199.6765, 10963.64
200.1586, 11038.83
200.6408, 11105.38
201.1229, 11141.06
201.6050, 11144.72
202.0871, 11175.34
202.5692, 11234.91
203.0513, 11317.84
203.5335, 11420.32
204.0156, 11547.15
204.4977, 11672.19
204.9798, 11778.10
205.4619, 11857.95
205.9440, 11963.83
206.4262, 12108.13
206.9083, 12270.89
207.3904, 12400.80
207.8725, 12491.10
208.3546, 12566.17
208.8367, 12647.88
209.3189, 12749.97
209.8010, 12800.03
210.2831, 12786.80
210.7652, 12718.56
211.2473, 12626.24
211.7294, 12500.93
212.2116, 12369.46
212.6937, 12257.39
213.1758, 12175.00
213.6579, 12074.80
214.1400, 11937.56
214.6221, 11768.12
215.1043, 11645.22
215.5864, 11579.59
216.0685, 11543.63
216.5506, 11514.42
217.0327, 11497.49
217.5148, 11472.24
217.9970, 11427.98
218.4791, 11362.48
218.9612, 11320.71
219.4433, 11311.83
219.9254, 11317.11
220.4075, 11311.61
220.8897, 11288.55
221.3718, 11267.64
221.8539, 11256.19
222.3360, 11256.90
222.8181, 11251.44
223.3002, 11236.52
223.7824, 11217.27
224.2645, 11200.28
224.7466, 11174.34
225.2287, 11170.24
225.7108, 11209.36
226.1929, 11325.60
226.6750, 11387.83
227.1572, 11370.73
227.6393, 11306.97
228.1214, 11280.99
228.6035, 11307.64
229.0856, 11350.39
229.5677, 11392.95
230.0499, 11434.83
230.5320, 11477.00
231.0141, 11524.26
231.4962, 11571.63
231.9783, 11597.42
232.4604, 11588.12
232.9426, 11574.11
233.4247, 11575.83
233.9068, 11609.73
234.3889, 11625.49
234.8710, 11617.42
235.3531, 11586.73
235.8353, 11541.94
236.3174, 11467.79
236.7995, 11397.14
237.2816, 11356.94
237.7637, 11365.52
238.2458, 11368.97
238.7280, 11354.58
239.2101, 11322.94
239.6922, 11314.04
240.1743, 11343.37
240.6564, 11379.99
241.1385, 11392.40
241.6207, 11357.79
242.1028, 11340.27
242.5849, 11359.39
243.0670, 11419.88
243.5491, 11454.10
244.0313, 11445.59
244.5134, 11424.56
244.9955, 11428.82
245.4776, 11481.12
245.9597, 11519.34
246.4418, 11526.67
246.9240, 11498.30
247.4061, 11465.23
247.8882, 11417.74
248.3703, 11372.99
248.8524, 11359.95
249.3345, 11402.05
249.8167, 11435.11
250.2988, 11434.96
250.7809, 11387.07
251.2630, 11364.64
251.7451, 11378.90
252.2272, 11411.89
252.7094, 11431.12
253.1915, 11429.38
253.6736, 11425.83
254.1557, 11427.55
254.6378, 11436.75
255.1199, 11444.42
255.6021, 11450.92
256.0842, 11455.68
256.5663, 11456.30
257.0484, 11448.70
257.5305, 11444.26
258.0126, 11448.92
258.4948, 11467.10
258.9769, 11482.22
259.4590, 11492.23
259.9411, 11500.11
260.4232, 11512.65
260.9053, 11526.61
261.3875, 11551.66
261.8696, 11599.00
262.3517, 11682.23
262.8338, 11740.88
263.3159, 11764.65
263.7980, 11763.28
264.2802, 11767.19
264.7623, 11774.15
265.2444, 11790.39
265.7265, 11821.42
266.2086, 11869.88
266.6907, 11921.47
267.1729, 11978.42
267.6550, 12036.05
268.1371, 12073.50
268.6192, 12079.04
269.1013, 12089.20
269.5834, 12135.97
270.0656, 12231.05
270.5477, 12302.60
271.0298, 12330.64
271.5119, 12329.80
271.9940, 12368.32
272.4761, 12458.20
272.9583, 12556.61
273.4404, 12633.60
273.9225, 12686.79
274.4046, 12730.53
274.8867, 12763.56
275.3688, 12789.61
275.8510, 12828.48
276.3331, 12883.91
276.8152, 12940.63
277.2973, 12987.93
277.7794, 13026.07
278.2615, 13052.97
278.7437, 13069.26
279.2258, 13073.97
279.7079, 13063.50
280.1900, 13038.71
280.6721, 12995.89
281.1542, 12925.45
281.6364, 12825.85
282.1185, 12729.74
282.6006, 12645.29
283.0827, 12569.04
283.5648, 12482.90
284.0469, 12383.70
284.5291, 12291.35
285.0112, 12223.21
285.4933, 12179.04
285.9754, 12154.61
286.4575, 12157.08
286.9396, 12176.38
287.4217, 12172.39
287.9038, 12141.15
288.3860, 12113.36
288.8681, 12131.08
289.3502, 12187.39
289.8323, 12221.24
290.3144, 12202.62
290.7965, 12153.08
291.2787, 12136.17
291.7608, 12154.23
292.2429, 12178.65
292.7250, 12178.66
293.2071, 12159.68
293.6892, 12148.67
294.1714, 12159.26
294.6535, 12181.79
295.1356, 12193.81
295.6177, 12195.15
296.0998, 12196.83
296.5819, 12210.96
297.0641, 12234.71
297.5462, 12258.23
298.0283, 12283.19
298.5104, 12303.58
298.9925, 12306.18
299.4746, 12290.81
299.9568, 12271.98
300.4389, 12258.03
300.9210, 12249.85
301.4031, 12249.48
301.8852, 12260.86
302.3673, 12278.12
302.8495, 12293.65
303.3316, 12307.19
303.8137, 12322.23
304.2958, 12349.86
304.7779, 12379.96
305.2600, 12393.87
305.7422, 12363.28
306.2243, 12326.95
306.7064, 12329.86
307.1885, 12370.09
307.6706, 12408.62
308.1527, 12408.28
308.6349, 12391.50
309.1170, 12389.31
309.5991, 12427.10
310.0812, 12473.79
310.5633, 12503.45
311.0454, 12517.74
311.5276, 12539.31
312.0097, 12595.00
312.4918, 12660.88
312.9739, 12710.88
313.4560, 12705.99
313.9381, 12707.13
314.4203, 12759.94
314.9024, 12860.17
315.3845, 12945.10
315.8666, 12965.68
316.3487, 12965.31
316.8308, 12984.94
317.3130, 13036.17
317.7951, 13110.18
318.2772, 13218.05
318.7593, 13355.44
319.2414, 13471.87
319.7235, 13543.44
320.2057, 13591.06
320.6878, 13631.32
321.1699, 13679.92
321.6520, 13709.80
322.1341, 13708.21
322.6162, 13677.86
323.0984, 13644.65
323.5805, 13598.11
324.0626, 13559.67
324.5447, 13543.84
325.0268, 13579.47
325.5089, 13608.38
325.9911, 13617.19
326.4732, 13608.25
326.9553, 13608.81
327.4374, 13632.82
327.9195, 13657.91
328.4016, 13670.96
328.8838, 13645.67
329.3659, 13640.51
329.8480, 13667.26
330.3301, 13720.04
330.8122, 13763.55
331.2943, 13791.99
331.7765, 13816.89
332.2586, 13845.25
332.7407, 13883.50
333.2228, 13912.76
333.7049, 13923.67
334.1870, 13924.78
334.6692, 13955.18
335.1513, 14037.28
335.6334, 14113.87
336.1155, 14146.17
336.5976, 14111.37
337.0797, 14109.06
337.5619, 14158.93
338.0440, 14238.39
338.5261, 14274.49
339.0082, 14250.96
339.4903, 14232.02
339.9724, 14262.27
340.4546, 14350.80
340.9367, 14406.55
341.4188, 14416.18
341.9009, 14401.94
342.3830, 14412.18
342.8651, 14449.42
343.3473, 14488.70
343.8294, 14515.48
344.3115, 14531.48
344.7936, 14552.01
345.2757, 14579.09
345.7578, 14609.69
346.2400, 14636.14
346.7221, 14659.10
347.2042, 14692.36
347.6863, 14748.59
348.1684, 14821.10
348.6505, 14886.96
349.1327, 14943.62
349.6148, 15001.59
350.0969, 15056.12
350.5790, 15117.00
351.0611, 15223.38
351.5432, 15442.14
352.0254, 15700.95
352.5075, 15875.41
352.9896, 15952.59
353.4717, 16021.51
353.9538, 16167.82
354.4359, 16364.82
354.9181, 16556.05
355.4002, 16702.99
355.8823, 16842.96
356.3644, 17009.10
356.8465, 17202.51
357.3286, 17412.46
357.8108, 17647.55
358.2929, 17892.53
358.7750, 18132.07
359.2571, 18358.43
359.7392, 18579.69
360.2213, 18811.31
360.7035, 19050.44
361.1856, 19256.26
361.6677, 19404.70
362.1498, 19514.06
362.6319, 19602.03
363.1140, 19682.33
363.5962, 19731.88
364.0783, 19761.24
364.5604, 19762.94
365.0425, 19685.90
365.5246, 19492.51
366.0067, 19232.31
366.4889, 18936.95
366.9710, 18551.15
367.4531, 18197.12
367.9352, 17898.32
368.4173, 17643.79
368.8994, 17383.73
369.3815, 17104.84
369.8636, 16832.63
370.3458, 16580.50
370.8279, 16344.67
371.3100, 16131.05
371.7921, 15933.28
372.2742, 15757.68
372.7563, 15625.14
373.2385, 15566.18
373.7206, 15501.33
374.2027, 15393.09
374.6848, 15224.10
375.1669, 15084.39
375.6490, 14974.94
376.1312, 14893.74
376.6133, 14841.31
377.0954, 14824.39
377.5775, 14808.76
378.0596, 14780.44
378.5417, 14740.50
379.0239, 14701.38
379.5060, 14660.39
379.9881, 14629.63
380.4702, 14641.33
380.9523, 14693.01
381.4344, 14709.60
381.9166, 14651.84
382.3987, 14543.53
382.8808, 14454.41
383.3629, 14386.23
383.8450, 14318.39
384.3271, 14229.43
384.8093, 14124.59
385.2914, 14021.48
385.7735, 13920.40
386.2556, 13829.14
386.7377, 13766.82
387.2198, 13730.60
387.7020, 13696.77
388.1841, 13648.98
388.6662, 13594.19
389.1483, 13539.44
389.6304, 13480.87
390.1125, 13433.52
390.5947, 13411.84
391.0768, 13411.12
391.5589, 13416.88
392.0410, 13435.38
392.5231, 13449.51
393.0052, 13446.04
393.4874, 13418.75
393.9695, 13383.30
394.4516, 13335.07
394.9337, 13283.38
395.4158, 13245.38
395.8979, 13234.00
396.3801, 13229.62
396.8622, 13226.43
397.3443, 13225.88
397.8264, 13217.99
398.3085, 13190.90
398.7906, 13159.09
399.2728, 13140.23
399.7549, 13136.53
400.2370, 13144.02
400.7191, 13167.30
401.2012, 13208.42
401.6833, 13237.09
402.1655, 13251.17
402.6476, 13255.22
403.1297, 13252.76
403.6118, 13243.53
404.0939, 13228.55
404.5760, 13206.09
405.0582, 13178.00
405.5403, 13153.08
406.0224, 13129.83
406.5045, 13114.53
406.9866, 13116.31
407.4688, 13136.55
407.9509, 13146.35
408.4330, 13141.75
408.9151, 13126.28
409.3972, 13100.38
409.8793, 13064.11
410.3615, 13040.30
410.8436, 13051.86
411.3257, 13087.38
411.8078, 13107.22
412.2899, 13107.59
412.7720, 13098.98
413.2542, 13093.71
413.7363, 13089.90
414.2184, 13081.53
414.7005, 13055.60
415.1826, 13028.92
415.6647, 13025.95
416.1469, 13047.60
416.6290, 13068.19
417.1111, 13066.64
417.5932, 13053.21
418.0753, 13041.48
418.5574, 13028.58
419.0396, 13024.57
419.5217, 13037.53
420.0038, 13065.34
420.4859, 13095.30
420.9680, 13141.35
421.4501, 13176.40
421.9323, 13180.80
422.4144, 13139.60
422.8965, 13085.13
423.3786, 13007.27
423.8607, 12918.99
424.3428, 12856.08
424.8250, 12825.83
425.3071, 12818.05
425.7892, 12833.02
426.2713, 12884.81
426.7534, 12922.38
427.2355, 12938.12
427.7177, 12944.22
428.1998, 12957.46
428.6819, 12977.74
429.1640, 13004.37
429.6461, 13040.54
430.1282, 13085.01
430.6104, 13116.02
431.0925, 13129.75
431.5746, 13138.06
432.0567, 13154.20
432.5388, 13178.38
433.0209, 13195.73
433.5031, 13204.48
433.9852, 13203.44
434.4673, 13184.05
434.9494, 13147.10
435.4315, 13113.73
435.9136, 13108.37
436.3958, 13118.88
436.8779, 13111.25
437.3600, 13076.49
437.8421, 13036.13
438.3242, 13013.75
438.8063, 13005.24
439.2885, 12998.74
439.7706, 12981.53
440.2527, 12967.39
440.7348, 12971.71
441.2169, 12997.17
441.6990, 13023.87
442.1812, 13042.88
442.6633, 13055.85
443.1454, 13065.05
443.6275, 13072.99
444.1096, 13075.01
444.5917, 13058.13
445.0739, 13025.42
445.5560, 13019.98
446.0381, 13084.34
446.5202, 13155.37
447.0023, 13195.89
447.4844, 13179.90
447.9666, 13163.85
448.4487, 13149.85
448.9308, 13136.22
449.4129, 13116.33
449.8950, 13081.38
450.3771, 12963.34
450.8592, 13087.19
451.3413, 13160.90
451.8235, 13187.16
452.3056, 13023.87
452.7877, 13105.34
453.2698, 13088.73
453.7519, 13068.09
454.2340, 13184.02
454.7162, 13048.30
455.1983, 13162.06
455.6804, 13176.23
456.1625, 13235.99
456.6446, 13197.04
457.1267, 13188.58
457.6089, 13278.85
458.0910, 13314.45
458.5731, 13264.14
459.0552, 13326.79
459.5373, 13187.62
460.0194, 13225.55
460.5016, 13339.89
460.9837, 13294.55
461.4658, 13359.00
461.9479, 13381.64
462.4300, 13214.23
462.9121, 13377.33
463.3943, 13397.50
463.8764, 13270.90
464.3585, 13422.67
464.8406, 13316.31
465.3227, 13302.09
465.8048, 13357.20
466.2870, 13340.04
466.7691, 13436.83
467.2512, 13423.84
467.7333, 13401.04
468.2154, 13421.04
468.6975, 13319.74
469.1797, 13443.49
469.6618, 13413.51
470.1439, 13508.97
470.6260, 13543.88
471.1081, 13514.82
471.5902, 13485.21
472.0724, 13484.96
472.5545, 13516.50
473.0366, 13532.01
473.5187, 13527.55
474.0008, 13517.59
474.4829, 13518.32
474.9651, 13529.44
475.4472, 13547.61
475.9293, 13577.26
476.4114, 13609.93
476.8935, 13629.62
477.3756, 13636.57
477.8578, 13633.26
478.3399, 13613.48
478.8220, 13587.21
479.3041, 13568.24
479.7862, 13558.26
480.2683, 13558.84
480.7505, 13584.37
481.2326, 13621.05
481.7147, 13640.07
482.1968, 13605.33
482.6789, 13569.42
483.1610, 13562.08
483.6432, 13588.53
484.1253, 13613.23
484.6074, 13619.04
485.0895, 13622.77
485.5716, 13639.02
486.0537, 13676.82
486.5359, 13717.69
487.0180, 13761.72
487.5001, 13808.00
487.9822, 13851.94
488.4643, 13889.16
488.9464, 13930.81
489.4286, 13986.99
489.9107, 14063.43
490.3928, 14121.70
490.8749, 14159.68
491.3570, 14183.79
491.8391, 14209.03
492.3213, 14235.38
492.8034, 14236.04
493.2855, 14190.08
493.7676, 14116.98
494.2497, 14062.85
494.7318, 14028.11
495.2140, 14003.38
495.6961, 13987.88
496.1782, 13976.14
496.6603, 13959.25
497.1424, 13934.32
497.6245, 13905.13
498.1067, 13873.33
498.5888, 13838.87
499.0709, 13801.87
499.5530, 13739.67
500.0351, 13691.92
500.5172, 13691.32
500.9994, 13749.29
501.4815, 13781.19
501.9636, 13740.49
502.4457, 13678.69
502.9278, 13642.28
503.4099, 13655.25
503.8921, 13667.57
504.3742, 13677.25
504.8563, 13683.97
505.3384, 13681.67
505.8205, 13656.30
506.3026, 13650.22
506.7848, 13689.03
507.2669, 13780.28
507.7490, 13872.28
508.2311, 13972.32
508.7132, 14057.58
509.1953, 14085.55
509.6775, 14061.84
510.1596, 14052.98
510.6417, 14093.14
511.1238, 14152.57
511.6059, 14170.96
512.0880, 14150.46
512.5701, 14119.71
513.0522, 14096.42
513.5344, 14075.01
514.0165, 14046.51
514.4986, 14004.92
514.9807, 13968.56
515.4628, 13954.21
515.9449, 13952.04
516.4271, 13945.57
516.9092, 13942.99
517.3913, 13922.91
517.8734, 13865.18
518.3555, 13767.50
518.8376, 13696.32
519.3198, 13667.40
519.8019, 13662.09
520.2840, 13670.60
520.7661, 13699.92
521.2482, 13730.17
521.7303, 13764.49
522.2125, 13797.00
522.6946, 13812.36
523.1767, 13807.27
523.6588, 13798.70
524.1409, 13790.32
524.6230, 13783.26
525.1052, 13787.99
525.5873, 13805.80
526.0694, 13825.23
526.5515, 13830.92
527.0336, 13828.90
527.5157, 13839.29
527.9979, 13875.67
528.4800, 13910.20
528.9621, 13902.55
529.4442, 13866.60
529.9263, 13843.21
530.4084, 13867.56
530.8906, 13902.02
531.3727, 13918.37
531.8548, 13911.59
532.3369, 13908.88
532.8190, 13928.57
533.3011, 13951.52
533.7833, 13960.04
534.2654, 13920.89
534.7475, 13904.90
535.2296, 13933.80
535.7117, 13991.24
536.1938, 14018.40
536.6760, 14002.56
537.1581, 13981.45
537.6402, 13968.97
538.1223, 13965.40
538.6044, 13971.58
539.0865, 13990.15
539.5687, 14011.63
540.0508, 14022.64
540.5329, 14025.42
541.0150, 14036.06
541.4971, 14065.54
541.9792, 14096.45
542.4614, 14093.78
542.9435, 14064.67
543.4256, 14042.11
543.9077, 14042.87
544.3898, 14061.38
544.8719, 14096.09
545.3541, 14148.83
545.8362, 14201.30
546.3183, 14238.93
546.8004, 14274.31
547.2825, 14321.46
547.7646, 14395.91
548.2468, 14467.76
548.7289, 14530.64
549.2110, 14586.03
549.6931, 14640.27
550.1752, 14691.30
550.6573, 14743.48
551.1395, 14795.97
551.6216, 14845.27
552.1037, 14917.13
552.5858, 15013.58
553.0679, 15129.09
553.5500, 15264.17
554.0322, 15416.88
554.5143, 15562.60
554.9964, 15688.07
555.4785, 15813.56
555.9606, 15973.61
556.4427, 16165.90
556.9249, 16374.61
557.4070, 16595.24
557.8891, 16824.47
558.3712, 17062.56
558.8533, 17309.55
559.3354, 17550.86
559.8176, 17793.34
560.2997, 18021.03
560.7818, 18218.36
561.2639, 18388.10
561.7460, 18515.85
562.2281, 18610.08
562.7103, 18660.50
563.1924, 18634.23
563.6745, 18514.16
564.1566, 18340.64
564.6387, 18121.72
565.1208, 17852.29
565.6030, 17578.35
566.0851, 17299.79
566.5672, 17024.46
567.0493, 16750.60
567.5314, 16484.25
568.0135, 16259.80
568.4957, 16098.51
568.9778, 15960.60
569.4599, 15773.68
569.9420, 15550.59
570.4241, 15353.69
570.9063, 15213.05
571.3884, 15115.03
571.8705, 15056.10
572.3526, 15035.83
572.8347, 15004.47
573.3168, 14914.50
573.7990, 14813.88
574.2811, 14745.53
574.7632, 14751.26
575.2453, 14741.03
575.7274, 14683.76
576.2095, 14603.95
576.6917, 14552.63
577.1738, 14551.91
577.6559, 14543.12
578.1380, 14507.86
578.6201, 14447.99
579.1022, 14393.65
579.5844, 14343.65
580.0665, 14303.18
580.5486, 14279.18
581.0307, 14269.49
581.5128, 14260.46
581.9949, 14250.31
582.4771, 14241.37
582.9592, 14241.42
583.4413, 14245.23
583.9234, 14239.84
584.4055, 14220.09
584.8876, 14188.98
585.3698, 14138.08
585.8519, 14073.51
586.3340, 14026.49
586.8161, 14027.61
587.2982, 14037.96
587.7803, 14034.59
588.2625, 14006.04
588.7446, 13987.72
589.2267, 13981.11
589.7088, 13985.10
590.1909, 14001.97
590.6730, 14042.02
591.1552, 14064.23
591.6373, 14053.85
592.1194, 14025.97
592.6015, 14030.88
593.0836, 14070.85
593.5657, 14104.84
594.0479, 14100.85
594.5300, 14074.86
595.0121, 14075.19
595.4942, 14103.61
595.9763, 14128.65
596.4584, 14106.76
596.9406, 14071.61
597.4227, 14071.06
597.9048, 14144.25
598.3869, 14206.08
598.8690, 14202.72
599.3511, 14162.23
599.8333, 14139.20
600.3154, 14165.28
600.7975, 14189.74
601.2796, 14205.46
601.7617, 14212.28
602.2438, 14188.04
602.7260, 14114.70
603.2081, 14042.65
603.6902, 14010.56
604.1723, 14022.96
604.6544, 14012.02
605.1365, 13967.96
605.6187, 13921.50
606.1008, 13922.77
606.5829, 13960.18
607.0650, 13984.87
607.5471, 13979.21
608.0292, 13955.64
608.5114, 13916.15
608.9935, 13868.01
609.4756, 13836.68
609.9577, 13851.58
610.4398, 13875.43
610.9219, 13882.69
611.4041, 13867.44
611.8862, 13862.48
612.3683, 13881.93
612.8504, 13909.03
613.3325, 13930.22
613.8146, 13937.67
614.2968, 13958.51
614.7789, 14010.08
615.2610, 14062.05
615.7431, 14041.39
616.2252, 13939.45
616.7073, 13853.33
617.1895, 13821.96
617.6716, 13829.88
618.1537, 13842.33
618.6358, 13858.57
619.1179, 13866.95
619.6000, 13844.37
620.0822, 13816.27
620.5643, 13818.96
621.0464, 13862.71
621.5285, 13903.50
622.0106, 13917.36
622.4927, 13915.59
622.9749, 13910.13
623.4570, 13883.10
623.9391, 13877.42
624.4212, 13913.51
624.9033, 13973.43
625.3854, 14011.10
625.8676, 14017.76
626.3497, 14020.80
626.8318, 14032.04
627.3139, 14049.04
627.7960, 14043.22
628.2781, 14011.21
628.7603, 13983.22
629.2424, 13991.21
629.7245, 14021.95
630.2066, 14039.65
630.6887, 14037.51
631.1708, 14032.57
631.6530, 14036.54
632.1351, 14048.44
632.6172, 14066.87
633.0993, 14109.77
633.5814, 14139.85
634.0635, 14136.97
634.5457, 14109.30
635.0278, 14087.74
635.5099, 14081.99
635.9920, 14075.68
636.4741, 14060.08
636.9562, 14033.47
637.4384, 14027.58
637.9205, 14042.76
638.4026, 14076.64
638.8847, 14139.14
639.3668, 14225.14
639.8489, 14280.84
640.3311, 14294.76
640.8132, 14296.73
641.2953, 14322.63
641.7774, 14363.29
642.2595, 14399.03
642.7416, 14406.47
643.2238, 14422.14
643.7059, 14476.04
644.1880, 14558.43
644.6701, 14638.35
645.1522, 14693.31
645.6343, 14754.27
646.1165, 14842.22
646.5986, 14964.20
647.0807, 15049.10
647.5628, 15090.78
648.0449, 15105.88
648.5270, 15105.75
649.0092, 15090.60
649.4913, 15056.67
649.9734, 14999.57
650.4555, 14935.25
650.9376, 14895.96
651.4197, 14869.60
651.9019, 14812.35
