##NAMES=Pyromorphite
##RRUFFID=R060285
##IDEAL CHEMISTRY=Pb^2+^_5_(PO_4_)_3_Cl
##LOCALITY=Les Farges mine, Correze Ussel, France
##OWNER=RRUFF
##SOURCE=Herb Obodda
##DESCRIPTION=Aggregate of green hexagonal prisms
##STATUS=The identification of this mineral has been confirmed by X-ray diffraction and chemical analysis
##URL=rruff.info/R060285
##MEASURED CHEMISTRY=Pb_5.00_((P_0.99_As_0.01_)_Î£=1_O_4_)_3_Cl_1.00_
104.0682, 2446.783
104.5504, 2440.504
105.0325, 2426.720
105.5146, 2408.045
105.9967, 2387.776
106.4788, 2366.346
106.9609, 2340.763
107.4431, 2307.391
107.9252, 2270.398
108.4073, 2235.297
108.8894, 2203.659
109.3715, 2174.835
109.8536, 2147.958
110.3358, 2122.763
110.8179, 2098.687
111.3000, 2074.489
111.7821, 2050.468
112.2642, 2029.913
112.7463, 2016.436
113.2285, 2005.855
113.7106, 1993.901
114.1927, 1979.638
114.6748, 1964.688
115.1569, 1951.275
115.6390, 1939.341
116.1212, 1928.930
116.6033, 1920.233
117.0854, 1912.632
117.5675, 1905.695
118.0496, 1899.276
118.5317, 1893.168
119.0139, 1886.500
119.4960, 1878.343
119.9781, 1870.558
120.4602, 1863.096
120.9423, 1856.209
121.4244, 1850.306
121.9066, 1845.735
122.3887, 1842.554
122.8708, 1839.828
123.3529, 1837.093
123.8350, 1835.043
124.3171, 1834.899
124.7993, 1836.281
125.2814, 1836.880
125.7635, 1833.957
126.2456, 1826.387
126.7277, 1821.194
127.2098, 1819.823
127.6920, 1820.261
128.1741, 1820.504
128.6562, 1820.152
129.1383, 1819.600
129.6204, 1818.941
130.1025, 1818.146
130.5847, 1818.448
131.0668, 1821.190
131.5489, 1825.607
132.0310, 1829.058
132.5131, 1830.974
132.9952, 1831.663
133.4774, 1831.210
133.9595, 1829.658
134.4416, 1828.273
134.9237, 1828.365
135.4058, 1830.184
135.8879, 1831.854
136.3701, 1832.828
136.8522, 1833.716
137.3343, 1834.661
137.8164, 1835.752
138.2985, 1837.324
138.7806, 1839.976
139.2628, 1844.063
139.7449, 1848.788
140.2270, 1856.603
140.7091, 1863.793
141.1912, 1865.917
141.6733, 1860.984
142.1555, 1851.887
142.6376, 1848.662
143.1197, 1858.666
143.6018, 1866.712
144.0839, 1869.442
144.5660, 1869.362
145.0482, 1870.930
145.5303, 1877.078
146.0124, 1886.781
146.4945, 1892.397
146.9766, 1891.364
147.4587, 1889.745
147.9409, 1889.868
148.4230, 1891.573
148.9051, 1893.849
149.3872, 1896.351
149.8693, 1898.842
150.3514, 1900.448
150.8336, 1900.274
151.3157, 1899.756
151.7978, 1900.225
152.2799, 1901.808
152.7620, 1903.714
153.2441, 1905.586
153.7263, 1907.372
154.2084, 1908.960
154.6905, 1910.523
155.1726, 1911.825
155.6547, 1911.983
156.1368, 1909.786
156.6190, 1908.739
157.1011, 1911.821
157.5832, 1917.257
158.0653, 1921.585
158.5474, 1921.928
159.0295, 1918.677
159.5117, 1917.107
159.9938, 1919.182
160.4759, 1921.096
160.9580, 1921.064
161.4401, 1919.622
161.9222, 1918.392
162.4044, 1919.055
162.8865, 1922.149
163.3686, 1923.933
163.8507, 1924.248
164.3328, 1923.532
164.8149, 1921.086
165.2971, 1917.375
165.7792, 1914.101
166.2613, 1913.385
166.7434, 1916.620
167.2255, 1918.504
167.7076, 1918.867
168.1898, 1918.263
168.6719, 1916.628
169.1540, 1914.088
169.6361, 1911.580
170.1182, 1910.551
170.6003, 1912.033
171.0825, 1912.379
171.5646, 1910.110
172.0467, 1907.144
172.5288, 1905.791
173.0109, 1906.795
173.4930, 1908.959
173.9752, 1910.801
174.4573, 1912.688
174.9394, 1912.934
175.4215, 1909.531
175.9036, 1904.130
176.3857, 1900.718
176.8679, 1901.131
177.3500, 1902.786
177.8321, 1902.269
178.3142, 1899.526
178.7963, 1896.030
179.2784, 1892.380
179.7606, 1888.587
180.2427, 1885.105
180.7248, 1882.749
181.2069, 1880.082
181.6890, 1875.490
182.1711, 1868.757
182.6533, 1862.109
183.1354, 1857.853
183.6175, 1856.283
184.0996, 1854.815
184.5817, 1852.484
185.0638, 1850.346
185.5460, 1849.671
186.0281, 1850.636
186.5102, 1851.281
186.9923, 1848.090
187.4744, 1838.436
187.9565, 1832.058
188.4387, 1833.687
188.9208, 1836.440
189.4029, 1834.826
189.8850, 1827.300
190.3671, 1817.172
190.8492, 1810.809
191.3314, 1811.708
191.8135, 1810.914
192.2956, 1806.232
192.7777, 1800.649
193.2598, 1797.016
193.7419, 1796.428
194.2241, 1797.604
194.7062, 1797.469
195.1883, 1794.911
195.6704, 1792.148
196.1525, 1789.229
196.6346, 1786.136
197.1168, 1782.502
197.5989, 1778.105
198.0810, 1773.707
198.5631, 1771.682
199.0452, 1775.192
199.5273, 1776.766
200.0095, 1773.012
200.4916, 1766.851
200.9737, 1763.693
201.4558, 1766.604
201.9379, 1772.611
202.4200, 1772.654
202.9022, 1763.377
203.3843, 1755.356
203.8664, 1753.783
204.3485, 1756.546
204.8306, 1757.501
205.3127, 1753.175
205.7949, 1746.441
206.2770, 1743.791
206.7591, 1746.662
207.2412, 1750.022
207.7233, 1750.519
208.2054, 1748.692
208.6876, 1748.007
209.1697, 1750.729
209.6518, 1754.671
210.1339, 1756.633
210.6160, 1756.224
211.0981, 1754.590
211.5803, 1751.963
212.0624, 1748.339
212.5445, 1745.876
213.0266, 1746.025
213.5087, 1747.382
213.9908, 1749.044
214.4730, 1751.084
214.9551, 1752.328
215.4372, 1750.776
215.9193, 1745.772
216.4014, 1742.073
216.8836, 1742.431
217.3657, 1743.849
217.8478, 1744.322
218.3299, 1743.353
218.8120, 1742.013
219.2941, 1742.084
219.7763, 1744.394
220.2584, 1745.302
220.7405, 1741.961
221.2226, 1738.401
221.7047, 1737.739
222.1868, 1740.741
222.6690, 1745.370
223.1511, 1748.415
223.6332, 1749.230
224.1153, 1749.870
224.5974, 1751.077
225.0795, 1751.906
225.5617, 1751.403
226.0438, 1749.389
226.5259, 1746.757
227.0080, 1745.076
227.4901, 1744.978
227.9722, 1744.782
228.4544, 1743.915
228.9365, 1743.255
229.4186, 1743.832
229.9007, 1745.811
230.3828, 1748.157
230.8649, 1749.004
231.3471, 1747.007
231.8292, 1745.581
232.3113, 1744.815
232.7934, 1744.497
233.2755, 1744.371
233.7576, 1744.388
234.2398, 1744.809
234.7219, 1746.116
235.2040, 1749.186
235.6861, 1751.576
236.1682, 1753.870
236.6503, 1755.199
237.1325, 1754.106
237.6146, 1750.339
238.0967, 1745.879
238.5788, 1743.625
239.0609, 1744.202
239.5430, 1746.034
240.0252, 1750.497
240.5073, 1755.512
240.9894, 1759.038
241.4715, 1760.605
241.9536, 1760.918
242.4357, 1760.791
242.9179, 1760.189
243.4000, 1759.287
243.8821, 1756.920
244.3642, 1754.816
244.8463, 1755.095
245.3284, 1758.243
245.8106, 1762.745
246.2927, 1767.781
246.7748, 1773.546
247.2569, 1775.840
247.7390, 1771.054
248.2211, 1763.752
248.7033, 1759.310
249.1854, 1758.625
249.6675, 1759.914
250.1496, 1761.911
250.6317, 1764.543
251.1138, 1767.357
251.5960, 1770.990
252.0781, 1774.462
252.5602, 1776.485
253.0423, 1776.854
253.5244, 1776.249
254.0065, 1774.588
254.4887, 1772.303
254.9708, 1770.631
255.4529, 1769.979
255.9350, 1770.083
256.4171, 1770.820
256.8992, 1772.365
257.3813, 1773.724
257.8635, 1773.668
258.3456, 1772.965
258.8277, 1772.965
259.3098, 1774.524
259.7919, 1776.694
260.2740, 1778.172
260.7562, 1778.896
261.2383, 1779.148
261.7204, 1778.196
262.2025, 1777.069
262.6846, 1777.241
263.1667, 1779.690
263.6489, 1782.930
264.1310, 1785.112
264.6131, 1786.280
265.0952, 1786.172
265.5773, 1783.172
266.0594, 1779.427
266.5416, 1776.923
267.0237, 1776.243
267.5058, 1776.851
267.9879, 1778.141
268.4700, 1780.175
268.9521, 1782.677
269.4343, 1786.631
269.9164, 1790.485
270.3985, 1793.196
270.8806, 1794.564
271.3627, 1794.360
271.8448, 1791.454
272.3270, 1784.956
272.8091, 1780.310
273.2912, 1779.881
273.7733, 1781.095
274.2554, 1783.051
274.7375, 1785.492
275.2197, 1787.427
275.7018, 1787.067
276.1839, 1783.730
276.6660, 1782.499
277.1481, 1787.272
277.6302, 1792.048
278.1124, 1793.454
278.5945, 1791.482
279.0766, 1788.689
279.5587, 1787.520
280.0408, 1788.126
280.5229, 1788.983
281.0051, 1789.839
281.4872, 1791.177
281.9693, 1793.971
282.4514, 1797.652
282.9335, 1800.410
283.4156, 1799.987
283.8978, 1796.264
284.3799, 1795.114
284.8620, 1799.389
285.3441, 1803.514
285.8262, 1805.463
286.3083, 1805.745
286.7905, 1805.679
287.2726, 1806.035
287.7547, 1806.839
288.2368, 1808.544
288.7189, 1813.215
289.2010, 1816.217
289.6832, 1814.460
290.1653, 1810.639
290.6474, 1809.188
291.1295, 1813.095
291.6116, 1820.514
292.0938, 1823.640
292.5759, 1818.294
293.0580, 1814.506
293.5401, 1814.882
294.0222, 1817.471
294.5043, 1820.079
294.9865, 1821.720
295.4686, 1822.993
295.9507, 1825.392
296.4328, 1829.546
296.9149, 1833.782
297.3970, 1838.782
297.8792, 1843.272
298.3613, 1845.495
298.8434, 1845.099
299.3255, 1844.157
299.8076, 1846.678
300.2897, 1855.837
300.7719, 1861.111
301.2540, 1858.847
301.7361, 1855.485
302.2182, 1855.082
302.7003, 1858.272
303.1824, 1863.054
303.6646, 1867.170
304.1467, 1870.475
304.6288, 1873.547
305.1109, 1876.196
305.5930, 1878.803
306.0751, 1881.734
306.5573, 1884.835
307.0394, 1887.448
307.5215, 1888.608
308.0036, 1888.054
308.4857, 1890.082
308.9678, 1898.547
309.4500, 1905.893
309.9321, 1909.185
310.4142, 1909.691
310.8963, 1910.346
311.3784, 1913.248
311.8605, 1917.990
312.3427, 1921.290
312.8248, 1921.555
313.3069, 1922.182
313.7890, 1924.193
314.2711, 1926.809
314.7532, 1928.725
315.2354, 1929.215
315.7175, 1929.266
316.1996, 1931.972
316.6817, 1940.682
317.1638, 1946.716
317.6459, 1946.475
318.1281, 1944.885
318.6102, 1946.924
319.0923, 1953.990
319.5744, 1962.891
320.0565, 1968.051
320.5386, 1967.069
321.0208, 1967.847
321.5029, 1972.134
321.9850, 1976.881
322.4671, 1980.157
322.9492, 1981.787
323.4313, 1982.887
323.9135, 1984.755
324.3956, 1987.643
324.8777, 1989.960
325.3598, 1991.698
325.8419, 1992.861
326.3240, 1992.482
326.8062, 1991.395
327.2883, 1991.779
327.7704, 1995.833
328.2525, 2003.209
328.7346, 2007.786
329.2167, 2008.301
329.6989, 2007.137
330.1810, 2002.974
330.6631, 1997.973
331.1452, 1995.341
331.6273, 1996.947
332.1094, 2001.540
332.5916, 2005.318
333.0737, 2008.252
333.5558, 2010.316
334.0379, 2011.716
334.5200, 2012.315
335.0021, 2011.904
335.4843, 2010.427
335.9664, 2008.128
336.4485, 2004.898
336.9306, 1999.519
337.4127, 1996.890
337.8948, 2000.003
338.3770, 2003.918
338.8591, 2005.415
339.3412, 2004.435
339.8233, 2003.417
340.3055, 2005.763
340.7876, 2012.170
341.2697, 2014.673
341.7518, 2009.185
342.2339, 2003.551
342.7160, 2000.892
343.1982, 2000.546
343.6803, 2000.379
344.1624, 1998.711
344.6445, 1996.104
345.1266, 1995.846
345.6087, 2001.138
346.0909, 2003.392
346.5730, 1997.595
347.0551, 1988.412
347.5372, 1981.835
348.0193, 1980.464
348.5014, 1981.960
348.9836, 1982.299
349.4657, 1981.431
349.9478, 1979.549
350.4299, 1975.759
350.9120, 1971.543
351.3941, 1967.602
351.8763, 1964.115
352.3584, 1961.760
352.8405, 1962.195
353.3226, 1965.560
353.8047, 1966.433
354.2868, 1961.315
354.7690, 1956.432
355.2511, 1956.389
355.7332, 1960.275
356.2153, 1963.839
356.6974, 1964.466
357.1795, 1962.579
357.6617, 1959.454
358.1438, 1954.220
358.6259, 1949.643
359.1080, 1947.192
359.5901, 1946.386
360.0722, 1946.763
360.5544, 1948.969
361.0365, 1951.344
361.5186, 1951.324
362.0007, 1948.632
362.4828, 1945.570
362.9649, 1941.893
363.4471, 1939.053
363.9292, 1939.331
364.4113, 1943.764
364.8934, 1947.660
365.3755, 1946.930
365.8576, 1942.301
366.3398, 1937.523
366.8219, 1932.662
367.3040, 1929.121
367.7861, 1928.636
368.2682, 1930.928
368.7503, 1933.691
369.2325, 1937.265
369.7146, 1940.377
370.1967, 1940.109
370.6788, 1935.671
371.1609, 1931.267
371.6430, 1930.286
372.1252, 1932.003
372.6073, 1933.978
373.0894, 1935.844
373.5715, 1937.912
374.0536, 1940.845
374.5357, 1944.394
375.0179, 1947.071
375.5000, 1947.952
375.9821, 1947.635
376.4642, 1947.343
376.9463, 1946.309
377.4284, 1946.953
377.9106, 1952.187
378.3927, 1959.255
378.8748, 1962.946
379.3569, 1961.645
379.8390, 1958.646
380.3211, 1958.207
380.8033, 1960.903
381.2854, 1962.928
381.7675, 1963.251
382.2496, 1963.355
382.7317, 1964.068
383.2138, 1965.585
383.6960, 1968.331
384.1781, 1972.860
384.6602, 1978.993
385.1423, 1984.349
385.6244, 1989.726
386.1065, 1993.604
386.5887, 1993.770
387.0708, 1992.370
387.5529, 1993.457
388.0350, 1998.913
388.5171, 2006.452
388.9992, 2011.018
389.4814, 2009.348
389.9635, 2009.606
390.4456, 2014.381
390.9277, 2019.359
391.4098, 2021.082
391.8919, 2019.104
392.3741, 2015.066
392.8562, 2010.489
393.3383, 2005.219
393.8204, 2000.522
394.3025, 1998.677
394.7846, 1995.041
395.2668, 1986.273
395.7489, 1974.717
396.2310, 1964.752
396.7131, 1958.972
397.1952, 1956.368
397.6773, 1953.407
398.1595, 1949.708
398.6416, 1946.267
399.1237, 1943.728
399.6058, 1941.151
400.0879, 1937.317
400.5700, 1932.106
401.0522, 1927.050
401.5343, 1923.985
402.0164, 1923.143
402.4985, 1923.052
402.9806, 1924.441
403.4627, 1925.867
403.9449, 1926.902
404.4270, 1927.472
404.9091, 1927.506
405.3912, 1926.835
405.8733, 1925.647
406.3554, 1924.632
406.8376, 1924.049
407.3197, 1922.938
407.8018, 1920.205
408.2839, 1917.085
408.7660, 1915.064
409.2481, 1914.671
409.7303, 1914.327
410.2124, 1912.310
410.6945, 1908.725
411.1766, 1905.179
411.6587, 1902.274
412.1408, 1899.128
412.6230, 1894.770
413.1051, 1889.371
413.5872, 1884.119
414.0693, 1879.021
414.5514, 1874.556
415.0335, 1872.156
415.5157, 1872.146
415.9978, 1871.406
416.4799, 1867.505
416.9620, 1861.336
417.4441, 1855.991
417.9262, 1852.305
418.4084, 1848.475
418.8905, 1843.949
419.3726, 1838.522
419.8547, 1831.197
420.3368, 1821.195
420.8189, 1810.620
421.3011, 1802.950
421.7832, 1798.581
422.2653, 1795.262
422.7474, 1793.490
423.2295, 1792.206
423.7116, 1791.151
424.1938, 1789.971
424.6759, 1786.932
425.1580, 1779.968
425.6401, 1769.554
426.1222, 1764.475
426.6043, 1770.995
427.0865, 1774.695
427.5686, 1769.718
428.0507, 1760.472
428.5328, 1753.017
429.0149, 1749.679
429.4970, 1748.982
429.9792, 1748.446
430.4613, 1748.362
430.9434, 1747.750
431.4255, 1746.997
431.9076, 1745.501
432.3897, 1742.708
432.8719, 1738.818
433.3540, 1734.383
433.8361, 1729.583
434.3182, 1724.695
434.8003, 1721.829
435.2824, 1722.712
435.7646, 1723.048
436.2467, 1721.542
436.7288, 1719.142
437.2109, 1716.626
437.6930, 1714.225
438.1751, 1712.366
438.6573, 1712.130
439.1394, 1713.739
439.6215, 1713.690
440.1036, 1710.636
440.5857, 1706.698
441.0678, 1702.659
441.5500, 1698.815
442.0321, 1696.115
442.5142, 1694.793
442.9963, 1694.996
443.4784, 1698.177
443.9605, 1705.040
444.4427, 1709.315
444.9248, 1706.640
445.4069, 1699.892
445.8890, 1694.120
446.3711, 1689.383
446.8532, 1685.981
447.3354, 1685.117
447.8175, 1685.604
448.2996, 1684.681
448.7817, 1681.601
449.2638, 1677.891
449.7459, 1674.813
450.2281, 1672.407
450.7102, 1671.903
451.1923, 1675.519
451.6744, 1679.117
452.1565, 1680.105
452.6386, 1678.865
453.1208, 1676.873
453.6029, 1674.855
454.0850, 1672.706
454.5671, 1670.129
455.0492, 1665.424
455.5313, 1662.704
456.0135, 1663.341
456.4956, 1665.086
456.9777, 1666.631
457.4598, 1667.516
457.9419, 1667.361
458.4240, 1665.720
458.9062, 1662.581
459.3883, 1659.139
459.8704, 1653.050
460.3525, 1649.439
460.8346, 1651.699
461.3167, 1656.216
461.7989, 1658.146
462.2810, 1655.613
462.7631, 1651.330
463.2452, 1649.715
463.7273, 1651.366
464.2094, 1652.076
464.6916, 1650.943
465.1737, 1649.001
465.6558, 1646.590
466.1379, 1643.851
466.6200, 1641.084
467.1021, 1637.655
467.5843, 1634.656
468.0664, 1634.768
468.5485, 1638.407
469.0306, 1642.247
469.5127, 1645.610
469.9948, 1647.760
470.4770, 1647.355
470.9591, 1643.620
471.4412, 1640.145
471.9233, 1639.330
472.4054, 1639.850
472.8875, 1639.198
473.3697, 1636.892
473.8518, 1634.178
474.3339, 1632.418
474.8160, 1631.530
475.2981, 1628.850
475.7802, 1621.202
476.2624, 1615.141
476.7445, 1614.795
477.2266, 1617.903
477.7087, 1620.293
478.1908, 1620.322
478.6729, 1618.657
479.1551, 1616.282
479.6372, 1611.777
480.1193, 1610.034
480.6014, 1613.793
481.0835, 1617.461
481.5656, 1617.388
482.0478, 1614.460
482.5299, 1611.895
483.0120, 1611.930
483.4941, 1613.697
483.9762, 1613.749
484.4583, 1610.835
484.9405, 1608.794
485.4226, 1608.836
485.9047, 1609.659
486.3868, 1610.789
486.8689, 1611.967
487.3510, 1612.129
487.8332, 1609.259
488.3153, 1604.320
488.7974, 1602.196
489.2795, 1603.818
489.7616, 1606.410
490.2437, 1609.739
490.7259, 1612.603
491.2080, 1612.739
491.6901, 1608.722
492.1722, 1603.922
492.6543, 1600.691
493.1364, 1598.608
493.6186, 1596.174
494.1007, 1592.727
494.5828, 1590.042
495.0649, 1590.757
495.5470, 1595.341
496.0291, 1597.617
496.5113, 1595.381
496.9934, 1592.668
497.4755, 1592.362
497.9576, 1593.481
498.4397, 1592.956
498.9218, 1589.188
499.4040, 1584.251
499.8861, 1583.074
500.3682, 1589.796
500.8503, 1592.608
501.3324, 1588.463
501.8145, 1583.489
502.2967, 1581.104
502.7788, 1581.299
503.2609, 1582.765
503.7430, 1585.042
504.2251, 1587.356
504.7072, 1586.140
505.1894, 1578.988
505.6715, 1573.833
506.1536, 1574.586
506.6357, 1576.836
507.1178, 1577.033
507.5999, 1574.807
508.0821, 1572.604
508.5642, 1572.837
509.0463, 1574.482
509.5284, 1574.329
510.0105, 1571.906
510.4926, 1568.919
510.9748, 1565.517
511.4569, 1562.587
511.9390, 1562.328
512.4211, 1566.884
512.9032, 1570.388
513.3853, 1568.421
513.8674, 1563.885
514.3495, 1562.295
514.8317, 1564.855
515.3138, 1567.873
515.7959, 1567.394
516.2780, 1563.064
516.7601, 1560.455
517.2422, 1561.224
517.7244, 1561.547
518.2065, 1559.418
518.6886, 1556.281
519.1707, 1554.511
519.6528, 1554.894
520.1349, 1555.912
520.6171, 1555.231
521.0992, 1552.481
521.5813, 1549.582
522.0634, 1545.464
522.5455, 1542.332
523.0276, 1540.951
523.5098, 1541.157
523.9919, 1542.771
524.4740, 1546.025
524.9561, 1549.764
525.4382, 1552.757
525.9203, 1554.999
526.4025, 1555.185
526.8846, 1551.779
527.3667, 1547.825
527.8488, 1546.580
528.3309, 1547.596
528.8130, 1548.013
529.2952, 1546.364
529.7773, 1544.241
530.2594, 1543.443
530.7415, 1543.600
531.2236, 1542.511
531.7057, 1538.782
532.1879, 1534.554
532.6700, 1534.170
533.1521, 1540.259
533.6342, 1544.297
534.1163, 1544.597
534.5984, 1544.109
535.0806, 1545.488
535.5627, 1547.831
536.0448, 1547.818
536.5269, 1543.135
537.0090, 1535.808
537.4911, 1532.137
537.9733, 1533.517
538.4554, 1535.490
538.9375, 1538.061
539.4196, 1540.599
539.9017, 1542.970
540.3839, 1545.019
540.8660, 1546.324
541.3481, 1546.636
541.8302, 1546.024
542.3123, 1544.318
542.7944, 1541.350
543.2766, 1538.869
543.7587, 1537.799
544.2408, 1537.407
544.7229, 1536.819
545.2050, 1536.132
545.6871, 1534.567
546.1693, 1530.587
546.6514, 1526.389
547.1335, 1524.155
547.6156, 1524.025
548.0977, 1525.836
548.5798, 1529.997
549.0620, 1535.217
549.5441, 1537.131
550.0262, 1532.935
550.5083, 1528.944
550.9904, 1523.824
551.4725, 1519.917
551.9547, 1520.007
552.4368, 1523.256
552.9189, 1526.044
553.4010, 1525.530
553.8831, 1522.622
554.3652, 1521.141
554.8474, 1521.962
555.3295, 1522.030
555.8116, 1519.276
556.2937, 1516.402
556.7758, 1516.149
557.2579, 1518.347
557.7401, 1519.141
558.2222, 1514.399
558.7043, 1507.548
559.1864, 1505.089
559.6685, 1507.219
560.1506, 1509.010
560.6328, 1507.894
561.1149, 1505.138
561.5970, 1503.516
562.0791, 1503.351
562.5612, 1503.005
563.0433, 1502.289
563.5255, 1501.184
564.0076, 1498.792
564.4897, 1495.783
564.9718, 1494.760
565.4539, 1497.629
565.9360, 1502.914
566.4182, 1505.501
566.9003, 1503.552
567.3824, 1502.389
567.8645, 1503.395
568.3466, 1504.374
568.8287, 1504.078
569.3109, 1502.501
569.7930, 1500.009
570.2751, 1496.073
570.7572, 1492.140
571.2393, 1491.851
571.7214, 1495.542
572.2036, 1498.800
572.6857, 1500.452
573.1678, 1500.785
573.6499, 1500.002
574.1320, 1498.140
574.6141, 1496.012
575.0963, 1493.139
575.5784, 1490.646
576.0605, 1489.570
576.5426, 1489.739
577.0247, 1490.862
577.5068, 1492.996
577.9890, 1494.794
578.4711, 1493.574
578.9532, 1487.804
579.4353, 1482.860
579.9174, 1478.550
580.3995, 1475.141
580.8817, 1472.465
581.3638, 1470.848
581.8459, 1471.416
582.3280, 1474.942
582.8101, 1478.902
583.2922, 1478.836
583.7744, 1474.446
584.2565, 1470.241
584.7386, 1466.244
585.2207, 1463.291
585.7029, 1463.099
586.1850, 1464.345
586.6671, 1463.361
587.1492, 1456.746
587.6313, 1451.045
588.1135, 1451.926
588.5956, 1457.242
589.0777, 1462.796
589.5598, 1467.603
590.0419, 1469.934
590.5240, 1467.275
591.0062, 1459.295
591.4883, 1454.362
591.9704, 1454.255
592.4525, 1454.644
592.9346, 1454.943
593.4167, 1454.947
593.8989, 1454.353
594.3810, 1453.180
594.8631, 1451.959
595.3452, 1451.290
595.8273, 1451.121
596.3094, 1450.772
596.7916, 1450.210
597.2737, 1449.563
597.7558, 1449.360
598.2379, 1448.846
598.7200, 1446.798
599.2021, 1442.863
599.6843, 1439.573
600.1664, 1438.700
