##NAMES=Pyrope
##RRUFFID=R100153
##IDEAL CHEMISTRY=Mg_3_Al_2_(SiO_4_)_3_
##LOCALITY=Sri Lanka
##OWNER=Pinch
##SOURCE=William W. Pinch
##DESCRIPTION=Light purplish-red gemstones. X-ray diffraction and Raman spectra were collected from the gemstone on the left.
##STATUS=The identification of this mineral has been confirmed only by single crystal X-ray diffraction.
##URL=rruff.info/R100153
131.5330, 11.29959
132.0151, 11.79212
132.4972, 12.13345
132.9794, 12.32319
133.4615, 12.57152
133.9436, 13.08678
134.4257, 13.84598
134.9078, 14.46705
135.3899, 14.88824
135.8721, 15.15310
136.3542, 15.35285
136.8363, 15.45881
137.3184, 15.62837
137.8005, 15.92731
138.2826, 16.33154
138.7648, 17.09391
139.2469, 18.34691
139.7290, 20.02467
140.2111, 21.49510
140.6932, 22.62314
141.1753, 23.81899
141.6575, 25.54400
142.1396, 28.09852
142.6217, 30.40419
143.1038, 32.16689
143.5859, 33.36927
144.0681, 34.70383
144.5502, 36.25304
145.0323, 37.87108
145.5144, 39.45131
145.9965, 41.15879
146.4786, 42.54713
146.9608, 43.36674
147.4429, 43.40682
147.9250, 43.83295
148.4071, 44.66314
148.8892, 45.87440
149.3713, 47.42876
149.8535, 50.07344
150.3356, 52.34145
150.8177, 53.65490
151.2998, 53.02795
151.7819, 53.58123
152.2640, 56.16054
152.7462, 59.84198
153.2283, 62.92707
153.7104, 65.04772
154.1925, 66.78014
154.6746, 68.25340
155.1567, 69.14745
155.6389, 70.33318
156.1210, 72.31030
156.6031, 74.68648
157.0852, 76.51822
157.5673, 77.15372
158.0495, 77.52094
158.5316, 78.09258
159.0137, 79.15255
159.4958, 80.12451
159.9779, 81.01602
160.4600, 81.74367
160.9422, 82.03515
161.4243, 81.27876
161.9064, 80.35385
162.3885, 79.87122
162.8706, 80.40178
163.3527, 80.89333
163.8349, 80.58691
164.3170, 79.72749
164.7991, 79.48600
165.2812, 81.04205
165.7633, 83.19305
166.2454, 84.84164
166.7276, 85.07312
167.2097, 85.23775
167.6918, 86.43851
168.1739, 88.50180
168.6560, 90.07650
169.1381, 89.68027
169.6203, 88.50916
170.1024, 87.44767
170.5845, 87.58575
171.0666, 88.48833
171.5487, 89.99425
172.0309, 92.02579
172.5130, 93.46247
172.9951, 93.03798
173.4772, 91.59988
173.9593, 90.46164
174.4414, 90.13853
174.9236, 90.35123
175.4057, 91.05618
175.8878, 92.26304
176.3699, 93.20676
176.8520, 93.02497
177.3341, 92.10861
177.8163, 91.30295
178.2984, 91.26580
178.7805, 91.45345
179.2626, 90.92781
179.7447, 89.63255
180.2268, 88.24543
180.7090, 87.52627
181.1911, 87.29951
181.6732, 87.03830
182.1553, 86.27535
182.6374, 85.34158
183.1195, 85.08402
183.6017, 85.61094
184.0838, 86.27101
184.5659, 86.16721
185.0480, 85.46133
185.5301, 84.97154
186.0123, 85.11609
186.4944, 85.78205
186.9765, 86.72110
187.4586, 88.00890
187.9407, 89.28112
188.4228, 89.87107
188.9050, 89.85044
189.3871, 90.01759
189.8692, 90.88258
190.3513, 92.30882
190.8334, 93.61796
191.3155, 94.72372
191.7977, 95.82879
192.2798, 97.32871
192.7619, 99.22286
193.2440, 101.0721
193.7261, 102.6513
194.2082, 103.9763
194.6904, 105.2566
195.1725, 106.4499
195.6546, 107.7070
196.1367, 109.2578
196.6188, 111.1145
197.1009, 113.1658
197.5831, 115.3321
198.0652, 117.6318
198.5473, 120.2516
199.0294, 123.3890
199.5115, 126.5879
199.9937, 128.6981
200.4758, 129.4989
200.9579, 130.4477
201.4400, 132.4529
201.9221, 135.6021
202.4042, 138.4928
202.8864, 140.9095
203.3685, 143.1599
203.8506, 146.2505
204.3327, 150.4974
204.8148, 154.1922
205.2969, 156.1288
205.7791, 156.0065
206.2612, 156.3727
206.7433, 157.5313
207.2254, 159.1389
207.7075, 160.3839
208.1896, 161.2994
208.6718, 161.7706
209.1539, 161.7750
209.6360, 161.3491
210.1181, 160.2690
210.6002, 158.4018
211.0823, 155.9485
211.5645, 153.4856
212.0466, 151.0932
212.5287, 148.4836
213.0108, 145.4623
213.4929, 141.9069
213.9750, 138.3622
214.4572, 134.8249
214.9393, 131.3379
215.4214, 127.9291
215.9035, 124.6103
216.3856, 121.3116
216.8678, 118.0478
217.3499, 114.7431
217.8320, 111.6027
218.3141, 108.7915
218.7962, 106.1225
219.2783, 102.9033
219.7605, 98.66829
220.2426, 94.77319
220.7247, 92.06638
221.2068, 91.00908
221.6889, 89.84984
222.1710, 88.56786
222.6532, 87.12931
223.1353, 85.40882
223.6174, 83.12666
224.0995, 81.00123
224.5816, 79.44267
225.0637, 78.70398
225.5459, 77.84382
226.0280, 76.77155
226.5101, 75.57020
226.9922, 74.48385
227.4743, 73.34307
227.9564, 72.56430
228.4386, 72.44909
228.9207, 73.48451
229.4028, 73.99427
229.8849, 73.82030
230.3670, 73.13973
230.8492, 72.40149
231.3313, 71.49059
231.8134, 70.70574
232.2955, 70.18082
232.7776, 69.99390
233.2597, 69.90983
233.7419, 69.93726
234.2240, 70.06448
234.7061, 70.29562
235.1882, 70.81394
235.6703, 71.16159
236.1524, 71.13046
236.6346, 70.58315
237.1167, 69.92605
237.5988, 68.91007
238.0809, 67.86739
238.5630, 67.63726
239.0451, 68.71716
239.5273, 69.86514
240.0094, 70.58408
240.4915, 70.74593
240.9736, 70.81527
241.4557, 70.84432
241.9378, 70.75745
242.4200, 70.32410
242.9021, 69.10583
243.3842, 68.21808
243.8663, 68.17933
244.3484, 69.40943
244.8306, 70.21670
245.3127, 70.41917
245.7948, 70.28973
246.2769, 70.36934
246.7590, 70.94141
247.2411, 71.23734
247.7233, 70.89462
248.2054, 69.63825
248.6875, 68.79090
249.1696, 68.53954
249.6517, 68.57930
250.1338, 68.36860
250.6160, 67.59247
251.0981, 67.14586
251.5802, 67.48356
252.0623, 68.90949
252.5444, 69.46973
253.0265, 68.59942
253.5087, 67.32377
253.9908, 67.24954
254.4729, 69.17604
254.9550, 70.66874
255.4371, 70.88049
255.9192, 69.59134
256.4014, 68.83558
256.8835, 68.84041
257.3656, 69.15381
257.8477, 69.20702
258.3298, 68.84745
258.8120, 68.56827
259.2941, 68.49184
259.7762, 68.62659
260.2583, 68.83005
260.7404, 69.12781
261.2225, 69.46278
261.7047, 69.83166
262.1868, 70.35784
262.6689, 70.57500
263.1510, 70.28014
263.6331, 69.49506
264.1152, 68.94690
264.5974, 68.67332
265.0795, 68.58530
265.5616, 68.64150
266.0437, 68.90945
266.5258, 69.09309
267.0079, 69.08532
267.4901, 68.92750
267.9722, 69.04490
268.4543, 69.60796
268.9364, 70.11199
269.4185, 70.03983
269.9006, 69.18867
270.3828, 68.69231
270.8649, 68.89820
271.3470, 69.57153
271.8291, 69.43610
272.3112, 68.12463
272.7933, 66.95927
273.2755, 67.21079
273.7576, 69.21765
274.2397, 70.17439
274.7218, 69.35570
275.2039, 67.49771
275.6860, 66.92861
276.1682, 67.88538
276.6503, 69.21866
277.1324, 70.31569
277.6145, 71.17171
278.0966, 71.73589
278.5787, 71.96085
279.0609, 71.94901
279.5430, 71.91433
280.0251, 71.86428
280.5072, 71.75880
280.9893, 71.53358
281.4715, 71.19239
281.9536, 70.94128
282.4357, 70.77200
282.9178, 70.72684
283.3999, 70.98063
283.8820, 71.55675
284.3642, 71.98849
284.8463, 71.88485
285.3284, 71.32151
285.8105, 71.25142
286.2926, 71.75403
286.7747, 72.49944
287.2569, 73.13692
287.7390, 73.66063
288.2211, 73.93742
288.7032, 73.76477
289.1853, 73.27670
289.6674, 73.02676
290.1496, 73.00654
290.6317, 73.26157
291.1138, 74.07233
291.5959, 75.33134
292.0780, 76.24977
292.5602, 76.45117
293.0423, 76.19136
293.5244, 76.02273
294.0065, 75.94121
294.4886, 76.09825
294.9707, 76.87086
295.4529, 78.05611
295.9350, 78.86689
296.4171, 78.91399
296.8992, 78.66310
297.3813, 78.95943
297.8634, 79.76499
298.3456, 80.68354
298.8277, 81.22849
299.3098, 81.66476
299.7919, 82.68933
300.2740, 84.71994
300.7561, 86.89064
301.2383, 87.72092
301.7204, 87.52241
302.2025, 87.65862
302.6846, 89.63403
303.1667, 92.30717
303.6488, 93.81327
304.1310, 93.54433
304.6131, 93.06092
305.0952, 93.92256
305.5773, 95.81175
306.0594, 97.86201
306.5415, 99.70305
307.0237, 101.4403
307.5058, 103.2068
307.9879, 105.0044
308.4700, 106.8265
308.9521, 108.5629
309.4343, 110.3372
309.9164, 112.4009
310.3985, 114.9988
310.8806, 117.8557
311.3627, 120.8781
311.8448, 124.0900
312.3270, 127.1092
312.8091, 129.7378
313.2912, 132.0429
313.7733, 134.1032
314.2554, 135.4678
314.7375, 137.0087
315.2197, 139.6774
315.7018, 143.2685
316.1839, 145.8554
316.6660, 145.8717
317.1481, 144.8853
317.6302, 144.2074
318.1124, 144.9442
318.5945, 145.0525
319.0766, 143.4423
319.5587, 140.5552
320.0408, 137.9083
320.5229, 135.7333
321.0051, 134.0987
321.4872, 133.1038
321.9693, 133.1340
322.4514, 133.1255
322.9335, 132.7405
323.4156, 132.1839
323.8978, 131.8504
324.3799, 131.5218
324.8620, 131.6755
325.3441, 132.5109
325.8262, 134.1315
326.3083, 136.1269
326.7905, 138.7059
327.2726, 141.5763
327.7547, 144.3427
328.2368, 146.5200
328.7189, 149.1069
329.2010, 152.3487
329.6832, 156.2552
330.1653, 160.3920
330.6474, 165.1715
331.1295, 169.8795
331.6116, 173.8852
332.0938, 175.9901
332.5759, 179.3303
333.0580, 184.4752
333.5401, 191.2775
334.0222, 198.3779
334.5043, 206.3711
334.9865, 213.9256
335.4686, 219.9533
335.9507, 223.1352
336.4328, 228.5719
336.9149, 237.3163
337.3970, 248.2076
337.8792, 257.7731
338.3613, 265.7779
338.8434, 273.5128
339.3255, 281.5522
339.8076, 289.9383
340.2898, 298.5368
340.7719, 307.3783
341.2540, 316.5121
341.7361, 326.1855
342.2182, 336.2183
342.7003, 346.9573
343.1825, 358.5749
343.6646, 371.0256
344.1467, 383.0859
344.6288, 394.7206
345.1109, 406.6579
345.5930, 419.9381
346.0752, 434.3327
346.5573, 449.1590
347.0394, 464.2635
347.5215, 479.7863
348.0036, 496.7814
348.4857, 515.1437
348.9679, 533.5082
349.4500, 551.2754
349.9321, 568.4477
350.4142, 585.0327
350.8963, 601.2356
351.3784, 616.5556
351.8606, 630.6454
352.3427, 643.1963
352.8248, 653.3316
353.3069, 660.8637
353.7890, 665.4115
354.2711, 666.6563
354.7533, 664.6108
355.2354, 659.0912
355.7175, 649.9415
356.1996, 637.2255
356.6817, 621.0499
357.1638, 599.3460
357.6460, 575.7510
358.1281, 552.5321
358.6102, 529.7953
359.0923, 506.9065
359.5744, 483.0922
360.0565, 459.3773
360.5387, 436.7452
361.0208, 415.4667
361.5029, 395.2365
361.9850, 375.9228
362.4671, 357.6220
362.9492, 340.9154
363.4314, 326.6230
363.9135, 313.5277
364.3956, 300.8599
364.8777, 288.0100
365.3598, 276.6921
365.8419, 267.7057
366.3241, 260.3580
366.8062, 253.6816
367.2883, 248.0475
367.7704, 242.5810
368.2526, 236.8273
368.7347, 230.5129
369.2168, 225.4048
369.6989, 222.4744
370.1810, 220.1370
370.6631, 217.0370
371.1453, 212.4166
371.6274, 208.1787
372.1095, 204.8645
372.5916, 202.2000
373.0737, 198.3891
373.5558, 192.6426
374.0380, 186.8732
374.5201, 182.1832
375.0022, 179.0889
375.4843, 175.5211
375.9664, 171.3857
376.4485, 166.7726
376.9307, 161.6228
377.4128, 155.8350
377.8949, 150.1210
378.3770, 144.8125
378.8591, 139.9153
379.3412, 135.0880
379.8234, 130.3599
380.3055, 125.7415
380.7876, 121.2424
381.2697, 116.8424
381.7518, 112.8983
382.2339, 109.6420
382.7161, 106.8016
383.1982, 103.7021
383.6803, 100.3758
384.1624, 96.97279
384.6445, 93.38200
385.1266, 89.83438
385.6088, 87.01115
386.0909, 85.17343
386.5730, 83.59481
387.0551, 81.36744
387.5372, 78.72623
388.0193, 76.30102
388.5015, 74.63613
388.9836, 73.26514
389.4657, 71.59995
389.9478, 69.59376
390.4299, 67.81441
390.9120, 67.00404
391.3942, 66.53092
391.8763, 65.62315
392.3584, 63.46345
392.8405, 61.33088
393.3226, 59.84740
393.8047, 58.94207
394.2869, 58.29054
394.7690, 58.12858
395.2511, 57.93470
395.7332, 57.35344
396.2154, 56.11500
396.6975, 54.94274
397.1796, 53.98214
397.6617, 53.17307
398.1438, 52.41786
398.6259, 51.72620
399.1081, 51.05622
399.5902, 50.41837
400.0723, 49.82770
400.5544, 49.14557
401.0365, 48.17204
401.5186, 47.25209
402.0008, 46.69379
402.4829, 46.69279
402.9650, 46.66972
403.4471, 46.52670
403.9292, 46.31364
404.4113, 46.29504
404.8935, 46.62238
405.3756, 46.79775
405.8577, 46.46778
406.3398, 45.53236
406.8219, 44.88769
407.3040, 44.59979
407.7862, 44.49494
408.2683, 44.37562
408.7504, 44.24659
409.2325, 43.94539
409.7146, 43.20667
410.1967, 42.30515
410.6789, 42.33467
411.1610, 43.33397
411.6431, 44.26777
412.1252, 44.06506
412.6073, 43.07123
413.0894, 42.25436
413.5716, 41.82745
414.0537, 41.61881
414.5358, 41.48288
415.0179, 41.40914
415.5000, 41.35927
415.9821, 41.50920
416.4643, 41.56580
416.9464, 41.06270
417.4285, 39.92184
417.9106, 38.96566
418.3927, 38.91148
418.8748, 39.27986
419.3570, 39.50263
419.8391, 39.17973
420.3212, 38.87700
420.8033, 38.92594
421.2854, 39.23338
421.7675, 39.36005
422.2497, 38.96363
422.7318, 38.50782
423.2139, 38.26477
423.6960, 38.42981
424.1781, 38.44806
424.6602, 38.20041
425.1424, 37.78849
425.6245, 37.34742
426.1066, 36.57117
426.5887, 36.17089
427.0709, 36.44417
427.5530, 37.39016
428.0351, 38.00871
428.5172, 38.17559
428.9993, 38.19283
429.4814, 38.25275
429.9636, 38.34101
430.4457, 38.57357
430.9278, 39.09291
431.4099, 39.62969
431.8920, 39.44900
432.3741, 38.43603
432.8563, 37.58645
433.3384, 37.42330
433.8205, 37.84714
434.3026, 38.25774
434.7847, 38.68052
435.2668, 38.91201
435.7490, 38.58153
436.2311, 37.85122
436.7132, 37.28988
437.1953, 36.99798
437.6774, 37.01157
438.1595, 37.62990
438.6417, 38.68303
439.1238, 39.46701
439.6059, 39.51655
440.0880, 39.10271
440.5701, 38.36445
441.0522, 37.23546
441.5344, 36.35763
442.0165, 36.24085
442.4986, 36.56948
442.9807, 36.95964
443.4628, 37.61298
443.9449, 37.98277
444.4271, 37.60790
444.9092, 36.65276
445.3913, 36.05309
445.8734, 36.35870
446.3555, 36.84319
446.8376, 37.14357
447.3198, 37.09830
447.8019, 37.13469
448.2840, 37.22149
448.7661, 37.40981
449.2482, 37.80168
449.7303, 38.62351
450.2125, 39.27412
450.6946, 39.72657
451.1767, 39.95237
451.6588, 39.31612
452.1409, 37.28371
452.6230, 35.61467
453.1052, 35.88268
453.5873, 38.28452
454.0694, 39.99392
454.5515, 40.69049
455.0337, 40.82272
455.5158, 41.10125
455.9979, 41.50895
456.4800, 41.74892
456.9621, 41.46917
457.4442, 41.00187
457.9264, 41.25148
458.4085, 42.19109
458.8906, 43.15374
459.3727, 43.60004
459.8548, 43.70655
460.3369, 43.70554
460.8191, 43.56814
461.3012, 43.52626
461.7833, 43.76240
462.2654, 44.23179
462.7475, 44.83854
463.2296, 45.84419
463.7118, 46.73443
464.1939, 47.08508
464.6760, 46.86627
465.1581, 46.88576
465.6402, 47.58457
466.1223, 48.49693
466.6045, 49.28745
467.0866, 49.57433
467.5687, 50.15100
468.0508, 51.21543
468.5329, 52.58468
469.0150, 53.87218
469.4972, 54.99889
469.9793, 56.14375
470.4614, 57.40034
470.9435, 58.78712
471.4256, 59.90362
471.9077, 60.69763
472.3899, 61.32770
472.8720, 61.69905
473.3541, 61.72337
473.8362, 62.80464
474.3183, 65.44991
474.8004, 68.75822
475.2826, 70.78880
475.7647, 71.63999
476.2468, 72.70944
476.7289, 74.98271
477.2110, 77.93258
477.6931, 80.28175
478.1753, 82.03146
478.6574, 83.77562
479.1395, 85.92457
479.6216, 88.40178
480.1037, 91.14281
480.5858, 94.31702
481.0680, 97.42297
481.5501, 100.0689
482.0322, 102.4042
482.5143, 104.7147
482.9964, 108.0139
483.4786, 110.5397
483.9607, 111.1736
484.4428, 109.7197
484.9249, 108.2954
485.4070, 107.6124
485.8892, 106.9185
486.3713, 105.6645
486.8534, 103.4210
487.3355, 101.2464
487.8176, 98.97439
488.2997, 96.85347
488.7819, 95.44580
489.2640, 95.07413
489.7461, 94.64971
490.2282, 93.62846
490.7103, 92.08983
491.1924, 91.60416
491.6746, 92.26582
492.1567, 93.56628
492.6388, 95.21957
493.1209, 97.20358
493.6030, 99.06696
494.0851, 100.6977
494.5673, 102.4061
495.0494, 104.4674
495.5315, 106.9438
496.0136, 109.9792
496.4957, 113.9513
496.9778, 118.3497
497.4600, 122.6805
497.9421, 126.9609
498.4242, 131.5306
498.9063, 136.3947
499.3884, 141.7800
499.8705, 148.0975
500.3527, 155.7915
500.8348, 163.3844
501.3169, 170.3658
501.7990, 176.7926
502.2811, 182.7924
502.7632, 188.4373
503.2454, 193.5140
503.7275, 198.4723
504.2096, 203.1399
504.6917, 205.7507
505.1738, 206.3787
505.6559, 204.8515
506.1381, 200.8268
506.6202, 193.8003
507.1023, 186.3026
507.5844, 178.3695
508.0665, 169.9305
508.5486, 160.7574
509.0308, 150.7836
509.5129, 141.2737
509.9950, 132.4330
510.4771, 124.2910
510.9592, 116.5810
511.4413, 109.4049
511.9235, 103.3940
512.4056, 99.68269
512.8877, 97.12634
513.3698, 93.77329
513.8519, 89.40580
514.3340, 85.41226
514.8162, 83.11116
515.2983, 81.65657
515.7804, 80.00540
516.2625, 77.20063
516.7446, 74.96780
517.2267, 74.58257
517.7089, 75.31259
518.1910, 75.36304
518.6731, 73.39826
519.1552, 71.58719
519.6373, 70.81423
520.1194, 71.18893
520.6016, 71.36253
521.0837, 71.33324
521.5658, 71.10330
522.0479, 70.58659
522.5300, 69.60360
523.0121, 69.04635
523.4943, 69.10570
523.9764, 69.43848
524.4585, 69.45280
524.9406, 69.14491
525.4227, 68.67590
525.9048, 67.88691
526.3870, 67.08463
526.8691, 67.26792
527.3513, 68.36544
527.8334, 69.28403
528.3155, 68.91041
528.7976, 67.99251
529.2797, 67.61682
529.7618, 67.95096
530.2440, 68.59951
530.7261, 69.58336
531.2082, 70.62002
531.6903, 71.33019
532.1724, 71.26395
532.6545, 71.20762
533.1367, 71.10612
533.6188, 71.15629
534.1009, 72.04736
534.5830, 75.28152
535.0651, 78.00636
535.5472, 79.00249
536.0294, 77.90411
536.5115, 77.79655
536.9936, 78.93034
537.4757, 80.70403
537.9578, 82.66482
538.4399, 84.83819
538.9221, 87.14954
539.4042, 89.62826
539.8863, 92.22472
540.3684, 94.75410
540.8505, 97.25375
541.3326, 100.1883
541.8148, 103.9439
542.2969, 108.1162
542.7790, 111.9643
543.2611, 115.5386
543.7432, 119.3608
544.2253, 123.9547
544.7075, 128.8854
545.1896, 133.6654
545.6717, 138.1716
546.1538, 142.8547
546.6359, 147.5730
547.1180, 152.7462
547.6002, 158.7628
548.0823, 166.6247
548.5644, 174.2981
549.0465, 181.0649
549.5286, 187.4045
550.0107, 194.7239
550.4929, 203.6540
550.9750, 212.5940
551.4571, 220.8364
551.9392, 228.4077
552.4213, 237.1241
552.9034, 247.1725
553.3856, 257.9065
553.8677, 269.2176
554.3498, 280.9876
554.8319, 291.7326
555.3140, 301.2253
555.7961, 310.0026
556.2783, 319.0096
556.7604, 327.8351
557.2425, 335.2341
557.7246, 341.0846
558.2067, 344.9793
558.6888, 346.7496
559.1710, 346.2783
559.6531, 343.0539
560.1352, 336.2049
560.6173, 327.0359
561.0994, 316.1458
561.5815, 303.4578
562.0637, 289.8999
562.5458, 275.4914
563.0279, 260.3799
563.5100, 244.4332
563.9921, 226.2288
564.4742, 209.5776
564.9564, 194.6577
565.4385, 181.2790
565.9206, 169.3455
566.4027, 159.1118
566.8848, 149.5383
567.3669, 140.4678
567.8491, 131.8523
568.3312, 123.6899
568.8133, 116.0254
569.2954, 109.2230
569.7775, 103.9486
570.2596, 99.63419
570.7418, 95.30066
571.2239, 90.83757
571.7060, 86.84738
572.1881, 84.07756
572.6702, 81.89876
573.1523, 79.57615
573.6345, 76.84501
574.1166, 74.14573
574.5987, 71.55340
575.0808, 69.14516
575.5629, 67.00474
576.0450, 64.96097
576.5272, 63.48084
577.0093, 62.93235
577.4914, 63.12836
577.9735, 62.75867
578.4556, 61.54243
578.9377, 60.34756
579.4199, 59.61496
579.9020, 59.36325
580.3841, 58.99572
580.8662, 58.44893
581.3483, 58.12779
581.8304, 58.77653
582.3126, 60.03996
582.7947, 60.51093
583.2768, 59.64727
583.7589, 58.79431
584.2410, 59.66605
584.7231, 61.57798
585.2053, 63.17539
585.6874, 63.96657
586.1696, 64.21418
586.6517, 63.73330
587.1338, 62.72451
587.6159, 62.06188
588.0980, 62.27472
588.5801, 62.60990
589.0623, 62.83940
589.5444, 63.01581
590.0265, 62.71869
590.5086, 61.85994
590.9907, 60.64247
591.4728, 59.14339
591.9550, 57.31584
592.4371, 55.57979
592.9192, 53.96069
593.4013, 52.49783
593.8834, 51.28939
594.3655, 50.31383
594.8477, 49.42961
595.3298, 48.59975
595.8119, 47.84362
596.2940, 47.36808
596.7761, 47.03408
597.2582, 46.36039
597.7404, 44.55696
598.2225, 42.73536
598.7046, 41.69848
599.1867, 41.49358
599.6688, 41.48161
600.1509, 41.71020
600.6331, 41.89443
601.1152, 41.83215
601.5973, 41.36379
602.0794, 41.02898
602.5615, 40.95098
603.0436, 40.89109
603.5258, 40.50988
604.0079, 39.69759
604.4900, 39.16284
604.9721, 39.03536
605.4542, 39.22449
605.9363, 39.67993
606.4185, 40.35867
606.9006, 40.91490
607.3827, 41.24968
607.8648, 41.32534
608.3469, 40.96072
608.8290, 40.22105
609.3112, 39.49274
609.7933, 38.80270
610.2754, 38.34648
610.7575, 38.39429
611.2396, 39.06359
611.7217, 39.49918
612.2039, 39.28340
612.6860, 38.85298
613.1681, 38.53220
613.6502, 38.33964
614.1323, 38.27568
614.6144, 38.53523
615.0966, 38.75320
615.5787, 38.19535
616.0608, 36.64338
616.5429, 35.79967
617.0250, 36.27021
617.5071, 37.43798
617.9893, 37.74562
618.4714, 37.33351
618.9535, 37.27592
619.4356, 38.60633
619.9177, 40.35416
620.3998, 41.13050
620.8820, 41.03584
621.3641, 41.10997
621.8462, 42.16929
622.3283, 43.46353
622.8104, 44.35434
623.2925, 44.57085
623.7747, 45.18523
624.2568, 46.72187
624.7389, 48.52768
625.2210, 50.03594
625.7031, 50.86837
626.1852, 52.30376
626.6674, 54.65552
627.1495, 57.33320
627.6316, 59.23695
628.1137, 60.32564
628.5958, 61.62354
