##NAMES=Pyrobelonite
##RRUFFID=R100056
##IDEAL CHEMISTRY=Pb^2+^Mn^2+^V^5+^O_4_(OH)
##LOCALITY=Langban, Filipstad, Varmland, Sweden
##OWNER=RRUFF
##SOURCE=William W Pinch
##DESCRIPTION=Isolated red blocky crystals
##STATUS=The identification of this mineral has been confirmed by single-crystal X-ray diffraction.
##URL=rruff.info/R100056
91.53320, 4859.111
92.01532, 4809.847
92.49744, 4778.775
92.97955, 4844.454
93.46167, 4935.354
93.94379, 4980.794
94.42590, 5003.409
94.90802, 5022.301
95.39014, 5045.359
95.87225, 5070.711
96.35437, 5105.563
96.83649, 5149.415
97.31860, 5207.104
97.80072, 5284.704
98.28284, 5376.511
98.76495, 5478.824
99.24707, 5606.654
99.72919, 5772.871
100.2113, 5956.146
100.6934, 6173.438
101.1755, 6404.609
101.6577, 6616.104
102.1398, 6791.251
102.6219, 6952.097
103.1040, 6953.014
103.5861, 6796.155
104.0682, 6531.562
104.5504, 6151.976
105.0325, 5671.221
105.5146, 5144.564
105.9967, 4644.057
106.4788, 4157.374
106.9609, 3735.560
107.4431, 3388.018
107.9252, 3101.984
108.4073, 2866.510
108.8894, 2681.930
109.3715, 2538.089
109.8536, 2419.844
110.3358, 2327.292
110.8179, 2244.762
111.3000, 2167.138
111.7821, 2093.888
112.2642, 2020.049
112.7463, 1943.548
113.2285, 1865.547
113.7106, 1786.742
114.1927, 1707.125
114.6748, 1627.860
115.1569, 1550.495
115.6390, 1472.559
116.1212, 1401.745
116.6033, 1338.867
117.0854, 1282.984
117.5675, 1233.641
118.0496, 1190.555
118.5317, 1153.414
119.0139, 1121.252
119.4960, 1096.248
119.9781, 1074.813
120.4602, 1056.354
120.9423, 1040.860
121.4244, 1028.525
121.9066, 1019.471
122.3887, 1013.708
122.8708, 1011.585
123.3529, 1013.590
123.8350, 1017.738
124.3171, 1022.675
124.7993, 1028.582
125.2814, 1036.999
125.7635, 1049.689
126.2456, 1067.669
126.7277, 1087.061
127.2098, 1108.111
127.6920, 1130.391
128.1741, 1153.824
128.6562, 1178.385
129.1383, 1203.539
129.6204, 1228.366
130.1025, 1252.909
130.5847, 1278.473
131.0668, 1305.250
131.5489, 1333.389
132.0310, 1363.421
132.5131, 1396.439
132.9952, 1430.973
133.4774, 1465.286
133.9595, 1499.371
134.4416, 1534.635
134.9237, 1573.111
135.4058, 1615.680
135.8879, 1656.602
136.3701, 1693.547
136.8522, 1729.198
137.3343, 1764.926
137.8164, 1801.304
138.2985, 1837.428
138.7806, 1871.990
139.2628, 1903.606
139.7449, 1936.267
140.2270, 1969.070
140.7091, 2003.522
141.1912, 2041.237
141.6733, 2082.750
142.1555, 2127.511
142.6376, 2173.028
143.1197, 2218.766
143.6018, 2265.891
144.0839, 2315.251
144.5660, 2366.006
145.0482, 2417.385
145.5303, 2469.222
146.0124, 2520.922
146.4945, 2569.157
146.9766, 2615.620
147.4587, 2657.805
147.9409, 2695.530
148.4230, 2728.415
148.9051, 2754.985
149.3872, 2774.331
149.8693, 2785.304
150.3514, 2790.031
150.8336, 2785.678
151.3157, 2776.829
151.7978, 2767.120
152.2799, 2756.566
152.7620, 2745.215
153.2441, 2734.625
153.7263, 2723.237
154.2084, 2707.341
154.6905, 2688.399
155.1726, 2663.892
155.6547, 2627.758
156.1368, 2578.635
156.6190, 2519.071
157.1011, 2449.784
157.5832, 2372.934
158.0653, 2291.358
158.5474, 2205.248
159.0295, 2115.159
159.5117, 2028.537
159.9938, 1943.104
160.4759, 1863.648
160.9580, 1792.416
161.4401, 1728.710
161.9222, 1670.883
162.4044, 1617.750
162.8865, 1569.101
163.3686, 1525.099
163.8507, 1485.421
164.3328, 1449.864
164.8149, 1418.941
165.2971, 1392.285
165.7792, 1369.601
166.2613, 1350.293
166.7434, 1334.698
167.2255, 1322.787
167.7076, 1316.129
168.1898, 1311.433
168.6719, 1306.346
169.1540, 1300.405
169.6361, 1294.904
170.1182, 1291.634
170.6003, 1291.097
171.0825, 1292.081
171.5646, 1294.289
172.0467, 1298.107
172.5288, 1304.090
173.0109, 1312.450
173.4930, 1322.640
173.9752, 1333.991
174.4573, 1346.134
174.9394, 1360.157
175.4215, 1376.551
175.9036, 1395.121
176.3857, 1415.714
176.8679, 1439.484
177.3500, 1463.766
177.8321, 1486.849
178.3142, 1509.668
178.7963, 1525.869
179.2784, 1533.247
179.7606, 1531.558
180.2427, 1518.143
180.7248, 1489.976
181.2069, 1450.102
181.6890, 1400.575
182.1711, 1341.030
182.6533, 1278.377
183.1354, 1217.494
183.6175, 1157.959
184.0996, 1103.594
184.5817, 1055.913
185.0638, 1013.634
185.5460, 977.4170
186.0281, 947.2853
186.5102, 921.5646
186.9923, 898.2071
187.4744, 877.4901
187.9565, 858.6434
188.4387, 841.3705
188.9208, 825.6652
189.4029, 812.0812
189.8850, 800.6138
190.3671, 790.3450
190.8492, 779.3318
191.3314, 767.2545
191.8135, 754.9935
192.2956, 742.0071
192.7777, 729.2239
193.2598, 717.5327
193.7419, 707.3032
194.2241, 698.1148
194.7062, 688.9715
195.1883, 679.3812
195.6704, 670.4117
196.1525, 662.0048
196.6346, 654.2854
197.1168, 647.4893
197.5989, 641.7366
198.0810, 636.7821
198.5631, 631.9617
199.0452, 627.2073
199.5273, 622.6508
200.0095, 618.1313
200.4916, 613.8551
200.9737, 610.1136
201.4558, 607.0106
201.9379, 604.5487
202.4200, 602.7362
202.9022, 601.6359
203.3843, 600.8781
203.8664, 600.7488
204.3485, 600.9256
204.8306, 600.3807
205.3127, 598.3447
205.7949, 595.6917
206.2770, 594.3919
206.7591, 594.9291
207.2412, 595.6096
207.7233, 595.3286
208.2054, 594.2538
208.6876, 593.4438
209.1697, 593.4156
209.6518, 593.8283
210.1339, 594.1323
210.6160, 594.2863
211.0981, 594.3901
211.5803, 594.5076
212.0624, 594.6389
212.5445, 594.8036
213.0266, 595.1180
213.5087, 595.3951
213.9908, 595.3854
214.4730, 594.9982
214.9551, 594.6326
215.4372, 594.6798
215.9193, 595.1474
216.4014, 595.9957
216.8836, 597.8198
217.3657, 599.6949
217.8478, 600.9938
218.3299, 601.5565
218.8120, 601.6873
219.2941, 601.5360
219.7763, 600.6917
220.2584, 600.9684
220.7405, 603.8002
221.2226, 607.1061
221.7047, 609.4720
222.1868, 610.5176
222.6690, 610.8375
223.1511, 611.2364
223.6332, 611.4229
224.1153, 612.4362
224.5974, 614.8735
225.0795, 617.7043
225.5617, 620.2513
226.0438, 622.3080
226.5259, 624.0395
227.0080, 625.6660
227.4901, 626.8207
227.9722, 628.5989
228.4544, 631.2297
228.9365, 634.2748
229.4186, 637.3959
229.9007, 640.4879
230.3828, 643.6588
230.8649, 647.0781
231.3471, 651.0427
231.8292, 654.8106
232.3113, 657.8712
232.7934, 661.0286
233.2755, 665.1620
233.7576, 670.4314
234.2398, 676.1085
234.7219, 680.8575
235.2040, 683.4437
235.6861, 687.3975
236.1682, 694.1877
236.6503, 701.5213
237.1325, 707.0549
237.6146, 710.2031
238.0967, 712.4832
238.5788, 716.1881
239.0609, 722.2286
239.5430, 727.6015
240.0252, 731.5201
240.5073, 735.0469
240.9894, 739.1120
241.4715, 743.9598
241.9536, 749.4327
242.4357, 755.5792
242.9179, 762.6940
243.4000, 769.0353
243.8821, 773.9441
244.3642, 778.2108
244.8463, 782.5173
245.3284, 786.9976
245.8106, 791.8549
246.2927, 797.4767
246.7748, 803.8928
247.2569, 810.2805
247.7390, 816.5956
248.2211, 822.8134
248.7033, 828.7616
249.1854, 834.3605
249.6675, 840.2018
250.1496, 847.1852
250.6317, 855.1610
251.1138, 862.7695
251.5960, 869.5979
252.0781, 875.9872
252.5602, 882.7418
253.0423, 890.1038
253.5244, 896.6384
254.0065, 900.2895
254.4887, 901.9424
254.9708, 903.9104
255.4529, 906.8669
255.9350, 910.4128
256.4171, 914.1271
256.8992, 918.0937
257.3813, 921.7871
257.8635, 924.9394
258.3456, 927.5555
258.8277, 929.4911
259.3098, 930.3496
259.7919, 930.6888
260.2740, 931.3318
260.7562, 932.3690
261.2383, 933.2946
261.7204, 933.0203
262.2025, 932.6542
262.6846, 933.7524
263.1667, 937.1451
263.6489, 941.7141
264.1310, 945.8514
264.6131, 949.3499
265.0952, 953.3232
265.5773, 958.4951
266.0594, 964.3036
266.5416, 970.2322
267.0237, 976.0345
267.5058, 982.2421
267.9879, 989.6590
268.4700, 998.3915
268.9521, 1007.811
269.4343, 1017.568
269.9164, 1028.068
270.3985, 1039.706
270.8806, 1052.599
271.3627, 1066.463
271.8448, 1080.764
272.3270, 1095.371
272.8091, 1111.422
273.2912, 1129.357
273.7733, 1148.819
274.2554, 1169.750
274.7375, 1192.267
275.2197, 1216.299
275.7018, 1241.882
276.1839, 1268.816
276.6660, 1297.900
277.1481, 1328.770
277.6302, 1362.351
278.1124, 1398.710
278.5945, 1438.129
279.0766, 1480.908
279.5587, 1527.513
280.0408, 1578.173
280.5229, 1631.526
281.0051, 1687.285
281.4872, 1746.173
281.9693, 1809.679
282.4514, 1876.835
282.9335, 1945.243
283.4156, 2012.402
283.8978, 2078.255
284.3799, 2145.620
284.8620, 2215.802
285.3441, 2286.307
285.8262, 2356.259
286.3083, 2425.806
286.7905, 2495.572
287.2726, 2565.682
287.7547, 2636.186
288.2368, 2706.167
288.7189, 2772.948
289.2010, 2842.742
289.6832, 2917.666
290.1653, 2996.051
290.6474, 3075.507
291.1295, 3153.856
291.6116, 3232.556
292.0938, 3317.281
292.5759, 3410.765
293.0580, 3506.652
293.5401, 3600.989
294.0222, 3697.794
294.5043, 3801.190
294.9865, 3913.162
295.4686, 4031.900
295.9507, 4153.001
296.4328, 4275.307
296.9149, 4402.438
297.3970, 4535.256
297.8792, 4671.750
298.3613, 4811.083
298.8434, 4952.991
299.3255, 5094.099
299.8076, 5229.966
300.2897, 5364.380
300.7719, 5483.764
301.2540, 5593.122
301.7361, 5686.367
302.2182, 5761.483
302.7003, 5817.125
303.1824, 5852.792
303.6646, 5867.041
304.1467, 5857.327
304.6288, 5833.857
305.1109, 5790.728
305.5930, 5739.825
306.0751, 5681.550
306.5573, 5619.281
307.0394, 5559.908
307.5215, 5508.795
308.0036, 5465.433
308.4857, 5434.453
308.9678, 5412.602
309.4500, 5407.206
309.9321, 5422.360
310.4142, 5456.088
310.8963, 5504.106
311.3784, 5563.921
311.8605, 5635.625
312.3427, 5718.227
312.8248, 5812.443
313.3069, 5919.751
313.7890, 6045.473
314.2711, 6182.658
314.7532, 6324.634
315.2354, 6467.506
315.7175, 6611.452
316.1996, 6755.323
316.6817, 6903.829
317.1638, 7045.311
317.6459, 7180.407
318.1281, 7308.056
318.6102, 7426.760
319.0923, 7536.101
319.5744, 7636.241
320.0565, 7726.416
320.5386, 7802.290
321.0208, 7877.464
321.5029, 7951.041
321.9850, 8024.976
322.4671, 8099.756
322.9492, 8176.152
323.4313, 8255.357
323.9135, 8339.380
324.3956, 8428.062
324.8777, 8522.205
325.3598, 8621.365
325.8419, 8726.578
326.3240, 8841.302
326.8062, 8963.471
327.2883, 9089.231
327.7704, 9217.519
328.2525, 9347.606
328.7346, 9470.866
329.2167, 9590.849
329.6989, 9699.341
330.1810, 9798.850
330.6631, 9885.260
331.1452, 9953.084
331.6273, 9999.994
332.1094, 10025.03
332.5916, 10026.60
333.0737, 10013.95
333.5558, 9956.741
334.0379, 9852.731
334.5200, 9708.553
335.0021, 9529.785
335.4843, 9318.072
335.9664, 9075.374
336.4485, 8803.453
336.9306, 8494.753
337.4127, 8176.418
337.8948, 7841.292
338.3770, 7504.321
338.8591, 7170.929
339.3412, 6842.078
339.8233, 6522.959
340.3055, 6215.722
340.7876, 5921.476
341.2697, 5639.553
341.7518, 5367.756
342.2339, 5114.321
342.7160, 4882.186
343.1982, 4670.387
343.6803, 4475.261
344.1624, 4295.325
344.6445, 4129.909
345.1266, 3975.953
345.6087, 3834.913
346.0909, 3704.472
346.5730, 3581.989
347.0551, 3467.964
347.5372, 3364.541
348.0193, 3272.078
348.5014, 3188.323
348.9836, 3107.809
349.4657, 3030.167
349.9478, 2958.342
350.4299, 2894.671
350.9120, 2836.034
351.3941, 2780.851
351.8763, 2728.884
352.3584, 2680.524
352.8405, 2637.369
353.3226, 2599.367
353.8047, 2562.136
354.2868, 2524.591
354.7690, 2488.405
355.2511, 2453.728
355.7332, 2420.862
356.2153, 2391.440
356.6974, 2370.833
357.1795, 2355.213
357.6617, 2328.309
358.1438, 2285.533
358.6259, 2240.875
359.1080, 2201.042
359.5901, 2165.044
360.0722, 2131.189
360.5544, 2098.370
361.0365, 2068.110
361.5186, 2042.008
362.0007, 2020.249
362.4828, 2002.282
362.9649, 1987.930
363.4471, 1977.586
363.9292, 1971.432
364.4113, 1969.541
364.8934, 1971.725
365.3755, 1977.584
365.8576, 1987.279
366.3398, 2002.211
366.8219, 2024.474
367.3040, 2049.749
367.7861, 2072.452
368.2682, 2092.993
368.7503, 2117.149
369.2325, 2149.256
369.7146, 2186.009
370.1967, 2221.698
370.6788, 2255.765
371.1609, 2289.856
371.6430, 2325.614
372.1252, 2362.419
372.6073, 2397.398
373.0894, 2432.999
373.5715, 2464.282
374.0536, 2487.910
374.5357, 2503.841
375.0179, 2512.422
375.5000, 2514.431
375.9821, 2507.897
376.4642, 2489.213
376.9463, 2458.634
377.4284, 2418.221
377.9106, 2366.382
378.3927, 2305.787
378.8748, 2239.990
379.3569, 2169.576
379.8390, 2096.903
380.3211, 2023.582
380.8033, 1948.935
381.2854, 1878.928
381.7675, 1813.808
382.2496, 1754.045
382.7317, 1699.735
383.2138, 1650.953
383.6960, 1607.953
384.1781, 1570.813
384.6602, 1539.628
385.1423, 1513.039
385.6244, 1491.770
386.1065, 1473.223
386.5887, 1457.481
387.0708, 1443.809
387.5529, 1431.047
388.0350, 1418.684
388.5171, 1406.919
388.9992, 1396.155
389.4814, 1387.166
389.9635, 1378.121
390.4456, 1370.162
390.9277, 1361.410
391.4098, 1350.078
391.8919, 1336.126
392.3741, 1320.906
392.8562, 1305.885
393.3383, 1291.164
393.8204, 1275.408
394.3025, 1259.593
394.7846, 1241.830
395.2668, 1219.819
395.7489, 1195.486
396.2310, 1172.219
396.7131, 1151.950
397.1952, 1134.138
397.6773, 1116.623
398.1595, 1097.589
398.6416, 1082.070
399.1237, 1069.707
399.6058, 1061.165
400.0879, 1057.185
400.5700, 1057.852
401.0522, 1062.293
401.5343, 1069.516
402.0164, 1079.403
402.4985, 1092.688
402.9806, 1110.017
403.4627, 1130.563
403.9449, 1154.083
404.4270, 1180.518
404.9091, 1209.857
405.3912, 1242.438
405.8733, 1277.808
406.3554, 1314.019
406.8376, 1350.760
407.3197, 1389.884
407.8018, 1433.752
408.2839, 1479.531
408.7660, 1523.827
409.2481, 1565.988
409.7303, 1608.057
410.2124, 1652.279
410.6945, 1698.536
411.1766, 1746.208
411.6587, 1795.575
412.1408, 1846.221
412.6230, 1897.704
413.1051, 1949.930
413.5872, 2002.402
414.0693, 2053.647
414.5514, 2105.542
415.0335, 2161.029
415.5157, 2220.477
415.9978, 2281.357
416.4799, 2342.780
416.9620, 2404.315
417.4441, 2464.460
417.9262, 2520.985
418.4084, 2579.112
418.8905, 2642.984
419.3726, 2710.637
419.8547, 2776.954
420.3368, 2840.349
420.8189, 2901.390
421.3011, 2961.161
421.7832, 3020.961
422.2653, 3074.024
422.7474, 3121.901
423.2295, 3161.180
423.7116, 3188.746
424.1938, 3204.626
424.6759, 3211.771
425.1580, 3212.800
425.6401, 3207.406
426.1222, 3189.186
426.6043, 3154.998
427.0865, 3113.853
427.5686, 3066.348
428.0507, 3013.527
428.5328, 2956.085
429.0149, 2894.217
429.4970, 2829.022
429.9792, 2762.086
430.4613, 2693.687
430.9434, 2621.755
431.4255, 2543.876
431.9076, 2465.099
432.3897, 2387.769
432.8719, 2311.882
433.3540, 2236.127
433.8361, 2159.792
434.3182, 2083.086
434.8003, 2005.861
435.2824, 1926.170
435.7646, 1849.700
436.2467, 1778.219
436.7288, 1710.253
437.2109, 1644.736
437.6930, 1581.289
438.1751, 1520.301
438.6573, 1461.696
439.1394, 1405.431
439.6215, 1352.520
440.1036, 1302.877
440.5857, 1257.105
441.0678, 1215.365
441.5500, 1177.315
442.0321, 1141.793
442.5142, 1108.855
442.9963, 1077.683
443.4784, 1046.121
443.9605, 1013.884
444.4427, 983.4258
444.9248, 956.2214
445.4069, 931.7134
445.8890, 908.9785
446.3711, 888.1533
446.8532, 868.3961
447.3354, 849.6987
447.8175, 831.7476
448.2996, 813.6943
448.7817, 795.2829
449.2638, 777.3620
449.7459, 761.0040
450.2281, 746.3136
450.7102, 732.1856
451.1923, 718.4184
451.6744, 705.3420
452.1565, 693.2759
452.6386, 682.1156
453.1208, 671.7960
453.6029, 662.3476
454.0850, 653.3239
454.5671, 643.4774
455.0492, 631.0922
455.5313, 620.2453
456.0135, 611.5792
456.4956, 604.0560
456.9777, 597.0750
457.4598, 590.3967
457.9419, 583.5837
458.4240, 576.0940
458.9062, 567.9255
459.3883, 560.4125
459.8704, 554.0170
460.3525, 547.7657
460.8346, 541.5333
461.3167, 535.2963
461.7989, 528.9271
462.2810, 522.3376
462.7631, 515.9852
463.2452, 510.6526
463.7273, 506.4973
464.2094, 502.4185
464.6916, 498.3128
465.1737, 494.2197
465.6558, 490.2617
466.1379, 486.3670
466.6200, 482.2241
467.1021, 477.4259
467.5843, 472.3698
468.0664, 467.9541
468.5485, 464.2445
469.0306, 460.5647
469.5127, 456.4952
469.9948, 452.3546
470.4770, 448.7050
470.9591, 445.6550
471.4412, 442.7667
471.9233, 439.9765
472.4054, 437.1621
472.8875, 434.0099
473.3697, 430.4367
473.8518, 426.9790
474.3339, 424.1697
474.8160, 422.0221
475.2981, 419.7212
475.7802, 417.2323
476.2624, 414.6400
476.7445, 411.8329
477.2266, 408.9549
477.7087, 406.3034
478.1908, 403.9753
478.6729, 401.8464
479.1551, 399.6805
479.6372, 397.2657
480.1193, 395.3224
480.6014, 394.4460
481.0835, 393.4335
481.5656, 391.3751
482.0478, 388.5832
482.5299, 386.0418
483.0120, 384.4412
483.4941, 383.5035
483.9762, 382.2511
484.4583, 380.6407
484.9405, 378.7926
485.4226, 376.6433
485.9047, 374.3450
486.3868, 371.7439
486.8689, 368.9315
487.3510, 366.7499
487.8332, 366.5135
488.3153, 367.6767
488.7974, 367.3417
489.2795, 364.8199
489.7616, 362.2446
490.2437, 361.2633
490.7259, 360.9862
491.2080, 359.9855
491.6901, 357.7005
492.1722, 355.2862
492.6543, 353.4857
493.1364, 352.2191
493.6186, 351.3402
494.1007, 350.8678
494.5828, 350.5049
495.0649, 349.9997
495.5470, 349.3571
496.0291, 348.2110
496.5113, 346.0746
496.9934, 343.8681
497.4755, 341.9854
497.9576, 340.4669
498.4397, 339.3915
498.9218, 338.8236
499.4040, 338.5283
499.8861, 337.9802
500.3682, 336.9315
500.8503, 336.0931
501.3324, 335.5892
501.8145, 335.1593
502.2967, 334.7113
502.7788, 334.1957
503.2609, 333.5209
503.7430, 332.5771
504.2251, 331.4725
504.7072, 330.6931
505.1894, 330.4807
505.6715, 330.0264
506.1536, 328.8765
506.6357, 327.5717
507.1178, 326.4796
507.5999, 325.6591
508.0821, 325.0747
508.5642, 324.8932
509.0463, 324.9261
509.5284, 324.5615
510.0105, 323.6932
510.4926, 322.7487
510.9748, 321.9262
511.4569, 321.2391
511.9390, 320.6919
512.4211, 320.2806
512.9032, 320.0259
513.3853, 320.1883
513.8674, 320.4470
514.3495, 319.9908
514.8317, 318.6397
515.3138, 317.6059
515.7959, 318.3491
516.2780, 321.0865
516.7601, 322.1912
517.2422, 320.5511
517.7244, 318.8090
518.2065, 317.7108
518.6886, 317.1128
519.1707, 316.8319
519.6528, 316.7800
520.1349, 316.7570
520.6171, 316.4074
521.0992, 315.5851
521.5813, 315.0439
522.0634, 315.1328
522.5455, 315.1696
523.0276, 314.7777
523.5098, 314.1762
523.9919, 313.8073
524.4740, 313.8997
524.9561, 314.2003
525.4382, 314.4955
525.9203, 314.7910
526.4025, 314.4381
526.8846, 312.7871
527.3667, 311.1070
527.8488, 310.9112
528.3309, 311.9286
528.8130, 312.3799
529.2952, 311.2293
529.7773, 309.6875
530.2594, 308.9258
530.7415, 308.7987
531.2236, 308.4869
531.7057, 307.5863
532.1879, 306.4333
532.6700, 305.6673
533.1521, 305.3978
533.6342, 305.3082
534.1163, 305.6977
534.5984, 306.0090
535.0806, 305.8579
535.5627, 305.3040
536.0448, 304.5617
536.5269, 303.7392
537.0090, 302.9323
537.4911, 302.4904
537.9733, 302.6783
538.4554, 302.6353
538.9375, 302.0895
539.4196, 301.4360
539.9017, 300.9286
540.3839, 300.5460
540.8660, 300.0891
541.3481, 299.3160
541.8302, 298.4461
542.3123, 298.0678
542.7944, 298.2576
543.2766, 298.2698
543.7587, 297.7038
544.2408, 296.9011
544.7229, 295.7918
545.2050, 294.0375
545.6871, 294.7270
546.1693, 302.7981
546.6514, 311.4398
547.1335, 312.1296
547.6156, 305.3448
548.0977, 297.8989
548.5798, 293.7150
549.0620, 292.2005
549.5441, 291.3781
550.0262, 292.1797
550.5083, 292.4381
550.9904, 291.6122
551.4725, 290.6400
551.9547, 290.3505
552.4368, 290.6369
552.9189, 290.7606
553.4010, 290.1338
553.8831, 288.9629
554.3652, 288.0697
554.8474, 287.4940
555.3295, 287.1111
555.8116, 287.0303
556.2937, 287.0423
556.7758, 287.0462
557.2579, 287.0215
557.7401, 286.9034
558.2222, 286.5891
558.7043, 286.1834
559.1864, 285.7860
559.6685, 285.4014
560.1506, 285.3257
560.6328, 285.8269
561.1149, 286.6047
561.5970, 287.0492
562.0791, 287.2277
562.5612, 286.9635
563.0433, 285.6862
563.5255, 284.3534
564.0076, 283.8125
564.4897, 284.0050
564.9718, 284.3937
565.4539, 284.6639
565.9360, 284.7896
566.4182, 284.6702
566.9003, 284.1865
567.3824, 283.6779
567.8645, 282.9145
568.3466, 282.3509
568.8287, 282.4560
569.3109, 283.0616
569.7930, 283.5207
570.2751, 283.3679
570.7572, 282.8871
571.2393, 282.6709
571.7214, 282.7362
572.2036, 282.8732
572.6857, 283.0815
573.1678, 283.2607
573.6499, 283.3126
574.1320, 283.2409
574.6141, 283.0389
575.0963, 282.5444
575.5784, 282.0451
576.0605, 281.8926
576.5426, 281.9691
577.0247, 281.8108
577.5068, 281.1840
577.9890, 280.3730
578.4711, 279.9262
578.9532, 280.0595
579.4353, 280.0154
579.9174, 279.4015
580.3995, 279.0229
580.8817, 279.4707
581.3638, 280.4080
581.8459, 281.2101
582.3280, 281.5960
582.8101, 281.6162
583.2922, 281.1463
583.7744, 280.1118
584.2565, 279.7746
584.7386, 280.7991
585.2207, 281.8387
585.7029, 281.6281
586.1850, 280.6945
586.6671, 280.4665
587.1492, 282.0768
587.6313, 283.4162
588.1135, 282.4249
588.5956, 280.0465
589.0777, 278.5446
589.5598, 278.5023
