##NAMES=Pyrope
##RRUFFID=R050446
##IDEAL CHEMISTRY=Mg_3_Al_2_(SiO_4_)_3_
##LOCALITY=Sunset Crater, Arizona, USA
##OWNER=RRUFF
##SOURCE=Marcus Origlieri
##DESCRIPTION=Red fragment
##STATUS=The identification of this mineral has been confirmed by X-ray diffraction and chemical analysis
##URL=rruff.info/R050446
##MEASURED CHEMISTRY=(Mg_1.93_Fe^2+^_0.65_Ca_0.42_)_Î£=3_Al_2.00_(Si_1.00_O_4_)_3_
93.78320, 59.01215
94.26532, 59.48707
94.74744, 59.65310
95.22955, 59.35845
95.71167, 59.01586
96.19379, 58.99172
96.67590, 59.56428
97.15802, 59.94339
97.64014, 59.90233
98.12225, 59.61619
98.60437, 59.44994
99.08649, 59.66953
99.56860, 59.87495
100.0507, 59.41409
100.5328, 58.05968
101.0150, 56.66090
101.4971, 55.83381
101.9792, 55.58134
102.4613, 55.51355
102.9434, 55.66837
103.4255, 55.84531
103.9077, 55.85905
104.3898, 55.61690
104.8719, 55.29370
105.3540, 55.28083
105.8361, 55.85679
106.3182, 56.25372
106.8004, 56.29194
107.2825, 56.08772
107.7646, 55.71636
108.2467, 55.18261
108.7288, 54.52717
109.2109, 54.36163
109.6931, 55.52812
110.1752, 56.33467
110.6573, 55.95440
111.1394, 54.74323
111.6215, 53.71307
112.1036, 53.79190
112.5858, 55.18488
113.0679, 56.28902
113.5500, 57.14655
114.0321, 57.72314
114.5142, 57.87374
114.9964, 57.57756
115.4785, 57.19452
115.9606, 57.22217
116.4427, 57.63482
116.9248, 57.83675
117.4069, 57.42402
117.8891, 56.72301
118.3712, 56.46767
118.8533, 57.01633
119.3354, 57.70891
119.8175, 57.84653
120.2996, 57.48122
120.7818, 57.14550
121.2639, 57.29869
121.7460, 57.96259
122.2281, 58.50911
122.7102, 58.99014
123.1923, 59.18958
123.6745, 58.80604
124.1566, 57.83109
124.6387, 56.72024
125.1208, 56.16994
125.6029, 56.54783
126.0850, 56.72650
126.5672, 56.41902
127.0493, 56.01658
127.5314, 55.87003
128.0135, 56.11339
128.4956, 56.58559
128.9777, 56.83774
129.4599, 56.60851
129.9420, 56.43052
130.4241, 56.40073
130.9062, 56.43638
131.3883, 56.41056
131.8705, 56.24981
132.3526, 55.97620
132.8347, 55.71484
133.3168, 55.33006
133.7989, 55.08115
134.2810, 55.13046
134.7632, 55.43891
135.2453, 55.80649
135.7274, 56.15468
136.2095, 56.45005
136.6916, 56.61792
137.1737, 56.43764
137.6559, 56.25938
138.1380, 56.55520
138.6201, 57.44968
139.1022, 58.22884
139.5843, 58.22630
140.0664, 57.83492
140.5486, 57.60056
141.0307, 57.83981
141.5128, 58.38105
141.9949, 58.73125
142.4770, 58.89539
142.9591, 58.82162
143.4413, 58.33530
143.9234, 57.63570
144.4055, 57.08788
144.8876, 57.01399
145.3697, 57.41808
145.8518, 57.61720
146.3340, 57.39642
146.8161, 57.14405
147.2982, 56.99669
147.7803, 56.92822
148.2624, 56.83289
148.7445, 56.61370
149.2267, 56.28019
149.7088, 55.75692
150.1909, 54.75736
150.6730, 53.83346
151.1551, 53.38692
151.6372, 53.42590
152.1194, 53.58515
152.6015, 53.41295
153.0836, 52.75552
153.5657, 52.11909
154.0478, 51.53617
154.5299, 50.95789
155.0121, 50.28239
155.4942, 49.47074
155.9763, 48.71077
156.4584, 48.39844
156.9405, 48.58515
157.4227, 48.59449
157.9048, 48.01885
158.3869, 47.14723
158.8690, 46.66100
159.3511, 46.92283
159.8332, 47.32415
160.3154, 47.06103
160.7975, 46.12143
161.2796, 45.18008
161.7617, 44.67858
162.2438, 44.58490
162.7259, 44.51995
163.2081, 44.44397
163.6902, 44.32647
164.1723, 44.09053
164.6544, 43.73076
165.1365, 43.43664
165.6186, 43.52572
166.1008, 44.16550
166.5829, 44.42069
167.0650, 43.60607
167.5471, 42.70845
168.0292, 42.38443
168.5113, 42.78732
168.9935, 43.54197
169.4756, 44.03695
169.9577, 44.16267
170.4398, 44.21381
170.9219, 44.05437
171.4040, 43.92680
171.8862, 44.13265
172.3683, 44.76428
172.8504, 45.54472
173.3325, 45.80748
173.8146, 44.58989
174.2967, 43.99777
174.7789, 44.43214
175.2610, 45.40360
175.7431, 46.35357
176.2252, 47.03704
176.7073, 47.54991
177.1894, 48.20733
177.6716, 49.14679
178.1537, 50.04679
178.6358, 50.90516
179.1179, 51.68376
179.6000, 52.27469
180.0821, 52.55963
180.5643, 52.70447
181.0464, 53.23808
181.5285, 54.44973
182.0106, 55.56711
182.4927, 56.00486
182.9749, 55.94757
183.4570, 56.28013
183.9391, 57.65270
184.4212, 59.55653
184.9033, 60.82545
185.3854, 61.13475
185.8676, 61.31810
186.3497, 62.16640
186.8318, 63.70405
187.3139, 65.05009
187.7960, 65.72261
188.2781, 66.01383
188.7603, 66.17078
189.2424, 66.16895
189.7245, 66.20517
190.2066, 66.55884
190.6887, 67.29968
191.1708, 68.11559
191.6530, 68.85229
192.1351, 69.62888
192.6172, 70.58945
193.0993, 71.80358
193.5814, 73.13116
194.0635, 74.28121
194.5457, 75.19427
195.0278, 76.02863
195.5099, 76.72243
195.9920, 77.40942
196.4741, 78.27788
196.9562, 79.42577
197.4384, 80.68060
197.9205, 81.52010
198.4026, 81.39909
198.8847, 81.59927
199.3668, 82.48787
199.8489, 83.69164
200.3311, 84.79848
200.8132, 85.59991
201.2953, 86.16586
201.7774, 86.76349
202.2595, 87.54150
202.7416, 88.18409
203.2238, 88.64104
203.7059, 88.94974
204.1880, 89.15472
204.6701, 89.27254
205.1522, 89.32359
205.6344, 89.39761
206.1165, 89.29555
206.5986, 89.43522
207.0807, 90.27208
207.5628, 91.39520
208.0449, 92.00995
208.5271, 91.65614
209.0092, 90.55501
209.4913, 89.61341
209.9734, 88.85434
210.4555, 88.18362
210.9376, 87.66145
211.4198, 87.21867
211.9019, 86.63767
212.3840, 85.77223
212.8661, 84.73581
213.3482, 83.85448
213.8303, 83.18263
214.3125, 82.56733
214.7946, 82.02375
215.2767, 81.51048
215.7588, 80.78606
216.2409, 79.59862
216.7230, 78.23499
217.2052, 77.20977
217.6873, 76.64050
218.1694, 76.18553
218.6515, 75.68951
219.1336, 75.14280
219.6157, 74.31721
220.0979, 72.84090
220.5800, 71.21364
221.0621, 70.00584
221.5442, 69.33973
222.0263, 68.84245
222.5084, 68.16114
222.9906, 67.27563
223.4727, 66.39313
223.9548, 65.57898
224.4369, 64.79541
224.9190, 63.98334
225.4011, 63.12053
225.8833, 62.34769
226.3654, 61.88707
226.8475, 61.83048
227.3296, 61.65052
227.8117, 61.05135
228.2938, 60.41317
228.7760, 60.00121
229.2581, 59.86160
229.7402, 59.81166
230.2223, 59.62681
230.7044, 59.30112
231.1866, 58.84736
231.6687, 58.00994
232.1508, 57.23347
232.6329, 56.82920
233.1150, 56.83883
233.5971, 57.05157
234.0793, 57.19760
234.5614, 57.29446
235.0435, 57.26871
235.5256, 57.00338
236.0077, 56.71959
236.4898, 56.55216
236.9720, 56.52518
237.4541, 56.57743
237.9362, 56.64626
238.4183, 56.80739
238.9004, 56.78160
239.3825, 56.42574
239.8647, 56.02600
240.3468, 55.74866
240.8289, 55.62296
241.3110, 55.59266
241.7931, 55.58839
242.2752, 55.60378
242.7574, 55.67503
243.2395, 55.79702
243.7216, 55.96780
244.2037, 56.20231
244.6858, 56.49385
245.1679, 56.82188
245.6501, 57.20028
246.1322, 57.72437
246.6143, 57.80659
247.0964, 57.11309
247.5785, 56.27974
248.0606, 55.69819
248.5428, 55.41133
249.0249, 55.26237
249.5070, 55.11036
249.9891, 54.95185
250.4712, 54.83209
250.9533, 54.79517
251.4355, 54.76066
251.9176, 54.64033
252.3997, 54.44505
252.8818, 54.31431
253.3639, 54.42387
253.8460, 54.76360
254.3282, 54.76547
254.8103, 54.01516
255.2924, 53.26148
255.7745, 53.15569
256.2566, 53.64744
256.7387, 54.02882
257.2209, 53.68016
257.7030, 52.76439
258.1851, 52.40400
258.6672, 53.14315
259.1493, 53.99644
259.6314, 54.20816
260.1136, 53.84093
260.5957, 53.54357
261.0778, 53.77074
261.5599, 54.32815
262.0420, 54.58458
262.5241, 54.43016
263.0063, 54.09837
263.4884, 53.65426
263.9705, 53.12205
264.4526, 52.72562
264.9347, 52.63287
265.4168, 52.71000
265.8990, 52.67778
266.3811, 52.48756
266.8632, 52.28544
267.3453, 52.25002
267.8275, 52.34217
268.3096, 52.20275
268.7917, 51.46589
269.2738, 50.65793
269.7559, 50.51713
270.2380, 51.16719
270.7202, 51.86881
271.2023, 52.10979
271.6844, 51.94487
272.1665, 51.72798
272.6486, 51.46980
273.1307, 51.28049
273.6129, 51.31095
274.0950, 51.55779
274.5771, 51.72981
275.0592, 51.53427
275.5413, 51.05487
276.0234, 50.80578
276.5056, 51.01134
276.9877, 51.27041
277.4698, 51.23301
277.9519, 50.95454
278.4340, 50.71604
278.9161, 50.77360
279.3983, 51.03503
279.8804, 51.06745
280.3625, 50.73738
280.8446, 50.33727
281.3267, 49.99295
281.8088, 49.71901
282.2910, 49.55437
282.7731, 49.56507
283.2552, 49.70012
283.7373, 49.78254
284.2194, 49.76514
284.7015, 49.78532
285.1837, 49.81826
285.6658, 49.93893
286.1479, 50.33418
286.6300, 51.27752
287.1121, 52.35810
287.5942, 52.49624
288.0764, 51.17850
288.5585, 50.12785
289.0406, 50.09263
289.5227, 50.57361
290.0048, 51.11929
290.4869, 51.59912
290.9691, 51.99559
291.4512, 52.29766
291.9333, 52.53006
292.4154, 52.58250
292.8975, 52.14094
293.3796, 51.67871
293.8618, 51.65867
294.3439, 52.19674
294.8260, 52.81732
295.3081, 52.85516
295.7902, 52.17574
296.2723, 51.55428
296.7545, 50.82533
297.2366, 50.40516
297.7187, 50.66854
298.2008, 51.59560
298.6829, 52.75423
299.1650, 53.81897
299.6472, 54.83057
300.1293, 55.37989
300.6114, 54.93604
301.0935, 54.44685
301.5756, 54.25156
302.0577, 54.36682
302.5399, 54.71865
303.0220, 55.36679
303.5041, 56.28317
303.9862, 56.82257
304.4683, 56.59137
304.9504, 56.42403
305.4326, 56.61654
305.9147, 57.08708
306.3968, 57.67095
306.8789, 58.28564
307.3610, 58.92773
307.8431, 59.57105
308.3253, 60.21879
308.8074, 60.86338
309.2895, 61.52672
309.7716, 62.18035
310.2537, 62.74634
310.7358, 63.17365
311.2180, 63.59268
311.7001, 64.32140
312.1822, 65.54972
312.6643, 66.68324
313.1464, 67.67730
313.6285, 68.50851
314.1107, 69.09300
314.5928, 69.41904
315.0749, 69.68303
315.5570, 70.21360
316.0392, 71.14346
316.5213, 71.84898
317.0034, 72.22760
317.4855, 72.40035
317.9676, 72.33274
318.4497, 72.07002
318.9319, 71.79566
319.4140, 71.77245
319.8961, 72.06033
320.3782, 72.00980
320.8603, 71.32001
321.3424, 70.54816
321.8246, 69.78969
322.3067, 69.11365
322.7888, 68.61469
323.2709, 68.33863
323.7530, 68.29926
324.2351, 68.66786
324.7173, 70.00632
325.1994, 70.95131
325.6815, 70.91540
326.1636, 70.32112
326.6457, 69.70071
327.1278, 69.26591
327.6100, 69.08098
328.0921, 69.36731
328.5742, 70.39173
329.0563, 71.31984
329.5384, 71.84552
330.0205, 72.26366
330.5027, 72.82348
330.9848, 73.59917
331.4669, 74.48805
331.9490, 75.31677
332.4311, 76.02427
332.9132, 76.94205
333.3954, 78.25110
333.8775, 79.69951
334.3596, 81.16983
334.8417, 82.64909
335.3238, 84.16238
335.8059, 85.67944
336.2881, 87.20001
336.7702, 88.95103
337.2523, 91.16799
337.7344, 93.36639
338.2165, 95.21098
338.6986, 96.86144
339.1808, 98.72319
339.6629, 101.0971
340.1450, 103.8576
340.6271, 106.5496
341.1092, 109.1211
341.5913, 111.7132
342.0735, 114.2639
342.5556, 116.9017
343.0377, 119.8026
343.5198, 123.0442
344.0019, 126.5430
344.4840, 130.1416
344.9662, 133.8541
345.4483, 137.7061
345.9304, 141.7177
346.4125, 145.8911
346.8946, 150.1703
347.3767, 154.5769
347.8589, 159.2617
348.3410, 164.3677
348.8231, 169.9096
349.3052, 175.6826
349.7873, 181.7112
350.2694, 187.9736
350.7516, 194.3008
351.2337, 200.7742
351.7158, 207.6087
352.1979, 214.9826
352.6800, 222.8559
353.1621, 231.1056
353.6443, 239.8879
354.1264, 248.6843
354.6085, 257.1448
355.0906, 265.4473
355.5727, 273.8301
356.0548, 282.5266
356.5370, 291.1610
357.0191, 299.5323
357.5012, 307.6898
357.9833, 314.5674
358.4654, 319.4401
358.9475, 322.8085
359.4297, 325.3532
359.9118, 327.1960
360.3939, 327.9459
360.8760, 327.3895
361.3581, 325.5185
361.8402, 322.2582
362.3224, 317.5779
362.8045, 311.4548
363.2866, 303.7632
363.7687, 294.6478
364.2508, 284.8506
364.7329, 274.1063
365.2151, 262.9967
365.6972, 252.4384
366.1793, 242.4727
366.6614, 233.0080
367.1436, 224.1713
367.6257, 215.7940
368.1078, 207.3825
368.5899, 198.3327
369.0720, 189.6190
369.5541, 182.1883
370.0363, 175.8997
370.5184, 169.9316
371.0005, 163.9209
371.4826, 158.0016
371.9647, 152.4299
372.4468, 147.2654
372.9290, 142.2924
373.4111, 137.4968
373.8932, 132.8264
374.3753, 128.2308
374.8574, 123.6778
375.3395, 119.3187
375.8217, 115.3729
376.3038, 111.8524
376.7859, 108.7184
377.2680, 106.3346
377.7501, 104.0864
378.2322, 101.3718
378.7144, 98.20324
379.1965, 95.07149
379.6786, 92.32402
380.1607, 89.94334
380.6428, 87.56971
381.1249, 85.14311
381.6071, 82.80673
382.0892, 80.62094
382.5713, 78.55101
383.0534, 76.50176
383.5355, 74.40938
384.0176, 72.40466
384.4998, 70.76833
384.9819, 69.91913
385.4640, 68.75323
385.9461, 66.93958
386.4282, 64.99478
386.9103, 63.36428
387.3925, 62.11626
387.8746, 61.04436
388.3567, 59.95842
388.8388, 58.85946
389.3209, 57.73966
389.8030, 56.51350
390.2852, 55.34869
390.7673, 54.32438
391.2494, 53.40879
391.7315, 52.53729
392.2136, 51.67602
392.6957, 50.81907
393.1779, 49.95509
393.6600, 49.02629
394.1421, 48.17794
394.6242, 47.46627
395.1063, 46.80511
395.5884, 46.08613
396.0706, 45.29510
396.5527, 44.57064
397.0348, 44.16278
397.5169, 44.23713
397.9990, 43.97341
398.4811, 43.03198
398.9633, 42.05417
399.4454, 41.25615
399.9275, 40.63194
400.4096, 40.08332
400.8917, 39.53308
401.3738, 39.01583
401.8560, 38.73127
402.3381, 38.92873
402.8202, 38.87519
403.3023, 38.06390
403.7844, 37.05609
404.2665, 36.43191
404.7487, 36.37019
405.2308, 36.60428
405.7129, 36.93081
406.1950, 37.37370
406.6771, 37.50812
407.1592, 37.21055
407.6414, 36.60143
408.1235, 35.54719
408.6056, 34.18401
409.0877, 33.19412
409.5698, 33.23893
410.0519, 33.89716
410.5341, 34.15815
411.0162, 33.92017
411.4983, 33.58362
411.9804, 33.38610
412.4625, 33.24827
412.9446, 33.03787
413.4268, 32.71120
413.9089, 32.34666
414.3910, 31.99270
414.8731, 31.65121
415.3553, 31.32108
415.8374, 30.98053
416.3195, 30.68831
416.8016, 30.56561
417.2837, 30.61899
417.7658, 30.63852
418.2480, 30.59511
418.7301, 30.47537
419.2122, 30.16838
419.6943, 29.68293
420.1764, 29.37004
420.6585, 29.58623
421.1407, 30.25975
421.6228, 30.54422
422.1049, 30.31975
422.5870, 29.88778
423.0691, 29.16331
423.5512, 28.34698
424.0334, 27.82085
424.5155, 27.74783
424.9976, 27.91664
425.4797, 27.93264
425.9618, 27.65204
426.4439, 27.50800
426.9261, 27.55845
427.4082, 27.69430
427.8903, 27.87851
428.3724, 28.08403
428.8545, 28.25496
429.3366, 28.33995
429.8188, 28.34488
430.3009, 28.38623
430.7830, 28.59037
431.2651, 28.68769
431.7472, 28.50375
432.2293, 28.24037
432.7115, 28.18951
433.1936, 28.45125
433.6757, 28.78647
434.1578, 28.74984
434.6399, 28.17603
435.1220, 27.81663
435.6042, 27.90261
436.0863, 28.07068
436.5684, 28.19621
437.0505, 28.25946
437.5326, 28.25864
438.0147, 28.17309
438.4969, 28.02756
438.9790, 27.90764
439.4611, 27.81527
439.9432, 27.74438
440.4253, 27.74797
440.9074, 27.74628
441.3896, 27.62674
441.8717, 27.34324
442.3538, 27.07248
442.8359, 26.97679
443.3180, 27.03563
443.8001, 27.13808
444.2823, 27.27994
444.7644, 27.43128
445.2465, 27.59765
445.7286, 27.76484
446.2107, 27.83182
446.6928, 27.64755
447.1750, 27.43389
447.6571, 27.45890
448.1392, 27.69972
448.6213, 27.89581
449.1034, 27.88931
449.5855, 27.76487
450.0677, 27.77021
450.5498, 27.98137
451.0319, 28.13696
451.5140, 28.07896
451.9961, 27.97145
452.4782, 28.08563
452.9604, 28.45011
453.4425, 28.74588
453.9246, 28.60010
454.4067, 27.93766
454.8888, 27.64382
455.3709, 27.91443
455.8531, 28.26970
456.3352, 28.60182
456.8173, 28.88657
457.2994, 29.06847
457.7815, 29.11924
458.2636, 29.16815
458.7458, 29.52950
459.2279, 30.49927
459.7100, 31.15721
460.1921, 31.39824
460.6742, 31.43264
461.1563, 31.19733
461.6385, 30.82820
462.1206, 30.71801
462.6027, 31.28996
463.0848, 32.34695
463.5669, 32.81499
464.0491, 32.39779
464.5312, 31.98075
465.0133, 31.78271
465.4954, 31.77255
465.9775, 31.98094
466.4597, 32.43154
466.9418, 32.89429
467.4239, 33.09083
467.9060, 33.07808
468.3881, 33.27039
468.8702, 33.81512
469.3524, 34.40455
469.8345, 34.71941
470.3166, 34.86051
470.7987, 35.12033
471.2808, 35.78343
471.7629, 36.43108
472.2451, 36.57098
472.7272, 36.31281
473.2093, 36.22808
473.6914, 36.57839
474.1735, 37.18227
474.6556, 37.67254
475.1378, 37.94318
475.6199, 38.46444
476.1020, 39.60793
476.5841, 40.82685
477.0662, 41.64050
477.5483, 42.02507
478.0305, 42.17701
478.5126, 42.16208
478.9947, 42.06978
479.4768, 42.69320
479.9589, 44.90465
480.4410, 46.78428
480.9232, 47.96111
481.4053, 48.75605
481.8874, 49.36611
482.3695, 49.90325
482.8516, 50.59798
483.3337, 51.81542
483.8159, 53.65455
484.2980, 55.17564
484.7801, 56.32249
485.2622, 57.17850
485.7443, 57.79139
486.2264, 58.13528
486.7086, 58.14762
487.1907, 57.77972
487.6728, 57.15248
488.1549, 56.39574
488.6370, 55.50282
489.1191, 54.57640
489.6013, 53.55358
490.0834, 52.60204
490.5655, 51.99702
491.0476, 51.65654
491.5297, 51.01650
492.0118, 49.43896
492.4940, 47.66912
492.9761, 46.69215
493.4582, 46.50109
493.9403, 46.58241
494.4224, 46.72937
494.9045, 46.93475
495.3867, 47.16101
495.8688, 47.32911
496.3509, 47.69553
496.8330, 48.27300
497.3151, 49.10547
497.7972, 50.31364
498.2794, 51.86782
498.7615, 53.51223
499.2436, 54.99990
499.7257, 56.35062
500.2078, 58.04642
500.6899, 60.27943
501.1721, 62.63105
501.6542, 65.07594
502.1363, 67.58585
502.6184, 70.10188
503.1005, 72.62770
503.5826, 75.31648
504.0648, 78.45328
504.5469, 82.12254
505.0290, 85.40285
505.5111, 88.37844
505.9932, 90.82672
506.4753, 92.76217
506.9575, 94.12891
507.4396, 94.85359
507.9217, 94.92099
508.4038, 94.30386
508.8859, 92.94051
509.3680, 90.83372
509.8502, 88.03802
510.3323, 84.27110
510.8144, 80.27200
511.2965, 76.71933
511.7786, 73.56617
512.2607, 70.50395
512.7429, 67.25095
513.2250, 64.22963
513.7071, 61.90108
514.1892, 60.14219
514.6713, 58.32524
515.1534, 56.10981
515.6356, 53.84354
516.1177, 52.22378
516.5998, 51.50094
517.0819, 50.87994
517.5640, 50.56846
518.0461, 50.16699
518.5283, 49.22234
519.0104, 47.90929
519.4925, 46.86159
519.9746, 46.52918
520.4567, 46.67927
520.9388, 46.40924
521.4210, 45.32412
521.9031, 44.56150
522.3852, 44.35450
522.8673, 44.39205
523.3494, 44.48736
523.8315, 44.61411
524.3137, 44.82555
524.7958, 45.28568
525.2779, 45.84571
525.7600, 45.88055
526.2421, 45.21398
526.7242, 44.68793
527.2064, 44.79573
527.6885, 45.18627
528.1706, 45.39474
528.6527, 45.34594
529.1348, 45.36000
529.6169, 45.70933
530.0991, 46.18882
530.5812, 46.37715
531.0633, 46.23103
531.5454, 46.21880
532.0275, 46.72198
532.5096, 47.65748
532.9918, 48.43547
533.4739, 49.07568
533.9560, 49.55958
534.4381, 49.69169
534.9202, 49.76695
535.4023, 50.10546
535.8845, 50.76195
536.3666, 51.59587
536.8487, 52.47160
537.3308, 53.39056
537.8129, 54.34573
538.2951, 55.25088
538.7772, 56.32095
539.2593, 57.62617
539.7415, 59.09625
540.2236, 60.62743
540.7057, 62.19492
541.1878, 63.94111
541.6699, 66.24014
542.1520, 68.94358
542.6342, 70.91810
543.1163, 71.75948
543.5984, 72.65730
544.0805, 74.37125
544.5626, 76.67114
545.0447, 79.19795
545.5269, 81.98955
546.0090, 84.83537
546.4911, 87.64494
546.9732, 90.43340
547.4553, 93.09781
547.9374, 95.63743
548.4196, 98.43800
548.9017, 101.8749
549.3838, 105.9677
549.8659, 110.3763
550.3480, 115.2675
550.8301, 120.2365
551.3123, 125.0766
551.7944, 129.9616
552.2765, 135.0876
552.7586, 140.5046
553.2407, 146.1992
553.7228, 152.1378
554.2050, 158.3255
554.6871, 164.6848
555.1692, 171.4006
555.6513, 178.0167
556.1334, 184.5896
556.6155, 190.8581
557.0977, 196.7232
557.5798, 202.2535
558.0619, 206.6150
558.5440, 209.1576
559.0261, 209.9137
559.5082, 209.0159
559.9904, 206.4637
560.4725, 202.3366
560.9546, 196.4628
561.4367, 188.9266
561.9188, 180.6730
562.4009, 171.2956
562.8831, 161.7675
563.3652, 152.2390
563.8473, 142.8237
564.3294, 133.5493
564.8115, 124.4637
565.2936, 115.8335
565.7758, 107.9441
566.2579, 100.7677
566.7400, 94.03630
567.2221, 87.62431
567.7042, 81.86169
568.1863, 76.97935
568.6685, 72.69397
569.1506, 68.79272
569.6327, 65.22859
570.1148, 61.98412
570.5969, 59.17838
571.0790, 56.73487
571.5612, 54.12327
572.0433, 51.14274
572.5254, 48.55067
573.0075, 46.90065
573.4896, 45.82410
573.9717, 44.77496
574.4539, 43.72400
574.9360, 42.69227
575.4181, 41.61747
575.9002, 40.60119
576.3823, 39.85492
576.8644, 39.37068
577.3466, 38.85284
577.8287, 38.07824
578.3108, 37.10718
578.7929, 36.23652
579.2750, 35.48969
579.7571, 34.81712
580.2393, 34.15569
580.7214, 33.61642
581.2035, 33.31043
581.6856, 33.22264
582.1677, 33.23463
582.6498, 33.25702
583.1320, 33.31357
583.6141, 33.51089
584.0962, 33.90586
584.5783, 34.25380
585.0604, 34.59008
585.5425, 34.76386
586.0247, 34.61281
586.5068, 34.15208
586.9889, 33.61359
587.4710, 32.95749
587.9531, 32.36823
588.4352, 32.05035
588.9174, 31.99709
589.3995, 32.20344
589.8816, 32.74006
590.3637, 33.32064
