##NAMES=Pyrophanite
##RRUFFID=R070211
##IDEAL CHEMISTRY=Mn^2+^Ti^4+^O_3_
##LOCALITY=Harstigen Mine, Pajsberg, Filipstad, Varmland, Sweden
##OWNER=RRUFF
##SOURCE=Michael Scott
##DESCRIPTION=Red-brown platy crystals with deep red internal hints, associated with barite
##STATUS=The identification of this mineral has been confirmed only by single crystal X-ray diffraction.
##URL=rruff.info/R070211
121.6990, 79.93945
122.1812, 87.17741
122.6633, 94.15748
123.1454, 100.7072
123.6275, 106.9299
124.1096, 112.4678
124.5917, 117.5812
125.0739, 123.3338
125.5560, 130.8386
126.0381, 139.4163
126.5202, 147.7082
127.0023, 154.7693
127.4844, 162.1211
127.9666, 173.0704
128.4487, 187.5719
128.9308, 202.0328
129.4129, 212.4572
129.8950, 219.6803
130.3772, 227.5074
130.8593, 237.8791
131.3414, 249.7406
131.8235, 258.2028
132.3056, 262.2143
132.7877, 267.0397
133.2699, 281.1653
133.7520, 305.1541
134.2341, 327.0014
134.7162, 340.8379
135.1983, 346.7249
135.6804, 353.7750
136.1626, 361.6701
136.6447, 371.0412
137.1268, 384.1762
137.6089, 402.3999
138.0910, 419.3669
138.5731, 431.3817
139.0553, 437.9590
139.5374, 442.4662
140.0195, 444.4349
140.5016, 444.5483
140.9837, 445.1488
141.4658, 445.7493
141.9480, 447.6123
142.4301, 451.6422
142.9122, 458.3163
143.3943, 466.0255
143.8764, 473.9982
144.3585, 482.2314
144.8407, 494.7306
145.3228, 513.4931
145.8049, 534.9336
146.2870, 555.7042
146.7691, 575.8671
147.2512, 594.9199
147.7334, 611.9508
148.2155, 626.2159
148.6976, 642.5495
149.1797, 660.9520
149.6618, 681.4880
150.1439, 704.0350
150.6261, 731.3240
151.1082, 757.9131
151.5903, 781.4667
152.0724, 798.5208
152.5545, 820.1215
153.0366, 848.1409
153.5188, 881.1050
154.0009, 915.9641
154.4830, 957.0115
154.9651, 996.7165
155.4472, 1030.983
155.9293, 1047.122
156.4115, 1075.677
156.8936, 1128.278
157.3757, 1199.540
157.8578, 1271.357
158.3399, 1336.695
158.8221, 1401.858
159.3042, 1471.612
159.7863, 1551.458
160.2684, 1631.712
160.7505, 1711.504
161.2326, 1790.769
161.7148, 1863.223
162.1969, 1936.765
162.6790, 1998.531
163.1611, 2035.380
163.6432, 2051.012
164.1253, 2035.041
164.6075, 1975.634
165.0896, 1872.141
165.5717, 1751.726
166.0538, 1613.275
166.5359, 1470.141
167.0180, 1341.046
167.5002, 1232.144
167.9823, 1139.938
168.4644, 1063.539
168.9465, 1003.725
169.4286, 953.8507
169.9107, 912.6295
170.3929, 878.1425
170.8750, 845.2669
171.3571, 810.7580
171.8392, 777.2221
172.3213, 746.9138
172.8034, 719.8547
173.2856, 697.9226
173.7677, 684.5596
174.2498, 678.3568
174.7319, 674.6672
175.2140, 672.8258
175.6961, 671.2123
176.1783, 666.7668
176.6604, 657.5799
177.1425, 647.9434
177.6246, 643.2990
178.1067, 643.2193
178.5888, 644.6404
179.0710, 644.3074
179.5531, 643.8364
180.0352, 647.2662
180.5173, 657.0942
180.9994, 669.6636
181.4815, 678.8595
181.9637, 684.8334
182.4458, 689.7991
182.9279, 693.1249
183.4100, 696.3757
183.8921, 705.7280
184.3742, 725.1963
184.8564, 750.9341
185.3385, 773.4615
185.8206, 792.7722
186.3027, 811.2993
186.7848, 831.1630
187.2669, 852.3680
187.7491, 875.6074
188.2312, 902.4739
188.7133, 931.5089
189.1954, 957.6525
189.6775, 980.4112
190.1596, 1001.740
190.6418, 1020.244
191.1239, 1036.219
191.6060, 1063.056
192.0881, 1111.091
192.5702, 1177.571
193.0524, 1238.274
193.5345, 1292.207
194.0166, 1342.582
194.4987, 1389.089
194.9808, 1430.766
195.4629, 1483.419
195.9451, 1560.036
196.4272, 1660.909
196.9093, 1747.533
197.3914, 1815.208
197.8735, 1874.139
198.3556, 1945.756
198.8378, 2032.316
199.3199, 2115.624
199.8020, 2191.746
200.2841, 2261.665
200.7662, 2300.862
201.2483, 2308.547
201.7305, 2284.158
202.2126, 2221.535
202.6947, 2115.171
203.1768, 1991.118
203.6589, 1858.152
204.1410, 1714.067
204.6232, 1585.623
205.1053, 1476.863
205.5874, 1384.570
206.0695, 1298.127
206.5516, 1216.826
207.0337, 1143.237
207.5159, 1078.199
207.9980, 1022.490
208.4801, 977.8002
208.9622, 946.7459
209.4443, 926.8832
209.9264, 905.8509
210.4086, 881.9604
210.8907, 860.2197
211.3728, 845.3335
211.8549, 839.0057
212.3370, 833.3134
212.8191, 827.1113
213.3013, 820.5615
213.7834, 814.4415
214.2655, 808.4763
214.7476, 803.3665
215.2297, 799.4418
215.7118, 795.9819
216.1940, 795.8345
216.6761, 800.6508
217.1582, 810.1190
217.6403, 816.4050
218.1224, 817.5280
218.6045, 818.0187
219.0867, 822.2906
219.5688, 831.3214
220.0509, 841.5340
220.5330, 850.3035
221.0151, 857.4922
221.4972, 876.8389
221.9794, 917.9125
222.4615, 960.6522
222.9436, 981.7726
223.4257, 968.1586
223.9078, 960.2056
224.3899, 969.2404
224.8721, 997.2153
225.3542, 1017.377
225.8363, 1025.306
226.3184, 1029.780
226.8005, 1041.585
227.2827, 1063.548
227.7648, 1087.349
228.2469, 1110.743
228.7290, 1133.204
229.2111, 1158.693
229.6932, 1187.849
230.1754, 1219.204
230.6575, 1252.011
231.1396, 1289.196
231.6217, 1322.144
232.1038, 1347.421
232.5859, 1363.159
233.0681, 1382.377
233.5502, 1411.757
234.0323, 1439.783
234.5144, 1448.840
234.9965, 1429.885
235.4786, 1406.974
235.9608, 1386.965
236.4429, 1371.134
236.9250, 1353.163
237.4071, 1331.129
237.8892, 1308.277
238.3713, 1289.746
238.8535, 1276.553
239.3356, 1265.904
239.8177, 1255.843
240.2998, 1243.959
240.7819, 1242.163
241.2640, 1252.329
241.7462, 1271.450
242.2283, 1294.984
242.7104, 1325.080
243.1925, 1355.964
243.6746, 1384.213
244.1567, 1405.807
244.6389, 1439.389
245.1210, 1487.160
245.6031, 1545.411
246.0852, 1607.956
246.5673, 1676.531
247.0494, 1746.384
247.5316, 1814.734
248.0137, 1878.433
248.4958, 1952.059
248.9779, 2037.876
249.4600, 2132.035
249.9421, 2224.360
250.4243, 2310.167
250.9064, 2403.552
251.3885, 2509.963
251.8706, 2631.941
252.3527, 2760.987
252.8348, 2899.242
253.3170, 3042.859
253.7991, 3183.034
254.2812, 3313.681
254.7633, 3449.670
255.2454, 3597.819
255.7275, 3759.776
256.2097, 3923.425
256.6918, 4088.815
257.1739, 4253.999
257.6560, 4418.989
258.1381, 4589.195
258.6202, 4748.714
259.1024, 4893.454
259.5845, 5021.343
260.0666, 5140.864
260.5487, 5265.709
261.0308, 5371.367
261.5129, 5417.831
261.9951, 5400.703
262.4772, 5333.572
262.9593, 5216.557
263.4414, 5040.669
263.9235, 4851.817
264.4056, 4645.747
264.8878, 4428.326
265.3699, 4202.833
265.8520, 3962.986
266.3341, 3727.439
266.8162, 3498.919
267.2983, 3278.391
267.7805, 3070.499
268.2626, 2874.977
268.7447, 2694.433
269.2268, 2534.934
269.7089, 2399.174
270.1910, 2275.311
270.6732, 2156.941
271.1553, 2043.846
271.6374, 1945.794
272.1195, 1866.150
272.6016, 1796.432
273.0837, 1725.386
273.5659, 1651.617
274.0480, 1581.960
274.5301, 1517.776
275.0122, 1459.335
275.4943, 1408.216
275.9764, 1365.181
276.4586, 1328.041
276.9407, 1294.300
277.4228, 1264.650
277.9049, 1236.005
278.3870, 1207.907
278.8691, 1180.300
279.3513, 1151.265
279.8334, 1120.015
280.3155, 1089.363
280.7976, 1063.412
281.2798, 1042.539
281.7619, 1022.686
282.2440, 1000.747
282.7261, 977.8340
283.2082, 964.6545
283.6903, 963.4662
284.1725, 963.7036
284.6546, 949.2166
285.1367, 920.8416
285.6188, 897.5079
286.1009, 888.8312
286.5830, 890.9142
287.0652, 886.0089
287.5473, 873.1610
288.0294, 859.2966
288.5115, 853.7113
288.9936, 855.1817
289.4757, 853.7222
289.9579, 843.9273
290.4400, 829.3090
290.9221, 819.1816
291.4042, 813.6926
291.8863, 810.8619
292.3684, 808.8524
292.8506, 807.8540
293.3327, 808.7261
293.8148, 812.7203
294.2969, 818.1871
294.7790, 823.0477
295.2611, 827.3098
295.7433, 828.4545
296.2254, 821.2022
296.7075, 808.7103
297.1896, 799.9895
297.6717, 797.3463
298.1538, 799.8062
298.6360, 808.9032
299.1181, 823.9846
299.6002, 836.3535
300.0823, 835.9688
300.5644, 828.6203
301.0465, 825.4864
301.5287, 831.0947
302.0108, 840.0759
302.4929, 847.8498
302.9750, 854.2590
303.4571, 857.9673
303.9392, 855.3048
304.4214, 850.2754
304.9035, 848.0283
305.3856, 849.4374
305.8677, 854.6129
306.3498, 866.2302
306.8319, 882.4271
307.3141, 896.8929
307.7962, 904.1948
308.2783, 908.5599
308.7604, 913.8041
309.2425, 919.7980
309.7246, 928.5073
310.2068, 943.0859
310.6889, 961.6450
311.1710, 979.4226
311.6531, 991.5133
312.1352, 1003.559
312.6173, 1019.859
313.0995, 1041.807
313.5816, 1065.400
314.0637, 1092.184
314.5458, 1119.222
315.0279, 1141.237
315.5100, 1147.481
315.9922, 1154.743
316.4743, 1172.384
316.9564, 1203.063
317.4385, 1237.578
317.9206, 1275.078
318.4027, 1314.104
318.8849, 1352.613
319.3670, 1393.751
319.8491, 1431.031
320.3312, 1458.915
320.8133, 1474.266
321.2954, 1497.900
321.7776, 1537.685
322.2597, 1586.378
322.7418, 1636.262
323.2239, 1690.166
323.7060, 1741.235
324.1881, 1785.387
324.6703, 1821.501
325.1524, 1864.261
325.6345, 1920.502
326.1166, 1980.201
326.5987, 2035.789
327.0808, 2083.148
327.5630, 2131.146
328.0451, 2181.654
328.5272, 2234.448
329.0093, 2285.473
329.4914, 2339.431
329.9735, 2386.248
330.4557, 2418.508
330.9378, 2429.225
331.4199, 2437.317
331.9020, 2442.961
332.3841, 2446.939
332.8662, 2455.252
333.3484, 2477.980
333.8305, 2489.628
334.3126, 2474.010
334.7947, 2422.661
335.2768, 2370.187
335.7589, 2316.872
336.2411, 2264.245
336.7232, 2214.892
337.2053, 2169.743
337.6874, 2126.179
338.1695, 2081.743
338.6516, 2036.183
339.1338, 1994.210
339.6159, 1954.527
340.0980, 1921.237
340.5801, 1903.777
341.0622, 1903.176
341.5443, 1907.317
342.0265, 1908.281
342.5086, 1907.847
342.9907, 1925.451
343.4728, 1963.441
343.9549, 2009.704
344.4370, 2047.141
344.9192, 2077.082
345.4013, 2114.452
345.8834, 2163.603
346.3655, 2223.680
346.8476, 2291.832
347.3297, 2367.828
347.8119, 2449.513
348.2940, 2534.467
348.7761, 2623.151
349.2582, 2714.149
349.7403, 2805.766
350.2225, 2903.223
350.7046, 3014.957
351.1867, 3141.084
351.6688, 3274.807
352.1509, 3416.112
352.6331, 3560.949
353.1152, 3703.148
353.5973, 3840.711
354.0794, 3976.504
354.5615, 4117.730
355.0436, 4260.289
355.5258, 4391.701
356.0079, 4510.380
356.4900, 4611.989
356.9721, 4695.733
357.4542, 4765.771
357.9363, 4803.411
358.4185, 4803.961
358.9006, 4764.409
359.3827, 4679.542
359.8648, 4535.840
360.3469, 4355.395
360.8290, 4142.174
361.3112, 3891.715
361.7933, 3638.960
362.2754, 3383.459
362.7575, 3133.717
363.2396, 2897.999
363.7217, 2680.876
364.2039, 2478.481
364.6860, 2289.366
365.1681, 2112.767
365.6502, 1954.017
366.1323, 1811.427
366.6144, 1686.817
367.0966, 1581.261
367.5787, 1504.284
368.0608, 1436.097
368.5429, 1378.964
369.0250, 1330.577
369.5071, 1280.451
369.9893, 1226.747
370.4714, 1173.680
370.9535, 1121.887
371.4356, 1066.119
371.9177, 1025.849
372.3998, 1007.872
372.8820, 1002.117
373.3641, 985.2893
373.8462, 952.1876
374.3283, 921.6808
374.8104, 902.9845
375.2925, 897.2911
375.7747, 887.3677
376.2568, 872.3901
376.7389, 854.6580
377.2210, 835.7273
377.7031, 815.1779
378.1852, 799.8023
378.6674, 793.4261
379.1495, 793.7559
379.6316, 790.5212
380.1137, 783.4677
380.5958, 775.3967
381.0779, 768.4434
381.5601, 762.5566
382.0422, 757.9225
382.5243, 754.3536
383.0064, 752.1880
383.4885, 753.4308
383.9706, 757.4633
384.4528, 759.6461
384.9349, 752.8002
385.4170, 743.0669
385.8991, 741.8176
386.3812, 752.9967
386.8633, 765.3685
387.3455, 767.4188
387.8276, 762.5885
388.3097, 758.7666
388.7918, 758.9498
389.2739, 762.4027
389.7560, 769.5364
390.2382, 780.7073
390.7203, 791.5760
391.2024, 801.0456
391.6845, 808.4792
392.1666, 813.2397
392.6487, 812.9626
393.1309, 811.9022
393.6130, 809.5856
394.0951, 806.6138
394.5772, 809.3829
395.0593, 826.8832
395.5414, 845.9852
396.0236, 858.3105
396.5057, 858.0271
396.9878, 856.5010
397.4699, 853.7345
397.9520, 850.3025
398.4341, 847.9306
398.9163, 844.4699
399.3984, 844.3373
399.8805, 850.0085
400.3626, 864.7239
400.8447, 875.4025
401.3268, 879.9484
401.8090, 881.9929
402.2911, 887.4163
402.7732, 898.6617
403.2553, 906.5976
403.7374, 907.5328
404.2195, 902.0153
404.7017, 900.2525
405.1838, 902.9738
405.6659, 907.5136
406.1480, 911.4124
406.6301, 914.6609
407.1122, 919.1891
407.5944, 926.2037
408.0765, 933.8238
408.5586, 936.9763
409.0407, 935.7509
409.5228, 933.7141
410.0049, 932.8894
410.4871, 933.0765
410.9692, 933.5517
411.4513, 934.0898
411.9334, 935.5619
412.4155, 939.2762
412.8976, 944.8340
413.3798, 950.8887
413.8619, 959.7736
414.3440, 967.2559
414.8261, 967.5320
415.3082, 960.5345
415.7903, 953.7263
416.2725, 951.2029
416.7546, 951.8248
417.2367, 954.3355
417.7188, 959.4238
418.2009, 965.0924
418.6830, 972.1528
419.1652, 979.5197
419.6473, 982.9282
420.1294, 974.3677
420.6115, 966.3721
421.0937, 966.8600
421.5758, 983.5217
422.0579, 994.2563
422.5400, 992.4110
423.0221, 983.7588
423.5042, 977.6505
423.9864, 973.5120
424.4685, 973.0175
424.9506, 977.6727
425.4327, 987.9474
425.9148, 996.5633
426.3969, 1003.067
426.8791, 1008.428
427.3612, 1013.062
427.8433, 1016.245
428.3254, 1021.112
428.8075, 1028.839
429.2896, 1038.251
429.7718, 1044.574
430.2539, 1047.079
430.7360, 1050.401
431.2181, 1058.750
431.7002, 1071.532
432.1823, 1079.121
432.6645, 1079.946
433.1466, 1079.252
433.6287, 1084.385
434.1108, 1094.445
434.5929, 1105.133
435.0750, 1114.751
435.5572, 1123.774
436.0393, 1131.969
436.5214, 1139.488
437.0035, 1149.620
437.4856, 1166.590
437.9677, 1187.179
438.4499, 1206.871
438.9320, 1224.351
439.4141, 1240.957
439.8962, 1257.939
440.3783, 1274.741
440.8604, 1290.436
441.3426, 1299.162
441.8247, 1310.569
442.3068, 1330.911
442.7889, 1362.375
443.2710, 1395.488
443.7531, 1428.786
444.2353, 1461.961
444.7174, 1495.260
445.1995, 1528.479
445.6816, 1561.558
446.1637, 1591.771
446.6458, 1619.864
447.1280, 1657.954
447.6101, 1712.095
448.0922, 1769.782
448.5743, 1823.589
449.0564, 1872.171
449.5385, 1921.318
450.0207, 1969.326
450.5028, 2019.443
450.9849, 2079.002
451.4670, 2149.220
451.9491, 2219.877
452.4312, 2286.389
452.9134, 2349.489
453.3955, 2416.621
453.8776, 2487.430
454.3597, 2562.885
454.8418, 2645.817
455.3239, 2734.596
455.8061, 2818.683
456.2882, 2895.599
456.7703, 2968.676
457.2524, 3044.829
457.7345, 3122.050
458.2166, 3193.942
458.6988, 3249.562
459.1809, 3300.742
459.6630, 3362.639
460.1451, 3439.849
460.6272, 3509.579
461.1093, 3554.818
461.5915, 3584.786
462.0736, 3609.916
462.5557, 3642.607
463.0378, 3662.394
463.5199, 3661.638
464.0020, 3640.992
464.4842, 3605.715
464.9663, 3549.347
465.4484, 3484.299
465.9305, 3417.446
466.4126, 3356.195
466.8947, 3278.901
467.3769, 3178.449
467.8590, 3065.501
468.3411, 2955.008
468.8232, 2846.006
469.3053, 2742.647
469.7874, 2647.008
470.2696, 2558.502
470.7517, 2465.797
471.2338, 2368.171
471.7159, 2269.384
472.1980, 2170.323
472.6801, 2070.935
473.1623, 1986.080
473.6444, 1919.367
474.1265, 1863.662
474.6086, 1810.140
475.0907, 1758.098
475.5728, 1702.980
476.0550, 1632.553
476.5371, 1560.700
477.0192, 1514.619
477.5013, 1495.229
477.9834, 1479.784
478.4655, 1448.213
478.9477, 1410.728
479.4298, 1381.676
479.9119, 1374.177
480.3940, 1364.390
480.8761, 1338.096
481.3582, 1299.550
481.8404, 1261.202
482.3225, 1216.598
482.8046, 1181.817
483.2867, 1167.680
483.7688, 1184.032
484.2509, 1189.943
484.7331, 1174.110
485.2152, 1150.351
485.6973, 1130.950
486.1794, 1117.772
486.6615, 1105.753
487.1436, 1094.112
487.6258, 1083.019
488.1079, 1074.042
488.5900, 1068.802
489.0721, 1061.300
489.5542, 1045.800
490.0363, 1022.102
490.5185, 1007.054
491.0006, 1002.498
491.4827, 1002.315
491.9648, 999.5073
492.4470, 994.3887
492.9291, 988.6746
493.4112, 983.1899
493.8933, 977.3365
494.3754, 969.6364
494.8575, 960.4185
495.3397, 952.2167
495.8218, 946.8971
496.3039, 943.2454
496.7860, 940.5743
497.2681, 939.4443
497.7502, 936.4540
498.2324, 929.0863
498.7145, 918.9643
499.1966, 908.1473
499.6787, 895.7421
500.1608, 884.3395
500.6429, 873.7551
501.1251, 864.2225
501.6072, 859.0189
502.0893, 861.9492
502.5714, 866.0008
503.0535, 868.0692
503.5356, 867.9536
504.0178, 866.1392
504.4999, 861.6870
504.9820, 856.4055
505.4641, 853.3234
505.9462, 853.0408
506.4283, 851.7717
506.9105, 847.8235
507.3926, 842.2113
507.8747, 838.9865
508.3568, 838.2056
508.8389, 838.7015
509.3210, 840.2147
509.8032, 842.3254
510.2853, 843.7999
510.7674, 844.3684
511.2495, 844.7971
511.7316, 847.0430
512.2137, 849.6724
512.6959, 849.7619
513.1780, 842.4024
513.6601, 835.1810
514.1422, 833.7937
514.6243, 837.4901
515.1064, 840.8060
515.5886, 841.6230
516.0707, 841.3882
516.5528, 840.8213
517.0349, 839.4008
517.5170, 838.9228
517.9991, 839.5269
518.4813, 841.1819
518.9634, 844.0353
519.4455, 849.2231
519.9276, 853.6573
520.4097, 856.6688
520.8918, 858.3669
521.3740, 859.9515
521.8561, 861.6956
522.3382, 862.4218
522.8203, 860.0509
523.3024, 854.9788
523.7845, 854.1402
524.2667, 858.4446
524.7488, 865.0343
525.2309, 871.9781
525.7130, 878.6579
526.1951, 882.6938
526.6772, 881.9006
527.1594, 879.4345
527.6415, 878.4218
528.1236, 878.8044
528.6057, 880.3351
529.0878, 883.3853
529.5699, 887.1934
530.0521, 891.7155
530.5342, 897.6383
531.0163, 901.2755
531.4984, 897.6569
531.9805, 892.8129
532.4626, 893.1316
532.9448, 905.6918
533.4269, 915.9919
533.9090, 921.6335
534.3911, 923.7557
534.8732, 926.4079
535.3553, 929.3351
535.8375, 933.4030
536.3196, 939.8589
536.8017, 949.0869
537.2838, 953.9046
537.7659, 953.6279
538.2480, 951.3334
538.7302, 948.1677
539.2123, 944.9587
539.6944, 948.9258
540.1765, 964.9680
540.6586, 982.7204
541.1407, 984.9456
541.6229, 975.8245
542.1050, 970.4375
542.5871, 979.1951
543.0692, 993.7904
543.5513, 1008.504
544.0334, 1022.831
544.5156, 1033.794
544.9977, 1039.764
545.4798, 1041.919
545.9619, 1040.751
546.4440, 1031.318
546.9261, 1026.081
547.4083, 1028.827
547.8904, 1036.472
548.3725, 1043.449
548.8546, 1049.562
549.3367, 1055.298
549.8188, 1059.987
550.3010, 1063.998
550.7831, 1072.842
551.2652, 1088.395
551.7473, 1102.564
552.2294, 1107.603
552.7115, 1104.725
553.1937, 1105.831
553.6758, 1112.083
554.1579, 1121.416
554.6400, 1133.811
555.1221, 1147.520
555.6042, 1156.993
556.0864, 1155.525
556.5685, 1153.924
557.0506, 1164.140
557.5327, 1183.506
558.0148, 1202.002
558.4969, 1214.621
558.9791, 1225.008
559.4612, 1235.969
559.9433, 1248.729
560.4254, 1257.011
560.9075, 1250.988
561.3896, 1244.947
561.8718, 1251.987
562.3539, 1285.684
562.8360, 1308.677
563.3181, 1312.467
563.8002, 1306.454
564.2823, 1314.354
564.7645, 1338.765
565.2466, 1365.155
565.7287, 1387.541
566.2108, 1407.067
566.6929, 1429.849
567.1750, 1455.887
567.6572, 1480.974
568.1393, 1499.628
568.6214, 1514.732
569.1035, 1531.432
569.5856, 1550.894
570.0677, 1571.176
570.5499, 1591.859
571.0320, 1612.276
571.5141, 1631.519
571.9962, 1642.565
572.4783, 1659.018
572.9604, 1690.370
573.4426, 1733.206
573.9247, 1770.659
574.4068, 1794.584
574.8889, 1817.245
575.3710, 1843.282
575.8531, 1873.243
576.3353, 1902.331
576.8174, 1931.293
577.2995, 1957.856
577.7816, 1977.771
578.2637, 1989.639
578.7458, 2009.471
579.2280, 2040.521
579.7101, 2078.795
580.1922, 2120.128
580.6743, 2163.509
581.1564, 2203.224
581.6385, 2234.874
582.1207, 2262.378
582.6028, 2286.762
583.0849, 2309.099
583.5670, 2339.344
584.0491, 2389.238
584.5313, 2445.589
585.0134, 2499.576
585.4955, 2551.353
585.9776, 2595.351
586.4597, 2621.931
586.9418, 2643.180
587.4240, 2672.815
587.9061, 2720.650
588.3882, 2762.313
588.8703, 2793.198
589.3524, 2816.795
589.8345, 2843.522
590.3167, 2874.294
590.7988, 2904.927
591.2809, 2933.121
591.7630, 2959.367
592.2451, 2985.485
592.7272, 3011.572
593.2094, 3035.172
593.6915, 3051.523
594.1736, 3064.487
594.6557, 3083.656
595.1378, 3112.780
595.6199, 3137.023
596.1021, 3137.638
596.5842, 3128.235
597.0663, 3128.231
597.5485, 3160.624
598.0306, 3185.979
598.5127, 3190.172
598.9948, 3176.449
599.4769, 3159.229
599.9590, 3129.496
600.4412, 3108.362
600.9233, 3105.212
601.4054, 3121.485
601.8875, 3134.177
602.3696, 3145.583
602.8517, 3147.441
603.3339, 3127.074
603.8160, 3086.596
604.2981, 3055.260
604.7802, 3036.541
605.2623, 3027.711
605.7444, 3030.765
606.2266, 3041.497
606.7087, 3048.547
607.1908, 3047.481
607.6729, 3041.557
608.1550, 3030.492
608.6371, 3016.234
609.1193, 3004.724
609.6014, 3001.487
610.0835, 2998.952
610.5656, 2993.487
611.0477, 2984.435
611.5298, 2975.761
612.0120, 2968.285
612.4941, 2960.634
612.9762, 2950.446
613.4583, 2933.968
613.9404, 2930.611
614.4225, 2946.264
614.9047, 2966.247
615.3868, 2966.587
615.8689, 2949.037
616.3510, 2937.393
616.8331, 2941.804
617.3152, 2951.476
617.7974, 2948.732
618.2795, 2936.375
