##NAMES=Pyrosmalite-(Fe)
##RRUFFID=R070313
##IDEAL CHEMISTRY=Fe^2+^_8_Si_6_O_15_(OH)_10_
##LOCALITY=Broken Hill, New South Wales, Australia
##OWNER=RRUFF
##SOURCE=James Shigley
##DESCRIPTION=Brownish orange massive associated with galena
##STATUS=The identification of this mineral has been confirmed only by X-ray diffraction
##URL=rruff.info/R070313
151.1082, 3486.757
151.5903, 3506.655
152.0724, 3517.195
152.5545, 3523.946
153.0366, 3520.648
153.5188, 3513.991
154.0009, 3517.111
154.4830, 3549.031
154.9651, 3578.396
155.4472, 3590.572
155.9293, 3568.680
156.4115, 3551.731
156.8936, 3549.707
157.3757, 3559.190
157.8578, 3568.190
158.3399, 3570.224
158.8221, 3572.407
159.3042, 3579.396
159.7863, 3594.791
160.2684, 3612.710
160.7505, 3632.758
161.2326, 3654.640
161.7148, 3674.642
162.1969, 3686.729
162.6790, 3697.998
163.1611, 3715.117
163.6432, 3749.846
164.1253, 3783.538
164.6075, 3801.599
165.0896, 3803.337
165.5717, 3812.618
166.0538, 3846.131
166.5359, 3895.071
167.0180, 3946.743
167.5002, 4001.261
167.9823, 4053.608
168.4644, 4097.728
168.9465, 4131.742
169.4286, 4167.520
169.9107, 4214.670
170.3929, 4269.828
170.8750, 4327.169
171.3571, 4388.915
171.8392, 4448.431
172.3213, 4494.559
172.8034, 4520.348
173.2856, 4549.520
173.7677, 4611.245
174.2498, 4697.320
174.7319, 4778.399
175.2140, 4828.056
175.6961, 4863.599
176.1783, 4911.581
176.6604, 4978.169
177.1425, 5055.055
177.6246, 5133.913
178.1067, 5214.129
178.5888, 5297.120
179.0710, 5384.942
179.5531, 5475.040
180.0352, 5559.651
180.5173, 5633.025
180.9994, 5703.191
181.4815, 5779.332
181.9637, 5862.167
182.4458, 5952.989
182.9279, 6062.924
183.4100, 6185.046
183.8921, 6295.041
184.3742, 6384.082
184.8564, 6457.623
185.3385, 6522.742
185.8206, 6579.407
186.3027, 6634.838
186.7848, 6701.918
187.2669, 6777.835
187.7491, 6843.848
188.2312, 6896.104
188.7133, 6933.379
189.1954, 6951.603
189.6775, 6950.298
190.1596, 6931.183
190.6418, 6896.784
191.1239, 6847.044
191.6060, 6778.015
192.0881, 6678.358
192.5702, 6552.640
193.0524, 6441.040
193.5345, 6345.286
194.0166, 6259.785
194.4987, 6180.024
194.9808, 6106.374
195.4629, 6032.565
195.9451, 5954.787
196.4272, 5872.243
196.9093, 5797.449
197.3914, 5731.937
197.8735, 5672.367
198.3556, 5611.401
198.8378, 5548.224
199.3199, 5490.042
199.8020, 5443.246
200.2841, 5409.183
200.7662, 5371.904
201.2483, 5328.810
201.7305, 5283.568
202.2126, 5247.460
202.6947, 5223.722
203.1768, 5197.037
203.6589, 5153.855
204.1410, 5090.485
204.6232, 5041.073
205.1053, 5013.556
205.5874, 4999.792
206.0695, 4971.318
206.5516, 4923.733
207.0337, 4872.994
207.5159, 4828.833
207.9980, 4792.444
208.4801, 4761.208
208.9622, 4736.479
209.4443, 4716.667
209.9264, 4695.418
210.4086, 4675.406
210.8907, 4648.428
211.3728, 4604.355
211.8549, 4533.927
212.3370, 4477.255
212.8191, 4442.434
213.3013, 4427.252
213.7834, 4410.368
214.2655, 4389.929
214.7476, 4370.702
215.2297, 4358.254
215.7118, 4356.393
216.1940, 4349.887
216.6761, 4333.169
217.1582, 4307.055
217.6403, 4293.468
218.1224, 4299.852
218.6045, 4309.022
219.0867, 4303.135
219.5688, 4274.956
220.0509, 4248.820
220.5330, 4230.281
221.0151, 4219.226
221.4972, 4209.813
221.9794, 4203.640
222.4615, 4197.243
222.9436, 4186.556
223.4257, 4169.714
223.9078, 4152.182
224.3899, 4135.396
224.8721, 4119.228
225.3542, 4102.097
225.8363, 4081.501
226.3184, 4062.163
226.8005, 4050.170
227.2827, 4050.077
227.7648, 4048.706
228.2469, 4041.616
228.7290, 4027.393
229.2111, 4019.612
229.6932, 4024.510
230.1754, 4030.891
230.6575, 4022.273
231.1396, 3987.283
231.6217, 3957.600
232.1038, 3943.328
232.5859, 3947.970
233.0681, 3948.685
233.5502, 3941.426
234.0323, 3933.135
234.5144, 3935.155
234.9965, 3955.950
235.4786, 3972.623
235.9608, 3976.654
236.4429, 3964.000
236.9250, 3957.505
237.4071, 3959.351
237.8892, 3966.073
238.3713, 3972.545
238.8535, 3979.492
239.3356, 3984.996
239.8177, 3988.696
240.2998, 3990.954
240.7819, 3989.166
241.2640, 3978.350
241.7462, 3966.350
242.2283, 3967.365
242.7104, 3987.881
243.1925, 4010.852
243.6746, 4032.045
244.1567, 4053.470
244.6389, 4065.101
245.1210, 4059.802
245.6031, 4048.934
246.0852, 4053.369
246.5673, 4080.220
247.0494, 4110.351
247.5316, 4138.222
248.0137, 4165.073
248.4958, 4184.844
248.9779, 4193.547
249.4600, 4197.308
249.9421, 4208.400
250.4243, 4233.426
250.9064, 4253.948
251.3885, 4259.474
251.8706, 4239.036
252.3527, 4242.410
252.8348, 4280.522
253.3170, 4335.555
253.7991, 4372.970
254.2812, 4385.005
254.7633, 4393.577
255.2454, 4407.229
255.7275, 4428.388
256.2097, 4444.955
256.6918, 4455.283
257.1739, 4461.971
257.6560, 4470.353
258.1381, 4482.400
258.6202, 4492.040
259.1024, 4495.545
259.5845, 4489.713
260.0666, 4492.396
260.5487, 4510.151
261.0308, 4531.413
261.5129, 4532.938
261.9951, 4505.802
262.4772, 4480.216
262.9593, 4468.917
263.4414, 4475.029
263.9235, 4480.975
264.4056, 4488.940
264.8878, 4494.730
265.3699, 4489.461
265.8520, 4468.866
266.3341, 4449.219
266.8162, 4436.006
267.2983, 4429.503
267.7805, 4429.839
268.2626, 4440.885
268.7447, 4454.452
269.2268, 4455.054
269.7089, 4439.268
270.1910, 4422.902
270.6732, 4414.003
271.1553, 4414.402
271.6374, 4402.063
272.1195, 4371.443
272.6016, 4336.174
273.0837, 4322.869
273.5659, 4336.748
274.0480, 4345.427
274.5301, 4332.447
275.0122, 4296.709
275.4943, 4272.100
275.9764, 4258.693
276.4586, 4256.278
276.9407, 4271.892
277.4228, 4309.048
277.9049, 4332.148
278.3870, 4317.276
278.8691, 4267.154
279.3513, 4248.901
279.8334, 4269.863
280.3155, 4303.809
280.7976, 4312.832
281.2798, 4295.611
281.7619, 4282.752
282.2440, 4289.243
282.7261, 4311.711
283.2082, 4322.756
283.6903, 4320.066
284.1725, 4314.460
284.6546, 4318.731
285.1367, 4332.635
285.6188, 4351.108
286.1009, 4375.731
286.5830, 4403.798
287.0652, 4420.539
287.5473, 4423.712
288.0294, 4428.000
288.5115, 4454.979
288.9936, 4501.424
289.4757, 4539.164
289.9579, 4552.853
290.4400, 4552.715
290.9221, 4568.775
291.4042, 4601.942
291.8863, 4639.962
292.3684, 4666.553
292.8506, 4686.047
293.3327, 4718.014
293.8148, 4774.915
294.2969, 4844.628
294.7790, 4903.271
295.2611, 4951.061
295.7433, 4999.513
296.2254, 5065.193
296.7075, 5141.213
297.1896, 5204.639
297.6717, 5241.451
298.1538, 5270.435
298.6360, 5321.799
299.1181, 5394.321
299.6002, 5467.919
300.0823, 5529.186
300.5644, 5581.078
301.0465, 5629.675
301.5287, 5676.337
302.0108, 5720.599
302.4929, 5762.688
302.9750, 5802.288
303.4571, 5835.198
303.9392, 5856.163
304.4214, 5869.776
304.9035, 5883.497
305.3856, 5902.237
305.8677, 5915.873
306.3498, 5907.699
306.8319, 5884.439
307.3141, 5869.719
307.7962, 5885.168
308.2783, 5912.486
308.7604, 5934.919
309.2425, 5949.667
309.7246, 5956.833
310.2068, 5949.386
310.6889, 5933.509
311.1710, 5925.135
311.6531, 5934.711
312.1352, 5953.034
312.6173, 5973.183
313.0995, 5992.816
313.5816, 6017.177
314.0637, 6051.745
314.5458, 6092.715
315.0279, 6133.162
315.5100, 6148.352
315.9922, 6178.956
316.4743, 6254.746
316.9564, 6392.166
317.4385, 6520.596
317.9206, 6600.660
318.4027, 6661.437
318.8849, 6743.565
319.3670, 6873.017
319.8491, 7012.409
320.3312, 7147.545
320.8133, 7276.121
321.2954, 7411.027
321.7776, 7575.233
322.2597, 7740.176
322.7418, 7875.411
323.2239, 7991.067
323.7060, 8062.146
324.1881, 8082.462
324.6703, 8051.259
325.1524, 7975.991
325.6345, 7841.202
326.1166, 7671.567
326.5987, 7485.576
327.0808, 7275.434
327.5630, 7058.194
328.0451, 6823.579
328.5272, 6573.952
329.0093, 6359.882
329.4914, 6198.181
329.9735, 6061.469
330.4557, 5933.132
330.9378, 5807.272
331.4199, 5700.670
331.9020, 5621.350
332.3841, 5562.966
332.8662, 5492.021
333.3484, 5395.728
333.8305, 5307.321
334.3126, 5245.841
334.7947, 5219.785
335.2768, 5196.907
335.7589, 5177.500
336.2411, 5159.427
336.7232, 5135.565
337.2053, 5103.535
337.6874, 5073.174
338.1695, 5048.089
338.6516, 5028.380
339.1338, 5017.667
339.6159, 5021.415
340.0980, 5025.733
340.5801, 5000.885
341.0622, 4942.420
341.5443, 4893.247
342.0265, 4872.261
342.5086, 4877.106
342.9907, 4886.383
343.4728, 4901.383
343.9549, 4915.438
344.4370, 4919.245
344.9192, 4913.630
345.4013, 4906.044
345.8834, 4896.180
346.3655, 4887.076
346.8476, 4887.952
347.3297, 4898.938
347.8119, 4915.030
348.2940, 4935.320
348.7761, 4957.458
349.2582, 4973.106
349.7403, 4975.047
350.2225, 4974.836
350.7046, 4988.899
351.1867, 5016.419
351.6688, 5050.146
352.1509, 5091.977
352.6331, 5134.915
353.1152, 5167.391
353.5973, 5183.083
354.0794, 5194.812
354.5615, 5211.435
355.0436, 5232.954
355.5258, 5259.372
356.0079, 5298.566
356.4900, 5338.295
356.9721, 5366.888
357.4542, 5380.117
357.9363, 5390.485
358.4185, 5407.580
358.9006, 5426.287
359.3827, 5437.762
359.8648, 5431.235
360.3469, 5422.390
360.8290, 5419.368
361.3112, 5423.494
361.7933, 5428.950
362.2754, 5439.513
362.7575, 5448.387
363.2396, 5448.182
363.7217, 5424.688
364.2039, 5404.486
364.6860, 5396.174
365.1681, 5400.017
365.6502, 5402.350
366.1323, 5400.574
366.6144, 5397.443
367.0966, 5394.850
367.5787, 5394.999
368.0608, 5393.095
368.5429, 5388.746
369.0250, 5382.045
369.5071, 5372.984
369.9893, 5355.067
370.4714, 5342.318
370.9535, 5343.710
371.4356, 5371.940
371.9177, 5384.220
372.3998, 5372.473
372.8820, 5348.304
373.3641, 5337.940
373.8462, 5345.105
374.3283, 5356.523
374.8104, 5369.000
375.2925, 5383.397
375.7747, 5388.270
376.2568, 5380.611
376.7389, 5369.471
377.2210, 5368.505
377.7031, 5378.598
378.1852, 5385.914
378.6674, 5384.237
379.1495, 5376.506
379.6316, 5375.788
380.1137, 5382.559
380.5958, 5392.070
381.0779, 5397.639
381.5601, 5401.325
382.0422, 5414.281
382.5243, 5444.457
383.0064, 5478.383
383.4885, 5491.104
383.9706, 5485.122
384.4528, 5478.028
384.9349, 5484.592
385.4170, 5497.160
385.8991, 5501.553
386.3812, 5493.008
386.8633, 5484.983
387.3455, 5491.423
387.8276, 5508.021
388.3097, 5525.103
388.7918, 5535.794
389.2739, 5546.147
389.7560, 5565.223
390.2382, 5595.328
390.7203, 5614.399
391.2024, 5597.225
391.6845, 5566.993
392.1666, 5550.227
392.6487, 5568.376
393.1309, 5589.924
393.6130, 5604.721
394.0951, 5612.642
394.5772, 5614.593
395.0593, 5601.491
395.5414, 5588.386
396.0236, 5584.836
396.5057, 5602.845
396.9878, 5617.793
397.4699, 5625.964
397.9520, 5629.220
398.4341, 5633.375
398.9163, 5639.546
399.3984, 5645.484
399.8805, 5650.999
400.3626, 5657.791
400.8447, 5658.886
401.3268, 5652.477
401.8090, 5641.697
402.2911, 5629.427
402.7732, 5612.652
403.2553, 5602.856
403.7374, 5605.269
404.2195, 5619.010
404.7017, 5627.791
405.1838, 5630.588
405.6659, 5631.219
406.1480, 5632.570
406.6301, 5634.633
407.1122, 5638.103
407.5944, 5643.252
408.0765, 5649.755
408.5586, 5656.059
409.0407, 5662.232
409.5228, 5670.967
410.0049, 5685.429
410.4871, 5703.755
410.9692, 5720.311
411.4513, 5733.878
411.9334, 5748.519
412.4155, 5775.049
412.8976, 5807.731
413.3798, 5829.242
413.8619, 5823.341
414.3440, 5807.659
414.8261, 5801.083
415.3082, 5804.001
415.7903, 5806.443
416.2725, 5807.568
416.7546, 5802.498
417.2367, 5785.450
417.7188, 5749.858
418.2009, 5707.514
418.6830, 5661.237
419.1652, 5611.886
419.6473, 5564.411
420.1294, 5517.052
420.6115, 5474.081
421.0937, 5436.654
421.5758, 5404.171
422.0579, 5380.661
422.5400, 5378.761
423.0221, 5383.610
423.5042, 5370.430
423.9864, 5316.479
424.4685, 5269.398
424.9506, 5241.751
425.4327, 5235.835
425.9148, 5223.480
426.3969, 5196.885
426.8791, 5172.735
427.3612, 5168.067
427.8433, 5190.988
428.3254, 5207.259
428.8075, 5209.177
429.2896, 5202.370
429.7718, 5208.009
430.2539, 5228.819
430.7360, 5247.670
431.2181, 5250.491
431.7002, 5238.958
432.1823, 5238.682
432.6645, 5252.427
433.1466, 5272.497
433.6287, 5289.683
434.1108, 5304.207
434.5929, 5317.246
435.0750, 5330.537
435.5572, 5341.947
436.0393, 5348.375
436.5214, 5349.784
437.0035, 5345.360
437.4856, 5332.560
437.9677, 5314.148
438.4499, 5293.932
438.9320, 5272.845
439.4141, 5250.233
439.8962, 5221.004
440.3783, 5189.562
440.8604, 5166.400
441.3426, 5169.881
441.8247, 5172.901
442.3068, 5157.226
442.7889, 5115.922
443.2710, 5079.900
443.7531, 5056.369
444.2353, 5042.787
444.7174, 5035.945
445.1995, 5045.065
445.6816, 5050.480
446.1637, 5044.682
446.6458, 5029.548
447.1280, 5025.533
447.6101, 5039.555
448.0922, 5057.122
448.5743, 5069.395
449.0564, 5071.650
449.5385, 5082.996
450.0207, 5109.474
450.5028, 5140.142
450.9849, 5150.873
451.4670, 5136.752
451.9491, 5127.132
452.4312, 5133.963
452.9134, 5155.505
453.3955, 5178.745
453.8776, 5203.614
454.3597, 5229.997
454.8418, 5260.294
455.3239, 5292.653
455.8061, 5317.071
456.2882, 5328.242
456.7703, 5335.769
457.2524, 5353.007
457.7345, 5378.511
458.2166, 5406.949
458.6988, 5438.956
459.1809, 5470.105
459.6630, 5493.232
460.1451, 5506.529
460.6272, 5521.765
461.1093, 5545.841
461.5915, 5576.276
462.0736, 5609.576
462.5557, 5650.486
463.0378, 5688.317
463.5199, 5711.315
464.0020, 5723.192
464.4842, 5752.633
464.9663, 5820.933
465.4484, 5896.766
465.9305, 5964.493
466.4126, 6025.213
466.8947, 6076.337
467.3769, 6119.222
467.8590, 6151.829
468.3411, 6171.306
468.8232, 6177.478
469.3053, 6170.200
469.7874, 6148.345
470.2696, 6112.276
470.7517, 6066.173
471.2338, 6006.943
471.7159, 5947.606
472.1980, 5897.051
472.6801, 5855.282
473.1623, 5828.780
473.6444, 5819.464
474.1265, 5823.204
474.6086, 5840.025
475.0907, 5867.091
475.5728, 5886.048
476.0550, 5875.973
476.5371, 5855.498
477.0192, 5855.144
477.5013, 5875.995
477.9834, 5906.348
478.4655, 5947.868
478.9477, 5990.275
479.4298, 6019.381
479.9119, 6026.043
480.3940, 6025.224
480.8761, 6029.043
481.3582, 6032.142
481.8404, 6018.854
482.3225, 5967.088
482.8046, 5911.780
483.2867, 5870.880
483.7688, 5853.367
484.2509, 5824.355
484.7331, 5769.003
485.2152, 5707.130
485.6973, 5656.453
486.1794, 5625.532
486.6615, 5590.172
487.1436, 5540.607
487.6258, 5483.504
488.1079, 5453.689
488.5900, 5459.910
489.0721, 5469.813
489.5542, 5466.287
490.0363, 5449.269
490.5185, 5427.252
491.0006, 5398.729
491.4827, 5371.576
491.9648, 5359.911
492.4470, 5360.599
492.9291, 5356.251
493.4112, 5337.229
493.8933, 5313.336
494.3754, 5302.204
494.8575, 5301.682
495.3397, 5298.903
495.8218, 5280.791
496.3039, 5258.086
496.7860, 5244.808
497.2681, 5246.503
497.7502, 5242.987
498.2324, 5210.116
498.7145, 5169.280
499.1966, 5148.948
499.6787, 5187.535
500.1608, 5217.903
500.6429, 5214.271
501.1251, 5178.670
501.6072, 5150.544
502.0893, 5133.845
502.5714, 5123.751
503.0535, 5118.038
503.5356, 5116.201
504.0178, 5120.250
504.4999, 5131.871
504.9820, 5147.846
505.4641, 5165.999
505.9462, 5188.624
506.4283, 5200.576
506.9105, 5193.213
507.3926, 5172.713
507.8747, 5164.464
508.3568, 5168.978
508.8389, 5176.131
509.3210, 5176.978
509.8032, 5174.686
510.2853, 5179.710
510.7674, 5195.223
511.2495, 5210.043
511.7316, 5208.400
512.2137, 5197.807
512.6959, 5193.550
513.1780, 5206.034
513.6601, 5223.574
514.1422, 5240.640
514.6243, 5256.822
515.1064, 5270.160
515.5886, 5279.852
516.0707, 5286.509
516.5528, 5289.512
517.0349, 5284.110
517.5170, 5284.918
517.9991, 5298.722
518.4813, 5317.370
518.9634, 5330.936
519.4455, 5339.568
519.9276, 5342.727
520.4097, 5339.386
520.8918, 5330.288
521.3740, 5319.280
521.8561, 5305.785
522.3382, 5292.299
522.8203, 5279.781
523.3024, 5268.423
523.7845, 5259.599
524.2667, 5253.232
524.7488, 5249.907
525.2309, 5252.876
525.7130, 5259.899
526.1951, 5262.665
526.6772, 5252.883
527.1594, 5242.651
527.6415, 5249.697
528.1236, 5270.150
528.6057, 5287.192
529.0878, 5293.942
529.5699, 5291.651
530.0521, 5277.246
530.5342, 5245.425
531.0163, 5223.617
531.4984, 5224.074
531.9805, 5237.281
532.4626, 5253.052
532.9448, 5277.063
533.4269, 5295.165
533.9090, 5305.060
534.3911, 5307.823
534.8732, 5306.415
535.3553, 5297.273
535.8375, 5290.708
536.3196, 5293.368
536.8017, 5306.127
537.2838, 5309.339
537.7659, 5301.414
538.2480, 5289.256
538.7302, 5275.587
539.2123, 5262.135
539.6944, 5263.380
540.1765, 5286.988
540.6586, 5318.282
541.1407, 5340.439
541.6229, 5353.787
542.1050, 5359.992
542.5871, 5353.495
543.0692, 5344.493
543.5513, 5343.340
544.0334, 5350.514
544.5156, 5356.289
544.9977, 5350.593
545.4798, 5344.801
545.9619, 5348.557
546.4440, 5375.291
546.9261, 5394.312
547.4083, 5398.109
547.8904, 5392.176
548.3725, 5385.435
548.8546, 5370.934
549.3367, 5367.756
549.8188, 5387.021
550.3010, 5425.198
550.7831, 5435.950
551.2652, 5410.458
551.7473, 5386.946
552.2294, 5402.166
552.7115, 5450.331
553.1937, 5469.882
553.6758, 5452.418
554.1579, 5420.986
554.6400, 5394.522
555.1221, 5376.214
555.6042, 5376.475
556.0864, 5413.558
556.5685, 5455.978
557.0506, 5471.699
557.5327, 5466.348
558.0148, 5460.440
558.4969, 5467.357
558.9791, 5474.247
559.4612, 5471.455
559.9433, 5455.224
560.4254, 5443.939
560.9075, 5433.720
561.3896, 5434.288
561.8718, 5455.256
562.3539, 5522.446
562.8360, 5565.328
563.3181, 5571.153
563.8002, 5552.854
564.2823, 5540.532
564.7645, 5535.256
565.2466, 5531.292
565.7287, 5523.439
566.2108, 5514.836
566.6929, 5524.564
567.1750, 5553.229
567.6572, 5584.773
568.1393, 5608.319
568.6214, 5624.269
569.1035, 5630.354
569.5856, 5623.735
570.0677, 5617.875
570.5499, 5626.527
571.0320, 5642.771
571.5141, 5655.694
571.9962, 5664.044
572.4783, 5665.598
572.9604, 5650.873
573.4426, 5625.327
573.9247, 5616.472
574.4068, 5647.668
574.8889, 5679.158
575.3710, 5693.120
575.8531, 5683.111
576.3353, 5690.125
576.8174, 5722.478
577.2995, 5759.423
577.7816, 5777.496
578.2637, 5773.519
578.7458, 5787.527
579.2280, 5832.458
579.7101, 5884.713
580.1922, 5896.750
580.6743, 5875.173
581.1564, 5857.283
581.6385, 5862.841
582.1207, 5880.498
582.6028, 5896.727
583.0849, 5911.691
583.5670, 5927.793
584.0491, 5940.037
584.5313, 5958.050
585.0134, 5992.532
585.4955, 6052.464
585.9776, 6104.155
586.4597, 6134.919
586.9418, 6154.490
587.4240, 6172.835
587.9061, 6180.624
588.3882, 6203.170
588.8703, 6249.386
589.3524, 6310.407
589.8345, 6357.610
590.3167, 6385.501
590.7988, 6421.403
591.2809, 6480.614
591.7630, 6557.780
592.2451, 6620.902
592.7272, 6669.387
593.2094, 6718.298
593.6915, 6776.190
594.1736, 6844.228
594.6557, 6925.400
595.1378, 7018.946
595.6199, 7124.245
596.1021, 7243.172
596.5842, 7372.535
597.0663, 7508.340
597.5485, 7642.279
598.0306, 7787.885
598.5127, 7945.792
598.9948, 8117.775
599.4769, 8312.994
599.9590, 8531.836
600.4412, 8775.743
600.9233, 9044.596
601.4054, 9340.184
601.8875, 9648.751
602.3696, 9963.079
602.8517, 10303.50
603.3339, 10675.73
603.8160, 11082.50
604.2981, 11526.77
604.7802, 12004.98
605.2623, 12520.99
605.7444, 13074.23
606.2266, 13668.16
606.7087, 14283.57
607.1908, 14918.45
607.6729, 15581.57
608.1550, 16295.36
608.6371, 17047.41
609.1193, 17822.07
609.6014, 18606.42
610.0835, 19413.13
610.5656, 20242.73
611.0477, 21101.75
611.5298, 21943.01
612.0120, 22820.37
612.4941, 23617.86
612.9762, 24261.45
613.4583, 24759.29
613.9404, 25073.85
614.4225, 25207.09
614.9047, 25143.43
615.3868, 24850.87
615.8689, 24331.58
616.3510, 23640.52
616.8331, 22760.25
617.3152, 21763.58
617.7974, 20703.61
618.2795, 19608.90
618.7616, 18535.80
619.2437, 17515.98
619.7258, 16535.87
620.2079, 15544.95
620.6901, 14547.78
621.1722, 13675.98
621.6543, 13045.43
622.1364, 12503.39
622.6185, 11954.47
623.1006, 11338.36
623.5828, 10828.22
624.0649, 10460.84
624.5470, 10165.72
625.0291, 9857.687
625.5112, 9528.113
625.9933, 9231.559
626.4755, 8983.002
626.9576, 8770.349
627.4397, 8572.748
627.9218, 8390.750
628.4039, 8228.560
628.8860, 8089.788
629.3682, 7970.743
629.8503, 7875.877
630.3324, 7801.549
630.8145, 7723.987
631.2966, 7621.800
631.7787, 7517.667
632.2609, 7427.305
632.7430, 7353.727
633.2251, 7289.835
633.7072, 7243.756
634.1893, 7201.893
634.6714, 7151.373
635.1536, 7081.544
635.6357, 7028.651
636.1178, 7004.593
636.5999, 6989.520
637.0820, 6940.399
637.5641, 6855.500
638.0463, 6785.608
638.5284, 6752.700
639.0105, 6739.466
639.4926, 6709.447
639.9747, 6665.603
640.4568, 6626.045
640.9390, 6603.611
641.4211, 6588.804
641.9032, 6571.948
642.3853, 6552.422
642.8674, 6538.206
643.3495, 6538.769
643.8317, 6541.596
644.3138, 6537.807
644.7959, 6522.391
645.2780, 6507.803
645.7601, 6493.075
646.2422, 6480.069
646.7244, 6472.147
647.2065, 6471.192
647.6886, 6465.313
648.1707, 6450.818
648.6528, 6432.778
649.1349, 6419.482
