##NAMES=Pyrochroite
##RRUFFID=R100045
##IDEAL CHEMISTRY=Mn^2+^(OH)_2_
##LOCALITY=N'Chwaning II mine, Kalahari Manganese Field, Northern Cape Province, South Africa
##OWNER=RRUFF
##SOURCE=Marcus Origlieri
##DESCRIPTION=Red platy crystals frozen in matrix
##STATUS=The identification of this mineral has been confirmed by single-crystal X-ray diffraction.
##URL=rruff.info/R100045
90.49219, 19.83933
90.97430, 19.86953
91.45642, 19.88093
91.93854, 19.98998
92.42065, 20.04484
92.90277, 19.79662
93.38489, 19.20034
93.86700, 18.43203
94.34912, 17.61188
94.83124, 16.76338
95.31335, 16.04574
95.79547, 15.70721
96.27759, 15.62628
96.75970, 15.26449
97.24182, 14.49736
97.72394, 13.48562
98.20605, 12.39363
98.68817, 11.16103
99.17029, 10.32547
99.65240, 10.44843
100.1345, 11.59671
100.6166, 12.75997
101.0988, 13.78305
101.5809, 14.66616
102.0630, 15.51938
102.5451, 16.48898
103.0272, 17.18317
103.5093, 17.06835
103.9915, 15.82053
104.4736, 14.60403
104.9557, 13.75065
105.4378, 13.33512
105.9199, 12.84228
106.4020, 12.08960
106.8842, 11.34579
107.3663, 11.09947
107.8484, 11.80380
108.3305, 12.48523
108.8126, 12.83944
109.2947, 12.96537
109.7769, 12.59378
110.2590, 11.02548
110.7411, 8.833490
111.2232, 7.840071
111.7053, 9.594391
112.1874, 11.48458
112.6696, 12.32571
113.1517, 10.87907
113.6338, 9.591741
114.1159, 8.622575
114.5980, 8.009830
115.0801, 7.994039
115.5623, 9.514585
116.0444, 11.23543
116.5265, 12.12040
117.0086, 11.19628
117.4907, 10.01662
117.9728, 8.933877
118.4550, 7.954398
118.9371, 7.602893
119.4192, 8.994109
119.9013, 10.95584
120.3834, 11.97025
120.8655, 10.16445
121.3477, 7.984775
121.8298, 7.423720
122.3119, 8.914444
122.7940, 10.44839
123.2761, 10.58019
123.7582, 9.685861
124.2404, 8.602899
124.7225, 7.253108
125.2046, 6.141718
125.6867, 6.121788
126.1688, 7.699687
126.6509, 9.434612
127.1331, 9.536043
127.6152, 8.282679
128.0973, 7.059881
128.5794, 6.910511
129.0615, 7.498560
129.5436, 8.058048
130.0258, 8.496680
130.5079, 8.750732
130.9900, 8.515761
131.4721, 7.794358
131.9542, 7.253812
132.4363, 7.717717
132.9185, 9.019461
133.4006, 9.992416
133.8827, 10.20463
134.3648, 9.868329
134.8469, 9.659682
135.3290, 9.536299
135.8112, 9.729268
136.2933, 10.90845
136.7754, 13.20014
137.2575, 14.58541
137.7396, 13.99099
138.2217, 11.50039
138.7039, 9.810702
139.1860, 8.914993
139.6681, 8.834518
140.1502, 9.842564
140.6323, 12.30007
141.1144, 14.61166
141.5966, 16.18117
142.0787, 16.90492
142.5608, 17.26825
143.0429, 17.17973
143.5250, 16.78412
144.0071, 16.24129
144.4893, 14.94200
144.9714, 14.49588
145.4535, 15.89498
145.9356, 20.94086
146.4177, 24.20317
146.8998, 24.93156
147.3820, 23.74802
147.8641, 23.24258
148.3462, 23.66444
148.8283, 24.53488
149.3104, 25.61346
149.7925, 26.83296
150.2747, 28.35168
150.7568, 30.47857
151.2389, 33.11657
151.7210, 35.03465
152.2031, 35.65132
152.6852, 35.88742
153.1674, 36.32050
153.6495, 37.08545
154.1316, 37.92611
154.6137, 38.95346
155.0958, 40.17561
155.5779, 40.99535
156.0601, 40.92082
156.5422, 40.60532
157.0243, 40.60820
157.5064, 41.52581
157.9885, 42.30962
158.4706, 42.55327
158.9528, 42.15806
159.4349, 41.94085
159.9170, 41.90748
160.3991, 42.22258
160.8812, 43.07642
161.3633, 45.41031
161.8455, 47.58477
162.3276, 48.84674
162.8097, 48.99525
163.2918, 48.80390
163.7739, 47.93344
164.2560, 46.94164
164.7382, 46.49451
165.2203, 48.07284
165.7024, 50.03923
166.1845, 51.32000
166.6666, 51.67730
167.1487, 51.73660
167.6309, 51.54335
168.1130, 51.29771
168.5951, 51.42841
169.0772, 52.34222
169.5593, 53.59418
170.0414, 54.93940
170.5236, 56.60584
171.0057, 57.74624
171.4878, 57.83108
171.9699, 56.93211
172.4520, 55.25230
172.9341, 51.53728
173.4163, 47.59167
173.8984, 45.78270
174.3805, 47.55955
174.8626, 50.00605
175.3447, 50.15787
175.8268, 48.43963
176.3090, 46.80249
176.7911, 46.59886
177.2732, 47.34072
177.7553, 48.33736
178.2374, 49.75632
178.7195, 50.97308
179.2017, 50.94371
179.6838, 49.78446
180.1659, 48.58500
180.6480, 48.24746
181.1301, 48.50143
181.6122, 48.68916
182.0944, 48.47640
182.5765, 48.20249
183.0586, 48.61136
183.5407, 49.68652
184.0228, 50.70477
184.5049, 50.95972
184.9871, 50.59835
185.4692, 50.12431
185.9513, 49.62865
186.4334, 49.14858
186.9155, 48.72551
187.3976, 48.35336
187.8798, 48.12600
188.3619, 48.30170
188.8440, 48.79491
189.3261, 49.03596
189.8082, 48.75335
190.2903, 48.07518
190.7725, 47.38501
191.2546, 46.64111
191.7367, 46.05572
192.2188, 45.99132
192.7009, 46.41478
193.1830, 46.71322
193.6652, 46.59213
194.1473, 46.12730
194.6294, 45.77215
195.1115, 45.51519
195.5936, 45.51112
196.0757, 45.52902
196.5579, 45.90549
197.0400, 46.33550
197.5221, 46.91875
198.0042, 47.60888
198.4863, 47.49174
198.9684, 46.31681
199.4506, 44.89071
199.9327, 44.51530
200.4148, 45.29044
200.8969, 46.14936
201.3790, 46.71609
201.8611, 46.98403
202.3433, 47.04395
202.8254, 46.85796
203.3075, 46.52318
203.7896, 46.15446
204.2717, 45.71352
204.7538, 45.41412
205.2360, 45.45189
205.7181, 45.90015
206.2002, 45.96156
206.6823, 45.51099
207.1644, 44.82505
207.6465, 44.46234
208.1287, 44.54027
208.6108, 44.54263
209.0929, 44.13641
209.5750, 43.16225
210.0571, 42.66895
210.5392, 42.77543
211.0214, 43.25259
211.5035, 43.62373
211.9856, 43.82965
212.4677, 44.08549
212.9498, 44.58617
213.4319, 45.50179
213.9140, 45.89735
214.3962, 45.61865
214.8783, 44.90946
215.3604, 44.25585
215.8425, 43.50359
216.3246, 43.13448
216.8067, 43.52483
217.2889, 45.06292
217.7710, 45.98096
218.2531, 46.08385
218.7352, 45.63833
219.2173, 45.25709
219.6994, 44.92113
220.1816, 44.68259
220.6637, 44.63234
221.1458, 44.98334
221.6279, 44.84290
222.1100, 43.86819
222.5921, 42.52502
223.0743, 42.09616
223.5564, 43.05632
224.0385, 44.10339
224.5206, 44.56952
225.0027, 44.12806
225.4848, 44.04659
225.9670, 44.58948
226.4491, 45.42386
226.9312, 45.64046
227.4133, 44.94703
227.8954, 44.10509
228.3775, 43.45359
228.8597, 42.97892
229.3418, 42.70372
229.8239, 42.66576
230.3060, 42.81470
230.7881, 43.00389
231.2702, 43.17580
231.7524, 43.47788
232.2345, 44.06756
232.7166, 45.40329
233.1987, 45.91284
233.6808, 45.12481
234.1629, 43.63092
234.6451, 43.08241
235.1272, 44.14754
235.6093, 45.17104
236.0914, 45.41772
236.5735, 44.61248
237.0556, 43.61999
237.5378, 42.18141
238.0199, 40.63191
238.5020, 39.84374
238.9841, 40.06374
239.4662, 40.66716
239.9483, 41.47295
240.4305, 42.75133
240.9126, 43.56154
241.3947, 43.73540
241.8768, 43.49397
242.3589, 43.40319
242.8410, 43.66143
243.3232, 43.76478
243.8053, 43.44133
244.2874, 42.36834
244.7695, 41.63815
245.2516, 41.24836
245.7337, 41.19423
246.2159, 41.52411
246.6980, 42.53479
247.1801, 43.46503
247.6622, 44.01423
248.1443, 44.06116
248.6264, 44.08216
249.1086, 44.15822
249.5907, 44.17130
250.0728, 43.79330
250.5549, 42.60091
251.0370, 41.73025
251.5191, 41.66876
252.0013, 42.66331
252.4834, 43.68953
252.9655, 44.93784
253.4476, 46.09509
253.9297, 46.47121
254.4118, 45.58083
254.8940, 44.81369
255.3761, 44.77352
255.8582, 45.78422
256.3403, 46.15204
256.8224, 45.50147
257.3046, 44.49718
257.7867, 44.34011
258.2688, 45.48344
258.7509, 46.51033
259.2330, 46.84677
259.7151, 46.29886
260.1973, 46.28761
260.6794, 47.09422
261.1615, 48.16431
261.6436, 48.64700
262.1257, 48.35455
262.6078, 47.94011
263.0900, 47.57545
263.5721, 47.25654
264.0542, 46.99073
264.5363, 46.76796
265.0184, 46.60570
265.5005, 46.52842
265.9827, 46.55632
266.4648, 46.62068
266.9469, 46.77638
267.4290, 47.03362
267.9111, 46.86364
268.3932, 46.09099
268.8754, 45.16367
269.3575, 44.57098
269.8396, 44.34075
270.3217, 44.32914
270.8038, 44.52740
271.2859, 44.93074
271.7681, 45.51621
272.2502, 46.48796
272.7323, 47.22155
273.2144, 46.84359
273.6965, 45.06769
274.1786, 43.75741
274.6608, 43.45343
275.1429, 43.98634
275.6250, 44.05998
276.1071, 43.54447
276.5892, 42.94344
277.0714, 42.75890
277.5535, 43.03875
278.0356, 43.25873
278.5177, 43.25272
278.9998, 43.13069
279.4819, 43.45028
279.9641, 44.33511
280.4462, 45.16064
280.9283, 45.32630
281.4104, 44.80492
281.8925, 44.49182
282.3746, 44.61851
282.8568, 44.96782
283.3389, 44.84477
283.8210, 44.18744
284.3031, 43.53432
284.7852, 43.25949
285.2673, 43.35016
285.7495, 43.56293
286.2316, 43.89601
286.7137, 44.29574
287.1958, 44.71049
287.6779, 45.14522
288.1600, 45.42052
288.6422, 45.39408
289.1243, 45.09004
289.6064, 44.61304
290.0885, 43.85793
290.5706, 43.20151
291.0527, 43.49389
291.5349, 44.66039
292.0170, 45.59984
292.4991, 45.48946
292.9812, 44.62679
293.4633, 44.09597
293.9454, 43.98191
294.4276, 44.06378
294.9097, 44.05591
295.3918, 43.98528
295.8739, 43.99583
296.3560, 44.20728
296.8381, 44.54459
297.3203, 44.87251
297.8024, 45.19958
298.2845, 45.40141
298.7666, 45.20151
299.2487, 44.73936
299.7308, 44.43888
300.2130, 44.59481
300.6951, 44.97434
301.1772, 45.22942
301.6593, 45.36016
302.1414, 45.38743
302.6235, 45.36504
303.1057, 45.25016
303.5878, 44.93470
304.0699, 44.08575
304.5520, 43.25352
305.0341, 43.15741
305.5162, 43.73328
305.9984, 44.44777
306.4805, 45.13157
306.9626, 45.65821
307.4447, 45.80598
307.9268, 45.32140
308.4089, 44.70231
308.8911, 44.35917
309.3732, 44.25039
309.8553, 44.20620
310.3374, 44.27179
310.8195, 44.28548
311.3016, 44.03711
311.7838, 43.33360
312.2659, 42.68507
312.7480, 42.63589
313.2301, 42.92361
313.7122, 42.89604
314.1943, 41.36666
314.6765, 39.97797
315.1586, 40.15710
315.6407, 42.62062
316.1228, 44.81603
316.6049, 45.35051
317.0870, 44.83230
317.5692, 44.26009
318.0513, 44.29985
318.5334, 44.11845
319.0155, 43.01228
319.4976, 40.69204
319.9797, 39.11382
320.4619, 39.53349
320.9440, 40.81765
321.4261, 41.69053
321.9082, 41.39222
322.3903, 41.08331
322.8724, 41.25802
323.3546, 41.94417
323.8367, 42.23183
324.3188, 41.32691
324.8009, 40.29670
325.2830, 39.96467
325.7651, 41.58575
326.2473, 42.62380
326.7294, 42.35142
327.2115, 40.97197
327.6936, 40.10863
328.1757, 40.07447
328.6578, 40.42496
329.1400, 40.95648
329.6221, 42.20027
330.1042, 42.88841
330.5863, 42.64784
331.0684, 41.83447
331.5505, 41.51979
332.0327, 42.17503
332.5148, 42.76809
332.9969, 42.83487
333.4790, 42.03539
333.9611, 41.66523
334.4432, 41.95237
334.9254, 42.53750
335.4075, 42.83077
335.8896, 42.83419
336.3717, 42.52520
336.8538, 41.68894
337.3359, 40.18449
337.8180, 39.76494
338.3001, 40.89903
338.7823, 42.40064
339.2644, 42.79047
339.7465, 41.76917
340.2286, 40.97372
340.7107, 40.87004
341.1928, 41.33913
341.6750, 41.51236
342.1571, 41.31433
342.6392, 41.10952
343.1213, 41.18728
343.6034, 41.54817
344.0855, 42.13037
344.5677, 43.08459
345.0498, 44.08244
345.5319, 44.06002
346.0140, 42.97528
346.4961, 42.06280
346.9782, 42.48291
347.4604, 43.87771
347.9425, 44.41287
348.4246, 43.80250
348.9067, 42.66967
349.3888, 41.62609
349.8709, 40.73783
350.3531, 40.37281
350.8352, 41.17112
351.3173, 42.51637
351.7994, 43.13067
352.2815, 42.92006
352.7636, 42.57194
353.2458, 42.81683
353.7279, 43.41833
354.2100, 43.86225
354.6921, 43.78061
355.1742, 43.56406
355.6563, 43.66980
356.1385, 44.06676
356.6206, 44.43486
357.1027, 44.55162
357.5848, 44.51688
358.0669, 44.42043
358.5490, 44.12329
359.0312, 44.01181
359.5133, 44.64600
359.9954, 45.72963
360.4775, 46.35438
360.9596, 45.75618
361.4417, 44.76336
361.9239, 43.85407
362.4060, 42.99516
362.8881, 42.54274
363.3702, 42.93151
363.8523, 43.75372
364.3344, 44.38437
364.8166, 44.43126
365.2987, 44.45236
365.7808, 44.75794
366.2629, 45.44056
366.7450, 45.75401
367.2271, 45.34569
367.7093, 44.63570
368.1914, 43.99331
368.6735, 43.23374
369.1556, 42.78499
369.6377, 42.89771
370.1198, 43.48408
370.6020, 43.77032
371.0841, 43.47886
371.5662, 43.14513
372.0483, 43.08340
372.5304, 43.61158
373.0125, 43.80058
373.4947, 43.50697
373.9768, 42.90728
374.4589, 42.39812
374.9410, 41.98798
375.4231, 41.64679
375.9052, 41.32610
376.3874, 40.99473
376.8695, 40.96313
377.3516, 41.31950
377.8337, 41.82722
378.3158, 42.28816
378.7979, 42.74355
379.2801, 42.81242
379.7622, 42.23383
380.2443, 41.20583
380.7264, 40.62297
381.2085, 40.52802
381.6906, 40.60078
382.1728, 40.53685
382.6549, 40.38132
383.1370, 40.48161
383.6191, 41.01300
384.1012, 41.61751
384.5833, 41.55056
385.0655, 40.91060
385.5476, 40.44105
386.0297, 40.67309
386.5118, 41.33681
386.9939, 42.06359
387.4760, 42.87056
387.9582, 43.38346
388.4403, 43.03528
388.9224, 42.13787
389.4045, 41.34623
389.8866, 40.80359
390.3687, 40.56152
390.8509, 40.94877
391.3330, 41.87782
391.8151, 42.42160
392.2972, 41.52822
392.7793, 40.20954
393.2614, 39.46836
393.7436, 40.01773
394.2257, 40.54679
394.7078, 40.48939
395.1899, 39.99010
395.6720, 39.42797
396.1541, 38.49746
396.6363, 37.87062
397.1184, 38.00099
397.6005, 39.28650
398.0826, 40.21563
398.5647, 40.40284
399.0468, 40.16881
399.5290, 39.90212
400.0111, 39.42981
400.4932, 39.14473
400.9753, 39.19048
401.4574, 39.56593
401.9395, 39.82136
402.4217, 39.98840
402.9038, 40.00506
403.3859, 39.79478
403.8680, 39.19872
404.3501, 38.72585
404.8322, 38.31745
405.3144, 38.09956
405.7965, 38.57261
406.2786, 40.02504
406.7607, 41.21838
407.2428, 41.49609
407.7249, 40.82586
408.2071, 40.30958
408.6892, 39.99012
409.1713, 39.68965
409.6534, 39.02383
410.1355, 38.03389
410.6176, 37.50671
411.0998, 37.84307
411.5819, 38.67600
412.0640, 39.11824
412.5461, 39.17899
413.0282, 39.18847
413.5103, 39.52169
413.9925, 39.96903
414.4746, 40.02629
414.9567, 39.49149
415.4388, 38.90776
415.9209, 38.79202
416.4030, 39.06404
416.8852, 39.52265
417.3673, 40.51659
417.8494, 41.35445
418.3315, 41.21680
418.8136, 40.04492
419.2957, 39.13659
419.7779, 39.42418
420.2600, 40.25470
420.7421, 40.96981
421.2242, 41.49488
421.7063, 41.76127
422.1884, 41.63094
422.6706, 41.20018
423.1527, 40.82772
423.6348, 40.63151
424.1169, 40.48749
424.5990, 40.32841
425.0811, 40.09698
425.5633, 39.97512
426.0454, 39.92030
426.5275, 39.99540
427.0096, 40.30919
427.4917, 41.13848
427.9738, 41.77860
428.4560, 42.02805
428.9381, 41.90934
429.4202, 41.91710
429.9023, 42.13957
430.3844, 42.32515
430.8665, 42.25732
431.3487, 41.88448
431.8308, 41.51323
432.3129, 41.04790
432.7950, 40.75470
433.2771, 41.46222
433.7592, 43.21709
434.2414, 44.62413
434.7235, 44.77338
435.2056, 44.01208
435.6877, 43.82078
436.1698, 44.24217
436.6519, 44.70361
437.1341, 44.57349
437.6162, 44.03030
438.0983, 43.48660
438.5804, 42.86858
439.0625, 42.56479
439.5446, 43.39814
440.0268, 45.04036
440.5089, 46.29173
440.9910, 46.16760
441.4731, 45.50985
441.9552, 44.97497
442.4373, 44.61470
442.9195, 44.56763
443.4016, 45.18598
443.8837, 46.06704
444.3658, 46.72117
444.8479, 46.90485
445.3300, 46.93980
445.8122, 46.77082
446.2943, 46.45788
446.7764, 46.47788
447.2585, 47.39660
447.7406, 48.28349
448.2227, 48.63964
448.7049, 48.02865
449.1870, 47.72298
449.6691, 47.88810
450.1512, 48.27797
450.6333, 48.48273
451.1154, 48.36538
451.5976, 48.37057
452.0797, 48.68665
452.5618, 49.27736
453.0439, 49.55003
453.5260, 49.42118
454.0081, 49.21968
454.4903, 49.22746
454.9724, 49.44053
455.4545, 49.52985
455.9366, 49.37655
456.4187, 49.24837
456.9008, 49.81149
457.3830, 50.95584
457.8651, 51.77045
458.3472, 51.62836
458.8293, 50.94510
459.3114, 50.32380
459.7935, 49.78161
460.2757, 49.58816
460.7578, 50.41496
461.2399, 51.59349
461.7220, 52.12904
462.2041, 51.39589
462.6862, 50.60089
463.1684, 50.57539
463.6505, 51.08472
464.1326, 51.58825
464.6147, 51.95368
465.0968, 52.19054
465.5789, 52.31107
466.0611, 52.32676
466.5432, 52.15415
467.0253, 51.40090
467.5074, 50.65321
467.9895, 50.40809
468.4716, 51.41071
468.9538, 51.98480
469.4359, 51.80213
469.9180, 51.12364
470.4001, 50.79669
470.8822, 51.00689
471.3643, 51.24730
471.8465, 51.33270
472.3286, 51.25940
472.8107, 51.00198
473.2928, 50.44001
473.7749, 49.99525
474.2570, 50.38494
474.7392, 51.59946
475.2213, 52.23780
475.7034, 51.88242
476.1855, 50.91785
476.6676, 49.91191
477.1497, 48.90465
477.6319, 48.30613
478.1140, 48.65462
478.5961, 49.47047
479.0782, 49.93764
479.5603, 49.98381
480.0424, 49.93805
480.5246, 50.08716
481.0067, 50.30629
481.4888, 50.41600
481.9709, 50.26977
482.4530, 50.10386
482.9352, 50.15630
483.4173, 50.30868
483.8994, 50.18677
484.3815, 49.03475
484.8636, 48.09461
485.3457, 48.15531
485.8279, 49.70469
486.3100, 50.58886
486.7921, 50.22247
487.2742, 49.33235
487.7563, 48.49314
488.2384, 47.40771
488.7206, 46.91420
489.2027, 47.31025
489.6848, 48.33016
490.1669, 49.04089
490.6490, 49.38916
491.1311, 49.57269
491.6133, 49.61811
492.0954, 49.53002
492.5775, 49.65836
493.0596, 50.07273
493.5417, 50.40537
494.0238, 50.11472
494.5060, 49.34539
494.9881, 48.80398
495.4702, 48.78333
495.9523, 48.89159
496.4344, 48.54536
496.9165, 47.83629
497.3987, 47.11167
497.8808, 46.35240
498.3629, 45.78996
498.8450, 45.71043
499.3271, 46.14869
499.8092, 46.69165
500.2914, 47.29000
500.7735, 47.80544
501.2556, 48.12054
501.7377, 48.02805
502.2198, 47.94002
502.7019, 48.02663
503.1841, 48.18694
503.6662, 48.14440
504.1483, 47.45002
504.6304, 47.00929
505.1125, 47.18864
505.5946, 48.06216
506.0768, 48.56169
506.5589, 48.49352
507.0410, 48.33449
507.5231, 48.47812
508.0052, 48.96280
508.4873, 49.57898
508.9695, 50.47190
509.4516, 51.20729
509.9337, 50.62360
510.4158, 48.80839
510.8979, 47.43213
511.3800, 47.57585
511.8622, 48.53965
512.3443, 48.69519
512.8264, 48.07711
513.3085, 47.36057
513.7906, 46.92612
514.2728, 46.74894
514.7549, 46.79858
515.2370, 47.07057
515.7191, 47.56416
516.2012, 48.68613
516.6833, 49.94000
517.1655, 50.58276
517.6476, 49.71574
518.1297, 48.85310
518.6118, 48.59039
519.0939, 48.87936
519.5760, 49.01928
520.0582, 48.37671
520.5403, 48.05307
521.0224, 48.66169
521.5045, 50.83939
521.9866, 52.05233
522.4688, 51.95699
522.9509, 51.27411
523.4330, 50.87384
523.9151, 50.81393
524.3972, 50.71354
524.8793, 50.48124
525.3615, 50.16833
525.8436, 49.85136
526.3257, 49.53205
526.8078, 49.37057
527.2899, 49.52990
527.7720, 49.90151
528.2542, 50.29066
528.7363, 50.69276
529.2184, 50.96925
529.7005, 50.91018
530.1826, 50.67994
530.6647, 50.48975
531.1469, 50.36186
531.6290, 50.34987
532.1111, 50.59975
532.5932, 50.98056
533.0753, 51.22443
533.5574, 51.15887
534.0396, 51.03663
534.5217, 50.93853
535.0038, 50.87066
535.4859, 50.77953
535.9680, 50.54734
536.4501, 50.40531
536.9323, 50.55299
537.4144, 51.27449
537.8965, 51.41818
538.3786, 50.71323
538.8607, 49.76527
539.3428, 49.53533
539.8250, 50.06890
540.3071, 50.68664
540.7892, 51.20586
541.2713, 51.67159
541.7534, 52.28199
542.2355, 53.00100
542.7177, 53.44028
543.1998, 53.20953
543.6819, 52.59697
544.1640, 51.93292
544.6461, 51.22480
545.1282, 50.81634
545.6104, 51.42753
546.0925, 52.28255
546.5746, 52.44458
547.0567, 50.62019
547.5388, 49.51692
548.0209, 50.83235
548.5031, 53.47959
548.9852, 55.09218
549.4673, 54.24674
549.9494, 53.45886
550.4315, 53.44127
550.9136, 54.18934
551.3958, 54.59652
551.8779, 54.63546
552.3600, 54.37899
552.8421, 53.66942
553.3242, 52.37843
553.8063, 51.92573
554.2885, 52.49067
554.7706, 53.56479
555.2527, 54.83112
555.7348, 56.15157
556.2169, 56.55566
556.6990, 55.29099
557.1812, 53.56383
557.6633, 53.11705
558.1454, 53.71188
558.6275, 54.45314
559.1096, 55.00958
559.5917, 55.37452
560.0739, 55.45467
560.5560, 55.24144
561.0381, 55.09813
561.5202, 55.21728
562.0023, 55.43721
562.4844, 55.63501
562.9666, 55.68990
563.4487, 55.88935
563.9308, 56.46878
564.4129, 57.10420
564.8950, 57.22448
565.3771, 56.43901
565.8593, 56.05701
566.3414, 56.60095
566.8235, 57.74273
567.3056, 57.85025
567.7877, 56.77407
568.2698, 55.74239
568.7520, 55.43205
569.2341, 55.75828
569.7162, 56.58356
570.1983, 57.93822
570.6804, 59.12696
571.1625, 59.35354
571.6447, 59.00624
572.1268, 58.68914
572.6089, 58.51577
573.0910, 58.46703
573.5731, 58.54219
574.0552, 58.73015
574.5374, 59.01320
575.0195, 59.51816
575.5016, 59.98279
575.9837, 60.33176
576.4658, 60.56315
576.9479, 60.71111
577.4301, 60.76134
577.9122, 60.74471
578.3943, 60.60958
578.8764, 60.26878
579.3585, 60.38585
579.8406, 61.13916
580.3228, 61.95312
580.8049, 62.13386
581.2870, 61.72398
581.7691, 61.48693
582.2512, 61.54096
582.7333, 61.84721
583.2155, 62.49080
583.6975, 63.35664
584.1796, 64.11696
584.6617, 64.66238
585.1439, 64.99197
585.6260, 65.05956
586.1081, 64.89175
586.5902, 64.62430
587.0723, 64.00558
587.5544, 63.55295
