##NAMES=Pyromorphite
##RRUFFID=R050027
##IDEAL CHEMISTRY=Pb^2+^_5_(PO_4_)_3_Cl
##LOCALITY=Yangshuo, Guangxi Autonomous Region, China
##OWNER=RRUFF
##SOURCE=Eugene Schlepp
##DESCRIPTION=Light green hexagonal prismatic hoppered single crystals
##STATUS=The identification of this mineral has been confirmed by X-ray diffraction and chemical analysis
##URL=rruff.info/R050027
##MEASURED CHEMISTRY=Pb_5.00_(P_1.00_O_4_)_3_Cl_1.00_
117.1625, 193.1352
117.6446, 200.7813
118.1267, 207.4576
118.6088, 211.1459
119.0909, 214.8881
119.5731, 220.9636
120.0552, 229.7239
120.5373, 241.7012
121.0194, 258.3085
121.5015, 280.9102
121.9836, 304.3890
122.4658, 326.8372
122.9479, 349.5860
123.4300, 373.8889
123.9121, 400.3870
124.3942, 428.6574
124.8763, 457.2273
125.3585, 485.2607
125.8406, 515.7818
126.3227, 550.9658
126.8048, 588.0989
127.2869, 624.4066
127.7690, 658.1318
128.2512, 690.1542
128.7333, 722.6989
129.2154, 754.2849
129.6975, 788.5241
130.1796, 829.7831
130.6617, 873.1893
131.1439, 912.5897
131.6260, 944.6215
132.1081, 969.1437
132.5902, 984.8700
133.0723, 982.8532
133.5544, 980.6257
134.0366, 979.5502
134.5187, 980.6246
135.0008, 984.8395
135.4829, 992.8586
135.9650, 1004.612
136.4471, 1019.432
136.9293, 1035.790
137.4114, 1056.300
137.8935, 1079.531
138.3756, 1107.368
138.8577, 1144.148
139.3398, 1193.363
139.8220, 1255.275
140.3041, 1322.522
140.7862, 1394.451
141.2683, 1470.808
141.7504, 1553.842
142.2325, 1641.597
142.7147, 1727.264
143.1968, 1804.954
143.6789, 1874.261
144.1610, 1952.817
144.6431, 2050.778
145.1252, 2148.010
145.6074, 2232.843
146.0895, 2305.573
146.5716, 2373.445
147.0537, 2442.384
147.5358, 2511.864
148.0179, 2574.670
148.5001, 2627.917
148.9822, 2676.749
149.4643, 2727.347
149.9464, 2779.791
150.4285, 2824.231
150.9106, 2848.935
151.3928, 2855.872
151.8749, 2872.289
152.3570, 2908.245
152.8391, 2949.115
153.3212, 2981.357
153.8033, 3003.765
154.2855, 3024.098
154.7676, 3048.010
155.2497, 3075.035
155.7318, 3102.796
156.2139, 3123.509
156.6960, 3148.464
157.1782, 3195.414
157.6603, 3268.249
158.1424, 3341.663
158.6245, 3392.090
159.1066, 3427.471
159.5887, 3466.176
160.0709, 3510.089
160.5530, 3560.771
161.0351, 3623.570
161.5172, 3702.094
161.9993, 3778.519
162.4814, 3836.039
162.9636, 3882.168
163.4457, 3931.000
163.9278, 3988.644
164.4099, 4051.274
164.8920, 4111.632
165.3741, 4169.177
165.8563, 4225.563
166.3384, 4280.598
166.8205, 4335.289
167.3026, 4391.727
167.7847, 4452.777
168.2668, 4515.697
168.7490, 4576.095
169.2311, 4636.922
169.7132, 4688.399
170.1953, 4718.065
170.6774, 4736.941
171.1595, 4762.445
171.6417, 4805.000
172.1238, 4858.251
172.6059, 4907.017
173.0880, 4951.677
173.5701, 4990.537
174.0522, 5023.718
174.5344, 5051.668
175.0165, 5073.476
175.4986, 5086.260
175.9807, 5094.260
176.4628, 5109.103
176.9449, 5131.586
177.4271, 5160.342
177.9092, 5202.982
178.3913, 5248.642
178.8734, 5281.896
179.3555, 5293.908
179.8376, 5290.281
180.3197, 5286.400
180.8019, 5278.143
181.2840, 5277.712
181.7661, 5298.507
182.2482, 5325.213
182.7303, 5336.301
183.2124, 5317.671
183.6946, 5282.760
184.1767, 5272.241
184.6588, 5304.422
185.1409, 5329.585
185.6230, 5331.508
186.1051, 5321.369
186.5873, 5312.408
187.0694, 5311.287
187.5515, 5313.340
188.0336, 5304.272
188.5157, 5271.659
188.9978, 5250.019
189.4800, 5257.348
189.9621, 5273.332
190.4442, 5276.199
190.9263, 5255.783
191.4084, 5220.666
191.8905, 5191.442
192.3727, 5171.184
192.8548, 5151.581
193.3369, 5132.781
193.8190, 5113.045
194.3011, 5090.494
194.7832, 5064.362
195.2654, 5035.679
195.7475, 5007.066
196.2296, 4979.560
196.7117, 4949.518
197.1938, 4911.356
197.6759, 4873.544
198.1581, 4844.120
198.6402, 4825.596
199.1223, 4813.798
199.6044, 4803.185
200.0865, 4802.931
200.5686, 4783.753
201.0508, 4724.208
201.5329, 4659.906
202.0150, 4619.386
202.4971, 4610.017
202.9792, 4618.365
203.4613, 4624.275
203.9435, 4628.987
204.4256, 4627.886
204.9077, 4618.869
205.3898, 4606.374
205.8719, 4593.411
206.3540, 4580.542
206.8362, 4566.274
207.3183, 4546.717
207.8004, 4515.706
208.2825, 4496.129
208.7646, 4493.261
209.2467, 4496.211
209.7289, 4502.884
210.2110, 4510.808
210.6931, 4514.140
211.1752, 4504.172
211.6573, 4475.329
212.1395, 4453.962
212.6216, 4435.148
213.1037, 4427.242
213.5858, 4442.401
214.0679, 4475.582
214.5500, 4507.619
215.0322, 4517.992
215.5143, 4502.314
215.9964, 4493.870
216.4785, 4495.940
216.9606, 4502.022
217.4427, 4508.963
217.9249, 4517.734
218.4070, 4532.268
218.8891, 4557.618
219.3712, 4594.348
219.8533, 4621.171
220.3354, 4631.372
220.8176, 4637.502
221.2997, 4638.568
221.7818, 4638.093
222.2639, 4642.547
222.7460, 4657.451
223.2281, 4681.403
223.7103, 4697.937
224.1924, 4699.606
224.6745, 4701.437
225.1566, 4705.446
225.6387, 4711.801
226.1208, 4720.963
226.6030, 4733.578
227.0851, 4748.253
227.5672, 4758.494
228.0493, 4754.500
228.5314, 4759.929
229.0135, 4782.781
229.4957, 4814.972
229.9778, 4848.525
230.4599, 4880.032
230.9420, 4908.688
231.4241, 4932.150
231.9062, 4945.962
232.3884, 4961.993
232.8705, 4977.647
233.3526, 4997.849
233.8347, 5030.085
234.3168, 5076.199
234.7989, 5126.610
235.2811, 5162.086
235.7632, 5170.102
236.2453, 5193.705
236.7274, 5253.867
237.2095, 5317.033
237.6916, 5356.307
238.1738, 5368.687
238.6559, 5377.245
239.1380, 5415.476
239.6201, 5496.969
240.1022, 5557.660
240.5843, 5571.190
241.0665, 5583.205
241.5486, 5617.270
242.0307, 5672.876
242.5128, 5733.641
242.9949, 5786.638
243.4770, 5832.278
243.9592, 5865.324
244.4413, 5864.683
244.9234, 5871.574
245.4055, 5905.042
245.8876, 5959.308
246.3697, 6017.402
246.8519, 6069.450
247.3340, 6115.511
247.8161, 6152.647
248.2982, 6173.330
248.7803, 6194.959
249.2624, 6221.404
249.7446, 6253.156
250.2267, 6290.592
250.7088, 6334.383
251.1909, 6383.823
251.6730, 6438.343
252.1551, 6502.874
252.6373, 6562.642
253.1194, 6614.497
253.6015, 6659.114
254.0836, 6694.856
254.5657, 6719.447
255.0478, 6741.384
255.5300, 6776.073
256.0121, 6827.511
256.4942, 6876.200
256.9763, 6918.094
257.4584, 6954.054
257.9406, 6982.910
258.4227, 7004.127
258.9048, 7023.666
259.3869, 7046.350
259.8690, 7072.119
260.3511, 7104.895
260.8333, 7159.827
261.3154, 7208.980
261.7975, 7228.424
262.2796, 7219.073
262.7617, 7207.772
263.2438, 7218.186
263.7260, 7245.144
264.2081, 7256.454
264.6902, 7239.568
265.1723, 7220.799
265.6544, 7223.312
266.1365, 7240.778
266.6187, 7252.080
267.1008, 7247.140
267.5829, 7229.344
268.0650, 7204.085
268.5471, 7169.657
269.0292, 7133.922
269.5114, 7098.784
269.9935, 7066.457
270.4756, 7042.224
270.9577, 7034.848
271.4398, 7030.079
271.9219, 7012.706
272.4041, 6982.518
272.8862, 6944.036
273.3683, 6895.564
273.8504, 6841.580
274.3325, 6790.808
274.8146, 6742.834
275.2968, 6699.429
275.7789, 6667.011
276.2610, 6641.781
276.7431, 6606.466
277.2252, 6551.712
277.7073, 6488.393
278.1895, 6433.218
278.6716, 6385.658
279.1537, 6345.371
279.6358, 6318.083
280.1179, 6296.821
280.6000, 6271.100
281.0822, 6239.001
281.5643, 6199.626
282.0464, 6150.681
282.5285, 6092.153
283.0106, 6027.519
283.4927, 5942.499
283.9749, 5860.837
284.4570, 5807.643
284.9391, 5783.328
285.4212, 5765.224
285.9033, 5735.050
286.3854, 5693.159
286.8676, 5658.649
287.3497, 5636.920
287.8318, 5616.554
288.3139, 5593.161
288.7960, 5566.676
289.2781, 5537.495
289.7603, 5505.421
290.2424, 5471.479
290.7245, 5440.663
291.2066, 5415.473
291.6887, 5390.032
292.1708, 5366.108
292.6530, 5340.521
293.1351, 5306.250
293.6172, 5261.154
294.0993, 5214.833
294.5814, 5184.720
295.0635, 5179.252
295.5457, 5175.516
296.0278, 5183.706
296.5099, 5186.311
296.9920, 5164.555
297.4741, 5120.370
297.9562, 5076.016
298.4384, 5055.854
298.9205, 5064.754
299.4026, 5063.854
299.8847, 5042.064
300.3668, 5021.864
300.8489, 5011.537
301.3311, 5008.843
301.8131, 5008.502
302.2953, 5007.884
302.7774, 5005.891
303.2595, 4995.551
303.7416, 4962.767
304.2237, 4943.158
304.7058, 4953.496
305.1880, 4975.102
305.6701, 4988.510
306.1522, 4986.499
306.6343, 4974.660
307.1164, 4960.085
307.5985, 4940.627
308.0807, 4926.711
308.5628, 4922.809
309.0449, 4923.437
309.5270, 4930.122
310.0091, 4941.313
310.4912, 4945.632
310.9734, 4926.881
311.4555, 4888.083
311.9376, 4865.053
312.4197, 4872.547
312.9018, 4878.328
313.3839, 4854.135
313.8661, 4811.910
314.3482, 4783.548
314.8303, 4792.750
315.3124, 4820.464
315.7945, 4835.817
316.2766, 4838.941
316.7588, 4828.012
317.2409, 4785.616
317.7230, 4734.011
318.2051, 4712.552
318.6872, 4740.504
319.1693, 4773.579
319.6515, 4779.142
320.1336, 4761.590
320.6157, 4739.012
321.0978, 4714.226
321.5799, 4692.314
322.0620, 4683.572
322.5442, 4690.057
323.0263, 4693.511
323.5084, 4686.299
323.9905, 4674.247
324.4726, 4664.794
324.9547, 4659.152
325.4369, 4654.569
325.9190, 4647.973
326.4011, 4639.062
326.8832, 4634.051
327.3653, 4640.267
327.8474, 4643.540
328.3296, 4633.028
328.8117, 4612.389
329.2938, 4593.028
329.7759, 4581.421
330.2580, 4576.411
330.7401, 4573.163
331.2223, 4578.015
331.7044, 4576.703
332.1865, 4563.819
332.6686, 4545.833
333.1507, 4529.640
333.6328, 4517.357
334.1150, 4506.425
334.5971, 4492.732
335.0792, 4474.647
335.5613, 4458.391
336.0434, 4438.277
336.5255, 4424.669
337.0077, 4429.950
337.4898, 4448.071
337.9719, 4460.186
338.4540, 4450.183
338.9361, 4420.598
339.4182, 4393.639
339.9004, 4367.092
340.3825, 4347.377
340.8646, 4337.905
341.3467, 4334.745
341.8288, 4334.855
342.3109, 4338.323
342.7931, 4338.764
343.2752, 4324.006
343.7573, 4291.375
344.2394, 4262.330
344.7215, 4242.570
345.2036, 4227.950
345.6858, 4214.979
346.1679, 4203.484
346.6500, 4194.875
347.1321, 4192.484
347.6142, 4193.628
348.0963, 4190.812
348.5785, 4182.939
349.0606, 4172.164
349.5427, 4158.398
350.0248, 4142.825
350.5069, 4129.130
350.9890, 4117.150
351.4712, 4107.861
351.9533, 4104.744
352.4354, 4106.114
352.9175, 4102.182
353.3996, 4086.219
353.8817, 4064.558
354.3639, 4055.397
354.8460, 4066.792
355.3281, 4071.154
355.8102, 4058.406
356.2923, 4037.216
356.7744, 4015.848
357.2566, 3996.495
357.7387, 3981.711
358.2208, 3975.615
358.7029, 3981.375
359.1850, 3977.518
359.6671, 3957.653
360.1493, 3936.107
360.6314, 3920.267
361.1135, 3907.750
361.5956, 3890.624
362.0777, 3863.059
362.5598, 3831.097
363.0420, 3817.846
363.5241, 3840.222
364.0062, 3854.506
364.4883, 3850.054
364.9704, 3839.750
365.4525, 3834.893
365.9347, 3837.643
366.4168, 3841.384
366.8989, 3836.165
367.3810, 3820.812
367.8631, 3816.583
368.3452, 3836.113
368.8274, 3852.691
369.3095, 3850.767
369.7916, 3835.738
370.2737, 3820.904
370.7558, 3812.794
371.2379, 3808.161
371.7201, 3800.894
372.2022, 3790.437
372.6843, 3782.384
373.1664, 3775.956
373.6485, 3775.893
374.1306, 3792.109
374.6128, 3832.419
375.0949, 3861.883
375.5770, 3847.275
376.0591, 3811.396
376.5412, 3802.154
377.0233, 3831.025
377.5055, 3873.474
377.9876, 3907.286
378.4697, 3931.392
378.9518, 3948.455
379.4339, 3951.875
379.9160, 3954.124
380.3982, 3958.077
380.8803, 3966.601
381.3624, 3986.804
381.8445, 4023.282
382.3266, 4071.258
382.8087, 4117.230
383.2909, 4168.633
383.7730, 4206.653
384.2551, 4215.458
384.7372, 4220.895
385.2193, 4246.045
385.7014, 4293.170
386.1836, 4346.694
386.6657, 4388.747
387.1478, 4417.832
387.6299, 4461.236
388.1120, 4530.000
388.5941, 4601.642
389.0763, 4675.493
389.5584, 4745.672
390.0405, 4801.831
390.5226, 4838.437
391.0047, 4864.392
391.4868, 4898.396
391.9690, 4943.234
392.4511, 4968.241
392.9332, 4962.662
393.4153, 4934.559
393.8974, 4890.403
394.3795, 4830.468
394.8617, 4766.523
395.3438, 4702.575
395.8259, 4638.955
396.3080, 4574.534
396.7901, 4509.093
397.2722, 4448.102
397.7544, 4397.324
398.2365, 4354.576
398.7186, 4306.387
399.2007, 4232.347
399.6828, 4176.089
400.1649, 4162.352
400.6471, 4175.772
401.1292, 4191.577
401.6113, 4201.726
402.0934, 4211.545
402.5755, 4229.967
403.0576, 4262.886
403.5398, 4285.830
404.0219, 4281.458
404.5040, 4284.741
404.9861, 4323.960
405.4682, 4386.357
405.9503, 4438.516
406.4325, 4458.948
406.9146, 4454.476
407.3967, 4447.346
407.8788, 4433.341
408.3609, 4425.603
408.8430, 4436.436
409.3252, 4447.579
409.8073, 4447.615
410.2894, 4433.927
410.7715, 4404.274
411.2536, 4346.587
411.7357, 4268.114
412.2179, 4208.876
412.7000, 4175.628
413.1821, 4152.083
413.6642, 4133.761
414.1463, 4116.787
414.6284, 4092.983
415.1106, 4056.083
415.5927, 4017.586
416.0748, 3985.477
416.5569, 3958.545
417.0390, 3933.833
417.5211, 3910.923
418.0033, 3888.125
418.4854, 3863.576
418.9675, 3838.544
419.4496, 3806.458
419.9317, 3757.651
420.4138, 3709.678
420.8960, 3675.783
421.3781, 3653.535
421.8602, 3631.387
422.3423, 3601.058
422.8244, 3566.471
423.3065, 3545.792
423.7887, 3558.347
424.2708, 3554.086
424.7529, 3515.699
425.2350, 3468.231
425.7171, 3428.925
426.1992, 3401.636
426.6814, 3384.857
427.1635, 3380.563
427.6456, 3387.504
428.1277, 3391.667
428.6098, 3394.333
429.0919, 3391.594
429.5741, 3376.614
430.0562, 3356.370
430.5383, 3341.699
431.0204, 3337.116
431.5025, 3334.292
431.9846, 3325.802
432.4668, 3313.250
432.9489, 3302.668
433.4310, 3295.991
433.9131, 3290.326
434.3952, 3282.370
434.8773, 3271.961
435.3595, 3260.882
435.8416, 3244.359
436.3237, 3231.614
436.8058, 3229.889
437.2879, 3236.607
437.7701, 3245.463
438.2522, 3253.507
438.7343, 3259.903
439.2164, 3263.002
439.6985, 3267.222
440.1806, 3259.377
440.6628, 3222.881
441.1449, 3189.111
441.6270, 3182.740
442.1091, 3199.675
442.5912, 3216.513
443.0733, 3215.162
443.5555, 3200.191
444.0376, 3189.812
444.5197, 3186.601
445.0018, 3180.712
445.4839, 3164.385
445.9660, 3145.479
446.4482, 3130.760
446.9303, 3120.934
447.4124, 3116.754
447.8945, 3122.781
448.3766, 3134.014
448.8587, 3139.874
449.3409, 3138.813
449.8230, 3134.892
450.3051, 3131.108
450.7872, 3127.198
451.2693, 3121.227
451.7514, 3114.036
452.2336, 3104.026
452.7157, 3084.538
453.1978, 3064.135
453.6799, 3057.864
454.1620, 3069.062
454.6441, 3083.620
455.1263, 3082.426
455.6084, 3061.806
456.0905, 3046.307
456.5726, 3036.946
457.0547, 3032.205
457.5368, 3037.978
458.0190, 3046.644
458.5011, 3044.539
458.9832, 3024.143
459.4653, 2999.565
459.9474, 2992.712
460.4295, 3003.912
460.9117, 3012.042
461.3938, 3012.300
461.8759, 3009.414
462.3580, 3007.556
462.8401, 3006.405
463.3222, 3004.082
463.8044, 2999.667
464.2865, 2994.177
464.7686, 2987.037
465.2507, 2979.267
465.7328, 2975.150
466.2149, 2976.981
466.6971, 2981.894
467.1792, 2984.355
467.6613, 2983.240
468.1434, 2981.815
468.6255, 2981.564
469.1076, 2979.738
469.5898, 2975.789
470.0719, 2968.817
470.5540, 2955.107
471.0361, 2930.271
471.5182, 2902.481
472.0003, 2898.007
472.4825, 2927.309
472.9646, 2951.482
473.4467, 2961.734
473.9288, 2964.319
474.4109, 2960.369
474.8930, 2950.970
475.3752, 2941.890
475.8573, 2936.094
476.3394, 2932.855
476.8215, 2932.129
477.3036, 2933.940
477.7857, 2933.239
478.2679, 2926.445
478.7500, 2916.421
479.2321, 2910.208
479.7142, 2909.010
480.1963, 2907.955
480.6784, 2905.222
481.1606, 2902.845
481.6427, 2902.909
482.1248, 2905.339
482.6069, 2908.917
483.0890, 2913.148
483.5711, 2917.327
484.0533, 2917.304
484.5354, 2909.430
485.0175, 2903.289
485.4996, 2901.992
485.9817, 2901.524
486.4638, 2897.760
486.9460, 2890.780
487.4281, 2885.278
487.9102, 2887.900
488.3923, 2894.682
488.8744, 2891.166
489.3565, 2874.760
489.8387, 2862.618
490.3208, 2864.522
490.8029, 2875.885
491.2850, 2886.811
491.7671, 2898.277
492.2492, 2906.626
492.7314, 2908.937
493.2135, 2908.350
493.6956, 2909.969
494.1777, 2913.344
494.6598, 2911.357
495.1419, 2897.425
495.6241, 2874.259
496.1062, 2858.919
496.5883, 2850.792
497.0704, 2852.490
497.5525, 2875.860
498.0346, 2900.684
498.5168, 2909.492
498.9989, 2901.068
499.4810, 2886.728
499.9631, 2872.935
500.4452, 2860.768
500.9273, 2855.224
501.4095, 2857.428
501.8916, 2861.632
502.3737, 2866.487
502.8558, 2871.275
503.3379, 2875.705
503.8200, 2880.761
504.3022, 2881.132
504.7843, 2870.702
505.2664, 2856.890
505.7485, 2848.683
506.2306, 2846.289
506.7127, 2844.404
507.1949, 2839.122
507.6770, 2831.985
508.1591, 2829.688
508.6412, 2832.388
509.1233, 2840.282
509.6054, 2864.836
510.0876, 2885.562
510.5697, 2882.942
511.0518, 2860.033
511.5339, 2837.495
512.0161, 2830.136
512.4982, 2833.808
512.9803, 2838.296
513.4624, 2844.006
513.9445, 2848.122
514.4266, 2851.311
514.9088, 2850.763
515.3909, 2840.114
515.8730, 2817.856
516.3551, 2804.609
516.8372, 2815.035
517.3193, 2830.923
517.8015, 2835.829
518.2836, 2830.486
518.7657, 2822.390
519.2478, 2815.295
519.7299, 2808.853
520.2120, 2802.096
520.6942, 2793.476
521.1763, 2787.573
521.6584, 2779.675
522.1405, 2778.435
522.6226, 2796.517
523.1047, 2825.095
523.5869, 2841.560
524.0690, 2831.698
524.5511, 2809.345
525.0332, 2795.186
525.5153, 2789.205
525.9974, 2789.337
526.4796, 2798.031
526.9617, 2807.948
527.4438, 2810.591
527.9259, 2806.875
528.4080, 2803.667
528.8901, 2802.227
529.3723, 2801.235
529.8544, 2799.790
530.3365, 2798.246
530.8186, 2797.568
531.3007, 2798.044
531.7828, 2798.540
532.2650, 2796.695
532.7471, 2791.056
533.2292, 2792.230
533.7113, 2807.168
534.1934, 2821.164
534.6755, 2831.638
535.1577, 2837.817
535.6398, 2838.127
536.1219, 2831.708
536.6040, 2823.327
537.0861, 2816.302
537.5682, 2810.854
538.0504, 2806.332
538.5325, 2801.857
539.0146, 2805.445
539.4967, 2827.525
539.9788, 2862.111
540.4609, 2879.060
540.9431, 2865.316
541.4252, 2854.162
541.9073, 2853.553
542.3894, 2857.701
542.8715, 2862.521
543.3536, 2866.698
543.8358, 2869.570
544.3179, 2871.350
544.8000, 2870.693
545.2821, 2858.926
545.7642, 2827.599
546.2463, 2808.463
546.7285, 2819.871
547.2106, 2839.122
547.6927, 2849.266
548.1748, 2850.198
548.6569, 2850.833
549.1390, 2855.742
549.6211, 2861.740
550.1032, 2864.531
550.5853, 2865.041
551.0674, 2868.000
551.5496, 2875.713
552.0317, 2884.787
552.5138, 2890.004
552.9959, 2891.378
553.4780, 2888.581
553.9601, 2878.213
554.4423, 2867.922
554.9244, 2862.946
555.4065, 2859.400
555.8886, 2851.821
556.3707, 2838.231
556.8528, 2818.344
557.3350, 2784.428
557.8171, 2740.287
558.2992, 2721.041
558.7813, 2737.584
559.2634, 2754.514
559.7455, 2746.021
560.2277, 2720.256
560.7098, 2705.061
561.1919, 2707.858
561.6740, 2708.510
562.1561, 2695.240
562.6382, 2680.070
563.1204, 2679.147
563.6025, 2691.152
564.0846, 2699.296
564.5667, 2690.264
565.0488, 2669.787
565.5309, 2661.462
566.0131, 2671.803
566.4952, 2677.801
566.9773, 2667.060
567.4594, 2657.722
567.9415, 2664.232
568.4236, 2683.493
568.9058, 2699.113
569.3879, 2700.609
569.8700, 2698.749
570.3521, 2704.458
570.8342, 2716.072
571.3163, 2728.085
571.7985, 2738.825
572.2806, 2749.789
572.7627, 2763.836
573.2448, 2782.421
573.7269, 2790.454
574.2090, 2785.027
574.6912, 2773.186
575.1733, 2749.247
575.6554, 2723.686
576.1375, 2710.384
576.6196, 2711.275
577.1017, 2711.818
577.5839, 2698.902
578.0660, 2675.081
578.5481, 2646.976
579.0302, 2613.842
579.5123, 2584.091
579.9944, 2561.077
580.4766, 2544.229
580.9587, 2534.160
581.4408, 2532.648
581.9229, 2528.930
582.4050, 2518.286
582.8871, 2508.007
583.3693, 2505.224
583.8514, 2506.421
584.3335, 2503.347
584.8156, 2492.235
585.2977, 2476.333
585.7798, 2459.204
586.2620, 2440.351
586.7441, 2426.792
587.2262, 2419.820
587.7083, 2416.451
588.1904, 2416.734
588.6725, 2418.996
589.1547, 2421.626
589.6368, 2427.241
590.1189, 2425.680
590.6010, 2404.876
591.0831, 2378.011
591.5652, 2361.896
592.0474, 2357.366
592.5295, 2357.386
593.0116, 2357.927
593.4937, 2358.038
593.9758, 2354.126
594.4579, 2342.804
594.9401, 2335.568
595.4222, 2341.904
595.9043, 2344.694
596.3864, 2334.264
596.8685, 2313.407
597.3506, 2288.574
597.8328, 2256.790
598.3149, 2232.465
598.7970, 2238.267
599.2791, 2260.837
599.7612, 2261.556
600.2433, 2232.902
600.7255, 2203.990
601.2076, 2200.748
601.6897, 2219.160
602.1718, 2226.392
602.6539, 2214.196
603.1360, 2201.560
603.6182, 2189.123
604.1003, 2177.375
604.5824, 2166.609
605.0645, 2156.821
605.5466, 2148.024
606.0287, 2140.613
606.5109, 2133.584
606.9930, 2124.780
607.4751, 2114.570
607.9572, 2105.876
608.4393, 2099.220
608.9214, 2095.151
609.4036, 2095.816
609.8857, 2101.215
610.3678, 2098.376
610.8499, 2081.137
611.3320, 2064.342
611.8141, 2048.631
612.2963, 2036.706
612.7784, 2035.333
613.2605, 2042.308
