##NAMES=Pyrochlore
##RRUFFID=R070742
##IDEAL CHEMISTRY=Ca_2_Nb_2_O_7_
##LOCALITY=Alakurtti pegmatite, North Karelia, Murmanskaja Oblast', Northern Region, Russia
##OWNER=RRUFF
##SOURCE=Michael Scott
##DESCRIPTION=Vitreous brown metamict fragments
##STATUS=The identification of this mineral has been made only by X-ray diffraction.
##URL=rruff.info/R070742
133.0227, 30707.74
133.5048, 30595.63
133.9869, 30519.19
134.4691, 30523.68
134.9512, 30571.69
135.4333, 30598.16
135.9154, 30557.84
136.3975, 30456.10
136.8796, 30393.54
137.3618, 30375.40
137.8439, 30382.09
138.3260, 30418.15
138.8081, 30478.34
139.2902, 30533.37
139.7723, 30556.62
140.2545, 30547.49
140.7366, 30543.35
141.2187, 30553.23
141.7008, 30565.85
142.1829, 30566.74
142.6650, 30551.74
143.1472, 30534.80
143.6293, 30531.92
144.1114, 30540.01
144.5935, 30546.19
145.0756, 30538.75
145.5577, 30523.87
146.0399, 30525.28
146.5220, 30561.70
147.0041, 30596.79
147.4862, 30595.29
147.9683, 30559.18
148.4504, 30526.24
148.9326, 30537.96
149.4147, 30600.77
149.8968, 30640.40
150.3789, 30615.60
150.8610, 30579.96
151.3431, 30565.55
151.8252, 30579.03
152.3074, 30597.81
152.7895, 30583.30
153.2716, 30511.58
153.7537, 30457.90
154.2358, 30436.36
154.7179, 30430.35
155.2001, 30430.02
155.6822, 30431.30
156.1643, 30429.14
156.6464, 30407.55
157.1285, 30334.00
157.6106, 30277.04
158.0928, 30253.46
158.5749, 30248.54
159.0570, 30242.09
159.5391, 30221.94
160.0212, 30189.53
160.5033, 30161.56
160.9855, 30156.28
161.4676, 30136.80
161.9497, 30081.12
162.4318, 29999.20
162.9139, 29919.83
163.3960, 29865.67
163.8782, 29838.00
164.3603, 29803.06
164.8424, 29746.80
165.3245, 29694.35
165.8066, 29669.33
166.2887, 29671.67
166.7709, 29672.82
167.2530, 29642.58
167.7351, 29581.23
168.2172, 29529.69
168.6993, 29494.16
169.1814, 29469.85
169.6636, 29450.94
170.1457, 29436.45
170.6278, 29428.29
171.1099, 29438.48
171.5920, 29462.65
172.0741, 29469.50
172.5563, 29438.60
173.0384, 29380.37
173.5205, 29321.57
174.0026, 29255.29
174.4847, 29206.62
174.9668, 29203.07
175.4490, 29241.00
175.9311, 29275.47
176.4132, 29273.84
176.8953, 29236.84
177.3774, 29195.06
177.8595, 29149.96
178.3417, 29103.62
178.8238, 29048.24
179.3059, 28984.64
179.7880, 28938.01
180.2701, 28951.69
180.7522, 29050.35
181.2344, 29104.59
181.7165, 29067.01
182.1986, 28998.33
182.6807, 28926.75
183.1628, 28861.28
183.6449, 28804.26
184.1271, 28760.85
184.6092, 28737.95
185.0913, 28716.14
185.5734, 28687.82
186.0555, 28662.11
186.5376, 28651.67
187.0198, 28661.41
187.5019, 28678.52
187.9840, 28668.65
188.4661, 28601.60
188.9482, 28543.59
189.4303, 28489.87
189.9125, 28450.50
190.3946, 28444.86
190.8767, 28484.80
191.3588, 28554.27
191.8409, 28577.50
192.3230, 28503.15
192.8052, 28439.54
193.2873, 28409.39
193.7694, 28402.64
194.2515, 28398.71
194.7336, 28384.00
195.2157, 28361.67
195.6979, 28365.30
196.1800, 28428.63
196.6621, 28477.33
197.1442, 28481.41
197.6263, 28447.39
198.1084, 28394.86
198.5906, 28329.54
199.0727, 28256.33
199.5548, 28219.84
200.0369, 28269.14
200.5190, 28310.32
201.0011, 28274.59
201.4833, 28167.76
201.9654, 28062.09
202.4475, 28011.88
202.9296, 28014.60
203.4117, 28010.88
203.8938, 27993.44
204.3760, 27972.64
204.8581, 27954.62
205.3402, 27939.39
205.8223, 27934.53
206.3044, 27961.16
206.7865, 28006.19
207.2687, 28020.13
207.7508, 27963.91
208.2329, 27882.81
208.7150, 27843.90
209.1971, 27861.17
209.6792, 27880.30
210.1614, 27843.86
210.6435, 27774.05
211.1256, 27723.02
211.6077, 27726.22
212.0898, 27759.15
212.5719, 27766.65
213.0541, 27737.25
213.5362, 27699.93
214.0183, 27676.27
214.5004, 27661.23
214.9825, 27642.08
215.4646, 27610.91
215.9468, 27569.90
216.4289, 27526.64
216.9110, 27471.83
217.3931, 27429.72
217.8752, 27423.70
218.3573, 27441.74
218.8395, 27449.32
219.3216, 27409.22
219.8037, 27327.53
220.2858, 27280.25
220.7679, 27284.16
221.2500, 27309.89
221.7322, 27360.20
222.2143, 27423.53
222.6964, 27469.49
223.1785, 27472.82
223.6606, 27432.46
224.1427, 27372.87
224.6249, 27249.81
225.1070, 27146.77
225.5891, 27103.03
226.0712, 27111.33
226.5533, 27138.04
227.0354, 27155.74
227.5176, 27164.19
227.9997, 27163.31
228.4818, 27139.41
228.9639, 27116.95
229.4460, 27107.01
229.9281, 27108.55
230.4103, 27113.30
230.8924, 27114.46
231.3745, 27113.55
231.8566, 27101.02
232.3387, 27045.22
232.8208, 27004.81
233.3030, 27028.25
233.7851, 27104.28
234.2672, 27172.54
234.7493, 27158.88
235.2314, 27025.76
235.7135, 26948.33
236.1957, 26959.35
236.6778, 26989.01
237.1599, 27006.24
237.6420, 27005.93
238.1241, 26996.50
238.6062, 26987.37
239.0884, 26979.65
239.5705, 26968.39
240.0526, 26953.48
240.5347, 26935.93
241.0168, 26915.00
241.4989, 26891.24
241.9811, 26867.21
242.4632, 26845.18
242.9453, 26823.53
243.4274, 26810.10
243.9095, 26806.69
244.3916, 26808.61
244.8738, 26817.41
245.3559, 26831.10
245.8380, 26840.01
246.3201, 26831.20
246.8022, 26794.27
247.2843, 26773.80
247.7665, 26789.09
248.2486, 26805.68
248.7307, 26796.91
249.2128, 26760.50
249.6949, 26713.67
250.1770, 26673.74
250.6592, 26638.92
251.1413, 26624.03
251.6234, 26661.35
252.1055, 26695.77
252.5876, 26671.91
253.0697, 26588.06
253.5519, 26502.64
254.0340, 26485.61
254.5161, 26564.55
254.9982, 26601.93
255.4803, 26573.63
255.9624, 26520.79
256.4445, 26468.36
256.9267, 26421.51
257.4088, 26383.76
257.8909, 26362.07
258.3730, 26362.53
258.8551, 26344.42
259.3372, 26288.88
259.8194, 26227.02
260.3015, 26185.90
260.7836, 26168.03
261.2657, 26155.25
261.7478, 26129.28
262.2299, 26087.33
262.7121, 26053.31
263.1942, 26032.17
263.6763, 26016.22
264.1584, 25997.79
264.6405, 25976.52
265.1227, 25960.35
265.6048, 25958.43
266.0869, 25972.15
266.5690, 25980.47
267.0511, 25990.78
267.5332, 25990.49
268.0154, 25963.84
268.4975, 25910.96
268.9796, 25853.35
269.4617, 25807.70
269.9438, 25774.25
270.4259, 25742.79
270.9081, 25710.19
271.3902, 25681.37
271.8723, 25668.12
272.3544, 25669.03
272.8365, 25656.46
273.3186, 25602.53
273.8008, 25511.44
274.2829, 25443.19
274.7650, 25407.55
275.2471, 25388.46
275.7292, 25375.96
276.2113, 25369.69
276.6935, 25373.77
277.1756, 25405.77
277.6577, 25450.80
278.1398, 25434.30
278.6219, 25292.85
279.1040, 25140.81
279.5862, 25058.53
280.0683, 25040.71
280.5504, 25038.22
281.0325, 25023.38
281.5146, 25000.63
281.9967, 24988.51
282.4789, 25006.23
282.9610, 25016.71
283.4431, 24992.57
283.9252, 24938.21
284.4073, 24877.40
284.8894, 24815.64
285.3716, 24760.34
285.8537, 24728.61
286.3358, 24726.66
286.8179, 24738.95
287.3000, 24772.90
287.7821, 24819.18
288.2643, 24837.20
288.7464, 24801.62
289.2285, 24730.83
289.7106, 24674.72
290.1927, 24643.45
290.6748, 24607.81
291.1570, 24540.68
291.6391, 24455.88
292.1212, 24401.21
292.6033, 24405.92
293.0854, 24436.42
293.5675, 24421.79
294.0497, 24348.62
294.5318, 24275.79
295.0139, 24223.08
295.4960, 24187.96
295.9781, 24165.45
296.4602, 24154.83
296.9424, 24154.56
297.4245, 24166.67
297.9066, 24195.72
298.3887, 24214.34
298.8708, 24218.64
299.3529, 24206.00
299.8351, 24163.45
300.3172, 24080.38
300.7993, 23991.98
301.2814, 23953.31
301.7635, 23967.03
302.2456, 23979.03
302.7278, 23969.26
303.2099, 23953.64
303.6920, 23957.24
304.1741, 23986.46
304.6562, 24020.68
305.1383, 24040.60
305.6205, 24046.73
306.1026, 24031.18
306.5847, 23969.42
307.0668, 23898.05
307.5489, 23863.05
308.0310, 23869.89
308.5132, 23873.24
308.9953, 23823.76
309.4774, 23719.26
309.9595, 23646.87
310.4416, 23630.20
310.9237, 23632.54
311.4059, 23626.51
311.8880, 23610.97
312.3701, 23598.34
312.8522, 23601.80
313.3343, 23618.68
313.8164, 23613.21
314.2986, 23561.38
314.7807, 23509.47
315.2628, 23486.80
315.7449, 23488.82
316.2270, 23494.44
316.7091, 23494.39
317.1913, 23485.86
317.6734, 23455.20
318.1555, 23364.52
318.6376, 23295.10
319.1197, 23289.45
319.6018, 23328.53
320.0840, 23369.67
320.5661, 23393.62
321.0482, 23402.78
321.5303, 23403.05
322.0124, 23391.80
322.4945, 23377.22
322.9767, 23357.41
323.4588, 23336.23
323.9409, 23322.42
324.4230, 23320.22
324.9051, 23319.18
325.3872, 23296.98
325.8694, 23236.58
326.3515, 23185.26
326.8336, 23146.24
327.3157, 23118.21
327.7978, 23101.76
328.2799, 23096.70
328.7621, 23098.22
329.2442, 23100.44
329.7263, 23106.01
330.2084, 23104.49
330.6905, 23100.02
331.1726, 23086.08
331.6548, 23047.09
332.1369, 22987.08
332.6190, 22935.99
333.1011, 22927.30
333.5832, 22971.87
334.0653, 22998.20
334.5475, 23006.75
335.0296, 23000.73
335.5117, 22972.07
335.9938, 22928.50
336.4759, 22890.30
336.9580, 22874.51
337.4402, 22880.63
337.9223, 22875.31
338.4044, 22839.34
338.8865, 22813.10
339.3686, 22816.16
339.8507, 22835.04
340.3329, 22843.87
340.8150, 22826.60
341.2971, 22792.51
341.7792, 22782.29
342.2613, 22834.92
342.7434, 22862.47
343.2256, 22838.05
343.7077, 22791.71
344.1898, 22751.93
344.6719, 22730.21
345.1540, 22726.45
345.6361, 22743.82
346.1183, 22801.74
346.6004, 22842.89
347.0825, 22877.54
347.5646, 22888.09
348.0467, 22849.22
348.5288, 22761.52
349.0110, 22662.54
349.4931, 22596.97
349.9752, 22566.64
350.4573, 22562.02
350.9394, 22610.34
351.4215, 22661.78
351.9037, 22697.93
352.3858, 22716.85
352.8679, 22721.68
353.3500, 22706.50
353.8321, 22672.64
354.3142, 22669.61
354.7964, 22737.83
355.2785, 22787.57
355.7606, 22770.50
356.2427, 22711.14
356.7248, 22658.83
357.2069, 22643.29
357.6891, 22652.80
358.1712, 22653.35
358.6533, 22638.66
359.1354, 22629.23
359.6175, 22641.11
360.0996, 22659.49
360.5818, 22669.25
361.0639, 22667.60
361.5460, 22650.71
362.0281, 22603.04
362.5102, 22518.60
362.9923, 22456.16
363.4745, 22450.22
363.9566, 22465.57
364.4387, 22467.63
364.9208, 22451.47
365.4029, 22434.62
365.8850, 22429.68
366.3672, 22435.36
366.8493, 22446.76
367.3314, 22470.04
367.8135, 22487.80
368.2956, 22483.03
368.7777, 22457.35
369.2599, 22420.10
369.7420, 22357.44
370.2241, 22290.70
370.7062, 22264.22
371.1883, 22289.24
371.6704, 22316.89
372.1526, 22296.76
372.6347, 22239.61
373.1168, 22208.49
373.5989, 22230.01
374.0810, 22266.26
374.5631, 22295.61
375.0453, 22315.21
375.5274, 22307.55
376.0095, 22247.61
376.4916, 22157.58
376.9737, 22130.85
377.4558, 22224.84
377.9380, 22308.30
378.4201, 22331.71
378.9022, 22311.70
379.3843, 22274.45
379.8664, 22228.06
380.3485, 22181.15
380.8307, 22153.53
381.3128, 22160.90
381.7949, 22158.30
382.2770, 22126.56
382.7591, 22092.62
383.2412, 22088.88
383.7234, 22118.65
384.2055, 22152.32
384.6876, 22152.79
385.1697, 22106.44
385.6518, 22086.05
386.1339, 22124.20
386.6161, 22153.70
387.0982, 22127.14
387.5803, 22061.12
388.0624, 22010.38
388.5445, 22019.13
389.0266, 22078.64
389.5088, 22093.47
389.9909, 22006.18
390.4730, 21937.92
390.9551, 21918.68
391.4372, 21926.78
391.9193, 21935.91
392.4015, 21934.85
392.8836, 21926.27
393.3657, 21914.36
393.8478, 21896.11
394.3299, 21882.00
394.8120, 21872.29
395.2942, 21867.46
395.7763, 21877.41
396.2584, 21899.94
396.7405, 21907.54
397.2226, 21859.83
397.7047, 21756.43
398.1869, 21683.28
398.6690, 21661.94
399.1511, 21654.21
399.6332, 21636.58
400.1153, 21613.55
400.5974, 21599.21
401.0796, 21607.10
401.5617, 21627.09
402.0438, 21639.84
402.5259, 21647.91
403.0080, 21638.70
403.4901, 21584.12
403.9723, 21513.60
404.4544, 21475.52
404.9365, 21496.12
405.4186, 21520.61
405.9007, 21494.78
406.3828, 21428.73
406.8650, 21378.60
407.3471, 21367.52
407.8292, 21377.32
408.3113, 21378.23
408.7934, 21368.39
409.2755, 21360.19
409.7577, 21366.42
410.2398, 21372.82
410.7219, 21355.22
411.2040, 21309.31
411.6861, 21259.17
412.1682, 21229.96
412.6504, 21225.42
413.1325, 21210.71
413.6146, 21174.94
414.0967, 21139.39
414.5788, 21116.35
415.0609, 21103.86
415.5431, 21095.45
416.0252, 21088.61
416.5073, 21080.56
416.9894, 21057.27
417.4715, 20990.98
417.9536, 20943.20
418.4358, 20936.47
418.9179, 20943.72
419.4000, 20934.96
419.8821, 20901.48
420.3642, 20857.42
420.8463, 20824.72
421.3285, 20809.82
421.8106, 20789.04
422.2927, 20760.37
422.7748, 20727.99
423.2569, 20688.98
423.7390, 20646.93
424.2212, 20611.96
424.7033, 20594.79
425.1854, 20591.53
425.6675, 20578.01
426.1496, 20552.07
426.6317, 20518.48
427.1139, 20463.47
427.5960, 20407.84
428.0781, 20383.69
428.5602, 20411.22
429.0423, 20448.12
429.5244, 20437.99
430.0066, 20379.84
430.4887, 20320.63
430.9708, 20268.15
431.4529, 20225.59
431.9350, 20193.57
432.4171, 20171.93
432.8993, 20162.76
433.3814, 20186.37
433.8635, 20218.45
434.3456, 20210.45
434.8277, 20153.18
435.3098, 20079.22
435.7920, 20007.92
436.2741, 19941.41
436.7562, 19895.03
437.2383, 19874.80
437.7204, 19869.75
438.2025, 19891.80
438.6847, 19925.81
439.1668, 19924.13
439.6489, 19857.96
440.1310, 19756.75
440.6131, 19701.11
441.0952, 19750.74
441.5774, 19761.58
442.0595, 19687.27
442.5416, 19594.63
443.0237, 19549.11
443.5058, 19559.11
443.9879, 19583.49
444.4701, 19571.58
444.9522, 19511.41
445.4343, 19500.71
445.9164, 19633.84
446.3985, 19721.06
446.8806, 19668.39
447.3628, 19529.22
447.8449, 19405.76
448.3270, 19354.42
448.8091, 19348.48
449.2912, 19320.57
449.7733, 19261.81
450.2555, 19205.87
450.7376, 19159.56
451.2197, 19120.68
451.7018, 19090.13
452.1839, 19068.16
452.6660, 19046.61
453.1482, 19012.29
453.6303, 18971.00
454.1124, 18956.59
454.5945, 18988.58
455.0766, 19013.11
455.5587, 18967.71
456.0409, 18875.54
456.5230, 18804.48
457.0051, 18773.81
457.4872, 18766.60
457.9693, 18782.34
458.4514, 18814.10
458.9336, 18821.76
459.4156, 18780.41
459.8978, 18710.23
460.3799, 18666.93
460.8620, 18669.31
461.3441, 18658.18
461.8262, 18607.76
462.3083, 18546.91
462.7905, 18505.52
463.2726, 18489.01
463.7547, 18486.84
464.2368, 18490.20
464.7189, 18501.25
465.2010, 18497.84
465.6832, 18480.86
466.1653, 18449.48
466.6474, 18377.31
467.1295, 18295.77
467.6116, 18260.52
468.0938, 18303.39
468.5759, 18384.41
469.0580, 18412.10
469.5401, 18368.71
470.0222, 18322.46
470.5043, 18289.44
470.9865, 18254.06
471.4686, 18197.61
471.9507, 18122.72
472.4328, 18060.88
472.9149, 18051.31
473.3970, 18075.69
473.8792, 18059.38
474.3613, 17982.30
474.8434, 17915.56
475.3255, 17927.59
475.8076, 17980.56
476.2897, 17994.56
476.7719, 17934.70
477.2540, 17862.87
477.7361, 17821.02
478.2182, 17801.64
478.7003, 17780.58
479.1824, 17748.30
479.6646, 17716.54
480.1467, 17705.30
480.6288, 17722.79
481.1109, 17735.37
481.5930, 17761.48
482.0751, 17766.61
482.5573, 17707.65
483.0394, 17598.78
483.5215, 17499.73
484.0036, 17454.50
484.4857, 17455.01
484.9678, 17448.29
485.4500, 17431.62
485.9321, 17410.34
486.4142, 17376.70
486.8963, 17343.47
487.3784, 17325.34
487.8605, 17325.14
488.3427, 17329.41
488.8248, 17325.22
489.3069, 17312.63
489.7890, 17286.83
490.2711, 17233.55
490.7532, 17186.09
491.2354, 17170.77
491.7175, 17174.33
492.1996, 17164.91
492.6817, 17125.54
493.1638, 17073.12
493.6459, 17018.25
494.1281, 16962.67
494.6102, 16934.22
495.0923, 16951.99
495.5744, 16992.07
496.0565, 17017.33
496.5386, 17032.89
497.0208, 17020.59
497.5029, 16948.20
497.9850, 16862.75
498.4671, 16811.32
498.9492, 16797.20
499.4313, 16799.45
499.9135, 16803.67
500.3956, 16809.24
500.8777, 16808.60
501.3598, 16806.39
501.8419, 16792.29
502.3240, 16760.47
502.8062, 16717.86
503.2883, 16666.48
503.7704, 16608.82
504.2525, 16558.08
504.7346, 16532.00
505.2167, 16533.21
505.6989, 16542.44
506.1810, 16562.79
506.6631, 16587.73
507.1452, 16634.45
507.6273, 16682.37
508.1094, 16683.30
508.5916, 16594.47
509.0737, 16476.97
509.5558, 16422.14
510.0379, 16427.52
510.5200, 16412.04
511.0021, 16332.99
511.4843, 16237.73
511.9664, 16204.62
512.4485, 16241.08
512.9306, 16267.98
513.4127, 16258.26
513.8948, 16234.26
514.3770, 16221.34
514.8591, 16218.44
515.3412, 16202.44
515.8233, 16154.25
516.3054, 16080.90
516.7875, 16028.79
517.2697, 16008.43
517.7518, 15997.21
518.2339, 16004.98
518.7160, 16014.13
519.1981, 16006.19
519.6802, 15978.33
520.1624, 15943.39
520.6445, 15910.84
521.1266, 15880.24
521.6087, 15873.18
522.0908, 15916.05
522.5729, 15942.89
523.0551, 15907.56
523.5372, 15843.75
524.0193, 15806.04
524.5014, 15817.03
524.9835, 15843.62
525.4656, 15858.94
525.9478, 15862.90
526.4299, 15854.05
526.9120, 15830.11
527.3941, 15798.10
527.8762, 15765.19
528.3583, 15731.50
528.8405, 15695.70
529.3226, 15642.21
529.8047, 15600.05
530.2868, 15597.68
530.7689, 15622.89
531.2510, 15641.97
531.7332, 15637.86
532.2153, 15617.05
532.6974, 15593.54
533.1795, 15553.43
533.6616, 15537.30
534.1437, 15565.50
534.6259, 15598.17
535.1080, 15617.13
535.5901, 15618.63
536.0722, 15599.05
536.5543, 15543.86
537.0364, 15472.64
537.5186, 15456.28
538.0007, 15513.21
538.4828, 15554.25
538.9649, 15525.73
539.4470, 15476.62
539.9291, 15467.72
540.4113, 15509.10
540.8934, 15545.45
541.3755, 15545.64
541.8576, 15525.07
542.3397, 15508.94
542.8218, 15499.77
543.3040, 15480.66
543.7861, 15433.57
544.2682, 15364.78
544.7503, 15329.44
545.2324, 15348.29
545.7145, 15369.74
546.1967, 15388.34
546.6788, 15402.38
547.1609, 15409.72
547.6430, 15410.26
548.1251, 15406.77
548.6072, 15403.27
549.0894, 15400.16
549.5715, 15386.21
550.0536, 15349.33
550.5357, 15319.31
551.0178, 15304.26
551.4999, 15302.62
551.9821, 15315.32
552.4642, 15346.34
552.9463, 15376.55
553.4284, 15388.87
553.9105, 15385.55
554.3926, 15371.13
554.8748, 15341.81
555.3569, 15319.56
555.8390, 15332.08
556.3211, 15378.13
556.8032, 15398.04
557.2853, 15369.73
557.7675, 15336.97
558.2496, 15316.38
558.7317, 15306.10
559.2138, 15301.51
559.6959, 15301.04
560.1780, 15307.74
560.6602, 15329.60
561.1423, 15375.45
561.6244, 15401.30
562.1065, 15393.94
562.5886, 15378.55
563.0707, 15356.47
563.5529, 15333.75
564.0350, 15320.00
564.5171, 15320.53
564.9992, 15328.47
565.4813, 15337.65
565.9634, 15347.63
566.4456, 15349.42
566.9277, 15336.44
567.4098, 15322.68
567.8919, 15329.07
568.3740, 15352.61
568.8561, 15360.41
569.3383, 15329.63
569.8204, 15298.16
570.3025, 15290.47
570.7846, 15301.61
571.2667, 15321.00
571.7488, 15344.58
572.2310, 15365.15
572.7131, 15367.62
573.1952, 15340.03
573.6773, 15326.71
574.1594, 15341.13
574.6415, 15355.68
575.1237, 15354.64
575.6058, 15344.99
576.0879, 15343.04
576.5700, 15357.56
577.0521, 15381.00
577.5342, 15407.05
578.0164, 15435.77
578.4985, 15446.32
578.9806, 15427.95
579.4627, 15398.81
579.9448, 15376.98
580.4269, 15361.55
580.9091, 15344.71
581.3912, 15311.88
581.8733, 15288.97
582.3554, 15301.92
582.8375, 15338.98
583.3196, 15368.72
583.8018, 15377.69
584.2839, 15379.08
584.7660, 15398.64
585.2481, 15453.38
585.7302, 15476.92
586.2123, 15434.67
586.6945, 15397.77
587.1766, 15404.12
587.6587, 15436.79
588.1408, 15457.27
588.6229, 15444.80
589.1050, 15423.04
589.5872, 15433.64
590.0693, 15474.64
590.5514, 15486.97
591.0335, 15444.53
591.5156, 15395.85
591.9977, 15398.23
592.4799, 15443.40
592.9620, 15468.92
593.4441, 15454.41
593.9262, 15429.93
594.4083, 15404.89
594.8904, 15383.90
595.3726, 15376.28
595.8547, 15385.13
596.3368, 15404.07
596.8189, 15425.96
597.3010, 15454.03
597.7831, 15469.14
598.2653, 15462.79
598.7474, 15451.43
599.2295, 15438.36
599.7116, 15424.06
600.1937, 15405.70
600.6758, 15379.99
601.1580, 15363.00
601.6401, 15385.70
602.1222, 15436.14
602.6043, 15447.63
603.0864, 15399.35
603.5685, 15351.21
604.0507, 15355.85
604.5328, 15409.03
605.0149, 15451.67
605.4970, 15490.07
605.9791, 15510.90
606.4612, 15501.75
606.9434, 15475.83
607.4255, 15445.98
607.9076, 15416.94
608.3897, 15392.46
608.8718, 15375.95
609.3539, 15367.43
609.8361, 15371.54
610.3182, 15399.17
610.8003, 15421.21
611.2824, 15428.07
611.7645, 15425.03
612.2466, 15414.74
612.7288, 15396.93
613.2109, 15383.07
613.6930, 15377.93
614.1751, 15382.80
614.6572, 15409.13
615.1393, 15456.68
615.6215, 15486.66
616.1036, 15470.85
616.5857, 15422.72
617.0678, 15390.83
617.5499, 15383.12
618.0320, 15380.96
618.5142, 15392.36
618.9963, 15402.38
619.4784, 15393.37
619.9605, 15370.82
620.4426, 15359.58
620.9247, 15382.26
621.4069, 15420.10
621.8890, 15416.32
622.3711, 15360.96
622.8532, 15323.97
623.3353, 15337.15
623.8174, 15361.65
624.2996, 15352.75
624.7817, 15313.19
625.2638, 15286.30
625.7459, 15289.82
626.2280, 15304.86
626.7101, 15325.75
627.1923, 15346.03
627.6744, 15348.02
628.1565, 15324.44
628.6386, 15291.72
629.1207, 15278.35
629.6028, 15293.62
630.0850, 15290.66
630.5671, 15231.31
