##NAMES=Pyrope
##RRUFFID=R040159
##IDEAL CHEMISTRY=Mg_3_Al_2_(SiO_4_)_3_
##LOCALITY=Meronitz, Bohemia
##OWNER=RRUFF
##SOURCE=University of Arizona Mineral Museum
##DESCRIPTION=Deep red crystal fragments
##STATUS=The identification of this mineral has been confirmed by X-ray diffraction and chemical analysis
##URL=rruff.info/R040159
##MEASURED CHEMISTRY=(Mg_2.17_Fe^2+^_0.47_Ca_0.34_Mn_0.02_)_Σ=3_(Al_1.86_Cr_0.11_Ti_0.03_)_Σ=2_((Si_0.99_Al_0.01_)_Σ=1_O_4_)_3_; trace amounts of Rb?
125.8406, 388.7388
126.3227, 423.3136
126.8048, 457.3982
127.2869, 492.5071
127.7690, 529.0913
128.2512, 567.3766
128.7333, 607.2442
129.2154, 653.0703
129.6975, 694.7512
130.1796, 734.1841
130.6617, 767.7978
131.1439, 791.2862
131.6260, 802.3517
132.1081, 800.8175
132.5902, 785.0160
133.0723, 737.8547
133.5544, 693.0729
134.0366, 655.8879
134.5187, 625.6654
135.0008, 600.0515
135.4829, 577.5696
135.9650, 558.2778
136.4471, 544.4900
136.9293, 536.3527
137.4114, 532.8920
137.8935, 533.9504
138.3756, 539.5032
138.8577, 549.7183
139.3398, 564.9142
139.8220, 585.1874
140.3041, 608.1918
140.7862, 634.8151
141.2683, 662.5977
141.7504, 690.6744
142.2325, 718.8902
142.7147, 746.5035
143.1968, 772.0661
143.6789, 795.6861
144.1610, 828.7693
144.6431, 884.7436
145.1252, 937.6771
145.6074, 972.0424
146.0895, 988.4436
146.5716, 996.8994
147.0537, 1003.795
147.5358, 1009.158
148.0179, 1016.067
148.5001, 1028.094
148.9822, 1039.031
149.4643, 1043.414
149.9464, 1041.233
150.4285, 1038.114
150.9106, 1039.532
151.3928, 1044.605
151.8749, 1044.590
152.3570, 1033.633
152.8391, 1020.623
153.3212, 1014.464
153.8033, 1015.971
154.2855, 1018.324
154.7676, 1016.292
155.2497, 1010.535
155.7318, 1003.988
156.2139, 993.7910
156.6960, 984.6395
157.1782, 982.9908
157.6603, 989.9642
158.1424, 998.8352
158.6245, 1004.403
159.1066, 1007.881
159.5887, 1012.148
160.0709, 1018.258
160.5530, 1025.423
161.0351, 1032.731
161.5172, 1040.320
161.9993, 1047.322
162.4814, 1054.857
162.9636, 1061.398
163.4457, 1063.302
163.9278, 1053.628
164.4099, 1040.074
164.8920, 1037.811
165.3741, 1050.096
165.8563, 1064.655
166.3384, 1073.627
166.8205, 1079.570
167.3026, 1086.862
167.7847, 1099.217
168.2668, 1113.457
168.7490, 1121.559
169.2311, 1120.067
169.7132, 1120.420
170.1953, 1132.499
170.6774, 1149.764
171.1595, 1161.710
171.6417, 1161.875
172.1238, 1154.338
172.6059, 1149.076
173.0880, 1146.614
173.5701, 1145.545
174.0522, 1143.182
174.5344, 1141.908
175.0165, 1145.779
175.4986, 1158.287
175.9807, 1176.281
176.4628, 1191.812
176.9449, 1205.964
177.4271, 1215.086
177.9092, 1214.484
178.3913, 1209.614
178.8734, 1207.677
179.3555, 1212.101
179.8376, 1221.808
180.3197, 1234.496
180.8019, 1253.851
181.2840, 1269.403
181.7661, 1276.255
182.2482, 1278.615
182.7303, 1281.484
183.2124, 1287.281
183.6946, 1295.142
184.1767, 1302.809
184.6588, 1310.796
185.1409, 1317.469
185.6230, 1319.750
186.1051, 1321.570
186.5873, 1328.456
187.0694, 1343.850
187.5515, 1363.276
188.0336, 1374.359
188.5157, 1370.301
188.9978, 1369.332
189.4800, 1376.159
189.9621, 1387.180
190.4442, 1399.297
190.9263, 1411.236
191.4084, 1422.567
191.8905, 1432.403
192.3727, 1441.526
192.8548, 1447.414
193.3369, 1446.238
193.8190, 1443.811
194.3011, 1446.189
194.7832, 1455.828
195.2654, 1469.571
195.7475, 1480.501
196.2296, 1486.973
196.7117, 1493.742
197.1938, 1501.991
197.6759, 1510.478
198.1581, 1518.038
198.6402, 1524.310
199.1223, 1529.829
199.6044, 1535.871
200.0865, 1544.084
200.5686, 1549.286
201.0508, 1548.716
201.5329, 1546.988
202.0150, 1547.911
202.4971, 1552.445
202.9792, 1558.374
203.4613, 1561.851
203.9435, 1560.786
204.4256, 1562.024
204.9077, 1567.217
205.3898, 1573.501
205.8719, 1580.482
206.3540, 1587.411
206.8362, 1591.623
207.3183, 1588.021
207.8004, 1570.847
208.2825, 1560.807
208.7646, 1563.960
209.2467, 1568.747
209.7289, 1568.295
210.2110, 1562.012
210.6931, 1553.972
211.1752, 1548.916
211.6573, 1547.762
212.1395, 1546.388
212.6216, 1546.752
213.1037, 1545.308
213.5858, 1539.334
214.0679, 1529.464
214.5500, 1518.683
215.0322, 1509.748
215.5143, 1502.775
215.9964, 1497.133
216.4785, 1494.832
216.9606, 1491.957
217.4427, 1486.118
217.9249, 1478.213
218.4070, 1470.929
218.8891, 1466.527
219.3712, 1465.070
219.8533, 1464.282
220.3354, 1466.622
220.8176, 1467.207
221.2997, 1465.605
221.7818, 1461.175
222.2639, 1451.973
222.7460, 1435.327
223.2281, 1412.672
223.7103, 1401.094
224.1924, 1416.227
224.6745, 1425.812
225.1566, 1418.768
225.6387, 1402.846
226.1208, 1389.890
226.6030, 1386.886
227.0851, 1391.652
227.5672, 1395.098
228.0493, 1396.301
228.5314, 1397.324
229.0135, 1399.523
229.4957, 1401.389
229.9778, 1400.152
230.4599, 1394.372
230.9420, 1387.338
231.4241, 1388.391
231.9062, 1407.774
232.3884, 1417.140
232.8705, 1405.576
233.3526, 1388.010
233.8347, 1377.459
234.3168, 1378.203
234.7989, 1384.993
235.2811, 1388.621
235.7632, 1386.545
236.2453, 1387.465
236.7274, 1395.851
237.2095, 1404.528
237.6916, 1407.690
238.1738, 1404.700
238.6559, 1400.541
239.1380, 1402.274
239.6201, 1412.558
240.1022, 1418.831
240.5843, 1416.186
241.0665, 1413.105
241.5486, 1414.006
242.0307, 1418.747
242.5128, 1424.126
242.9949, 1427.182
243.4770, 1427.766
243.9592, 1427.785
244.4413, 1425.843
244.9234, 1424.686
245.4055, 1426.163
245.8876, 1429.376
246.3697, 1432.098
246.8519, 1433.283
247.3340, 1432.731
247.8161, 1428.017
248.2982, 1412.863
248.7803, 1402.140
249.2624, 1401.756
249.7446, 1408.562
250.2267, 1418.267
250.7088, 1430.354
251.1909, 1441.966
251.6730, 1443.098
252.1551, 1425.723
252.6373, 1414.361
253.1194, 1422.657
253.6015, 1437.966
254.0836, 1446.535
254.5657, 1442.865
255.0478, 1432.835
255.5300, 1425.232
256.0121, 1420.420
256.4942, 1416.773
256.9763, 1413.716
257.4584, 1411.773
257.9406, 1412.778
258.4227, 1417.294
258.9048, 1420.051
259.3869, 1411.704
259.8690, 1391.323
260.3511, 1382.167
260.8333, 1398.357
261.3154, 1418.857
261.7975, 1428.342
262.2796, 1426.609
262.7617, 1422.709
263.2438, 1422.368
263.7260, 1425.191
264.2081, 1429.263
264.6902, 1435.880
265.1723, 1441.351
265.6544, 1442.793
266.1365, 1441.005
266.6187, 1438.444
267.1008, 1435.663
267.5829, 1433.000
268.0650, 1431.124
268.5471, 1430.033
269.0292, 1429.788
269.5114, 1432.671
269.9935, 1436.275
270.4756, 1435.823
270.9577, 1426.190
271.4398, 1415.186
271.9219, 1412.654
272.4041, 1418.846
272.8862, 1425.044
273.3683, 1427.827
273.8504, 1427.302
274.3325, 1423.702
274.8146, 1414.372
275.2968, 1406.799
275.7789, 1406.985
276.2610, 1413.446
276.7431, 1420.816
277.2252, 1428.761
277.7073, 1434.557
278.1895, 1431.538
278.6716, 1416.659
279.1537, 1408.335
279.6358, 1421.366
280.1179, 1443.459
280.6000, 1452.147
281.0822, 1441.465
281.5643, 1423.499
282.0464, 1410.129
282.5285, 1401.107
283.0106, 1400.731
283.4927, 1417.960
283.9749, 1438.729
284.4570, 1450.205
284.9391, 1451.569
285.4212, 1449.664
285.9033, 1450.002
286.3854, 1452.407
286.8676, 1451.324
287.3497, 1440.533
287.8318, 1432.571
288.3139, 1437.871
288.7960, 1451.390
289.2781, 1458.254
289.7603, 1448.995
290.2424, 1428.913
290.7245, 1420.677
291.2066, 1435.968
291.6887, 1447.780
292.1708, 1451.453
292.6530, 1449.695
293.1351, 1444.639
293.6172, 1437.167
294.0993, 1429.625
294.5814, 1426.053
295.0635, 1426.578
295.5457, 1431.647
296.0278, 1448.802
296.5099, 1464.730
296.9920, 1466.219
297.4741, 1454.237
297.9562, 1443.225
298.4384, 1450.057
298.9205, 1479.465
299.4026, 1493.513
299.8847, 1477.961
300.3668, 1461.780
300.8489, 1452.229
301.3311, 1449.879
301.8131, 1454.608
302.2953, 1467.578
302.7774, 1486.210
303.2595, 1497.153
303.7416, 1496.564
304.2237, 1493.254
304.7058, 1482.708
305.1880, 1473.407
305.6701, 1477.365
306.1522, 1499.509
306.6343, 1526.455
307.1164, 1533.679
307.5985, 1513.958
308.0807, 1501.372
308.5628, 1508.739
309.0449, 1520.443
309.5270, 1527.591
310.0091, 1529.406
310.4912, 1530.603
310.9734, 1534.379
311.4555, 1540.776
311.9376, 1551.198
312.4197, 1570.295
312.9018, 1586.625
313.3839, 1591.926
313.8661, 1589.213
314.3482, 1586.087
314.8303, 1584.940
315.3124, 1585.918
315.7945, 1590.696
316.2766, 1600.347
316.7588, 1607.351
317.2409, 1604.996
317.7230, 1598.190
318.2051, 1595.143
318.6872, 1597.945
319.1693, 1602.645
319.6515, 1607.531
320.1336, 1612.189
320.6157, 1614.729
321.0978, 1614.228
321.5799, 1611.725
322.0620, 1607.480
322.5442, 1600.265
323.0263, 1598.014
323.5084, 1608.233
323.9905, 1622.431
324.4726, 1628.145
324.9547, 1623.352
325.4369, 1617.485
325.9190, 1619.412
326.4011, 1630.051
326.8832, 1641.680
327.3653, 1655.458
327.8474, 1669.178
328.3296, 1683.472
328.8117, 1696.953
329.2938, 1705.362
329.7759, 1705.683
330.2580, 1700.028
330.7401, 1697.960
331.2223, 1696.075
331.7044, 1702.112
332.1865, 1724.088
332.6686, 1751.129
333.1507, 1770.492
333.6328, 1778.653
334.1150, 1783.240
334.5971, 1796.640
335.0792, 1825.185
335.5613, 1845.016
336.0434, 1844.151
336.5255, 1846.125
337.0077, 1868.060
337.4898, 1904.852
337.9719, 1937.098
338.4540, 1946.682
338.9361, 1937.446
339.4182, 1945.171
339.9004, 1983.491
340.3825, 2018.990
340.8646, 2040.253
341.3467, 2054.088
341.8288, 2067.781
342.3109, 2083.354
342.7931, 2103.355
343.2752, 2134.406
343.7573, 2178.904
344.2394, 2217.452
344.7215, 2239.854
345.2036, 2259.137
345.6858, 2286.396
346.1679, 2322.061
346.6500, 2357.996
347.1321, 2387.903
347.6142, 2414.150
348.0963, 2441.544
348.5785, 2468.160
349.0606, 2503.751
349.5427, 2563.895
350.0248, 2640.334
350.5069, 2708.365
350.9890, 2760.330
351.4712, 2805.295
351.9533, 2847.139
352.4354, 2887.364
352.9175, 2933.220
353.3996, 2987.836
353.8817, 3050.493
354.3639, 3121.077
354.8460, 3202.040
355.3281, 3283.090
355.8102, 3363.822
356.2923, 3442.505
356.7744, 3516.091
357.2566, 3584.269
357.7387, 3647.443
358.2208, 3705.870
358.7029, 3759.117
359.1850, 3810.126
359.6671, 3866.885
360.1493, 3913.886
360.6314, 3944.074
361.1135, 3959.049
361.5956, 3963.890
362.0777, 3961.871
362.5598, 3951.000
363.0420, 3923.738
363.5241, 3874.684
364.0062, 3816.270
364.4883, 3751.554
364.9704, 3678.565
365.4525, 3592.237
365.9347, 3493.154
366.4168, 3391.042
366.8989, 3295.528
367.3810, 3205.668
367.8631, 3126.796
368.3452, 3065.784
368.8274, 3008.030
369.3095, 2947.090
369.7916, 2883.120
370.2737, 2816.711
370.7558, 2744.250
371.2379, 2672.590
371.7201, 2616.305
372.2022, 2577.141
372.6843, 2537.346
373.1664, 2488.889
373.6485, 2436.125
374.1306, 2384.958
374.6128, 2334.638
375.0949, 2289.386
375.5770, 2253.241
376.0591, 2223.745
376.5412, 2197.005
377.0233, 2172.538
377.5055, 2148.581
377.9876, 2124.121
378.4697, 2099.260
378.9518, 2069.534
379.4339, 2029.451
379.9160, 1989.466
380.3982, 1955.053
380.8803, 1926.041
381.3624, 1901.794
381.8445, 1882.277
382.3266, 1866.113
382.8087, 1848.824
383.2909, 1832.003
383.7730, 1811.770
384.2551, 1784.642
384.7372, 1756.398
385.2193, 1731.318
385.7014, 1710.269
386.1836, 1691.793
386.6657, 1674.775
387.1478, 1659.400
387.6299, 1643.123
388.1120, 1624.578
388.5941, 1606.577
389.0763, 1587.833
389.5584, 1570.731
390.0405, 1560.353
390.5226, 1560.479
391.0047, 1563.047
391.4868, 1553.844
391.9690, 1531.502
392.4511, 1510.545
392.9332, 1493.236
393.4153, 1480.520
393.8974, 1474.005
394.3795, 1473.568
394.8617, 1473.708
395.3438, 1473.700
395.8259, 1471.898
396.3080, 1464.574
396.7901, 1451.169
397.2722, 1436.558
397.7544, 1423.501
398.2365, 1412.145
398.7186, 1402.240
399.2007, 1392.170
399.6828, 1385.374
400.1649, 1387.473
400.6471, 1392.753
401.1292, 1390.290
401.6113, 1376.416
402.0934, 1358.875
402.5755, 1349.066
403.0576, 1349.922
403.5398, 1350.139
404.0219, 1351.630
404.5040, 1350.835
404.9861, 1344.200
405.4682, 1333.686
405.9503, 1324.050
406.4325, 1318.262
406.9146, 1315.650
407.3967, 1314.096
407.8788, 1314.075
408.3609, 1314.161
408.8430, 1315.658
409.3252, 1316.123
409.8073, 1312.256
410.2894, 1303.989
410.7715, 1296.793
411.2536, 1297.386
411.7357, 1303.724
412.2179, 1304.784
412.7000, 1298.323
413.1821, 1290.268
413.6642, 1283.467
414.1463, 1278.067
414.6284, 1274.825
415.1106, 1273.324
415.5927, 1274.670
416.0748, 1283.115
416.5569, 1295.495
417.0390, 1301.735
417.5211, 1298.134
418.0033, 1287.905
418.4854, 1274.056
418.9675, 1252.729
419.4496, 1242.258
419.9317, 1255.659
420.4138, 1270.032
420.8960, 1266.486
421.3781, 1249.382
421.8602, 1236.763
422.3423, 1240.870
422.8244, 1257.167
423.3065, 1266.109
423.7887, 1264.913
424.2708, 1260.115
424.7529, 1249.424
425.2350, 1237.775
425.7171, 1228.070
426.1992, 1221.238
426.6814, 1218.353
427.1635, 1222.134
427.6456, 1231.890
428.1277, 1239.266
428.6098, 1244.815
429.0919, 1246.792
429.5741, 1239.601
430.0562, 1229.604
430.5383, 1227.634
431.0204, 1240.259
431.5025, 1252.658
431.9846, 1249.428
432.4668, 1235.233
432.9489, 1228.057
433.4310, 1234.125
433.9131, 1242.683
434.3952, 1239.965
434.8773, 1224.447
435.3595, 1213.869
435.8416, 1210.736
436.3237, 1211.405
436.8058, 1216.502
437.2879, 1223.583
437.7701, 1226.862
438.2522, 1223.168
438.7343, 1215.256
439.2164, 1209.900
439.6985, 1206.468
440.1806, 1207.103
440.6628, 1216.173
441.1449, 1225.223
441.6270, 1228.586
442.1091, 1226.614
442.5912, 1223.097
443.0733, 1220.484
443.5555, 1218.696
444.0376, 1217.063
444.5197, 1214.745
445.0018, 1214.973
445.4839, 1222.732
445.9660, 1231.741
446.4482, 1234.759
446.9303, 1230.013
447.4124, 1226.310
447.8945, 1230.496
448.3766, 1239.262
448.8587, 1246.611
449.3409, 1251.951
449.8230, 1253.121
450.3051, 1246.197
450.7872, 1232.757
451.2693, 1228.091
451.7514, 1241.092
452.2336, 1251.816
452.7157, 1251.686
453.1978, 1246.081
453.6799, 1242.661
454.1620, 1243.600
454.6441, 1245.721
455.1263, 1244.619
455.6084, 1239.271
456.0905, 1236.503
456.5726, 1238.308
457.0547, 1240.811
457.5368, 1242.059
458.0190, 1243.449
458.5011, 1248.121
458.9832, 1258.097
459.4653, 1268.422
459.9474, 1270.844
460.4295, 1265.206
460.9117, 1261.949
461.3938, 1264.088
461.8759, 1267.774
462.3580, 1269.577
462.8401, 1269.847
463.3222, 1270.392
463.8044, 1271.182
464.2865, 1272.865
464.7686, 1277.135
465.2507, 1283.078
465.7328, 1287.043
466.2149, 1287.311
466.6971, 1285.231
467.1792, 1283.291
467.6613, 1280.963
468.1434, 1280.031
468.6255, 1279.854
469.1076, 1281.577
469.5898, 1287.638
470.0719, 1296.354
470.5540, 1303.056
471.0361, 1304.563
471.5182, 1302.810
472.0003, 1303.486
472.4825, 1307.209
472.9646, 1311.682
473.4467, 1319.628
473.9288, 1325.780
474.4109, 1323.234
474.8930, 1313.355
475.3752, 1309.214
475.8573, 1323.373
476.3394, 1346.001
476.8215, 1361.045
477.3036, 1368.060
477.7857, 1370.302
478.2679, 1368.076
478.7500, 1363.149
479.2321, 1359.357
479.7142, 1355.508
480.1963, 1355.334
480.6784, 1361.774
481.1606, 1370.700
481.6427, 1378.174
482.1248, 1384.184
482.6069, 1391.433
483.0890, 1402.372
483.5711, 1415.850
484.0533, 1425.573
484.5354, 1429.316
485.0175, 1432.816
485.4996, 1438.612
485.9817, 1443.359
486.4638, 1444.326
486.9460, 1441.285
487.4281, 1435.861
487.9102, 1428.069
488.3923, 1418.925
488.8744, 1411.672
489.3565, 1406.587
489.8387, 1402.031
490.3208, 1397.538
490.8029, 1392.900
491.2850, 1387.918
491.7671, 1382.925
492.2492, 1376.654
492.7314, 1365.449
493.2135, 1354.602
493.6956, 1350.391
494.1777, 1353.183
494.6598, 1360.436
495.1419, 1371.632
495.6241, 1384.671
496.1062, 1385.589
496.5883, 1357.452
497.0704, 1341.075
497.5525, 1346.480
498.0346, 1360.415
498.5168, 1372.995
498.9989, 1382.594
499.4810, 1392.065
499.9631, 1403.933
500.4452, 1417.568
500.9273, 1430.621
501.4095, 1443.268
501.8916, 1454.473
502.3737, 1461.831
502.8558, 1468.749
503.3379, 1480.757
503.8200, 1499.114
504.3022, 1517.456
504.7843, 1530.747
505.2664, 1544.257
505.7485, 1568.351
506.2306, 1601.142
506.7127, 1624.773
507.1949, 1625.775
507.6770, 1610.510
508.1591, 1607.033
508.6412, 1629.320
509.1233, 1643.041
509.6054, 1644.141
510.0876, 1638.241
510.5697, 1627.689
511.0518, 1613.764
511.5339, 1598.700
512.0161, 1584.477
512.4982, 1570.062
512.9803, 1550.955
513.4624, 1525.798
513.9445, 1505.265
514.4266, 1496.073
514.9088, 1490.815
515.3909, 1478.864
515.8730, 1459.488
516.3551, 1442.862
516.8372, 1431.935
517.3193, 1425.133
517.8015, 1422.317
518.2836, 1422.516
518.7657, 1422.808
519.2478, 1421.764
519.7299, 1419.381
520.2120, 1415.487
520.6942, 1408.403
521.1763, 1403.013
521.6584, 1399.024
522.1405, 1396.771
522.6226, 1397.509
523.1047, 1400.125
523.5869, 1402.120
524.0690, 1402.307
524.5511, 1400.972
525.0332, 1397.755
525.5153, 1392.681
525.9974, 1389.014
526.4796, 1386.251
526.9617, 1387.237
527.4438, 1398.524
527.9259, 1418.510
528.4080, 1431.860
528.8901, 1431.450
529.3723, 1428.779
529.8544, 1431.092
530.3365, 1435.989
530.8186, 1438.045
531.3007, 1435.478
531.7828, 1431.393
532.2650, 1429.928
532.7471, 1431.273
533.2292, 1433.976
533.7113, 1435.738
534.1934, 1441.829
534.6755, 1458.200
535.1577, 1478.076
535.6398, 1491.714
536.1219, 1495.899
536.6040, 1498.303
537.0861, 1506.694
537.5682, 1519.060
538.0504, 1527.770
538.5325, 1531.146
539.0146, 1536.655
539.4967, 1549.954
539.9788, 1569.728
540.4609, 1588.860
540.9431, 1607.864
541.4252, 1625.857
541.9073, 1640.573
542.3894, 1655.522
542.8715, 1673.645
543.3536, 1695.532
543.8358, 1720.663
544.3179, 1748.597
544.8000, 1779.504
545.2821, 1815.215
545.7642, 1858.875
546.2463, 1898.499
546.7285, 1924.144
547.2106, 1949.686
547.6927, 1986.698
548.1748, 2034.780
548.6569, 2084.780
549.1390, 2132.749
549.6211, 2180.277
550.1032, 2229.521
550.5853, 2279.928
551.0674, 2326.160
551.5496, 2365.338
552.0317, 2405.947
552.5138, 2462.635
552.9959, 2541.477
553.4780, 2616.828
553.9601, 2686.773
554.4423, 2756.169
554.9244, 2829.391
555.4065, 2902.654
555.8886, 2970.586
556.3707, 3031.561
556.8528, 3085.300
557.3350, 3135.288
557.8171, 3179.663
558.2992, 3202.919
558.7813, 3202.715
559.2634, 3184.075
559.7455, 3147.356
560.2277, 3093.885
560.7098, 3032.710
561.1919, 2969.217
561.6740, 2888.496
562.1561, 2772.350
562.6382, 2644.958
563.1204, 2530.023
563.6025, 2430.149
564.0846, 2336.459
564.5667, 2241.522
565.0488, 2147.162
565.5309, 2058.346
566.0131, 1972.861
566.4952, 1898.672
566.9773, 1844.451
567.4594, 1796.138
567.9415, 1744.993
568.4236, 1691.824
568.9058, 1642.483
569.3879, 1599.025
569.8700, 1560.559
570.3521, 1526.087
570.8342, 1495.570
571.3163, 1469.423
571.7985, 1447.970
572.2806, 1429.052
572.7627, 1410.589
573.2448, 1392.757
573.7269, 1373.050
574.2090, 1344.695
574.6912, 1322.370
575.1733, 1314.276
575.6554, 1311.754
576.1375, 1304.320
576.6196, 1290.006
577.1017, 1276.106
577.5839, 1268.898
578.0660, 1267.383
578.5481, 1269.328
579.0302, 1275.244
579.5123, 1280.014
579.9944, 1282.247
580.4766, 1281.134
580.9587, 1273.131
581.4408, 1255.116
581.9229, 1244.088
582.4050, 1248.866
582.8871, 1255.533
583.3693, 1255.101
583.8514, 1249.155
584.3335, 1242.130
584.8156, 1236.055
585.2977, 1231.416
585.7798, 1228.615
586.2620, 1227.520
586.7441, 1230.602
587.2262, 1241.330
587.7083, 1250.761
588.1904, 1252.061
588.6725, 1249.199
589.1547, 1249.153
589.6368, 1255.187
590.1189, 1257.830
590.6010, 1246.781
591.0831, 1232.888
591.5652, 1234.050
592.0474, 1248.551
592.5295, 1256.688
593.0116, 1244.485
593.4937, 1219.322
593.9758, 1203.836
594.4579, 1201.209
594.9401, 1200.876
595.4222, 1207.975
595.9043, 1211.704
596.3864, 1201.156
596.8685, 1183.000
597.3506, 1175.455
597.8328, 1191.240
598.3149, 1207.974
598.7970, 1201.236
599.2791, 1180.027
599.7612, 1168.443
600.2433, 1171.109
600.7255, 1176.954
601.2076, 1176.827
601.6897, 1171.489
602.1718, 1167.149
602.6539, 1164.462
603.1360, 1161.932
603.6182, 1158.707
604.1003, 1156.177
604.5824, 1158.628
605.0645, 1163.432
605.5466, 1159.818
606.0287, 1135.386
606.5109, 1107.636
606.9930, 1105.974
607.4751, 1127.226
607.9572, 1147.330
608.4393, 1161.604
608.9214, 1168.253
609.4036, 1162.635
609.8857, 1144.699
610.3678, 1138.217
610.8499, 1155.336
611.3320, 1167.409
611.8141, 1164.123
612.2963, 1154.972
612.7784, 1149.636
613.2605, 1149.020
613.7426, 1147.523
614.2247, 1138.847
614.7068, 1128.010
615.1890, 1129.145
615.6711, 1142.854
616.1532, 1155.488
616.6353, 1164.229
617.1174, 1168.472
617.5995, 1166.315
618.0817, 1157.589
618.5638, 1149.530
619.0459, 1142.028
619.5280, 1135.687
620.0101, 1128.510
620.4922, 1123.745
