##NAMES=Pyrobelonite
##RRUFFID=R080057
##IDEAL CHEMISTRY=Pb^2+^Mn^2+^V^5+^O_4_(OH)
##LOCALITY=Ty Coch Manganese mine, Glamorgan County, Wales, United Kingdom
##OWNER=RRUFF
##SOURCE=Michael Scott
##DESCRIPTION=Fiery-red grains on light-pink calcite vein
##STATUS=The identification of this mineral has been confirmed by single-crystal X-ray diffraction.
##URL=rruff.info/R080057
93.74609, 8.021832
94.22821, 7.826457
94.71033, 7.901729
95.19244, 8.211928
95.67456, 8.612858
96.15668, 9.007253
96.63879, 9.435760
97.12091, 10.06859
97.60303, 10.93739
98.08514, 11.94030
98.56726, 12.89125
99.04938, 13.78867
99.53149, 14.76987
100.0136, 15.96130
100.4957, 17.36510
100.9778, 18.61806
101.4600, 19.59126
101.9421, 20.46258
102.4242, 21.74388
102.9063, 23.54565
103.3884, 25.49913
103.8705, 27.36609
104.3527, 29.18565
104.8348, 30.85848
105.3169, 32.36702
105.7990, 33.71380
106.2811, 35.11065
106.7632, 36.72539
107.2454, 38.21424
107.7275, 39.24807
108.2096, 39.53644
108.6917, 39.78098
109.1738, 40.02142
109.6559, 40.21611
110.1381, 40.69707
110.6202, 41.59883
111.1023, 42.74334
111.5844, 43.94305
112.0665, 45.18538
112.5486, 46.50601
113.0308, 47.89756
113.5129, 49.33966
113.9950, 50.96422
114.4771, 52.92902
114.9592, 55.05717
115.4413, 57.10930
115.9235, 59.03658
116.4056, 60.85944
116.8877, 62.57176
117.3698, 64.23824
117.8519, 65.72701
118.3340, 66.91554
118.8162, 67.88483
119.2983, 68.82973
119.7804, 69.86440
120.2625, 70.90404
120.7446, 71.85453
121.2267, 72.57772
121.7089, 73.38582
122.1910, 74.60808
122.6731, 76.14148
123.1552, 77.52528
123.6373, 78.44299
124.1194, 79.05729
124.6016, 79.56959
125.0837, 79.91512
125.5658, 80.27682
126.0479, 80.78648
126.5300, 81.44887
127.0121, 82.34385
127.4943, 83.61161
127.9764, 85.16138
128.4585, 86.82312
128.9406, 88.54070
129.4227, 90.31199
129.9048, 92.13509
130.3869, 94.01416
130.8691, 95.90376
131.3512, 97.77635
131.8333, 99.62585
132.3154, 101.4237
132.7975, 103.0599
133.2796, 104.6090
133.7618, 106.3372
134.2439, 108.0414
134.7260, 109.3393
135.2081, 110.3656
135.6902, 111.3786
136.1723, 112.4408
136.6545, 113.6018
137.1366, 114.8567
137.6187, 116.1328
138.1008, 117.4799
138.5829, 118.7997
139.0650, 119.9370
139.5472, 120.9112
140.0293, 121.6669
140.5114, 122.1083
140.9935, 122.1420
141.4756, 122.3340
141.9577, 122.6996
142.4399, 123.2496
142.9220, 124.0466
143.4041, 125.1860
143.8862, 126.4038
144.3683, 127.5365
144.8504, 128.4770
145.3326, 129.5925
145.8147, 131.0813
146.2968, 132.8552
146.7789, 133.9261
147.2610, 133.7734
147.7431, 133.4529
148.2253, 133.7474
148.7074, 135.3126
149.1895, 136.5311
149.6716, 137.0324
150.1537, 136.7976
150.6358, 136.8881
151.1180, 137.7590
151.6001, 138.7033
152.0822, 139.1219
152.5643, 138.5522
153.0464, 137.9605
153.5285, 137.5029
154.0107, 137.2101
154.4928, 136.8592
154.9749, 136.5513
155.4570, 136.1349
155.9391, 135.4620
156.4212, 134.3766
156.9034, 133.1586
157.3855, 131.8046
157.8676, 130.2668
158.3497, 128.9306
158.8318, 128.0276
159.3139, 127.3122
159.7961, 126.4675
160.2782, 125.0773
160.7603, 123.8146
161.2424, 123.0092
161.7245, 122.8045
162.2066, 122.6174
162.6888, 122.3577
163.1709, 121.9750
163.6530, 121.3882
164.1351, 120.1397
164.6172, 118.9718
165.0993, 118.3673
165.5815, 118.5336
166.0636, 118.8396
166.5457, 119.0386
167.0278, 119.1546
167.5099, 119.2375
167.9921, 119.2114
168.4742, 119.2181
168.9563, 119.4209
169.4384, 119.9763
169.9205, 120.4356
170.4026, 120.1570
170.8848, 119.4812
171.3669, 119.3384
171.8490, 120.8155
172.3311, 122.8544
172.8132, 124.2950
173.2953, 124.6970
173.7775, 124.8324
174.2596, 125.2220
174.7417, 125.8776
175.2238, 126.8548
175.7059, 128.4471
176.1880, 130.3071
176.6702, 131.9427
177.1523, 133.2450
177.6344, 134.2810
178.1165, 135.2084
178.5986, 135.9941
179.0807, 136.3872
179.5629, 136.2424
180.0450, 135.5810
180.5271, 134.4174
181.0092, 132.6026
181.4913, 130.4452
181.9734, 128.4694
182.4556, 126.6510
182.9377, 124.6724
183.4198, 122.0182
183.9019, 118.9448
184.3840, 116.2744
184.8661, 114.2815
185.3483, 112.7268
185.8304, 111.1098
186.3125, 109.4369
186.7946, 107.8683
187.2767, 106.6130
187.7588, 105.5999
188.2409, 104.5524
188.7231, 103.3153
189.2052, 102.0228
189.6873, 101.0225
190.1694, 100.3158
190.6515, 99.76021
191.1336, 99.21115
191.6158, 98.67905
192.0979, 98.27551
192.5800, 98.08453
193.0621, 98.03087
193.5442, 97.84212
194.0263, 97.50666
194.5085, 97.09792
194.9906, 96.65239
195.4727, 96.17428
195.9548, 95.79324
196.4369, 95.59629
196.9190, 95.53276
197.4012, 95.32714
197.8833, 94.95570
198.3654, 94.54440
198.8475, 94.24177
199.3296, 94.05074
199.8117, 93.86527
200.2939, 93.58154
200.7760, 93.25253
201.2581, 93.37795
201.7402, 94.09194
202.2223, 94.89655
202.7044, 95.15562
203.1866, 94.78523
203.6687, 94.50124
204.1508, 94.52201
204.6329, 94.82699
205.1150, 95.11697
205.5971, 95.40192
206.0793, 95.65047
206.5614, 95.81484
207.0435, 95.87801
207.5256, 95.92834
208.0077, 95.96480
208.4898, 95.98905
208.9720, 96.14583
209.4541, 96.48573
209.9362, 96.86833
210.4183, 97.11923
210.9004, 97.20155
211.3825, 97.27636
211.8647, 97.38238
212.3468, 97.51997
212.8289, 97.66709
213.3110, 97.81533
213.7931, 97.98721
214.2752, 98.21629
214.7574, 98.52807
215.2395, 98.83538
215.7216, 99.14858
216.2037, 99.47178
216.6858, 99.60188
217.1679, 99.41953
217.6501, 99.19629
218.1322, 99.28752
218.6143, 99.83634
219.0964, 100.3373
219.5785, 100.6442
220.0606, 100.7503
220.5428, 100.8508
221.0249, 100.8765
221.5070, 100.9731
221.9891, 101.3434
222.4712, 102.1413
222.9533, 102.8723
223.4355, 103.4088
223.9176, 103.7518
224.3997, 104.0084
224.8818, 104.1592
225.3639, 104.2490
225.8460, 104.3121
226.3282, 104.2952
226.8103, 104.3671
227.2924, 104.5710
227.7745, 104.9139
228.2566, 105.3065
228.7387, 105.7594
229.2209, 106.2506
229.7030, 106.7635
230.1851, 107.3607
230.6672, 107.8653
231.1493, 108.2378
231.6314, 108.4757
232.1136, 108.6349
232.5957, 108.6763
233.0778, 108.6796
233.5599, 108.7300
234.0420, 108.8804
234.5241, 108.9701
235.0063, 108.9327
235.4884, 108.7677
235.9705, 108.7261
236.4526, 108.8830
236.9347, 109.0848
237.4168, 109.1662
237.8990, 108.9757
238.3811, 108.9643
238.8632, 109.2630
239.3453, 109.8688
239.8274, 110.3898
240.3095, 110.8807
240.7917, 111.2309
241.2738, 111.2942
241.7559, 110.7929
242.2380, 110.5745
242.7201, 110.8967
243.2022, 111.7147
243.6844, 112.1864
244.1665, 112.1663
244.6486, 111.9823
245.1307, 111.8708
245.6128, 111.8161
246.0949, 111.8816
246.5771, 112.1549
247.0592, 112.5962
247.5413, 112.7891
248.0234, 112.5722
248.5055, 112.3086
248.9876, 112.2609
249.4697, 112.5282
249.9519, 112.7828
250.4340, 112.9637
250.9161, 113.0955
251.3982, 113.3604
251.8803, 113.8878
252.3624, 114.3594
252.8446, 114.5124
253.3267, 114.0751
253.8088, 113.9932
254.2909, 114.5060
254.7730, 115.4312
255.2551, 115.9633
255.7373, 115.8970
256.2194, 115.7742
256.7015, 115.9145
257.1836, 116.4559
257.6657, 116.8888
258.1479, 117.1499
258.6300, 117.2971
259.1121, 117.5252
259.5942, 117.8928
260.0763, 118.2399
260.5584, 118.4501
261.0406, 118.3878
261.5227, 118.6288
262.0048, 119.3086
262.4869, 120.2327
262.9690, 120.9483
263.4511, 121.3805
263.9333, 121.7539
264.4154, 122.1734
264.8975, 122.6797
265.3796, 123.0618
265.8617, 123.2481
266.3438, 123.3742
266.8260, 123.6938
267.3081, 124.2213
267.7902, 124.9006
268.2723, 125.7277
268.7544, 126.7406
269.2365, 127.7038
269.7187, 128.5963
270.2008, 129.4658
270.6829, 130.3571
271.1650, 131.2548
271.6471, 132.2260
272.1292, 133.2860
272.6114, 134.4359
273.0935, 135.6541
273.5756, 137.0112
274.0577, 138.2904
274.5398, 139.1288
275.0219, 139.3866
275.5041, 139.8729
275.9862, 140.8338
276.4683, 142.2441
276.9504, 143.7760
277.4325, 145.4153
277.9146, 147.2113
278.3968, 149.2781
278.8788, 151.6402
279.3610, 153.9556
279.8431, 156.1374
280.3252, 158.1824
280.8073, 160.1329
281.2894, 161.9515
281.7715, 163.8315
282.2537, 165.9843
282.7358, 168.4159
283.2179, 170.8459
283.7000, 173.2550
284.1821, 175.6150
284.6642, 177.6667
285.1464, 179.3626
285.6285, 181.2468
286.1106, 183.9297
286.5927, 187.3336
287.0748, 190.3093
287.5569, 192.5524
288.0391, 194.4795
288.5212, 196.9857
289.0033, 200.0855
289.4854, 203.3044
289.9675, 206.3502
290.4496, 209.2645
290.9318, 212.2014
291.4139, 215.2117
291.8960, 218.2264
292.3781, 221.0334
292.8602, 223.6791
293.3423, 226.3810
293.8245, 229.2534
294.3066, 232.2922
294.7887, 235.5560
295.2708, 239.0613
295.7529, 242.5869
296.2350, 245.8474
296.7172, 248.8631
297.1993, 251.7906
297.6814, 254.8578
298.1635, 257.8911
298.6456, 260.4095
299.1277, 262.3979
299.6099, 264.2048
300.0920, 266.3040
300.5741, 268.5020
301.0562, 270.1997
301.5383, 271.1089
302.0204, 271.4534
302.5026, 271.5368
302.9847, 271.3571
303.4668, 270.8474
303.9489, 269.7637
304.4310, 268.3415
304.9131, 266.9421
305.3953, 265.6427
305.8774, 264.4627
306.3595, 263.3452
306.8416, 262.3396
307.3237, 261.6829
307.8058, 261.6858
308.2880, 262.0847
308.7701, 262.5616
309.2522, 263.0444
309.7343, 263.6120
310.2164, 264.1440
310.6985, 264.7836
311.1807, 265.9213
311.6628, 267.9940
312.1449, 270.5470
312.6270, 273.0710
313.1091, 275.3832
313.5912, 278.0847
314.0734, 281.8033
314.5555, 286.1469
315.0376, 290.4316
315.5197, 294.2058
316.0018, 297.9626
316.4839, 301.8100
316.9661, 305.7314
317.4482, 310.1187
317.9303, 315.5565
318.4124, 321.3931
318.8945, 326.9393
319.3766, 331.4463
319.8588, 336.0649
320.3409, 341.3152
320.8230, 347.2232
321.3051, 353.0215
321.7872, 358.4815
322.2693, 363.7586
322.7515, 368.9755
323.2336, 373.7672
323.7157, 378.9269
324.1978, 384.9096
324.6799, 391.4987
325.1620, 397.7431
325.6442, 403.3526
326.1263, 408.6761
326.6084, 413.8973
327.0905, 419.2975
327.5726, 424.2162
328.0547, 428.6655
328.5369, 432.5822
329.0190, 435.9334
329.5011, 438.5916
329.9832, 440.7846
330.4653, 442.7114
330.9474, 444.8605
331.4296, 445.4874
331.9117, 444.1855
332.3938, 441.5429
332.8759, 438.4087
333.3580, 434.9406
333.8401, 430.7010
334.3223, 425.5431
334.8044, 419.3922
335.2865, 412.8858
335.7686, 405.9632
336.2507, 398.8078
336.7328, 391.7306
337.2150, 384.7599
337.6971, 377.6126
338.1792, 370.1402
338.6613, 362.4357
339.1434, 354.6564
339.6255, 346.7602
340.1077, 338.8363
340.5898, 330.6326
341.0719, 322.1591
341.5540, 314.4558
342.0361, 307.9184
342.5182, 302.0141
343.0004, 295.4337
343.4825, 288.1199
343.9646, 280.9462
344.4467, 274.3387
344.9288, 268.3725
345.4109, 263.0190
345.8931, 258.4196
346.3752, 254.1460
346.8573, 249.6652
347.3394, 244.9705
347.8215, 240.4530
348.3036, 236.2345
348.7858, 232.3113
349.2679, 228.7582
349.7500, 225.6053
350.2321, 222.5128
350.7142, 219.1285
351.1964, 215.5841
351.6785, 212.1803
352.1606, 208.9735
352.6427, 206.0270
353.1248, 203.5069
353.6069, 201.3345
354.0891, 199.1574
354.5712, 196.6710
355.0533, 194.0513
355.5354, 191.5147
356.0175, 189.1218
356.4996, 186.8018
356.9818, 184.4129
357.4639, 182.0224
357.9460, 179.7897
358.4281, 177.9162
358.9102, 176.1539
359.3923, 174.2481
359.8745, 172.1337
360.3566, 170.2629
360.8387, 169.0570
361.3208, 168.2069
361.8029, 167.3386
362.2850, 166.2080
362.7672, 165.1303
363.2493, 164.2445
363.7314, 163.5437
364.2135, 162.9202
364.6956, 162.2393
365.1777, 161.6860
365.6599, 161.3986
366.1420, 161.7253
366.6241, 161.9246
367.1062, 161.7047
367.5883, 161.2396
368.0704, 161.0424
368.5526, 161.3547
369.0347, 161.7950
369.5168, 162.2276
369.9989, 162.6396
370.4810, 163.0766
370.9631, 163.6274
371.4453, 164.1706
371.9274, 164.5265
372.4095, 164.4890
372.8916, 164.5698
373.3737, 164.9622
373.8558, 165.6859
374.3380, 166.1116
374.8201, 166.2222
375.3022, 166.0645
375.7843, 165.6246
376.2664, 164.7843
376.7485, 164.0685
377.2307, 163.6455
377.7128, 163.3505
378.1949, 162.5662
378.6770, 161.1875
379.1591, 159.7715
379.6412, 158.6369
380.1234, 157.7749
380.6055, 157.0310
381.0876, 156.4276
381.5697, 155.8651
382.0518, 155.1360
382.5339, 154.2613
383.0161, 153.5007
383.4982, 153.0210
383.9803, 152.7269
384.4624, 152.3219
384.9445, 151.8007
385.4266, 151.3492
385.9088, 151.2004
386.3909, 151.2520
386.8730, 151.2109
387.3551, 150.9040
387.8372, 150.6265
388.3193, 150.7997
388.8015, 151.3434
389.2836, 151.9241
389.7657, 152.4322
390.2478, 152.8298
390.7299, 152.9696
391.2120, 152.7347
391.6942, 152.7008
392.1763, 153.4634
392.6584, 154.6527
393.1405, 155.6939
393.6226, 156.4030
394.1047, 156.8671
394.5869, 156.9249
395.0690, 156.6028
395.5511, 156.6353
396.0332, 157.7310
396.5153, 159.0378
396.9974, 159.9010
397.4796, 159.3650
397.9617, 159.3365
398.4438, 160.2746
398.9259, 161.9885
399.4080, 163.8809
399.8901, 166.0257
400.3723, 168.2323
400.8544, 170.3707
401.3365, 172.3046
401.8186, 174.5899
402.3007, 177.2039
402.7828, 180.1813
403.2649, 183.6269
403.7470, 187.8868
404.2292, 191.9578
404.7113, 195.4938
405.1934, 198.5784
405.6755, 202.0273
406.1576, 205.8555
406.6397, 209.9359
407.1219, 214.1539
407.6040, 218.4946
408.0861, 223.1221
408.5682, 228.1185
409.0503, 233.3421
409.5324, 238.7343
410.0146, 244.2984
410.4967, 250.0202
410.9788, 255.8791
411.4609, 261.8593
411.9430, 268.1834
412.4251, 274.9323
412.9073, 281.7303
413.3894, 288.1863
413.8715, 294.5317
414.3536, 301.3286
414.8357, 308.8815
415.3178, 316.8983
415.8000, 325.1077
416.2821, 333.4929
416.7642, 341.6377
417.2463, 349.1533
417.7284, 356.3915
418.2105, 363.6204
418.6927, 371.0008
419.1748, 378.1685
419.6569, 385.3221
420.1390, 392.1714
420.6211, 398.0753
421.1032, 402.6827
421.5854, 406.5975
422.0675, 410.0187
422.5496, 412.9946
423.0317, 415.5674
423.5138, 418.7111
423.9959, 420.8699
424.4781, 421.0389
424.9602, 417.4977
425.4423, 414.0135
425.9244, 411.0550
426.4065, 408.2781
426.8886, 404.9175
427.3708, 400.8265
427.8529, 396.2794
428.3350, 391.3697
428.8171, 386.1221
429.2992, 380.2742
429.7813, 373.5449
430.2635, 366.6162
430.7456, 360.1259
431.2277, 354.2472
431.7098, 348.2352
432.1919, 342.0124
432.6740, 335.5400
433.1562, 328.6269
433.6383, 321.2308
434.1204, 313.7218
434.6025, 306.0540
435.0846, 298.3632
435.5667, 291.7042
436.0489, 286.2240
436.5310, 280.9646
437.0131, 274.5834
437.4952, 267.4149
437.9773, 260.6957
438.4594, 255.0642
438.9416, 249.9814
439.4237, 244.7384
439.9058, 239.3563
440.3879, 234.1561
440.8700, 229.3961
441.3521, 224.8478
441.8343, 220.1866
442.3164, 215.1869
442.7985, 210.5852
443.2806, 206.8301
443.7627, 203.7612
444.2448, 201.0416
444.7270, 199.1250
445.2091, 197.0499
445.6912, 194.2269
446.1733, 190.6399
446.6554, 187.4892
447.1375, 185.3104
447.6197, 183.4710
448.1018, 181.5782
448.5839, 179.6086
449.0660, 177.6046
449.5481, 175.6141
450.0302, 173.5918
450.5124, 171.3947
450.9945, 168.7478
451.4766, 166.4705
451.9587, 164.9326
452.4408, 164.1684
452.9229, 163.1700
453.4051, 161.9036
453.8872, 160.4551
454.3693, 158.7583
454.8514, 156.7788
455.3335, 155.2010
455.8156, 154.1961
456.2978, 153.5235
456.7799, 152.7520
457.2620, 151.8744
457.7441, 150.8930
458.2262, 149.6896
458.7083, 148.4005
459.1905, 147.2961
459.6726, 146.3935
460.1547, 145.6017
460.6368, 144.9165
461.1189, 144.2714
461.6010, 143.5669
462.0832, 142.7396
462.5653, 141.8931
463.0474, 141.1543
463.5295, 140.4669
464.0116, 139.6893
464.4937, 138.4970
464.9759, 137.4055
465.4580, 136.7672
465.9401, 136.6887
466.4222, 136.6417
466.9043, 136.7031
467.3864, 136.6404
467.8686, 136.2346
468.3507, 135.1036
468.8328, 134.0498
469.3149, 133.0831
469.7970, 132.2448
470.2791, 131.6919
470.7613, 131.5448
471.2434, 131.5128
471.7255, 131.5278
472.2076, 131.6339
472.6897, 131.4801
473.1718, 131.0059
473.6540, 130.3842
474.1361, 129.7476
474.6182, 129.0863
475.1003, 128.6478
475.5824, 128.5750
476.0645, 128.6639
476.5467, 128.3585
477.0288, 127.6936
477.5109, 127.1428
477.9930, 127.1495
478.4751, 127.4386
478.9572, 127.4593
479.4394, 127.1601
479.9215, 126.7748
480.4036, 126.5643
480.8857, 126.3919
481.3678, 126.0429
481.8499, 125.2473
482.3321, 124.4851
482.8142, 124.1390
483.2963, 124.0835
483.7784, 123.9297
484.2605, 123.3898
484.7426, 122.8347
485.2248, 122.4526
485.7069, 122.2976
486.1890, 122.1839
486.6711, 122.0963
487.1532, 122.0386
487.6353, 122.0149
488.1175, 122.0557
488.5996, 122.0865
489.0817, 122.1258
489.5638, 122.1454
490.0459, 122.0407
490.5280, 121.7664
491.0102, 121.4708
491.4923, 121.1842
491.9744, 120.9015
492.4565, 120.7700
492.9386, 120.7988
493.4207, 120.9203
493.9029, 121.1576
494.3850, 121.4653
494.8671, 121.5117
495.3492, 121.1413
495.8313, 120.6262
496.3134, 120.3561
496.7956, 120.2957
497.2777, 120.3062
497.7598, 120.4995
498.2419, 120.6220
498.7240, 120.2768
499.2061, 119.4494
499.6883, 118.7854
500.1704, 118.7783
500.6525, 119.0602
501.1346, 119.2909
501.6167, 119.3714
502.0988, 119.4263
502.5810, 119.5968
503.0631, 119.7575
503.5452, 119.6445
504.0273, 118.6471
504.5094, 117.9690
504.9915, 118.0622
505.4737, 118.9617
505.9558, 119.4563
506.4379, 119.3463
506.9200, 119.0906
507.4021, 119.0387
507.8842, 119.2774
508.3664, 119.2873
508.8485, 118.9659
509.3306, 118.5284
509.8127, 118.3300
510.2948, 118.3694
510.7769, 118.4967
511.2591, 118.7265
511.7412, 118.9760
512.2233, 119.0337
512.7054, 118.9111
513.1875, 118.7123
513.6696, 118.3889
514.1517, 118.0802
514.6339, 118.0172
515.1160, 118.2743
515.5981, 118.5635
516.0802, 118.6227
516.5623, 118.6115
517.0444, 118.7438
517.5266, 119.3506
518.0087, 119.8438
518.4908, 119.8740
518.9729, 119.5665
519.4550, 119.5000
519.9371, 120.1940
520.4193, 120.7620
520.9014, 120.7821
521.3835, 120.0419
521.8656, 119.6814
522.3477, 119.8494
522.8298, 120.2330
523.3120, 120.5516
523.7941, 120.7965
524.2762, 121.0108
524.7583, 121.2402
525.2404, 121.4001
525.7225, 121.1945
526.2047, 120.6272
526.6868, 120.1885
527.1689, 120.1805
527.6510, 120.4644
528.1331, 120.7358
528.6152, 120.9951
529.0974, 121.1394
529.5795, 120.9723
530.0616, 120.6827
530.5437, 120.5400
531.0258, 120.6184
531.5079, 120.7851
531.9901, 121.0921
532.4722, 121.4065
532.9543, 121.5194
533.4364, 121.1437
533.9185, 120.7813
534.4006, 120.6041
534.8828, 120.5987
535.3649, 120.5863
535.8470, 120.3633
536.3291, 120.3157
536.8112, 120.6861
537.2933, 121.6914
537.7755, 122.2186
538.2576, 122.0787
538.7397, 121.7162
539.2218, 121.6296
539.7039, 121.8462
540.1860, 122.0667
540.6682, 122.2580
541.1503, 122.3919
541.6324, 122.3773
542.1145, 122.2288
542.5966, 122.0889
543.0787, 121.9920
543.5609, 121.9669
544.0430, 122.1469
544.5251, 122.5143
545.0072, 122.7544
545.4893, 122.5844
545.9714, 122.2003
546.4536, 121.7665
546.9357, 121.2377
547.4178, 120.8717
547.8999, 120.8263
548.3820, 120.9910
548.8641, 121.2130
549.3463, 121.6259
549.8284, 121.9089
550.3105, 121.9081
550.7926, 121.6963
551.2747, 121.6619
551.7568, 121.8699
552.2390, 122.1486
552.7211, 122.4697
553.2032, 122.8550
553.6853, 122.9776
554.1674, 122.7735
554.6495, 122.5061
555.1317, 122.4594
555.6138, 122.6049
556.0959, 122.7404
556.5780, 122.8606
557.0601, 122.8881
557.5422, 122.5311
558.0244, 121.9689
558.5065, 121.7216
558.9886, 122.3776
559.4707, 123.2036
559.9528, 123.5829
560.4349, 123.5626
560.9171, 123.4533
561.3992, 123.3175
561.8813, 123.1906
562.3634, 123.0505
562.8455, 122.7972
563.3276, 122.8376
563.8098, 123.5773
564.2919, 124.4227
564.7740, 124.8480
565.2561, 124.6679
565.7382, 124.4039
566.2203, 124.0017
566.7025, 123.6058
567.1846, 123.6474
567.6667, 124.1885
568.1488, 124.7276
568.6309, 125.1083
569.1130, 125.3278
569.5952, 125.2630
570.0773, 124.9204
570.5594, 124.6606
571.0415, 124.8770
571.5236, 125.3127
572.0057, 125.4958
572.4879, 125.3244
572.9700, 125.2102
573.4521, 125.7279
573.9342, 126.3729
574.4163, 126.5230
574.8984, 125.3062
575.3806, 124.3538
575.8627, 124.1692
576.3448, 124.5826
576.8269, 125.1238
577.3090, 125.9879
577.7911, 126.7035
578.2733, 127.1552
578.7554, 127.3396
579.2375, 127.3572
579.7196, 127.1376
580.2017, 126.9193
580.6838, 126.8877
581.1660, 127.0390
581.6481, 127.1512
582.1302, 127.2195
582.6123, 127.2149
583.0944, 126.9415
583.5765, 126.5559
584.0587, 126.5552
584.5408, 127.2627
585.0229, 128.0918
585.5050, 128.5310
585.9871, 128.6386
586.4692, 128.5523
586.9514, 128.0780
587.4335, 127.6586
587.9156, 127.5473
588.3977, 127.7396
588.8798, 127.9791
589.3619, 128.3350
589.8441, 128.6241
590.3262, 128.7166
590.8083, 128.4769
