##NAMES=Pyrosmalite-(Mn)
##RRUFFID=R110207
##IDEAL CHEMISTRY=Mn^2+^_8_Si_6_O_15_(OH,Cl)_10_
##LOCALITY=Kyurasawa mine, Ashio, Tochigi Prefecture, Kanto Region, Japan
##OWNER=RRUFF
##SOURCE=Royal Ontario Museum
##DESCRIPTION=Pink massive with good cleavage
##STATUS=The identification of this mineral has been confirmed only by single crystal X-ray diffraction.
##URL=rruff.info/R110207
166.6666, 123.5885
167.1487, 130.3964
167.6309, 137.5542
168.1130, 144.7057
168.5951, 151.0764
169.0772, 156.9339
169.5593, 163.7564
170.0414, 173.0991
170.5236, 183.7454
171.0057, 194.0852
171.4878, 202.8479
171.9699, 211.8243
172.4520, 222.3869
172.9341, 234.5189
173.4163, 247.5266
173.8984, 260.8852
174.3805, 274.9100
174.8626, 289.6798
175.3447, 305.8392
175.8268, 322.7070
176.3090, 339.4938
176.7911, 356.0503
177.2732, 373.0780
177.7553, 389.8455
178.2374, 405.6410
178.7195, 420.6800
179.2017, 434.6916
179.6838, 448.3499
180.1659, 462.4840
180.6480, 477.2802
181.1301, 491.9674
181.6122, 506.2296
182.0944, 520.0765
182.5765, 533.1517
183.0586, 544.9731
183.5407, 556.0191
184.0228, 568.1209
184.5049, 581.3805
184.9871, 594.6927
185.4692, 606.8604
185.9513, 617.9684
186.4334, 627.7203
186.9155, 635.7781
187.3976, 642.4238
187.8798, 648.9670
188.3619, 655.6697
188.8440, 661.4243
189.3261, 664.8651
189.8082, 666.0402
190.2903, 664.8568
190.7725, 660.6171
191.2546, 653.6999
191.7367, 646.8273
192.2188, 640.3799
192.7009, 633.3420
193.1830, 623.8782
193.6652, 612.0364
194.1473, 599.5390
194.6294, 587.0510
195.1115, 574.6186
195.5936, 563.0422
196.0757, 552.4948
196.5579, 542.5690
197.0400, 532.2855
197.5221, 521.5330
198.0042, 511.5614
198.4863, 503.0880
198.9684, 496.1590
199.4506, 489.6501
199.9327, 483.6412
200.4148, 477.9149
200.8969, 472.1689
201.3790, 466.3966
201.8611, 460.3697
202.3433, 453.7630
202.8254, 446.4895
203.3075, 439.7696
203.7896, 434.0551
204.2717, 428.7035
204.7538, 422.0420
205.2360, 413.8332
205.7181, 405.1747
206.2002, 396.7099
206.6823, 388.4978
207.1644, 380.0466
207.6465, 371.2736
208.1287, 362.2706
208.6108, 352.8618
209.0929, 342.7290
209.5750, 333.0150
210.0571, 324.7349
210.5392, 318.2321
211.0214, 311.3115
211.5035, 303.6603
211.9856, 295.5370
212.4677, 287.4908
212.9498, 279.3751
213.4319, 271.6354
213.9140, 264.4431
214.3962, 257.7928
214.8783, 251.7085
215.3604, 246.3506
215.8425, 241.5469
216.3246, 236.8449
216.8067, 232.1807
217.2889, 227.6527
217.7710, 223.2359
218.2531, 218.8176
218.7352, 214.7950
219.2173, 211.1964
219.6994, 207.9636
220.1816, 205.0670
220.6637, 202.6292
221.1458, 200.2230
221.6279, 197.6322
222.1100, 194.8434
222.5921, 191.8125
223.0743, 188.3330
223.5564, 184.5998
224.0385, 181.3993
224.5206, 179.0469
225.0027, 176.8449
225.4848, 174.3486
225.9670, 171.3812
226.4491, 168.6176
226.9312, 166.1781
227.4133, 163.9916
227.8954, 161.5385
228.3775, 158.6485
228.8597, 155.8119
229.3418, 153.4060
229.8239, 151.7181
230.3060, 149.7782
230.7881, 147.3712
231.2702, 144.6342
231.7524, 142.3606
232.2345, 140.8334
232.7166, 139.3985
233.1987, 137.6719
233.6808, 135.4444
234.1629, 133.3887
234.6451, 131.5506
235.1272, 129.9065
235.6093, 128.3208
236.0914, 126.7806
236.5735, 125.3171
237.0556, 123.9750
237.5378, 122.8872
238.0199, 121.6277
238.5020, 120.1079
238.9841, 118.3960
239.4662, 116.8026
239.9483, 115.2679
240.4305, 113.9368
240.9126, 112.8982
241.3947, 112.2909
241.8768, 111.6786
242.3589, 111.0559
242.8410, 110.4185
243.3232, 109.7367
243.8053, 109.0226
244.2874, 108.2482
244.7695, 107.4027
245.2516, 106.4563
245.7337, 105.4733
246.2159, 104.3673
246.6980, 103.2295
247.1801, 102.4104
247.6622, 102.1133
248.1443, 101.8108
248.6264, 101.1999
249.1086, 99.96343
249.5907, 99.19541
250.0728, 99.11343
250.5549, 99.45412
251.0370, 99.52657
251.5191, 99.28838
252.0013, 98.85298
252.4834, 98.20454
252.9655, 97.14124
253.4476, 96.41587
253.9297, 96.08074
254.4118, 96.06196
254.8940, 96.22034
255.3761, 96.66221
255.8582, 97.09550
256.3403, 97.44749
256.8224, 97.81763
257.3046, 97.71136
257.7867, 96.82854
258.2688, 95.65845
258.7509, 95.25770
259.2330, 96.08301
259.7151, 96.74830
260.1973, 96.67566
260.6794, 95.69078
261.1615, 94.74354
261.6436, 93.82202
262.1257, 92.96005
262.6078, 92.19141
263.0900, 91.45927
263.5721, 90.98811
264.0542, 91.01327
264.5363, 91.70706
265.0184, 91.64007
265.5005, 90.41764
265.9827, 88.90025
266.4648, 88.43655
266.9469, 89.45381
267.4290, 90.29240
267.9111, 90.38424
268.3932, 89.67274
268.8754, 89.10389
269.3575, 88.68802
269.8396, 88.39476
270.3217, 88.16516
270.8038, 87.95548
271.2859, 87.98767
271.7681, 88.44432
272.2502, 89.29665
272.7323, 89.68286
273.2144, 89.43372
273.6965, 89.04679
274.1786, 89.08362
274.6608, 89.62460
275.1429, 90.15538
275.6250, 90.53208
276.1071, 90.78450
276.5892, 91.16154
277.0714, 91.67770
277.5535, 92.26102
278.0356, 92.86318
278.5177, 93.48953
278.9998, 94.05567
279.4819, 94.47721
279.9641, 94.83890
280.4462, 95.55302
280.9283, 96.69350
281.4104, 97.87669
281.8925, 98.70251
282.3746, 99.16183
282.8568, 99.94755
283.3389, 101.2432
283.8210, 102.8835
284.3031, 104.3769
284.7852, 105.7028
285.2673, 107.1304
285.7495, 108.9219
286.2316, 111.0515
286.7137, 113.1527
287.1958, 115.1703
287.6779, 117.1561
288.1600, 119.1237
288.6422, 121.0684
289.1243, 123.2992
289.6064, 126.1207
290.0885, 129.4232
290.5706, 132.4691
291.0527, 135.1064
291.5349, 137.6706
292.0170, 140.8118
292.4991, 144.4490
292.9812, 148.0227
293.4633, 150.8110
293.9454, 153.2324
294.4276, 156.7895
294.9097, 161.7021
295.3918, 166.9696
295.8739, 171.1366
296.3560, 174.4267
296.8381, 178.0997
297.3203, 182.9319
297.8024, 188.4723
298.2845, 193.9261
298.7666, 199.3056
299.2487, 204.5304
299.7308, 209.5546
300.2130, 214.4341
300.6951, 219.2460
301.1772, 223.9691
301.6593, 228.6560
302.1414, 233.5655
302.6235, 238.6458
303.1057, 243.5247
303.5878, 247.8884
304.0699, 251.7991
304.5520, 255.2681
305.0341, 258.1454
305.5162, 260.7245
305.9984, 263.4480
306.4805, 266.2300
306.9626, 268.6578
307.4447, 270.2561
307.9268, 271.3702
308.4089, 272.4102
308.8911, 273.4733
309.3732, 274.5074
309.8553, 275.5324
310.3374, 276.5070
310.8195, 277.3102
311.3016, 277.4103
311.7838, 277.5331
312.2659, 278.3712
312.7480, 280.2135
313.2301, 282.4059
313.7122, 284.5947
314.1943, 286.8693
314.6765, 289.3719
315.1586, 291.7927
315.6407, 294.7123
316.1228, 298.5355
316.6049, 303.3410
317.0870, 308.8813
317.5692, 315.4130
318.0513, 322.4913
318.5334, 329.4575
319.0155, 335.6860
319.4976, 342.1169
319.9797, 349.5106
320.4619, 358.0763
320.9440, 365.5602
321.4261, 371.2387
321.9082, 375.4830
322.3903, 378.6118
322.8724, 381.7835
323.3546, 382.7441
323.8367, 380.9942
324.3188, 376.5273
324.8009, 369.5140
325.2830, 358.3673
325.7651, 345.7566
326.2473, 333.4352
326.7294, 321.9929
327.2115, 310.3679
327.6936, 297.7409
328.1757, 284.6646
328.6578, 273.2991
329.1400, 264.2918
329.6221, 256.4612
330.1042, 249.2747
330.5863, 242.9585
331.0684, 236.8745
331.5505, 230.9090
332.0327, 225.2215
332.5148, 220.2609
332.9969, 216.3443
333.4790, 212.7044
333.9611, 209.0218
334.4432, 205.2316
334.9254, 201.6296
335.4075, 198.3359
335.8896, 195.1601
336.3717, 191.7789
336.8538, 187.9802
337.3359, 184.5619
337.8180, 181.8236
338.3001, 179.7665
338.7823, 177.7488
339.2644, 175.7430
339.7465, 173.8815
340.2286, 172.2874
340.7107, 170.9804
341.1928, 169.9283
341.6750, 169.1817
342.1571, 168.6863
342.6392, 168.2579
343.1213, 167.8786
343.6034, 167.6511
344.0855, 167.5780
344.5677, 167.6693
345.0498, 168.2085
345.5319, 169.2923
346.0140, 170.7319
346.4961, 172.1359
346.9782, 173.5074
347.4604, 175.1217
347.9425, 177.2174
348.4246, 179.6949
348.9067, 182.0735
349.3888, 184.2872
349.8709, 186.6089
350.3531, 189.4200
350.8352, 192.6353
351.3173, 195.9244
351.7994, 199.3611
352.2815, 202.7369
352.7636, 205.7671
353.2458, 208.4491
353.7279, 210.7548
354.2100, 212.8640
354.6921, 214.5480
355.1742, 215.3845
355.6563, 214.9946
356.1385, 213.9786
356.6206, 212.7722
357.1027, 211.3860
357.5848, 209.9132
358.0669, 208.3275
358.5490, 206.7091
359.0312, 205.1934
359.5133, 203.9423
359.9954, 202.4519
360.4775, 200.1458
360.9596, 197.3802
361.4417, 194.9475
361.9239, 193.5282
362.4060, 192.2298
362.8881, 190.4345
363.3702, 187.9118
363.8523, 185.7997
364.3344, 184.8790
364.8166, 184.4205
365.2987, 183.5851
365.7808, 181.5410
366.2629, 179.7607
366.7450, 178.8086
367.2271, 178.6853
367.7093, 178.3047
368.1914, 177.3127
368.6735, 176.1658
369.1556, 175.1504
369.6377, 174.2320
370.1198, 173.5344
370.6020, 173.2615
371.0841, 173.2391
371.5662, 172.8056
372.0483, 171.5298
372.5304, 170.3713
373.0125, 169.7868
373.4947, 170.0978
373.9768, 170.0512
374.4589, 169.5045
374.9410, 168.7138
375.4231, 168.0143
375.9052, 167.2619
376.3874, 167.0239
376.8695, 167.6931
377.3516, 169.2442
377.8337, 170.0664
378.3158, 170.0636
378.7979, 169.6551
379.2801, 169.1801
379.7622, 168.6300
380.2443, 168.1239
380.7264, 167.6332
381.2085, 167.2375
381.6906, 167.2205
382.1728, 167.5872
382.6549, 167.9715
383.1370, 167.9086
383.6191, 167.6061
384.1012, 168.0385
384.5833, 169.4781
385.0655, 171.0719
385.5476, 171.5776
386.0297, 171.2367
386.5118, 170.9022
386.9939, 170.8825
387.4760, 171.1555
387.9582, 171.7793
388.4403, 172.7629
388.9224, 173.7765
389.4045, 174.4921
389.8866, 175.0792
390.3687, 175.7842
390.8509, 176.7258
391.3330, 177.7634
391.8151, 178.9218
392.2972, 180.1368
392.7793, 181.1635
393.2614, 181.7906
393.7436, 182.2375
394.2257, 182.6504
394.7078, 183.0064
395.1899, 183.4362
395.6720, 184.0285
396.1541, 184.7134
396.6363, 185.3796
397.1184, 185.9249
397.6005, 186.5144
398.0826, 187.3009
398.5647, 188.3518
399.0468, 189.0573
399.5290, 189.3560
400.0111, 189.2854
400.4932, 188.8672
400.9753, 187.6650
401.4574, 186.7072
401.9395, 186.1849
402.4217, 186.0008
402.9038, 185.6893
403.3859, 185.0974
403.8680, 184.6044
404.3501, 184.4778
404.8322, 184.9583
405.3144, 184.9353
405.7965, 184.2787
406.2786, 183.2749
406.7607, 182.3490
407.2428, 181.5033
407.7249, 180.7309
408.2071, 180.1357
408.6892, 179.6372
409.1713, 178.6512
409.6534, 177.1037
410.1355, 175.4649
410.6176, 174.2554
411.0998, 173.3723
411.5819, 172.2821
412.0640, 170.9384
412.5461, 169.2381
413.0282, 166.9646
413.5103, 164.1465
413.9925, 160.9260
414.4746, 157.0669
414.9567, 152.9237
415.4388, 149.2179
415.9209, 146.0355
416.4030, 142.7145
416.8852, 138.3679
417.3673, 133.5278
417.8494, 129.0499
418.3315, 125.5169
418.8136, 122.2074
419.2957, 118.5220
419.7779, 114.5746
420.2600, 110.8886
420.7421, 107.7751
421.2242, 104.9920
421.7063, 102.4814
422.1884, 100.3832
422.6706, 98.17764
423.1527, 95.43902
423.6348, 92.52595
424.1169, 90.09964
424.5990, 88.53640
425.0811, 87.17113
425.5633, 85.81325
426.0454, 84.43889
426.5275, 83.20300
427.0096, 82.25156
427.4917, 81.30673
427.9738, 80.07615
428.4560, 78.18449
428.9381, 76.80962
429.4202, 76.20236
429.9023, 76.18865
430.3844, 76.17307
430.8665, 76.15419
431.3487, 76.13757
431.8308, 76.14620
432.3129, 76.18627
432.7950, 76.11349
433.2771, 75.89097
433.7592, 75.65353
434.2414, 75.62999
434.7235, 75.79557
435.2056, 75.84895
435.6877, 75.71590
436.1698, 75.40005
436.6519, 74.79582
437.1341, 73.92323
437.6162, 73.13648
438.0983, 72.93361
438.5804, 72.93171
439.0625, 72.40240
439.5446, 71.11222
440.0268, 69.67166
440.5089, 68.59245
440.9910, 67.76086
441.4731, 66.96101
441.9552, 66.05066
442.4373, 65.16512
442.9195, 64.37385
443.4016, 63.67911
443.8837, 63.06266
444.3658, 62.55366
444.8479, 62.09594
445.3300, 61.64513
445.8122, 61.01373
446.2943, 60.61477
446.7764, 60.64719
447.2585, 60.96345
447.7406, 61.18633
448.2227, 61.12342
448.7049, 61.13011
449.1870, 61.29138
449.6691, 61.60054
450.1512, 62.11689
450.6333, 62.96052
451.1154, 63.87488
451.5976, 64.58730
452.0797, 64.99072
452.5618, 65.54285
453.0439, 66.36980
453.5260, 67.35985
454.0081, 68.17957
454.4903, 68.79640
454.9724, 69.47881
455.4545, 70.49700
455.9366, 71.76579
456.4187, 72.65413
456.9008, 73.06742
457.3830, 73.47342
457.8651, 74.53647
458.3472, 76.05875
458.8293, 77.33068
459.3114, 77.94786
459.7935, 78.39425
460.2757, 79.36068
460.7578, 80.74837
461.2399, 82.07868
461.7220, 82.89484
462.2041, 83.60315
462.6862, 84.57405
463.1684, 85.87663
463.6505, 87.35674
464.1326, 88.85213
464.6147, 90.48618
465.0968, 92.45027
465.5789, 95.05990
466.0611, 97.69183
466.5432, 100.3104
467.0253, 102.8698
467.5074, 105.0537
467.9895, 106.5584
468.4716, 107.8972
468.9538, 109.3478
469.4359, 111.2366
469.9180, 112.4713
470.4001, 112.8618
470.8822, 112.7376
471.3643, 112.6493
471.8465, 112.7828
472.3286, 112.3730
472.8107, 111.0316
473.2928, 108.9770
473.7749, 107.3282
474.2570, 106.1020
474.7392, 105.2448
475.2213, 104.8132
475.7034, 104.7584
476.1855, 104.7214
476.6676, 104.6354
477.1497, 104.6674
477.6319, 105.0798
478.1140, 105.8055
478.5961, 106.6260
479.0782, 107.7314
479.5603, 108.7077
480.0424, 109.0505
480.5246, 108.7951
481.0067, 108.2298
481.4888, 107.4681
481.9709, 106.5186
482.4530, 105.3874
482.9352, 104.0685
483.4173, 102.5838
483.8994, 101.0890
484.3815, 99.39281
484.8636, 97.22160
485.3457, 94.02311
485.8279, 90.85762
486.3100, 87.99815
486.7921, 85.44628
487.2742, 82.98151
487.7563, 80.56808
488.2384, 78.25275
488.7206, 76.07339
489.2027, 74.03361
489.6848, 72.15806
490.1669, 70.49362
490.6490, 68.94382
491.1311, 67.23441
491.6133, 65.30515
492.0954, 63.75267
492.5775, 62.88089
493.0596, 62.49557
493.5417, 61.84153
494.0238, 60.91697
494.5060, 59.98083
494.9881, 59.30370
495.4702, 58.76185
495.9523, 57.95152
496.4344, 56.74984
496.9165, 55.62673
497.3987, 55.08833
497.8808, 54.95816
498.3629, 54.91518
498.8450, 54.80323
499.3271, 54.75321
499.8092, 55.05776
500.2914, 55.59425
500.7735, 55.67429
501.2556, 54.30913
501.7377, 52.94439
502.2198, 52.52169
502.7019, 53.61156
503.1841, 54.41905
503.6662, 54.58846
504.1483, 54.41712
504.6304, 54.24891
505.1125, 54.17413
505.5946, 53.94906
506.0768, 53.43689
506.5589, 52.73380
507.0410, 52.35974
507.5231, 52.43606
508.0052, 52.49898
508.4873, 52.23595
508.9695, 51.64546
509.4516, 51.30778
509.9337, 51.25625
510.4158, 51.33043
510.8979, 51.33887
511.3800, 51.30962
511.8622, 51.37199
512.3443, 51.57471
512.8264, 51.86382
513.3085, 52.25705
513.7906, 52.70054
514.2728, 53.00053
514.7549, 52.95864
515.2370, 52.78520
515.7191, 52.63787
516.2012, 52.52846
516.6833, 52.46517
517.1655, 52.50248
517.6476, 52.56030
518.1297, 52.57288
518.6118, 52.67299
519.0939, 52.54530
519.5760, 51.90866
520.0582, 51.02361
520.5403, 50.49155
521.0224, 50.45759
521.5045, 50.58605
521.9866, 50.83079
522.4688, 51.19232
522.9509, 51.51400
523.4330, 51.84272
523.9151, 52.02746
524.3972, 51.86242
524.8793, 51.33697
525.3615, 51.03130
525.8436, 51.04145
526.3257, 51.15319
526.8078, 51.03925
527.2899, 50.73974
527.7720, 50.43596
528.2542, 50.08502
528.7363, 49.86092
529.2184, 50.12836
529.7005, 50.79538
530.1826, 51.37404
530.6647, 51.59682
531.1469, 51.58030
531.6290, 51.34122
532.1111, 50.79835
532.5932, 50.46191
533.0753, 50.77619
533.5574, 51.29334
534.0396, 51.54364
534.5217, 51.14331
535.0038, 50.82920
535.4859, 50.59193
535.9680, 50.50586
536.4501, 50.88452
536.9323, 52.19524
537.4144, 53.16561
537.8965, 53.16751
538.3786, 52.16729
538.8607, 51.76448
539.3428, 52.09694
539.8250, 52.60970
540.3071, 52.74445
540.7892, 52.55108
541.2713, 52.54955
541.7534, 52.85437
542.2355, 53.27063
542.7177, 53.53329
543.1998, 53.68194
543.6819, 53.83559
544.1640, 54.06797
544.6461, 54.31499
545.1282, 54.51112
545.6104, 54.66412
546.0925, 54.82741
546.5746, 54.92843
547.0567, 55.11879
547.5388, 55.57330
548.0209, 56.46688
548.5031, 57.10146
548.9852, 57.16700
549.4673, 56.98605
549.9494, 56.88718
550.4315, 56.74402
550.9136, 56.90578
551.3958, 57.55785
551.8779, 58.50259
552.3600, 59.18301
552.8421, 59.62928
553.3242, 59.70753
553.8063, 59.15522
554.2885, 58.10942
554.7706, 57.76071
555.2527, 58.16340
555.7348, 58.68917
556.2169, 58.71909
556.6990, 58.44971
557.1812, 58.41117
557.6633, 58.72469
558.1454, 59.13340
558.6275, 59.48259
559.1096, 59.73970
559.5917, 59.85413
560.0739, 59.54047
560.5560, 59.32776
561.0381, 59.61929
561.5202, 60.28036
562.0023, 60.72421
562.4844, 59.98287
562.9666, 59.69789
563.4487, 60.98833
563.9308, 64.47490
564.4129, 66.36156
564.8950, 65.80518
565.3771, 64.56884
565.8593, 64.08915
566.3414, 64.52883
566.8235, 65.05441
567.3056, 65.63364
567.7877, 66.19782
568.2698, 66.53023
568.7520, 66.65903
569.2341, 67.02290
569.7162, 67.96622
570.1983, 69.13246
570.6804, 69.83652
571.1625, 70.13469
571.6447, 70.43684
572.1268, 70.97717
572.6089, 71.67231
573.0910, 72.42791
573.5731, 73.23402
574.0552, 74.15202
574.5374, 75.32935
575.0195, 76.58299
575.5016, 77.74594
575.9837, 78.72527
576.4658, 79.67967
576.9479, 80.55344
577.4301, 81.43129
577.9122, 82.48680
578.3943, 83.76315
578.8764, 85.14754
579.3585, 86.60433
579.8406, 88.14059
580.3228, 89.85383
580.8049, 91.77214
581.2870, 93.67320
581.7691, 95.27366
582.2512, 96.72026
582.7333, 98.69541
583.2155, 101.2824
583.6975, 104.0419
584.1796, 106.6878
584.6617, 109.2524
585.1439, 111.7686
585.6260, 114.0799
586.1081, 116.6520
586.5902, 119.8104
587.0723, 123.4422
587.5544, 127.2570
588.0366, 131.3157
588.5187, 135.4860
589.0008, 139.5040
589.4829, 143.4389
589.9650, 148.3029
590.4471, 154.4696
590.9293, 161.0973
591.4114, 167.6675
591.8935, 174.1003
592.3756, 181.1454
592.8577, 188.7296
593.3398, 197.1748
593.8220, 207.0259
594.3041, 218.1961
594.7862, 229.9259
595.2683, 241.9720
595.7504, 254.9050
596.2325, 269.6688
596.7147, 286.1381
597.1968, 303.6808
597.6789, 321.5888
598.1610, 341.0149
598.6431, 362.7861
599.1252, 386.7892
599.6074, 412.7052
600.0895, 440.9267
600.5716, 470.8147
601.0537, 502.3066
601.5358, 535.2653
602.0179, 569.1527
602.5001, 603.8660
602.9822, 639.7101
603.4643, 676.9518
603.9464, 716.1450
604.4285, 755.6907
604.9106, 795.6396
605.3928, 836.2883
605.8749, 878.6373
606.3570, 922.8703
606.8391, 968.7973
607.3212, 1016.440
607.8033, 1065.530
608.2855, 1116.717
608.7676, 1169.337
609.2497, 1222.935
609.7318, 1277.370
610.2139, 1331.990
610.6960, 1386.265
611.1782, 1440.080
611.6603, 1491.503
612.1424, 1543.347
612.6245, 1590.631
613.1066, 1630.468
613.5887, 1663.448
614.0709, 1688.090
614.5530, 1706.986
615.0351, 1715.463
615.5172, 1708.561
615.9993, 1685.014
616.4814, 1651.339
616.9636, 1608.145
617.4457, 1555.987
617.9278, 1493.326
618.4099, 1420.659
618.8920, 1344.278
619.3741, 1264.733
619.8563, 1183.546
620.3384, 1103.005
620.8205, 1023.552
621.3026, 947.4195
621.7847, 875.0729
622.2668, 806.7676
622.7490, 744.2853
623.2311, 687.4876
623.7132, 635.4324
624.1953, 588.4836
624.6774, 545.8886
625.1595, 507.0652
625.6417, 472.3048
626.1238, 440.5108
626.6059, 412.1510
627.0880, 386.6342
627.5701, 363.4245
628.0522, 342.5306
628.5344, 323.9230
629.0165, 307.8610
629.4986, 293.6698
629.9807, 280.2706
630.4628, 267.5874
630.9449, 255.6082
631.4271, 243.9561
631.9092, 233.0886
632.3913, 223.7564
632.8734, 215.7564
633.3555, 208.1167
633.8376, 199.9857
634.3198, 192.2559
634.8019, 185.4233
635.2840, 179.6064
635.7661, 174.2491
636.2482, 169.5572
636.7303, 165.0248
637.2125, 160.2793
637.6946, 155.1221
638.1767, 150.2593
638.6588, 145.6994
639.1409, 141.4848
639.6230, 137.8560
640.1052, 134.7677
640.5873, 131.7592
641.0694, 128.7604
641.5515, 125.7585
642.0336, 122.6147
642.5157, 119.4830
642.9979, 116.7581
643.4800, 114.9409
643.9621, 113.3781
644.4442, 111.6507
644.9263, 109.7843
645.4084, 108.0179
645.8906, 106.5447
646.3727, 105.1038
646.8548, 103.5631
647.3369, 101.9103
647.8190, 100.2850
648.3011, 98.67406
648.7833, 97.13057
649.2654, 95.72923
649.7475, 94.46270
650.2296, 93.19120
650.7117, 91.87320
651.1938, 90.66158
651.6760, 89.90308
652.1581, 89.43180
652.6402, 88.73347
653.1223, 87.58090
653.6044, 86.35441
654.0865, 85.41134
654.5687, 84.61993
655.0508, 83.72330
655.5329, 82.46077
656.0150, 81.23221
656.4971, 80.14331
656.9792, 79.20296
657.4614, 78.44296
657.9435, 78.04884
658.4256, 77.57259
658.9077, 76.87096
659.3898, 75.94906
659.8719, 74.86509
660.3541, 73.55193
660.8362, 72.39480
661.3183, 71.78480
661.8004, 71.57042
662.2825, 71.07668
662.7646, 70.25263
663.2468, 69.40759
663.7289, 68.77437
