##NAMES=Pyroxferroite
##RRUFFID=R141080
##IDEAL CHEMISTRY=Fe^2+^SiO_3_
##LOCALITY=Caspar quarry, Bellerberg volcano, Ettringen, Mayen, Eifel, Rhineland-Palatinate, Germany
##OWNER=RRUFF
##SOURCE=Ch. and H. Sch√§fer
##DESCRIPTION=Red-brown isolated crystals, associated with colorless tridymite, sanidine, and clinoferrosilite (R141085). Crystal is twinned by 180 deg rotation around (111).
##STATUS=The identification of this mineral has been confirmed by single-crystal X-ray diffraction.
##URL=rruff.info/R141080
8.813672e+001, 2.164864e+002
8.861884e+001, 2.192927e+002
8.910095e+001, 2.221777e+002
8.958307e+001, 2.252346e+002
9.006519e+001, 2.285540e+002
9.054730e+001, 2.326293e+002
9.102942e+001, 2.376987e+002
9.151154e+001, 2.417916e+002
9.199365e+001, 2.423424e+002
9.247577e+001, 2.404325e+002
9.295789e+001, 2.390112e+002
9.344000e+001, 2.400651e+002
9.392212e+001, 2.424101e+002
9.440424e+001, 2.434152e+002
9.488635e+001, 2.430823e+002
9.536847e+001, 2.422750e+002
9.585059e+001, 2.419672e+002
9.633270e+001, 2.421264e+002
9.681482e+001, 2.426275e+002
9.729694e+001, 2.431393e+002
9.777905e+001, 2.437196e+002
9.826117e+001, 2.456493e+002
9.874329e+001, 2.494310e+002
9.922540e+001, 2.541066e+002
9.970752e+001, 2.572384e+002
1.001896e+002, 2.584362e+002
1.006718e+002, 2.594890e+002
1.011539e+002, 2.615064e+002
1.016360e+002, 2.645875e+002
1.021181e+002, 2.681281e+002
1.026002e+002, 2.720013e+002
1.030823e+002, 2.762338e+002
1.035645e+002, 2.810416e+002
1.040466e+002, 2.864414e+002
1.045287e+002, 2.924245e+002
1.050108e+002, 2.990953e+002
1.054929e+002, 3.064947e+002
1.059750e+002, 3.144718e+002
1.064572e+002, 3.236346e+002
1.069393e+002, 3.344434e+002
1.074214e+002, 3.424462e+002
1.079035e+002, 3.456549e+002
1.083856e+002, 3.472028e+002
1.088677e+002, 3.504576e+002
1.093499e+002, 3.566365e+002
1.098320e+002, 3.634058e+002
1.103141e+002, 3.702985e+002
1.107962e+002, 3.773300e+002
1.112783e+002, 3.847773e+002
1.117604e+002, 3.925368e+002
1.122426e+002, 4.008307e+002
1.127247e+002, 4.098624e+002
1.132068e+002, 4.199510e+002
1.136889e+002, 4.305909e+002
1.141710e+002, 4.416729e+002
1.146531e+002, 4.538766e+002
1.151353e+002, 4.651862e+002
1.156174e+002, 4.748282e+002
1.160995e+002, 4.832578e+002
1.165816e+002, 4.917468e+002
1.170637e+002, 5.024853e+002
1.175458e+002, 5.124172e+002
1.180280e+002, 5.194266e+002
1.185101e+002, 5.214247e+002
1.189922e+002, 5.222864e+002
1.194743e+002, 5.239504e+002
1.199564e+002, 5.262029e+002
1.204385e+002, 5.280709e+002
1.209207e+002, 5.281442e+002
1.214028e+002, 5.277899e+002
1.218849e+002, 5.286379e+002
1.223670e+002, 5.332978e+002
1.228491e+002, 5.378096e+002
1.233312e+002, 5.379375e+002
1.238134e+002, 5.338450e+002
1.242955e+002, 5.289683e+002
1.247776e+002, 5.252571e+002
1.252597e+002, 5.227165e+002
1.257418e+002, 5.213533e+002
1.262239e+002, 5.215189e+002
1.267061e+002, 5.227913e+002
1.271882e+002, 5.245731e+002
1.276703e+002, 5.268906e+002
1.281524e+002, 5.295356e+002
1.286345e+002, 5.325186e+002
1.291166e+002, 5.357299e+002
1.295988e+002, 5.386906e+002
1.300809e+002, 5.413194e+002
1.305630e+002, 5.435328e+002
1.310451e+002, 5.449125e+002
1.315272e+002, 5.452756e+002
1.320093e+002, 5.452644e+002
1.324915e+002, 5.458392e+002
1.329736e+002, 5.469976e+002
1.334557e+002, 5.481896e+002
1.339378e+002, 5.489907e+002
1.344199e+002, 5.494299e+002
1.349020e+002, 5.502145e+002
1.353842e+002, 5.514998e+002
1.358663e+002, 5.529601e+002
1.363484e+002, 5.537712e+002
1.368305e+002, 5.537026e+002
1.373126e+002, 5.539374e+002
1.377947e+002, 5.558360e+002
1.382769e+002, 5.599651e+002
1.387590e+002, 5.616248e+002
1.392411e+002, 5.597297e+002
1.397232e+002, 5.551297e+002
1.402053e+002, 5.513743e+002
1.406874e+002, 5.488047e+002
1.411696e+002, 5.463167e+002
1.416517e+002, 5.430750e+002
1.421338e+002, 5.386245e+002
1.426159e+002, 5.346651e+002
1.430980e+002, 5.313701e+002
1.435801e+002, 5.287680e+002
1.440623e+002, 5.267872e+002
1.445444e+002, 5.257430e+002
1.450265e+002, 5.250313e+002
1.455086e+002, 5.241654e+002
1.459907e+002, 5.228325e+002
1.464728e+002, 5.218898e+002
1.469550e+002, 5.217919e+002
1.474371e+002, 5.226600e+002
1.479192e+002, 5.223693e+002
1.484013e+002, 5.198414e+002
1.488834e+002, 5.167924e+002
1.493655e+002, 5.147711e+002
1.498477e+002, 5.142458e+002
1.503298e+002, 5.142546e+002
1.508119e+002, 5.150667e+002
1.512940e+002, 5.170652e+002
1.517761e+002, 5.176606e+002
1.522583e+002, 5.153938e+002
1.527404e+002, 5.121871e+002
1.532225e+002, 5.100438e+002
1.537046e+002, 5.100186e+002
1.541867e+002, 5.102797e+002
1.546688e+002, 5.105540e+002
1.551510e+002, 5.110273e+002
1.556331e+002, 5.107301e+002
1.561152e+002, 5.087813e+002
1.565973e+002, 5.061626e+002
1.570794e+002, 5.042046e+002
1.575615e+002, 5.033399e+002
1.580437e+002, 5.030482e+002
1.585258e+002, 5.031846e+002
1.590079e+002, 5.038217e+002
1.594900e+002, 5.046188e+002
1.599721e+002, 5.059304e+002
1.604542e+002, 5.073015e+002
1.609364e+002, 5.079318e+002
1.614185e+002, 5.067511e+002
1.619006e+002, 5.052887e+002
1.623827e+002, 5.044043e+002
1.628648e+002, 5.043732e+002
1.633469e+002, 5.045758e+002
1.638291e+002, 5.046933e+002
1.643112e+002, 5.048273e+002
1.647933e+002, 5.052238e+002
1.652754e+002, 5.066884e+002
1.657575e+002, 5.080727e+002
1.662396e+002, 5.083760e+002
1.667218e+002, 5.068615e+002
1.672039e+002, 5.052837e+002
1.676860e+002, 5.047549e+002
1.681681e+002, 5.050716e+002
1.686502e+002, 5.055631e+002
1.691323e+002, 5.060235e+002
1.696145e+002, 5.064108e+002
1.700966e+002, 5.066912e+002
1.705787e+002, 5.069023e+002
1.710608e+002, 5.069370e+002
1.715429e+002, 5.066154e+002
1.720250e+002, 5.059890e+002
1.725072e+002, 5.053401e+002
1.729893e+002, 5.046314e+002
1.734714e+002, 5.040417e+002
1.739535e+002, 5.038497e+002
1.744356e+002, 5.042937e+002
1.749177e+002, 5.049492e+002
1.753999e+002, 5.055826e+002
1.758820e+002, 5.061426e+002
1.763641e+002, 5.062188e+002
1.768462e+002, 5.052367e+002
1.773283e+002, 5.035963e+002
1.778104e+002, 5.020185e+002
1.782926e+002, 5.006151e+002
1.787747e+002, 4.994904e+002
1.792568e+002, 4.990699e+002
1.797389e+002, 4.993173e+002
1.802210e+002, 4.993559e+002
1.807031e+002, 4.981571e+002
1.811853e+002, 4.961407e+002
1.816674e+002, 4.944309e+002
1.821495e+002, 4.935162e+002
1.826316e+002, 4.930366e+002
1.831137e+002, 4.922369e+002
1.835958e+002, 4.910973e+002
1.840780e+002, 4.901545e+002
1.845601e+002, 4.901297e+002
1.850422e+002, 4.907980e+002
1.855243e+002, 4.912140e+002
1.860064e+002, 4.910348e+002
1.864885e+002, 4.904050e+002
1.869707e+002, 4.896800e+002
1.874528e+002, 4.888527e+002
1.879349e+002, 4.879388e+002
1.884170e+002, 4.869003e+002
1.888991e+002, 4.857614e+002
1.893812e+002, 4.846756e+002
1.898634e+002, 4.835434e+002
1.903455e+002, 4.825100e+002
1.908276e+002, 4.822065e+002
1.913097e+002, 4.827216e+002
1.917918e+002, 4.834933e+002
1.922739e+002, 4.838910e+002
1.927561e+002, 4.839218e+002
1.932382e+002, 4.839289e+002
1.937203e+002, 4.839962e+002
1.942024e+002, 4.841157e+002
1.946845e+002, 4.843315e+002
1.951666e+002, 4.846756e+002
1.956488e+002, 4.849474e+002
1.961309e+002, 4.848868e+002
1.966130e+002, 4.844708e+002
1.970951e+002, 4.839075e+002
1.975772e+002, 4.829584e+002
1.980593e+002, 4.817545e+002
1.985415e+002, 4.820846e+002
1.990236e+002, 4.844123e+002
1.995057e+002, 4.870702e+002
1.999878e+002, 4.875909e+002
2.004699e+002, 4.856618e+002
2.009520e+002, 4.840855e+002
2.014342e+002, 4.840401e+002
2.019163e+002, 4.854789e+002
2.023984e+002, 4.862605e+002
2.028805e+002, 4.863189e+002
2.033626e+002, 4.858934e+002
2.038447e+002, 4.850273e+002
2.043269e+002, 4.834814e+002
2.048090e+002, 4.826929e+002
2.052911e+002, 4.833759e+002
2.057732e+002, 4.855700e+002
2.062553e+002, 4.872865e+002
2.067374e+002, 4.884278e+002
2.072196e+002, 4.892106e+002
2.077017e+002, 4.898508e+002
2.081838e+002, 4.902444e+002
2.086659e+002, 4.908347e+002
2.091480e+002, 4.920327e+002
2.096301e+002, 4.939776e+002
2.101123e+002, 4.943681e+002
2.105944e+002, 4.925738e+002
2.110765e+002, 4.900500e+002
2.115586e+002, 4.888847e+002
2.120407e+002, 4.894297e+002
2.125228e+002, 4.903451e+002
2.130050e+002, 4.913217e+002
2.134871e+002, 4.923924e+002
2.139692e+002, 4.930551e+002
2.144513e+002, 4.929935e+002
2.149334e+002, 4.928715e+002
2.154155e+002, 4.937846e+002
2.158977e+002, 4.962798e+002
2.163798e+002, 4.984754e+002
2.168619e+002, 4.996307e+002
2.173440e+002, 4.995500e+002
2.178261e+002, 5.000494e+002
2.183082e+002, 5.012828e+002
2.187904e+002, 5.029438e+002
2.192725e+002, 5.044103e+002
2.197546e+002, 5.049847e+002
2.202367e+002, 5.069008e+002
2.207188e+002, 5.109327e+002
2.212009e+002, 5.173635e+002
2.216831e+002, 5.244199e+002
2.221652e+002, 5.326304e+002
2.226473e+002, 5.409962e+002
2.231294e+002, 5.482367e+002
2.236115e+002, 5.550730e+002
2.240936e+002, 5.595230e+002
2.245758e+002, 5.613615e+002
2.250579e+002, 5.607580e+002
2.255400e+002, 5.557682e+002
2.260221e+002, 5.443885e+002
2.265042e+002, 5.303934e+002
2.269863e+002, 5.187409e+002
2.274685e+002, 5.095872e+002
2.279506e+002, 5.022826e+002
2.284327e+002, 4.970190e+002
2.289148e+002, 4.940499e+002
2.293969e+002, 4.907426e+002
2.298790e+002, 4.866676e+002
2.303612e+002, 4.826049e+002
2.308433e+002, 4.795446e+002
2.313254e+002, 4.777959e+002
2.318075e+002, 4.764254e+002
2.322896e+002, 4.752635e+002
2.327717e+002, 4.743313e+002
2.332539e+002, 4.734343e+002
2.337360e+002, 4.726637e+002
2.342181e+002, 4.718724e+002
2.347002e+002, 4.708522e+002
2.351823e+002, 4.693966e+002
2.356644e+002, 4.681025e+002
2.361466e+002, 4.669875e+002
2.366287e+002, 4.660080e+002
2.371108e+002, 4.659417e+002
2.375929e+002, 4.673847e+002
2.380750e+002, 4.692154e+002
2.385571e+002, 4.702430e+002
2.390393e+002, 4.701165e+002
2.395214e+002, 4.698473e+002
2.400035e+002, 4.695312e+002
2.404856e+002, 4.691441e+002
2.409677e+002, 4.691899e+002
2.414498e+002, 4.699228e+002
2.419320e+002, 4.708357e+002
2.424141e+002, 4.714471e+002
2.428962e+002, 4.716167e+002
2.433783e+002, 4.717343e+002
2.438604e+002, 4.719882e+002
2.443425e+002, 4.723671e+002
2.448247e+002, 4.719464e+002
2.453068e+002, 4.701108e+002
2.457889e+002, 4.681001e+002
2.462710e+002, 4.670513e+002
2.467531e+002, 4.676806e+002
2.472352e+002, 4.678347e+002
2.477174e+002, 4.670988e+002
2.481995e+002, 4.655252e+002
2.486816e+002, 4.638510e+002
2.491637e+002, 4.617250e+002
2.496458e+002, 4.599348e+002
2.501279e+002, 4.592324e+002
2.506101e+002, 4.602505e+002
2.510922e+002, 4.610209e+002
2.515743e+002, 4.612465e+002
2.520564e+002, 4.610003e+002
2.525385e+002, 4.607770e+002
2.530206e+002, 4.605648e+002
2.535028e+002, 4.604015e+002
2.539849e+002, 4.602725e+002
2.544670e+002, 4.600273e+002
2.549491e+002, 4.601980e+002
2.554312e+002, 4.611244e+002
2.559133e+002, 4.625347e+002
2.563955e+002, 4.629167e+002
2.568776e+002, 4.615160e+002
2.573597e+002, 4.601909e+002
2.578418e+002, 4.601822e+002
2.583239e+002, 4.620279e+002
2.588061e+002, 4.637249e+002
2.592882e+002, 4.652171e+002
2.597703e+002, 4.664552e+002
2.602524e+002, 4.672130e+002
2.607345e+002, 4.673892e+002
2.612166e+002, 4.673007e+002
2.616988e+002, 4.670001e+002
2.621809e+002, 4.662460e+002
2.626630e+002, 4.662043e+002
2.631451e+002, 4.672474e+002
2.636272e+002, 4.689117e+002
2.641093e+002, 4.697506e+002
2.645915e+002, 4.692869e+002
2.650736e+002, 4.691230e+002
2.655557e+002, 4.704233e+002
2.660378e+002, 4.739712e+002
2.665199e+002, 4.755080e+002
2.670020e+002, 4.741352e+002
2.674842e+002, 4.713824e+002
2.679663e+002, 4.706805e+002
2.684484e+002, 4.727415e+002
2.689305e+002, 4.747751e+002
2.694126e+002, 4.755197e+002
2.698947e+002, 4.747533e+002
2.703769e+002, 4.738759e+002
2.708590e+002, 4.726508e+002
2.713411e+002, 4.715783e+002
2.718232e+002, 4.717171e+002
2.723053e+002, 4.734039e+002
2.727874e+002, 4.749511e+002
2.732696e+002, 4.757543e+002
2.737517e+002, 4.757736e+002
2.742338e+002, 4.753829e+002
2.747159e+002, 4.743839e+002
2.751980e+002, 4.733343e+002
2.756801e+002, 4.732589e+002
2.761623e+002, 4.744197e+002
2.766444e+002, 4.749576e+002
2.771265e+002, 4.739356e+002
2.776086e+002, 4.715078e+002
2.780907e+002, 4.703926e+002
2.785728e+002, 4.708025e+002
2.790550e+002, 4.719157e+002
2.795371e+002, 4.729074e+002
2.800192e+002, 4.737769e+002
2.805013e+002, 4.746318e+002
2.809834e+002, 4.754706e+002
2.814655e+002, 4.763244e+002
2.819477e+002, 4.774182e+002
2.824298e+002, 4.788068e+002
2.829119e+002, 4.801330e+002
2.833940e+002, 4.806395e+002
2.838761e+002, 4.803541e+002
2.843582e+002, 4.813558e+002
2.848404e+002, 4.844282e+002
2.853225e+002, 4.888883e+002
2.858046e+002, 4.926338e+002
2.862867e+002, 4.955599e+002
2.867688e+002, 4.984873e+002
2.872509e+002, 5.023244e+002
2.877331e+002, 5.069107e+002
2.882152e+002, 5.108974e+002
2.886973e+002, 5.141805e+002
2.891794e+002, 5.166016e+002
2.896615e+002, 5.175178e+002
2.901436e+002, 5.169467e+002
2.906258e+002, 5.159987e+002
2.911079e+002, 5.156109e+002
2.915900e+002, 5.155299e+002
2.920721e+002, 5.144781e+002
2.925542e+002, 5.120763e+002
2.930363e+002, 5.092583e+002
2.935185e+002, 5.074018e+002
2.940006e+002, 5.064485e+002
2.944827e+002, 5.059475e+002
2.949648e+002, 5.057183e+002
2.954469e+002, 5.057313e+002
2.959290e+002, 5.059998e+002
2.964112e+002, 5.065888e+002
2.968933e+002, 5.071275e+002
2.973754e+002, 5.071382e+002
2.978575e+002, 5.067006e+002
2.983396e+002, 5.061046e+002
2.988217e+002, 5.056102e+002
2.993039e+002, 5.050139e+002
2.997860e+002, 5.036787e+002
3.002681e+002, 5.015033e+002
3.007502e+002, 4.996763e+002
3.012323e+002, 4.999898e+002
3.017144e+002, 5.016000e+002
3.021966e+002, 5.024641e+002
3.026787e+002, 5.010750e+002
3.031608e+002, 4.989347e+002
3.036429e+002, 4.980521e+002
3.041250e+002, 4.983713e+002
3.046071e+002, 4.986161e+002
3.050893e+002, 4.975321e+002
3.055714e+002, 4.957575e+002
3.060535e+002, 4.943790e+002
3.065356e+002, 4.940791e+002
3.070177e+002, 4.939165e+002
3.074998e+002, 4.928351e+002
3.079820e+002, 4.910169e+002
3.084641e+002, 4.894837e+002
3.089462e+002, 4.888961e+002
3.094283e+002, 4.889196e+002
3.099104e+002, 4.892991e+002
3.103925e+002, 4.903071e+002
3.108747e+002, 4.910527e+002
3.113568e+002, 4.906257e+002
3.118389e+002, 4.893984e+002
3.123210e+002, 4.884131e+002
3.128031e+002, 4.881878e+002
3.132852e+002, 4.883996e+002
3.137674e+002, 4.889014e+002
3.142495e+002, 4.898218e+002
3.147316e+002, 4.905430e+002
3.152137e+002, 4.904760e+002
3.156958e+002, 4.900300e+002
3.161779e+002, 4.899025e+002
3.166601e+002, 4.904875e+002
3.171422e+002, 4.913561e+002
3.176243e+002, 4.924158e+002
3.181064e+002, 4.937182e+002
3.185885e+002, 4.947130e+002
3.190706e+002, 4.949427e+002
3.195528e+002, 4.948573e+002
3.200349e+002, 4.949678e+002
3.205170e+002, 4.953999e+002
3.209991e+002, 4.960558e+002
3.214812e+002, 4.969092e+002
3.219633e+002, 4.979626e+002
3.224455e+002, 4.992079e+002
3.229276e+002, 5.008686e+002
3.234097e+002, 5.025996e+002
3.238918e+002, 5.041424e+002
3.243739e+002, 5.051363e+002
3.248560e+002, 5.062907e+002
3.253382e+002, 5.076185e+002
3.258203e+002, 5.091562e+002
3.263024e+002, 5.110945e+002
3.267845e+002, 5.141445e+002
3.272666e+002, 5.170876e+002
3.277487e+002, 5.193347e+002
3.282309e+002, 5.202939e+002
3.287130e+002, 5.213128e+002
3.291951e+002, 5.221087e+002
3.296772e+002, 5.229714e+002
3.301593e+002, 5.246615e+002
3.306414e+002, 5.276952e+002
3.311236e+002, 5.309456e+002
3.316057e+002, 5.340703e+002
3.320878e+002, 5.370323e+002
3.325699e+002, 5.400231e+002
3.330520e+002, 5.431652e+002
3.335341e+002, 5.462385e+002
3.340163e+002, 5.489121e+002
3.344984e+002, 5.511050e+002
3.349805e+002, 5.530181e+002
3.354626e+002, 5.546360e+002
3.359447e+002, 5.559509e+002
3.364268e+002, 5.574214e+002
3.369090e+002, 5.589897e+002
3.373911e+002, 5.608317e+002
3.378732e+002, 5.633609e+002
3.383553e+002, 5.669856e+002
3.388374e+002, 5.695312e+002
3.393195e+002, 5.702822e+002
3.398017e+002, 5.696972e+002
3.402838e+002, 5.700582e+002
3.407659e+002, 5.716388e+002
3.412480e+002, 5.731565e+002
3.417301e+002, 5.733328e+002
3.422122e+002, 5.720660e+002
3.426944e+002, 5.722440e+002
3.431765e+002, 5.747054e+002
3.436586e+002, 5.779370e+002
3.441407e+002, 5.784352e+002
3.446228e+002, 5.761457e+002
3.451049e+002, 5.737799e+002
3.455871e+002, 5.729736e+002
3.460692e+002, 5.734413e+002
3.465513e+002, 5.736827e+002
3.470334e+002, 5.736769e+002
3.475155e+002, 5.733713e+002
3.479977e+002, 5.725169e+002
3.484798e+002, 5.712252e+002
3.489619e+002, 5.700939e+002
3.494440e+002, 5.695730e+002
3.499261e+002, 5.693047e+002
3.504082e+002, 5.684277e+002
3.508904e+002, 5.669378e+002
3.513725e+002, 5.655364e+002
3.518546e+002, 5.651000e+002
3.523367e+002, 5.651577e+002
3.528188e+002, 5.647016e+002
3.533009e+002, 5.632501e+002
3.537831e+002, 5.613875e+002
3.542652e+002, 5.596318e+002
3.547473e+002, 5.579849e+002
3.552294e+002, 5.564719e+002
3.557115e+002, 5.554184e+002
3.561936e+002, 5.543766e+002
3.566758e+002, 5.527573e+002
3.571579e+002, 5.502103e+002
3.576400e+002, 5.477784e+002
3.581221e+002, 5.463063e+002
3.586042e+002, 5.454902e+002
3.590863e+002, 5.446810e+002
3.595685e+002, 5.442037e+002
3.600506e+002, 5.432118e+002
3.605327e+002, 5.408805e+002
3.610148e+002, 5.369855e+002
3.614969e+002, 5.333597e+002
3.619790e+002, 5.308779e+002
3.624612e+002, 5.290209e+002
3.629433e+002, 5.271956e+002
3.634254e+002, 5.254633e+002
3.639075e+002, 5.235018e+002
3.643896e+002, 5.208448e+002
3.648717e+002, 5.176027e+002
3.653539e+002, 5.151339e+002
3.658360e+002, 5.145914e+002
3.663181e+002, 5.143115e+002
3.668002e+002, 5.132822e+002
3.672823e+002, 5.111285e+002
3.677644e+002, 5.085568e+002
3.682466e+002, 5.050352e+002
3.687287e+002, 5.010700e+002
3.692108e+002, 4.981276e+002
3.696929e+002, 4.970628e+002
3.701750e+002, 4.961092e+002
3.706571e+002, 4.947681e+002
3.711393e+002, 4.930700e+002
3.716214e+002, 4.908136e+002
3.721035e+002, 4.875441e+002
3.725856e+002, 4.840381e+002
3.730677e+002, 4.813586e+002
3.735498e+002, 4.797871e+002
3.740320e+002, 4.784010e+002
3.745141e+002, 4.769457e+002
3.749962e+002, 4.754665e+002
3.754783e+002, 4.747059e+002
3.759604e+002, 4.751114e+002
3.764425e+002, 4.752891e+002
3.769247e+002, 4.739180e+002
3.774068e+002, 4.707902e+002
3.778889e+002, 4.677556e+002
3.783710e+002, 4.648904e+002
3.788531e+002, 4.624448e+002
3.793352e+002, 4.612435e+002
3.798174e+002, 4.613944e+002
3.802995e+002, 4.615640e+002
3.807816e+002, 4.606998e+002
3.812637e+002, 4.590387e+002
3.817458e+002, 4.586566e+002
3.822279e+002, 4.599948e+002
3.827101e+002, 4.610918e+002
3.831922e+002, 4.587895e+002
3.836743e+002, 4.537921e+002
3.841564e+002, 4.495810e+002
3.846385e+002, 4.479419e+002
3.851206e+002, 4.476817e+002
3.856028e+002, 4.466323e+002
3.860849e+002, 4.448358e+002
3.865670e+002, 4.430845e+002
3.870491e+002, 4.422210e+002
3.875312e+002, 4.417627e+002
3.880133e+002, 4.409096e+002
3.884955e+002, 4.394208e+002
3.889776e+002, 4.375927e+002
3.894597e+002, 4.354013e+002
3.899418e+002, 4.330519e+002
3.904239e+002, 4.311229e+002
3.909060e+002, 4.302614e+002
3.913882e+002, 4.297226e+002
3.918703e+002, 4.289371e+002
3.923524e+002, 4.277945e+002
3.928345e+002, 4.266005e+002
3.933166e+002, 4.257375e+002
3.937987e+002, 4.248291e+002
3.942809e+002, 4.234151e+002
3.947630e+002, 4.207298e+002
3.952451e+002, 4.181219e+002
3.957272e+002, 4.160116e+002
3.962093e+002, 4.144040e+002
3.966914e+002, 4.129745e+002
3.971736e+002, 4.120934e+002
3.976557e+002, 4.110799e+002
3.981378e+002, 4.095049e+002
3.986199e+002, 4.062566e+002
3.991020e+002, 4.038277e+002
3.995841e+002, 4.028327e+002
4.000663e+002, 4.026743e+002
4.005484e+002, 4.019233e+002
4.010305e+002, 4.003155e+002
4.015126e+002, 3.984330e+002
4.019947e+002, 3.962845e+002
4.024768e+002, 3.936791e+002
4.029590e+002, 3.920343e+002
4.034411e+002, 3.918938e+002
4.039232e+002, 3.920977e+002
4.044053e+002, 3.912520e+002
4.048874e+002, 3.889967e+002
4.053695e+002, 3.869545e+002
4.058517e+002, 3.855194e+002
4.063338e+002, 3.845257e+002
4.068159e+002, 3.831739e+002
4.072980e+002, 3.814315e+002
4.077801e+002, 3.794966e+002
4.082622e+002, 3.774688e+002
4.087444e+002, 3.753503e+002
4.092265e+002, 3.732656e+002
4.097086e+002, 3.711876e+002
4.101907e+002, 3.692165e+002
4.106728e+002, 3.674996e+002
4.111549e+002, 3.660138e+002
