##NAMES=Pyromorphite
##RRUFFID=R050085
##IDEAL CHEMISTRY=Pb^2+^_5_(PO_4_)_3_Cl
##LOCALITY=Bunker Hill mine, Shoshone County, Idaho, USA
##OWNER=RRUFF
##SOURCE=Eugene Schlepp
##DESCRIPTION=Group of orange hexagonal prisms
##STATUS=The identification of this mineral has been confirmed by X-ray diffraction and chemical analysis
##URL=rruff.info/R050085
##MEASURED CHEMISTRY=Pb_5.00_(P_0.96_As_0.04_O_4_)_3_Cl_1.00_
154.2855, 998.8058
154.7676, 1010.547
155.2497, 1016.821
155.7318, 1022.947
156.2139, 1030.601
156.6960, 1038.069
157.1782, 1042.166
157.6603, 1041.995
158.1424, 1043.449
158.6245, 1051.322
159.1066, 1064.366
159.5887, 1080.558
160.0709, 1099.526
160.5530, 1121.292
161.0351, 1147.311
161.5172, 1179.142
161.9993, 1209.010
162.4814, 1230.238
162.9636, 1245.512
163.4457, 1259.184
163.9278, 1269.287
164.4099, 1279.534
164.8920, 1297.427
165.3741, 1325.000
165.8563, 1354.493
166.3384, 1384.721
166.8205, 1413.317
167.3026, 1435.209
167.7847, 1443.610
168.2668, 1445.586
168.7490, 1458.306
169.2311, 1487.718
169.7132, 1514.446
170.1953, 1524.671
170.6774, 1526.247
171.1595, 1531.435
171.6417, 1547.450
172.1238, 1569.990
172.6059, 1588.153
173.0880, 1600.255
173.5701, 1611.181
174.0522, 1621.998
174.5344, 1633.466
175.0165, 1646.659
175.4986, 1662.404
175.9807, 1680.091
176.4628, 1698.998
176.9449, 1721.857
177.4271, 1740.545
177.9092, 1751.557
178.3913, 1757.329
178.8734, 1760.113
179.3555, 1759.160
179.8376, 1757.692
180.3197, 1766.681
180.8019, 1794.690
181.2840, 1817.975
181.7661, 1826.225
182.2482, 1827.123
182.7303, 1830.628
183.2124, 1842.545
183.6946, 1858.555
184.1767, 1865.185
184.6588, 1854.492
185.1409, 1848.216
185.6230, 1852.285
186.1051, 1863.046
186.5873, 1877.446
187.0694, 1894.877
187.5515, 1912.859
188.0336, 1924.944
188.5157, 1928.643
188.9978, 1929.982
189.4800, 1926.603
189.9621, 1923.425
190.4442, 1926.863
190.9263, 1940.299
191.4084, 1958.365
191.8905, 1967.268
192.3727, 1959.694
192.8548, 1955.850
193.3369, 1960.696
193.8190, 1969.512
194.3011, 1977.912
194.7832, 1984.160
195.2654, 1989.352
195.7475, 1995.866
196.2296, 2004.733
196.7117, 2013.120
197.1938, 2016.108
197.6759, 2020.886
198.1581, 2037.115
198.6402, 2067.582
199.1223, 2101.065
199.6044, 2114.487
200.0865, 2091.567
200.5686, 2081.123
201.0508, 2095.070
201.5329, 2115.998
202.0150, 2131.020
202.4971, 2136.519
202.9792, 2136.887
203.4613, 2138.536
203.9435, 2140.282
204.4256, 2146.359
204.9077, 2160.821
205.3898, 2176.289
205.8719, 2187.101
206.3540, 2192.462
206.8362, 2196.358
207.3183, 2204.082
207.8004, 2216.131
208.2825, 2230.967
208.7646, 2252.560
209.2467, 2273.556
209.7289, 2288.450
210.2110, 2297.265
210.6931, 2305.117
211.1752, 2319.177
211.6573, 2343.362
212.1395, 2358.760
212.6216, 2354.309
213.1037, 2351.029
213.5858, 2358.722
214.0679, 2377.591
214.5500, 2402.677
215.0322, 2429.936
215.5143, 2459.840
215.9964, 2488.295
216.4785, 2512.676
216.9606, 2538.185
217.4427, 2570.286
217.9249, 2605.951
218.4070, 2636.541
218.8891, 2653.084
219.3712, 2654.918
219.8533, 2666.919
220.3354, 2700.804
220.8176, 2734.023
221.2997, 2761.304
221.7818, 2783.222
222.2639, 2800.879
222.7460, 2813.156
223.2281, 2821.903
223.7103, 2846.135
224.1924, 2910.172
224.6745, 2963.720
225.1566, 2989.585
225.6387, 2999.877
226.1208, 3013.688
226.6030, 3042.504
227.0851, 3081.709
227.5672, 3111.239
228.0493, 3118.279
228.5314, 3133.106
229.0135, 3165.197
229.4957, 3205.590
229.9778, 3244.663
230.4599, 3278.162
230.9420, 3307.135
231.4241, 3333.421
231.9062, 3350.828
232.3884, 3376.737
232.8705, 3421.420
233.3526, 3469.733
233.8347, 3506.673
234.3168, 3527.574
234.7989, 3543.439
235.2811, 3574.198
235.7632, 3628.505
236.2453, 3677.550
236.7274, 3715.555
237.2095, 3750.888
237.6916, 3791.139
238.1738, 3836.862
238.6559, 3880.861
239.1380, 3912.946
239.6201, 3929.060
240.1022, 3948.424
240.5843, 3970.008
241.0665, 3996.324
241.5486, 4031.320
242.0307, 4073.675
242.5128, 4116.850
242.9949, 4153.823
243.4770, 4183.837
243.9592, 4217.750
244.4413, 4268.169
244.9234, 4310.443
245.4055, 4329.651
245.8876, 4332.431
246.3697, 4336.462
246.8519, 4355.302
247.3340, 4387.199
247.8161, 4414.858
248.2982, 4433.204
248.7803, 4454.297
249.2624, 4484.180
249.7446, 4519.105
250.2267, 4553.597
250.7088, 4586.442
251.1909, 4615.388
251.6730, 4631.285
252.1551, 4622.700
252.6373, 4624.873
253.1194, 4658.680
253.6015, 4703.843
254.0836, 4736.961
254.5657, 4747.640
255.0478, 4750.888
255.5300, 4773.691
256.0121, 4823.195
256.4942, 4864.828
256.9763, 4880.380
257.4584, 4888.917
257.9406, 4903.339
258.4227, 4926.324
258.9048, 4954.284
259.3869, 4989.711
259.8690, 5033.750
260.3511, 5057.814
260.8333, 5036.955
261.3154, 5011.438
261.7975, 5012.969
262.2796, 5041.235
262.7617, 5070.678
263.2438, 5079.796
263.7260, 5072.956
264.2081, 5076.853
264.6902, 5100.705
265.1723, 5125.643
265.6544, 5141.101
266.1365, 5147.341
266.6187, 5143.774
267.1008, 5120.471
267.5829, 5088.908
268.0650, 5076.310
268.5471, 5088.900
269.0292, 5102.178
269.5114, 5097.151
269.9935, 5081.430
270.4756, 5066.735
270.9577, 5052.894
271.4398, 5043.914
271.9219, 5048.437
272.4041, 5067.006
272.8862, 5080.683
273.3683, 5081.191
273.8504, 5069.498
274.3325, 5048.782
274.8146, 5014.441
275.2968, 4979.567
275.7789, 4949.919
276.2610, 4926.246
276.7431, 4913.578
277.2252, 4918.760
277.7073, 4928.902
278.1895, 4920.991
278.6716, 4891.958
279.1537, 4864.106
279.6358, 4847.976
280.1179, 4837.683
280.6000, 4821.477
281.0822, 4795.629
281.5643, 4770.566
282.0464, 4760.524
282.5285, 4767.024
283.0106, 4769.666
283.4927, 4764.625
283.9749, 4755.763
284.4570, 4746.171
284.9391, 4736.184
285.4212, 4725.350
285.9033, 4713.813
286.3854, 4701.337
286.8676, 4684.489
287.3497, 4658.562
287.8318, 4633.218
288.3139, 4610.664
288.7960, 4592.187
289.2781, 4581.465
289.7603, 4581.300
290.2424, 4589.102
290.7245, 4594.088
291.2066, 4597.837
291.6887, 4597.131
292.1708, 4589.306
292.6530, 4577.508
293.1351, 4563.577
293.6172, 4548.367
294.0993, 4536.199
294.5814, 4535.625
295.0635, 4558.468
295.5457, 4570.428
296.0278, 4564.706
296.5099, 4553.850
296.9920, 4543.924
297.4741, 4537.127
297.9562, 4535.741
298.4384, 4542.796
298.9205, 4559.696
299.4026, 4575.569
299.8847, 4593.517
300.3668, 4607.405
300.8489, 4614.533
301.3310, 4615.912
301.8131, 4612.810
302.2953, 4604.763
302.7774, 4594.307
303.2595, 4595.552
303.7416, 4621.774
304.2237, 4640.059
304.7058, 4635.657
305.1880, 4624.187
305.6701, 4624.961
306.1522, 4645.570
306.6343, 4671.449
307.1164, 4674.401
307.5985, 4644.069
308.0807, 4629.495
308.5628, 4658.939
309.0449, 4693.309
309.5270, 4708.339
310.0091, 4702.471
310.4912, 4692.039
310.9734, 4693.495
311.4555, 4705.013
311.9376, 4705.011
312.4197, 4684.227
312.9018, 4662.881
313.3839, 4651.402
313.8661, 4648.877
314.3482, 4653.675
314.8303, 4670.099
315.3124, 4691.185
315.7945, 4704.018
316.2766, 4707.396
316.7588, 4709.484
317.2409, 4714.483
317.7230, 4720.929
318.2051, 4727.352
318.6872, 4737.166
319.1693, 4740.547
319.6515, 4722.455
320.1336, 4689.079
320.6157, 4669.604
321.0978, 4677.923
321.5799, 4698.197
322.0620, 4706.223
322.5442, 4702.052
323.0263, 4691.585
323.5084, 4667.533
323.9905, 4641.849
324.4726, 4631.760
324.9547, 4640.062
325.4369, 4654.446
325.9190, 4663.340
326.4011, 4666.024
326.8832, 4672.160
327.3653, 4691.422
327.8474, 4705.246
328.3296, 4699.588
328.8117, 4679.124
329.2938, 4658.090
329.7759, 4644.315
330.2580, 4637.111
330.7401, 4633.863
331.2223, 4642.711
331.7044, 4645.380
332.1865, 4636.214
332.6686, 4621.666
333.1507, 4608.035
333.6328, 4597.437
334.1150, 4588.937
334.5971, 4581.313
335.0792, 4575.258
335.5613, 4568.262
336.0434, 4554.621
336.5255, 4545.109
337.0077, 4548.048
337.4898, 4560.793
337.9719, 4574.746
338.4540, 4585.089
338.9361, 4590.816
339.4182, 4581.085
339.9004, 4540.152
340.3825, 4507.171
340.8646, 4500.118
341.3467, 4504.192
341.8288, 4499.270
342.3109, 4476.367
342.7931, 4448.784
343.2752, 4436.757
343.7573, 4442.064
344.2394, 4450.986
344.7215, 4470.308
345.2036, 4483.608
345.6858, 4475.303
346.1679, 4445.153
346.6500, 4411.835
347.1321, 4384.542
347.6142, 4363.106
348.0963, 4346.745
348.5785, 4335.130
349.0606, 4329.555
349.5427, 4338.237
350.0248, 4354.737
350.5069, 4358.893
350.9890, 4337.434
351.4712, 4310.061
351.9533, 4291.558
352.4354, 4281.032
352.9175, 4274.626
353.3996, 4272.947
353.8817, 4271.502
354.3639, 4256.129
354.8460, 4217.611
355.3281, 4187.595
355.8102, 4178.711
356.2923, 4179.508
356.7744, 4178.671
357.2566, 4173.284
357.7387, 4162.611
358.2208, 4145.257
358.7029, 4119.708
359.1850, 4095.358
359.6671, 4072.406
360.1493, 4050.344
360.6314, 4027.525
361.1135, 4005.471
361.5956, 3988.454
362.0777, 3979.587
362.5598, 3975.230
363.0420, 3961.329
363.5241, 3928.333
364.0062, 3901.086
364.4883, 3882.199
364.9704, 3869.700
365.4525, 3864.208
365.9347, 3864.961
366.4168, 3866.101
366.8989, 3863.487
367.3810, 3857.578
367.8631, 3838.298
368.3452, 3791.195
368.8274, 3747.320
369.3095, 3725.395
369.7916, 3718.432
370.2737, 3709.020
370.7558, 3685.452
371.2379, 3657.674
371.7201, 3646.466
372.2022, 3654.380
372.6843, 3653.506
373.1664, 3621.947
373.6485, 3581.290
374.1306, 3565.959
374.6128, 3583.841
375.0949, 3602.279
375.5770, 3606.525
376.0591, 3599.000
376.5412, 3581.721
377.0233, 3553.939
377.5055, 3525.296
377.9876, 3505.538
378.4697, 3495.829
378.9518, 3487.307
379.4339, 3482.673
379.9160, 3476.732
380.3982, 3464.930
380.8803, 3449.131
381.3624, 3434.592
381.8445, 3424.053
382.3266, 3417.046
382.8087, 3412.107
383.2909, 3413.769
383.7730, 3411.467
384.2551, 3402.771
384.7372, 3391.547
385.2193, 3379.299
385.7014, 3367.200
386.1836, 3357.801
386.6657, 3353.629
387.1478, 3354.741
387.6299, 3360.716
388.1120, 3382.408
388.5941, 3396.032
389.0763, 3388.869
389.5584, 3370.075
390.0405, 3354.720
390.5226, 3350.081
391.0047, 3348.660
391.4868, 3337.212
391.9690, 3314.494
392.4511, 3293.974
392.9332, 3279.361
393.4153, 3268.412
393.8974, 3259.833
394.3795, 3253.478
394.8617, 3245.989
395.3438, 3237.955
395.8259, 3227.014
396.3080, 3208.008
396.7901, 3180.225
397.2722, 3149.183
397.7544, 3115.565
398.2365, 3082.103
398.7186, 3060.058
399.2007, 3056.956
399.6828, 3056.709
400.1649, 3058.232
400.6471, 3057.376
401.1292, 3043.397
401.6113, 3012.570
402.0934, 2979.950
402.5755, 2968.611
403.0576, 2988.605
403.5398, 2999.939
404.0219, 2998.939
404.5040, 2994.101
404.9861, 2989.956
405.4682, 2985.688
405.9503, 2977.064
406.4325, 2960.292
406.9146, 2939.710
407.3967, 2932.846
407.8788, 2951.001
408.3609, 2959.484
408.8430, 2942.679
409.3252, 2920.306
409.8073, 2907.554
410.2894, 2906.725
410.7715, 2910.242
411.2536, 2911.902
411.7357, 2912.388
412.2179, 2916.921
412.7000, 2929.745
413.1821, 2937.144
413.6642, 2922.712
414.1463, 2896.447
414.6284, 2878.646
415.1106, 2879.403
415.5927, 2881.721
416.0748, 2870.273
416.5569, 2849.858
417.0390, 2836.270
417.5211, 2835.777
418.0033, 2840.912
418.4854, 2841.305
418.9675, 2836.785
419.4496, 2826.953
419.9317, 2805.741
420.4138, 2784.193
420.8960, 2770.878
421.3781, 2764.099
421.8602, 2755.552
422.3423, 2738.967
422.8244, 2718.302
423.3065, 2711.808
423.7887, 2738.668
424.2708, 2749.321
424.7529, 2726.877
425.2350, 2695.687
425.7171, 2674.899
426.1992, 2667.388
426.6814, 2664.675
427.1635, 2659.926
427.6456, 2653.149
428.1277, 2644.041
428.6098, 2629.549
429.0919, 2618.704
429.5741, 2616.761
430.0562, 2621.071
430.5383, 2629.468
431.0204, 2644.899
431.5025, 2656.831
431.9846, 2653.659
432.4668, 2639.243
432.9489, 2627.955
433.4310, 2624.265
433.9131, 2621.760
434.3952, 2611.537
434.8773, 2592.390
435.3595, 2579.730
435.8416, 2577.535
436.3237, 2579.259
436.8058, 2584.211
437.2879, 2589.799
437.7701, 2590.180
438.2522, 2582.125
438.7343, 2568.563
439.2164, 2556.871
439.6985, 2547.796
440.1806, 2539.436
440.6628, 2528.726
441.1449, 2520.957
441.6270, 2521.810
442.1091, 2529.419
442.5912, 2535.887
443.0733, 2534.249
443.5555, 2527.231
444.0376, 2526.762
444.5197, 2536.807
445.0018, 2542.244
445.4839, 2531.382
445.9660, 2516.048
446.4482, 2509.018
446.9303, 2513.114
447.4124, 2515.584
447.8945, 2507.380
448.3766, 2492.252
448.8587, 2475.915
449.3409, 2458.552
449.8230, 2447.383
450.3051, 2450.196
450.7872, 2465.300
451.2693, 2473.925
451.7514, 2469.858
452.2336, 2467.064
452.7157, 2473.469
453.1978, 2482.683
453.6799, 2484.980
454.1620, 2477.815
454.6441, 2466.898
455.1263, 2459.469
455.6084, 2456.127
456.0905, 2452.925
456.5726, 2449.696
457.0547, 2446.827
457.5368, 2444.514
458.0190, 2442.627
458.5011, 2440.717
458.9832, 2438.415
459.4653, 2436.906
459.9474, 2438.736
460.4295, 2443.976
460.9117, 2447.528
461.3938, 2449.055
461.8759, 2447.641
462.3580, 2441.130
462.8401, 2430.559
463.3222, 2421.304
463.8044, 2412.655
464.2865, 2407.575
464.7686, 2412.955
465.2507, 2425.283
465.7328, 2429.586
466.2149, 2418.146
466.6971, 2399.640
467.1792, 2391.127
467.6613, 2398.182
468.1434, 2404.153
468.6255, 2411.585
469.1076, 2415.794
469.5898, 2412.336
470.0719, 2402.921
470.5540, 2391.653
471.0361, 2380.118
471.5182, 2371.062
472.0003, 2374.906
472.4825, 2399.638
472.9646, 2415.363
473.4467, 2407.875
473.9288, 2394.725
474.4109, 2385.495
474.8930, 2381.027
475.3752, 2379.484
475.8573, 2380.554
476.3394, 2383.580
476.8215, 2388.637
477.3036, 2395.739
477.7857, 2399.969
478.2679, 2397.800
478.7500, 2392.083
479.2321, 2390.546
479.7142, 2397.263
480.1963, 2397.665
480.6784, 2380.478
481.1606, 2361.500
481.6427, 2358.752
482.1248, 2370.461
482.6069, 2378.022
483.0890, 2365.723
483.5711, 2339.606
484.0533, 2334.234
484.5354, 2366.690
485.0175, 2392.200
485.4996, 2405.234
485.9817, 2409.195
486.4638, 2402.804
486.9460, 2387.928
487.4281, 2375.038
487.9102, 2374.982
488.3923, 2383.069
488.8744, 2384.143
489.3565, 2376.800
489.8387, 2369.892
490.3208, 2367.678
490.8029, 2368.907
491.2850, 2371.289
491.7671, 2376.660
492.2492, 2377.969
492.7314, 2366.620
493.2135, 2353.433
493.6956, 2353.676
494.1777, 2366.931
494.6598, 2377.748
495.1419, 2373.185
495.6241, 2356.878
496.1062, 2352.829
496.5883, 2377.689
497.0704, 2391.389
497.5525, 2380.444
498.0346, 2363.938
498.5168, 2358.311
498.9989, 2364.780
499.4810, 2372.881
499.9631, 2375.155
500.4452, 2372.126
500.9273, 2363.895
501.4095, 2348.139
501.8916, 2337.071
502.3737, 2337.584
502.8558, 2345.178
503.3379, 2352.909
503.8200, 2361.126
504.3022, 2367.357
504.7843, 2368.786
505.2664, 2368.803
505.7485, 2372.799
506.2306, 2380.209
506.7127, 2383.821
507.1949, 2377.922
507.6770, 2365.671
508.1591, 2360.967
508.6412, 2369.140
509.1233, 2377.457
509.6054, 2386.263
510.0876, 2394.169
510.5697, 2400.415
511.0518, 2404.798
511.5339, 2407.103
512.0161, 2406.618
512.4982, 2404.299
512.9803, 2402.788
513.4624, 2402.263
513.9445, 2401.346
514.4266, 2398.118
514.9088, 2395.600
515.3909, 2397.782
515.8730, 2404.922
516.3551, 2413.020
516.8372, 2423.827
517.3193, 2432.907
517.8015, 2435.629
518.2836, 2432.686
518.7657, 2427.696
519.2478, 2422.463
519.7299, 2416.869
520.2120, 2410.412
520.6942, 2400.817
521.1763, 2394.791
521.6584, 2394.383
522.1405, 2395.173
522.6226, 2391.714
523.1047, 2387.512
523.5869, 2392.840
524.0690, 2416.436
524.5511, 2444.792
525.0332, 2453.149
525.5153, 2441.661
525.9974, 2435.810
526.4796, 2444.581
526.9617, 2455.959
527.4438, 2455.285
527.9259, 2444.267
528.4080, 2437.649
528.8901, 2441.218
529.3723, 2446.030
529.8544, 2446.062
530.3365, 2443.651
530.8186, 2444.419
531.3007, 2450.160
531.7828, 2456.152
532.2650, 2454.678
532.7471, 2443.102
533.2292, 2440.604
533.7113, 2455.993
534.1934, 2470.658
534.6755, 2482.245
535.1577, 2488.510
535.6398, 2484.150
536.1219, 2466.367
536.6040, 2450.080
537.0861, 2452.693
537.5682, 2468.099
538.0504, 2475.522
538.5325, 2471.581
539.0146, 2467.043
539.4967, 2469.936
539.9788, 2478.475
540.4609, 2483.623
540.9431, 2485.906
541.4252, 2484.611
541.9073, 2473.827
542.3894, 2463.119
542.8715, 2463.772
543.3536, 2475.119
543.8358, 2486.643
544.3179, 2490.056
544.8000, 2486.810
545.2821, 2482.386
545.7642, 2474.793
546.2463, 2471.581
546.7285, 2480.739
547.2106, 2490.464
547.6926, 2490.774
548.1747, 2482.044
548.6569, 2473.139
549.1390, 2464.177
549.6211, 2459.629
550.1032, 2468.896
550.5853, 2488.235
551.0674, 2500.329
551.5496, 2497.552
552.0317, 2488.746
552.5138, 2488.838
552.9959, 2502.887
553.4780, 2508.579
553.9601, 2500.962
554.4423, 2491.584
554.9244, 2482.060
555.4065, 2474.765
555.8886, 2473.717
556.3707, 2480.539
556.8528, 2489.423
557.3350, 2492.988
557.8171, 2491.982
558.2992, 2492.812
558.7813, 2496.731
559.2634, 2500.368
559.7455, 2501.528
560.2277, 2500.645
560.7098, 2499.070
561.1919, 2493.688
561.6740, 2493.078
562.1561, 2506.410
562.6382, 2521.889
563.1204, 2525.279
563.6025, 2516.857
564.0846, 2508.378
564.5667, 2509.132
565.0488, 2515.113
565.5309, 2508.306
566.0131, 2478.727
566.4952, 2461.625
566.9773, 2471.494
567.4594, 2489.255
567.9415, 2509.402
568.4236, 2528.535
568.9058, 2535.103
569.3879, 2513.556
569.8700, 2486.942
570.3521, 2478.396
570.8342, 2484.425
571.3163, 2495.105
571.7985, 2508.014
572.2806, 2518.704
572.7627, 2521.486
573.2448, 2515.584
573.7269, 2509.030
574.2090, 2500.027
574.6912, 2492.456
575.1733, 2488.597
575.6554, 2485.990
576.1375, 2482.356
576.6196, 2477.005
577.1017, 2469.611
577.5839, 2457.592
578.0660, 2443.305
578.5481, 2436.082
579.0302, 2437.038
579.5123, 2435.807
579.9944, 2425.241
580.4766, 2411.901
580.9587, 2409.575
581.4408, 2420.498
581.9229, 2430.375
582.4050, 2439.529
582.8871, 2444.968
583.3693, 2443.583
583.8514, 2437.023
584.3335, 2428.117
584.8156, 2418.156
585.2977, 2408.922
585.7798, 2402.849
586.2620, 2399.908
586.7441, 2401.438
587.2262, 2411.314
587.7083, 2419.393
588.1904, 2421.719
588.6725, 2418.013
589.1547, 2405.449
589.6368, 2378.505
590.1189, 2356.310
590.6010, 2351.949
591.0831, 2355.380
591.5652, 2355.739
592.0474, 2351.303
592.5295, 2340.701
593.0116, 2321.609
593.4937, 2299.899
593.9758, 2295.552
594.4579, 2320.647
594.9401, 2334.401
595.4222, 2325.082
595.9043, 2311.094
596.3864, 2299.264
596.8685, 2290.055
597.3506, 2283.491
597.8328, 2280.695
598.3149, 2278.430
598.7970, 2273.875
599.2791, 2267.545
599.7612, 2259.739
600.2433, 2250.471
600.7255, 2244.382
601.2076, 2247.285
601.6897, 2256.751
602.1718, 2252.798
602.6539, 2221.294
603.1360, 2195.341
603.6182, 2176.730
604.1003, 2164.966
604.5824, 2163.186
605.0645, 2168.553
605.5466, 2171.441
606.0287, 2165.364
606.5109, 2155.133
606.9930, 2148.421
607.4751, 2144.541
607.9572, 2137.740
608.4393, 2126.004
608.9214, 2113.240
609.4036, 2103.736
609.8857, 2097.488
610.3678, 2088.241
610.8499, 2072.255
611.3320, 2058.343
611.8141, 2050.414
612.2963, 2044.328
612.7784, 2035.863
613.2605, 2024.700
613.7426, 2013.771
614.2247, 2006.849
614.7068, 2000.436
615.1890, 1982.562
615.6711, 1952.331
616.1532, 1932.343
616.6353, 1933.711
617.1174, 1939.391
617.5995, 1927.920
618.0817, 1898.841
618.5638, 1880.137
619.0459, 1884.823
619.5280, 1886.261
620.0101, 1868.152
620.4922, 1844.004
620.9744, 1833.322
621.4565, 1838.156
621.9386, 1842.674
622.4207, 1831.755
622.9028, 1809.502
623.3849, 1790.941
623.8671, 1775.583
624.3492, 1767.680
624.8313, 1773.558
625.3134, 1781.714
625.7955, 1775.852
626.2776, 1756.927
626.7598, 1744.381
627.2419, 1750.696
627.7240, 1753.404
628.2061, 1736.439
628.6882, 1710.641
629.1703, 1692.562
629.6525, 1685.721
630.1346, 1681.776
630.6167, 1672.138
631.0988, 1658.470
631.5809, 1650.865
632.0630, 1651.309
632.5452, 1650.085
633.0273, 1645.011
633.5094, 1636.196
633.9915, 1622.465
634.4736, 1604.178
634.9557, 1587.874
635.4379, 1575.771
635.9200, 1565.151
636.4021, 1553.570
636.8842, 1542.831
637.3663, 1537.023
637.8484, 1536.463
638.3306, 1535.707
638.8127, 1528.714
639.2948, 1516.922
639.7769, 1511.008
640.2590, 1514.902
640.7411, 1509.929
641.2233, 1482.624
641.7054, 1452.157
642.1875, 1439.611
642.6696, 1443.494
643.1517, 1446.129
643.6339, 1445.033
644.1160, 1440.565
644.5981, 1429.437
645.0802, 1416.436
645.5623, 1410.925
646.0444, 1413.623
646.5266, 1413.932
647.0087, 1400.661
647.4908, 1377.624
647.9729, 1362.996
648.4550, 1358.313
648.9371, 1356.831
649.4193, 1361.143
649.9014, 1363.398
650.3835, 1353.982
