##NAMES=Pyrope
##RRUFFID=R060445
##IDEAL CHEMISTRY=Mg_3_Al_2_(SiO_4_)_3_
##LOCALITY=Tanzania
##OWNER=RRUFF
##SOURCE=Gemological Institute of America
##DESCRIPTION=Deep red water worn pebble, variety rhodolite
##STATUS=The identification of this mineral has been confirmed by X-ray diffraction and chemical analysis
##URL=rruff.info/R060445
##MEASURED CHEMISTRY=(Mg_1.83_Fe_1.08_Ca_0.07_Mn_0.02_)_Î£=3_Al_2.00_(Si_1.00_O_4_)_3_
90.92609, 0.0000000E+00
91.40820, 2.970896
91.89032, 2.617601
92.37244, 2.821219
92.85455, 3.486602
93.33667, 4.045094
93.81879, 3.958970
94.30090, 3.423237
94.78302, 3.034775
95.26514, 2.973168
95.74725, 3.094977
96.22937, 3.088309
96.71149, 2.945551
97.19360, 2.761759
97.67572, 2.603621
98.15784, 2.474156
98.63995, 2.402901
99.12207, 2.428314
99.60419, 2.532382
100.0863, 2.528751
100.5684, 2.367164
101.0505, 2.198535
101.5327, 2.249827
102.0148, 2.598822
102.4969, 2.904918
102.9790, 3.045346
103.4611, 2.983901
103.9432, 2.942344
104.4253, 2.898048
104.9075, 2.886472
105.3896, 2.987107
105.8717, 3.272820
106.3538, 3.573622
106.8359, 3.840677
107.3180, 4.130706
107.8002, 4.281574
108.2823, 4.228177
108.7644, 4.023728
109.2465, 3.860839
109.7286, 3.746414
110.2107, 3.671315
110.6929, 3.629729
111.1750, 3.367294
111.6571, 3.422172
112.1392, 4.046029
112.6213, 5.142991
113.1034, 5.994216
113.5856, 6.283847
114.0677, 6.406210
114.5498, 6.640779
115.0319, 7.102324
115.5140, 7.630745
115.9961, 8.193196
116.4783, 8.787845
116.9604, 9.385775
117.4425, 9.931403
117.9246, 10.49626
118.4067, 11.15374
118.8888, 12.08806
119.3710, 13.01178
119.8531, 13.74339
120.3352, 14.25465
120.8173, 14.72030
121.2994, 15.14505
121.7815, 15.59861
122.2637, 16.20505
122.7458, 17.22125
123.2279, 18.31647
123.7100, 19.11146
124.1921, 19.50142
124.6742, 19.86309
125.1564, 20.51752
125.6385, 21.42541
126.1206, 22.46698
126.6027, 23.62463
127.0848, 24.85220
127.5669, 26.06892
128.0491, 27.27260
128.5312, 28.44153
129.0133, 29.57986
129.4954, 30.67011
129.9775, 31.64601
130.4596, 32.36764
130.9418, 32.90393
131.4239, 33.60448
131.9060, 34.67750
132.3881, 35.82093
132.8702, 36.16274
133.3523, 35.64954
133.8345, 35.07596
134.3166, 35.14486
134.7987, 35.85538
135.2808, 36.64577
135.7629, 37.45042
136.2450, 38.24736
136.7272, 38.84168
137.2093, 39.15632
137.6914, 39.51449
138.1735, 40.30214
138.6556, 41.59632
139.1377, 42.90766
139.6199, 44.18578
140.1020, 45.41903
140.5841, 46.34345
141.0662, 46.85280
141.5483, 47.18221
142.0304, 47.58699
142.5126, 48.00353
142.9947, 48.62224
143.4768, 49.41798
143.9589, 50.38563
144.4410, 51.05588
144.9231, 51.35846
145.4053, 51.43289
145.8874, 51.48659
146.3695, 51.49859
146.8516, 51.52126
147.3337, 51.57127
147.8158, 51.66009
148.2980, 51.75588
148.7801, 51.98015
149.2622, 52.19508
149.7443, 52.11407
150.2264, 51.38173
150.7085, 50.67511
151.1907, 50.24819
151.6728, 50.41832
152.1549, 50.31611
152.6370, 49.76659
153.1191, 48.92651
153.6012, 48.19498
154.0834, 47.63978
154.5655, 47.16769
155.0476, 46.73052
155.5297, 46.30657
156.0118, 45.94869
156.4939, 45.70234
156.9761, 45.53349
157.4582, 45.33867
157.9403, 45.15108
158.4224, 44.89601
158.9045, 44.52259
159.3866, 43.83223
159.8688, 43.24758
160.3509, 42.92408
160.8330, 42.82041
161.3151, 42.74735
161.7972, 42.63136
162.2793, 42.52298
162.7615, 42.46060
163.2436, 42.45438
163.7257, 42.49593
164.2078, 42.61806
164.6899, 42.80530
165.1720, 42.94824
165.6541, 43.03966
166.1363, 43.04352
166.6184, 42.92424
167.1005, 42.38519
167.5826, 41.94139
168.0647, 42.01799
168.5468, 42.57392
169.0290, 43.07132
169.5111, 43.05720
169.9932, 42.81411
170.4753, 42.71504
170.9574, 43.10097
171.4395, 43.56385
171.9217, 43.63494
172.4038, 43.31582
172.8859, 43.19953
173.3680, 44.10647
173.8501, 45.49781
174.3322, 46.43998
174.8144, 46.07978
175.2965, 45.27941
175.7786, 45.10422
176.2607, 45.57911
176.7428, 46.26740
177.2249, 46.78305
177.7071, 47.20477
178.1892, 47.73935
178.6713, 48.67010
179.1534, 49.71768
179.6355, 50.34558
180.1176, 50.50256
180.5998, 50.61322
181.0819, 51.25054
181.5640, 52.25716
182.0461, 53.09530
182.5282, 53.48787
183.0103, 53.52905
183.4925, 53.34478
183.9746, 52.89549
184.4567, 52.44499
184.9388, 52.37304
185.4209, 52.62352
185.9030, 52.86011
186.3852, 52.86009
186.8673, 52.70856
187.3494, 52.73874
187.8315, 53.00492
188.3136, 53.31282
188.7957, 53.38786
189.2779, 53.24356
189.7600, 53.06548
190.2421, 52.96564
190.7242, 52.92182
191.2063, 52.73745
191.6884, 52.32544
192.1706, 51.96990
192.6527, 52.21209
193.1348, 53.06105
193.6169, 53.90019
194.0990, 54.35885
194.5811, 54.46874
195.0633, 54.78539
195.5454, 55.38279
196.0275, 56.09352
196.5096, 56.53504
196.9917, 56.67712
197.4738, 56.91109
197.9560, 57.46553
198.4381, 58.33773
198.9202, 59.24987
199.4023, 60.21286
199.8844, 61.17591
200.3665, 61.95637
200.8487, 62.50483
201.3308, 63.19343
201.8129, 64.34004
202.2950, 66.00752
202.7771, 67.28689
203.2592, 68.08076
203.7414, 68.55929
204.2235, 69.00919
204.7056, 69.34977
205.1877, 69.94888
205.6698, 71.09936
206.1519, 72.91819
206.6341, 74.52567
207.1162, 75.87193
207.5983, 76.99123
208.0804, 78.03323
208.5625, 79.12813
209.0446, 79.72031
209.5268, 79.37181
210.0089, 77.81756
210.4910, 76.63181
210.9731, 76.03477
211.4552, 75.70045
211.9373, 74.89091
212.4195, 73.59109
212.9016, 71.88143
213.3837, 69.65849
213.8658, 66.64008
214.3479, 64.16245
214.8300, 62.43285
215.3121, 61.13502
215.7943, 59.41385
216.2764, 56.98078
216.7585, 54.75924
217.2406, 53.20650
217.7227, 52.57976
218.2048, 51.84667
218.6870, 51.00305
219.1691, 50.04889
219.6512, 48.92045
220.1333, 47.45520
220.6154, 46.10762
221.0975, 45.05530
221.5797, 44.37828
222.0618, 43.80445
222.5439, 43.38203
223.0260, 43.04236
223.5081, 42.59004
223.9902, 41.89243
224.4724, 41.32206
224.9545, 41.08512
225.4366, 41.35436
225.9187, 41.44901
226.4008, 41.33454
226.8829, 41.06334
227.3651, 40.71770
227.8472, 40.17351
228.3293, 39.75555
228.8114, 39.61966
229.2935, 39.88557
229.7757, 40.05132
230.2578, 40.02661
230.7399, 39.94287
231.2220, 40.09848
231.7041, 40.72702
232.1862, 41.21386
232.6684, 41.27802
233.1505, 40.69897
233.6326, 40.41767
234.1147, 40.53788
234.5968, 40.89896
235.0789, 41.21426
235.5611, 41.46774
236.0432, 41.70110
236.5253, 41.93505
237.0074, 42.17809
237.4895, 42.38242
237.9716, 42.56611
238.4538, 42.70070
238.9359, 42.71782
239.4180, 42.48383
239.9001, 42.35458
240.3822, 42.49440
240.8643, 43.01263
241.3465, 43.26238
241.8286, 43.06483
242.3107, 42.72470
242.7928, 42.70043
243.2749, 43.21329
243.7570, 43.65788
244.2392, 43.84046
244.7213, 43.70126
245.2034, 43.66664
245.6855, 43.76883
246.1676, 43.94809
246.6497, 44.13184
247.1319, 44.31507
247.6140, 44.51893
248.0961, 44.79971
248.5782, 45.19464
249.0603, 45.28839
249.5424, 44.86327
250.0246, 44.34612
250.5067, 44.21023
250.9888, 44.59468
251.4709, 45.09970
251.9530, 45.73169
252.4351, 46.51609
252.9173, 46.89964
253.3994, 46.69280
253.8815, 46.30992
254.3636, 46.15973
254.8457, 46.35712
255.3278, 46.52904
255.8100, 46.56973
256.2921, 46.48678
256.7742, 46.58527
257.2563, 46.92295
257.7384, 47.36320
258.2205, 47.77570
258.7026, 48.10814
259.1848, 48.58290
259.6669, 49.39338
260.1490, 50.44334
260.6311, 50.75135
261.1132, 49.96370
261.5953, 49.01513
262.0775, 48.63198
262.5596, 49.01414
263.0417, 49.36533
263.5238, 49.58751
264.0059, 49.70855
264.4880, 49.87573
264.9702, 50.10040
265.4523, 50.34533
265.9344, 50.61167
266.4165, 50.94624
266.8986, 51.11521
267.3807, 51.01491
267.8629, 50.76818
268.3450, 50.82846
268.8271, 51.34613
269.3092, 51.80341
269.7913, 51.86263
270.2734, 51.40458
270.7556, 51.12752
271.2377, 51.05545
271.7198, 51.18797
272.2019, 51.61397
272.6840, 52.46643
273.1661, 53.16109
273.6483, 53.33456
274.1304, 52.89978
274.6125, 52.66899
275.0946, 52.69695
275.5767, 52.87281
276.0588, 52.98105
276.5410, 52.98736
277.0231, 53.09628
277.5052, 53.44685
277.9873, 54.04535
278.4694, 54.48616
278.9515, 54.74225
279.4337, 54.89351
279.9158, 55.05235
280.3979, 55.22298
280.8800, 55.34821
281.3621, 55.40812
281.8442, 55.40435
282.3264, 55.33970
282.8085, 55.21072
283.2906, 55.03727
283.7727, 54.78321
284.2548, 54.44689
284.7369, 54.28211
285.2191, 54.44598
285.7012, 54.82980
286.1833, 54.95213
286.6654, 54.77905
287.1475, 54.57262
287.6296, 54.66780
288.1118, 55.02017
288.5939, 55.12432
289.0760, 54.70553
289.5581, 54.08321
290.0402, 54.18510
290.5223, 55.03587
291.0045, 55.87224
291.4866, 55.94955
291.9687, 55.45183
292.4508, 55.29258
292.9329, 55.73097
293.4150, 56.42765
293.8972, 56.78180
294.3793, 56.82221
294.8614, 56.87979
295.3435, 57.27613
295.8256, 57.86499
296.3077, 58.18740
296.7899, 58.11764
297.2720, 57.97159
297.7541, 58.22647
298.2362, 58.80140
298.7183, 59.34021
299.2004, 59.42304
299.6826, 59.38041
300.1647, 59.97723
300.6468, 61.36505
301.1289, 62.76337
301.6110, 63.25761
302.0931, 63.11219
302.5753, 63.04039
303.0574, 63.53527
303.5395, 64.21798
304.0216, 64.50304
304.5037, 64.37078
304.9858, 64.30348
305.4680, 64.80424
305.9501, 65.63399
306.4322, 66.37711
306.9143, 66.69604
307.3964, 67.00621
307.8785, 67.80860
308.3607, 69.04654
308.8428, 70.20211
309.3249, 70.69125
309.8070, 70.99170
310.2891, 71.68592
310.7712, 73.19931
311.2534, 74.82425
311.7355, 76.08929
312.2176, 77.06440
312.6997, 77.96949
313.1818, 78.62646
313.6639, 79.41381
314.1461, 80.69750
314.6282, 82.74049
315.1103, 84.85540
315.5924, 86.83178
316.0745, 88.62487
316.5566, 90.17190
317.0388, 91.59672
317.5209, 92.63626
318.0030, 93.08581
318.4851, 92.81503
318.9672, 92.40067
319.4493, 91.96676
319.9315, 91.52585
320.4136, 91.08819
320.8957, 90.63007
321.3778, 90.20523
321.8599, 89.75485
322.3420, 89.25060
322.8242, 89.05479
323.3063, 89.27090
323.7884, 89.81367
324.2705, 90.60873
324.7526, 91.73756
325.2347, 93.02977
325.7169, 94.55358
326.1990, 96.28519
326.6811, 97.78764
327.1632, 98.69096
327.6453, 99.58823
328.1274, 100.8065
328.6096, 102.2340
329.0917, 104.1467
329.5738, 106.8136
330.0559, 109.9799
330.5380, 112.8764
331.0201, 115.3918
331.5023, 117.7567
331.9844, 119.9994
332.4665, 121.8119
332.9486, 124.2195
333.4307, 127.3283
333.9128, 130.9682
334.3950, 134.8425
334.8771, 139.2150
335.3592, 143.3792
335.8413, 146.9657
336.3234, 149.8900
336.8055, 153.2797
337.2877, 157.1969
337.7698, 161.4431
338.2519, 166.0241
338.7340, 171.1376
339.2161, 175.6078
339.6982, 178.8749
340.1803, 181.2441
340.6624, 184.5120
341.1446, 188.9462
341.6267, 193.5231
342.1088, 197.6237
342.5909, 201.2088
343.0730, 204.3926
343.5551, 206.9549
344.0373, 209.3606
344.5194, 212.5604
345.0015, 216.5908
345.4836, 221.2064
345.9657, 226.4014
346.4478, 232.1067
346.9300, 237.9015
347.4121, 243.7831
347.8942, 249.8555
348.3763, 256.3293
348.8584, 263.1882
349.3405, 270.4756
349.8227, 278.4884
350.3048, 286.8929
350.7869, 294.7822
351.2690, 302.1048
351.7511, 309.8281
352.2332, 319.1643
352.7154, 329.4812
353.1975, 339.5045
353.6796, 349.4120
354.1617, 358.2528
354.6438, 365.0496
355.1259, 369.8433
355.6081, 372.8650
356.0902, 374.3985
356.5723, 374.1987
357.0544, 371.9505
357.5365, 367.4822
358.0186, 361.2498
358.5008, 353.1631
358.9829, 343.5383
359.4650, 333.0582
359.9471, 321.9603
360.4292, 310.1696
360.9113, 297.2444
361.3935, 283.0502
361.8756, 269.4071
362.3577, 256.9956
362.8398, 245.5802
363.3219, 234.8919
363.8040, 224.5724
364.2862, 215.2504
364.7683, 207.3218
365.2504, 200.7124
365.7325, 194.5809
366.2146, 188.8079
366.6967, 183.3661
367.1789, 178.2381
367.6610, 172.8834
368.1431, 168.4787
368.6252, 165.3970
369.1073, 163.3388
369.5894, 161.3823
370.0716, 159.5693
370.5537, 157.7993
371.0358, 156.0535
371.5179, 154.4079
372.0000, 152.5193
372.4821, 150.2044
372.9643, 147.7888
373.4464, 145.7690
373.9285, 144.4516
374.4106, 142.9273
374.8927, 141.0662
375.3748, 138.8434
375.8570, 135.9024
376.3391, 132.0929
376.8212, 127.8267
377.3033, 123.2121
377.7854, 118.1649
378.2675, 113.6208
378.7497, 109.7678
379.2318, 106.3936
379.7139, 102.8884
380.1960, 99.27973
380.6781, 95.57849
381.1602, 91.66545
381.6424, 87.63199
382.1245, 84.11280
382.6066, 81.15342
383.0887, 78.51306
383.5708, 75.84324
384.0529, 73.19614
384.5351, 70.69164
385.0172, 68.34795
385.4993, 66.23096
385.9814, 64.44896
386.4635, 63.00481
386.9456, 61.63511
387.4278, 60.08052
387.9099, 58.49150
388.3920, 57.09985
388.8741, 56.01925
389.3562, 55.07495
389.8383, 54.13359
390.3205, 53.19292
390.8026, 52.27359
391.2847, 51.44311
391.7668, 50.60318
392.2489, 49.60773
392.7310, 48.38658
393.2132, 47.33112
393.6953, 46.74328
394.1774, 46.40427
394.6595, 46.04668
395.1416, 45.62641
395.6237, 45.14376
396.1059, 44.52126
396.5880, 43.77853
397.0701, 43.20745
397.5522, 42.92753
398.0343, 42.80304
398.5164, 42.76123
398.9986, 43.14287
399.4807, 43.15255
399.9628, 42.52245
400.4449, 41.52480
400.9270, 40.78241
401.4091, 40.40459
401.8913, 40.15244
402.3734, 39.98077
402.8555, 39.91677
403.3376, 39.75842
403.8197, 39.40625
404.3018, 39.07540
404.7840, 39.01971
405.2661, 39.31391
405.7482, 39.65022
406.2303, 40.06956
406.7124, 40.46717
407.1945, 40.32764
407.6767, 39.55737
408.1588, 38.70963
408.6409, 38.10368
409.1230, 37.74040
409.6051, 37.63796
410.0872, 37.86322
410.5694, 38.15753
411.0515, 38.08025
411.5336, 37.68917
412.0157, 37.34325
412.4978, 37.26363
412.9799, 37.31834
413.4621, 37.20624
413.9442, 36.93137
414.4263, 36.69960
414.9084, 36.72580
415.3905, 36.89484
415.8727, 37.04346
416.3548, 37.20685
416.8369, 37.20625
417.3190, 36.72924
417.8011, 35.95070
418.2832, 35.32678
418.7654, 35.12759
419.2475, 35.13810
419.7296, 35.31250
420.2117, 35.70964
420.6938, 35.84815
421.1759, 35.17202
421.6581, 34.28802
422.1402, 33.83202
422.6223, 34.42921
423.1044, 34.97447
423.5865, 35.19576
424.0686, 35.11916
424.5508, 34.99049
425.0329, 34.69007
425.5150, 34.45700
425.9971, 34.41248
426.4792, 34.69221
426.9613, 34.88456
427.4435, 35.00262
427.9256, 35.02504
428.4077, 34.89479
428.8898, 34.51798
429.3719, 34.18929
429.8540, 33.96117
430.3362, 33.83753
430.8183, 33.93322
431.3004, 34.33434
431.7825, 34.70642
432.2646, 34.73278
432.7467, 34.41303
433.2289, 34.09437
433.7110, 33.78241
434.1931, 33.57310
434.6752, 33.73346
435.1573, 34.22874
435.6394, 34.68079
436.1216, 34.88852
436.6036, 34.91470
437.0858, 34.88163
437.5679, 34.79121
438.0500, 34.66419
438.5321, 34.41292
439.0142, 34.15668
439.4963, 34.12539
439.9785, 34.56823
440.4606, 35.00566
440.9427, 34.98543
441.4248, 34.63202
441.9069, 34.31096
442.3890, 34.09956
442.8712, 34.05083
443.3533, 34.29329
443.8354, 34.94007
444.3175, 35.36286
444.7996, 35.10249
445.2817, 34.61384
445.7639, 34.37024
446.2460, 34.82827
446.7281, 35.12725
447.2102, 35.02564
447.6923, 34.58213
448.1744, 34.23056
448.6566, 33.92420
449.1387, 33.75953
449.6208, 33.81857
450.1029, 34.24508
450.5850, 34.43511
451.0671, 34.24550
451.5493, 33.96427
452.0314, 34.03522
452.5135, 34.54296
452.9956, 35.04380
453.4777, 35.45924
453.9598, 35.76804
454.4420, 35.84798
454.9241, 35.68243
455.4062, 35.43853
455.8883, 35.20387
456.3704, 34.98750
456.8525, 34.82375
457.3347, 34.70958
457.8168, 34.68655
458.2989, 34.87986
458.7810, 35.22100
459.2631, 35.50151
459.7452, 35.62154
460.2274, 35.64350
460.7095, 35.50507
461.1916, 35.25370
461.6737, 35.27455
462.1558, 36.26106
462.6379, 37.38192
463.1201, 37.80311
463.6022, 37.04870
464.0843, 36.34344
464.5664, 36.22295
465.0485, 36.46092
465.5306, 36.69647
466.0128, 36.80246
466.4949, 36.93631
466.9770, 37.14180
467.4591, 37.42154
467.9412, 37.74102
468.4233, 38.16059
468.9055, 38.56927
469.3876, 38.89772
469.8697, 39.06746
470.3518, 39.33708
470.8339, 39.76510
471.3160, 40.26145
471.7982, 40.66670
472.2803, 40.97521
472.7624, 41.20419
473.2445, 41.27041
473.7266, 41.24758
474.2087, 41.66718
474.6909, 42.57683
475.1730, 43.50219
475.6551, 43.95174
476.1372, 44.04682
476.6193, 44.28808
477.1014, 44.74627
477.5836, 45.36747
478.0657, 46.16922
478.5478, 47.09407
479.0299, 47.96177
479.5120, 48.58905
479.9941, 49.19889
480.4763, 50.00810
480.9584, 51.00695
481.4405, 52.04060
481.9226, 53.04756
482.4047, 54.04101
482.8868, 55.02832
483.3690, 55.97190
483.8511, 56.96915
484.3332, 58.15964
484.8153, 59.39454
485.2974, 60.45673
485.7795, 61.42231
486.2617, 62.07984
486.7438, 62.42978
487.2259, 62.46809
487.7080, 62.01583
488.1901, 60.77930
488.6722, 59.43005
489.1544, 58.38347
489.6365, 57.76974
490.1186, 56.94210
490.6007, 55.74465
491.0828, 54.52708
491.5649, 53.85142
492.0471, 53.74065
492.5292, 53.77378
493.0113, 53.84937
493.4934, 53.95605
493.9755, 54.01366
494.4576, 54.02959
494.9398, 54.19160
495.4219, 54.64326
495.9040, 55.33667
496.3861, 56.22065
496.8682, 57.33990
497.3503, 58.42103
497.8325, 59.04509
498.3146, 59.52995
498.7967, 60.38264
499.2788, 62.17611
499.7609, 64.02666
500.2430, 65.35675
500.7252, 66.31774
501.2073, 67.62578
501.6894, 69.76629
502.1715, 72.06467
502.6536, 74.24967
503.1357, 76.29480
503.6179, 78.20060
504.1000, 80.04745
504.5821, 81.70693
505.0642, 83.06802
505.5463, 84.17832
506.0284, 84.89872
506.5106, 85.27808
506.9927, 85.22055
507.4748, 84.29769
507.9569, 82.37597
508.4390, 80.22782
508.9211, 78.31896
509.4033, 76.57001
509.8854, 74.13828
510.3675, 70.93250
510.8496, 67.81422
511.3317, 65.78273
511.8138, 64.51138
512.2960, 63.14311
512.7781, 61.39063
513.2602, 59.61599
513.7423, 58.13488
514.2244, 56.92080
514.7065, 55.90895
515.1887, 55.18574
515.6708, 54.55899
516.1529, 53.85884
516.6350, 53.08583
517.1171, 52.52250
517.5992, 52.30399
518.0814, 52.30975
518.5635, 52.49456
519.0456, 53.20816
519.5277, 53.50548
520.0098, 53.09814
520.4919, 52.35996
520.9741, 51.80829
521.4562, 51.38887
521.9383, 51.29795
522.4204, 51.72243
522.9025, 52.53602
523.3846, 52.89630
523.8668, 52.72001
524.3489, 52.42707
524.8310, 52.21045
525.3131, 52.08009
525.7952, 52.14229
526.2773, 52.41305
526.7595, 52.80561
527.2416, 53.38977
527.7237, 54.01907
528.2058, 54.29803
528.6879, 53.95890
529.1700, 53.43492
529.6522, 53.05619
530.1343, 52.82790
530.6164, 52.75278
531.0985, 52.91273
531.5806, 53.16657
532.0627, 53.45296
532.5449, 53.76913
533.0270, 54.05023
533.5091, 54.10175
533.9912, 54.21982
534.4733, 54.61773
534.9554, 55.76159
535.4376, 56.53989
535.9197, 56.66185
536.4018, 56.55495
536.8839, 56.98394
537.3660, 58.13252
537.8481, 59.32688
538.3303, 60.37416
538.8124, 61.32715
539.2945, 62.50618
539.7766, 63.92540
540.2587, 65.44900
540.7408, 66.93824
541.2230, 68.45655
541.7051, 70.17779
542.1872, 72.11366
542.6693, 74.25142
543.1514, 76.71371
543.6335, 79.36059
544.1157, 81.99657
544.5978, 84.52539
545.0799, 87.06882
545.5620, 89.60721
546.0441, 92.20040
546.5262, 94.99563
547.0084, 98.05811
547.4905, 101.3114
547.9726, 104.8374
548.4547, 108.6428
548.9368, 112.4113
549.4189, 115.7981
549.9011, 119.4025
550.3832, 123.5874
550.8653, 128.5609
551.3474, 133.6277
551.8295, 138.6487
552.3116, 143.8392
552.7938, 149.5461
553.2759, 155.8125
553.7580, 162.1764
554.2401, 168.5707
554.7222, 174.9370
555.2043, 181.0243
555.6865, 186.8271
556.1686, 192.8639
556.6507, 199.8802
557.1328, 207.1321
557.6149, 213.9386
558.0970, 220.2690
558.5792, 225.2185
559.0613, 228.1477
559.5434, 229.3350
560.0255, 229.0520
560.5076, 227.4986
560.9897, 224.2426
561.4719, 218.7228
561.9540, 211.4665
562.4361, 203.4486
562.9182, 194.5301
563.4003, 185.0358
563.8824, 174.5582
564.3646, 163.4036
564.8467, 153.1381
565.3288, 143.8911
565.8109, 135.2211
566.2930, 126.7366
566.7751, 118.4555
567.2573, 110.9603
567.7394, 104.2075
568.2215, 98.15556
568.7036, 92.74031
569.1857, 87.95247
569.6678, 83.53652
570.1500, 79.45288
570.6321, 75.81033
571.1142, 73.04414
571.5963, 70.86134
572.0784, 68.61102
572.5605, 65.61974
573.0427, 62.78674
573.5248, 60.70543
574.0069, 59.30723
574.4890, 57.94158
574.9711, 56.30250
575.4532, 54.76612
575.9354, 53.56454
576.4175, 52.80945
576.8996, 52.03362
577.3817, 51.20321
577.8638, 50.39431
578.3459, 49.64788
578.8281, 48.95447
579.3102, 48.43348
579.7923, 48.16695
580.2744, 47.97588
580.7565, 47.41142
581.2386, 46.50763
581.7208, 45.88709
582.2029, 45.93969
582.6850, 46.31010
583.1671, 46.36066
583.6492, 46.13155
584.1313, 45.86206
584.6134, 45.66674
585.0955, 45.52212
585.5776, 45.39243
586.0598, 45.26811
586.5419, 45.22845
