##NAMES=Pyromorphite
##RRUFFID=R060285
##IDEAL CHEMISTRY=Pb^2+^_5_(PO_4_)_3_Cl
##LOCALITY=Les Farges mine, Correze Ussel, France
##OWNER=RRUFF
##SOURCE=Herb Obodda
##DESCRIPTION=Aggregate of green hexagonal prisms
##STATUS=The identification of this mineral has been confirmed by X-ray diffraction and chemical analysis
##URL=rruff.info/R060285
##MEASURED CHEMISTRY=Pb_5.00_((P_0.99_As_0.01_)_Î£=1_O_4_)_3_Cl_1.00_
175.3447, 7542.413
175.8268, 7557.503
176.3090, 7575.783
176.7911, 7598.919
177.2732, 7623.380
177.7553, 7643.154
178.2374, 7655.759
178.7195, 7664.112
179.2017, 7671.568
179.6838, 7678.138
180.1659, 7683.447
180.6480, 7684.105
181.1301, 7683.212
181.6122, 7688.660
182.0944, 7706.632
182.5765, 7729.188
183.0586, 7742.419
183.5407, 7746.226
184.0228, 7748.142
184.5049, 7756.846
184.9871, 7769.790
185.4692, 7777.247
185.9513, 7774.228
186.4334, 7764.565
186.9155, 7756.886
187.3976, 7751.345
187.8798, 7746.440
188.3619, 7741.712
188.8440, 7736.780
189.3261, 7729.307
189.8082, 7717.564
190.2903, 7702.655
190.7725, 7688.852
191.2546, 7676.340
191.7367, 7662.987
192.2188, 7644.638
192.7009, 7621.482
193.1830, 7600.637
193.6652, 7586.227
194.1473, 7576.763
194.6294, 7563.706
195.1115, 7546.607
195.5936, 7527.410
196.0757, 7507.695
196.5579, 7487.369
197.0400, 7469.080
197.5221, 7454.074
198.0042, 7442.287
198.4863, 7431.754
198.9684, 7422.461
199.4506, 7414.688
199.9327, 7409.729
200.4148, 7407.954
200.8969, 7405.424
201.3790, 7400.261
201.8611, 7392.363
202.3433, 7384.234
202.8254, 7375.701
203.3075, 7366.930
203.7896, 7358.114
204.2717, 7348.913
204.7538, 7340.468
205.2360, 7333.664
205.7181, 7328.759
206.2002, 7322.079
206.6823, 7312.737
207.1644, 7302.624
207.6465, 7295.628
208.1287, 7292.718
208.6108, 7289.974
209.0929, 7285.337
209.5750, 7278.159
210.0571, 7273.549
210.5392, 7272.755
211.0214, 7273.696
211.5035, 7271.655
211.9856, 7265.815
212.4677, 7259.786
212.9498, 7255.417
213.4319, 7253.406
213.9141, 7250.090
214.3962, 7244.019
214.8783, 7237.462
215.3604, 7236.276
215.8425, 7242.312
216.3246, 7249.176
216.8068, 7254.597
217.2889, 7259.229
217.7710, 7258.892
218.2531, 7250.693
218.7352, 7238.722
219.2173, 7233.724
219.6995, 7239.924
220.1816, 7244.760
220.6637, 7241.599
221.1458, 7226.081
221.6279, 7215.455
222.1100, 7211.888
222.5922, 7212.701
223.0743, 7210.689
223.5564, 7205.124
224.0385, 7198.427
224.5206, 7191.112
225.0027, 7180.819
225.4849, 7176.892
225.9670, 7182.730
226.4491, 7194.089
226.9312, 7199.284
227.4133, 7194.369
227.8954, 7189.592
228.3776, 7190.240
228.8597, 7199.816
229.3418, 7205.707
229.8239, 7206.584
230.3060, 7203.707
230.7881, 7200.329
231.2703, 7194.471
231.7524, 7190.557
232.2345, 7191.127
232.7166, 7199.353
233.1987, 7204.267
233.6808, 7205.064
234.1630, 7202.735
234.6451, 7199.817
235.1272, 7196.534
235.6093, 7192.708
236.0914, 7188.440
236.5735, 7184.289
237.0557, 7178.867
237.5378, 7171.069
238.0199, 7162.635
238.5020, 7157.965
238.9841, 7158.890
239.4662, 7161.077
239.9484, 7162.755
240.4305, 7163.615
240.9126, 7164.603
241.3947, 7165.785
241.8768, 7166.920
242.3589, 7167.233
242.8411, 7165.232
243.3232, 7164.351
243.8053, 7166.289
244.2874, 7172.738
244.7695, 7177.720
245.2516, 7181.337
245.7338, 7183.459
246.2159, 7183.479
246.6980, 7179.750
247.1801, 7176.631
247.6622, 7175.847
248.1443, 7178.001
248.6265, 7181.286
249.1086, 7186.985
249.5907, 7193.326
250.0728, 7195.962
250.5549, 7191.333
251.0370, 7188.996
251.5192, 7193.831
252.0013, 7209.839
252.4834, 7218.638
252.9655, 7216.435
253.4476, 7209.051
253.9297, 7207.488
254.4119, 7214.209
254.8940, 7221.966
255.3761, 7228.637
255.8582, 7234.591
256.3403, 7237.780
256.8224, 7237.220
257.3046, 7234.746
257.7867, 7233.496
258.2688, 7234.284
258.7509, 7234.845
259.2330, 7234.407
259.7151, 7232.831
260.1973, 7231.985
260.6794, 7232.687
261.1615, 7233.564
261.6436, 7231.681
262.1257, 7224.295
262.6078, 7220.908
263.0900, 7225.550
263.5721, 7239.322
264.0542, 7250.276
264.5363, 7258.192
265.0184, 7263.468
265.5005, 7265.971
265.9827, 7263.839
266.4648, 7264.053
266.9469, 7269.280
267.4290, 7279.583
267.9111, 7288.116
268.3932, 7295.038
268.8754, 7299.735
269.3575, 7301.241
269.8396, 7299.038
270.3217, 7295.549
270.8038, 7290.711
271.2859, 7284.708
271.7681, 7281.632
272.2502, 7282.429
272.7323, 7284.298
273.2144, 7284.375
273.6965, 7282.397
274.1786, 7280.090
274.6608, 7277.392
275.1429, 7274.593
275.6250, 7273.804
276.1071, 7275.404
276.5892, 7278.001
277.0714, 7280.086
277.5535, 7281.480
278.0356, 7284.340
278.5177, 7289.162
278.9998, 7295.794
279.4819, 7304.269
279.9641, 7315.431
280.4462, 7325.577
280.9283, 7331.870
281.4104, 7334.259
281.8925, 7334.143
282.3746, 7330.534
282.8568, 7325.479
283.3389, 7324.897
283.8210, 7329.048
284.3031, 7335.289
284.7852, 7342.288
285.2673, 7349.855
285.7495, 7356.841
286.2316, 7362.599
286.7137, 7368.089
287.1958, 7375.995
287.6779, 7386.322
288.1600, 7395.930
288.6422, 7401.702
289.1243, 7404.413
289.6064, 7410.490
290.0885, 7421.839
290.5706, 7433.486
291.0527, 7435.022
291.5349, 7427.324
292.0170, 7422.383
292.4991, 7430.600
292.9812, 7447.659
293.4633, 7457.048
293.9454, 7457.334
294.4276, 7453.108
294.9097, 7448.672
295.3918, 7444.342
295.8739, 7441.843
296.3560, 7440.467
296.8381, 7441.624
297.3203, 7450.598
297.8024, 7468.145
298.2845, 7486.306
298.7666, 7497.266
299.2487, 7501.938
299.7308, 7503.503
300.2130, 7500.554
300.6951, 7496.282
301.1772, 7496.575
301.6593, 7501.458
302.1414, 7507.030
302.6235, 7508.762
303.1057, 7508.853
303.5878, 7511.769
304.0699, 7521.619
304.5520, 7533.117
305.0341, 7539.110
305.5162, 7540.280
305.9984, 7542.501
306.4805, 7550.564
306.9626, 7562.070
307.4447, 7573.915
307.9268, 7587.254
308.4089, 7597.975
308.8911, 7600.056
309.3732, 7595.447
309.8553, 7592.371
310.3374, 7597.286
310.8195, 7605.287
311.3016, 7611.110
311.7838, 7612.208
312.2659, 7614.117
312.7480, 7622.170
313.2301, 7634.024
313.7122, 7643.936
314.1943, 7646.776
314.6765, 7648.530
315.1586, 7653.555
315.6407, 7663.019
316.1228, 7673.958
316.6049, 7686.068
317.0870, 7698.581
317.5692, 7710.045
318.0513, 7719.502
318.5334, 7728.098
319.0155, 7736.408
319.4976, 7744.581
319.9797, 7751.375
320.4619, 7754.749
320.9440, 7756.918
321.4261, 7760.341
321.9082, 7766.513
322.3903, 7773.025
322.8724, 7778.873
323.3546, 7784.025
323.8367, 7790.315
324.3188, 7801.284
324.8009, 7812.022
325.2830, 7818.701
325.7651, 7815.673
326.2473, 7814.771
326.7294, 7819.959
327.2115, 7830.194
327.6936, 7836.411
328.1757, 7833.326
328.6578, 7829.688
329.1400, 7829.816
329.6221, 7836.111
330.1042, 7842.903
330.5863, 7851.030
331.0684, 7859.571
331.5505, 7865.792
332.0327, 7868.844
332.5148, 7870.350
332.9969, 7870.270
333.4790, 7866.584
333.9611, 7866.689
334.4432, 7872.185
334.9254, 7880.470
335.4075, 7886.920
335.8896, 7890.409
336.3717, 7894.602
336.8538, 7901.448
337.3359, 7911.688
337.8181, 7917.022
338.3002, 7914.888
338.7823, 7911.931
339.2644, 7916.688
339.7465, 7931.348
340.2286, 7944.530
340.7108, 7953.938
341.1929, 7959.666
341.6750, 7960.166
342.1571, 7953.692
342.6392, 7948.242
343.1213, 7952.642
343.6035, 7967.003
344.0856, 7975.809
344.5677, 7974.645
345.0498, 7968.151
345.5319, 7968.528
346.0140, 7976.024
346.4962, 7983.366
346.9783, 7986.628
347.4604, 7986.040
347.9425, 7980.991
348.4246, 7969.974
348.9067, 7959.147
349.3889, 7958.978
349.8710, 7967.853
350.3531, 7976.396
350.8352, 7979.927
351.3173, 7980.010
351.7994, 7979.156
352.2816, 7977.384
352.7637, 7975.694
353.2458, 7973.458
353.7279, 7971.982
354.2100, 7974.180
354.6921, 7984.285
355.1743, 7996.289
355.6564, 8003.711
356.1385, 8006.790
356.6206, 8009.010
357.1027, 8010.672
357.5848, 8013.499
358.0670, 8019.711
358.5491, 8031.009
359.0312, 8043.970
359.5133, 8058.315
359.9954, 8072.931
360.4775, 8084.647
360.9597, 8091.371
361.4418, 8094.959
361.9239, 8095.328
362.4060, 8089.615
362.8881, 8089.030
363.3702, 8104.521
363.8524, 8126.495
364.3345, 8140.251
364.8166, 8132.706
365.2987, 8124.281
365.7808, 8122.442
366.2629, 8128.004
366.7451, 8136.616
367.2272, 8152.513
367.7093, 8168.917
368.1914, 8179.885
368.6735, 8179.692
369.1556, 8180.005
369.6378, 8181.814
370.1199, 8185.194
370.6020, 8191.030
371.0841, 8202.861
371.5662, 8213.894
372.0483, 8219.795
372.5305, 8214.329
373.0126, 8215.687
373.4947, 8226.416
373.9768, 8243.314
374.4589, 8259.014
374.9410, 8272.464
375.4232, 8286.915
375.9053, 8303.913
376.3874, 8323.857
376.8695, 8344.307
377.3516, 8366.540
377.8337, 8387.521
378.3159, 8402.494
378.7980, 8410.287
379.2801, 8421.785
379.7622, 8441.850
380.2443, 8467.762
380.7264, 8486.506
381.2086, 8496.771
381.6907, 8508.277
382.1728, 8530.813
382.6549, 8562.783
383.1370, 8592.581
383.6191, 8617.886
384.1013, 8641.227
384.5834, 8666.700
385.0655, 8694.338
385.5476, 8723.890
386.0297, 8757.816
386.5118, 8793.346
386.9940, 8825.671
387.4761, 8853.867
387.9582, 8881.443
388.4403, 8911.849
388.9224, 8944.436
389.4045, 8977.563
389.8867, 9012.727
390.3688, 9047.029
390.8509, 9078.088
391.3330, 9105.713
391.8151, 9129.850
392.2972, 9152.227
392.7794, 9169.916
393.2615, 9180.370
393.7436, 9184.459
394.2257, 9178.847
394.7078, 9156.938
395.1899, 9123.716
395.6721, 9092.261
396.1542, 9067.652
396.6363, 9045.142
397.1184, 9022.096
397.6005, 8997.020
398.0826, 8975.529
398.5648, 8958.346
399.0469, 8945.288
399.5290, 8936.131
400.0111, 8933.604
400.4932, 8932.006
400.9753, 8927.289
401.4575, 8919.529
401.9396, 8925.898
402.4217, 8956.720
402.9038, 8990.674
403.3859, 9012.167
403.8680, 9011.720
404.3502, 9021.763
404.8323, 9047.480
405.3144, 9083.476
405.7965, 9114.873
406.2786, 9140.846
406.7607, 9165.574
407.2429, 9192.784
407.7250, 9222.910
408.2071, 9241.825
408.6892, 9247.688
409.1713, 9248.061
409.6534, 9254.527
410.1356, 9266.372
410.6177, 9269.727
411.0998, 9258.979
411.5819, 9238.218
412.0640, 9217.157
412.5461, 9195.847
413.0283, 9170.686
413.5104, 9135.034
413.9925, 9094.381
414.4746, 9059.696
414.9567, 9033.108
415.4388, 9011.716
415.9210, 8994.820
416.4031, 8980.750
416.8852, 8964.852
417.3673, 8945.436
417.8494, 8923.049
418.3315, 8895.681
418.8137, 8863.348
419.2958, 8834.493
419.7779, 8816.346
420.2600, 8803.213
420.7421, 8789.721
421.2242, 8774.359
421.7064, 8758.283
422.1885, 8741.779
422.6706, 8724.864
423.1527, 8706.817
423.6348, 8686.514
424.1169, 8666.192
424.5990, 8646.083
425.0811, 8623.968
425.5633, 8607.877
426.0454, 8601.470
426.5275, 8599.789
427.0096, 8596.381
427.4917, 8588.264
427.9738, 8583.117
428.4560, 8583.527
428.9381, 8589.150
429.4202, 8592.043
429.9023, 8590.467
430.3844, 8589.139
430.8665, 8592.929
431.3487, 8603.615
431.8308, 8606.954
432.3129, 8598.898
432.7950, 8586.406
433.2771, 8585.762
433.7592, 8597.424
434.2414, 8607.512
434.7235, 8607.453
435.2056, 8600.217
435.6877, 8598.651
436.1698, 8603.088
436.6519, 8608.461
437.1341, 8609.365
437.6162, 8607.194
438.0983, 8605.832
438.5804, 8607.313
439.0625, 8608.729
439.5446, 8605.486
440.0268, 8599.008
440.5089, 8594.330
440.9910, 8595.943
441.4731, 8599.888
441.9552, 8602.932
442.4373, 8604.731
442.9195, 8605.625
443.4016, 8606.291
443.8837, 8606.041
444.3658, 8604.021
444.8479, 8597.416
445.3300, 8591.630
445.8122, 8587.403
446.2943, 8585.022
446.7764, 8586.253
447.2585, 8596.469
447.7406, 8606.366
448.2227, 8610.906
448.7049, 8605.334
449.1870, 8603.458
449.6691, 8606.970
450.1512, 8613.354
450.6333, 8618.562
451.1154, 8621.924
451.5976, 8625.577
452.0797, 8630.033
452.5618, 8635.252
453.0439, 8640.907
453.5260, 8647.126
454.0081, 8653.002
454.4903, 8658.282
454.9724, 8662.908
455.4545, 8664.612
455.9366, 8662.209
456.4187, 8658.681
456.9008, 8660.338
457.3830, 8666.377
457.8651, 8670.396
458.3472, 8665.912
458.8293, 8658.545
459.3114, 8659.407
459.7935, 8668.529
460.2757, 8679.187
460.7578, 8686.274
461.2399, 8691.386
461.7220, 8696.800
462.2041, 8703.814
462.6862, 8710.081
463.1684, 8713.271
463.6505, 8714.506
464.1326, 8716.350
464.6147, 8720.427
465.0968, 8724.788
465.5789, 8729.005
466.0611, 8733.320
466.5432, 8734.740
467.0253, 8727.371
467.5074, 8719.551
467.9895, 8718.300
468.4716, 8730.939
468.9538, 8741.315
469.4359, 8748.754
469.9180, 8753.260
470.4001, 8754.278
470.8822, 8749.965
471.3643, 8745.729
471.8465, 8743.766
472.3286, 8744.334
472.8107, 8745.998
473.2928, 8749.199
473.7749, 8752.793
474.2570, 8756.879
474.7392, 8761.486
475.2213, 8759.688
475.7034, 8746.563
476.1855, 8730.381
476.6676, 8730.313
477.1497, 8744.889
477.6319, 8760.243
478.1140, 8767.977
478.5961, 8771.075
479.0782, 8774.036
479.5603, 8777.026
480.0424, 8780.558
480.5246, 8784.985
481.0067, 8790.162
481.4888, 8795.917
481.9709, 8802.427
482.4530, 8809.207
482.9352, 8817.170
483.4173, 8825.395
483.8994, 8830.986
484.3815, 8829.244
484.8636, 8827.673
485.3457, 8831.051
485.8279, 8842.362
486.3100, 8848.502
486.7921, 8843.534
487.2742, 8835.599
487.7563, 8831.663
488.2384, 8832.818
488.7206, 8836.350
489.2027, 8842.657
489.6848, 8851.057
490.1669, 8859.924
490.6490, 8870.706
491.1311, 8877.506
491.6133, 8874.476
492.0954, 8861.940
492.5775, 8860.674
493.0596, 8872.899
493.5417, 8887.298
494.0238, 8890.189
494.5060, 8884.025
494.9881, 8879.841
495.4702, 8880.377
495.9523, 8884.186
496.4344, 8890.041
496.9165, 8897.605
497.3987, 8905.593
497.8808, 8914.389
498.3629, 8922.618
498.8450, 8928.821
499.3271, 8932.838
499.8092, 8935.835
500.2914, 8935.990
500.7735, 8936.502
501.2556, 8940.481
501.7377, 8953.269
502.2198, 8963.858
502.7019, 8970.119
503.1841, 8972.458
503.6662, 8972.100
504.1483, 8963.288
504.6304, 8958.140
505.1125, 8961.455
505.5946, 8974.197
506.0768, 8983.631
506.5589, 8989.464
507.0410, 8992.533
507.5231, 8992.273
508.0052, 8987.622
508.4873, 8987.678
508.9695, 8994.697
509.4516, 9004.982
509.9337, 9011.252
510.4158, 9013.732
510.8979, 9016.781
511.3800, 9023.853
511.8622, 9032.243
512.3443, 9035.041
512.8264, 9032.440
513.3085, 9029.586
513.7906, 9029.322
514.2728, 9031.482
514.7549, 9037.267
515.2370, 9049.437
515.7191, 9057.448
516.2012, 9048.951
516.6833, 9033.312
517.1655, 9024.769
517.6476, 9034.977
518.1297, 9046.156
518.6118, 9052.483
519.0939, 9054.188
519.5760, 9055.283
520.0582, 9055.045
520.5403, 9055.338
521.0224, 9056.900
521.5045, 9059.797
521.9866, 9063.598
522.4688, 9068.090
522.9509, 9073.576
523.4330, 9081.294
523.9151, 9092.065
524.3972, 9099.876
524.8793, 9102.121
525.3615, 9101.570
525.8436, 9106.526
526.3257, 9116.905
526.8078, 9126.452
527.2899, 9131.487
527.7720, 9133.206
528.2542, 9133.912
528.7363, 9133.742
529.2184, 9133.346
529.7005, 9132.125
530.1826, 9131.440
530.6647, 9133.315
531.1469, 9139.455
531.6290, 9146.367
532.1111, 9151.710
532.5932, 9156.385
533.0753, 9162.217
533.5574, 9169.330
534.0396, 9177.994
534.5217, 9190.107
535.0038, 9205.937
535.4859, 9216.017
535.9680, 9215.498
536.4501, 9213.517
536.9323, 9215.429
537.4144, 9223.092
537.8965, 9228.852
538.3786, 9230.729
538.8607, 9233.221
539.3428, 9246.185
539.8250, 9271.175
540.3071, 9287.083
540.7892, 9284.627
541.2713, 9271.932
541.7534, 9268.209
542.2355, 9272.984
542.7177, 9280.716
543.1998, 9291.396
543.6819, 9301.625
544.1640, 9304.900
544.6461, 9300.477
545.1282, 9295.614
545.6104, 9294.584
546.0925, 9296.219
546.5746, 9299.203
547.0567, 9302.842
547.5388, 9308.104
548.0209, 9316.326
548.5031, 9326.253
548.9852, 9335.311
549.4673, 9342.662
549.9494, 9349.580
550.4315, 9357.176
550.9136, 9365.431
551.3958, 9368.898
551.8779, 9363.886
552.3600, 9360.373
552.8421, 9366.804
553.3242, 9385.027
553.8063, 9395.260
554.2885, 9395.709
554.7706, 9390.826
555.2527, 9385.062
555.7348, 9378.723
556.2169, 9373.879
556.6990, 9372.012
557.1812, 9370.899
557.6633, 9366.803
558.1454, 9360.548
558.6275, 9355.236
559.1096, 9351.967
559.5917, 9350.906
560.0739, 9353.053
560.5560, 9358.531
561.0381, 9363.689
561.5202, 9366.584
562.0023, 9368.846
562.4844, 9371.513
562.9666, 9372.308
563.4487, 9377.379
563.9308, 9391.844
564.4129, 9408.503
564.8950, 9415.308
565.3771, 9406.023
565.8593, 9400.643
566.3414, 9404.416
566.8235, 9415.279
567.3056, 9424.584
567.7877, 9432.119
568.2698, 9438.838
568.7520, 9444.756
569.2341, 9450.256
569.7162, 9458.513
570.1983, 9469.936
570.6804, 9478.511
571.1625, 9473.931
571.6447, 9463.922
572.1268, 9461.572
572.6089, 9473.005
573.0910, 9486.375
573.5731, 9496.603
574.0552, 9503.301
574.5374, 9505.966
575.0195, 9500.486
575.5016, 9495.057
575.9837, 9493.600
576.4658, 9495.671
576.9479, 9494.115
577.4301, 9485.762
577.9122, 9477.519
578.3943, 9472.275
578.8764, 9470.469
579.3585, 9469.486
579.8406, 9469.264
580.3228, 9469.946
580.8049, 9472.115
581.2870, 9475.586
581.7691, 9477.650
582.2512, 9476.701
582.7333, 9476.490
583.2155, 9485.417
583.6976, 9500.088
584.1797, 9510.510
584.6618, 9506.853
585.1439, 9500.294
585.6260, 9499.635
586.1082, 9504.580
586.5903, 9513.773
587.0724, 9537.182
587.5545, 9556.287
588.0366, 9557.534
588.5187, 9533.415
589.0009, 9518.498
589.4830, 9525.170
589.9651, 9537.161
590.4472, 9542.482
590.9293, 9538.216
591.4114, 9534.418
591.8936, 9532.213
592.3757, 9530.396
592.8578, 9525.146
593.3399, 9516.025
593.8220, 9512.504
594.3041, 9520.029
594.7863, 9533.288
595.2684, 9538.828
595.7505, 9537.736
596.2326, 9538.377
596.7147, 9550.498
597.1968, 9564.808
597.6790, 9569.562
598.1611, 9563.827
598.6432, 9557.740
599.1253, 9557.865
599.6074, 9559.681
600.0895, 9559.146
600.5717, 9552.049
601.0538, 9548.828
601.5359, 9553.200
602.0180, 9561.513
602.5001, 9569.222
602.9822, 9575.869
603.4644, 9582.766
603.9465, 9590.847
604.4286, 9598.908
604.9107, 9603.281
605.3928, 9603.646
605.8749, 9601.691
606.3571, 9594.174
606.8392, 9585.146
607.3213, 9591.065
607.8034, 9611.232
608.2855, 9630.819
608.7676, 9636.916
609.2498, 9636.169
609.7319, 9637.250
610.2140, 9642.230
610.6961, 9645.377
611.1782, 9639.096
611.6603, 9631.342
612.1425, 9630.530
612.6246, 9648.023
613.1067, 9661.211
613.5888, 9665.861
614.0709, 9664.717
614.5530, 9662.879
615.0352, 9660.255
615.5173, 9657.123
615.9994, 9652.382
616.4815, 9647.250
616.9636, 9649.579
617.4457, 9660.119
617.9279, 9670.124
618.4100, 9673.244
618.8921, 9671.658
619.3742, 9671.066
619.8563, 9671.686
620.3384, 9672.993
620.8206, 9674.492
621.3027, 9676.393
621.7848, 9679.354
622.2669, 9684.565
622.7490, 9687.826
623.2311, 9683.672
623.7133, 9677.741
624.1954, 9677.253
624.6775, 9690.771
625.1596, 9700.660
625.6417, 9702.592
626.1238, 9699.916
626.6060, 9702.913
627.0881, 9714.697
627.5702, 9722.830
628.0523, 9721.076
628.5344, 9712.205
629.0165, 9710.259
629.4987, 9715.371
629.9808, 9722.459
630.4629, 9728.264
630.9450, 9733.362
631.4271, 9738.912
631.9092, 9744.941
632.3914, 9751.179
632.8735, 9758.432
633.3556, 9765.159
633.8377, 9769.844
634.3198, 9771.677
634.8019, 9772.029
635.2841, 9768.476
635.7662, 9764.485
636.2483, 9765.117
636.7304, 9774.843
637.2125, 9781.837
637.6946, 9784.546
638.1768, 9783.537
638.6589, 9779.762
639.1410, 9772.822
639.6231, 9766.298
640.1052, 9761.403
640.5873, 9758.199
641.0695, 9756.926
641.5516, 9757.656
642.0337, 9759.830
642.5158, 9765.423
642.9979, 9771.233
643.4800, 9771.466
643.9622, 9765.328
644.4443, 9764.001
644.9264, 9777.452
645.4085, 9795.354
645.8906, 9808.921
646.3727, 9811.319
646.8549, 9819.392
647.3370, 9839.599
647.8191, 9861.523
648.3012, 9871.946
648.7833, 9867.417
649.2654, 9861.700
649.7476, 9855.459
650.2297, 9850.403
650.7118, 9850.558
651.1939, 9855.589
651.6760, 9861.887
652.1581, 9867.816
652.6403, 9874.443
653.1224, 9885.813
653.6045, 9900.131
654.0866, 9910.171
654.5687, 9908.713
655.0508, 9904.189
655.5330, 9902.010
656.0151, 9902.729
656.4972, 9903.114
656.9793, 9898.132
657.4614, 9896.296
657.9435, 9903.480
658.4257, 9924.578
658.9078, 9936.955
659.3899, 9938.541
659.8720, 9934.826
660.3541, 9929.283
660.8362, 9922.084
661.3184, 9921.751
661.8005, 9931.373
662.2826, 9942.192
662.7647, 9940.823
663.2468, 9931.633
663.7289, 9925.518
664.2111, 9929.725
664.6932, 9934.277
665.1753, 9929.290
665.6574, 9919.498
666.1395, 9915.846
666.6216, 9928.067
667.1038, 9940.479
667.5859, 9947.686
668.0680, 9950.521
668.5501, 9954.282
669.0322, 9958.977
669.5143, 9964.638
669.9964, 9972.469
670.4785, 9981.976
670.9606, 9985.061
671.4427, 9981.110
