##NAMES=Pyrope
##RRUFFID=R070637
##IDEAL CHEMISTRY=Mg_3_Al_2_(SiO_4_)_3_
##LOCALITY=Dora Maira Massif, Piedmont, Italy
##OWNER=RRUFF
##SOURCE=Jibamitra Ganguly
##DESCRIPTION=Colorless massive, associated with muscovite, quartz and small black rutile
##STATUS=The identification of this mineral has been confirmed by single-crystal X-ray diffraction.
##URL=rruff.info/R070637
140.2545, 1650.693
140.7366, 1647.756
141.2187, 1637.302
141.7008, 1626.517
142.1829, 1623.718
142.6650, 1630.749
143.1472, 1642.392
143.6293, 1654.795
144.1114, 1667.767
144.5935, 1680.896
145.0756, 1694.424
145.5577, 1708.018
146.0399, 1720.173
146.5220, 1728.097
147.0041, 1737.854
147.4862, 1756.622
147.9683, 1783.731
148.4504, 1808.070
148.9326, 1815.922
149.4147, 1804.840
149.8968, 1803.752
150.3789, 1833.579
150.8610, 1865.512
151.3431, 1884.858
151.8252, 1888.203
152.3074, 1880.357
152.7895, 1866.853
153.2716, 1842.291
153.7537, 1823.912
154.2358, 1818.997
154.7179, 1817.288
155.2001, 1810.103
155.6822, 1793.673
156.1643, 1770.204
156.6464, 1746.422
157.1285, 1719.837
157.6106, 1695.652
158.0928, 1674.987
158.5749, 1656.882
159.0570, 1639.811
159.5391, 1622.787
160.0212, 1606.028
160.5033, 1593.087
160.9855, 1580.973
161.4676, 1574.864
161.9497, 1582.166
162.4318, 1598.151
162.9139, 1610.085
163.3960, 1607.988
163.8782, 1590.931
164.3603, 1573.620
164.8424, 1555.465
165.3245, 1537.435
165.8066, 1518.597
166.2887, 1499.178
166.7709, 1484.034
167.2530, 1480.408
167.7351, 1488.006
168.2172, 1488.980
168.6993, 1474.765
169.1814, 1455.562
169.6636, 1444.377
170.1457, 1444.056
170.6278, 1447.683
171.1099, 1450.806
171.5920, 1453.217
172.0741, 1450.061
172.5563, 1434.947
173.0384, 1412.366
173.5205, 1395.330
174.0026, 1386.516
174.4847, 1383.248
174.9668, 1383.841
175.4490, 1387.941
175.9311, 1391.054
176.4132, 1387.457
176.8953, 1377.487
177.3774, 1374.560
177.8595, 1388.815
178.3417, 1404.806
178.8238, 1412.737
179.3059, 1411.720
179.7880, 1406.873
180.2701, 1403.567
180.7522, 1402.263
181.2344, 1400.501
181.7165, 1399.715
182.1986, 1397.255
182.6807, 1389.466
183.1628, 1375.698
183.6449, 1361.323
184.1271, 1356.346
184.6092, 1367.676
185.0913, 1374.899
185.5734, 1374.067
186.0555, 1369.897
186.5376, 1366.365
187.0198, 1365.076
187.5019, 1364.914
187.9840, 1363.020
188.4661, 1360.538
188.9482, 1354.295
189.4303, 1336.950
189.9125, 1317.962
190.3946, 1309.552
190.8767, 1318.289
191.3588, 1340.001
191.8409, 1355.309
192.3230, 1360.950
192.8052, 1363.788
193.2873, 1363.181
193.7694, 1360.581
194.2515, 1357.531
194.7336, 1354.392
195.2157, 1351.818
195.6979, 1357.175
196.1800, 1377.117
196.6621, 1396.167
197.1442, 1406.660
197.6263, 1411.053
198.1084, 1417.846
198.5906, 1433.972
199.0727, 1458.219
199.5548, 1474.903
200.0369, 1475.987
200.5190, 1476.993
201.0011, 1486.444
201.4833, 1504.379
201.9654, 1526.900
202.4475, 1551.881
202.9296, 1579.529
203.4117, 1609.212
203.8938, 1639.900
204.3760, 1673.326
204.8581, 1710.651
205.3402, 1752.096
205.8223, 1797.371
206.3044, 1844.660
206.7865, 1895.561
207.2687, 1956.378
207.7508, 2039.676
208.2329, 2129.042
208.7150, 2204.865
209.1971, 2266.879
209.6792, 2311.934
210.1614, 2330.926
210.6435, 2330.703
211.1256, 2323.060
211.6077, 2315.512
212.0898, 2303.114
212.5719, 2274.849
213.0541, 2228.739
213.5362, 2168.355
214.0183, 2094.008
214.5004, 2008.958
214.9825, 1919.641
215.4646, 1822.893
215.9468, 1723.151
216.4289, 1641.844
216.9110, 1586.040
217.3931, 1540.962
217.8752, 1496.241
218.3573, 1453.166
218.8395, 1415.899
219.3216, 1389.674
219.8037, 1373.569
220.2858, 1355.064
220.7679, 1331.010
221.2500, 1307.769
221.7322, 1285.591
222.2143, 1266.008
222.6964, 1252.926
223.1785, 1253.455
223.6606, 1268.625
224.1427, 1273.969
224.6249, 1256.857
225.1070, 1240.428
225.5891, 1235.670
226.0712, 1240.466
226.5533, 1245.007
227.0354, 1237.987
227.5176, 1216.350
227.9997, 1204.763
228.4818, 1214.586
228.9639, 1225.216
229.4460, 1227.872
229.9281, 1223.101
230.4103, 1217.085
230.8924, 1216.617
231.3745, 1223.617
231.8566, 1227.444
232.3387, 1227.056
232.8208, 1224.686
233.3030, 1218.814
233.7851, 1210.900
234.2672, 1205.839
234.7493, 1210.260
235.2314, 1229.103
235.7135, 1239.243
236.1957, 1236.396
236.6778, 1230.045
237.1599, 1222.041
237.6420, 1214.299
238.1241, 1211.093
238.6062, 1218.582
239.0884, 1242.870
239.5705, 1257.512
240.0526, 1257.622
240.5347, 1253.808
241.0168, 1252.137
241.4989, 1253.275
241.9811, 1254.319
242.4632, 1251.945
242.9453, 1245.388
243.4274, 1237.049
243.9095, 1219.759
244.3916, 1206.150
244.8738, 1207.329
245.3559, 1223.201
245.8380, 1242.185
246.3201, 1250.611
246.8022, 1243.894
247.2843, 1240.428
247.7665, 1240.639
248.2486, 1243.406
248.7307, 1249.432
249.2128, 1258.188
249.6949, 1266.509
250.1770, 1271.064
250.6592, 1271.486
251.1413, 1267.543
251.6234, 1250.840
252.1055, 1235.657
252.5876, 1235.410
253.0697, 1250.762
253.5519, 1268.881
254.0340, 1274.468
254.5161, 1261.858
254.9982, 1260.565
255.4803, 1281.714
255.9624, 1306.557
256.4445, 1318.602
256.9267, 1316.268
257.4088, 1312.585
257.8909, 1322.858
258.3730, 1352.236
258.8551, 1366.463
259.3372, 1351.968
259.8194, 1331.047
260.3015, 1320.345
260.7836, 1322.018
261.2657, 1331.321
261.7478, 1345.501
262.2299, 1365.718
262.7121, 1380.197
263.1942, 1383.822
263.6763, 1384.861
264.1584, 1390.088
264.6405, 1400.105
265.1227, 1411.429
265.6048, 1421.433
266.0869, 1429.949
266.5690, 1436.000
267.0511, 1437.751
267.5332, 1438.274
268.0154, 1439.896
268.4975, 1442.804
268.9796, 1446.073
269.4617, 1448.233
269.9438, 1449.648
270.4259, 1455.206
270.9081, 1470.987
271.3902, 1486.781
271.8723, 1491.387
272.3544, 1485.123
272.8365, 1482.482
273.3186, 1496.867
273.8008, 1526.533
274.2829, 1546.727
274.7650, 1552.108
275.2471, 1551.655
275.7292, 1549.006
276.2113, 1544.956
276.6935, 1545.520
277.1756, 1556.864
277.6577, 1577.086
278.1398, 1590.974
278.6219, 1593.005
279.1040, 1593.218
279.5862, 1599.846
280.0683, 1612.001
280.5504, 1620.949
281.0325, 1617.950
281.5146, 1608.283
281.9967, 1612.426
282.4789, 1644.702
282.9610, 1677.457
283.4431, 1692.036
283.9252, 1690.944
284.4073, 1687.983
284.8894, 1689.395
285.3716, 1694.674
285.8537, 1701.387
286.3358, 1711.477
286.8179, 1720.494
287.3000, 1724.808
287.7821, 1725.568
288.2643, 1727.830
288.7464, 1735.337
289.2285, 1744.486
289.7106, 1746.553
290.1927, 1739.162
290.6748, 1729.876
291.1570, 1717.600
291.6391, 1705.435
292.1212, 1704.949
292.6033, 1724.679
293.0854, 1753.059
293.5675, 1766.237
294.0497, 1761.380
294.5318, 1753.002
295.0139, 1741.947
295.4960, 1731.650
295.9781, 1732.758
296.4602, 1752.530
296.9424, 1777.042
297.4245, 1777.801
297.9066, 1749.220
298.3887, 1729.557
298.8708, 1737.286
299.3529, 1760.518
299.8351, 1778.768
300.3172, 1786.447
300.7993, 1789.075
301.2814, 1794.556
301.7635, 1803.459
302.2456, 1809.498
302.7278, 1808.702
303.2099, 1805.086
303.6920, 1803.482
304.1741, 1804.714
304.6562, 1808.847
305.1383, 1816.687
305.6205, 1828.343
306.1026, 1840.897
306.5847, 1855.672
307.0668, 1870.272
307.5489, 1882.015
308.0310, 1890.614
308.5132, 1897.650
308.9953, 1903.422
309.4774, 1908.052
309.9595, 1917.612
310.4416, 1936.756
310.9237, 1957.808
311.4059, 1973.664
311.8880, 1984.456
312.3701, 1997.178
312.8522, 2019.236
313.3343, 2049.176
313.8164, 2068.068
314.2986, 2064.715
314.7807, 2060.680
315.2628, 2067.077
315.7449, 2083.395
316.2270, 2106.945
316.7091, 2138.767
317.1913, 2175.573
317.6734, 2198.797
318.1555, 2188.971
318.6376, 2188.426
319.1197, 2220.357
319.6018, 2273.956
320.0840, 2326.479
320.5661, 2368.657
321.0482, 2398.690
321.5303, 2407.159
322.0124, 2377.206
322.4945, 2352.443
322.9767, 2347.314
323.4588, 2351.640
323.9409, 2349.139
324.4230, 2333.240
324.9051, 2311.667
325.3872, 2299.947
325.8694, 2304.051
326.3515, 2307.716
326.8336, 2307.126
327.3157, 2306.868
327.7978, 2312.304
328.2799, 2324.660
328.7621, 2340.097
329.2442, 2352.915
329.7263, 2358.410
330.2084, 2374.358
330.6905, 2411.391
331.1726, 2450.714
331.6548, 2479.072
332.1369, 2495.042
332.6190, 2504.363
333.1011, 2510.719
333.5832, 2510.129
334.0653, 2531.606
334.5475, 2595.801
335.0296, 2658.762
335.5117, 2694.593
335.9938, 2709.050
336.4759, 2725.683
336.9580, 2763.314
337.4402, 2821.522
337.9223, 2873.152
338.4044, 2914.716
338.8865, 2953.565
339.3686, 2990.060
339.8507, 3025.490
340.3329, 3061.548
340.8150, 3099.521
341.2971, 3138.671
341.7792, 3176.005
342.2613, 3207.464
342.7434, 3242.329
343.2256, 3285.635
343.7077, 3330.964
344.1898, 3369.916
344.6719, 3399.326
345.1540, 3425.332
345.6361, 3462.192
346.1183, 3522.237
346.6004, 3568.522
347.0825, 3589.168
347.5646, 3603.772
348.0467, 3626.108
348.5288, 3658.915
349.0110, 3696.551
349.4931, 3730.530
349.9752, 3757.948
350.4573, 3793.814
350.9394, 3844.781
351.4215, 3899.592
351.9037, 3955.366
352.3858, 4010.950
352.8679, 4064.158
353.3500, 4107.829
353.8321, 4142.730
354.3142, 4201.520
354.7964, 4308.363
355.2785, 4410.069
355.7606, 4482.642
356.2427, 4535.345
356.7248, 4586.631
357.2069, 4642.753
357.6891, 4706.811
358.1712, 4789.831
358.6533, 4900.487
359.1354, 5011.866
359.6175, 5112.316
360.0996, 5207.621
360.5818, 5303.971
361.0639, 5403.640
361.5460, 5504.388
362.0281, 5606.805
362.5102, 5713.270
362.9923, 5803.464
363.4745, 5866.472
363.9566, 5911.801
364.4387, 5954.277
364.9208, 5998.797
365.4029, 6014.036
365.8850, 5970.717
366.3672, 5875.508
366.8493, 5762.481
367.3314, 5637.156
367.8135, 5497.899
368.2956, 5339.322
368.7777, 5163.403
369.2599, 4988.198
369.7420, 4824.697
370.2241, 4666.828
370.7062, 4501.889
371.1883, 4325.949
371.6704, 4156.328
372.1526, 4004.781
372.6347, 3870.759
373.1168, 3751.989
373.5989, 3652.920
374.0810, 3565.106
374.5631, 3483.400
375.0453, 3406.946
375.5274, 3333.199
376.0095, 3260.993
376.4916, 3189.804
376.9737, 3116.714
377.4558, 3027.157
377.9380, 2951.778
378.4201, 2908.993
378.9022, 2887.281
379.3843, 2866.145
379.8664, 2837.920
380.3485, 2804.302
380.8307, 2768.922
381.3128, 2729.247
381.7949, 2692.313
382.2770, 2663.587
382.7591, 2634.935
383.2412, 2602.237
383.7234, 2563.403
384.2055, 2512.280
384.6876, 2439.607
385.1697, 2336.534
385.6518, 2249.537
386.1339, 2183.568
386.6161, 2125.844
387.0982, 2069.863
387.5803, 2016.387
388.0624, 1970.499
388.5445, 1936.192
389.0266, 1912.481
389.5088, 1889.325
389.9909, 1867.795
390.4730, 1845.599
390.9551, 1820.562
391.4372, 1795.323
391.9193, 1772.755
392.4015, 1754.063
392.8836, 1739.331
393.3657, 1729.943
393.8478, 1730.349
394.3299, 1725.140
394.8120, 1706.908
395.2942, 1686.434
395.7763, 1670.506
396.2584, 1660.243
396.7405, 1653.057
397.2226, 1647.938
397.7047, 1644.952
398.1869, 1637.342
398.6690, 1619.388
399.1511, 1603.134
399.6332, 1596.115
400.1153, 1596.282
400.5974, 1597.337
401.0796, 1593.562
401.5617, 1589.166
402.0438, 1596.951
402.5259, 1621.736
403.0080, 1639.702
403.4901, 1633.061
403.9723, 1612.472
404.4544, 1591.755
404.9365, 1567.648
405.4186, 1553.013
405.9007, 1566.791
406.3828, 1603.026
406.8650, 1629.076
407.3471, 1632.528
407.8292, 1621.253
408.3113, 1604.824
408.7934, 1580.088
409.2755, 1565.305
409.7577, 1575.557
410.2398, 1595.471
410.7219, 1602.563
411.2040, 1592.794
411.6861, 1579.715
412.1682, 1577.002
412.6504, 1586.398
413.1325, 1592.678
413.6146, 1593.361
414.0967, 1593.360
414.5788, 1595.216
415.0609, 1598.741
415.5431, 1603.481
416.0252, 1609.742
416.5073, 1616.072
416.9894, 1615.586
417.4715, 1593.402
417.9536, 1582.466
418.4358, 1595.217
418.9179, 1616.504
419.4000, 1629.888
419.8821, 1630.497
420.3642, 1625.543
420.8463, 1625.859
421.3285, 1633.280
421.8106, 1641.034
422.2927, 1648.021
422.7748, 1656.236
423.2569, 1668.111
423.7390, 1682.442
424.2212, 1695.176
424.7033, 1702.146
425.1854, 1704.733
425.6675, 1712.190
426.1496, 1727.333
426.6317, 1742.595
427.1139, 1754.341
427.5960, 1764.747
428.0781, 1777.180
428.5602, 1793.508
429.0423, 1809.839
429.5244, 1819.639
430.0066, 1822.683
430.4887, 1829.861
430.9708, 1847.258
431.4529, 1867.292
431.9350, 1879.953
432.4171, 1884.703
432.8993, 1892.618
433.3814, 1910.551
433.8635, 1934.752
434.3456, 1960.437
434.8277, 1987.641
435.3098, 2010.074
435.7920, 2018.627
436.2741, 2015.233
436.7562, 2024.236
437.2383, 2056.858
437.7204, 2092.449
438.2025, 2120.707
438.6847, 2142.199
439.1668, 2158.478
439.6489, 2169.133
440.1310, 2178.319
440.6131, 2197.484
441.0952, 2236.858
441.5774, 2272.177
442.0595, 2302.920
442.5416, 2328.936
443.0237, 2349.153
443.5058, 2363.870
443.9879, 2374.929
444.4701, 2383.380
444.9522, 2387.915
445.4343, 2398.997
445.9164, 2430.425
446.3985, 2454.398
446.8806, 2455.790
447.3628, 2443.857
447.8449, 2436.700
448.3270, 2445.090
448.8091, 2461.733
449.2912, 2468.049
449.7733, 2460.504
450.2555, 2452.341
450.7376, 2447.047
451.2197, 2442.392
451.7018, 2437.584
452.1839, 2432.477
452.6660, 2424.542
453.1482, 2409.719
453.6303, 2389.761
454.1124, 2373.876
454.5945, 2365.212
455.0766, 2355.806
455.5587, 2336.519
456.0409, 2310.666
456.5230, 2288.283
457.0051, 2270.946
457.4872, 2258.250
457.9693, 2254.085
458.4514, 2256.051
458.9336, 2249.965
459.4157, 2226.847
459.8978, 2194.221
460.3799, 2172.778
460.8620, 2167.661
461.3441, 2161.867
461.8262, 2149.770
462.3083, 2136.975
462.7905, 2130.360
463.2726, 2130.726
463.7547, 2133.288
464.2368, 2134.025
464.7189, 2133.851
465.2010, 2123.463
465.6832, 2086.543
466.1653, 2057.495
466.6474, 2053.385
467.1295, 2063.494
467.6116, 2069.249
468.0938, 2061.108
468.5759, 2045.086
469.0580, 2034.823
469.5401, 2032.579
470.0222, 2029.599
470.5043, 2026.357
470.9865, 2020.471
471.4686, 2007.952
471.9507, 1989.567
472.4328, 1973.269
472.9149, 1967.817
473.3970, 1969.595
473.8792, 1964.945
474.3613, 1951.701
474.8434, 1936.753
475.3255, 1923.041
475.8076, 1910.957
476.2897, 1901.347
476.7719, 1894.269
477.2540, 1889.806
477.7361, 1890.866
478.2182, 1894.925
478.7003, 1894.231
479.1824, 1886.003
479.6646, 1872.479
480.1467, 1856.127
480.6288, 1834.323
481.1109, 1818.291
481.5930, 1812.910
482.0751, 1810.185
482.5573, 1804.984
483.0394, 1797.030
483.5215, 1787.974
484.0036, 1778.886
484.4857, 1769.802
484.9678, 1760.771
485.4500, 1746.523
485.9321, 1739.849
486.4142, 1746.785
486.8963, 1759.310
487.3784, 1771.891
487.8605, 1782.400
488.3427, 1787.828
488.8248, 1779.589
489.3069, 1756.476
489.7890, 1750.934
490.2711, 1777.677
490.7532, 1804.867
491.2354, 1815.622
491.7175, 1813.567
492.1996, 1807.161
492.6817, 1798.306
493.1638, 1787.863
493.6459, 1778.142
494.1281, 1768.721
494.6102, 1752.661
495.0923, 1723.360
495.5744, 1690.848
496.0565, 1675.496
496.5386, 1681.954
497.0208, 1680.813
497.5029, 1661.055
497.9850, 1633.029
498.4671, 1604.502
498.9492, 1577.398
499.4313, 1553.939
499.9135, 1535.721
500.3956, 1522.886
500.8777, 1516.784
501.3598, 1524.117
501.8419, 1530.179
502.3240, 1532.223
502.8062, 1531.988
503.2883, 1531.751
503.7704, 1532.130
504.2525, 1531.733
504.7346, 1528.734
505.2167, 1522.988
505.6989, 1515.013
506.1810, 1494.835
506.6631, 1484.686
507.1452, 1502.773
507.6273, 1537.794
508.1094, 1563.284
508.5916, 1560.245
509.0737, 1552.114
509.5558, 1578.391
510.0379, 1637.328
510.5200, 1679.771
511.0021, 1684.854
511.4843, 1669.950
511.9664, 1660.136
512.4485, 1655.772
512.9306, 1652.036
513.4127, 1651.428
513.8948, 1648.540
514.3770, 1636.838
514.8591, 1616.733
515.3412, 1594.326
515.8233, 1573.825
516.3054, 1554.672
516.7875, 1533.828
517.2697, 1501.934
517.7518, 1480.067
518.2339, 1479.888
518.7160, 1485.101
519.1981, 1477.981
519.6802, 1455.992
520.1624, 1432.377
520.6445, 1422.109
521.1266, 1425.519
521.6087, 1428.979
522.0908, 1434.008
522.5729, 1436.659
523.0551, 1434.071
523.5372, 1428.572
524.0193, 1424.133
524.5014, 1422.867
524.9835, 1420.801
525.4656, 1412.129
525.9478, 1398.520
526.4299, 1389.141
526.9120, 1387.447
527.3941, 1387.841
527.8762, 1383.274
528.3583, 1373.487
528.8405, 1365.938
529.3226, 1364.555
529.8047, 1362.729
530.2868, 1355.604
530.7689, 1344.360
531.2510, 1332.241
531.7332, 1320.708
532.2153, 1310.472
532.6974, 1303.446
533.1795, 1301.626
533.6616, 1299.510
534.1437, 1296.490
534.6259, 1293.585
535.1080, 1291.742
535.5901, 1290.682
536.0722, 1289.022
536.5543, 1284.588
537.0364, 1279.518
537.5186, 1282.441
538.0007, 1296.763
538.4828, 1305.883
538.9649, 1296.327
539.4470, 1282.827
539.9291, 1283.142
540.4113, 1299.973
540.8934, 1319.190
541.3755, 1335.752
541.8576, 1349.576
542.3397, 1360.980
542.8218, 1369.910
543.3040, 1373.623
543.7861, 1368.281
544.2682, 1355.723
544.7503, 1351.969
545.2324, 1357.865
545.7145, 1370.169
546.1967, 1391.743
546.6788, 1417.589
547.1609, 1442.968
547.6430, 1466.513
548.1251, 1489.105
548.6072, 1511.120
549.0894, 1532.499
549.5715, 1556.404
550.0536, 1580.463
550.5357, 1611.104
551.0178, 1653.724
551.4999, 1702.360
551.9821, 1748.653
552.4642, 1789.140
552.9463, 1830.775
553.4284, 1877.849
553.9105, 1931.167
554.3926, 1993.682
554.8748, 2066.559
555.3569, 2146.633
555.8390, 2232.884
556.3211, 2325.709
556.8032, 2414.957
557.2853, 2486.723
557.7675, 2569.716
558.2496, 2684.024
558.7317, 2816.899
559.2138, 2945.494
559.6959, 3061.136
560.1780, 3172.045
560.6602, 3292.801
561.1423, 3432.164
561.6244, 3545.176
562.1065, 3621.882
562.5886, 3679.353
563.0707, 3729.622
563.5529, 3763.419
564.0350, 3764.202
564.5171, 3724.021
564.9992, 3650.371
565.4813, 3546.666
565.9634, 3414.271
566.4456, 3274.139
566.9277, 3126.835
567.4098, 2978.866
567.8919, 2834.700
568.3740, 2694.728
568.8561, 2564.326
569.3383, 2446.804
569.8204, 2336.083
570.3025, 2226.831
570.7846, 2120.469
571.2667, 2019.037
571.7488, 1923.309
572.2310, 1839.300
572.7131, 1782.185
573.1952, 1767.522
573.6773, 1737.124
574.1594, 1676.091
574.6415, 1615.063
575.1237, 1565.411
575.6058, 1526.130
576.0879, 1492.960
576.5700, 1464.561
577.0521, 1439.406
577.5342, 1413.302
578.0164, 1386.254
578.4985, 1368.422
578.9806, 1365.452
579.4627, 1367.665
579.9448, 1365.212
580.4269, 1358.680
580.9091, 1352.718
581.3912, 1353.743
581.8733, 1350.633
582.3554, 1331.189
582.8375, 1301.471
583.3196, 1276.264
583.8018, 1261.801
584.2839, 1254.969
584.7660, 1251.079
585.2481, 1252.016
585.7302, 1250.523
586.2123, 1245.587
586.6945, 1239.373
587.1766, 1232.377
587.6587, 1224.798
588.1408, 1215.932
588.6229, 1204.322
589.1050, 1194.970
589.5872, 1197.711
590.0693, 1211.973
590.5514, 1220.447
591.0335, 1216.242
591.5156, 1211.497
591.9977, 1223.226
592.4799, 1248.222
592.9620, 1260.119
593.4441, 1242.603
593.9262, 1223.654
594.4083, 1221.012
594.8904, 1228.609
595.3726, 1233.769
595.8547, 1231.993
596.3368, 1227.452
596.8189, 1226.622
597.3010, 1231.199
597.7831, 1231.336
598.2653, 1220.960
598.7474, 1212.412
599.2295, 1210.810
599.7116, 1213.197
600.1937, 1214.258
600.6758, 1211.548
601.1580, 1210.181
601.6401, 1218.225
602.1222, 1233.128
602.6043, 1242.079
603.0864, 1242.517
603.5685, 1238.787
604.0507, 1233.172
604.5328, 1226.086
605.0149, 1221.187
605.4970, 1221.757
605.9791, 1220.648
606.4612, 1212.352
606.9434, 1202.353
607.4255, 1198.075
607.9076, 1200.934
608.3897, 1206.594
608.8718, 1210.782
609.3539, 1213.510
609.8361, 1215.583
610.3182, 1218.424
610.8003, 1218.113
611.2824, 1208.874
611.7645, 1198.432
612.2466, 1196.080
612.7288, 1203.906
613.2109, 1212.451
613.6930, 1214.477
614.1751, 1213.364
614.6572, 1215.815
615.1393, 1222.323
615.6215, 1228.514
616.1036, 1231.646
616.5857, 1232.480
617.0678, 1233.845
617.5499, 1237.274
618.0320, 1239.077
618.5142, 1236.600
618.9963, 1234.365
619.4784, 1236.229
619.9605, 1241.746
620.4426, 1248.000
620.9247, 1253.241
621.4069, 1257.436
621.8890, 1259.708
622.3711, 1259.262
622.8532, 1261.742
623.3353, 1270.341
623.8174, 1280.745
624.2996, 1288.115
624.7817, 1292.714
625.2638, 1298.792
625.7459, 1311.639
626.2280, 1322.785
626.7101, 1323.438
627.1923, 1317.014
627.6744, 1312.469
628.1565, 1313.347
628.6386, 1317.958
629.1207, 1324.436
629.6028, 1334.656
630.0850, 1339.143
630.5671, 1329.646
631.0492, 1322.836
631.5313, 1325.678
632.0134, 1334.102
632.4955, 1341.946
632.9777, 1347.341
633.4598, 1351.101
633.9419, 1353.727
634.4240, 1355.314
634.9061, 1355.010
635.3882, 1352.072
635.8704, 1352.327
636.3525, 1360.281
636.8346, 1375.176
637.3167, 1392.312
