##NAMES=Pyrope
##RRUFFID=R060445
##IDEAL CHEMISTRY=Mg_3_Al_2_(SiO_4_)_3_
##LOCALITY=Tanzania
##OWNER=RRUFF
##SOURCE=Gemological Institute of America
##DESCRIPTION=Deep red water worn pebble, variety rhodolite
##STATUS=The identification of this mineral has been confirmed by X-ray diffraction and chemical analysis
##URL=rruff.info/R060445
##MEASURED CHEMISTRY=(Mg_1.83_Fe_1.08_Ca_0.07_Mn_0.02_)_Î£=3_Al_2.00_(Si_1.00_O_4_)_3_
92.37695, 32.12938
92.85907, 31.65591
93.34119, 31.80595
93.82330, 32.37925
94.30542, 32.69722
94.78754, 32.51223
95.26965, 31.93647
95.75177, 31.23684
96.23389, 30.44934
96.71600, 29.64472
97.19812, 28.89097
97.68024, 28.19100
98.16235, 27.57439
98.64447, 27.08349
99.12659, 26.72997
99.60870, 26.39881
100.0908, 26.18370
100.5729, 26.01709
101.0551, 25.81508
101.5372, 25.52336
102.0193, 25.16970
102.5014, 24.92209
102.9835, 24.79583
103.4656, 24.76390
103.9478, 24.92871
104.4299, 25.18624
104.9120, 25.34159
105.3941, 25.22404
105.8762, 24.79264
106.3583, 24.51661
106.8405, 24.55134
107.3226, 24.57530
107.8047, 24.38346
108.2868, 23.96460
108.7689, 23.47100
109.2510, 23.04525
109.7332, 22.68537
110.2153, 22.44284
110.6974, 22.41831
111.1795, 22.49244
111.6616, 22.45083
112.1437, 22.18093
112.6259, 21.94105
113.1080, 22.05228
113.5901, 22.48368
114.0722, 22.92006
114.5543, 23.17330
115.0364, 23.25038
115.5185, 23.26786
116.0007, 23.16124
116.4828, 23.06611
116.9649, 23.07505
117.4470, 23.20031
117.9291, 23.37478
118.4112, 23.49826
118.8934, 23.51282
119.3755, 23.62277
119.8576, 23.90444
120.3397, 24.24501
120.8218, 24.59935
121.3039, 24.94537
121.7861, 25.22855
122.2682, 25.29058
122.7503, 24.70231
123.2324, 24.34898
123.7145, 24.45865
124.1966, 24.81518
124.6788, 25.10147
125.1609, 25.12862
125.6430, 24.93231
126.1251, 24.82714
126.6072, 24.82293
127.0893, 24.87185
127.5715, 25.04228
128.0536, 25.28971
128.5357, 25.38716
129.0178, 25.06814
129.4999, 24.43524
129.9821, 24.13117
130.4642, 24.50219
130.9463, 25.04066
131.4284, 25.14670
131.9105, 24.70254
132.3926, 24.28396
132.8748, 24.46473
133.3569, 24.98732
133.8390, 25.40063
134.3211, 25.40888
134.8032, 25.14324
135.2853, 25.07833
135.7674, 25.38489
136.2496, 25.66950
136.7317, 25.66456
137.2138, 25.46956
137.6959, 25.34113
138.1780, 25.55162
138.6601, 26.15670
139.1423, 26.51002
139.6244, 26.33525
140.1065, 26.12863
140.5886, 26.04792
141.0707, 26.11426
141.5528, 26.27937
142.0350, 26.49862
142.5171, 26.81588
142.9992, 27.07160
143.4813, 27.30416
143.9634, 27.46399
144.4455, 27.51139
144.9277, 27.43832
145.4098, 27.27343
145.8919, 27.04805
146.3740, 26.62847
146.8561, 26.41371
147.3382, 26.60696
147.8204, 26.95388
148.3025, 27.11197
148.7846, 26.93684
149.2667, 26.61678
149.7488, 26.58057
150.2309, 26.92407
150.7131, 27.16154
151.1952, 27.03011
151.6773, 26.63247
152.1594, 26.30569
152.6415, 26.22094
153.1236, 26.22274
153.6058, 26.05264
154.0879, 25.66157
154.5700, 25.25185
155.0521, 25.00620
155.5342, 24.93350
156.0163, 24.84074
156.4985, 24.63416
156.9806, 24.38690
157.4627, 24.13832
157.9448, 23.88789
158.4269, 23.67957
158.9090, 23.59588
159.3912, 23.69501
159.8733, 23.77552
160.3554, 23.87109
160.8375, 23.89301
161.3196, 23.70794
161.8017, 23.24131
162.2839, 22.63382
162.7660, 22.32563
163.2481, 22.67088
163.7302, 22.85030
164.2123, 22.60384
164.6944, 22.17167
165.1766, 21.87160
165.6587, 21.89255
166.1408, 22.16611
166.6229, 22.23662
167.1050, 21.88647
167.5871, 21.57130
168.0693, 21.33339
168.5514, 21.19803
169.0335, 21.22299
169.5156, 21.47409
169.9977, 21.92522
170.4798, 22.13989
170.9620, 22.04171
171.4441, 21.83823
171.9262, 21.54786
172.4083, 21.20638
172.8904, 20.93458
173.3725, 20.82226
173.8547, 20.87733
174.3368, 20.98681
174.8189, 21.19683
175.3010, 21.42958
175.7831, 21.62294
176.2652, 21.77431
176.7474, 21.90963
177.2295, 22.01433
177.7116, 22.11807
178.1937, 22.29496
178.6758, 22.61311
179.1579, 22.99496
179.6401, 23.34791
180.1222, 23.68755
180.6043, 23.94288
181.0864, 23.98690
181.5685, 23.92774
182.0506, 23.94677
182.5328, 24.20059
183.0149, 24.58473
183.4970, 24.75704
183.9791, 24.58868
184.4612, 24.39310
184.9433, 24.34560
185.4255, 24.36963
185.9076, 24.31029
186.3897, 23.98603
186.8718, 23.45261
187.3539, 23.33985
187.8360, 24.15914
188.3182, 24.88711
188.8003, 25.18553
189.2824, 25.16182
189.7645, 25.06656
190.2466, 25.09121
190.7287, 25.24125
191.2109, 25.38284
191.6930, 25.46606
192.1751, 25.58925
192.6572, 25.82117
193.1393, 26.12732
193.6214, 26.40996
194.1036, 26.56650
194.5857, 26.56079
195.0678, 26.74273
195.5499, 27.26331
196.0320, 27.78932
196.5141, 28.11573
196.9963, 28.27507
197.4784, 28.46510
197.9605, 28.86677
198.4426, 29.51184
198.9247, 30.21242
199.4068, 31.00464
199.8890, 31.81822
200.3711, 32.56464
200.8532, 33.25274
201.3353, 34.03260
201.8174, 35.11459
202.2995, 36.51585
202.7817, 37.62955
203.2638, 38.14069
203.7459, 38.52450
204.2280, 39.24199
204.7101, 40.35461
205.1922, 41.59173
205.6744, 42.79706
206.1565, 43.95296
206.6386, 44.92591
207.1207, 45.66056
207.6028, 46.20866
208.0849, 46.67932
208.5671, 47.12684
209.0492, 47.32367
209.5313, 47.01564
210.0134, 46.32873
210.4955, 45.44828
210.9776, 44.41698
211.4598, 43.23863
211.9419, 41.87880
212.4240, 40.25316
212.9061, 38.63626
213.3882, 37.16163
213.8703, 35.80827
214.3525, 34.55308
214.8346, 33.45037
215.3167, 32.43752
215.7988, 31.27093
216.2809, 29.74027
216.7630, 28.38962
217.2451, 27.49743
217.7273, 26.90976
218.2094, 26.35802
218.6915, 25.68238
219.1736, 24.90730
219.6557, 24.18093
220.1378, 23.47170
220.6200, 22.86947
221.1021, 22.43719
221.5842, 22.11850
222.0663, 21.82134
222.5484, 21.48581
223.0305, 21.11943
223.5127, 20.79386
223.9948, 20.52926
224.4769, 20.29308
224.9590, 20.03474
225.4411, 19.80324
225.9232, 19.69628
226.4054, 19.79484
226.8875, 20.07186
227.3696, 20.21061
227.8517, 20.21971
228.3338, 20.07217
228.8159, 19.59680
229.2981, 18.96813
229.7802, 18.49241
230.2623, 18.37718
230.7444, 18.58568
231.2265, 18.70403
231.7086, 18.58439
232.1908, 18.54223
232.6729, 18.78552
233.1550, 19.16133
233.6371, 19.33606
234.1192, 19.07302
234.6013, 18.46511
235.0835, 18.22398
235.5656, 18.54888
236.0477, 18.93938
236.5298, 19.33482
237.0119, 19.68724
237.4940, 19.90380
237.9762, 19.91941
238.4583, 19.77009
238.9404, 19.62611
239.4225, 19.40609
239.9046, 19.27581
240.3867, 19.31760
240.8689, 19.49442
241.3510, 19.74700
241.8331, 20.09527
242.3152, 20.44159
242.7973, 20.48977
243.2794, 20.05293
243.7616, 19.66802
244.2437, 19.62072
244.7258, 19.81845
245.2079, 19.96937
245.6900, 19.91846
246.1721, 19.79794
246.6543, 19.89332
247.1364, 20.28745
247.6185, 20.64846
248.1006, 20.78569
248.5827, 20.74681
249.0648, 20.70145
249.5470, 20.69949
250.0291, 20.72413
250.5112, 20.76179
250.9933, 20.82322
251.4754, 20.83943
251.9576, 20.68994
252.4397, 20.43661
252.9218, 20.37795
253.4039, 20.71382
253.8860, 21.11649
254.3681, 21.19650
254.8503, 20.95611
255.3324, 20.72421
255.8145, 20.76585
256.2966, 21.01276
256.7787, 21.09199
257.2608, 20.80894
257.7430, 20.51586
258.2251, 20.51956
258.7072, 20.78503
259.1893, 21.08077
259.6714, 21.26329
260.1535, 21.35103
260.6357, 21.45754
261.1178, 21.64784
261.5999, 21.77629
262.0820, 21.74145
262.5641, 21.57750
263.0462, 21.39021
263.5284, 21.19427
264.0105, 21.01257
264.4926, 20.99948
264.9747, 21.29292
265.4568, 21.56110
265.9389, 21.62155
266.4211, 21.54248
266.9032, 21.45802
267.3853, 21.42037
267.8674, 21.44177
268.3495, 21.59546
268.8316, 21.99890
269.3138, 22.35836
269.7959, 22.65766
270.2780, 22.83446
270.7601, 22.75150
271.2422, 22.25249
271.7243, 21.53007
272.2065, 21.26682
272.6886, 21.77097
273.1707, 22.23430
273.6528, 22.38058
274.1349, 22.39035
274.6170, 22.48978
275.0992, 22.79477
275.5813, 23.18413
276.0634, 23.34187
276.5455, 23.13846
277.0276, 22.93604
277.5097, 22.78817
277.9919, 22.67905
278.4740, 22.59075
278.9561, 22.51658
279.4382, 22.47019
279.9203, 22.47953
280.4024, 22.56257
280.8846, 22.66767
281.3667, 22.79642
281.8488, 22.93608
282.3309, 23.10409
282.8130, 23.29461
283.2951, 23.44534
283.7773, 23.44318
284.2594, 23.19154
284.7415, 23.02742
285.2236, 22.99255
285.7057, 23.00794
286.1878, 23.02905
286.6700, 23.05036
287.1521, 23.09554
287.6342, 23.20947
288.1163, 23.43698
288.5984, 23.54878
289.0805, 23.53375
289.5627, 23.42545
290.0448, 23.12355
290.5269, 22.70962
291.0090, 22.42839
291.4911, 22.54249
291.9732, 23.10147
292.4554, 23.41614
292.9375, 23.22082
293.4196, 23.05058
293.9017, 23.14014
294.3838, 23.39458
294.8659, 23.56055
295.3481, 23.43234
295.8302, 23.04960
296.3123, 22.95759
296.7944, 23.46837
297.2765, 23.95138
297.7586, 24.27535
298.2408, 24.49747
298.7229, 24.72864
299.2050, 25.03421
299.6871, 25.36471
300.1692, 25.52384
300.6513, 25.31100
301.1335, 25.15721
301.6156, 25.08553
302.0977, 25.09599
302.5798, 25.19576
303.0619, 25.38634
303.5440, 25.64230
304.0262, 25.91991
304.5083, 26.28783
304.9904, 26.56399
305.4725, 26.59228
305.9546, 26.62800
306.4367, 26.94701
306.9189, 27.58289
307.4010, 28.27335
307.8831, 28.62394
308.3652, 28.40124
308.8473, 28.45040
309.3294, 28.77787
309.8116, 29.31782
310.2937, 30.15206
310.7758, 31.20651
311.2579, 32.20849
311.7400, 32.83957
312.2221, 32.99798
312.7043, 33.56708
313.1864, 34.95260
313.6685, 36.29105
314.1506, 37.23513
314.6327, 37.84801
315.1148, 38.35746
315.5970, 38.92185
316.0791, 39.53496
316.5612, 40.10833
317.0433, 40.88276
317.5254, 41.35289
318.0075, 41.35143
318.4897, 40.98608
318.9718, 40.38659
319.4539, 39.61251
319.9360, 38.71832
320.4181, 37.86343
320.9002, 36.85923
321.3824, 36.17221
321.8645, 35.95698
322.3466, 35.99919
322.8287, 36.14329
323.3108, 36.32278
323.7929, 36.47602
324.2751, 36.46428
324.7572, 35.99282
325.2393, 35.95296
325.7214, 36.60793
326.2035, 37.43488
326.6856, 38.11549
327.1678, 38.59375
327.6499, 38.97156
328.1320, 39.34891
328.6141, 39.71142
329.0962, 40.15437
329.5783, 40.51955
330.0605, 41.09885
330.5426, 42.10743
331.0247, 43.45055
331.5068, 44.86814
331.9889, 46.16825
332.4710, 47.36001
332.9532, 48.59014
333.4353, 49.74664
333.9174, 51.08331
334.3995, 52.73836
334.8816, 54.58015
335.3637, 56.45809
335.8459, 58.28915
336.3280, 60.04956
336.8101, 61.60563
337.2922, 62.77827
337.7743, 64.01264
338.2564, 65.23551
338.7386, 66.59354
339.2206, 68.32434
339.7028, 70.45744
340.1849, 72.64130
340.6670, 74.28415
341.1491, 74.99748
341.6312, 76.13689
342.1133, 77.99461
342.5955, 79.96817
343.0776, 81.70847
343.5597, 83.22653
344.0418, 84.74064
344.5239, 86.39404
345.0060, 88.16465
345.4882, 90.46165
345.9703, 93.63857
346.4524, 97.05115
346.9345, 100.5485
347.4166, 104.1642
347.8987, 108.0101
348.3809, 112.1527
348.8630, 116.5435
349.3451, 120.8562
349.8272, 124.7553
350.3093, 129.2134
350.7914, 134.6041
351.2736, 140.4768
351.7557, 146.4257
352.2378, 152.3216
352.7199, 158.1022
353.2020, 163.8358
353.6841, 169.9790
354.1663, 174.6186
354.6484, 176.8690
355.1305, 178.1314
355.6126, 179.4208
356.0947, 180.6616
356.5768, 180.7651
357.0590, 178.5016
357.5411, 173.8234
358.0232, 168.5147
358.5053, 162.4438
358.9874, 155.8163
359.4695, 148.4394
359.9517, 140.6341
360.4338, 133.0215
360.9159, 125.8948
361.3980, 119.2652
361.8801, 113.0924
362.3622, 107.4990
362.8444, 102.1794
363.3265, 96.82900
363.8086, 91.74566
364.2907, 87.26536
364.7728, 83.48242
365.2549, 80.23481
365.7371, 77.35190
366.2192, 74.83293
366.7013, 72.58099
367.1834, 70.64629
367.6655, 68.93958
368.1476, 67.44514
368.6298, 66.14167
369.1119, 64.89154
369.5940, 63.51517
370.0761, 62.08448
370.5582, 60.98936
371.0403, 60.37959
371.5225, 59.90289
372.0046, 59.45532
372.4867, 58.95855
372.9688, 58.19031
373.4509, 56.91522
373.9330, 55.41948
374.4152, 54.15994
374.8973, 53.17730
375.3794, 52.12656
375.8615, 50.83652
376.3436, 49.37399
376.8257, 47.83548
377.3079, 46.20858
377.7900, 44.54901
378.2721, 42.86099
378.7542, 41.16242
379.2363, 39.54963
379.7184, 38.07899
380.2006, 36.64016
380.6827, 35.01540
381.1648, 33.20855
381.6469, 31.60378
382.1290, 30.41582
382.6111, 29.45677
383.0933, 28.46339
383.5754, 27.39774
384.0575, 26.38450
384.5396, 25.53140
385.0217, 24.82696
385.5038, 24.09001
385.9860, 23.13404
386.4681, 22.31280
386.9502, 21.95174
387.4323, 21.93377
387.9144, 21.84815
388.3965, 21.49933
388.8787, 20.96627
389.3608, 20.44691
389.8429, 19.95801
390.3250, 19.44083
390.8071, 18.72123
391.2892, 18.03668
391.7714, 17.76421
392.2535, 17.97188
392.7356, 18.26563
393.2177, 18.17139
393.6998, 17.58042
394.1819, 17.10165
394.6641, 16.82121
395.1462, 16.56267
395.6283, 16.15620
396.1104, 15.67639
396.5925, 15.39119
397.0746, 15.50560
397.5568, 15.91193
398.0389, 16.00392
398.5210, 15.36324
399.0031, 14.90646
399.4852, 14.90812
399.9673, 15.06340
400.4495, 15.01471
400.9316, 14.65724
401.4137, 14.17744
401.8958, 13.84854
402.3779, 13.68070
402.8600, 13.65026
403.3422, 13.90692
403.8243, 14.14807
404.3064, 14.18606
404.7885, 14.06405
405.2706, 13.95671
405.7527, 14.00737
406.2349, 14.18920
406.7170, 14.29255
407.1991, 14.35172
407.6812, 14.26592
408.1633, 13.85167
408.6454, 13.36471
409.1276, 13.12441
409.6097, 13.25162
410.0918, 13.50501
410.5739, 13.48622
411.0560, 13.11508
411.5381, 12.90526
412.0203, 13.14237
412.5024, 13.39024
412.9845, 13.37390
413.4666, 13.12233
413.9487, 12.85391
414.4308, 12.69487
414.9130, 12.63765
415.3951, 12.67432
415.8772, 12.84989
416.3593, 13.00874
416.8414, 13.09907
417.3235, 13.11177
417.8057, 12.99515
418.2878, 12.66284
418.7699, 12.34865
419.2520, 12.34507
419.7341, 12.61266
420.2162, 12.76672
420.6984, 12.67377
421.1805, 12.43926
421.6626, 12.12976
422.1447, 11.73340
422.6268, 11.53971
423.1089, 11.88951
423.5911, 12.39782
424.0732, 12.46805
424.5553, 12.03288
425.0374, 11.57459
425.5195, 11.45405
426.0016, 11.63955
426.4838, 11.79774
426.9659, 11.91367
427.4480, 12.01904
427.9301, 12.19006
428.4122, 12.35595
428.8943, 12.31944
429.3765, 11.98608
429.8586, 11.56510
430.3407, 11.43315
430.8228, 11.79296
431.3049, 12.01050
431.7870, 11.99528
432.2692, 11.90045
432.7513, 11.80684
433.2334, 11.73579
433.7155, 11.70510
434.1976, 11.73673
434.6797, 11.82347
435.1619, 11.85934
435.6440, 11.70907
436.1261, 11.66572
436.6082, 11.86321
437.0903, 12.15669
437.5724, 12.42855
438.0546, 12.62528
438.5367, 12.66925
439.0188, 12.33229
439.5009, 11.33232
439.9830, 10.86996
440.4651, 11.56559
440.9473, 12.27724
441.4294, 12.46531
441.9115, 12.21888
442.3936, 11.89741
442.8757, 11.70383
443.3578, 11.63353
443.8400, 11.72075
444.3221, 12.08449
444.8042, 12.30673
445.2863, 12.03193
445.7684, 11.65665
446.2505, 11.58893
446.7327, 11.92834
447.2148, 12.30657
447.6969, 12.39813
448.1790, 12.24384
448.6611, 12.05475
449.1432, 11.83064
449.6254, 11.63992
450.1075, 11.59332
450.5896, 11.63772
451.0717, 11.60138
451.5538, 11.31859
452.0359, 11.02224
452.5181, 10.91840
453.0002, 11.00027
453.4823, 11.25677
453.9644, 11.77268
454.4465, 12.35321
454.9286, 12.49425
455.4108, 12.02862
455.8929, 11.71954
456.3750, 11.87533
456.8571, 12.20055
457.3392, 12.37126
457.8214, 12.34499
458.3035, 12.27179
458.7856, 12.27971
459.2677, 12.36972
459.7498, 12.47134
460.2319, 12.72277
460.7141, 12.82761
461.1962, 12.54932
461.6783, 12.12176
462.1604, 11.88628
462.6425, 11.97009
463.1246, 12.22241
463.6068, 12.38514
464.0889, 12.40020
464.5710, 12.47785
465.0531, 12.72712
465.5352, 12.93414
466.0173, 12.96961
466.4995, 12.87473
466.9816, 12.76980
467.4637, 12.72484
467.9458, 12.73513
468.4279, 12.77552
468.9100, 12.81920
469.3922, 12.96514
469.8743, 13.35581
470.3564, 13.79263
470.8385, 14.11621
471.3206, 14.30286
471.8027, 14.43427
472.2849, 14.55182
472.7670, 14.66308
473.2491, 14.79175
473.7312, 14.93564
474.2133, 15.11050
474.6954, 15.38346
475.1776, 15.69387
475.6597, 15.87754
476.1418, 15.71725
476.6239, 15.65822
477.1060, 16.14125
477.5881, 16.98685
478.0703, 17.66235
478.5524, 17.97222
479.0345, 18.09960
479.5166, 18.27236
479.9987, 18.47479
480.4808, 18.82364
480.9630, 19.35395
481.4451, 20.00838
481.9272, 20.84297
482.4093, 21.77933
482.8914, 22.59257
483.3735, 23.14147
483.8557, 23.49924
484.3378, 23.93815
484.8199, 24.68256
485.3020, 25.17408
485.7841, 25.30180
486.2662, 25.24712
486.7484, 25.17616
487.2305, 25.08761
487.7126, 24.83154
488.1947, 24.20982
488.6768, 23.25720
489.1589, 22.55313
489.6411, 22.29432
490.1232, 21.97239
490.6053, 21.30108
491.0874, 20.54548
491.5695, 19.99466
492.0516, 19.72843
492.5338, 19.67399
493.0159, 19.83809
493.4980, 20.19113
493.9801, 20.47315
494.4622, 20.67397
494.9443, 20.74674
495.4265, 20.44146
495.9086, 19.95000
496.3907, 19.86246
496.8728, 20.55098
497.3549, 21.49169
497.8370, 22.27181
498.3192, 22.93514
498.8013, 23.63189
499.2834, 24.40210
499.7655, 25.27460
500.2476, 26.32154
500.7297, 27.59355
501.2119, 28.86587
501.6940, 30.21637
502.1761, 31.48785
502.6582, 32.47188
503.1403, 33.26389
503.6224, 34.24708
504.1045, 35.70275
504.5866, 37.39401
505.0688, 38.47316
505.5509, 38.68946
506.0330, 38.64100
506.5151, 38.32065
506.9972, 37.81067
507.4793, 37.24244
507.9615, 36.57380
508.4436, 35.56330
508.9257, 33.88746
509.4078, 31.68460
509.8899, 29.88461
510.3720, 28.61926
510.8542, 27.46303
511.3363, 26.23965
511.8184, 25.05134
512.3005, 24.00394
512.7827, 23.11733
513.2648, 22.34196
513.7469, 21.63562
514.2290, 21.03306
514.7111, 20.49146
515.1932, 20.09457
515.6754, 19.77343
516.1575, 19.52981
516.6396, 19.33825
517.1217, 19.07980
517.6038, 18.54429
518.0859, 18.18211
518.5681, 18.42319
519.0502, 18.91528
519.5323, 19.00227
520.0144, 18.50538
520.4965, 17.83193
520.9786, 17.47429
521.4608, 17.48574
521.9429, 17.49731
522.4250, 17.42108
522.9071, 17.43964
523.3892, 17.73072
523.8713, 18.12629
524.3535, 18.35938
524.8356, 18.32089
525.3177, 18.14908
525.7998, 18.06228
526.2819, 18.07267
526.7640, 18.10931
527.2462, 18.21674
527.7283, 18.29734
528.2104, 18.23102
528.6925, 18.10589
529.1746, 18.15421
529.6567, 18.60126
530.1389, 19.06311
530.6210, 18.82724
531.1031, 17.95627
531.5852, 17.62303
532.0673, 18.38400
532.5494, 19.46510
533.0316, 19.86726
533.5137, 19.64043
533.9958, 19.50662
534.4779, 19.68256
534.9600, 19.94399
535.4421, 20.14892
535.9243, 20.29021
536.4064, 20.32184
536.8885, 20.18856
537.3706, 20.10357
537.8527, 20.54986
538.3348, 22.04419
538.8170, 23.03806
539.2991, 23.09403
539.7812, 23.07937
540.2633, 23.48923
540.7454, 24.26526
541.2275, 25.10396
541.7097, 25.81186
542.1918, 26.80657
542.6739, 27.45860
543.1560, 28.83000
543.6381, 30.11030
544.1202, 31.25281
544.6024, 32.22075
545.0845, 32.82122
545.5666, 33.16054
546.0487, 33.73421
546.5308, 34.92887
547.0129, 36.45615
547.4951, 37.88505
547.9772, 39.22002
548.4593, 40.49210
548.9414, 41.61584
549.4235, 42.79264
549.9056, 44.40235
550.3878, 46.44035
550.8699, 48.69029
551.3520, 51.16062
551.8341, 53.77659
552.3162, 56.45823
552.7983, 59.22447
553.2805, 62.15477
553.7626, 65.31200
554.2447, 68.66308
554.7268, 72.14157
555.2089, 75.87631
555.6910, 79.50089
556.1732, 83.13504
556.6553, 86.57520
557.1374, 89.88757
557.6195, 92.93470
558.1016, 95.37701
558.5837, 97.03496
559.0659, 97.93195
559.5480, 98.17540
560.0301, 97.81807
560.5122, 96.45936
560.9943, 93.70550
561.4764, 90.11474
561.9586, 86.22669
562.4407, 82.05872
562.9228, 77.70805
563.4049, 73.10918
563.8870, 68.41313
564.3691, 63.68894
564.8513, 58.99916
565.3334, 54.59912
565.8155, 50.58447
566.2976, 46.98740
566.7797, 43.87160
567.2618, 41.46594
567.7440, 39.07555
568.2261, 36.55221
568.7082, 34.19745
569.1903, 32.17539
569.6724, 30.46600
570.1545, 28.96842
570.6367, 27.64317
571.1188, 26.45514
571.6009, 25.35100
572.0830, 24.32336
572.5651, 23.37275
573.0472, 22.49942
573.5294, 21.71129
574.0115, 21.02643
574.4936, 20.42566
574.9757, 19.86788
575.4578, 19.36317
575.9399, 18.85650
576.4221, 18.24389
576.9042, 17.55712
577.3863, 16.96099
577.8684, 16.49401
578.3505, 16.16538
578.8326, 16.03016
579.3148, 16.10731
579.7969, 16.09002
580.2790, 15.92756
580.7611, 15.71445
581.2432, 15.42795
581.7253, 15.14068
582.2075, 14.98225
582.6896, 14.99353
583.1717, 15.06704
583.6538, 15.05167
584.1359, 14.93029
584.6180, 14.84241
585.1002, 14.78929
585.5823, 14.77066
586.0643, 14.74478
586.5464, 14.76796
587.0286, 14.93732
587.5107, 15.28969
587.9928, 15.67641
588.4749, 15.95152
