##NAMES=Pyroxmangite
##RRUFFID=R060999
##IDEAL CHEMISTRY=Mn^2+^SiO_3_
##LOCALITY=Yokoneyama, Tochigi, Japan
##OWNER=RRUFF
##SOURCE=Michael Scott
##DESCRIPTION=Pink bladed crystals frozen in matrix associated with protomangano-ferro-anthophyllite R061000
##STATUS=The identification of this mineral is confirmed by single-crystal X-ray diffraction and chemical analysis.
##URL=rruff.info/R060999
##MEASURED CHEMISTRY=(Mn^2+^_0.61_Fe^2+^_0.27_Mg_0.09_Ca_0.03_)_Î£=1_Si_1.00_O_3_
130.6883, 1867.366
131.1704, 1993.616
131.6525, 2129.726
132.1346, 2261.049
132.6167, 2372.385
133.0988, 2463.164
133.5810, 2536.604
134.0631, 2598.598
134.5452, 2641.018
135.0273, 2653.549
135.5094, 2632.323
135.9915, 2583.121
136.4737, 2508.114
136.9558, 2393.161
137.4379, 2291.187
137.9200, 2213.330
138.4021, 2155.788
138.8842, 2116.549
139.3664, 2095.635
139.8485, 2090.860
140.3306, 2097.616
140.8127, 2115.972
141.2948, 2147.913
141.7769, 2186.896
142.2591, 2239.088
142.7412, 2312.783
143.2233, 2413.002
143.7054, 2534.208
144.1875, 2655.907
144.6696, 2772.118
145.1517, 2897.841
145.6339, 3031.834
146.1160, 3176.594
146.5981, 3338.050
147.0802, 3521.410
147.5623, 3720.143
148.0444, 3903.236
148.5266, 4062.814
149.0087, 4211.184
149.4908, 4346.759
149.9729, 4473.383
150.4550, 4596.500
150.9371, 4721.878
151.4193, 4846.612
151.9014, 4950.940
152.3835, 5026.265
152.8656, 5088.804
153.3477, 5147.964
153.8298, 5196.115
154.3120, 5217.665
154.7941, 5200.696
155.2762, 5147.378
155.7583, 5095.845
156.2404, 5065.876
156.7225, 5016.850
157.2047, 4921.227
157.6868, 4796.612
158.1689, 4680.970
158.6510, 4601.913
159.1331, 4558.102
159.6152, 4504.449
160.0974, 4442.415
160.5795, 4371.097
161.0616, 4280.073
161.5437, 4177.755
162.0258, 4085.321
162.5079, 4019.091
162.9901, 3979.055
163.4722, 3934.162
163.9543, 3883.264
164.4364, 3829.930
164.9185, 3773.014
165.4007, 3714.417
165.8828, 3660.320
166.3649, 3615.088
166.8470, 3579.046
167.3291, 3545.066
167.8112, 3509.500
168.2933, 3479.059
168.7755, 3460.711
169.2576, 3452.004
169.7397, 3442.856
170.2218, 3426.204
170.7039, 3402.007
171.1860, 3376.441
171.6682, 3347.677
172.1503, 3319.458
172.6324, 3286.983
173.1145, 3253.844
173.5966, 3238.302
174.0787, 3260.149
174.5609, 3315.060
175.0430, 3341.630
175.5251, 3316.327
176.0072, 3284.200
176.4893, 3271.461
176.9714, 3277.541
177.4536, 3290.302
177.9357, 3301.854
178.4178, 3313.168
178.8999, 3329.766
179.3820, 3354.102
179.8641, 3381.447
180.3463, 3413.012
180.8284, 3447.314
181.3105, 3473.027
181.7926, 3480.048
182.2747, 3470.749
182.7568, 3466.435
183.2390, 3477.866
183.7211, 3485.739
184.2032, 3474.001
184.6853, 3443.929
185.1674, 3411.150
185.6495, 3386.712
186.1317, 3367.021
186.6138, 3337.729
187.0959, 3285.192
187.5780, 3233.601
188.0601, 3201.349
188.5422, 3187.313
189.0244, 3178.029
189.5065, 3169.219
189.9886, 3158.356
190.4707, 3139.424
190.9528, 3101.439
191.4349, 3065.352
191.9170, 3044.763
192.3992, 3039.380
192.8813, 3047.348
193.3634, 3074.142
193.8455, 3112.060
194.3276, 3139.066
194.8097, 3143.661
195.2919, 3149.700
195.7740, 3178.337
196.2561, 3227.210
196.7382, 3273.068
197.2203, 3302.717
197.7024, 3322.438
198.1846, 3347.845
198.6667, 3380.447
199.1488, 3416.943
199.6309, 3459.617
200.1130, 3507.104
200.5951, 3545.663
201.0773, 3566.562
201.5594, 3575.949
202.0415, 3589.251
202.5236, 3610.185
203.0057, 3628.010
203.4878, 3629.581
203.9700, 3618.669
204.4521, 3620.891
204.9342, 3654.984
205.4163, 3700.195
205.8984, 3718.744
206.3805, 3701.640
206.8627, 3681.624
207.3448, 3679.204
207.8269, 3691.102
208.3090, 3703.438
208.7911, 3714.668
209.2732, 3720.094
209.7554, 3712.284
210.2375, 3688.114
210.7196, 3664.397
211.2017, 3654.416
211.6838, 3653.304
212.1659, 3643.460
212.6480, 3618.048
213.1302, 3584.282
213.6123, 3550.858
214.0944, 3516.761
214.5765, 3488.393
215.0586, 3469.874
215.5407, 3459.400
216.0229, 3454.291
216.5050, 3458.608
216.9871, 3459.324
217.4692, 3432.765
217.9513, 3378.385
218.4334, 3339.568
218.9156, 3343.211
219.3977, 3373.507
219.8798, 3397.872
220.3619, 3409.468
220.8440, 3416.332
221.3261, 3424.626
221.8083, 3434.215
222.2904, 3451.350
222.7725, 3488.335
223.2546, 3531.297
223.7367, 3555.315
224.2188, 3554.349
224.7010, 3546.373
225.1831, 3548.591
225.6652, 3559.283
226.1473, 3569.907
226.6294, 3575.990
227.1115, 3582.129
227.5937, 3595.634
228.0758, 3617.789
228.5579, 3640.004
229.0400, 3653.639
229.5221, 3660.485
230.0042, 3670.485
230.4864, 3691.181
230.9685, 3711.702
231.4506, 3719.094
231.9327, 3713.021
232.4148, 3707.103
232.8969, 3708.753
233.3791, 3719.094
233.8612, 3738.245
234.3433, 3779.808
234.8254, 3819.492
235.3075, 3833.388
235.7896, 3825.105
236.2717, 3825.520
236.7539, 3858.516
237.2360, 3911.850
237.7181, 3939.642
238.2002, 3920.715
238.6823, 3899.798
239.1644, 3897.955
239.6466, 3912.801
240.1287, 3938.463
240.6108, 3976.392
241.0929, 4019.255
241.5750, 4047.278
242.0571, 4059.340
242.5393, 4061.750
243.0214, 4051.835
243.5035, 4034.123
243.9856, 4016.397
244.4677, 4000.348
244.9498, 3988.996
245.4320, 3992.021
245.9141, 4019.534
246.3962, 4034.836
246.8783, 4019.751
247.3604, 3991.215
247.8425, 3972.996
248.3247, 3971.928
248.8068, 3978.868
249.2889, 3979.207
249.7710, 3966.490
250.2531, 3967.295
250.7352, 4000.841
251.2174, 4039.227
251.6995, 4051.684
252.1816, 4033.932
252.6637, 4008.398
253.1458, 3999.000
253.6279, 4008.999
254.1101, 4026.306
254.5922, 4054.287
255.0743, 4086.466
255.5564, 4118.237
256.0385, 4149.665
256.5206, 4184.613
257.0027, 4227.275
257.4849, 4278.542
257.9670, 4322.048
258.4491, 4346.682
258.9312, 4375.961
259.4133, 4420.763
259.8954, 4478.715
260.3776, 4543.212
260.8597, 4611.712
261.3418, 4682.160
261.8239, 4739.757
262.3060, 4770.167
262.7881, 4804.171
263.2703, 4853.971
263.7524, 4909.804
264.2345, 4957.125
264.7166, 4988.671
265.1987, 5008.335
265.6808, 5027.925
266.1630, 5047.618
266.6451, 5067.122
267.1272, 5083.783
267.6093, 5101.612
268.0914, 5129.524
268.5735, 5169.184
269.0557, 5206.367
269.5378, 5215.455
270.0199, 5179.418
270.5020, 5148.484
270.9841, 5116.956
271.4662, 5094.485
271.9484, 5091.801
272.4305, 5107.708
272.9126, 5127.988
273.3947, 5135.245
273.8768, 5125.082
274.3589, 5123.624
274.8411, 5140.251
275.3232, 5157.364
275.8053, 5163.250
276.2874, 5162.606
276.7695, 5170.061
277.2516, 5197.486
277.7338, 5243.973
278.2159, 5296.840
278.6980, 5368.635
279.1801, 5430.081
279.6622, 5466.727
280.1443, 5488.174
280.6265, 5509.481
281.1086, 5538.413
281.5907, 5572.439
282.0728, 5604.162
282.5549, 5631.186
283.0370, 5661.871
283.5192, 5704.857
284.0013, 5749.949
284.4834, 5787.393
284.9655, 5813.942
285.4476, 5832.918
285.9297, 5843.182
286.4119, 5842.425
286.8940, 5856.216
287.3761, 5903.800
287.8582, 5960.452
288.3403, 6004.516
288.8224, 6033.525
289.3046, 6061.378
289.7867, 6098.099
290.2688, 6142.479
290.7509, 6188.958
291.2330, 6240.067
291.7151, 6288.008
292.1972, 6323.321
292.6794, 6347.972
293.1615, 6374.931
293.6436, 6418.238
294.1257, 6464.524
294.6078, 6485.247
295.0899, 6473.043
295.5721, 6465.828
296.0542, 6503.667
296.5363, 6573.571
297.0184, 6619.536
297.5005, 6616.888
297.9826, 6601.210
298.4648, 6603.281
298.9469, 6620.413
299.4290, 6630.093
299.9111, 6618.397
300.3932, 6590.292
300.8753, 6565.455
301.3575, 6550.340
301.8396, 6529.778
302.3217, 6499.997
302.8038, 6460.886
303.2859, 6409.377
303.7680, 6342.989
304.2502, 6271.182
304.7323, 6211.374
305.2144, 6168.164
305.6965, 6128.267
306.1786, 6089.990
306.6607, 6055.141
307.1429, 6024.788
307.6250, 5999.480
308.1071, 5979.754
308.5892, 5967.543
309.0713, 5965.993
309.5534, 5956.109
310.0356, 5932.580
310.5177, 5907.334
310.9998, 5877.387
311.4819, 5849.664
311.9640, 5840.536
312.4461, 5863.786
312.9283, 5915.247
313.4104, 5956.128
313.8925, 5980.391
314.3746, 6000.005
314.8567, 6006.329
315.3388, 6012.922
315.8210, 6036.931
316.3031, 6085.821
316.7852, 6151.108
317.2673, 6219.248
317.7494, 6299.855
318.2315, 6359.757
318.7137, 6364.830
319.1958, 6369.953
319.6779, 6418.707
320.1600, 6514.327
320.6421, 6617.965
321.1242, 6682.297
321.6064, 6706.798
322.0885, 6762.331
322.5706, 6878.597
323.0527, 6997.138
323.5348, 7078.654
324.0169, 7134.114
324.4991, 7196.009
324.9812, 7288.426
325.4633, 7396.764
325.9454, 7487.957
326.4275, 7557.357
326.9096, 7626.492
327.3918, 7712.451
327.8739, 7804.087
328.3560, 7882.727
328.8381, 7935.251
329.3202, 7989.545
329.8023, 8077.901
330.2845, 8192.508
330.7666, 8291.094
331.2487, 8359.312
331.7308, 8403.523
332.2129, 8433.162
332.6950, 8446.803
333.1772, 8457.342
333.6593, 8471.244
334.1414, 8483.604
334.6235, 8491.219
335.1056, 8493.595
335.5877, 8480.904
336.0698, 8440.936
336.5519, 8368.804
337.0341, 8298.148
337.5162, 8234.684
337.9983, 8167.930
338.4804, 8100.314
338.9625, 8025.357
339.4446, 7922.560
339.9268, 7774.215
340.4089, 7593.014
340.8910, 7449.917
341.3731, 7390.085
341.8552, 7316.466
342.3373, 7210.461
342.8195, 7088.723
343.3016, 6968.381
343.7837, 6855.234
344.2658, 6748.743
344.7479, 6647.160
345.2300, 6548.172
345.7122, 6461.831
346.1943, 6390.208
346.6764, 6328.981
347.1585, 6278.187
347.6406, 6236.950
348.1227, 6203.571
348.6049, 6178.860
349.0870, 6161.467
349.5691, 6138.462
350.0512, 6100.268
350.5333, 6073.234
351.0154, 6067.038
351.4976, 6077.425
351.9797, 6100.932
352.4618, 6140.307
352.9439, 6184.206
353.4260, 6214.945
353.9081, 6232.064
354.3903, 6256.849
354.8724, 6300.023
355.3545, 6350.981
355.8366, 6399.610
356.3187, 6447.225
356.8008, 6480.542
357.2830, 6490.767
357.7651, 6482.886
358.2472, 6459.491
358.7293, 6418.062
359.2114, 6385.210
359.6935, 6393.387
360.1757, 6442.431
360.6578, 6462.970
361.1399, 6435.458
361.6220, 6394.141
362.1041, 6356.771
362.5862, 6323.149
363.0684, 6289.276
363.5505, 6253.509
364.0326, 6215.256
364.5147, 6172.435
364.9968, 6125.082
365.4789, 6072.684
365.9611, 6012.569
366.4432, 5949.096
366.9253, 5885.229
367.4074, 5822.371
367.8895, 5761.809
368.3716, 5707.090
368.8538, 5661.902
369.3359, 5603.598
369.8180, 5518.416
370.3001, 5433.254
370.7822, 5360.690
371.2643, 5295.667
371.7465, 5224.793
372.2286, 5138.972
372.7107, 5043.951
373.1928, 4957.027
373.6749, 4881.893
374.1570, 4803.972
374.6392, 4712.099
375.1213, 4618.934
375.6034, 4535.811
376.0855, 4465.602
376.5676, 4399.165
377.0497, 4329.228
377.5319, 4256.679
378.0140, 4185.566
378.4961, 4114.865
378.9782, 4049.266
379.4603, 3990.025
379.9424, 3937.950
380.4246, 3903.432
380.9066, 3901.030
381.3888, 3908.580
381.8709, 3905.123
382.3530, 3891.786
382.8351, 3881.439
383.3172, 3881.953
383.7993, 3890.108
384.2815, 3893.316
384.7636, 3871.613
385.2457, 3872.865
385.7278, 3915.412
386.2099, 3980.416
386.6920, 4051.108
387.1742, 4121.918
387.6563, 4187.871
388.1384, 4239.222
388.6205, 4265.880
389.1026, 4326.209
389.5847, 4454.482
390.0669, 4579.628
390.5490, 4675.018
391.0311, 4747.036
391.5132, 4811.586
391.9953, 4876.745
392.4774, 4943.063
392.9596, 5014.556
393.4417, 5097.911
393.9238, 5168.917
394.4059, 5226.840
394.8880, 5266.899
395.3701, 5279.866
395.8523, 5264.867
396.3344, 5239.881
396.8165, 5219.831
397.2986, 5201.290
397.7807, 5171.134
398.2628, 5126.695
398.7450, 5074.015
399.2271, 5010.451
399.7092, 4941.149
400.1913, 4884.772
400.6734, 4848.491
401.1555, 4822.687
401.6377, 4797.479
402.1198, 4776.659
402.6019, 4775.431
403.0840, 4803.365
403.5661, 4845.557
404.0482, 4869.871
404.5304, 4856.755
405.0125, 4866.059
405.4946, 4918.594
405.9767, 4982.027
406.4588, 5027.880
406.9409, 5056.747
407.4231, 5088.835
407.9052, 5140.947
408.3873, 5212.609
408.8694, 5295.062
409.3515, 5389.580
409.8336, 5494.693
410.3158, 5605.072
410.7979, 5727.148
411.2800, 5870.470
411.7621, 6038.713
412.2442, 6219.582
412.7263, 6397.053
413.2085, 6569.985
413.6906, 6759.404
414.1727, 6966.068
414.6548, 7194.940
415.1369, 7451.500
415.6190, 7731.985
416.1012, 8018.931
416.5833, 8321.251
417.0654, 8617.552
417.5475, 8874.391
418.0296, 9093.883
418.5117, 9305.348
418.9939, 9528.720
419.4760, 9748.696
419.9581, 9925.479
420.4402, 10072.58
420.9223, 10162.11
421.4044, 10178.21
421.8866, 10138.44
422.3687, 10062.70
422.8508, 9954.126
423.3329, 9800.907
423.8150, 9587.174
424.2971, 9310.963
424.7793, 9035.029
425.2614, 8773.108
425.7435, 8495.589
426.2256, 8185.913
426.7077, 7859.764
427.1898, 7535.444
427.6719, 7221.836
428.1541, 6911.877
428.6362, 6592.529
429.1183, 6261.357
429.6004, 5941.014
430.0825, 5624.172
430.5646, 5329.689
431.0468, 5066.402
431.5289, 4833.119
432.0110, 4621.636
432.4931, 4440.013
432.9752, 4272.040
433.4573, 4087.312
433.9395, 3885.262
434.4216, 3707.494
434.9037, 3576.856
435.3858, 3478.699
435.8679, 3379.417
436.3500, 3276.590
436.8322, 3178.711
437.3143, 3085.176
437.7964, 2999.233
438.2785, 2925.026
438.7606, 2862.731
439.2427, 2806.389
439.7249, 2749.635
440.2070, 2692.818
440.6891, 2653.389
441.1712, 2644.883
441.6533, 2638.414
442.1354, 2630.377
442.6176, 2620.813
443.0997, 2607.921
443.5818, 2591.460
444.0639, 2578.851
444.5460, 2582.239
445.0281, 2602.828
445.5103, 2619.403
445.9924, 2628.708
446.4745, 2635.748
446.9566, 2643.064
447.4387, 2650.716
447.9208, 2658.976
448.4030, 2670.094
448.8851, 2679.820
449.3672, 2681.926
449.8493, 2677.727
450.3314, 2675.836
450.8135, 2680.627
451.2957, 2686.791
451.7778, 2686.135
452.2599, 2679.496
452.7420, 2663.747
453.2241, 2634.058
453.7062, 2598.785
454.1884, 2561.118
454.6705, 2523.017
455.1526, 2488.522
455.6347, 2460.833
456.1168, 2437.600
456.5989, 2408.536
457.0811, 2365.804
457.5632, 2330.161
458.0453, 2312.997
458.5274, 2296.783
459.0095, 2262.612
459.4916, 2211.336
459.9738, 2166.380
460.4559, 2155.179
460.9380, 2168.092
461.4201, 2159.995
461.9022, 2122.401
462.3843, 2090.829
462.8665, 2088.595
463.3486, 2104.192
463.8307, 2118.050
464.3128, 2131.815
464.7949, 2136.925
465.2770, 2121.878
465.7592, 2097.199
466.2413, 2081.310
466.7234, 2077.947
467.2055, 2078.781
467.6876, 2075.817
468.1697, 2068.750
468.6519, 2062.755
469.1340, 2053.166
469.6161, 2049.733
470.0982, 2063.264
470.5803, 2081.604
471.0624, 2087.582
471.5445, 2075.400
472.0266, 2055.301
472.5088, 2040.046
472.9909, 2029.595
473.4730, 2025.118
473.9551, 2035.214
474.4372, 2040.180
474.9193, 2027.225
475.4015, 2001.949
475.8836, 1976.500
476.3657, 1951.976
476.8478, 1932.861
477.3299, 1929.531
477.8120, 1937.274
478.2942, 1932.448
478.7763, 1904.976
479.2584, 1871.678
479.7405, 1855.747
480.2226, 1862.463
480.7047, 1862.180
481.1869, 1842.052
481.6690, 1826.301
482.1511, 1832.961
482.6332, 1854.477
483.1153, 1873.243
483.5974, 1880.335
484.0796, 1879.820
484.5617, 1878.727
485.0438, 1873.205
485.5259, 1878.124
486.0080, 1911.738
486.4901, 1941.589
486.9723, 1944.766
487.4544, 1928.723
487.9365, 1920.336
488.4186, 1937.160
488.9007, 1966.226
489.3828, 1986.028
489.8650, 1997.161
490.3471, 2017.341
490.8292, 2057.052
491.3113, 2103.593
491.7934, 2135.430
492.2755, 2150.702
492.7577, 2166.675
493.2398, 2191.372
493.7219, 2213.461
494.2040, 2219.218
494.6861, 2213.914
495.1682, 2215.973
495.6504, 2236.696
496.1325, 2268.959
496.6146, 2293.042
497.0967, 2309.271
497.5788, 2315.988
498.0609, 2313.454
498.5431, 2301.738
499.0252, 2276.745
499.5073, 2241.404
499.9894, 2206.009
500.4715, 2175.566
500.9536, 2149.727
501.4358, 2125.556
501.9179, 2102.825
502.4000, 2093.201
502.8821, 2106.609
503.3642, 2129.468
503.8463, 2136.961
504.3285, 2124.562
504.8106, 2124.603
505.2927, 2146.374
505.7748, 2180.528
506.2569, 2221.513
506.7390, 2268.179
507.2212, 2319.330
507.7033, 2374.721
508.1854, 2433.490
508.6675, 2493.377
509.1496, 2550.642
509.6317, 2616.815
510.1139, 2706.499
510.5960, 2792.925
511.0781, 2851.102
511.5602, 2889.597
512.0423, 2944.400
512.5244, 3045.120
513.0065, 3167.130
513.4886, 3270.595
513.9708, 3355.986
514.4529, 3430.545
514.9350, 3490.996
515.4171, 3549.499
515.8992, 3630.438
516.3813, 3740.483
516.8635, 3827.901
517.3456, 3867.511
517.8277, 3898.104
518.3098, 3952.018
518.7919, 4020.198
519.2740, 4074.175
519.7562, 4099.395
520.2383, 4103.230
520.7204, 4103.569
521.2025, 4106.908
521.6846, 4087.772
522.1667, 4036.799
522.6489, 3968.187
523.1310, 3876.135
523.6131, 3771.144
524.0952, 3680.689
524.5773, 3630.201
525.0594, 3583.126
525.5416, 3488.094
526.0237, 3353.617
526.5058, 3230.168
526.9879, 3132.871
527.4700, 3048.594
527.9521, 2961.903
528.4343, 2873.100
528.9164, 2781.159
529.3985, 2679.134
529.8806, 2581.167
530.3627, 2499.664
530.8448, 2425.297
531.3270, 2338.379
531.8091, 2232.311
532.2912, 2128.398
532.7733, 2065.928
533.2554, 2052.485
533.7375, 2007.052
534.2197, 1894.517
534.7018, 1797.494
535.1839, 1770.338
535.6660, 1785.144
536.1481, 1793.579
536.6302, 1784.544
537.1124, 1766.929
537.5945, 1739.330
538.0766, 1708.966
538.5587, 1693.788
539.0408, 1697.026
539.5229, 1702.902
540.0051, 1696.907
540.4872, 1679.475
540.9693, 1664.596
541.4514, 1648.782
541.9335, 1639.969
542.4156, 1642.301
542.8978, 1650.635
543.3799, 1661.622
543.8620, 1673.844
544.3441, 1684.949
544.8262, 1689.314
545.3083, 1690.549
545.7905, 1706.775
546.2726, 1742.143
546.7547, 1772.043
547.2368, 1782.896
547.7189, 1783.569
548.2010, 1788.392
548.6832, 1795.595
549.1653, 1813.357
549.6474, 1849.655
550.1295, 1893.293
550.6116, 1933.871
551.0938, 1972.166
551.5759, 2016.878
552.0580, 2073.623
552.5401, 2135.342
553.0222, 2182.388
553.5043, 2212.656
553.9865, 2234.177
554.4686, 2238.371
554.9507, 2241.829
555.4328, 2253.879
555.9149, 2272.129
556.3970, 2287.896
556.8792, 2294.145
557.3613, 2301.058
557.8434, 2328.170
558.3255, 2367.010
558.8076, 2381.891
559.2897, 2361.200
559.7719, 2327.277
560.2540, 2303.704
560.7361, 2291.684
561.2182, 2278.273
561.7003, 2265.139
562.1824, 2248.873
562.6646, 2231.580
563.1467, 2209.010
563.6288, 2172.959
564.1109, 2122.710
564.5930, 2070.861
565.0751, 2036.791
565.5573, 2014.946
566.0394, 1963.237
566.5215, 1871.981
567.0036, 1785.902
567.4857, 1726.614
567.9678, 1686.139
568.4500, 1646.445
568.9321, 1603.392
569.4142, 1575.218
569.8963, 1576.705
570.3784, 1588.238
570.8605, 1595.077
571.3427, 1595.480
571.8248, 1589.959
572.3069, 1578.287
572.7890, 1563.780
573.2711, 1554.355
573.7532, 1550.527
574.2354, 1550.295
574.7175, 1554.570
575.1996, 1561.556
575.6817, 1572.805
576.1638, 1585.895
576.6459, 1594.839
577.1281, 1597.230
577.6102, 1595.382
578.0923, 1590.133
578.5744, 1582.221
579.0565, 1574.119
579.5386, 1566.396
580.0208, 1555.648
580.5029, 1537.808
580.9850, 1513.104
581.4671, 1491.495
581.9492, 1476.783
582.4313, 1460.578
582.9134, 1441.969
583.3955, 1421.119
583.8776, 1399.880
584.3597, 1377.481
584.8419, 1348.820
585.3240, 1299.972
585.8061, 1245.752
586.2882, 1224.842
586.7703, 1237.252
587.2524, 1237.803
587.7346, 1204.955
588.2167, 1159.630
588.6988, 1134.155
589.1809, 1133.000
589.6630, 1135.229
590.1451, 1150.732
590.6273, 1158.963
591.1094, 1142.505
591.5915, 1113.766
592.0736, 1093.896
592.5557, 1090.534
593.0378, 1094.140
593.5200, 1092.042
594.0021, 1084.890
594.4842, 1084.873
594.9663, 1095.290
595.4484, 1104.803
595.9305, 1106.518
596.4127, 1103.323
596.8948, 1102.605
597.3769, 1107.981
597.8590, 1106.485
598.3411, 1082.438
598.8232, 1058.562
599.3054, 1060.933
599.7875, 1084.142
600.2696, 1102.405
600.7517, 1100.416
601.2338, 1087.068
601.7159, 1082.152
602.1981, 1087.166
602.6802, 1093.353
603.1623, 1098.309
603.6444, 1106.444
604.1265, 1125.260
604.6086, 1148.850
605.0908, 1162.620
605.5729, 1161.234
606.0550, 1153.120
606.5371, 1132.106
607.0192, 1111.910
607.5013, 1118.706
607.9835, 1153.526
608.4656, 1191.171
608.9477, 1212.239
609.4298, 1218.427
609.9119, 1217.388
610.3940, 1202.480
610.8762, 1194.468
611.3583, 1198.311
611.8404, 1208.761
612.3225, 1224.980
612.8046, 1245.506
613.2867, 1265.859
613.7689, 1287.742
614.2510, 1304.917
614.7331, 1307.621
615.2152, 1301.293
615.6973, 1299.477
616.1794, 1305.680
616.6616, 1316.516
617.1437, 1329.434
617.6258, 1344.240
618.1079, 1354.599
618.5900, 1357.522
619.0721, 1360.167
619.5543, 1359.219
620.0364, 1361.657
620.5185, 1374.136
621.0006, 1396.631
621.4827, 1423.003
621.9648, 1453.184
622.4470, 1483.007
622.9291, 1502.730
623.4112, 1516.112
623.8933, 1545.675
624.3754, 1601.130
624.8575, 1654.336
625.3397, 1666.119
