##NAMES=Pyrope
##RRUFFID=R050112
##IDEAL CHEMISTRY=Mg_3_Al_2_(SiO_4_)_3_
##LOCALITY=Cruzeiro mine, San Jose, Minas Gerais, Brazil
##OWNER=RRUFF
##SOURCE=Carlos and Paulo Vasconcelos
##DESCRIPTION=Dark red crystal fragment
##STATUS=The identification of this mineral has been confirmed by X-ray diffraction and chemical analysis
##URL=rruff.info/R050112
##MEASURED CHEMISTRY=(Mg_1.49_Fe^2+^_1.18_Ca_0.29_Mn_0.04_)_Σ=3_(Al_1.99_Fe^3+^_0.01_)_Σ=2_(Si_1.00_O_4_)_3_
119.9516, 3802.424
120.4337, 3809.128
120.9158, 3794.270
121.3980, 3767.320
121.8801, 3761.699
122.3622, 3790.795
122.8443, 3819.206
123.3264, 3836.566
123.8085, 3844.011
124.2907, 3844.917
124.7728, 3838.538
125.2549, 3827.200
125.7370, 3820.696
126.2191, 3823.952
126.7012, 3829.284
127.1834, 3827.529
127.6655, 3816.728
128.1476, 3808.568
128.6297, 3813.568
129.1118, 3827.202
129.5939, 3842.588
130.0761, 3860.385
130.5582, 3878.334
131.0403, 3889.476
131.5224, 3893.748
132.0045, 3889.516
132.4866, 3870.496
132.9688, 3841.334
133.4509, 3817.702
133.9330, 3816.660
134.4151, 3842.193
134.8972, 3859.257
135.3793, 3854.626
135.8615, 3849.417
136.3436, 3853.997
136.8257, 3869.715
137.3078, 3890.464
137.7899, 3907.844
138.2720, 3923.037
138.7542, 3931.695
139.2363, 3932.477
139.7184, 3928.580
140.2005, 3921.461
140.6826, 3911.843
141.1647, 3901.156
141.6469, 3893.695
142.1290, 3884.982
142.6111, 3885.038
143.0932, 3905.117
143.5753, 3933.556
144.0574, 3950.848
144.5396, 3944.122
145.0217, 3917.237
145.5038, 3905.162
145.9859, 3917.253
146.4680, 3931.489
146.9501, 3939.152
147.4323, 3940.558
147.9144, 3939.824
148.3965, 3939.900
148.8786, 3940.583
149.3607, 3939.640
149.8429, 3935.561
150.3250, 3930.638
150.8071, 3926.956
151.2892, 3924.717
151.7713, 3923.462
152.2534, 3923.008
152.7356, 3923.228
153.2177, 3924.048
153.6998, 3927.736
154.1819, 3931.987
154.6640, 3930.976
155.1461, 3922.438
155.6283, 3910.535
156.1104, 3898.670
156.5925, 3886.788
157.0746, 3874.833
157.5567, 3860.661
158.0388, 3844.483
158.5210, 3834.873
159.0031, 3836.962
159.4852, 3843.752
159.9673, 3854.597
160.4494, 3868.622
160.9315, 3878.770
161.4137, 3874.115
161.8958, 3847.945
162.3779, 3828.855
162.8600, 3819.912
163.3421, 3818.850
163.8242, 3828.243
164.3064, 3848.532
164.7885, 3871.606
165.2706, 3880.491
165.7527, 3865.066
166.2348, 3850.071
166.7169, 3836.111
167.1991, 3824.714
167.6812, 3817.995
168.1633, 3817.098
168.6454, 3820.553
169.1275, 3822.001
169.6096, 3812.439
170.0918, 3810.730
170.5739, 3828.136
171.0560, 3854.571
171.5381, 3872.056
172.0202, 3867.685
172.5023, 3843.292
172.9845, 3837.000
173.4666, 3857.148
173.9487, 3882.489
174.4308, 3910.113
174.9129, 3937.475
175.3951, 3957.948
175.8772, 3964.881
176.3593, 3957.430
176.8414, 3957.249
177.3235, 3971.101
177.8056, 3986.665
178.2878, 3994.653
178.7699, 3994.419
179.2520, 3992.869
179.7341, 3997.674
180.2162, 4008.596
180.6983, 4013.707
181.1805, 4006.124
181.6626, 3994.330
182.1447, 3988.521
182.6268, 3990.708
183.1089, 3996.410
183.5910, 4005.201
184.0732, 4016.155
184.5553, 4017.653
185.0374, 3998.703
185.5195, 3967.580
186.0016, 3943.647
186.4837, 3931.593
186.9659, 3925.581
187.4480, 3920.694
187.9301, 3916.802
188.4122, 3912.215
188.8943, 3903.106
189.3764, 3890.795
189.8586, 3885.982
190.3407, 3894.388
190.8228, 3907.914
191.3049, 3921.633
191.7870, 3935.166
192.2691, 3946.825
192.7513, 3952.674
193.2334, 3951.491
193.7155, 3956.713
194.1976, 3985.605
194.6797, 4012.465
195.1618, 4018.694
195.6440, 4001.254
196.1261, 3978.224
196.6082, 3974.624
197.0903, 3998.163
197.5724, 4017.832
198.0546, 4023.759
198.5367, 4027.530
199.0188, 4038.615
199.5009, 4059.911
199.9830, 4084.354
200.4651, 4098.022
200.9473, 4091.917
201.4294, 4091.445
201.9115, 4099.969
202.3936, 4114.104
202.8757, 4133.008
203.3578, 4156.290
203.8400, 4180.112
204.3221, 4194.196
204.8042, 4191.332
205.2863, 4186.933
205.7684, 4180.119
206.2505, 4173.470
206.7327, 4170.218
207.2148, 4172.144
207.6969, 4177.708
208.1790, 4180.586
208.6611, 4176.729
209.1432, 4174.471
209.6254, 4177.850
210.1075, 4183.008
210.5896, 4183.085
211.0717, 4173.479
211.5538, 4156.590
212.0359, 4149.734
212.5181, 4170.260
213.0002, 4181.047
213.4823, 4165.911
213.9644, 4133.727
214.4465, 4104.402
214.9286, 4091.251
215.4108, 4092.165
215.8929, 4081.154
216.3750, 4045.415
216.8571, 4013.390
217.3392, 3995.883
217.8213, 3991.518
218.3035, 3995.733
218.7856, 4008.894
219.2677, 4028.641
219.7498, 4029.073
220.2319, 3995.765
220.7140, 3958.629
221.1962, 3929.831
221.6783, 3910.382
222.1604, 3901.899
222.6425, 3910.440
223.1246, 3933.265
223.6067, 3937.979
224.0889, 3906.439
224.5710, 3870.861
225.0531, 3855.671
225.5352, 3860.997
226.0173, 3869.762
226.4994, 3868.890
226.9816, 3860.112
227.4637, 3856.330
227.9458, 3864.848
228.4279, 3874.624
228.9100, 3875.671
229.3921, 3867.384
229.8743, 3853.890
230.3564, 3832.952
230.8385, 3808.514
231.3206, 3795.602
231.8027, 3810.110
232.2849, 3830.689
232.7670, 3828.809
233.2491, 3799.925
233.7312, 3769.677
234.2133, 3755.355
234.6954, 3754.501
235.1776, 3764.327
235.6597, 3793.214
236.1418, 3829.305
236.6239, 3857.417
237.1060, 3878.584
237.5881, 3886.738
238.0703, 3866.210
238.5524, 3829.077
239.0345, 3798.951
239.5166, 3783.084
239.9987, 3779.390
240.4808, 3787.884
240.9630, 3815.113
241.4451, 3837.145
241.9272, 3832.988
242.4093, 3812.723
242.8914, 3795.283
243.3735, 3788.389
243.8557, 3789.611
244.3378, 3794.601
244.8199, 3806.023
245.3020, 3815.312
245.7841, 3821.161
246.2662, 3821.697
246.7484, 3811.494
247.2305, 3775.723
247.7126, 3728.499
248.1947, 3713.994
248.6768, 3751.151
249.1589, 3785.317
249.6411, 3779.589
250.1232, 3751.183
250.6053, 3731.799
251.0874, 3742.600
251.5695, 3773.863
252.0516, 3794.449
252.5338, 3800.253
253.0159, 3801.636
253.4980, 3804.157
253.9801, 3806.377
254.4622, 3805.592
254.9443, 3799.358
255.4265, 3789.204
255.9086, 3780.372
256.3907, 3773.257
256.8728, 3767.063
257.3549, 3760.405
257.8370, 3754.350
258.3192, 3751.233
258.8013, 3754.800
259.2834, 3761.586
259.7655, 3757.618
260.2476, 3734.507
260.7297, 3713.569
261.2119, 3702.929
261.6940, 3699.364
262.1761, 3698.165
262.6582, 3697.162
263.1403, 3696.439
263.6224, 3696.357
264.1046, 3697.006
264.5867, 3698.215
265.0688, 3701.104
265.5509, 3704.183
266.0330, 3704.556
266.5151, 3699.070
266.9973, 3691.092
267.4794, 3694.200
267.9615, 3721.034
268.4436, 3737.980
268.9257, 3728.896
269.4078, 3706.984
269.8900, 3689.430
270.3721, 3685.212
270.8542, 3690.612
271.3363, 3694.262
271.8184, 3694.585
272.3005, 3695.865
272.7827, 3698.385
273.2648, 3702.613
273.7469, 3710.333
274.2290, 3723.517
274.7111, 3737.969
275.1932, 3740.835
275.6754, 3722.450
276.1575, 3709.864
276.6396, 3711.402
277.1217, 3720.272
277.6038, 3730.577
278.0859, 3740.340
278.5681, 3747.638
279.0502, 3748.172
279.5323, 3741.040
280.0144, 3727.903
280.4965, 3703.467
280.9786, 3676.937
281.4608, 3655.605
281.9429, 3642.121
282.4250, 3637.194
282.9071, 3644.551
283.3892, 3672.671
283.8713, 3693.958
284.3535, 3705.012
284.8356, 3707.532
285.3177, 3698.916
285.7998, 3678.275
286.2819, 3656.478
286.7640, 3653.717
287.2462, 3679.160
287.7283, 3699.674
288.2104, 3715.652
288.6925, 3722.267
289.1746, 3710.574
289.6567, 3679.221
290.1389, 3644.370
290.6210, 3629.577
291.1031, 3640.972
291.5852, 3652.460
292.0673, 3666.096
292.5495, 3675.224
293.0316, 3671.619
293.5137, 3655.237
293.9958, 3638.464
294.4779, 3636.852
294.9601, 3653.398
295.4422, 3670.455
295.9243, 3697.858
296.4064, 3716.588
296.8885, 3710.363
297.3706, 3681.065
297.8528, 3649.687
298.3349, 3637.238
298.8170, 3645.710
299.2991, 3656.915
299.7812, 3677.423
300.2633, 3694.026
300.7455, 3698.351
301.2276, 3692.149
301.7097, 3684.409
302.1918, 3681.824
302.6739, 3684.427
303.1560, 3689.576
303.6382, 3687.312
304.1203, 3699.813
304.6024, 3754.349
305.0845, 3833.866
305.5666, 3892.434
306.0487, 3888.649
306.5309, 3831.569
307.0130, 3792.179
307.4951, 3777.657
307.9772, 3772.792
308.4593, 3771.562
308.9414, 3773.804
309.4236, 3779.833
309.9057, 3791.544
310.3878, 3806.643
310.8699, 3817.074
311.3520, 3820.680
311.8341, 3823.477
312.3163, 3821.287
312.7984, 3821.350
313.2805, 3836.541
313.7626, 3879.400
314.2447, 3932.251
314.7268, 3957.468
315.2090, 3945.640
315.6911, 3932.463
316.1732, 3932.878
316.6553, 3939.063
317.1374, 3943.022
317.6195, 3941.638
318.1017, 3938.830
318.5838, 3940.650
319.0659, 3948.079
319.5480, 3954.065
320.0301, 3956.501
320.5122, 3955.993
320.9944, 3951.522
321.4765, 3941.906
321.9586, 3933.448
322.4407, 3932.417
322.9228, 3938.805
323.4049, 3948.511
323.8871, 3962.626
324.3692, 3977.959
324.8513, 3990.625
325.3334, 4000.196
325.8155, 4011.447
326.2976, 4033.189
326.7798, 4061.787
327.2619, 4074.311
327.7440, 4056.020
328.2261, 4034.920
328.7082, 4036.770
329.1903, 4060.241
329.6725, 4092.853
330.1546, 4133.669
330.6367, 4179.101
331.1188, 4221.088
331.6009, 4258.633
332.0830, 4292.085
332.5652, 4316.758
333.0473, 4335.813
333.5294, 4362.945
334.0115, 4407.885
334.4936, 4460.640
334.9757, 4508.001
335.4579, 4548.530
335.9400, 4586.928
336.4221, 4625.990
336.9042, 4665.414
337.3863, 4703.229
337.8684, 4734.280
338.3506, 4767.389
338.8327, 4812.729
339.3148, 4869.052
339.7969, 4923.066
340.2790, 4965.315
340.7611, 4999.414
341.2433, 5039.842
341.7254, 5086.762
342.2075, 5139.224
342.6896, 5198.161
343.1717, 5262.467
343.6538, 5329.442
344.1360, 5399.008
344.6181, 5469.662
345.1002, 5535.856
345.5823, 5588.982
346.0644, 5654.497
346.5465, 5747.774
347.0287, 5855.142
347.5108, 5955.958
347.9929, 6043.095
348.4750, 6124.563
348.9571, 6212.010
349.4392, 6307.722
349.9214, 6405.362
350.4035, 6506.587
350.8856, 6607.988
351.3677, 6708.191
351.8498, 6806.136
352.3319, 6900.760
352.8141, 6990.911
353.2962, 7077.416
353.7783, 7152.625
354.2604, 7234.146
354.7425, 7291.147
355.2246, 7300.340
355.7068, 7267.369
356.1889, 7215.434
356.6710, 7162.326
357.1531, 7107.884
357.6352, 7038.698
358.1173, 6949.531
358.5995, 6851.973
359.0816, 6753.711
359.5637, 6648.375
360.0458, 6522.264
360.5279, 6364.661
361.0100, 6188.910
361.4922, 6040.979
361.9743, 5950.437
362.4564, 5849.105
362.9385, 5713.566
363.4206, 5571.532
363.9027, 5449.124
364.3849, 5355.298
364.8670, 5282.251
365.3491, 5219.119
365.8312, 5169.541
366.3133, 5119.892
366.7954, 5066.071
367.2776, 5014.124
367.7597, 4968.709
368.2418, 4929.604
368.7239, 4892.613
369.2060, 4850.393
369.6881, 4801.795
370.1703, 4768.032
370.6524, 4770.418
371.1345, 4765.565
371.6166, 4725.944
372.0987, 4662.155
372.5808, 4604.244
373.0630, 4575.897
373.5451, 4567.340
374.0272, 4542.674
374.5093, 4495.338
374.9915, 4445.988
375.4736, 4401.549
375.9557, 4361.809
376.4378, 4328.667
376.9199, 4307.679
377.4020, 4286.175
377.8842, 4245.328
378.3663, 4184.036
378.8484, 4122.225
379.3305, 4064.148
379.8126, 4012.539
380.2947, 3972.054
380.7769, 3946.317
381.2590, 3919.920
381.7411, 3879.427
382.2232, 3829.437
382.7053, 3786.305
383.1874, 3754.141
383.6696, 3729.867
384.1517, 3713.428
384.6338, 3705.539
385.1159, 3689.003
385.5980, 3654.149
386.0801, 3610.615
386.5623, 3567.754
387.0444, 3526.796
387.5265, 3490.872
388.0086, 3463.134
388.4907, 3444.204
388.9728, 3427.564
389.4550, 3412.870
389.9371, 3400.612
390.4192, 3395.500
390.9013, 3393.907
391.3834, 3383.825
391.8655, 3357.012
392.3477, 3317.713
392.8298, 3287.168
393.3119, 3269.989
393.7940, 3255.122
394.2761, 3241.880
394.7582, 3229.530
395.2404, 3217.312
395.7225, 3204.907
396.2046, 3192.908
396.6867, 3182.326
397.1688, 3174.281
397.6509, 3165.571
398.1331, 3154.186
398.6152, 3143.776
399.0973, 3138.470
399.5794, 3137.290
400.0615, 3134.313
400.5436, 3121.973
401.0258, 3099.258
401.5079, 3087.975
401.9900, 3103.464
402.4721, 3114.553
402.9542, 3109.657
403.4363, 3094.084
403.9185, 3076.941
404.4006, 3061.539
404.8827, 3050.223
405.3648, 3051.873
405.8469, 3074.455
406.3290, 3089.112
406.8112, 3083.367
407.2933, 3067.492
407.7754, 3048.457
408.2575, 3027.176
408.7396, 3006.945
409.2217, 2988.446
409.7039, 2972.213
410.1860, 2967.149
410.6681, 2981.436
411.1502, 2999.619
411.6323, 3006.065
412.1144, 3001.785
412.5966, 2998.016
413.0787, 3003.134
413.5608, 3010.556
414.0429, 3007.170
414.5250, 2990.684
415.0071, 2975.441
415.4893, 2975.040
415.9714, 2985.988
416.4535, 2986.886
416.9356, 2965.543
417.4177, 2944.303
417.8998, 2938.529
418.3820, 2944.057
418.8641, 2947.171
419.3462, 2940.730
419.8283, 2929.620
420.3104, 2927.359
420.7925, 2945.001
421.2747, 2953.188
421.7568, 2941.587
422.2389, 2922.685
422.7210, 2907.755
423.2031, 2899.697
423.6852, 2897.232
424.1674, 2899.672
424.6495, 2909.097
425.1316, 2914.044
425.6137, 2909.722
426.0958, 2906.247
426.5779, 2909.981
427.0601, 2918.075
427.5422, 2923.508
428.0243, 2921.609
428.5064, 2913.533
428.9885, 2903.594
429.4706, 2887.269
429.9528, 2876.880
430.4349, 2881.922
430.9170, 2889.565
431.3991, 2884.729
431.8812, 2862.939
432.3633, 2838.925
432.8455, 2831.958
433.3276, 2842.874
433.8097, 2852.786
434.2918, 2858.328
434.7739, 2862.716
435.2560, 2870.859
435.7382, 2881.277
436.2203, 2885.199
436.7024, 2873.669
437.1845, 2854.142
437.6666, 2837.816
438.1487, 2824.250
438.6309, 2821.533
439.1130, 2844.088
439.5951, 2880.355
440.0772, 2895.242
440.5593, 2869.294
441.0414, 2842.532
441.5236, 2841.505
442.0057, 2856.973
442.4878, 2864.505
442.9699, 2854.238
443.4520, 2836.135
443.9341, 2827.452
444.4163, 2831.231
444.8984, 2837.583
445.3805, 2855.780
445.8626, 2869.705
446.3447, 2860.250
446.8268, 2830.096
447.3090, 2801.978
447.7911, 2796.422
448.2732, 2813.460
448.7553, 2825.476
449.2374, 2829.681
449.7195, 2831.742
450.2017, 2832.612
450.6838, 2831.487
451.1659, 2829.429
451.6480, 2824.275
452.1301, 2817.772
452.6122, 2809.889
453.0944, 2796.573
453.5765, 2795.542
454.0586, 2824.080
454.5407, 2855.086
455.0228, 2873.205
455.5049, 2878.077
455.9871, 2879.106
456.4692, 2884.991
456.9513, 2892.538
457.4334, 2888.121
457.9156, 2866.505
458.3977, 2846.884
458.8798, 2846.716
459.3619, 2856.363
459.8440, 2857.183
460.3261, 2839.415
460.8083, 2820.428
461.2904, 2810.858
461.7725, 2810.398
462.2546, 2819.831
462.7367, 2841.958
463.2188, 2868.148
463.7010, 2884.753
464.1831, 2893.769
464.6652, 2888.294
465.1473, 2846.726
465.6294, 2804.434
466.1115, 2796.010
466.5937, 2820.416
467.0758, 2850.465
467.5579, 2864.291
468.0400, 2862.631
468.5221, 2863.244
469.0042, 2872.050
469.4864, 2876.360
469.9685, 2870.682
470.4506, 2860.442
470.9327, 2850.743
471.4148, 2843.573
471.8969, 2841.270
472.3791, 2849.791
472.8612, 2872.943
473.3433, 2890.073
473.8254, 2894.774
474.3075, 2896.846
474.7896, 2900.094
475.2718, 2904.911
475.7539, 2911.398
476.2360, 2922.089
476.7181, 2933.736
477.2002, 2936.570
477.6823, 2928.105
478.1645, 2925.510
478.6466, 2942.197
479.1287, 2968.386
479.6108, 2985.456
480.0929, 2989.956
480.5750, 2991.232
481.0572, 2990.007
481.5393, 2989.656
482.0214, 2999.140
482.5035, 3021.363
482.9856, 3044.622
483.4677, 3055.870
483.9499, 3053.154
484.4320, 3046.574
484.9141, 3032.720
485.3962, 3018.511
485.8783, 3007.862
486.3604, 2999.714
486.8426, 2992.177
487.3247, 2984.574
487.8068, 2974.891
488.2889, 2955.370
488.7710, 2911.454
489.2531, 2885.520
489.7353, 2893.212
490.2174, 2908.709
490.6995, 2914.020
491.1816, 2907.498
491.6637, 2898.669
492.1458, 2892.286
492.6280, 2889.482
493.1101, 2901.584
493.5922, 2937.960
494.0743, 2969.291
494.5564, 2974.034
495.0385, 2964.942
495.5207, 2959.561
496.0028, 2960.373
496.4849, 2968.034
496.9670, 2984.586
497.4491, 3008.729
497.9312, 3035.587
498.4134, 3063.881
498.8955, 3095.129
499.3776, 3133.813
499.8597, 3182.952
500.3418, 3220.679
500.8239, 3234.556
501.3061, 3246.085
501.7882, 3270.113
502.2703, 3304.769
502.7524, 3342.709
503.2345, 3380.785
503.7166, 3414.921
504.1988, 3427.968
504.6809, 3402.413
505.1630, 3382.152
505.6451, 3379.435
506.1272, 3376.819
506.6093, 3361.907
507.0915, 3332.605
507.5736, 3292.858
508.0557, 3239.482
508.5378, 3175.496
509.0199, 3131.814
509.5020, 3118.996
509.9842, 3106.331
510.4663, 3074.127
510.9484, 3033.250
511.4305, 2999.864
511.9126, 2980.643
512.3948, 2963.011
512.8769, 2937.541
513.3590, 2905.517
513.8411, 2866.074
514.3232, 2814.552
514.8054, 2772.998
515.2875, 2774.262
515.7696, 2828.775
516.2517, 2856.232
516.7338, 2831.802
517.2159, 2800.707
517.6981, 2787.078
518.1802, 2788.664
518.6623, 2797.277
519.1444, 2809.281
519.6265, 2820.811
520.1086, 2820.211
520.5908, 2796.527
521.0729, 2781.808
521.5550, 2781.821
522.0371, 2787.043
522.5192, 2793.365
523.0013, 2799.448
523.4835, 2803.858
523.9656, 2805.614
524.4477, 2804.844
524.9298, 2801.640
525.4119, 2795.452
525.8940, 2788.846
526.3762, 2785.311
526.8583, 2780.768
527.3404, 2766.267
527.8225, 2734.247
528.3046, 2714.748
528.7867, 2736.267
529.2689, 2777.145
529.7510, 2798.956
530.2331, 2794.934
530.7152, 2780.463
531.1973, 2766.021
531.6794, 2751.464
532.1616, 2755.956
532.6437, 2801.209
533.1258, 2837.475
533.6079, 2847.689
534.0900, 2840.751
534.5721, 2825.798
535.0543, 2806.788
535.5364, 2790.549
536.0185, 2788.378
536.5006, 2803.384
536.9827, 2816.292
537.4648, 2820.106
537.9470, 2829.328
538.4291, 2860.653
538.9112, 2901.340
539.3933, 2921.766
539.8754, 2898.751
540.3575, 2867.000
540.8397, 2876.425
541.3218, 2922.685
541.8039, 2956.518
542.2860, 2958.320
542.7681, 2949.526
543.2502, 2959.644
543.7324, 2989.133
544.2145, 3022.924
544.6966, 3059.358
545.1787, 3099.114
545.6608, 3147.450
546.1429, 3200.006
546.6251, 3241.545
547.1072, 3261.847
547.5893, 3271.091
548.0714, 3300.073
548.5535, 3363.141
549.0356, 3420.407
549.5178, 3461.009
549.9999, 3502.598
550.4820, 3556.148
550.9641, 3621.844
551.4462, 3695.155
551.9283, 3774.811
552.4105, 3858.599
552.8926, 3941.479
553.3747, 4024.878
553.8568, 4101.446
554.3389, 4162.923
554.8210, 4218.715
555.3032, 4284.387
555.7853, 4364.024
556.2674, 4437.781
556.7495, 4506.412
557.2316, 4561.003
557.7137, 4589.671
558.1959, 4591.867
558.6780, 4574.616
559.1601, 4543.526
559.6422, 4497.278
560.1243, 4426.513
560.6064, 4309.597
561.0886, 4193.193
561.5707, 4080.779
562.0528, 3971.454
562.5349, 3864.491
563.0170, 3759.557
563.4991, 3654.757
563.9813, 3544.496
564.4634, 3431.101
564.9455, 3332.536
565.4276, 3251.688
565.9097, 3178.699
566.3918, 3106.832
566.8740, 3040.558
567.3561, 2987.635
567.8382, 2952.533
568.3203, 2920.195
568.8024, 2884.379
569.2845, 2845.107
569.7667, 2796.906
570.2488, 2739.789
570.7309, 2693.052
571.2130, 2675.847
571.6951, 2686.240
572.1772, 2683.593
572.6594, 2661.784
573.1415, 2635.416
573.6236, 2597.516
574.1057, 2561.327
574.5878, 2543.147
575.0699, 2545.283
575.5521, 2553.558
576.0342, 2553.358
576.5163, 2545.102
576.9984, 2538.282
577.4805, 2535.776
577.9626, 2529.006
578.4448, 2502.990
578.9269, 2473.736
579.4090, 2467.152
579.8911, 2497.016
580.3732, 2521.919
580.8553, 2507.764
581.3375, 2473.990
581.8196, 2457.186
582.3017, 2463.650
582.7838, 2477.608
583.2659, 2486.386
583.7480, 2490.147
584.2302, 2493.490
584.7123, 2502.374
585.1944, 2503.481
585.6765, 2488.035
586.1586, 2467.048
586.6407, 2451.057
587.1229, 2442.712
587.6050, 2439.080
588.0871, 2438.287
588.5692, 2440.026
589.0513, 2440.761
589.5334, 2439.660
590.0156, 2439.527
590.4977, 2445.589
590.9798, 2451.988
591.4619, 2449.632
591.9440, 2435.303
592.4261, 2419.177
592.9083, 2404.144
593.3904, 2391.441
593.8725, 2383.877
594.3546, 2381.479
594.8367, 2379.473
595.3188, 2373.384
595.8010, 2364.416
596.2831, 2362.837
596.7652, 2379.323
597.2473, 2389.830
597.7294, 2389.189
598.2115, 2383.573
598.6937, 2376.537
599.1758, 2369.612
599.6579, 2365.373
600.1400, 2366.762
600.6221, 2372.598
601.1042, 2379.745
601.5864, 2389.587
602.0685, 2393.751
602.5506, 2384.808
603.0327, 2370.170
603.5148, 2362.698
603.9969, 2363.636
604.4791, 2366.409
604.9612, 2372.928
605.4433, 2377.752
605.9254, 2374.464
606.4075, 2363.744
606.8896, 2350.428
607.3718, 2337.104
607.8539, 2324.842
608.3360, 2317.329
608.8181, 2314.259
609.3002, 2316.849
609.7823, 2330.805
610.2645, 2345.301
610.7466, 2355.932
611.2287, 2361.343
611.7108, 2358.945
612.1929, 2341.599
612.6750, 2320.528
613.1572, 2315.928
613.6393, 2326.582
614.1214, 2332.574
614.6035, 2326.180
615.0856, 2314.146
