##NAMES=Pyrosmalite-(Fe)
##RRUFFID=R070313
##IDEAL CHEMISTRY=Fe^2+^_8_Si_6_O_15_(OH)_10_
##LOCALITY=Broken Hill, New South Wales, Australia
##OWNER=RRUFF
##SOURCE=James Shigley
##DESCRIPTION=Brownish orange massive associated with galena
##STATUS=The identification of this mineral has been confirmed only by X-ray diffraction
##URL=rruff.info/R070313
159.1066, 1393.519
159.5887, 1398.807
160.0709, 1403.814
160.5530, 1409.968
161.0351, 1419.034
161.5172, 1430.880
161.9993, 1446.167
162.4814, 1469.469
162.9636, 1496.463
163.4457, 1519.298
163.9278, 1530.719
164.4099, 1537.441
164.8920, 1552.718
165.3741, 1579.667
165.8563, 1606.339
166.3384, 1621.389
166.8205, 1631.334
167.3026, 1647.841
167.7847, 1680.666
168.2668, 1721.522
168.7490, 1751.363
169.2311, 1765.762
169.7132, 1779.282
170.1953, 1800.244
170.6774, 1825.412
171.1595, 1849.818
171.6417, 1870.387
172.1238, 1889.072
172.6059, 1911.364
173.0880, 1939.780
173.5701, 1966.749
174.0522, 1987.681
174.5344, 2005.629
175.0165, 2024.771
175.4986, 2047.926
175.9807, 2073.224
176.4628, 2095.400
176.9449, 2112.231
177.4271, 2130.056
177.9092, 2148.833
178.3913, 2170.375
178.8734, 2198.001
179.3555, 2235.532
179.8376, 2278.557
180.3197, 2314.522
180.8019, 2341.671
181.2840, 2364.069
181.7661, 2377.581
182.2482, 2389.586
182.7303, 2410.015
183.2124, 2445.065
183.6946, 2489.383
184.1767, 2527.782
184.6588, 2557.596
185.1409, 2585.242
185.6230, 2613.746
186.1051, 2640.908
186.5873, 2664.333
187.0694, 2682.819
187.5515, 2697.123
188.0336, 2710.106
188.5157, 2724.749
188.9978, 2731.867
189.4800, 2733.795
189.9621, 2727.043
190.4442, 2704.954
190.9263, 2663.525
191.4084, 2612.250
191.8905, 2575.141
192.3727, 2562.642
192.8548, 2545.903
193.3369, 2517.113
193.8190, 2483.763
194.3011, 2452.523
194.7832, 2426.020
195.2654, 2403.125
195.7475, 2382.540
196.2296, 2368.521
196.7117, 2348.035
197.1938, 2309.064
197.6759, 2269.478
198.1581, 2249.341
198.6402, 2254.676
199.1223, 2268.285
199.6044, 2255.660
200.0865, 2196.126
200.5686, 2151.431
201.0508, 2133.293
201.5329, 2125.120
202.0150, 2115.007
202.4971, 2099.463
202.9792, 2082.632
203.4613, 2072.746
203.9435, 2078.170
204.4256, 2071.110
204.9077, 2040.554
205.3898, 2005.908
205.8719, 1979.305
206.3540, 1963.508
206.8362, 1954.472
207.3183, 1948.319
207.8004, 1949.694
208.2825, 1941.649
208.7646, 1915.894
209.2467, 1888.245
209.7289, 1867.849
210.2110, 1855.745
210.6931, 1846.979
211.1752, 1835.684
211.6573, 1820.566
212.1395, 1807.967
212.6216, 1799.633
213.1037, 1792.185
213.5858, 1784.168
214.0679, 1775.527
214.5500, 1766.949
215.0322, 1759.157
215.5143, 1752.311
215.9964, 1745.341
216.4785, 1736.182
216.9606, 1728.769
217.4427, 1723.999
217.9249, 1722.226
218.4070, 1724.344
218.8891, 1732.607
219.3712, 1747.442
219.8533, 1752.642
220.3354, 1737.465
220.8176, 1722.571
221.2997, 1713.999
221.7818, 1709.994
222.2639, 1706.225
222.7460, 1699.876
223.2281, 1691.005
223.7103, 1680.752
224.1924, 1665.408
224.6745, 1652.791
225.1566, 1645.641
225.6387, 1641.969
226.1208, 1638.786
226.6030, 1634.385
227.0851, 1629.207
227.5672, 1625.166
228.0493, 1623.333
228.5314, 1621.231
229.0135, 1617.176
229.4957, 1613.102
229.9778, 1612.302
230.4599, 1616.456
230.9420, 1622.042
231.4241, 1619.666
231.9062, 1602.609
232.3884, 1588.978
232.8705, 1582.193
233.3526, 1578.697
233.8347, 1575.222
234.3168, 1570.739
234.7989, 1566.642
235.2811, 1565.783
235.7632, 1570.292
236.2453, 1572.970
236.7274, 1571.281
237.2095, 1569.144
237.6916, 1569.614
238.1738, 1573.067
238.6559, 1577.098
239.1380, 1578.738
239.6201, 1577.486
240.1022, 1575.634
240.5843, 1570.935
241.0665, 1567.551
241.5486, 1568.394
242.0307, 1573.002
242.5128, 1578.202
242.9949, 1580.843
243.4770, 1580.670
243.9592, 1581.057
244.4413, 1583.235
244.9234, 1584.794
245.4055, 1584.899
245.8876, 1583.645
246.3697, 1581.248
246.8519, 1576.815
247.3340, 1571.011
247.8161, 1570.380
248.2982, 1579.472
248.7803, 1587.861
249.2624, 1590.958
249.7446, 1591.181
250.2267, 1592.793
250.7088, 1598.789
251.1909, 1606.898
251.6730, 1609.994
252.1551, 1604.917
252.6373, 1601.240
253.1194, 1603.515
253.6015, 1608.014
254.0836, 1610.652
254.5657, 1609.773
255.0478, 1607.242
255.5300, 1606.132
256.0121, 1606.962
256.4942, 1607.252
256.9763, 1603.845
257.4584, 1601.065
257.9406, 1603.857
258.4227, 1613.503
258.9048, 1622.173
259.3869, 1619.385
259.8690, 1604.424
260.3511, 1594.493
260.8333, 1594.150
261.3154, 1599.081
261.7975, 1609.362
262.2796, 1624.011
262.7617, 1633.564
263.2438, 1628.078
263.7260, 1610.334
264.2081, 1596.598
264.6902, 1589.087
265.1723, 1585.176
265.6544, 1583.327
266.1365, 1583.199
266.6187, 1583.812
267.1008, 1584.935
267.5829, 1586.445
268.0650, 1588.774
268.5471, 1592.846
269.0292, 1594.746
269.5114, 1586.911
269.9935, 1575.394
270.4756, 1571.457
270.9577, 1584.406
271.4398, 1600.867
271.9219, 1603.994
272.4041, 1593.359
272.8862, 1584.222
273.3683, 1585.216
273.8504, 1592.101
274.3325, 1596.459
274.8146, 1597.774
275.2968, 1596.792
275.7789, 1592.752
276.2610, 1586.467
276.7431, 1581.220
277.2252, 1578.173
277.7073, 1576.721
278.1895, 1575.285
278.6716, 1573.044
279.1537, 1573.991
279.6358, 1582.747
280.1179, 1594.934
280.6000, 1602.696
281.0822, 1604.042
281.5643, 1602.646
282.0464, 1602.613
282.5285, 1604.091
283.0106, 1605.034
283.4927, 1604.354
283.9749, 1603.589
284.4570, 1604.393
284.9391, 1606.794
285.4212, 1608.847
285.9033, 1607.586
286.3854, 1603.555
286.8676, 1609.555
287.3497, 1636.158
287.8318, 1661.593
288.3139, 1674.858
288.7960, 1678.365
289.2781, 1678.832
289.7603, 1679.437
290.2424, 1680.723
290.7245, 1685.115
291.2066, 1695.890
291.6887, 1705.501
292.1708, 1711.650
292.6530, 1716.443
293.1351, 1722.251
293.6172, 1729.930
294.0993, 1739.332
294.5814, 1750.223
295.0635, 1763.667
295.5457, 1776.733
296.0278, 1786.238
296.5099, 1797.563
296.9920, 1816.226
297.4741, 1841.764
297.9562, 1867.912
298.4384, 1888.412
298.9205, 1902.744
299.4026, 1915.025
299.8847, 1923.632
300.3668, 1931.874
300.8489, 1940.524
301.3311, 1949.743
301.8131, 1960.170
302.2953, 1972.973
302.7774, 1986.546
303.2595, 1991.548
303.7416, 1975.706
304.2237, 1969.814
304.7058, 1989.070
305.1880, 2016.526
305.6701, 2033.132
306.1522, 2031.623
306.6343, 2021.641
307.1164, 2019.844
307.5985, 2029.754
308.0807, 2034.721
308.5628, 2025.953
309.0449, 2015.363
309.5270, 2010.046
310.0091, 2010.557
310.4912, 2012.744
310.9734, 2013.565
311.4555, 2013.066
311.9376, 2011.108
312.4197, 2004.596
312.9018, 2001.352
313.3839, 2007.661
313.8661, 2020.735
314.3482, 2033.266
314.8303, 2039.696
315.3124, 2044.569
315.7945, 2056.683
316.2766, 2077.055
316.7588, 2098.406
317.2409, 2113.668
317.7230, 2128.583
318.2051, 2153.587
318.6872, 2195.170
319.1693, 2237.472
319.6515, 2267.829
320.1336, 2288.279
320.6157, 2309.285
321.0978, 2335.843
321.5799, 2361.794
322.0620, 2376.318
322.5442, 2378.298
323.0263, 2379.641
323.5084, 2391.058
323.9905, 2400.609
324.4726, 2391.334
324.9547, 2360.391
325.4369, 2319.140
325.9190, 2277.348
326.4011, 2234.990
326.8832, 2191.119
327.3653, 2142.067
327.8474, 2094.695
328.3296, 2051.510
328.8117, 2012.975
329.2938, 1980.875
329.7759, 1956.965
330.2580, 1938.661
330.7401, 1914.996
331.2223, 1877.027
331.7044, 1844.640
332.1865, 1821.718
332.6686, 1804.442
333.1507, 1788.591
333.6328, 1772.953
334.1150, 1759.266
334.5971, 1750.588
335.0792, 1749.781
335.5613, 1746.337
336.0434, 1739.855
336.5255, 1731.467
337.0077, 1720.210
337.4898, 1707.307
337.9719, 1695.911
338.4540, 1689.116
338.9361, 1686.199
339.4182, 1680.123
339.9004, 1665.871
340.3825, 1656.192
340.8646, 1657.123
341.3467, 1663.311
341.8288, 1668.395
342.3109, 1670.150
342.7931, 1669.336
343.2752, 1666.459
343.7573, 1661.142
344.2394, 1656.395
344.7215, 1652.841
345.2036, 1650.236
345.6858, 1647.088
346.1679, 1643.529
346.6500, 1644.151
347.1321, 1656.989
347.6142, 1676.150
348.0963, 1683.460
348.5785, 1673.799
349.0606, 1662.693
349.5427, 1662.611
350.0248, 1670.922
350.5069, 1680.570
350.9890, 1689.546
351.4712, 1700.094
351.9533, 1718.394
352.4354, 1741.764
352.9175, 1754.691
353.3996, 1746.705
353.8817, 1727.422
354.3639, 1722.712
354.8460, 1736.589
355.3281, 1752.633
355.8102, 1772.858
356.2923, 1790.829
356.7744, 1795.989
357.2566, 1786.880
357.7387, 1774.700
358.2208, 1772.102
358.7029, 1781.144
359.1850, 1788.788
359.6671, 1798.318
360.1493, 1803.496
360.6314, 1797.682
361.1135, 1785.458
361.5956, 1776.628
362.0777, 1777.111
362.5598, 1784.632
363.0420, 1791.534
363.5241, 1802.857
364.0062, 1804.656
364.4883, 1786.533
364.9704, 1764.831
365.4525, 1753.931
365.9347, 1756.551
366.4168, 1763.950
366.8989, 1767.319
367.3810, 1766.583
367.8631, 1763.055
368.3452, 1753.444
368.8274, 1745.041
369.3095, 1743.427
369.7916, 1745.775
370.2737, 1744.896
370.7558, 1734.285
371.2379, 1721.102
371.7201, 1719.329
372.2022, 1730.344
372.6843, 1739.574
373.1664, 1741.030
373.6485, 1736.857
374.1306, 1729.233
374.6128, 1715.657
375.0949, 1707.872
375.5770, 1717.488
376.0591, 1736.322
376.5412, 1747.219
377.0233, 1746.089
377.5055, 1741.951
377.9876, 1745.641
378.4697, 1758.348
378.9518, 1759.499
379.4339, 1734.507
379.9160, 1710.791
380.3982, 1709.009
380.8803, 1722.593
381.3624, 1730.787
381.8445, 1721.711
382.3266, 1701.881
382.8087, 1690.872
383.2909, 1693.666
383.7730, 1699.856
384.2551, 1714.745
384.7372, 1729.272
385.2193, 1735.229
385.7014, 1731.894
386.1836, 1725.096
386.6657, 1720.442
387.1478, 1717.986
387.6299, 1717.100
388.1120, 1720.300
388.5941, 1722.121
389.0763, 1717.384
389.5584, 1710.938
390.0405, 1711.699
390.5226, 1725.364
391.0047, 1742.204
391.4868, 1743.826
391.9690, 1727.790
392.4511, 1720.521
392.9332, 1737.402
393.4153, 1758.112
393.8974, 1761.796
394.3795, 1748.417
394.8617, 1735.614
395.3438, 1732.664
395.8259, 1735.563
396.3080, 1738.189
396.7901, 1740.048
397.2722, 1741.323
397.7544, 1742.445
398.2365, 1743.005
398.7186, 1741.464
399.2007, 1735.796
399.6828, 1730.371
400.1649, 1727.500
400.6471, 1725.847
401.1292, 1722.636
401.6113, 1716.923
402.0934, 1711.219
402.5755, 1709.511
403.0576, 1714.154
403.5398, 1715.599
404.0219, 1710.828
404.5040, 1706.131
404.9861, 1707.408
405.4682, 1711.557
405.9503, 1710.018
406.4325, 1696.562
406.9146, 1675.294
407.3967, 1661.190
407.8788, 1657.520
408.3609, 1654.496
408.8430, 1648.170
409.3252, 1642.980
409.8073, 1642.874
410.2894, 1648.305
410.7715, 1656.010
411.2536, 1666.499
411.7357, 1677.870
412.2179, 1677.633
412.7000, 1659.501
413.1821, 1642.973
413.6642, 1645.978
414.1463, 1659.967
414.6284, 1668.293
415.1106, 1665.622
415.5927, 1659.289
416.0748, 1654.024
416.5569, 1649.407
417.0390, 1644.905
417.5211, 1640.974
418.0033, 1634.596
418.4854, 1619.541
418.9675, 1590.216
419.4496, 1572.250
419.9317, 1576.192
420.4138, 1583.951
420.8960, 1584.465
421.3781, 1577.874
421.8602, 1568.347
422.3423, 1558.276
422.8244, 1547.904
423.3065, 1538.121
423.7887, 1526.866
424.2708, 1519.686
424.7529, 1519.964
425.2350, 1522.228
425.7171, 1522.580
426.1992, 1520.219
426.6814, 1515.987
427.1635, 1508.353
427.6456, 1498.105
428.1277, 1497.011
428.6098, 1511.792
429.0919, 1522.750
429.5741, 1515.456
430.0562, 1499.144
430.5383, 1487.120
431.0204, 1482.943
431.5025, 1482.690
431.9846, 1483.640
432.4668, 1485.908
432.9489, 1490.671
433.4310, 1499.062
433.9131, 1507.146
434.3952, 1509.643
434.8773, 1505.821
435.3595, 1503.828
435.8416, 1505.776
436.3237, 1508.148
436.8058, 1510.117
437.2879, 1510.753
437.7701, 1507.890
438.2522, 1500.260
438.7343, 1489.479
439.2164, 1479.396
439.6985, 1468.062
440.1806, 1461.250
440.6628, 1461.349
441.1449, 1463.438
441.6270, 1465.507
442.1091, 1466.766
442.5912, 1466.347
443.0733, 1463.757
443.5555, 1458.914
444.0376, 1450.071
444.5197, 1433.933
445.0018, 1423.068
445.4839, 1428.139
445.9660, 1437.871
446.4482, 1440.474
446.9303, 1433.541
447.4124, 1427.195
447.8945, 1430.959
448.3766, 1439.039
448.8587, 1437.547
449.3409, 1423.970
449.8230, 1410.247
450.3051, 1405.489
450.7872, 1409.181
451.2693, 1413.509
451.7514, 1416.969
452.2336, 1422.724
452.7157, 1435.169
453.1978, 1449.315
453.6799, 1457.038
454.1620, 1456.374
454.6441, 1453.690
455.1263, 1458.313
455.6084, 1473.189
456.0905, 1478.638
456.5726, 1458.914
457.0547, 1445.736
457.5368, 1454.601
458.0190, 1475.016
458.5011, 1489.609
458.9832, 1490.706
459.4653, 1485.274
459.9474, 1480.741
460.4295, 1477.023
460.9117, 1481.992
461.3938, 1502.478
461.8759, 1524.884
462.3580, 1536.937
462.8401, 1540.216
463.3222, 1542.389
463.8044, 1544.720
464.2865, 1547.473
464.7686, 1550.613
465.2507, 1554.309
465.7328, 1558.954
466.2149, 1564.521
466.6971, 1571.885
467.1792, 1583.182
467.6613, 1603.958
468.1434, 1616.521
468.6255, 1618.467
469.1076, 1614.521
469.5898, 1604.454
470.0719, 1590.855
470.5540, 1579.756
471.0361, 1575.493
471.5182, 1574.699
472.0003, 1566.123
472.4825, 1545.135
472.9646, 1529.171
473.4467, 1526.162
473.9288, 1526.508
474.4109, 1523.934
474.8930, 1518.446
475.3752, 1514.461
475.8573, 1513.906
476.3394, 1516.692
476.8215, 1523.883
477.3036, 1535.520
477.7857, 1546.992
478.2679, 1557.199
478.7500, 1564.784
479.2321, 1565.655
479.7142, 1557.215
480.1963, 1549.791
480.6784, 1546.458
481.1606, 1544.224
481.6427, 1540.581
482.1248, 1535.278
482.6069, 1529.196
483.0890, 1522.990
483.5711, 1516.513
484.0533, 1508.924
484.5354, 1501.350
485.0175, 1490.535
485.4996, 1473.046
485.9817, 1454.654
486.4638, 1437.631
486.9460, 1423.358
487.4281, 1416.670
487.9102, 1428.235
488.3923, 1449.971
488.8744, 1455.261
489.3565, 1441.255
489.8387, 1426.169
490.3208, 1419.193
490.8029, 1416.869
491.2850, 1411.907
491.7671, 1403.978
492.2492, 1394.456
492.7314, 1381.919
493.2135, 1369.153
493.6956, 1358.482
494.1777, 1350.587
494.6598, 1347.139
495.1419, 1350.369
495.6241, 1358.519
496.1062, 1359.944
496.5883, 1344.946
497.0704, 1336.915
497.5525, 1345.914
498.0346, 1357.098
498.5168, 1355.885
498.9989, 1342.233
499.4810, 1329.619
499.9631, 1331.303
500.4452, 1342.825
500.9273, 1346.428
501.4095, 1340.112
501.8916, 1334.400
502.3737, 1335.017
502.8558, 1338.180
503.3379, 1337.600
503.8200, 1332.178
504.3022, 1327.232
504.7843, 1325.105
505.2664, 1324.302
505.7485, 1322.488
506.2306, 1319.901
506.7127, 1319.787
507.1949, 1324.876
507.6770, 1333.376
508.1591, 1337.281
508.6412, 1331.016
509.1233, 1328.310
509.6054, 1332.264
510.0876, 1338.018
510.5697, 1342.892
511.0518, 1346.228
511.5339, 1347.812
512.0161, 1347.518
512.4982, 1345.352
512.9803, 1340.128
513.4624, 1330.844
513.9445, 1325.022
514.4266, 1327.277
514.9088, 1332.630
515.3909, 1333.795
515.8730, 1330.254
516.3551, 1319.563
516.8372, 1331.793
517.3193, 1338.535
517.8015, 1340.084
518.2836, 1320.888
518.7657, 1328.480
519.2478, 1325.337
519.7299, 1321.754
520.2120, 1333.116
520.6942, 1316.938
521.1763, 1328.063
521.6584, 1328.289
522.1405, 1333.504
522.6226, 1327.917
523.1047, 1325.666
523.5869, 1334.220
524.0690, 1336.792
524.5511, 1329.961
525.0332, 1335.493
525.5153, 1318.937
525.9974, 1321.763
526.4796, 1332.952
526.9617, 1326.664
527.4438, 1332.393
527.9259, 1333.546
528.4080, 1313.900
528.8901, 1330.424
529.3723, 1331.306
529.8544, 1316.127
530.3365, 1331.412
530.8186, 1318.447
531.3007, 1315.565
531.7828, 1320.273
532.2650, 1317.069
532.7471, 1326.338
533.2292, 1323.591
533.7113, 1319.770
534.1934, 1320.635
534.6755, 1319.858
535.1577, 1322.144
535.6398, 1320.847
536.1219, 1314.363
536.6040, 1308.501
537.0861, 1311.131
537.5682, 1318.824
538.0504, 1319.067
538.5325, 1309.415
539.0146, 1300.228
539.4967, 1300.061
539.9788, 1306.356
540.4609, 1306.292
540.9431, 1291.927
541.4252, 1282.787
541.9073, 1285.061
542.3894, 1292.835
542.8715, 1303.902
543.3536, 1315.703
543.8358, 1321.249
544.3179, 1313.873
544.8000, 1296.859
545.2821, 1284.044
545.7642, 1275.114
546.2463, 1271.325
546.7285, 1277.215
547.2106, 1285.417
547.6927, 1290.878
548.1748, 1293.401
548.6569, 1294.268
549.1390, 1292.258
549.6211, 1290.091
550.1032, 1291.660
550.5853, 1296.009
551.0674, 1298.804
551.5496, 1298.293
552.0317, 1295.631
552.5138, 1292.554
552.9959, 1288.775
553.4780, 1285.523
553.9601, 1279.886
554.4423, 1277.758
554.9244, 1285.581
555.4065, 1297.211
555.8886, 1302.897
556.3707, 1299.005
556.8528, 1290.751
557.3350, 1281.871
557.8171, 1273.179
558.2992, 1272.194
558.7813, 1281.271
559.2634, 1293.055
559.7455, 1305.781
560.2277, 1316.979
560.7098, 1319.542
561.1919, 1308.314
561.6740, 1297.444
562.1561, 1290.357
562.6382, 1286.411
563.1204, 1285.564
563.6025, 1287.348
564.0846, 1290.215
564.5667, 1293.081
565.0488, 1296.139
565.5309, 1300.751
566.0131, 1309.024
566.4952, 1313.488
566.9773, 1306.445
567.4594, 1300.425
567.9415, 1305.727
568.4236, 1319.985
568.9058, 1330.958
569.3879, 1332.552
569.8700, 1329.506
570.3521, 1324.241
570.8342, 1318.131
571.3163, 1317.232
571.7985, 1323.934
572.2806, 1330.760
572.7627, 1328.009
573.2448, 1314.154
573.7269, 1305.086
574.2090, 1301.503
574.6912, 1301.496
575.1733, 1306.087
575.6554, 1313.233
576.1375, 1321.802
576.6196, 1331.152
577.1017, 1338.750
577.5839, 1340.677
578.0660, 1339.036
578.5481, 1341.258
579.0302, 1347.809
579.5123, 1355.414
579.9944, 1364.592
580.4766, 1372.171
580.9587, 1369.857
581.4408, 1354.037
581.9229, 1345.091
582.4050, 1350.318
582.8871, 1359.218
583.3693, 1365.348
583.8514, 1369.504
584.3335, 1374.378
584.8156, 1381.146
585.2977, 1390.356
585.7798, 1404.756
586.2620, 1425.306
586.7441, 1438.558
587.2262, 1439.330
587.7083, 1440.429
588.1904, 1452.433
588.6725, 1468.714
589.1547, 1476.973
589.6368, 1470.648
590.1189, 1469.501
590.6010, 1487.314
591.0831, 1513.366
591.5652, 1534.953
592.0474, 1550.801
592.5295, 1563.453
593.0116, 1573.847
593.4937, 1584.196
593.9758, 1601.349
594.4579, 1625.323
594.9401, 1655.874
595.4222, 1701.023
595.9043, 1745.321
596.3864, 1776.502
596.8685, 1800.656
597.3506, 1834.190
597.8328, 1886.438
598.3149, 1943.180
598.7970, 1987.946
599.2791, 2027.658
599.7612, 2082.346
600.2433, 2156.131
600.7255, 2233.521
601.2076, 2299.548
601.6897, 2357.663
602.1718, 2436.162
602.6539, 2549.043
603.1360, 2664.210
603.6182, 2780.076
604.1003, 2896.613
604.5824, 3011.292
605.0645, 3126.386
605.5466, 3248.483
606.0287, 3382.366
606.5109, 3524.988
606.9930, 3671.398
607.4751, 3822.781
607.9572, 3986.885
608.4393, 4167.890
608.9214, 4356.707
609.4036, 4545.103
609.8857, 4733.351
610.3678, 4922.570
610.8499, 5130.030
611.3320, 5315.830
611.8141, 5472.897
612.2963, 5602.958
612.7784, 5709.276
613.2605, 5790.585
613.7426, 5838.622
614.2247, 5849.894
614.7068, 5821.195
615.1890, 5740.991
615.6711, 5608.321
616.1532, 5443.346
616.6353, 5247.438
617.1174, 5030.441
617.5995, 4800.279
618.0817, 4556.019
618.5638, 4309.384
619.0459, 4047.972
619.5280, 3799.548
620.0101, 3572.271
620.4922, 3365.333
620.9744, 3177.944
621.4565, 3009.139
621.9386, 2855.917
622.4207, 2716.772
622.9028, 2590.388
623.3849, 2473.308
623.8671, 2364.848
624.3492, 2270.532
624.8313, 2196.785
625.3134, 2132.461
625.7955, 2064.861
626.2776, 1994.148
626.7598, 1929.402
627.2419, 1871.386
627.7240, 1820.412
628.2061, 1777.562
628.6882, 1741.980
629.1703, 1714.759
629.6525, 1695.093
630.1346, 1676.880
630.6167, 1653.451
631.0988, 1626.493
631.5809, 1606.263
632.0630, 1594.937
632.5452, 1581.338
633.0273, 1559.757
633.5094, 1536.640
633.9915, 1520.578
634.4736, 1511.092
634.9557, 1497.168
635.4379, 1468.415
635.9200, 1443.493
636.4021, 1436.821
636.8842, 1439.412
637.3663, 1437.893
637.8484, 1428.721
638.3306, 1414.675
638.8127, 1396.883
639.2948, 1376.928
639.7769, 1366.005
640.2590, 1366.889
640.7411, 1366.712
641.2233, 1360.031
641.7054, 1352.586
642.1875, 1352.576
642.6696, 1358.990
643.1517, 1358.505
643.6339, 1339.531
644.1160, 1322.435
644.5981, 1319.914
645.0802, 1325.896
645.5623, 1332.481
646.0444, 1337.190
646.5266, 1339.336
647.0087, 1338.482
647.4908, 1334.426
647.9729, 1324.491
648.4550, 1305.953
648.9371, 1292.946
649.4193, 1291.447
649.9014, 1294.211
650.3835, 1294.688
650.8656, 1293.186
651.3477, 1291.804
651.8298, 1292.581
652.3120, 1291.636
652.7941, 1283.958
653.2762, 1275.014
653.7583, 1273.988
654.2404, 1280.936
654.7225, 1286.353
655.2047, 1282.004
655.6868, 1271.023
656.1689, 1262.769
656.6510, 1256.707
657.1331, 1257.820
