##NAMES=Pyroxferroite
##RRUFFID=R140465
##IDEAL CHEMISTRY=Fe^2+^SiO_3_
##LOCALITY=Isanago mine, Ohro, Kyotango city, Kyoto Prefecture, Kinki Region, Honshu Island, Japan
##OWNER=RRUFF
##SOURCE=Rock Currier
##DESCRIPTION=Vitreous pinkish granular crystals, associated with black magnetite.
##STATUS=The identification of this mineral has been confirmed by single-crystal X-ray diffraction.
##URL=rruff.info/R140465
9.059570e+001, 1.003251e+003
9.107782e+001, 9.806902e+002
9.155994e+001, 9.727168e+002
9.204205e+001, 9.894096e+002
9.252417e+001, 1.013887e+003
9.300629e+001, 1.040733e+003
9.348840e+001, 1.062511e+003
9.397052e+001, 1.072196e+003
9.445264e+001, 1.067126e+003
9.493475e+001, 1.061934e+003
9.541687e+001, 1.055480e+003
9.589898e+001, 1.048260e+003
9.638110e+001, 1.040988e+003
9.686321e+001, 1.034128e+003
9.734533e+001, 1.027136e+003
9.782745e+001, 1.018240e+003
9.830956e+001, 1.011197e+003
9.879168e+001, 1.006740e+003
9.927380e+001, 1.003082e+003
9.975591e+001, 9.995984e+002
1.002380e+002, 9.962677e+002
1.007201e+002, 9.934206e+002
1.012023e+002, 9.913704e+002
1.016844e+002, 9.898722e+002
1.021665e+002, 9.879164e+002
1.026486e+002, 9.851125e+002
1.031307e+002, 9.819727e+002
1.036128e+002, 9.786467e+002
1.040950e+002, 9.748619e+002
1.045771e+002, 9.718893e+002
1.050592e+002, 9.708849e+002
1.055413e+002, 9.708994e+002
1.060234e+002, 9.706612e+002
1.065055e+002, 9.693150e+002
1.069877e+002, 9.671803e+002
1.074698e+002, 9.657020e+002
1.079519e+002, 9.653354e+002
1.084340e+002, 9.649919e+002
1.089161e+002, 9.645129e+002
1.093982e+002, 9.637064e+002
1.098804e+002, 9.621911e+002
1.103625e+002, 9.592985e+002
1.108446e+002, 9.545090e+002
1.113267e+002, 9.510860e+002
1.118088e+002, 9.495906e+002
1.122909e+002, 9.488278e+002
1.127731e+002, 9.483912e+002
1.132552e+002, 9.481572e+002
1.137373e+002, 9.481232e+002
1.142194e+002, 9.482523e+002
1.147015e+002, 9.481700e+002
1.151836e+002, 9.490990e+002
1.156658e+002, 9.523578e+002
1.161479e+002, 9.559903e+002
1.166300e+002, 9.580287e+002
1.171121e+002, 9.577473e+002
1.175942e+002, 9.559086e+002
1.180763e+002, 9.541149e+002
1.185584e+002, 9.522184e+002
1.190406e+002, 9.506046e+002
1.195227e+002, 9.499697e+002
1.200048e+002, 9.498029e+002
1.204869e+002, 9.485271e+002
1.209690e+002, 9.448939e+002
1.214511e+002, 9.401190e+002
1.219333e+002, 9.367923e+002
1.224154e+002, 9.354719e+002
1.228975e+002, 9.346168e+002
1.233796e+002, 9.329535e+002
1.238617e+002, 9.304034e+002
1.243438e+002, 9.276387e+002
1.248260e+002, 9.247827e+002
1.253081e+002, 9.219446e+002
1.257902e+002, 9.191415e+002
1.262723e+002, 9.162637e+002
1.267544e+002, 9.136014e+002
1.272365e+002, 9.119926e+002
1.277187e+002, 9.123066e+002
1.282008e+002, 9.122264e+002
1.286829e+002, 9.107023e+002
1.291650e+002, 9.084970e+002
1.296471e+002, 9.066794e+002
1.301292e+002, 9.060111e+002
1.306114e+002, 9.063810e+002
1.310935e+002, 9.060985e+002
1.315756e+002, 9.045446e+002
1.320577e+002, 9.028993e+002
1.325398e+002, 9.014822e+002
1.330219e+002, 9.002229e+002
1.335041e+002, 8.988636e+002
1.339862e+002, 8.971411e+002
1.344683e+002, 8.949427e+002
1.349504e+002, 8.931180e+002
1.354325e+002, 8.919491e+002
1.359146e+002, 8.908474e+002
1.363968e+002, 8.893811e+002
1.368789e+002, 8.875482e+002
1.373610e+002, 8.857836e+002
1.378431e+002, 8.847217e+002
1.383252e+002, 8.846025e+002
1.388073e+002, 8.837838e+002
1.392895e+002, 8.819053e+002
1.397716e+002, 8.793826e+002
1.402537e+002, 8.765289e+002
1.407358e+002, 8.733152e+002
1.412179e+002, 8.701949e+002
1.417000e+002, 8.679592e+002
1.421821e+002, 8.665293e+002
1.426643e+002, 8.649714e+002
1.431464e+002, 8.626414e+002
1.436285e+002, 8.598166e+002
1.441106e+002, 8.575349e+002
1.445927e+002, 8.563265e+002
1.450748e+002, 8.554127e+002
1.455570e+002, 8.539445e+002
1.460391e+002, 8.519240e+002
1.465212e+002, 8.500630e+002
1.470033e+002, 8.491471e+002
1.474854e+002, 8.493029e+002
1.479675e+002, 8.491461e+002
1.484497e+002, 8.481639e+002
1.489318e+002, 8.469285e+002
1.494139e+002, 8.457218e+002
1.498960e+002, 8.446083e+002
1.503781e+002, 8.434595e+002
1.508602e+002, 8.420176e+002
1.513424e+002, 8.399012e+002
1.518245e+002, 8.383365e+002
1.523066e+002, 8.374894e+002
1.527887e+002, 8.370779e+002
1.532708e+002, 8.370616e+002
1.537529e+002, 8.373967e+002
1.542351e+002, 8.377842e+002
1.547172e+002, 8.374607e+002
1.551993e+002, 8.355695e+002
1.556814e+002, 8.339362e+002
1.561635e+002, 8.327643e+002
1.566456e+002, 8.318583e+002
1.571278e+002, 8.309230e+002
1.576099e+002, 8.297897e+002
1.580920e+002, 8.286151e+002
1.585741e+002, 8.281210e+002
1.590562e+002, 8.292081e+002
1.595383e+002, 8.298645e+002
1.600205e+002, 8.291962e+002
1.605026e+002, 8.276937e+002
1.609847e+002, 8.265624e+002
1.614668e+002, 8.266227e+002
1.619489e+002, 8.275110e+002
1.624310e+002, 8.275714e+002
1.629131e+002, 8.264918e+002
1.633953e+002, 8.249816e+002
1.638774e+002, 8.232787e+002
1.643595e+002, 8.214085e+002
1.648416e+002, 8.196474e+002
1.653237e+002, 8.181827e+002
1.658058e+002, 8.169612e+002
1.662880e+002, 8.158174e+002
1.667701e+002, 8.146746e+002
1.672522e+002, 8.136452e+002
1.677343e+002, 8.129929e+002
1.682164e+002, 8.128456e+002
1.686985e+002, 8.124725e+002
1.691807e+002, 8.112145e+002
1.696628e+002, 8.095326e+002
1.701449e+002, 8.079180e+002
1.706270e+002, 8.064374e+002
1.711091e+002, 8.052100e+002
1.715912e+002, 8.046593e+002
1.720734e+002, 8.053810e+002
1.725555e+002, 8.056656e+002
1.730376e+002, 8.045966e+002
1.735197e+002, 8.027990e+002
1.740018e+002, 8.011165e+002
1.744839e+002, 8.000026e+002
1.749661e+002, 7.994196e+002
1.754482e+002, 7.991886e+002
1.759303e+002, 7.999078e+002
1.764124e+002, 8.003101e+002
1.768945e+002, 8.001381e+002
1.773766e+002, 7.994202e+002
1.778588e+002, 7.981136e+002
1.783409e+002, 7.959954e+002
1.788230e+002, 7.930449e+002
1.793051e+002, 7.917469e+002
1.797872e+002, 7.936850e+002
1.802693e+002, 7.956981e+002
1.807515e+002, 7.969143e+002
1.812336e+002, 7.974103e+002
1.817157e+002, 7.976578e+002
1.821978e+002, 7.980710e+002
1.826799e+002, 7.987014e+002
1.831620e+002, 7.989027e+002
1.836441e+002, 7.984227e+002
1.841263e+002, 7.978365e+002
1.846084e+002, 7.974929e+002
1.850905e+002, 7.973527e+002
1.855726e+002, 7.970762e+002
1.860547e+002, 7.963076e+002
1.865368e+002, 7.949538e+002
1.870190e+002, 7.938802e+002
1.875011e+002, 7.931603e+002
1.879832e+002, 7.926635e+002
1.884653e+002, 7.925325e+002
1.889474e+002, 7.927438e+002
1.894296e+002, 7.926379e+002
1.899117e+002, 7.913405e+002
1.903938e+002, 7.888981e+002
1.908759e+002, 7.869708e+002
1.913580e+002, 7.857546e+002
1.918401e+002, 7.851398e+002
1.923223e+002, 7.852379e+002
1.928044e+002, 7.862064e+002
1.932865e+002, 7.871249e+002
1.937686e+002, 7.868304e+002
1.942507e+002, 7.856860e+002
1.947328e+002, 7.847525e+002
1.952150e+002, 7.845215e+002
1.956971e+002, 7.846854e+002
1.961792e+002, 7.845820e+002
1.966613e+002, 7.839968e+002
1.971434e+002, 7.835012e+002
1.976255e+002, 7.838968e+002
1.981077e+002, 7.847740e+002
1.985898e+002, 7.850182e+002
1.990719e+002, 7.836259e+002
1.995540e+002, 7.810154e+002
2.000361e+002, 7.790114e+002
2.005182e+002, 7.778658e+002
2.010004e+002, 7.770889e+002
2.014825e+002, 7.763287e+002
2.019646e+002, 7.756669e+002
2.024467e+002, 7.753387e+002
2.029288e+002, 7.757528e+002
2.034109e+002, 7.768339e+002
2.038930e+002, 7.771855e+002
2.043752e+002, 7.758089e+002
2.048573e+002, 7.747289e+002
2.053394e+002, 7.751227e+002
2.058215e+002, 7.764882e+002
2.063036e+002, 7.775394e+002
2.067857e+002, 7.770450e+002
2.072679e+002, 7.748865e+002
2.077500e+002, 7.735228e+002
2.082321e+002, 7.737820e+002
2.087142e+002, 7.741268e+002
2.091963e+002, 7.742392e+002
2.096784e+002, 7.740438e+002
2.101606e+002, 7.734809e+002
2.106427e+002, 7.723749e+002
2.111248e+002, 7.705668e+002
2.116069e+002, 7.696998e+002
2.120890e+002, 7.704229e+002
2.125711e+002, 7.713760e+002
2.130533e+002, 7.721906e+002
2.135354e+002, 7.727804e+002
2.140175e+002, 7.731584e+002
2.144996e+002, 7.733408e+002
2.149817e+002, 7.733378e+002
2.154638e+002, 7.730006e+002
2.159460e+002, 7.719276e+002
2.164281e+002, 7.709520e+002
2.169102e+002, 7.706545e+002
2.173923e+002, 7.709254e+002
2.178744e+002, 7.711026e+002
2.183565e+002, 7.705103e+002
2.188387e+002, 7.690022e+002
2.193208e+002, 7.681826e+002
2.198029e+002, 7.685984e+002
2.202850e+002, 7.691654e+002
2.207671e+002, 7.692740e+002
2.212492e+002, 7.688905e+002
2.217314e+002, 7.682385e+002
2.222135e+002, 7.674149e+002
2.226956e+002, 7.664202e+002
2.231777e+002, 7.658273e+002
2.236598e+002, 7.659166e+002
2.241419e+002, 7.661933e+002
2.246240e+002, 7.664023e+002
2.251062e+002, 7.665094e+002
2.255883e+002, 7.663567e+002
2.260704e+002, 7.656808e+002
2.265525e+002, 7.645694e+002
2.270346e+002, 7.637493e+002
2.275167e+002, 7.633939e+002
2.279989e+002, 7.632714e+002
2.284810e+002, 7.631750e+002
2.289631e+002, 7.630932e+002
2.294452e+002, 7.631565e+002
2.299273e+002, 7.637570e+002
2.304094e+002, 7.645687e+002
2.308916e+002, 7.646806e+002
2.313737e+002, 7.632208e+002
2.318558e+002, 7.613916e+002
2.323379e+002, 7.606877e+002
2.328200e+002, 7.612640e+002
2.333021e+002, 7.618748e+002
2.337843e+002, 7.616794e+002
2.342664e+002, 7.610082e+002
2.347485e+002, 7.603157e+002
2.352306e+002, 7.596563e+002
2.357127e+002, 7.590717e+002
2.361948e+002, 7.586043e+002
2.366770e+002, 7.582448e+002
2.371591e+002, 7.580338e+002
2.376412e+002, 7.582090e+002
2.381233e+002, 7.584789e+002
2.386054e+002, 7.584938e+002
2.390875e+002, 7.580802e+002
2.395697e+002, 7.574622e+002
2.400518e+002, 7.569859e+002
2.405339e+002, 7.566747e+002
2.410160e+002, 7.564300e+002
2.414981e+002, 7.560911e+002
2.419802e+002, 7.558448e+002
2.424624e+002, 7.559598e+002
2.429445e+002, 7.566007e+002
2.434266e+002, 7.574030e+002
2.439087e+002, 7.577483e+002
2.443908e+002, 7.575485e+002
2.448729e+002, 7.570984e+002
2.453550e+002, 7.562548e+002
2.458372e+002, 7.553299e+002
2.463193e+002, 7.545794e+002
2.468014e+002, 7.540881e+002
2.472835e+002, 7.537879e+002
2.477656e+002, 7.535541e+002
2.482477e+002, 7.533607e+002
2.487299e+002, 7.533076e+002
2.492120e+002, 7.537282e+002
2.496941e+002, 7.540969e+002
2.501762e+002, 7.539193e+002
2.506583e+002, 7.530596e+002
2.511404e+002, 7.519094e+002
2.516226e+002, 7.511183e+002
2.521047e+002, 7.508467e+002
2.525868e+002, 7.506066e+002
2.530689e+002, 7.504053e+002
2.535510e+002, 7.501856e+002
2.540331e+002, 7.498705e+002
2.545153e+002, 7.494564e+002
2.549974e+002, 7.490466e+002
2.554795e+002, 7.488011e+002
2.559616e+002, 7.487899e+002
2.564437e+002, 7.488135e+002
2.569258e+002, 7.485074e+002
2.574080e+002, 7.484752e+002
2.578901e+002, 7.494862e+002
2.583722e+002, 7.514921e+002
2.588543e+002, 7.534427e+002
2.593364e+002, 7.537627e+002
2.598185e+002, 7.513206e+002
2.603007e+002, 7.501244e+002
2.607828e+002, 7.509133e+002
2.612649e+002, 7.520872e+002
2.617470e+002, 7.526613e+002
2.622291e+002, 7.525429e+002
2.627112e+002, 7.522747e+002
2.631934e+002, 7.525279e+002
2.636755e+002, 7.535997e+002
2.641576e+002, 7.540713e+002
2.646397e+002, 7.533652e+002
2.651218e+002, 7.526575e+002
2.656039e+002, 7.527731e+002
2.660861e+002, 7.536127e+002
2.665682e+002, 7.543732e+002
2.670503e+002, 7.541799e+002
2.675324e+002, 7.527463e+002
2.680145e+002, 7.522572e+002
2.684966e+002, 7.537863e+002
2.689788e+002, 7.550898e+002
2.694609e+002, 7.547579e+002
2.699430e+002, 7.530883e+002
2.704251e+002, 7.514520e+002
2.709072e+002, 7.510150e+002
2.713893e+002, 7.518382e+002
2.718715e+002, 7.521502e+002
2.723536e+002, 7.516400e+002
2.728357e+002, 7.510421e+002
2.733178e+002, 7.506881e+002
2.737999e+002, 7.505098e+002
2.742820e+002, 7.502751e+002
2.747642e+002, 7.498352e+002
2.752463e+002, 7.491948e+002
2.757284e+002, 7.484090e+002
2.762105e+002, 7.473492e+002
2.766926e+002, 7.463148e+002
2.771747e+002, 7.453165e+002
2.776568e+002, 7.444113e+002
2.781389e+002, 7.437341e+002
2.786211e+002, 7.433752e+002
2.791032e+002, 7.432730e+002
2.795853e+002, 7.431731e+002
2.800674e+002, 7.427523e+002
2.805495e+002, 7.426998e+002
2.810316e+002, 7.436521e+002
2.815138e+002, 7.450382e+002
2.819959e+002, 7.457774e+002
2.824780e+002, 7.453517e+002
2.829601e+002, 7.442020e+002
2.834422e+002, 7.434532e+002
2.839243e+002, 7.432852e+002
2.844065e+002, 7.431050e+002
2.848886e+002, 7.427162e+002
2.853707e+002, 7.422667e+002
2.858528e+002, 7.419661e+002
2.863349e+002, 7.418828e+002
2.868170e+002, 7.419731e+002
2.872992e+002, 7.422130e+002
2.877813e+002, 7.426838e+002
2.882634e+002, 7.430147e+002
2.887455e+002, 7.429059e+002
2.892276e+002, 7.427209e+002
2.897097e+002, 7.430320e+002
2.901919e+002, 7.439896e+002
2.906740e+002, 7.449904e+002
2.911561e+002, 7.452947e+002
2.916382e+002, 7.448294e+002
2.921203e+002, 7.441385e+002
2.926024e+002, 7.430236e+002
2.930846e+002, 7.418436e+002
2.935667e+002, 7.409115e+002
2.940488e+002, 7.402665e+002
2.945309e+002, 7.398676e+002
2.950130e+002, 7.396785e+002
2.954951e+002, 7.397249e+002
2.959773e+002, 7.400214e+002
2.964594e+002, 7.411210e+002
2.969415e+002, 7.420680e+002
2.974236e+002, 7.418323e+002
2.979057e+002, 7.404943e+002
2.983878e+002, 7.393466e+002
2.988700e+002, 7.394382e+002
2.993521e+002, 7.405274e+002
2.998342e+002, 7.409035e+002
3.003163e+002, 7.401301e+002
3.007984e+002, 7.390555e+002
3.012805e+002, 7.379307e+002
3.017627e+002, 7.368429e+002
3.022448e+002, 7.361942e+002
3.027269e+002, 7.363418e+002
3.032090e+002, 7.369727e+002
3.036911e+002, 7.371488e+002
3.041732e+002, 7.368625e+002
3.046554e+002, 7.362228e+002
3.051375e+002, 7.351366e+002
3.056196e+002, 7.337286e+002
3.061017e+002, 7.322934e+002
3.065838e+002, 7.309177e+002
3.070659e+002, 7.296219e+002
3.075481e+002, 7.284203e+002
3.080302e+002, 7.272339e+002
3.085123e+002, 7.263542e+002
3.089944e+002, 7.260013e+002
3.094765e+002, 7.259929e+002
3.099586e+002, 7.261097e+002
3.104408e+002, 7.263503e+002
3.109229e+002, 7.264617e+002
3.114050e+002, 7.258680e+002
3.118871e+002, 7.245038e+002
3.123692e+002, 7.237867e+002
3.128513e+002, 7.243580e+002
3.133335e+002, 7.255493e+002
3.138156e+002, 7.267111e+002
3.142977e+002, 7.277584e+002
3.147798e+002, 7.285098e+002
3.152619e+002, 7.287089e+002
3.157440e+002, 7.283754e+002
3.162262e+002, 7.280524e+002
3.167083e+002, 7.275481e+002
3.171904e+002, 7.272331e+002
3.176725e+002, 7.277268e+002
3.181546e+002, 7.289461e+002
3.186367e+002, 7.296825e+002
3.191188e+002, 7.288986e+002
3.196010e+002, 7.269719e+002
3.200831e+002, 7.258709e+002
3.205652e+002, 7.263419e+002
3.210473e+002, 7.268652e+002
3.215294e+002, 7.264167e+002
3.220115e+002, 7.252786e+002
3.224937e+002, 7.244844e+002
3.229758e+002, 7.246093e+002
3.234579e+002, 7.252673e+002
3.239400e+002, 7.254408e+002
3.244221e+002, 7.249022e+002
3.249042e+002, 7.244734e+002
3.253864e+002, 7.246666e+002
3.258685e+002, 7.251390e+002
3.263506e+002, 7.252086e+002
3.268327e+002, 7.246254e+002
3.273148e+002, 7.237180e+002
3.277969e+002, 7.229708e+002
3.282791e+002, 7.224078e+002
3.287612e+002, 7.218353e+002
3.292433e+002, 7.210876e+002
3.297254e+002, 7.203770e+002
3.302075e+002, 7.200518e+002
3.306896e+002, 7.201729e+002
3.311718e+002, 7.202920e+002
3.316539e+002, 7.199243e+002
3.321360e+002, 7.190215e+002
3.326181e+002, 7.182582e+002
3.331002e+002, 7.177607e+002
3.335823e+002, 7.173327e+002
3.340645e+002, 7.166871e+002
3.345466e+002, 7.158923e+002
3.350287e+002, 7.154586e+002
3.355108e+002, 7.158394e+002
3.359929e+002, 7.168988e+002
3.364750e+002, 7.175623e+002
3.369572e+002, 7.182269e+002
3.374393e+002, 7.181512e+002
3.379214e+002, 7.165624e+002
3.384035e+002, 7.139744e+002
3.388856e+002, 7.116464e+002
3.393677e+002, 7.101978e+002
3.398499e+002, 7.092741e+002
3.403320e+002, 7.079097e+002
3.408141e+002, 7.058068e+002
3.412962e+002, 7.038729e+002
3.417783e+002, 7.023422e+002
3.422604e+002, 7.010488e+002
3.427426e+002, 6.998918e+002
3.432247e+002, 6.988488e+002
3.437068e+002, 6.976494e+002
3.441889e+002, 6.958000e+002
3.446710e+002, 6.927440e+002
3.451531e+002, 6.908290e+002
3.456353e+002, 6.911667e+002
3.461174e+002, 6.919075e+002
3.465995e+002, 6.916780e+002
3.470816e+002, 6.903733e+002
3.475637e+002, 6.886024e+002
3.480458e+002, 6.869032e+002
3.485280e+002, 6.852809e+002
3.490101e+002, 6.833994e+002
3.494922e+002, 6.809031e+002
3.499743e+002, 6.785536e+002
3.504564e+002, 6.765878e+002
3.509385e+002, 6.750428e+002
3.514207e+002, 6.739817e+002
3.519028e+002, 6.734849e+002
3.523849e+002, 6.734265e+002
3.528670e+002, 6.732636e+002
3.533491e+002, 6.730948e+002
3.538312e+002, 6.727053e+002
3.543134e+002, 6.718290e+002
3.547955e+002, 6.708147e+002
3.552776e+002, 6.701199e+002
3.557597e+002, 6.698957e+002
3.562418e+002, 6.698463e+002
3.567239e+002, 6.694562e+002
3.572061e+002, 6.684729e+002
3.576882e+002, 6.676481e+002
3.581703e+002, 6.668398e+002
3.586524e+002, 6.662706e+002
3.591345e+002, 6.662547e+002
3.596166e+002, 6.667113e+002
3.600987e+002, 6.671993e+002
3.605808e+002, 6.673293e+002
3.610630e+002, 6.671151e+002
3.615451e+002, 6.663444e+002
3.620272e+002, 6.643812e+002
3.625093e+002, 6.625587e+002
3.629914e+002, 6.612753e+002
3.634735e+002, 6.604605e+002
3.639557e+002, 6.599821e+002
3.644378e+002, 6.597842e+002
3.649199e+002, 6.597771e+002
3.654020e+002, 6.595933e+002
3.658841e+002, 6.594519e+002
3.663662e+002, 6.587782e+002
3.668484e+002, 6.569757e+002
3.673305e+002, 6.549153e+002
3.678126e+002, 6.535613e+002
3.682947e+002, 6.531909e+002
3.687768e+002, 6.531475e+002
3.692589e+002, 6.523642e+002
3.697411e+002, 6.505056e+002
3.702232e+002, 6.488127e+002
3.707053e+002, 6.472499e+002
3.711874e+002, 6.459072e+002
3.716695e+002, 6.448308e+002
3.721516e+002, 6.440211e+002
3.726338e+002, 6.434510e+002
3.731159e+002, 6.432438e+002
3.735980e+002, 6.433714e+002
3.740801e+002, 6.428314e+002
3.745622e+002, 6.407617e+002
3.750443e+002, 6.390792e+002
3.755265e+002, 6.388889e+002
3.760086e+002, 6.393683e+002
3.764907e+002, 6.391909e+002
3.769728e+002, 6.376106e+002
3.774549e+002, 6.352498e+002
3.779370e+002, 6.334366e+002
3.784192e+002, 6.322286e+002
3.789013e+002, 6.314247e+002
3.793834e+002, 6.313401e+002
3.798655e+002, 6.314085e+002
3.803476e+002, 6.312073e+002
3.808297e+002, 6.306530e+002
3.813119e+002, 6.299220e+002
3.817940e+002, 6.290546e+002
3.822761e+002, 6.280598e+002
3.827582e+002, 6.275104e+002
3.832403e+002, 6.279154e+002
3.837224e+002, 6.282652e+002
3.842046e+002, 6.277950e+002
3.846867e+002, 6.266859e+002
3.851688e+002, 6.255958e+002
3.856509e+002, 6.248682e+002
3.861330e+002, 6.244120e+002
3.866151e+002, 6.240569e+002
3.870973e+002, 6.238417e+002
3.875794e+002, 6.235786e+002
3.880615e+002, 6.230026e+002
3.885436e+002, 6.223479e+002
3.890257e+002, 6.219716e+002
3.895078e+002, 6.220068e+002
3.899900e+002, 6.222037e+002
3.904721e+002, 6.223448e+002
3.909542e+002, 6.224446e+002
3.914363e+002, 6.226544e+002
3.919184e+002, 6.231309e+002
3.924005e+002, 6.235989e+002
3.928827e+002, 6.237381e+002
3.933648e+002, 6.235719e+002
3.938469e+002, 6.230604e+002
3.943290e+002, 6.217950e+002
3.948111e+002, 6.203049e+002
3.952932e+002, 6.195378e+002
3.957754e+002, 6.196743e+002
3.962575e+002, 6.200027e+002
3.967396e+002, 6.198966e+002
3.972217e+002, 6.193973e+002
3.977038e+002, 6.190543e+002
3.981859e+002, 6.191147e+002
3.986681e+002, 6.191420e+002
3.991501e+002, 6.188264e+002
3.996323e+002, 6.182255e+002
4.001144e+002, 6.175616e+002
4.005965e+002, 6.169374e+002
4.010786e+002, 6.163327e+002
4.015607e+002, 6.156960e+002
4.020428e+002, 6.149619e+002
4.025250e+002, 6.143040e+002
4.030071e+002, 6.138512e+002
4.034892e+002, 6.134401e+002
4.039713e+002, 6.128965e+002
4.044534e+002, 6.121799e+002
4.049355e+002, 6.113021e+002
4.054177e+002, 6.101790e+002
4.058998e+002, 6.086003e+002
4.063819e+002, 6.079955e+002
4.068640e+002, 6.093233e+002
4.073461e+002, 6.105865e+002
4.078282e+002, 6.106290e+002
4.083104e+002, 6.097819e+002
4.087925e+002, 6.091379e+002
4.092746e+002, 6.094399e+002
4.097567e+002, 6.103240e+002
4.102388e+002, 6.100829e+002
4.107209e+002, 6.069601e+002
4.112031e+002, 6.049936e+002
4.116852e+002, 6.052159e+002
4.121673e+002, 6.063311e+002
4.126494e+002, 6.072665e+002
4.131315e+002, 6.076768e+002
4.136136e+002, 6.076332e+002
4.140958e+002, 6.071082e+002
4.145779e+002, 6.058683e+002
4.150600e+002, 6.050801e+002
4.155421e+002, 6.050315e+002
