##NAMES=Pyrope
##RRUFFID=R060448
##IDEAL CHEMISTRY=Mg_3_Al_2_(SiO_4_)_3_
##LOCALITY=India
##OWNER=RRUFF
##SOURCE=Gemological Institute of America
##DESCRIPTION=Deep red water worn pebble, variety rhodolite
##STATUS=The identification of this mineral has been confirmed by X-ray diffraction and chemical analysis
##URL=rruff.info/R060448
##MEASURED CHEMISTRY=(Mg_1.47_Fe_1.27_Ca_0.21_Mn_0.05_)_Î£=3_Al_2.00_(Si_1.00_O_4_)_3_
92.37695, 90.21294
92.85907, 90.17153
93.34119, 90.33710
93.82330, 89.98940
94.30542, 88.97562
94.78754, 87.40039
95.26965, 85.46319
95.75177, 83.32666
96.23389, 80.86925
96.71600, 78.44675
97.19812, 76.41535
97.68024, 74.83799
98.16235, 73.59212
98.64447, 72.60868
99.12659, 72.07228
99.60870, 71.11364
100.0908, 69.52396
100.5729, 67.75600
101.0551, 66.17508
101.5372, 64.93057
102.0193, 63.99363
102.5014, 63.31417
102.9835, 62.97017
103.4656, 62.80990
103.9478, 63.01167
104.4299, 63.37987
104.9120, 63.56803
105.3941, 63.28654
105.8762, 62.47631
106.3583, 61.72611
106.8405, 60.92578
107.3226, 60.23234
107.8047, 59.78479
108.2868, 59.58010
108.7689, 59.44215
109.2510, 59.18395
109.7332, 58.79578
110.2153, 58.38657
110.6974, 57.95160
111.1795, 57.50700
111.6616, 57.02502
112.1437, 56.42296
112.6259, 55.97029
113.1080, 56.00513
113.5901, 56.48542
114.0722, 57.02386
114.5543, 57.43822
115.0364, 57.72859
115.5185, 57.85040
116.0007, 57.58975
116.4828, 57.30141
116.9649, 57.19395
117.4470, 57.29945
117.9291, 57.53097
118.4112, 57.77227
118.8934, 57.98822
119.3755, 58.30742
119.8576, 59.03471
120.3397, 59.70489
120.8218, 59.89043
121.3039, 59.42419
121.7861, 58.53395
122.2682, 57.87298
122.7503, 57.49249
123.2324, 57.33879
123.7145, 57.68393
124.1966, 58.21215
124.6788, 58.43970
125.1609, 58.05303
125.6430, 57.15001
126.1251, 56.59478
126.6072, 56.50695
127.0893, 56.54564
127.5715, 56.63643
128.0536, 56.75734
128.5357, 56.82213
129.0178, 56.70729
129.4999, 56.47701
129.9821, 56.47755
130.4642, 57.07432
130.9463, 57.72249
131.4284, 57.71977
131.9105, 56.89058
132.3926, 56.12357
132.8748, 56.30483
133.3569, 57.03450
133.8390, 57.62141
134.3211, 57.59243
134.8032, 57.16523
135.2853, 57.12067
135.7674, 57.71046
136.2496, 58.37379
136.7317, 58.89495
137.2138, 59.26635
137.6959, 59.48354
138.1780, 59.49311
138.6601, 59.26627
139.1423, 59.13912
139.6244, 59.09953
140.1065, 59.17579
140.5886, 59.45042
141.0707, 59.88561
141.5528, 60.34966
142.0350, 60.69897
142.5171, 60.94872
142.9992, 61.00745
143.4813, 60.64083
143.9634, 60.27715
144.4455, 60.32170
144.9277, 60.83339
145.4098, 61.40602
145.8919, 61.34445
146.3740, 60.05079
146.8561, 59.21338
147.3382, 59.20723
147.8204, 59.59030
148.3025, 59.77028
148.7846, 59.50001
149.2667, 59.09493
149.7488, 59.37460
150.2309, 60.67607
150.7131, 61.46556
151.1952, 60.71001
151.6773, 58.89212
152.1594, 57.58920
152.6415, 57.57093
153.1236, 58.21390
153.6058, 58.44944
154.0879, 58.18276
154.5700, 57.79785
155.0521, 57.57161
155.5342, 57.50758
156.0163, 57.52587
156.4985, 57.72508
156.9806, 57.93054
157.4627, 57.97010
157.9448, 57.77888
158.4269, 57.51842
158.9090, 57.47839
159.3912, 57.83054
159.8733, 57.95708
160.3554, 57.52618
160.8375, 56.91726
161.3196, 56.45866
161.8017, 56.29887
162.2839, 56.34651
162.7660, 56.34131
163.2481, 56.33659
163.7302, 56.18597
164.2123, 55.72141
164.6944, 55.14880
165.1766, 54.70807
165.6587, 54.53221
166.1408, 54.60119
166.6229, 54.78998
167.1050, 55.42316
167.5871, 55.82624
168.0693, 55.70185
168.5514, 55.24380
169.0335, 54.80017
169.5156, 54.57109
169.9977, 54.57129
170.4798, 54.94445
170.9620, 55.95302
171.4441, 56.99901
171.9262, 57.77835
172.4083, 58.33392
172.8904, 58.91687
173.3725, 59.69585
173.8547, 60.67731
174.3368, 61.72761
174.8189, 63.05781
175.3010, 64.31887
175.7831, 65.20857
176.2652, 65.71281
176.7474, 66.03604
177.2295, 66.27586
177.7116, 66.44151
178.1937, 66.54259
178.6758, 66.63454
179.1579, 66.64392
179.6401, 66.43075
180.1222, 65.93731
180.6043, 65.38790
181.0864, 64.98398
181.5685, 64.62112
182.0506, 64.11572
182.5328, 63.31939
183.0149, 62.32787
183.4970, 61.42133
183.9791, 60.59101
184.4612, 59.88422
184.9433, 59.44972
185.4255, 59.12573
185.9076, 58.58330
186.3897, 57.42677
186.8718, 55.78028
187.3539, 55.05573
187.8360, 56.34438
188.3182, 57.46520
188.8003, 57.67650
189.2824, 57.22679
189.7645, 56.68076
190.2466, 56.46423
190.7287, 56.58519
191.2109, 56.83445
191.6930, 57.44704
192.1751, 57.96393
192.6572, 58.15421
193.1393, 58.10204
193.6214, 58.03422
194.1036, 58.12664
194.5857, 58.36300
195.0678, 58.94424
195.5499, 60.20086
196.0320, 61.42230
196.5141, 62.23347
196.9963, 62.66607
197.4784, 63.00754
197.9605, 63.51768
198.4426, 64.22678
198.9247, 64.89156
199.4068, 65.39944
199.8890, 65.95029
200.3711, 66.68312
200.8532, 67.60692
201.3353, 68.64446
201.8174, 69.81612
202.2995, 71.11853
202.7817, 72.01902
203.2638, 72.10658
203.7459, 72.00889
204.2280, 72.42744
204.7101, 73.46580
205.1922, 74.42922
205.6744, 74.44978
206.1565, 73.76734
206.6386, 73.55611
207.1207, 74.47275
207.6028, 75.82527
208.0849, 76.64521
208.5671, 76.78313
209.0492, 76.71666
209.5313, 76.93311
210.0134, 77.25220
210.4955, 77.22784
210.9776, 76.46684
211.4598, 75.27780
211.9419, 74.36799
212.4240, 73.87710
212.9061, 73.40047
213.3882, 72.80021
213.8703, 72.04520
214.3525, 71.03577
214.8346, 69.57151
215.3167, 67.81432
215.7988, 66.39184
216.2809, 65.43307
216.7630, 64.63540
217.2451, 63.91867
217.7273, 63.24027
218.2094, 62.51449
218.6915, 61.64808
219.1736, 60.69008
219.6557, 59.96694
220.1378, 59.76452
220.6200, 59.45372
221.1021, 58.71445
221.5842, 57.75941
222.0663, 56.95467
222.5484, 56.58465
223.0305, 56.58281
223.5127, 56.30201
223.9948, 55.44623
224.4769, 54.60211
224.9590, 53.68287
225.4411, 52.87685
225.9232, 52.52077
226.4054, 52.88979
226.8875, 53.89502
227.3696, 54.50738
227.8517, 54.60453
228.3338, 54.41204
228.8159, 53.73914
229.2981, 52.81897
229.7802, 52.02808
230.2623, 51.60770
230.7444, 51.53288
231.2265, 51.53819
231.7086, 51.61673
232.1908, 51.77333
232.6729, 52.23260
233.1550, 52.76656
233.6371, 52.86511
234.1192, 52.14291
234.6013, 50.78528
235.0835, 50.22058
235.5656, 50.98217
236.0477, 51.77732
236.5298, 52.17089
237.0119, 52.30821
237.4940, 52.59964
237.9762, 53.34261
238.4583, 54.34153
238.9404, 54.65989
239.4225, 53.77009
239.9046, 52.93038
240.3867, 52.63073
240.8689, 52.71103
241.3510, 52.79282
241.8331, 52.70580
242.3152, 52.47655
242.7973, 52.18070
243.2794, 51.71948
243.7616, 51.35494
244.2437, 51.20152
244.7258, 51.23607
245.2079, 51.39708
245.6900, 51.67570
246.1721, 52.05500
246.6543, 52.55170
247.1364, 53.31004
247.6185, 53.80886
248.1006, 53.55022
248.5827, 52.75891
249.0648, 52.25819
249.5470, 52.40186
250.0291, 52.88066
250.5112, 53.25313
250.9933, 53.53625
251.4754, 53.66001
251.9576, 53.41656
252.4397, 52.92739
252.9218, 52.80155
253.4039, 53.51471
253.8860, 54.22631
254.3681, 53.87545
254.8503, 52.46624
255.3324, 51.22543
255.8145, 51.08235
256.2966, 51.82044
256.7787, 52.33718
257.2608, 52.38937
257.7430, 52.23104
258.2251, 51.97521
258.7072, 51.66381
259.1893, 51.57653
259.6714, 52.01283
260.1535, 52.87276
260.6357, 53.63755
261.1178, 54.39709
261.5999, 54.83091
262.0820, 54.66604
262.5641, 54.04449
263.0462, 53.40252
263.5284, 53.00215
264.0105, 52.81569
264.4926, 52.66978
264.9747, 52.55812
265.4568, 52.50505
265.9389, 52.56364
266.4211, 52.68005
266.9032, 52.72990
267.3853, 52.54646
267.8674, 52.24268
268.3495, 52.37981
268.8316, 53.41728
269.3138, 54.19056
269.7959, 54.16500
270.2780, 53.66234
270.7601, 53.13048
271.2422, 52.76271
271.7243, 52.57307
272.2065, 52.64750
272.6886, 53.17953
273.1707, 53.65551
273.6528, 54.05334
274.1349, 54.28983
274.6170, 54.20131
275.0992, 53.68037
275.5813, 52.95163
276.0634, 52.58371
276.5455, 52.72981
277.0276, 52.97448
277.5097, 53.25494
277.9919, 53.56872
278.4740, 53.97610
278.9561, 54.49704
279.4382, 54.96228
279.9203, 54.98887
280.4024, 54.20545
280.8846, 53.78215
281.3667, 53.93098
281.8488, 54.35577
282.3309, 54.96494
282.8130, 55.68991
283.2951, 56.32344
283.7773, 56.51947
284.2594, 56.06455
284.7415, 55.69099
285.2236, 55.38842
285.7057, 55.17945
286.1878, 55.10299
286.6700, 55.14994
287.1521, 55.25946
287.6342, 55.36963
288.1163, 55.48444
288.5984, 55.57970
289.0805, 55.83748
289.5627, 55.92009
290.0448, 55.44691
290.5269, 54.58693
291.0090, 53.92371
291.4911, 54.04662
291.9732, 55.04130
292.4554, 55.71979
292.9375, 55.76402
293.4196, 55.81603
293.9017, 56.13837
294.3838, 56.63549
294.8659, 57.04803
295.3481, 57.16922
295.8302, 57.03621
296.3123, 57.14581
296.7944, 57.72115
297.2765, 58.31557
297.7586, 58.93584
298.2408, 59.50389
298.7229, 59.91889
299.2050, 60.12455
299.6871, 60.13573
300.1692, 59.99221
300.6513, 59.07382
301.1335, 58.79065
301.6156, 59.72606
302.0977, 61.15977
302.5798, 62.40141
303.0619, 63.16391
303.5440, 63.49413
304.0262, 63.45186
304.5083, 62.46316
304.9904, 61.98181
305.4725, 62.18105
305.9546, 62.75119
306.4367, 63.56489
306.9189, 64.54013
307.4010, 65.49505
307.8831, 66.15716
308.3652, 66.36812
308.8473, 66.68698
309.3294, 66.93823
309.8116, 67.41253
310.2937, 68.38905
310.7758, 69.81252
311.2579, 71.36271
311.7400, 72.73144
312.2221, 73.92949
312.7043, 74.92049
313.1864, 75.47960
313.6685, 76.08720
314.1506, 76.95921
314.6327, 78.04405
315.1148, 79.20602
315.5970, 80.36800
316.0791, 81.51089
316.5612, 82.35709
317.0433, 82.75827
317.5254, 83.03309
318.0075, 83.24751
318.4897, 83.37326
318.9718, 83.32239
319.4539, 83.04170
319.9360, 82.62987
320.4181, 82.39461
320.9002, 82.15304
321.3824, 82.37746
321.8645, 83.50828
322.3466, 84.90290
322.8287, 85.89610
323.3108, 86.27390
323.7929, 86.37389
324.2751, 86.72671
324.7572, 87.14593
325.2393, 88.26817
325.7214, 90.67207
326.2035, 93.25708
326.6856, 95.21347
327.1678, 96.49162
327.6499, 97.64456
328.1320, 99.25488
328.6141, 101.3524
329.0962, 103.8238
329.5783, 107.0498
330.0605, 110.2374
330.5426, 112.9294
331.0247, 115.2864
331.5068, 117.7459
331.9889, 120.6406
332.4710, 123.9513
332.9532, 127.3622
333.4353, 131.1244
333.9174, 134.7472
334.3995, 137.8380
334.8816, 140.7937
335.3637, 144.2836
335.8459, 148.6424
336.3280, 153.4842
336.8101, 157.5075
337.2922, 159.9772
337.7743, 162.7085
338.2564, 165.9812
338.7386, 169.4885
339.2206, 172.9907
339.7028, 176.4199
340.1849, 179.7532
340.6670, 182.9046
341.1491, 185.6144
341.6312, 188.7920
342.1133, 192.4797
342.5955, 196.5086
343.0776, 200.7625
343.5597, 205.2602
344.0418, 210.1267
344.5239, 215.5088
345.0060, 221.4273
345.4882, 227.4915
345.9703, 233.2976
346.4524, 239.6974
346.9345, 247.0180
347.4166, 255.1039
347.8987, 263.7324
348.3809, 272.7836
348.8630, 282.1698
349.3451, 291.3376
349.8272, 300.2610
350.3093, 309.1306
350.7914, 318.1770
351.2736, 327.1153
351.7557, 335.8844
352.2378, 344.4731
352.7199, 352.1613
353.2020, 357.7672
353.6841, 361.2156
354.1663, 362.6982
354.6484, 362.5695
355.1305, 360.3096
355.6126, 355.1872
356.0947, 347.3277
356.5768, 337.7517
357.0590, 326.9623
357.5411, 314.9582
358.0232, 303.4698
358.5053, 293.1909
358.9874, 282.6962
359.4695, 271.1061
359.9517, 258.9089
360.4338, 247.1302
360.9159, 236.2619
361.3980, 226.3090
361.8801, 217.1538
362.3622, 208.9170
362.8444, 201.3585
363.3265, 194.1963
363.8086, 187.6724
364.2907, 182.1314
364.7728, 177.6932
365.2549, 174.0075
365.7371, 170.7369
366.2192, 167.9051
366.7013, 165.1458
367.1834, 162.4173
367.6655, 159.7032
368.1476, 156.7686
368.6298, 153.6604
369.1119, 151.1277
369.5940, 150.1976
370.0761, 150.4489
370.5582, 149.8064
371.0403, 147.7821
371.5225, 145.4164
372.0046, 143.4532
372.4867, 141.7173
372.9688, 139.7650
373.4509, 137.3354
373.9330, 134.6662
374.4152, 132.1542
374.8973, 129.8475
375.3794, 127.3642
375.8615, 124.4418
376.3436, 121.2650
376.8257, 118.1126
377.3079, 115.0206
377.7900, 111.9077
378.2721, 108.6383
378.7542, 105.2717
379.2363, 102.0846
379.7184, 99.16918
380.2006, 96.40986
380.6827, 93.68481
381.1648, 91.00782
381.6469, 88.26015
382.1290, 85.21925
382.6111, 82.14574
383.0933, 79.44011
383.5754, 77.14568
384.0575, 75.03500
384.5396, 72.92197
385.0217, 70.83152
385.5038, 68.82278
385.9860, 66.89317
386.4681, 65.06108
386.9502, 63.24915
387.4323, 61.53015
387.9144, 60.18852
388.3965, 59.46101
388.8787, 59.04529
389.3608, 58.11400
389.8429, 56.45271
390.3250, 54.82980
390.8071, 53.28007
391.2892, 51.90297
391.7714, 50.90186
392.2535, 50.30862
392.7356, 49.81970
393.2177, 49.08213
393.6998, 48.02825
394.1819, 47.02580
394.6641, 45.75877
395.1462, 44.81249
395.6283, 44.82007
396.1104, 45.48426
396.5925, 45.92741
397.0746, 45.57164
397.5568, 44.53886
398.0389, 43.48093
398.5210, 41.74059
399.0031, 40.79982
399.4852, 41.79871
399.9673, 43.23691
400.4495, 43.23793
400.9316, 41.29274
401.4137, 38.70937
401.8958, 37.55472
402.3779, 38.54050
402.8600, 39.04291
403.3422, 38.82129
403.8243, 38.40612
404.3064, 37.96871
404.7885, 37.56521
405.2706, 37.23452
405.7527, 37.00834
406.2349, 36.88144
406.7170, 36.85120
407.1991, 37.19011
407.6812, 37.21358
408.1633, 36.49916
408.6454, 35.53204
409.1276, 34.84373
409.6097, 34.62884
410.0918, 34.69576
410.5739, 34.81581
411.0560, 35.02080
411.5381, 35.10646
412.0203, 34.98921
412.5024, 34.77898
412.9845, 34.49872
413.4666, 34.16993
413.9487, 33.85819
414.4308, 33.61691
414.9130, 33.43106
415.3951, 33.23428
415.8772, 33.00079
416.3593, 32.82056
416.8414, 32.80049
417.3235, 32.84718
417.8057, 32.83593
418.2878, 32.72816
418.7699, 32.57154
419.2520, 32.38286
419.7341, 32.17015
420.2162, 32.02443
420.6984, 32.01851
421.1805, 32.03143
421.6626, 31.83894
422.1447, 31.43133
422.6268, 31.22977
423.1089, 31.76272
423.5911, 32.42421
424.0732, 32.19381
424.5553, 30.95555
425.0374, 29.78239
425.5195, 29.53543
426.0016, 30.09928
426.4838, 30.42953
426.9659, 30.35093
427.4480, 30.23226
427.9301, 30.30125
428.4122, 30.44657
428.8943, 30.35836
429.3765, 29.88882
429.8586, 29.36068
430.3407, 29.36877
430.8228, 30.32971
431.3049, 30.92477
431.7870, 30.90949
432.2692, 30.70021
432.7513, 30.56375
433.2334, 30.52706
433.7155, 30.50750
434.1976, 30.43782
434.6797, 30.32324
435.1619, 30.23922
435.6440, 30.04575
436.1261, 30.05191
436.6082, 30.52448
437.0903, 31.13348
437.5724, 31.52523
438.0546, 31.56973
438.5367, 31.34454
439.0188, 30.86728
439.5009, 29.90033
439.9830, 29.45693
440.4651, 30.23046
440.9473, 30.93457
441.4294, 30.85647
441.9115, 30.18830
442.3936, 29.57406
442.8757, 29.43632
443.3578, 29.67136
443.8400, 29.98458
444.3221, 30.48311
444.8042, 30.79148
445.2863, 30.51662
445.7684, 30.12856
446.2505, 30.13650
446.7327, 30.67095
447.2148, 31.18259
447.6969, 31.13501
448.1790, 30.62119
448.6611, 30.13122
449.1432, 29.69199
449.6254, 29.38338
450.1075, 29.40190
450.5896, 29.62903
451.0717, 29.68549
451.5538, 29.17483
452.0359, 28.66363
452.5181, 28.77470
453.0002, 29.43402
453.4823, 30.15339
453.9644, 30.79099
454.4465, 31.26214
454.9286, 31.28019
455.4108, 30.63940
455.8929, 30.24918
456.3750, 30.52998
456.8571, 31.04839
457.3392, 31.31773
457.8214, 31.27880
458.3035, 31.19802
458.7856, 31.32750
459.2677, 31.67174
459.7498, 31.82202
460.2319, 31.59078
460.7141, 31.41433
461.1962, 31.39355
461.6783, 31.50919
462.1604, 31.78926
462.6425, 32.23343
463.1246, 32.66777
463.6068, 32.74247
464.0889, 32.18692
464.5710, 31.99443
465.0531, 32.60494
465.5352, 33.14766
466.0173, 33.14451
466.4995, 32.71764
466.9816, 32.24770
467.4637, 31.93971
467.9458, 31.81451
468.4279, 31.95712
468.9100, 32.43816
469.3922, 33.00863
469.8743, 33.73792
470.3564, 34.44320
470.8385, 34.97780
471.3206, 35.31932
471.8027, 35.52147
472.2849, 35.54964
472.7670, 35.46116
473.2491, 35.46264
473.7312, 35.56264
474.2133, 35.78155
474.6954, 36.18963
475.1776, 36.72834
475.6597, 37.26114
476.1418, 37.69495
476.6239, 38.20255
477.1060, 39.03492
477.5881, 40.04780
478.0703, 40.77602
478.5524, 41.00908
479.0345, 41.09270
479.5166, 41.51957
479.9987, 42.35992
480.4808, 43.25512
480.9630, 44.26841
481.4451, 45.26210
481.9272, 46.20247
482.4093, 47.04459
482.8914, 47.69196
483.3735, 48.09052
483.8557, 48.24982
484.3378, 48.20194
484.8199, 47.76969
485.3020, 47.37133
485.7841, 47.14967
486.2662, 46.87689
486.7484, 46.31010
487.2305, 45.46888
487.7126, 44.61600
488.1947, 43.97367
488.6768, 43.53438
489.1589, 43.18394
489.6411, 43.02281
490.1232, 42.78726
490.6053, 42.20001
491.0874, 41.59083
491.5695, 41.32771
492.0516, 41.51410
492.5338, 42.02136
493.0159, 42.92660
493.4980, 44.14893
493.9801, 44.87119
494.4622, 44.78859
494.9443, 44.54470
495.4265, 44.48198
495.9086, 44.65078
496.3907, 45.29477
496.8728, 46.72604
497.3549, 48.43174
497.8370, 49.95158
498.3192, 51.36804
498.8013, 53.01387
499.2834, 55.03431
499.7655, 57.27354
500.2476, 59.49329
500.7297, 61.65051
501.2119, 63.95875
501.6940, 66.80377
502.1761, 69.49741
502.6582, 71.50549
503.1403, 72.91808
503.6224, 74.28780
504.1045, 76.02831
504.5866, 77.75647
505.0688, 78.07243
505.5509, 76.10580
506.0330, 74.00903
506.5151, 71.95715
506.9972, 69.79655
507.4793, 67.30594
507.9615, 64.54516
508.4436, 61.85189
508.9257, 59.54211
509.4078, 57.53592
509.8899, 55.38921
510.3720, 52.90232
510.8542, 50.70331
511.3363, 49.12597
511.8184, 47.89199
512.3005, 46.75829
512.7827, 45.67809
513.2648, 44.71740
513.7469, 43.90638
514.2290, 43.25061
514.7111, 42.78923
515.1932, 42.55705
515.6754, 42.37450
516.1575, 42.09927
516.6396, 41.75893
517.1217, 41.48255
517.6038, 41.10869
518.0859, 40.99327
518.5681, 41.68731
519.0502, 42.64808
519.5323, 42.82233
520.0144, 41.92662
520.4965, 40.71898
520.9786, 40.08424
521.4608, 40.06026
521.9429, 40.42113
522.4250, 41.73311
522.9071, 42.75748
523.3892, 42.83665
523.8713, 42.40208
524.3535, 42.18397
524.8356, 42.47825
525.3177, 42.88155
525.7998, 42.58996
526.2819, 41.34558
526.7640, 40.71307
527.2462, 41.31319
527.7283, 42.00912
528.2104, 42.24194
528.6925, 42.14744
529.1746, 42.09328
529.6567, 42.29169
530.1389, 42.51136
530.6210, 42.32835
531.1031, 41.77930
531.5852, 41.51717
532.0673, 41.76417
532.5494, 42.31268
533.0316, 43.00270
533.5137, 43.81978
533.9958, 44.54839
534.4779, 45.05205
534.9600, 45.52684
535.4421, 46.21626
535.9243, 47.02764
536.4064, 47.55219
536.8885, 47.53519
537.3706, 47.41831
537.8527, 48.17725
538.3348, 50.61729
538.8170, 52.33507
539.2991, 52.63298
539.7812, 52.88633
540.2633, 53.93479
540.7454, 55.63404
541.2275, 57.41349
541.7097, 58.93370
542.1918, 60.28773
542.6739, 61.65966
543.1560, 62.95329
543.6381, 64.60506
544.1202, 67.31305
544.6024, 69.89700
545.0845, 71.34762
545.5666, 71.87441
546.0487, 72.68700
546.5308, 74.47208
547.0129, 76.91238
547.4951, 79.60119
547.9772, 82.53732
548.4593, 85.50047
548.9414, 88.41111
549.4235, 91.26859
549.9056, 93.89204
550.3878, 96.08032
550.8699, 99.03183
551.3520, 103.2722
551.8341, 108.1091
552.3162, 113.0837
552.7983, 118.1419
553.2805, 123.3421
553.7626, 128.7647
554.2447, 134.2767
554.7268, 139.5482
555.2089, 144.7768
555.6910, 149.3535
556.1732, 153.3862
556.6553, 156.7697
557.1374, 159.5818
557.6195, 161.7248
558.1016, 162.9938
558.5837, 163.3929
559.0659, 162.6671
559.5480, 160.1087
560.0301, 155.5948
560.5122, 149.9642
560.9943, 142.8237
561.4764, 135.2341
561.9586, 128.3015
562.4407, 121.9954
562.9228, 115.5657
563.4049, 108.4710
563.8870, 101.2982
564.3691, 94.54292
564.8513, 88.26925
565.3334, 82.70711
565.8155, 77.99671
566.2976, 73.95826
566.7797, 70.26046
567.2618, 67.10697
567.7440, 63.86269
568.2261, 60.14671
568.7082, 56.71390
569.1903, 53.98576
569.6724, 51.90139
570.1545, 50.24206
570.6367, 48.92113
571.1188, 47.78730
571.6009, 46.52829
572.0830, 45.08004
572.5651, 43.70547
573.0472, 42.33083
573.5294, 41.15120
574.0115, 40.29797
574.4936, 39.71663
574.9757, 39.27763
575.4578, 39.03723
575.9399, 38.76574
576.4221, 38.10197
576.9042, 37.13128
577.3863, 36.32844
577.8684, 35.83079
578.3505, 35.54404
578.8326, 35.41810
579.3148, 35.47015
579.7969, 35.38937
580.2790, 35.06956
580.7611, 34.71853
581.2432, 34.37548
581.7253, 34.08597
582.2075, 33.92976
582.6896, 33.93097
583.1717, 34.00051
583.6538, 33.99990
584.1359, 33.89750
584.6180, 33.95450
585.1002, 34.31664
585.5823, 34.67141
586.0643, 34.94847
586.5464, 35.15022
587.0286, 35.29647
587.5107, 35.39722
587.9928, 35.39225
588.4749, 35.07531
