##NAMES=Pyrope
##RRUFFID=R060441
##IDEAL CHEMISTRY=Mg_3_Al_2_(SiO_4_)_3_
##LOCALITY=Apache County, Arizona, USA
##OWNER=RRUFF
##SOURCE=Gemological Institute of America
##DESCRIPTION=Deep red fragment
##STATUS=The identification of this mineral has been confirmed by X-ray diffraction and chemical analysis
##URL=rruff.info/R060441
##MEASURED CHEMISTRY=(Mg_1.83_Fe_0.75_Ca_0.39_Mn_0.03_)_Σ=3_(Al_1.95_Cr_0.05_)_Σ=2_(Si_1.00_O_4_)_3_
91.40820, 3.414856
91.89032, 3.323398
92.37244, 3.360075
92.85455, 3.507376
93.33667, 3.660474
93.81879, 3.766663
94.30090, 3.822436
94.78302, 3.819887
95.26514, 3.755630
95.74725, 3.633501
96.22937, 3.430786
96.71149, 3.141043
97.19360, 2.864333
97.67572, 2.678785
98.15784, 2.587370
98.63995, 2.598255
99.12207, 2.775499
99.60419, 3.083118
100.0863, 3.170649
100.5684, 2.956697
101.0505, 2.685518
101.5327, 2.714408
102.0148, 3.153665
102.4969, 3.520073
102.9790, 3.625284
103.4611, 3.401969
103.9432, 3.286445
104.4253, 3.310023
104.9075, 3.425482
105.3896, 3.533081
105.8717, 3.588510
106.3538, 3.698349
106.8359, 3.932203
107.3180, 4.531822
107.8002, 4.825717
108.2823, 4.639681
108.7644, 4.115683
109.2465, 3.767686
109.7286, 3.628693
110.2107, 3.648647
110.6929, 3.804303
111.1750, 4.075271
111.6571, 4.503472
112.1392, 5.261609
112.6213, 6.275042
113.1034, 7.001963
113.5856, 7.048007
114.0677, 6.949984
114.5498, 7.090111
115.0319, 7.713111
115.5140, 8.426067
115.9961, 9.147943
116.4783, 9.874477
116.9604, 10.55059
117.4425, 11.20313
117.9246, 11.78796
118.4067, 12.25254
118.8888, 12.46563
119.3710, 12.64261
119.8531, 12.92414
120.3352, 13.33011
120.8173, 13.71618
121.2994, 13.81135
121.7815, 13.83185
122.2637, 14.15562
122.7458, 15.29692
123.2279, 16.66215
123.7100, 17.63234
124.1921, 18.07845
124.6742, 18.39704
125.1564, 18.91749
125.6385, 19.60464
126.1206, 20.35037
126.6027, 21.12330
127.0848, 21.90139
127.5669, 22.62016
128.0491, 23.23508
128.5312, 23.86035
129.0133, 24.76239
129.4954, 25.89386
129.9775, 26.89284
130.4596, 27.36547
130.9418, 27.44922
131.4239, 27.73894
131.9060, 28.45925
132.3881, 29.34385
132.8702, 29.66285
133.3523, 29.37839
133.8345, 29.05812
134.3166, 29.27545
134.7987, 30.02677
135.2808, 30.57812
135.7629, 30.65927
136.2450, 30.42536
136.7272, 30.70090
137.2093, 31.59464
137.6914, 32.66458
138.1735, 33.46069
138.6556, 33.93561
139.1377, 34.35189
139.6199, 34.75564
140.1020, 35.14365
140.5841, 35.60887
141.0662, 36.18628
141.5483, 36.78653
142.0304, 37.28203
142.5126, 37.60866
142.9947, 37.95470
143.4768, 38.28997
143.9589, 38.58075
144.4410, 38.66536
144.9231, 38.42782
145.4053, 38.06930
145.8874, 37.90697
146.3695, 38.10619
146.8516, 38.26585
147.3337, 38.24943
147.8158, 37.95880
148.2980, 37.76032
148.7801, 37.83471
149.2622, 37.97109
149.7443, 37.73986
150.2264, 36.67431
150.7085, 35.66032
151.1907, 35.01521
151.6728, 34.99630
152.1549, 34.87431
152.6370, 34.61068
153.1191, 34.23385
153.6012, 33.81858
154.0834, 33.25251
154.5655, 32.73912
155.0476, 32.36032
155.5297, 32.22133
156.0118, 32.09338
156.4939, 32.01645
156.9761, 31.94313
157.4582, 31.71450
157.9403, 31.08485
158.4224, 30.42663
158.9045, 29.95957
159.3866, 29.94893
159.8688, 29.88255
160.3509, 29.54576
160.8330, 29.00702
161.3151, 28.58490
161.7972, 28.46110
162.2793, 28.46078
162.7615, 27.94597
163.2436, 28.14035
163.7257, 28.11915
164.2078, 27.89715
164.6899, 26.69416
165.1720, 26.89471
165.6541, 26.61641
166.1363, 26.37571
166.6184, 26.94450
167.1005, 26.19138
167.5826, 26.86768
168.0647, 27.05692
168.5468, 27.55609
169.0290, 27.57316
169.5111, 27.81722
169.9932, 28.66305
170.4753, 29.26843
170.9574, 28.74247
171.4395, 28.72281
171.9217, 28.83622
172.4038, 29.08396
172.8859, 29.38324
173.3680, 29.65690
173.8501, 29.93863
174.3322, 30.29297
174.8144, 30.90920
175.2965, 31.54163
175.7786, 31.79001
176.2607, 31.63742
176.7428, 31.51017
177.2249, 31.84364
177.7071, 32.50377
178.1892, 33.17044
178.6713, 33.73310
179.1534, 34.20329
179.6355, 34.54725
180.1176, 34.74627
180.5998, 34.99818
181.0819, 35.56759
181.5640, 36.38186
182.0461, 37.20524
182.5282, 37.97716
183.0103, 38.66912
183.4925, 39.21689
183.9746, 39.61846
184.4567, 39.85860
184.9388, 39.74787
185.4209, 39.36847
185.9030, 39.22522
186.3852, 39.72691
186.8673, 40.68056
187.3494, 41.45798
187.8315, 42.03874
188.3136, 42.41504
188.7957, 42.48317
189.2779, 42.26817
189.7600, 42.11961
190.2421, 42.29387
190.7242, 42.71906
191.2063, 42.94025
191.6884, 42.87014
192.1706, 42.75951
192.6527, 43.07339
193.1348, 43.81798
193.6169, 44.52397
194.0990, 44.93418
194.5811, 45.06557
195.0633, 45.20552
195.5454, 45.35459
196.0275, 45.53551
196.5096, 45.76664
196.9917, 46.04356
197.4738, 46.42159
197.9560, 47.03085
198.4381, 47.87110
198.9202, 48.38521
199.4023, 48.44697
199.8844, 48.31639
200.3665, 48.58848
200.8487, 49.35580
201.3308, 49.98607
201.8129, 50.01984
202.2950, 49.38395
202.7771, 49.17714
203.2592, 49.58129
203.7414, 50.27602
204.2235, 50.51287
204.7056, 50.16313
205.1877, 49.84322
205.6698, 49.88058
206.1519, 50.32517
206.6341, 50.82987
207.1162, 51.45992
207.5983, 52.06958
208.0804, 52.27350
208.5625, 51.95805
209.0446, 51.58118
209.5268, 51.40096
210.0089, 51.49971
210.4910, 51.40071
210.9731, 51.06479
211.4552, 50.54296
211.9373, 49.92970
212.4195, 49.17289
212.9016, 48.46442
213.3837, 47.89382
213.8658, 47.47075
214.3479, 47.18230
214.8300, 47.15263
215.3121, 47.18494
215.7943, 46.71375
216.2764, 45.46046
216.7585, 44.29674
217.2406, 43.65169
217.7227, 43.73286
218.2048, 43.70050
218.6870, 43.60279
219.1691, 43.36111
219.6512, 42.70988
220.1333, 41.34552
220.6154, 40.12673
221.0975, 39.44470
221.5797, 39.52511
222.0618, 39.50908
222.5439, 39.39289
223.0260, 39.18356
223.5081, 38.86670
223.9902, 38.35050
224.4724, 37.89309
224.9545, 37.63300
225.4366, 37.67010
225.9187, 37.61174
226.4008, 37.46493
226.8829, 37.21959
227.3651, 36.82637
227.8472, 36.14569
228.3293, 35.54152
228.8114, 35.16792
229.2935, 35.10184
229.7757, 35.02032
230.2578, 34.86038
230.7399, 34.71519
231.2220, 34.80595
231.7041, 35.35101
232.1862, 35.77793
232.6684, 35.84612
233.1505, 35.40645
233.6326, 35.08546
234.1147, 34.89875
234.5968, 34.82129
235.0789, 34.81666
235.5611, 34.90618
236.0432, 35.03601
236.5253, 35.22633
237.0074, 35.54977
237.4895, 35.63617
237.9716, 35.32725
238.4538, 34.87833
238.9359, 34.70871
239.4180, 34.94313
239.9001, 35.25875
240.3822, 35.63342
240.8643, 36.16634
241.3465, 36.23922
241.8286, 35.53710
242.3107, 34.59682
242.7928, 34.21280
243.2749, 34.70620
243.7570, 35.20135
244.2392, 35.44704
244.7213, 35.39065
245.2034, 35.40844
245.6855, 35.52683
246.1676, 35.69732
246.6497, 35.88463
247.1319, 36.20122
247.6140, 36.32560
248.0961, 36.12032
248.5782, 35.53367
249.0603, 35.08754
249.5424, 34.76410
250.0246, 34.59385
250.5067, 34.62901
250.9888, 34.97533
251.4709, 35.31908
251.9530, 35.58617
252.4351, 35.77307
252.9173, 36.02504
253.3994, 36.48161
253.8815, 36.84844
254.3636, 36.77762
254.8457, 35.97900
255.3278, 35.38845
255.8100, 35.23943
256.2921, 35.51762
256.7742, 35.65710
257.2563, 35.60441
257.7384, 35.48493
258.2205, 35.39779
258.7026, 35.34039
259.1848, 35.32096
259.6669, 35.34078
260.1490, 35.40049
260.6311, 35.52954
261.1132, 35.82132
261.5953, 36.03219
262.0775, 35.92938
262.5596, 35.34850
263.0417, 34.93927
263.5238, 34.80106
264.0059, 34.89022
264.4880, 35.01723
264.9702, 35.23407
265.4523, 35.38401
265.9344, 35.31707
266.4165, 34.91958
266.8986, 34.73252
267.3807, 34.86681
267.8629, 35.21441
268.3450, 35.43416
268.8271, 35.52020
269.3092, 35.49920
269.7913, 35.33275
270.2734, 34.95434
270.7556, 34.77884
271.2377, 34.87244
271.7198, 35.14082
272.2019, 35.39306
272.6840, 35.65273
273.1661, 35.81911
273.6483, 35.80147
274.1304, 35.56499
274.6125, 35.43603
275.0946, 35.43765
275.5767, 35.52302
276.0588, 35.59882
276.5410, 35.64795
277.0231, 35.77169
277.5052, 36.07045
277.9873, 36.55073
278.4694, 36.81327
278.9515, 36.81847
279.4337, 36.68693
279.9158, 36.55984
280.3979, 36.43317
280.8800, 36.35304
281.3621, 36.33989
281.8442, 36.39068
282.3264, 36.52031
282.8085, 36.76999
283.2906, 36.95958
283.7727, 36.81947
284.2548, 36.34647
284.7369, 35.92211
285.2191, 35.62055
285.7012, 35.45817
286.1833, 35.55000
286.6654, 35.92867
287.1475, 36.34518
287.6296, 36.57882
288.1118, 36.63823
288.5939, 36.57006
289.0760, 36.30334
289.5581, 35.97624
290.0402, 35.99263
290.5223, 36.36359
291.0045, 36.74303
291.4866, 36.78931
291.9687, 36.58831
292.4508, 36.57698
292.9329, 36.90052
293.4150, 37.34233
293.8972, 37.50251
294.3793, 37.40429
294.8614, 37.31449
295.3435, 37.40289
295.8256, 37.63715
296.3077, 37.97528
296.7899, 38.46069
297.2720, 38.89701
297.7541, 38.90890
298.2362, 38.58927
298.7183, 38.35467
299.2004, 38.46152
299.6826, 38.80373
300.1647, 39.21332
300.6468, 39.68609
301.1289, 40.16227
301.6110, 40.63961
302.0931, 41.07936
302.5753, 41.39387
303.0574, 41.45055
303.5395, 41.39524
304.0216, 41.38795
304.5037, 41.43174
304.9858, 41.56238
305.4680, 41.85854
305.9501, 42.25612
306.4322, 42.64289
306.9143, 42.93380
307.3964, 43.23240
307.8785, 43.68256
308.3607, 44.26426
308.8428, 44.80033
309.3249, 45.08104
309.8070, 45.28338
310.2891, 45.62461
310.7712, 46.27773
311.2534, 46.94704
311.7355, 47.41858
312.2176, 47.73281
312.6997, 48.02562
313.1818, 48.42340
313.6639, 48.79527
314.1461, 49.02064
314.6282, 49.00687
315.1103, 48.98724
315.5924, 48.96571
316.0745, 49.02137
316.5566, 49.32217
317.0388, 50.21714
317.5209, 51.16936
318.0030, 51.90863
318.4851, 52.40435
318.9672, 52.67724
319.4493, 52.46382
319.9315, 52.10289
320.4136, 52.04213
320.8957, 52.81192
321.3778, 53.53841
321.8599, 53.86351
322.3420, 53.73161
322.8242, 53.63938
323.3063, 53.59541
323.7884, 53.68071
324.2705, 53.96592
324.7526, 54.67408
325.2347, 55.36326
325.7169, 55.87179
326.1990, 56.22822
326.6811, 56.75386
327.1632, 57.60473
327.6453, 58.53936
328.1274, 59.42348
328.6096, 60.12607
329.0917, 60.94577
329.5738, 62.03105
330.0559, 63.24652
330.5380, 64.14838
331.0201, 64.28963
331.5023, 64.60366
331.9844, 65.50453
332.4665, 67.27081
332.9486, 68.90773
333.4307, 70.24336
333.9128, 71.53204
334.3950, 73.23125
334.8771, 75.68078
335.3592, 77.91941
335.8413, 79.50749
336.3234, 80.33748
336.8055, 81.70528
337.2877, 83.72023
337.7698, 86.10040
338.2519, 88.68549
338.7340, 91.60239
339.2161, 94.10932
339.6982, 95.85793
340.1803, 97.03661
340.6624, 98.71631
341.1446, 100.9902
341.6267, 103.5256
342.1088, 106.1058
342.5909, 108.7006
343.0730, 111.6453
343.5551, 115.1008
344.0373, 118.7592
344.5194, 121.7145
345.0015, 123.9586
345.4836, 126.2094
345.9657, 128.8629
346.4478, 131.8866
346.9300, 135.1491
347.4121, 138.7193
347.8942, 142.3504
348.3763, 145.6908
348.8584, 148.7988
349.3405, 152.0945
349.8227, 155.8172
350.3048, 159.8500
350.7869, 163.9499
351.2690, 168.1001
351.7511, 172.3872
352.2332, 176.8786
352.7154, 181.5260
353.1975, 186.2536
353.6796, 191.2527
354.1617, 196.0986
354.6438, 200.1551
355.1259, 203.5442
355.6081, 206.9148
356.0902, 210.8570
356.5723, 214.9679
357.0544, 218.9445
357.5365, 222.9489
358.0186, 226.1487
358.5008, 227.9286
358.9829, 228.4677
359.4650, 228.1551
359.9471, 226.9854
360.4292, 225.1556
360.9113, 222.8320
361.3935, 220.0910
361.8756, 216.5835
362.3577, 211.8064
362.8398, 206.3244
363.3219, 200.7790
363.8040, 195.5231
364.2862, 190.0669
364.7683, 184.1180
365.2504, 177.6838
365.7325, 171.4635
366.2146, 165.3972
366.6967, 159.6620
367.1789, 154.3673
367.6610, 149.6919
368.1431, 145.2534
368.6252, 141.1504
369.1073, 137.2482
369.5894, 133.1882
370.0716, 128.4831
370.5537, 124.0889
371.0358, 120.3789
371.5179, 117.6484
372.0000, 114.6580
372.4821, 111.1468
372.9643, 107.5823
373.4464, 104.6473
373.9285, 102.6587
374.4106, 100.6736
374.8927, 98.42220
375.3748, 95.91061
375.8570, 93.66686
376.3391, 91.80184
376.8212, 89.93103
377.3033, 87.54491
377.7854, 84.51113
378.2675, 82.13056
378.7497, 80.78925
379.2318, 79.98470
379.7139, 78.29639
380.1960, 75.66887
380.6781, 72.99263
381.1602, 70.81959
381.6424, 69.08091
382.1245, 67.35488
382.6066, 65.60960
383.0887, 63.86939
383.5708, 62.06894
384.0529, 60.26001
384.5351, 58.60979
385.0172, 57.28354
385.4993, 56.13725
385.9814, 54.85253
386.4635, 53.44763
386.9456, 52.07738
387.4278, 50.90421
387.9099, 49.85984
388.3920, 48.81335
388.8741, 47.71286
389.3562, 46.64781
389.8383, 45.69884
390.3205, 44.83507
390.8026, 43.99690
391.2847, 43.15395
391.7668, 42.32464
392.2489, 41.54901
392.7310, 40.86723
393.2132, 40.06374
393.6953, 38.79426
394.1774, 37.43087
394.6595, 36.41613
395.1416, 36.29220
395.6237, 36.16126
396.1059, 35.68340
396.5880, 34.87169
397.0701, 34.07228
397.5522, 33.26393
398.0343, 32.55916
398.5164, 32.03093
398.9986, 31.99722
399.4807, 31.73314
399.9628, 31.03895
400.4449, 30.11388
400.9270, 29.41416
401.4091, 29.03043
401.8913, 28.76652
402.3734, 28.59820
402.8555, 28.56451
403.3376, 28.40097
403.8197, 28.07499
404.3018, 27.65691
404.7840, 27.17402
405.2661, 26.54260
405.7482, 26.17059
406.2303, 26.28293
406.7124, 26.68048
407.1945, 26.37532
407.6767, 25.20452
408.1588, 24.13396
408.6409, 23.97292
409.1230, 24.64751
409.6051, 25.00610
410.0872, 24.92852
410.5694, 24.61213
411.0515, 24.29339
411.5336, 23.97783
412.0157, 23.71006
412.4978, 23.59242
412.9799, 23.51205
413.4621, 23.18201
413.9442, 22.60612
414.4263, 22.06863
414.9084, 21.81788
415.3905, 21.75198
415.8727, 21.71134
416.3548, 21.68340
416.8369, 21.62027
417.3190, 21.43918
417.8011, 21.18614
418.2832, 20.98019
418.7654, 20.95414
419.2475, 20.94656
419.7296, 20.83875
420.2117, 20.60263
420.6938, 20.35831
421.1759, 20.11217
421.6581, 19.89885
422.1402, 19.75249
422.6223, 19.79199
423.1044, 19.78446
423.5865, 19.66611
424.0686, 19.44635
424.5508, 19.19926
425.0329, 18.79453
425.5150, 18.47742
425.9971, 18.36899
426.4792, 18.58703
426.9613, 18.77340
427.4435, 18.93928
427.9256, 19.06626
428.4077, 19.12092
428.8898, 19.08432
429.3719, 19.01559
429.8540, 18.91296
430.3362, 18.78261
430.8183, 18.72805
431.3004, 18.77984
431.7825, 18.82068
432.2646, 18.70465
432.7467, 18.43113
433.2289, 18.32153
433.7110, 18.46420
434.1931, 18.71363
434.6752, 18.77547
435.1573, 18.66943
435.6394, 18.61252
436.1216, 18.76399
436.6037, 19.03695
437.0858, 19.29417
437.5679, 19.53889
438.0500, 19.60825
438.5321, 19.10595
439.0142, 18.37693
439.4963, 18.04003
439.9785, 18.52802
440.4606, 19.11860
440.9427, 19.19513
441.4248, 18.89177
441.9069, 18.60122
442.3890, 18.48880
442.8712, 18.47003
443.3533, 18.51855
443.8354, 18.65481
444.3175, 18.73425
444.7996, 18.54170
445.2817, 18.33701
445.7639, 18.39035
446.2460, 19.21535
446.7281, 19.79259
447.2102, 19.77773
447.6923, 19.26983
448.1744, 18.99652
448.6566, 19.18711
449.1387, 19.37072
449.6208, 19.31645
450.1029, 18.89517
450.5850, 18.62341
451.0671, 18.53039
451.5493, 18.55955
452.0314, 18.62044
452.5135, 18.68832
452.9956, 18.91229
453.4777, 19.41746
453.9598, 20.09240
454.4420, 20.40973
454.9241, 20.33346
455.4062, 20.20865
455.8883, 20.32802
456.3704, 20.62711
456.8525, 20.76630
457.3347, 20.65771
457.8168, 20.57563
458.2989, 21.00955
458.7810, 21.77554
459.2631, 22.31717
459.7452, 22.22058
460.2274, 21.88455
460.7095, 21.68003
461.1916, 21.60783
461.6737, 21.70126
462.1558, 22.20244
462.6379, 22.76004
463.1201, 23.01064
463.6022, 22.71873
464.0843, 22.51555
464.5664, 22.75723
465.0485, 23.23166
465.5306, 23.60053
466.0128, 23.67245
466.4949, 23.73944
466.9770, 23.89456
467.4591, 24.14374
467.9412, 24.36369
468.4233, 24.49791
468.9055, 24.65121
469.3876, 24.88656
469.8697, 25.22884
470.3518, 25.60715
470.8339, 26.06407
471.3160, 26.52795
471.7982, 26.86558
472.2803, 27.06156
472.7624, 27.18966
473.2445, 27.24187
473.7266, 27.24155
474.2087, 27.33373
474.6909, 27.52355
475.1730, 27.75428
475.6551, 27.94381
476.1372, 28.12354
476.6193, 28.46830
477.1014, 29.05460
477.5836, 29.63954
478.0657, 29.84204
478.5478, 29.78470
479.0299, 29.81603
479.5120, 30.17552
479.9941, 30.64932
480.4763, 30.99366
480.9584, 31.23019
481.4405, 31.58673
481.9226, 32.31191
482.4047, 33.13732
482.8868, 33.86002
483.3690, 34.44780
483.8511, 34.89811
484.3332, 35.08015
484.8153, 35.14840
485.2974, 35.35875
485.7795, 36.21489
486.2617, 36.70977
486.7438, 36.46788
487.2259, 35.50559
487.7080, 34.88234
488.1901, 34.79896
488.6722, 34.78670
489.1544, 34.52922
489.6365, 33.91546
490.1186, 33.51502
490.6007, 33.40060
491.0828, 33.42248
491.5649, 33.29900
492.0471, 33.01718
492.5292, 32.90997
493.0113, 33.14299
493.4934, 33.59653
493.9755, 34.00273
494.4576, 34.35523
494.9398, 34.59642
495.4219, 34.51301
495.9040, 34.32533
496.3861, 34.46308
496.8682, 35.01291
497.3503, 35.68846
497.8325, 36.25985
498.3146, 36.80151
498.7967, 37.44130
499.2788, 38.20880
499.7609, 39.09920
500.2430, 40.16469
500.7252, 41.36519
501.2073, 42.55206
501.6894, 43.65617
502.1715, 44.74223
502.6536, 45.88076
503.1357, 47.16090
503.6179, 48.22423
504.1000, 48.89918
504.5821, 49.46404
505.0642, 50.23670
505.5463, 51.47551
506.0284, 52.32619
506.5106, 52.54422
506.9927, 52.32482
507.4748, 52.38034
507.9569, 52.81352
508.4390, 53.02010
508.9211, 52.65026
509.4033, 51.75762
509.8854, 50.79642
510.3675, 49.77608
510.8496, 48.60744
511.3317, 47.07973
511.8138, 45.32407
512.2960, 43.72179
512.7781, 42.33046
513.2602, 41.11594
513.7423, 40.02804
514.2244, 39.08288
514.7065, 38.31955
515.1887, 37.88909
515.6708, 37.54071
516.1529, 37.15796
516.6350, 36.72982
517.1171, 36.18712
517.5992, 35.05773
518.0814, 34.10939
518.5635, 33.89576
519.0456, 35.23882
519.5277, 36.07143
520.0098, 36.13842
520.4919, 35.71535
520.9741, 35.13767
521.4562, 34.16257
521.9383, 33.54085
522.4204, 33.51673
522.9025, 33.99812
523.3846, 34.43952
523.8668, 34.85402
524.3489, 35.15910
524.8310, 35.22314
525.3131, 35.09008
525.7952, 35.17547
526.2773, 35.52648
526.7595, 35.92408
527.2416, 36.11765
527.7237, 36.15805
528.2058, 36.16975
528.6879, 36.15724
529.1700, 36.17752
529.6522, 36.30777
530.1343, 36.51973
530.6164, 36.73505
531.0985, 36.91567
531.5806, 37.08564
532.0627, 37.23024
532.5449, 37.34221
533.0270, 37.55101
533.5091, 37.87947
533.9912, 38.32429
534.4733, 38.87872
534.9554, 39.54811
535.4376, 40.34444
535.9197, 41.38356
536.4018, 42.48745
536.8839, 43.25981
537.3660, 43.49846
537.8481, 43.96661
538.3303, 44.89457
538.8124, 46.22049
539.2945, 47.67476
539.7766, 49.27203
540.2587, 50.87176
540.7408, 52.38232
541.2230, 53.82412
541.7051, 55.15104
542.1872, 56.32919
542.6693, 57.64531
543.1514, 59.45101
543.6335, 61.59616
544.1157, 63.86030
544.5978, 66.23191
545.0799, 68.61510
545.5620, 70.91017
546.0441, 73.14544
546.5262, 75.39010
547.0084, 77.61472
547.4905, 79.89416
547.9726, 82.24785
548.4547, 84.65257
548.9368, 87.35409
549.4189, 90.65749
549.9011, 94.03166
550.3832, 97.12110
550.8653, 99.53761
551.3474, 102.6354
551.8295, 106.6248
552.3116, 111.0216
552.7938, 115.1046
553.2759, 118.8437
553.7580, 122.5693
554.2401, 126.4439
554.7222, 130.2964
555.2043, 133.6298
555.6865, 136.4565
556.1686, 139.2261
556.6507, 142.8163
557.1328, 146.2702
557.6149, 148.2181
558.0970, 148.5845
558.5792, 147.8179
559.0613, 145.7947
559.5434, 143.0208
560.0255, 140.0620
560.5076, 137.5208
560.9897, 134.0096
561.4719, 128.6414
561.9540, 122.0826
562.4361, 115.5297
562.9182, 109.0269
563.4003, 102.5919
563.8824, 96.06222
564.3646, 89.55407
564.8467, 83.49441
565.3288, 77.86958
565.8109, 72.69632
566.2930, 67.93742
566.7751, 63.61756
567.2573, 59.65434
567.7394, 56.02075
568.2215, 52.71721
568.7036, 49.70338
569.1857, 46.99497
569.6678, 44.54410
570.1500, 42.38087
570.6321, 40.43842
571.1142, 38.64720
571.5963, 37.04350
572.0784, 35.71404
572.5605, 34.98446
573.0427, 34.27656
573.5248, 33.07113
574.0069, 31.48831
574.4890, 30.26514
574.9711, 30.00660
575.4532, 29.88291
575.9354, 29.47428
576.4175, 28.64552
576.8996, 27.94014
577.3817, 27.40260
577.8638, 26.95266
578.3459, 26.50174
578.8281, 26.02832
579.3102, 25.67630
579.7923, 25.48481
580.2744, 25.38632
580.7565, 25.26780
581.2386, 25.12994
581.7208, 24.99531
582.2029, 24.93484
582.6850, 24.83701
583.1671, 24.35508
583.6492, 23.57571
584.1313, 23.01617
584.6135, 23.22640
585.0956, 23.66873
585.5776, 23.80561
586.0598, 23.55115
586.5419, 23.33559
587.0240, 23.42333
