##NAMES=Pyrosmalite-(Mn)
##RRUFFID=R110207
##IDEAL CHEMISTRY=Mn^2+^_8_Si_6_O_15_(OH,Cl)_10_
##LOCALITY=Kyurasawa mine, Ashio, Tochigi Prefecture, Kanto Region, Japan
##OWNER=RRUFF
##SOURCE=Royal Ontario Museum
##DESCRIPTION=Pink massive with good cleavage
##STATUS=The identification of this mineral has been confirmed only by single crystal X-ray diffraction.
##URL=rruff.info/R110207
112.8167, 232.2030
113.2988, 233.4502
113.7809, 235.7357
114.2630, 238.7048
114.7451, 241.9849
115.2272, 245.3394
115.7094, 248.7820
116.1915, 252.0267
116.6736, 254.5855
117.1557, 257.4678
117.6378, 261.2236
118.1199, 265.6809
118.6021, 270.1625
119.0842, 274.0209
119.5663, 277.2051
120.0484, 280.9398
120.5305, 285.5648
121.0126, 290.5289
121.4948, 295.5661
121.9769, 300.7091
122.4590, 305.3780
122.9411, 308.8173
123.4232, 311.2642
123.9053, 313.0456
124.3875, 314.2039
124.8696, 314.7633
125.3517, 314.7998
125.8338, 314.3730
126.3159, 313.2379
126.7980, 311.4995
127.2802, 309.1210
127.7623, 305.9671
128.2444, 301.6960
128.7265, 296.2201
129.2086, 290.7577
129.6907, 285.5557
130.1729, 280.2563
130.6550, 274.5611
131.1371, 268.4999
131.6192, 262.4589
132.1013, 256.9740
132.5834, 252.0941
133.0656, 247.6772
133.5477, 243.4065
134.0298, 239.6683
134.5119, 236.8555
134.9940, 235.0797
135.4761, 234.0311
135.9583, 233.0417
136.4404, 231.9252
136.9225, 231.1246
137.4046, 230.7249
137.8867, 230.6425
138.3688, 230.8283
138.8510, 231.3062
139.3331, 231.9388
139.8152, 232.2423
140.2973, 231.8435
140.7794, 231.7057
141.2615, 232.4962
141.7437, 234.0001
142.2258, 235.2760
142.7079, 235.8467
143.1900, 235.8074
143.6721, 235.5107
144.1542, 234.8553
144.6364, 234.0842
145.1185, 233.4105
145.6006, 232.8372
146.0827, 232.3437
146.5648, 232.2747
147.0469, 232.1689
147.5291, 231.4374
148.0112, 229.6806
148.4933, 227.3828
148.9754, 225.6502
149.4575, 224.7477
149.9396, 223.9897
150.4218, 223.2132
150.9039, 222.3968
151.3860, 221.4544
151.8681, 220.2482
152.3502, 218.8754
152.8323, 218.2391
153.3145, 218.7717
153.7966, 219.7255
154.2787, 221.2519
154.7608, 223.1028
155.2429, 224.8077
155.7250, 225.9260
156.2072, 226.3490
156.6893, 227.8500
157.1714, 230.7401
157.6535, 234.1732
158.1356, 238.0499
158.6177, 242.2321
159.0999, 246.4019
159.5820, 250.1882
160.0641, 253.4948
160.5462, 257.5017
161.0283, 262.1348
161.5104, 267.4366
161.9926, 273.6742
162.4747, 280.8497
162.9568, 288.2805
163.4389, 295.0934
163.9210, 301.3494
164.4031, 307.9202
164.8853, 314.9523
165.3674, 322.3861
165.8495, 330.1164
166.3316, 338.2948
166.8137, 346.4201
167.2958, 353.7001
167.7780, 360.4100
168.2601, 367.6970
168.7422, 376.2886
169.2243, 385.9534
169.7064, 395.6095
170.1885, 405.0760
170.6707, 414.6079
171.1528, 424.4340
171.6349, 434.4917
172.1170, 444.5905
172.5991, 454.5633
173.0812, 464.4006
173.5634, 474.3019
174.0455, 484.2845
174.5276, 494.4149
175.0097, 504.6158
175.4918, 514.9421
175.9739, 525.5287
176.4561, 536.4447
176.9382, 547.8017
177.4203, 559.4143
177.9024, 571.3723
178.3845, 583.4562
178.8666, 595.3544
179.3488, 607.0649
179.8309, 619.0750
180.3130, 631.9266
180.7951, 646.1314
181.2772, 660.0217
181.7593, 674.0985
182.2415, 687.5718
182.7236, 699.5798
183.2057, 709.9979
183.6878, 719.5914
184.1699, 729.4932
184.6520, 739.9283
185.1342, 750.2646
185.6163, 761.7176
186.0984, 772.5319
186.5805, 780.8059
187.0626, 785.9572
187.5447, 788.7879
188.0269, 790.5894
188.5090, 791.9906
188.9911, 790.5938
189.4732, 785.0894
189.9553, 776.5309
190.4374, 766.7393
190.9196, 756.0781
191.4017, 744.3643
191.8838, 731.0566
192.3659, 716.2412
192.8480, 700.8542
193.3301, 684.9520
193.8123, 668.7408
194.2944, 652.8541
194.7765, 637.4294
195.2586, 622.5066
195.7407, 607.8156
196.2228, 593.3832
196.7050, 579.7307
197.1871, 567.2815
197.6692, 556.0162
198.1513, 545.4884
198.6334, 535.9922
199.1155, 526.9776
199.5977, 518.1009
200.0798, 509.3203
200.5619, 500.7454
201.0440, 492.4481
201.5261, 484.3898
202.0082, 476.5682
202.4904, 469.3169
202.9725, 462.0359
203.4546, 454.3277
203.9367, 446.1762
204.4188, 437.8756
204.9009, 429.9073
205.3831, 422.5629
205.8652, 414.6611
206.3473, 406.0434
206.8294, 397.0258
207.3115, 387.6063
207.7936, 377.9007
208.2758, 368.2107
208.7579, 359.0052
209.2400, 350.3251
209.7221, 342.1592
210.2042, 334.5724
210.6863, 327.3780
211.1685, 320.5043
211.6506, 313.9005
212.1327, 307.4403
212.6148, 300.8534
213.0969, 293.8752
213.5790, 287.5234
214.0612, 281.8930
214.5433, 276.7872
215.0254, 272.1486
215.5075, 267.9568
215.9896, 263.8536
216.4717, 259.3279
216.9539, 253.9400
217.4360, 249.1927
217.9181, 245.4774
218.4002, 242.2202
218.8823, 238.8280
219.3644, 235.1674
219.8466, 231.4810
220.3287, 228.1109
220.8108, 225.0740
221.2929, 222.1502
221.7750, 219.3072
222.2571, 216.5647
222.7393, 214.0534
223.2214, 211.8589
223.7035, 209.5722
224.1856, 206.5217
224.6677, 202.7825
225.1498, 199.2339
225.6320, 196.2179
226.1141, 193.5033
226.5962, 190.6225
227.0783, 187.3674
227.5604, 184.3385
228.0425, 182.3163
228.5247, 181.0872
229.0068, 179.8099
229.4889, 178.2273
229.9710, 176.3806
230.4531, 174.2752
230.9352, 171.7702
231.4174, 169.3251
231.8995, 167.2359
232.3816, 165.4639
232.8637, 163.9642
233.3458, 162.8010
233.8279, 161.9006
234.3101, 161.0519
234.7922, 160.4105
235.2743, 159.5384
235.7564, 157.9590
236.2385, 156.0025
236.7206, 154.3456
237.2028, 153.5727
237.6849, 153.4258
238.1670, 152.7183
238.6491, 150.9423
239.1312, 149.3618
239.6133, 148.6022
240.0955, 148.3428
240.5776, 148.0045
241.0597, 147.1746
241.5418, 146.0164
242.0239, 145.3626
242.5060, 145.5791
242.9882, 145.8320
243.4703, 145.9672
243.9524, 145.9593
244.4345, 145.7663
244.9166, 145.3412
245.3987, 144.7390
245.8809, 144.2151
246.3630, 143.6370
246.8451, 143.3441
247.3272, 143.5633
247.8093, 144.0429
248.2914, 144.4802
248.7736, 144.7150
249.2557, 144.7753
249.7378, 144.7580
250.2199, 144.3375
250.7020, 144.2707
251.1841, 145.0456
251.6663, 146.0897
252.1484, 146.6967
252.6305, 146.5236
253.1126, 145.8019
253.5947, 145.2498
254.0768, 144.9492
254.5590, 144.7548
255.0411, 144.9170
255.5232, 145.0806
256.0053, 144.7740
256.4874, 143.8023
256.9695, 142.4736
257.4517, 141.5351
257.9338, 141.7807
258.4159, 141.4536
258.8980, 139.9266
259.3801, 138.0857
259.8622, 136.9784
260.3444, 136.9511
260.8265, 137.3583
261.3086, 136.9780
261.7907, 135.1030
262.2728, 133.4906
262.7549, 132.1702
263.2371, 131.1102
263.7192, 130.3483
264.2013, 129.8816
264.6834, 129.5556
265.1655, 129.1415
265.6476, 128.5755
266.1298, 128.0806
266.6119, 127.6107
267.0940, 127.2395
267.5761, 127.0986
268.0582, 127.2021
268.5403, 127.3464
269.0225, 127.2975
269.5046, 127.0104
269.9867, 126.6819
270.4688, 126.1533
270.9509, 125.6878
271.4330, 125.5000
271.9152, 125.6161
272.3973, 125.9826
272.8794, 126.6733
273.3615, 127.7077
273.8436, 128.2254
274.3257, 127.5531
274.8079, 126.8267
275.2900, 127.0341
275.7721, 128.1852
276.2542, 129.5332
276.7363, 130.6028
277.2184, 131.3678
277.7006, 131.9870
278.1827, 132.1795
278.6648, 132.4445
279.1469, 133.1539
279.6290, 134.2765
280.1111, 135.5373
280.5933, 136.7743
281.0754, 138.0425
281.5575, 139.4978
282.0396, 141.2971
282.5217, 143.0872
283.0038, 144.5417
283.4860, 145.7496
283.9681, 147.1834
284.4502, 149.0427
284.9323, 151.2983
285.4144, 153.8452
285.8965, 156.8072
286.3787, 159.7426
286.8608, 162.4179
287.3429, 164.8635
287.8250, 167.1572
288.3071, 169.1308
288.7892, 171.2417
289.2714, 174.2006
289.7535, 178.0658
290.2356, 182.0232
290.7177, 185.7185
291.1998, 189.2211
291.6819, 192.7026
292.1641, 196.0984
292.6462, 199.7032
293.1283, 203.9459
293.6104, 208.7381
294.0925, 213.5791
294.5746, 217.9945
295.0568, 222.3554
295.5389, 227.5587
296.0210, 233.9575
296.5031, 240.4406
296.9852, 245.9200
297.4673, 250.7148
297.9495, 255.7044
298.4316, 261.1092
298.9137, 266.8732
299.3958, 273.0773
299.8779, 279.8642
300.3600, 286.4066
300.8422, 292.0238
301.3243, 297.0193
301.8064, 301.7471
302.2885, 306.2036
302.7706, 310.5639
303.2527, 315.1774
303.7349, 320.1090
304.2170, 324.6497
304.6991, 328.6290
305.1812, 331.8828
305.6633, 334.1268
306.1454, 335.0983
306.6276, 335.5887
307.1097, 336.2966
307.5918, 337.1942
308.0739, 337.7339
308.5560, 337.2803
309.0381, 336.8110
309.5203, 337.5418
310.0024, 339.6192
310.4845, 341.7006
310.9666, 342.5020
311.4487, 342.3931
311.9308, 343.2402
312.4130, 345.6156
312.8951, 348.7738
313.3772, 351.8565
313.8593, 354.9395
314.3414, 358.5441
314.8235, 363.1348
315.3057, 368.4329
315.7878, 373.7028
316.2699, 378.6653
316.7520, 384.0938
317.2341, 390.7116
317.7162, 398.1641
318.1984, 405.8481
318.6805, 413.7397
319.1626, 421.6241
319.6447, 429.3133
320.1268, 436.9152
320.6089, 443.8057
321.0911, 450.6211
321.5732, 456.1806
322.0553, 458.5909
322.5374, 457.3544
323.0195, 453.0905
323.5016, 446.0969
323.9838, 436.3289
324.4659, 424.8567
324.9480, 411.0837
325.4301, 396.4566
325.9122, 382.7447
326.3943, 369.9070
326.8765, 358.0600
327.3586, 347.4119
327.8407, 337.8295
328.3228, 328.7814
328.8049, 319.9870
329.2870, 311.9991
329.7692, 305.5041
330.2513, 300.3983
330.7334, 295.5519
331.2155, 290.4059
331.6976, 285.1526
332.1797, 280.1564
332.6619, 275.3506
333.1440, 271.1032
333.6261, 268.0812
334.1082, 265.8764
334.5903, 263.5558
335.0724, 260.4900
335.5546, 257.3576
336.0367, 255.0998
336.5188, 253.7838
337.0009, 252.7701
337.4830, 251.8709
337.9651, 250.9881
338.4473, 249.8833
338.9294, 248.2119
339.4115, 246.8216
339.8936, 246.5422
340.3757, 247.2508
340.8578, 248.0250
341.3400, 248.4932
341.8221, 248.9138
342.3042, 249.6209
342.7863, 250.5984
343.2684, 251.8931
343.7505, 253.6364
344.2327, 255.7102
344.7148, 257.8071
345.1969, 259.8217
345.6790, 261.9560
346.1611, 264.5595
346.6432, 267.5525
347.1254, 270.4980
347.6075, 272.9604
348.0896, 275.4673
348.5717, 278.8598
349.0538, 283.2607
349.5359, 287.4847
350.0181, 290.6106
350.5002, 292.8054
350.9823, 295.0374
351.4644, 297.7987
351.9465, 300.2179
352.4286, 301.8005
352.9108, 302.5613
353.3929, 302.6026
353.8750, 301.9629
354.3571, 300.6017
354.8392, 298.3726
355.3214, 294.8882
355.8035, 291.5570
356.2856, 289.2897
356.7677, 287.4497
357.2498, 284.7283
357.7319, 280.6405
358.2141, 276.2162
358.6962, 272.9176
359.1783, 270.9647
359.6604, 268.7092
360.1425, 265.8804
360.6246, 262.7099
361.1068, 259.1229
361.5889, 255.1863
362.0710, 251.7940
362.5531, 249.8197
363.0352, 249.2485
363.5173, 248.1946
363.9995, 246.0710
364.4816, 244.0863
364.9637, 243.0290
365.4458, 242.5894
365.9279, 241.8893
366.4100, 240.4270
366.8922, 238.5050
367.3743, 237.1421
367.8564, 236.7637
368.3385, 236.2946
368.8206, 235.5436
369.3027, 234.6538
369.7849, 233.7236
370.2670, 232.7976
370.7491, 232.0159
371.2312, 231.6249
371.7133, 231.9033
372.1954, 231.6976
372.6776, 230.5046
373.1597, 229.2887
373.6418, 228.7323
374.1239, 228.7510
374.6060, 228.7678
375.0881, 228.3052
375.5703, 227.3839
376.0524, 226.6641
376.5345, 226.1297
377.0166, 225.8042
377.4987, 225.8940
377.9808, 226.1458
378.4630, 226.1467
378.9451, 225.7038
379.4272, 225.0721
379.9093, 224.8693
380.3914, 225.4021
380.8735, 225.8763
381.3557, 226.2695
381.8378, 226.5946
382.3199, 226.7513
382.8020, 226.7900
383.2841, 226.9821
383.7662, 227.6600
384.2484, 228.8978
384.7305, 230.1169
385.2126, 231.3049
385.6947, 232.4885
386.1768, 233.7759
386.6589, 235.0573
387.1411, 236.0715
387.6232, 236.5871
388.1053, 236.8456
388.5874, 237.7191
389.0695, 239.4026
389.5516, 241.3702
390.0338, 243.7473
390.5159, 246.1849
390.9980, 248.2916
391.4801, 249.9698
391.9622, 251.5732
392.4443, 253.5961
392.9265, 256.0901
393.4086, 258.4897
393.8907, 260.8444
394.3728, 262.9488
394.8549, 264.5902
395.3370, 265.8549
395.8192, 267.0540
396.3013, 268.3011
396.7834, 269.6395
397.2655, 271.2287
397.7476, 273.1398
398.2297, 275.1100
398.7119, 277.2136
399.1940, 279.2331
399.6761, 280.8156
400.1582, 281.7762
400.6403, 282.4934
401.1224, 283.3373
401.6046, 284.3023
402.0867, 285.1639
402.5688, 285.7050
403.0509, 286.2924
403.5330, 287.4678
404.0151, 289.2475
404.4973, 290.8083
404.9794, 291.6992
405.4615, 292.1634
405.9436, 292.6548
406.4257, 293.2478
406.9078, 293.6727
407.3900, 293.7386
407.8721, 293.4295
408.3542, 292.7770
408.8363, 291.8105
409.3184, 290.4783
409.8005, 288.8480
410.2827, 286.8484
410.7648, 284.2175
411.2469, 280.7919
411.7290, 276.7793
412.2111, 272.6357
412.6932, 268.5154
413.1754, 263.9506
413.6575, 258.5151
414.1396, 252.7884
414.6217, 247.4212
415.1038, 242.5068
415.5859, 237.5646
416.0681, 232.1219
416.5502, 226.1402
417.0323, 220.0054
417.5144, 213.3586
417.9965, 206.9574
418.4786, 201.1173
418.9608, 195.7573
419.4429, 190.5947
419.9250, 185.4804
420.4071, 180.5616
420.8892, 176.2538
421.3713, 172.9664
421.8535, 169.7517
422.3356, 166.6495
422.8177, 163.5406
423.2998, 160.2399
423.7819, 156.7789
424.2640, 153.4871
424.7462, 150.7103
425.2283, 148.4596
425.7104, 146.3954
426.1925, 144.5153
426.6746, 142.8505
427.1567, 141.5789
427.6389, 140.4863
428.1210, 139.1787
428.6031, 137.3999
429.0852, 135.5812
429.5673, 134.7181
430.0494, 135.1145
430.5316, 135.3589
431.0137, 134.7963
431.4958, 134.2049
431.9779, 134.2554
432.4600, 134.9207
432.9421, 135.3805
433.4243, 134.7773
433.9064, 133.4009
434.3885, 132.6021
434.8706, 132.7261
435.3527, 132.7601
435.8348, 132.0407
436.3170, 130.7964
436.7991, 129.3056
437.2812, 127.4839
437.7633, 125.6564
438.2454, 124.1709
438.7275, 122.9755
439.2097, 121.7382
439.6918, 120.3155
440.1739, 118.8569
440.6560, 117.6073
441.1381, 116.5682
441.6202, 115.5393
442.1024, 114.4448
442.5845, 113.3456
443.0666, 112.3162
443.5487, 111.3615
444.0308, 110.4457
444.5129, 109.5066
444.9951, 108.5813
445.4772, 107.9524
445.9593, 107.6885
446.4414, 107.5937
446.9235, 107.6163
447.4056, 107.7700
447.8878, 108.1315
448.3699, 108.7209
448.8520, 109.3596
449.3341, 109.7454
449.8162, 109.6530
450.2983, 109.9663
450.7805, 110.7969
451.2626, 111.8604
451.7447, 113.1642
452.2268, 114.5848
452.7089, 115.8962
453.1910, 116.9423
453.6732, 117.7582
454.1553, 118.4639
454.6374, 118.9473
455.1195, 119.5138
455.6016, 120.2560
456.0837, 121.0585
456.5659, 121.7744
457.0480, 122.4012
457.5301, 123.1156
458.0122, 124.1957
458.4943, 125.6338
458.9764, 126.7779
459.4586, 127.3226
459.9407, 128.0053
460.4228, 129.2350
460.9049, 130.8384
461.3870, 132.5250
461.8691, 134.2155
462.3513, 135.9105
462.8334, 137.4923
463.3155, 138.9783
463.7976, 140.8544
464.2797, 143.4403
464.7618, 146.2864
465.2440, 148.8554
465.7261, 151.1575
466.2082, 153.3166
466.6903, 155.5924
467.1724, 157.6424
467.6545, 159.1156
468.1367, 159.9697
468.6188, 160.1558
469.1009, 159.5796
469.5830, 158.3128
470.0651, 156.7121
470.5472, 154.7617
471.0294, 152.5690
471.5115, 149.9296
471.9936, 147.1620
472.4757, 144.6094
472.9578, 142.3787
473.4399, 140.4412
473.9221, 138.7670
474.4042, 137.3601
474.8863, 136.2152
475.3684, 135.4482
475.8505, 134.7753
476.3326, 133.9352
476.8148, 133.1518
477.2969, 132.9063
477.7790, 133.4518
478.2611, 134.3406
478.7432, 134.6521
479.2253, 134.3351
479.7075, 133.5708
480.1896, 131.9626
480.6717, 130.2578
481.1538, 129.0171
481.6359, 128.1084
482.1180, 126.8641
482.6002, 124.7219
483.0823, 121.9619
483.5644, 119.3433
484.0465, 116.9420
484.5286, 114.4433
485.0107, 111.5632
485.4929, 108.5905
485.9750, 105.8087
486.4571, 103.2462
486.9392, 100.9762
487.4213, 99.21702
487.9034, 97.75746
488.3856, 96.13806
488.8677, 94.26305
489.3498, 92.31929
489.8319, 90.46799
490.3140, 88.69671
490.7961, 86.89970
491.2783, 84.63757
491.7604, 82.79652
492.2425, 82.03869
492.7246, 81.93006
493.2067, 81.66065
493.6888, 80.94758
494.1710, 80.03630
494.6531, 79.30076
495.1352, 78.76054
495.6173, 78.35751
496.0994, 78.32107
496.5815, 78.18029
497.0637, 77.46540
497.5458, 76.48434
498.0279, 75.93594
498.5100, 76.24141
498.9921, 77.07202
499.4742, 77.67252
499.9564, 78.16176
500.4385, 78.09295
500.9206, 76.60452
501.4027, 75.17356
501.8848, 74.79167
502.3669, 75.39742
502.8491, 76.23459
503.3312, 76.93047
503.8133, 77.44933
504.2954, 77.64592
504.7775, 77.46835
505.2596, 77.20322
505.7418, 76.86962
506.2239, 76.59000
506.7060, 76.54892
507.1881, 76.80102
507.6702, 77.10322
508.1523, 77.35034
508.6345, 77.56375
509.1166, 77.76807
509.5987, 77.96770
510.0808, 78.18429
510.5629, 78.41943
511.0450, 78.68300
511.5272, 79.07911
512.0093, 79.59905
512.4914, 80.24275
512.9735, 81.16377
513.4556, 82.14738
513.9377, 82.91886
514.4199, 83.40214
514.9020, 83.72767
515.3841, 84.06385
515.8662, 84.44551
516.3483, 84.59688
516.8304, 84.09254
517.3126, 83.81020
517.7947, 84.19609
518.2768, 84.89968
518.7589, 85.39559
519.2410, 85.47104
519.7231, 85.35436
520.2053, 85.31661
520.6874, 85.35037
521.1695, 85.59761
521.6516, 86.23928
522.1337, 86.89287
522.6158, 87.26230
523.0980, 87.43430
523.5801, 87.66412
524.0622, 88.13708
524.5443, 88.61033
525.0264, 88.79518
525.5085, 88.73438
525.9907, 88.65639
526.4728, 88.62206
526.9549, 88.64707
527.4370, 88.76608
527.9191, 88.99137
528.4012, 89.23363
528.8834, 89.44263
529.3655, 89.70224
529.8476, 90.16503
530.3297, 90.73609
530.8118, 91.11205
531.2939, 91.11446
531.7761, 90.92336
532.2582, 91.01338
532.7403, 91.63951
533.2224, 92.07536
533.7045, 92.20953
534.1866, 92.26067
534.6688, 92.19744
535.1509, 92.15208
535.6330, 92.47864
536.1151, 93.53884
536.5972, 94.95482
537.0793, 95.66576
537.5615, 95.50211
538.0436, 95.31623
538.5257, 95.31116
539.0078, 95.41542
539.4899, 95.55737
539.9720, 95.73812
540.4542, 96.01414
540.9363, 96.46257
541.4184, 96.99804
541.9005, 97.48751
542.3826, 97.93112
542.8647, 98.42064
543.3469, 99.00472
543.8290, 99.66827
544.3111, 100.3938
544.7932, 101.2381
545.2753, 101.9955
545.7574, 102.4477
546.2396, 102.9407
546.7217, 103.9246
547.2038, 105.2890
547.6859, 106.4151
548.1680, 106.8273
548.6501, 106.7461
549.1323, 107.1750
549.6144, 108.4845
550.0965, 109.6697
550.5786, 110.6434
551.0607, 111.4587
551.5428, 112.2429
552.0250, 112.9401
552.5071, 113.2503
552.9892, 112.6941
553.4713, 111.6771
553.9534, 111.4856
554.4355, 112.3008
554.9177, 113.0331
555.3998, 113.2398
555.8819, 113.1415
556.3640, 113.0585
556.8461, 113.0035
557.3282, 112.8857
557.8104, 112.5496
558.2925, 112.2015
558.7746, 112.1563
559.2567, 112.3874
559.7388, 112.5798
560.2209, 112.5750
560.7031, 112.3489
561.1852, 111.8213
561.6673, 110.2800
562.1494, 109.4544
562.6315, 109.9800
563.1136, 110.7488
563.5958, 111.0249
564.0779, 110.7798
564.5600, 110.2784
565.0421, 109.6647
565.5242, 109.0094
566.0063, 108.5281
566.4885, 108.1913
566.9706, 108.1207
567.4527, 108.6542
567.9348, 109.2391
568.4169, 109.5021
568.8990, 109.4448
569.3812, 109.2783
569.8633, 108.8195
570.3454, 108.4691
570.8275, 109.0132
571.3096, 110.3825
571.7917, 111.5204
572.2739, 111.9421
572.7560, 111.9779
573.2381, 112.1803
573.7202, 112.5344
574.2023, 113.0983
574.6844, 114.1030
575.1666, 115.1275
575.6487, 115.7689
576.1308, 116.1866
576.6129, 116.8668
577.0950, 118.0787
577.5771, 119.5549
578.0593, 120.6775
578.5414, 121.2436
579.0235, 122.0090
579.5056, 123.0099
579.9877, 124.2235
580.4698, 125.6446
580.9520, 127.2740
581.4341, 129.1491
581.9162, 131.3377
582.3983, 133.6714
582.8804, 135.9396
583.3625, 138.1518
583.8447, 140.2462
584.3268, 142.0518
584.8089, 144.0809
585.2910, 146.8765
585.7731, 150.3945
586.2552, 154.1808
586.7374, 158.5777
587.2195, 162.8372
587.7016, 166.1813
588.1837, 169.2096
588.6658, 172.9572
589.1479, 177.7339
589.6301, 183.1416
590.1122, 188.7061
590.5943, 194.3784
591.0764, 200.6762
591.5585, 207.4688
592.0406, 215.1395
592.5228, 223.9426
593.0049, 233.5977
593.4870, 243.6302
593.9691, 253.9778
594.4512, 265.1166
594.9333, 277.6682
595.4155, 291.4881
595.8976, 305.6497
596.3797, 319.8620
596.8618, 335.4097
597.3439, 353.1406
597.8260, 372.7206
598.3082, 392.8331
598.7903, 413.3354
599.2724, 434.6979
599.7545, 457.1892
600.2366, 480.5592
600.7188, 504.3920
601.2009, 528.7316
601.6830, 553.7148
602.1651, 579.5318
602.6472, 606.1690
603.1293, 633.4789
603.6115, 660.5778
604.0936, 690.1536
604.5757, 722.8821
605.0578, 757.2575
605.5399, 792.1236
606.0220, 827.7006
606.5042, 865.4825
606.9863, 906.3909
607.4684, 949.4090
607.9505, 993.1311
608.4326, 1037.656
608.9147, 1083.723
609.3969, 1132.187
609.8790, 1181.124
