##NAMES=Pyrophyllite
##RRUFFID=R050051
##IDEAL CHEMISTRY=Al_2_Si_4_O_10_(OH)_2_
##LOCALITY=Cottonstone Mountain, Mecklenburg County, North Carolina, USA
##OWNER=RRUFF
##SOURCE=University of Arizona Mineral Museum
##DESCRIPTION=Radiating lamellar aggregates
##STATUS=The identification of this mineral has been confirmed by X-ray diffraction and chemical analysis
##URL=rruff.info/R050051
##MEASURED CHEMISTRY=(Al_.991_Fe_.008_Mg_.001_)_2_Si_4_O_10_(OH)_2_
168.9465, 41871.25
169.4286, 42127.88
169.9107, 42314.89
170.3929, 42450.60
170.8750, 42578.39
171.3571, 42735.35
171.8392, 42887.55
172.3213, 42990.81
172.8034, 43027.63
173.2856, 43051.56
173.7677, 43118.08
174.2498, 43215.45
174.7319, 43302.14
175.2140, 43341.65
175.6961, 43357.44
176.1783, 43387.23
176.6604, 43444.04
177.1425, 43505.04
177.6246, 43532.93
178.1067, 43533.46
178.5888, 43545.91
179.0710, 43611.61
179.5531, 43709.77
180.0352, 43791.77
180.5173, 43835.64
180.9994, 43867.77
181.4815, 43923.46
181.9637, 44003.29
182.4458, 44110.00
182.9279, 44273.60
183.4100, 44474.18
183.8921, 44635.83
184.3742, 44708.66
184.8564, 44741.36
185.3385, 44848.89
185.8206, 45035.73
186.3027, 45254.03
186.7848, 45461.10
187.2669, 45658.67
187.7491, 45866.96
188.2312, 46100.97
188.7133, 46350.52
189.1954, 46581.78
189.6775, 46791.37
190.1596, 46991.30
190.6418, 47183.07
191.1239, 47367.26
191.6060, 47592.84
192.0881, 47907.52
192.5702, 48296.75
193.0524, 48653.07
193.5345, 48994.29
194.0166, 49255.29
194.4987, 49319.43
194.9808, 49180.36
195.4629, 48938.73
195.9451, 48595.59
196.4272, 48150.05
196.9093, 47803.27
197.3914, 47578.84
197.8735, 47425.96
198.3556, 47242.98
198.8378, 47020.91
199.3199, 46829.00
199.8020, 46708.41
200.2841, 46662.98
200.7662, 46649.34
201.2483, 46670.70
201.7305, 46717.39
202.2126, 46764.54
202.6947, 46809.06
203.1768, 46865.54
203.6589, 46954.25
204.1410, 47083.79
204.6232, 47175.34
205.1053, 47210.06
205.5874, 47207.47
206.0695, 47229.14
206.5516, 47274.59
207.0337, 47345.60
207.5159, 47454.04
207.9980, 47610.03
208.4801, 47744.40
208.9622, 47842.52
209.4443, 47912.60
209.9264, 47992.80
210.4086, 48081.46
210.8907, 48184.12
211.3728, 48312.70
211.8549, 48485.62
212.3370, 48624.58
212.8191, 48715.36
213.3013, 48761.28
213.7834, 48794.41
214.2655, 48810.46
214.7476, 48820.72
215.2297, 48840.60
215.7118, 48886.47
216.1940, 48894.00
216.6761, 48835.86
217.1582, 48716.59
217.6403, 48644.28
218.1224, 48628.55
218.6045, 48647.82
219.0867, 48687.09
219.5688, 48758.14
220.0509, 48821.38
220.5330, 48870.87
221.0151, 48907.52
221.4972, 48914.40
221.9794, 48870.14
222.4615, 48820.01
222.9436, 48813.21
223.4257, 48864.59
223.9078, 48930.74
224.3899, 49008.64
224.8721, 49102.38
225.3542, 49165.85
225.8363, 49186.05
226.3184, 49188.86
226.8005, 49201.16
227.2827, 49211.44
227.7648, 49254.79
228.2469, 49353.03
228.7290, 49518.32
229.2111, 49639.40
229.6932, 49697.35
230.1754, 49725.02
230.6575, 49766.48
231.1396, 49832.42
231.6217, 49892.50
232.1038, 49935.82
232.5859, 49957.47
233.0681, 49988.76
233.5502, 50030.42
234.0323, 50080.96
234.5144, 50139.04
234.9965, 50204.32
235.4786, 50277.53
235.9608, 50363.35
236.4429, 50467.40
236.9250, 50552.96
237.4071, 50615.27
237.8892, 50661.34
238.3713, 50701.43
238.8535, 50733.48
239.3356, 50762.79
239.8177, 50788.42
240.2998, 50805.50
240.7819, 50837.43
241.2640, 50883.10
241.7462, 50944.74
242.2283, 51029.20
242.7104, 51151.66
243.1925, 51271.87
243.6746, 51373.91
244.1567, 51448.27
244.6389, 51537.37
245.1210, 51637.69
245.6031, 51754.34
246.0852, 51901.35
246.5673, 52105.64
247.0494, 52294.00
247.5316, 52431.80
248.0137, 52490.67
248.4958, 52598.48
248.9779, 52775.92
249.4600, 52990.31
249.9421, 53173.56
250.4243, 53303.02
250.9064, 53443.86
251.3885, 53616.99
251.8706, 53822.06
252.3527, 54065.84
252.8348, 54354.39
253.3170, 54676.92
253.7991, 55011.86
254.2812, 55350.93
254.7633, 55711.45
255.2454, 56105.23
255.7275, 56538.95
256.2097, 56962.30
256.6918, 57344.11
257.1739, 57732.03
257.6560, 58215.71
258.1381, 58798.37
258.6202, 59474.74
259.1024, 60278.15
259.5845, 61250.84
260.0666, 62188.44
260.5487, 63257.05
261.0308, 64160.69
261.5129, 64369.31
261.9951, 63760.24
262.4772, 62739.02
262.9593, 61356.75
263.4414, 59454.14
263.9235, 57892.44
264.4056, 56680.40
264.8878, 55785.41
265.3699, 55151.23
265.8520, 54826.38
266.3341, 54608.97
266.8162, 54427.42
267.2983, 54282.73
267.7805, 54178.89
268.2626, 54121.16
268.7447, 54099.73
269.2268, 54107.66
269.7089, 54157.22
270.1910, 54191.89
270.6732, 54182.31
271.1553, 54121.81
271.6374, 54077.71
272.1195, 54042.28
272.6016, 54034.63
273.0837, 54107.23
273.5659, 54282.78
274.0480, 54423.56
274.5301, 54455.64
275.0122, 54373.04
275.4943, 54358.95
275.9764, 54432.26
276.4586, 54538.55
276.9407, 54592.52
277.4228, 54587.11
277.9049, 54585.86
278.3870, 54620.37
278.8691, 54688.08
279.3513, 54725.30
279.8334, 54723.93
280.3155, 54712.84
280.7976, 54725.10
281.2798, 54760.43
281.7619, 54824.46
282.2440, 54944.91
282.7261, 55106.78
283.2082, 55176.92
283.6903, 55134.97
284.1725, 55076.23
284.6546, 55148.55
285.1367, 55344.58
285.6188, 55482.81
286.1009, 55456.33
286.5830, 55315.87
287.0652, 55291.25
287.5473, 55395.15
288.0294, 55540.27
288.5115, 55638.44
288.9936, 55693.54
289.4757, 55735.12
289.9579, 55778.25
290.4400, 55814.05
290.9221, 55805.02
291.4042, 55746.98
291.8863, 55696.44
292.3684, 55716.54
292.8506, 55795.36
293.3327, 55883.50
293.8148, 55984.25
294.2969, 56074.48
294.7790, 56090.09
295.2611, 56030.95
295.7433, 55981.22
296.2254, 56030.66
296.7075, 56149.86
297.1896, 56253.94
297.6717, 56316.70
298.1538, 56355.82
298.6360, 56392.65
299.1181, 56427.75
299.6002, 56463.43
300.0823, 56501.05
300.5644, 56540.94
301.0465, 56584.00
301.5287, 56630.48
302.0108, 56680.14
302.4929, 56738.90
302.9750, 56803.91
303.4571, 56855.66
303.9392, 56868.97
304.4214, 56865.13
304.9035, 56873.98
305.3856, 56907.34
305.8677, 56947.27
306.3498, 56971.16
306.8319, 56985.91
307.3141, 57016.67
307.7962, 57088.57
308.2783, 57178.36
308.7604, 57263.82
309.2425, 57335.48
309.7246, 57409.55
310.2068, 57517.30
310.6889, 57638.42
311.1710, 57721.73
311.6531, 57703.43
312.1352, 57661.86
312.6173, 57656.45
313.0995, 57706.43
313.5816, 57764.51
314.0637, 57809.57
314.5458, 57847.55
315.0279, 57890.00
315.5100, 57947.40
315.9922, 58005.86
316.4743, 58059.36
316.9564, 58108.11
317.4385, 58148.01
317.9206, 58167.34
318.4027, 58179.33
318.8849, 58202.47
319.3670, 58245.44
319.8491, 58297.14
320.3312, 58361.61
320.8133, 58445.63
321.2954, 58502.85
321.7776, 58492.68
322.2597, 58463.90
322.7418, 58468.49
323.2239, 58546.04
323.7060, 58625.57
324.1881, 58696.00
324.6703, 58757.66
325.1524, 58799.46
325.6345, 58779.82
326.1166, 58761.16
326.5987, 58794.31
327.0808, 58963.54
327.5630, 59084.82
328.0451, 59102.50
328.5272, 59024.66
329.0093, 59031.67
329.4914, 59198.03
329.9735, 59381.24
330.4557, 59484.98
330.9378, 59448.66
331.4199, 59438.92
331.9020, 59477.70
332.3841, 59554.50
332.8662, 59619.23
333.3484, 59670.38
333.8305, 59710.76
334.3126, 59737.46
334.7947, 59738.15
335.2768, 59761.53
335.7589, 59808.79
336.2411, 59880.68
336.7232, 59994.14
337.2053, 60172.23
337.6874, 60321.92
338.1695, 60385.35
338.6516, 60348.16
339.1338, 60348.91
339.6159, 60399.50
340.0980, 60473.28
340.5801, 60524.40
341.0622, 60551.39
341.5443, 60574.41
342.0265, 60591.48
342.5086, 60606.72
342.9907, 60672.82
343.4728, 60800.49
343.9549, 60934.89
344.4370, 60993.07
344.9192, 60983.84
345.4013, 60994.80
345.8834, 61065.81
346.3655, 61176.21
346.8476, 61267.87
347.3297, 61339.75
347.8119, 61412.85
348.2940, 61523.05
348.7761, 61652.11
349.2582, 61739.29
349.7403, 61743.97
350.2225, 61725.31
350.7046, 61768.91
351.1867, 61869.86
351.6688, 61987.30
352.1509, 62117.66
352.6331, 62239.33
353.1152, 62313.21
353.5973, 62309.19
354.0794, 62295.93
354.5615, 62346.45
355.0436, 62440.71
355.5258, 62517.73
356.0079, 62514.96
356.4900, 62496.39
356.9721, 62520.60
357.4542, 62605.62
357.9363, 62702.84
358.4185, 62809.10
358.9006, 62906.63
359.3827, 62964.65
359.8648, 62915.31
360.3469, 62867.63
360.8290, 62894.49
361.3112, 63016.86
361.7933, 63104.31
362.2754, 63083.41
362.7575, 63018.89
363.2396, 62980.95
363.7217, 62982.20
364.2039, 63015.24
364.6860, 63097.55
365.1681, 63229.75
365.6502, 63328.17
366.1323, 63380.09
366.6144, 63398.22
367.0966, 63390.50
367.5787, 63297.02
368.0608, 63252.69
368.5429, 63295.41
369.0250, 63403.50
369.5071, 63464.61
369.9893, 63458.05
370.4714, 63428.68
370.9535, 63394.50
371.4356, 63346.02
371.9177, 63313.55
372.3998, 63291.45
372.8820, 63288.76
373.3641, 63337.00
373.8462, 63465.33
374.3283, 63568.13
374.8104, 63587.69
375.2925, 63512.96
375.7747, 63494.79
376.2568, 63550.16
376.7389, 63628.09
377.2210, 63644.41
377.7031, 63592.00
378.1852, 63584.84
378.6674, 63685.45
379.1495, 63857.74
379.6316, 63938.38
380.1137, 63918.48
380.5958, 63881.20
381.0779, 63907.47
381.5601, 63985.39
382.0422, 64056.36
382.5243, 64114.64
383.0064, 64151.95
383.4885, 64141.33
383.9706, 64089.05
384.4528, 64041.95
384.9349, 64023.92
385.4170, 64033.66
385.8991, 64076.98
386.3812, 64167.02
386.8633, 64251.81
387.3455, 64257.20
387.8276, 64218.94
388.3097, 64219.25
388.7918, 64351.04
389.2739, 64505.15
389.7560, 64591.26
390.2382, 64598.47
390.7203, 64585.48
391.2024, 64553.88
391.6845, 64529.59
392.1666, 64542.36
392.6487, 64646.61
393.1309, 64748.31
393.6130, 64809.55
394.0951, 64832.44
394.5772, 64845.60
395.0593, 64834.93
395.5414, 64830.38
396.0236, 64850.91
396.5057, 64928.48
396.9878, 64996.55
397.4699, 65064.02
397.9520, 65119.29
398.4341, 65123.69
398.9163, 64993.89
399.3984, 64900.05
399.8805, 64916.28
400.3626, 65100.83
400.8447, 65219.69
401.3268, 65242.25
401.8090, 65221.59
402.2911, 65233.43
402.7732, 65289.03
403.2553, 65347.80
403.7374, 65401.72
404.2195, 65450.50
404.7017, 65487.28
405.1838, 65509.63
405.6659, 65526.79
406.1480, 65542.45
406.6301, 65556.35
407.1122, 65587.85
407.5944, 65646.48
408.0765, 65718.64
408.5586, 65766.92
409.0407, 65792.05
409.5228, 65821.65
410.0049, 65875.62
410.4871, 65947.81
410.9692, 66030.55
411.4513, 66130.78
411.9334, 66210.83
412.4155, 66186.71
412.8976, 66101.69
413.3798, 66080.18
413.8619, 66261.05
414.3440, 66485.73
414.8261, 66579.93
415.3082, 66540.28
415.7903, 66478.84
416.2725, 66443.08
416.7546, 66435.79
417.2367, 66460.84
417.7188, 66546.01
418.2009, 66634.19
418.6830, 66710.03
419.1652, 66770.33
419.6473, 66800.23
420.1294, 66743.05
420.6115, 66692.74
421.0937, 66704.95
421.5758, 66820.41
422.0579, 66926.10
422.5400, 67013.07
423.0221, 67080.70
423.5042, 67128.94
423.9864, 67117.63
424.4685, 67132.31
424.9506, 67211.53
425.4327, 67364.35
425.9148, 67442.63
426.3969, 67387.77
426.8791, 67325.10
427.3612, 67380.75
427.8433, 67614.84
428.3254, 67770.41
428.8075, 67779.29
429.2896, 67697.66
429.7718, 67726.69
430.2539, 67884.49
430.7360, 68055.29
431.2181, 68179.79
431.7002, 68258.54
432.1823, 68288.50
432.6645, 68257.92
433.1466, 68217.23
433.6287, 68250.31
434.1108, 68341.05
434.5929, 68408.99
435.0750, 68409.21
435.5572, 68370.39
436.0393, 68328.05
436.5214, 68283.67
437.0035, 68268.16
437.4856, 68332.33
437.9677, 68432.72
438.4499, 68505.27
438.9320, 68514.42
439.4141, 68524.95
439.8962, 68594.27
440.3783, 68701.73
440.8604, 68796.18
441.3426, 68837.56
441.8247, 68871.52
442.3068, 68933.16
442.7889, 69039.69
443.2710, 69108.66
443.7531, 69098.35
444.2353, 69046.87
444.7174, 68996.12
445.1995, 68924.64
445.6816, 68884.77
446.1637, 68885.72
446.6458, 68926.13
447.1280, 69000.96
447.6101, 69154.84
448.0922, 69294.22
448.5743, 69361.62
449.0564, 69324.95
449.5385, 69303.27
450.0207, 69303.95
450.5028, 69317.05
450.9849, 69308.41
451.4670, 69261.17
451.9491, 69281.64
452.4312, 69458.98
452.9134, 69757.80
453.3955, 69882.31
453.8776, 69813.13
454.3597, 69706.73
454.8418, 69731.55
455.3239, 69854.44
455.8061, 69931.40
456.2882, 69911.55
456.7703, 69861.60
457.2524, 69873.44
457.7345, 69937.81
458.2166, 70018.06
458.6988, 70091.66
459.1809, 70169.68
459.6630, 70269.17
460.1451, 70397.00
460.6272, 70515.30
461.1093, 70601.88
461.5915, 70664.16
462.0736, 70709.40
462.5557, 70710.05
463.0378, 70723.55
463.5199, 70780.96
464.0020, 70875.61
464.4842, 70958.13
464.9663, 71015.55
465.4484, 71059.47
465.9305, 71095.29
466.4126, 71116.48
466.8947, 71142.58
467.3769, 71177.11
467.8590, 71214.88
468.3411, 71248.53
468.8232, 71279.34
469.3053, 71303.54
469.7874, 71323.58
470.2696, 71338.43
470.7517, 71321.88
471.2338, 71262.97
471.7159, 71206.41
472.1980, 71186.48
472.6801, 71203.20
473.1623, 71258.53
473.6444, 71365.27
474.1265, 71486.52
474.6086, 71561.45
475.0907, 71593.61
475.5728, 71605.98
476.0550, 71593.34
476.5371, 71574.67
477.0192, 71589.38
477.5013, 71639.35
477.9834, 71681.07
478.4655, 71661.40
478.9477, 71619.40
479.4298, 71606.91
479.9119, 71653.16
480.3940, 71714.71
480.8761, 71780.13
481.3582, 71844.43
481.8404, 71892.38
482.3225, 71918.24
482.8046, 71927.20
483.2867, 71908.04
483.7688, 71832.80
484.2509, 71823.87
484.7331, 71968.48
485.2152, 72144.20
485.6973, 72236.22
486.1794, 72184.95
486.6615, 72151.56
487.1436, 72160.52
487.6258, 72204.47
488.1079, 72250.81
488.5900, 72300.99
489.0721, 72348.77
489.5542, 72395.34
490.0363, 72441.13
490.5185, 72459.68
491.0006, 72446.01
491.4827, 72418.82
491.9648, 72383.91
492.4470, 72349.34
492.9291, 72365.63
493.4112, 72481.04
493.8933, 72629.38
494.3754, 72695.84
494.8575, 72693.03
495.3397, 72696.27
495.8218, 72775.50
496.3039, 72877.39
496.7860, 72937.53
497.2681, 72935.85
497.7502, 72938.08
498.2324, 72986.86
498.7145, 73058.54
499.1966, 73121.95
499.6787, 73163.91
500.1608, 73199.63
500.6429, 73239.88
501.1251, 73282.91
501.6072, 73299.23
502.0893, 73236.72
502.5714, 73191.64
503.0535, 73211.53
503.5356, 73323.21
504.0178, 73440.24
504.4999, 73581.55
504.9820, 73709.62
505.4641, 73757.08
505.9462, 73706.10
506.4283, 73666.39
506.9105, 73668.94
507.3926, 73706.95
507.8747, 73761.91
508.3568, 73835.38
508.8389, 73900.01
509.3210, 73922.34
509.8032, 73921.05
510.2853, 73952.08
510.7674, 74027.80
511.2495, 74112.93
511.7316, 74173.61
512.2137, 74217.04
512.6959, 74257.04
513.1780, 74318.34
513.6601, 74362.94
514.1422, 74354.42
514.6243, 74300.34
515.1064, 74253.32
515.5886, 74204.45
516.0707, 74189.68
516.5528, 74240.31
517.0349, 74413.91
517.5170, 74541.13
517.9991, 74560.79
518.4813, 74542.28
518.9634, 74576.16
519.4455, 74711.99
519.9276, 74813.69
520.4097, 74842.61
520.8918, 74811.53
521.3740, 74804.63
521.8561, 74821.97
522.3382, 74863.31
522.8203, 74944.99
523.3024, 75062.12
523.7845, 75134.27
524.2667, 75149.19
524.7488, 75150.35
525.2309, 75206.75
525.7130, 75298.41
526.1951, 75350.68
526.6772, 75292.06
527.1594, 75225.91
527.6415, 75312.91
528.1236, 75514.02
528.6057, 75659.25
529.0878, 75603.05
529.5699, 75484.28
530.0521, 75398.77
530.5342, 75356.91
531.0163, 75354.37
531.4984, 75406.19
531.9805, 75489.38
532.4626, 75579.66
532.9448, 75705.27
533.4269, 75799.27
533.9090, 75841.39
534.3911, 75845.05
534.8732, 75859.88
535.3553, 75886.72
535.8375, 75924.00
536.3196, 75976.27
536.8017, 76045.87
537.2838, 76097.57
537.7659, 76134.65
538.2480, 76144.40
538.7302, 76071.68
539.2123, 75938.91
539.6944, 75919.41
540.1765, 76088.98
540.6586, 76317.45
541.1407, 76433.29
541.6229, 76455.27
542.1050, 76453.64
542.5871, 76432.32
543.0692, 76426.37
543.5513, 76484.40
544.0334, 76607.55
544.5156, 76710.77
544.9977, 76726.96
545.4798, 76722.52
545.9619, 76752.44
546.4440, 76885.02
546.9261, 76966.05
547.4083, 76904.12
547.8904, 76791.76
548.3725, 76804.73
548.8546, 77057.45
549.3367, 77245.11
549.8188, 77270.26
550.3010, 77150.73
550.7831, 77097.41
551.2652, 77121.76
551.7473, 77174.38
552.2294, 77229.02
552.7115, 77284.45
553.1937, 77319.95
553.6758, 77328.37
554.1579, 77339.86
554.6400, 77396.34
555.1221, 77487.01
555.6042, 77581.45
556.0864, 77689.71
556.5685, 77777.22
557.0506, 77767.47
557.5327, 77696.11
558.0148, 77696.69
558.4969, 77955.80
558.9791, 78215.77
559.4612, 78307.12
559.9433, 78183.78
560.4254, 78041.52
560.9075, 77829.96
561.3896, 77664.51
561.8718, 77647.18
562.3539, 77899.27
562.8360, 78093.16
563.3181, 78189.01
563.8002, 78218.28
564.2823, 78254.48
564.7645, 78298.55
565.2466, 78344.80
565.7287, 78397.82
566.2108, 78451.48
566.6929, 78469.63
567.1750, 78451.06
567.6572, 78420.88
568.1393, 78374.58
568.6214, 78336.24
569.1035, 78365.33
569.5856, 78483.98
570.0677, 78618.05
570.5499, 78717.41
571.0320, 78790.31
571.5141, 78850.75
571.9962, 78905.86
572.4783, 78947.48
572.9604, 78959.51
573.4426, 78950.06
573.9247, 78960.98
574.4068, 79002.57
574.8889, 79063.19
575.3710, 79143.85
575.8531, 79251.00
576.3353, 79341.92
576.8174, 79422.79
577.2995, 79476.99
577.7816, 79470.80
578.2637, 79394.05
578.7458, 79373.06
579.2280, 79439.30
579.7101, 79544.85
580.1922, 79606.30
580.6743, 79629.87
581.1564, 79650.66
581.6385, 79692.58
582.1207, 79736.90
582.6028, 79742.73
583.0849, 79717.98
583.5670, 79724.20
584.0491, 79827.01
584.5313, 79956.66
585.0134, 80059.25
585.4955, 80120.09
585.9776, 80174.40
586.4597, 80228.77
586.9418, 80281.67
587.4240, 80331.05
587.9061, 80379.80
588.3882, 80420.04
588.8703, 80442.84
589.3524, 80458.79
589.8345, 80508.57
590.3167, 80608.19
590.7988, 80679.65
591.2809, 80678.95
591.7630, 80620.30
592.2451, 80562.61
592.7272, 80504.45
593.2094, 80481.66
593.6915, 80536.84
594.1736, 80646.02
594.6557, 80780.05
595.1378, 80947.63
595.6199, 81071.06
596.1021, 81043.96
596.5842, 80947.76
597.0663, 80898.40
597.5485, 80960.62
598.0306, 81049.02
598.5127, 81156.62
598.9948, 81273.48
599.4769, 81359.02
599.9590, 81382.06
600.4412, 81410.48
600.9233, 81471.95
601.4054, 81570.79
601.8875, 81635.25
602.3696, 81653.80
602.8517, 81665.13
603.3339, 81706.56
603.8160, 81775.06
604.2981, 81824.04
604.7802, 81845.02
605.2623, 81855.73
605.7444, 81870.17
606.2266, 81891.98
606.7087, 81930.53
607.1908, 82001.76
607.6729, 82078.63
608.1550, 82149.88
608.6371, 82211.00
609.1193, 82249.84
609.6014, 82239.34
610.0835, 82223.91
610.5656, 82221.35
611.0477, 82232.39
611.5298, 82261.27
612.0120, 82320.06
612.4941, 82384.09
612.9762, 82438.23
613.4583, 82483.16
613.9404, 82512.88
614.4225, 82521.32
614.9047, 82524.34
615.3868, 82540.55
615.8689, 82570.48
616.3510, 82620.49
616.8331, 82699.41
617.3152, 82789.91
617.7974, 82878.23
618.2795, 82958.34
618.7616, 83011.86
619.2437, 82999.05
619.7258, 82977.56
620.2079, 82990.69
620.6901, 83040.72
621.1722, 83100.93
621.6543, 83188.63
622.1364, 83265.03
622.6185, 83303.84
623.1006, 83298.05
623.5828, 83261.81
624.0649, 83144.22
624.5470, 83042.88
625.0291, 83099.29
625.5112, 83352.86
625.9933, 83550.89
626.4755, 83637.27
626.9576, 83655.77
627.4397, 83695.52
627.9218, 83751.43
628.4039, 83784.50
628.8860, 83757.04
629.3682, 83705.27
629.8503, 83668.78
630.3324, 83649.06
630.8145, 83657.03
631.2966, 83699.87
631.7787, 83772.00
632.2609, 83887.77
632.7430, 84078.12
633.2251, 84195.59
633.7072, 84137.47
634.1893, 84038.99
634.6714, 84016.12
635.1536, 84122.84
635.6357, 84181.90
636.1178, 84160.61
636.5999, 84106.41
637.0820, 84114.03
637.5641, 84186.52
638.0463, 84243.95
638.5284, 84253.67
639.0105, 84238.72
639.4926, 84226.12
639.9747, 84222.87
640.4568, 84268.35
640.9390, 84459.30
641.4211, 84662.99
641.9032, 84739.28
642.3853, 84678.40
642.8674, 84624.30
643.3495, 84655.16
643.8317, 84698.91
644.3138, 84703.05
644.7959, 84623.81
645.2780, 84574.80
645.7601, 84535.83
646.2422, 84544.52
646.7244, 84680.91
647.2065, 84991.23
647.6886, 85172.43
648.1707, 85137.50
648.6528, 84993.09
649.1349, 84941.94
649.6171, 84975.68
650.0992, 85032.25
650.5813, 85102.58
651.0634, 85167.55
651.5455, 85190.02
652.0276, 85179.87
652.5098, 85189.42
652.9919, 85287.66
653.4740, 85382.50
653.9561, 85403.64
654.4382, 85326.53
654.9203, 85285.66
655.4025, 85307.55
655.8846, 85362.33
656.3667, 85437.63
656.8488, 85552.74
657.3309, 85629.30
657.8130, 85660.25
658.2952, 85661.09
658.7773, 85634.23
659.2594, 85585.02
659.7415, 85585.89
660.2236, 85675.47
660.7057, 85790.99
661.1879, 85844.91
661.6700, 85850.84
662.1521, 85845.78
662.6342, 85826.92
663.1163, 85820.74
663.5984, 85848.92
664.0806, 85908.15
