##NAMES=Pyrobelonite
##RRUFFID=R080057
##IDEAL CHEMISTRY=Pb^2+^Mn^2+^V^5+^O_4_(OH)
##LOCALITY=Ty Coch Manganese mine, Glamorgan County, Wales, United Kingdom
##OWNER=RRUFF
##SOURCE=Michael Scott
##DESCRIPTION=Fiery-red grains on light-pink calcite vein
##STATUS=The identification of this mineral has been confirmed by single-crystal X-ray diffraction.
##URL=rruff.info/R080057
92.35352, 821.0276
92.83563, 810.1316
93.31775, 807.0696
93.79987, 822.3506
94.28198, 837.3190
94.76410, 848.0529
95.24622, 855.9576
95.72833, 863.1118
96.21045, 870.7399
96.69257, 878.6277
97.17468, 887.4568
97.65680, 897.4749
98.13892, 909.0580
98.62103, 922.6171
99.10315, 937.1683
99.58527, 951.9653
100.0674, 968.6526
100.5495, 990.4531
101.0316, 1010.993
101.5137, 1033.309
101.9958, 1053.350
102.4780, 1066.185
102.9601, 1068.955
103.4422, 1062.284
103.9243, 1036.003
104.4064, 986.0909
104.8885, 926.5771
105.3707, 859.2179
105.8528, 785.8277
106.3349, 713.0173
106.8170, 646.3363
107.2991, 586.2065
107.7813, 534.7828
108.2634, 493.9066
108.7455, 461.0551
109.2276, 433.6661
109.7097, 411.8461
110.1918, 393.7960
110.6740, 377.8814
111.1561, 363.7847
111.6382, 350.7590
112.1203, 338.9454
112.6024, 328.1473
113.0845, 316.9706
113.5666, 304.7090
114.0488, 292.3052
114.5309, 280.2743
115.0130, 268.6589
115.4951, 257.5446
115.9772, 246.8549
116.4593, 236.3651
116.9415, 227.0322
117.4236, 218.9685
117.9057, 211.9312
118.3878, 205.8454
118.8699, 200.7048
119.3520, 196.3287
119.8342, 192.3057
120.3163, 188.3567
120.7984, 185.1779
121.2805, 183.0345
121.7626, 181.6247
122.2447, 180.5787
122.7269, 179.6797
123.2090, 178.9571
123.6911, 178.7293
124.1732, 178.9078
124.6553, 179.5073
125.1374, 180.6250
125.6196, 182.2051
126.1017, 184.0318
126.5838, 185.9317
127.0659, 187.9667
127.5480, 190.3151
128.0302, 192.9382
128.5123, 195.8885
128.9944, 199.3068
129.4765, 203.2892
129.9586, 207.3292
130.4407, 210.8787
130.9229, 214.2038
131.4050, 217.8364
131.8871, 221.9618
132.3692, 226.5634
132.8513, 231.5631
133.3334, 237.2176
133.8155, 242.9908
134.2977, 248.5685
134.7798, 254.0152
135.2619, 259.5125
135.7440, 265.2426
136.2261, 271.2701
136.7082, 277.1385
137.1904, 282.6043
137.6725, 288.1244
138.1546, 293.9224
138.6367, 299.9954
139.1188, 306.0867
139.6009, 311.8374
140.0831, 317.0675
140.5652, 322.4281
141.0473, 327.9023
141.5294, 333.4774
142.0115, 338.9525
142.4936, 344.3140
142.9758, 349.9167
143.4579, 356.3796
143.9400, 364.5291
144.4221, 372.1137
144.9042, 378.7784
145.3863, 384.8485
145.8685, 390.7464
146.3506, 396.6304
146.8327, 402.3593
147.3148, 407.6434
147.7969, 412.6695
148.2790, 417.0298
148.7612, 420.5805
149.2433, 423.3364
149.7254, 425.2682
150.2075, 426.1925
150.6896, 426.3212
151.1717, 426.2968
151.6539, 426.2901
152.1360, 425.7303
152.6181, 423.9146
153.1002, 420.7227
153.5823, 417.4636
154.0644, 415.2176
154.5466, 412.8863
155.0287, 409.7071
155.5108, 405.5887
155.9929, 400.1752
156.4750, 392.7382
156.9571, 382.7023
157.4393, 371.7548
157.9214, 360.1006
158.4035, 347.9798
158.8856, 335.5266
159.3677, 322.7349
159.8498, 309.8463
160.3320, 297.7627
160.8141, 286.5266
161.2962, 276.1436
161.7783, 266.5816
162.2604, 257.8221
162.7425, 249.9182
163.2247, 242.8865
163.7068, 236.6802
164.1889, 231.1319
164.6710, 226.3377
165.1531, 222.0423
165.6352, 218.2431
166.1174, 214.8965
166.5995, 212.0338
167.0816, 209.6866
167.5637, 207.8781
168.0458, 206.1969
168.5279, 204.2672
169.0101, 202.7584
169.4922, 202.2522
169.9743, 202.6698
170.4564, 203.2068
170.9385, 203.1263
171.4206, 202.5287
171.9028, 202.5156
172.3849, 203.4222
172.8670, 204.7775
173.3491, 206.1755
173.8312, 207.5938
174.3133, 209.0377
174.7955, 210.4226
175.2776, 211.8297
175.7597, 213.5130
176.2418, 215.8546
176.7239, 218.4667
177.2060, 220.5912
177.6882, 222.1511
178.1703, 223.2916
178.6524, 224.4538
179.1345, 225.3554
179.6166, 225.3143
180.0987, 223.9884
180.5809, 221.4020
181.0630, 217.7046
181.5451, 212.3391
182.0272, 206.3592
182.5093, 200.0350
182.9914, 193.4971
183.4736, 186.9585
183.9557, 180.4722
184.4378, 174.0142
184.9199, 168.3704
185.4020, 164.0889
185.8841, 160.2189
186.3663, 156.5821
186.8484, 153.1399
187.3305, 149.9132
187.8126, 146.8628
188.2947, 143.9194
188.7768, 141.6490
189.2590, 140.6591
189.7411, 139.7269
190.2232, 138.2370
190.7053, 136.2317
191.1874, 134.1747
191.6695, 132.5765
192.1517, 131.6106
192.6338, 130.3954
193.1159, 128.6714
193.5980, 126.9331
194.0801, 125.5353
194.5622, 124.5047
195.0444, 123.5608
195.5265, 122.3938
196.0086, 120.9159
196.4907, 119.5506
196.9728, 118.2101
197.4549, 117.0245
197.9371, 116.1867
198.4192, 115.7336
198.9013, 115.3716
199.3834, 114.7688
199.8655, 113.9206
200.3476, 113.0431
200.8298, 111.9569
201.3119, 110.9295
201.7940, 110.3980
202.2761, 110.5039
202.7582, 110.8143
203.2403, 110.9131
203.7225, 110.8395
204.2046, 110.6939
204.6867, 110.4679
205.1688, 110.1964
205.6509, 109.9358
206.1330, 109.6395
206.6152, 109.4640
207.0973, 109.6586
207.5794, 110.1025
208.0615, 110.3758
208.5436, 110.0700
209.0257, 109.3421
209.5079, 108.9901
209.9900, 109.3627
210.4721, 109.7168
210.9542, 109.5419
211.4363, 108.9852
211.9184, 108.4818
212.4006, 108.4053
212.8827, 108.7303
213.3648, 108.9040
213.8469, 108.7596
214.3290, 108.6246
214.8111, 108.6333
215.2933, 108.7619
215.7754, 108.9307
216.2575, 109.0952
216.7396, 109.2589
217.2217, 109.3354
217.7038, 109.1621
218.1859, 109.0455
218.6681, 109.1527
219.1502, 109.4120
219.6323, 109.6102
220.1144, 109.5265
220.5965, 109.1111
221.0786, 108.9753
221.5608, 109.2505
222.0429, 109.6628
222.5250, 110.2472
223.0071, 110.9103
223.4892, 111.4398
223.9713, 111.6309
224.4535, 111.4311
224.9356, 111.3986
225.4177, 111.5615
225.8998, 111.8268
226.3819, 112.1973
226.8640, 112.6449
227.3462, 113.1041
227.8283, 113.5175
228.3104, 113.8800
228.7925, 114.2741
229.2746, 114.6099
229.7567, 115.0475
230.2389, 115.7291
230.7210, 116.6120
231.2031, 117.5017
231.6852, 118.2617
232.1673, 118.8776
232.6494, 119.3640
233.1316, 119.4434
233.6137, 119.6363
234.0958, 120.3228
234.5779, 121.4536
235.0600, 122.6569
235.5421, 123.7100
236.0243, 124.5943
236.5064, 125.3631
236.9885, 125.8979
237.4706, 126.4109
237.9527, 127.0532
238.4348, 127.8186
238.9170, 128.5937
239.3991, 129.2951
239.8812, 129.9595
240.3633, 130.7036
240.8454, 131.6693
241.3275, 132.6012
241.8097, 133.1915
242.2918, 133.4588
242.7739, 133.9038
243.2560, 134.9504
243.7381, 136.3077
244.2202, 137.3831
244.7024, 137.9833
245.1845, 138.4818
245.6666, 139.2608
246.1487, 140.3260
246.6308, 141.2990
247.1129, 141.8340
247.5951, 142.2738
248.0772, 143.0747
248.5593, 144.4015
249.0414, 145.8332
249.5235, 146.9136
250.0056, 147.6138
250.4878, 148.3681
250.9699, 149.4203
251.4520, 150.5370
251.9341, 151.4712
252.4162, 152.1657
252.8983, 152.8382
253.3805, 153.7752
253.8626, 155.0244
254.3447, 156.1149
254.8268, 156.7093
255.3089, 157.2353
255.7910, 158.0708
256.2732, 159.2558
256.7553, 160.3435
257.2374, 160.6832
257.7195, 160.1048
258.2016, 159.9771
258.6837, 160.9803
259.1659, 162.1808
259.6480, 163.1599
260.1301, 163.8617
260.6122, 164.4237
261.0943, 164.9674
261.5764, 165.4880
262.0586, 166.0082
262.5407, 166.4559
263.0228, 166.9707
263.5049, 167.5794
263.9870, 168.3061
264.4691, 169.1924
264.9513, 170.3060
265.4334, 171.6805
265.9155, 173.0798
266.3976, 174.4712
266.8797, 175.9228
267.3618, 177.4654
267.8440, 179.0901
268.3261, 180.7611
268.8082, 182.4345
269.2903, 184.1068
269.7724, 185.8756
270.2545, 187.6775
270.7367, 189.6494
271.2188, 191.8953
271.7009, 194.3525
272.1830, 196.8722
272.6651, 199.3486
273.1472, 201.7881
273.6294, 204.4086
274.1115, 207.1852
274.5936, 210.1930
275.0757, 213.3496
275.5578, 216.7576
276.0399, 220.5856
276.5221, 224.9510
277.0042, 229.8033
277.4863, 234.7648
277.9684, 239.5276
278.4505, 244.8009
278.9326, 250.6695
279.4148, 257.1395
279.8969, 264.2976
280.3790, 272.2342
280.8611, 280.7492
281.3432, 289.2191
281.8253, 297.1743
282.3075, 305.7543
282.7896, 315.4388
283.2717, 325.5948
283.7538, 335.5595
284.2359, 345.0603
284.7180, 354.3195
285.2002, 363.7089
285.6823, 373.3698
286.1644, 382.9726
286.6465, 392.4450
287.1286, 401.8974
287.6107, 411.3034
288.0929, 420.7151
288.5750, 430.3698
289.0571, 440.7517
289.5392, 452.2094
290.0213, 463.5535
290.5034, 474.2149
290.9856, 485.0891
291.4677, 496.7341
291.9498, 509.1941
292.4319, 522.3644
292.9140, 535.9896
293.3961, 550.1078
293.8783, 564.6387
294.3604, 579.3657
294.8425, 594.6124
295.3246, 610.4459
295.8067, 626.8637
296.2888, 643.8403
296.7710, 661.4674
297.2531, 679.6786
297.7352, 697.6036
298.2173, 715.1238
298.6994, 732.4622
299.1815, 750.3273
299.6637, 768.1302
300.1458, 784.6373
300.6279, 799.1709
301.1100, 811.6813
301.5921, 822.2854
302.0742, 832.2480
302.5564, 839.3063
303.0385, 842.2790
303.5206, 841.9551
304.0027, 839.6599
304.4848, 835.9867
304.9669, 830.9562
305.4491, 824.4432
305.9312, 814.7458
306.4133, 805.9417
306.8954, 798.1812
307.3775, 791.7446
307.8596, 787.0040
308.3418, 784.0924
308.8239, 782.8292
309.3060, 782.9055
309.7881, 783.9812
310.2702, 787.4954
310.7523, 793.7941
311.2345, 802.4022
311.7166, 812.9579
312.1987, 825.3219
312.6808, 839.5272
313.1629, 855.7989
313.6451, 874.5954
314.1272, 893.5305
314.6093, 912.2922
315.0914, 931.2348
315.5735, 950.8536
316.0556, 971.0326
316.5378, 991.2217
317.0199, 1011.341
317.5020, 1031.281
317.9841, 1049.732
318.4662, 1066.304
318.9483, 1081.997
319.4305, 1097.689
319.9126, 1112.960
320.3947, 1126.603
320.8768, 1137.755
321.3589, 1146.864
321.8410, 1156.187
322.3232, 1164.904
322.8053, 1174.826
323.2874, 1186.847
323.7695, 1200.224
324.2516, 1213.723
324.7337, 1226.725
325.2159, 1239.828
325.6980, 1254.255
326.1801, 1270.810
326.6622, 1287.220
327.1443, 1303.599
327.6264, 1319.673
328.1086, 1335.271
328.5907, 1350.292
329.0728, 1364.694
329.5549, 1378.558
330.0370, 1392.365
330.5191, 1403.502
331.0013, 1412.573
331.4834, 1418.637
331.9655, 1421.320
332.4476, 1420.463
332.9297, 1415.857
333.4118, 1407.417
333.8940, 1395.102
334.3761, 1377.041
334.8582, 1353.362
335.3403, 1325.192
335.8224, 1291.708
336.3045, 1254.050
336.7867, 1213.893
337.2688, 1172.370
337.7509, 1129.448
338.2330, 1085.252
338.7151, 1037.986
339.1972, 991.6165
339.6793, 945.8828
340.1614, 901.4865
340.6436, 859.1324
341.1257, 818.7088
341.6078, 780.6462
342.0899, 745.4808
342.5720, 714.1866
343.0541, 684.6924
343.5363, 656.6240
344.0184, 630.3811
344.5005, 606.3770
344.9826, 584.5942
345.4647, 564.5399
345.9468, 545.7018
346.4290, 527.9421
346.9111, 511.8945
347.3932, 498.0024
347.8753, 485.0902
348.3574, 472.7275
348.8395, 460.8932
349.3217, 449.6656
349.8038, 439.1391
350.2859, 429.2915
350.7680, 420.3944
351.2501, 412.9729
351.7322, 405.8809
352.2144, 399.1119
352.6965, 392.5209
353.1786, 385.9416
353.6607, 379.2934
354.1428, 372.7509
354.6249, 366.6720
355.1071, 361.1933
355.5892, 356.0729
356.0713, 351.7335
356.5534, 347.4503
357.0355, 342.6122
357.5176, 337.1383
357.9998, 331.4226
358.4819, 325.9021
358.9640, 320.5387
359.4461, 315.5360
359.9282, 310.6269
360.4103, 306.2427
360.8925, 302.6945
361.3746, 299.8511
361.8567, 297.3850
362.3388, 295.0181
362.8209, 292.7974
363.3030, 291.1530
363.7852, 290.0564
364.2673, 289.6826
364.7494, 290.2339
365.2315, 291.4215
365.7136, 292.8876
366.1957, 294.4703
366.6779, 296.3098
367.1600, 298.6786
367.6421, 301.6207
368.1242, 305.0011
368.6063, 309.0333
369.0884, 313.2912
369.5706, 317.5743
370.0527, 321.8202
370.5348, 325.8997
371.0169, 329.7860
371.4990, 333.4785
371.9811, 336.6264
372.4633, 338.8773
372.9454, 340.9014
373.4275, 343.3832
373.9096, 345.9161
374.3917, 347.6061
374.8738, 347.9887
375.3560, 347.1032
375.8381, 345.0333
376.3202, 341.6947
376.8023, 337.2949
377.2844, 332.0196
377.7665, 325.7737
378.2487, 318.2018
378.7308, 309.0127
379.2129, 299.1724
379.6950, 289.6972
380.1771, 280.5941
380.6592, 271.6567
381.1414, 262.4950
381.6235, 253.7977
382.1056, 246.0219
382.5877, 239.1662
383.0698, 233.1220
383.5519, 227.9087
384.0341, 223.4118
384.5162, 219.2773
384.9983, 215.4327
385.4804, 212.0252
385.9625, 209.2396
386.4446, 206.9592
386.9268, 205.1313
387.4089, 204.0121
387.8910, 203.1204
388.3731, 201.9415
388.8552, 200.4879
389.3373, 199.0119
389.8195, 197.5332
390.3016, 196.1843
390.7837, 195.2586
391.2658, 195.0114
391.7479, 194.4448
392.2300, 192.9927
392.7122, 190.8832
393.1943, 188.5544
393.6764, 186.0731
394.1585, 183.5421
394.6406, 181.0422
395.1227, 178.5759
395.6049, 176.1218
396.0870, 173.6570
396.5691, 171.2286
397.0512, 168.8439
397.5333, 166.5149
398.0154, 164.2981
398.4976, 162.1395
398.9797, 160.1436
399.4618, 158.8765
399.9439, 158.3006
400.4260, 158.3472
400.9081, 159.2682
401.3903, 160.7339
401.8724, 162.1524
402.3545, 163.3015
402.8366, 164.5567
403.3187, 166.5327
403.8008, 169.4108
404.2830, 172.7561
404.7651, 176.6790
405.2472, 180.9626
405.7293, 185.5160
406.2114, 190.2762
406.6935, 195.1613
407.1757, 200.0781
407.6578, 205.0066
408.1399, 210.4030
408.6220, 216.6940
409.1041, 222.9583
409.5862, 228.9630
410.0684, 234.8415
410.5505, 240.7553
411.0326, 246.7378
411.5147, 253.0362
411.9968, 260.3005
412.4789, 269.1256
412.9611, 277.5393
413.4432, 285.2345
413.9253, 292.7611
414.4074, 300.2939
414.8895, 307.9641
415.3716, 315.9225
415.8538, 324.3350
416.3359, 333.1857
416.8180, 342.2518
417.3001, 351.8507
417.7822, 361.2009
418.2643, 369.8267
418.7465, 378.1329
419.2286, 386.7545
419.7107, 396.0441
420.1928, 405.3888
420.6749, 413.9348
421.1570, 421.6251
421.6392, 428.9806
422.1213, 436.4723
422.6034, 443.2832
423.0855, 448.9008
423.5676, 453.3257
424.0497, 456.4515
424.5319, 458.3463
425.0140, 458.9004
425.4961, 457.6530
425.9782, 454.3647
426.4603, 450.0382
426.9424, 445.6022
427.4246, 440.5896
427.9067, 433.8340
428.3888, 424.4836
428.8709, 414.2041
429.3530, 404.1320
429.8351, 394.2498
430.3173, 384.5311
430.7994, 375.1402
431.2815, 365.7289
431.7636, 355.5266
432.2457, 344.5392
432.7278, 333.5373
433.2100, 322.5663
433.6921, 311.7725
434.1742, 301.5229
434.6563, 291.7826
435.1384, 282.0243
435.6205, 271.8006
436.1027, 261.1921
436.5848, 251.1164
437.0669, 241.3543
437.5490, 232.2515
438.0311, 223.9556
438.5132, 216.3713
438.9954, 209.4535
439.4775, 203.1890
439.9596, 197.3032
440.4417, 191.3642
440.9238, 185.1976
441.4059, 179.3953
441.8881, 173.9107
442.3702, 168.7494
442.8523, 163.8837
443.3344, 159.3679
443.8165, 155.3026
444.2986, 151.8269
444.7808, 148.8546
445.2629, 145.9168
445.7450, 143.1237
446.2271, 140.1783
446.7092, 136.8417
447.1913, 133.4473
447.6735, 130.2396
448.1556, 127.3088
448.6377, 124.7468
449.1198, 122.7718
449.6019, 121.4294
450.0840, 119.9567
450.5662, 118.2713
451.0483, 116.4596
451.5304, 114.4436
452.0125, 112.3531
452.4946, 110.4842
452.9767, 109.0372
453.4589, 107.8091
453.9410, 106.4652
454.4231, 104.9992
454.9052, 103.5753
455.3873, 102.2212
455.8694, 100.9810
456.3516, 99.92781
456.8337, 99.10143
457.3158, 98.23249
457.7979, 97.11479
458.2800, 95.89863
458.7621, 94.88383
459.2443, 94.12821
459.7264, 93.36652
460.2085, 92.34975
460.6906, 91.11363
461.1727, 90.03586
461.6548, 89.21488
462.1370, 88.45430
462.6191, 87.62993
463.1012, 86.80489
463.5833, 86.16366
464.0654, 85.77905
464.5475, 85.43945
465.0297, 84.76926
465.5118, 83.55020
465.9939, 82.54079
466.4760, 81.76409
466.9581, 81.15836
467.4402, 80.83566
467.9224, 80.66854
468.4045, 80.33801
468.8866, 79.60755
469.3687, 78.56982
469.8508, 77.64097
470.3329, 76.83745
470.8151, 76.12461
471.2972, 75.53586
471.7793, 74.99755
472.2614, 74.45134
472.7435, 73.88611
473.2256, 73.31540
473.7078, 72.70493
474.1899, 72.05795
474.6720, 71.64149
475.1541, 71.64518
475.6362, 71.58112
476.1183, 71.19591
476.6005, 70.60511
477.0826, 69.96020
477.5647, 69.26570
478.0468, 68.62993
478.5289, 68.22548
479.0110, 68.02360
479.4932, 67.69627
479.9753, 67.06823
480.4574, 66.43407
480.9395, 66.24432
481.4216, 66.44501
481.9037, 66.42638
482.3859, 65.83526
482.8680, 65.09240
483.3501, 64.56583
483.8322, 64.26140
484.3143, 64.07666
484.7964, 63.96782
485.2786, 63.92461
485.7607, 63.92944
486.2428, 64.13634
486.7249, 64.12370
487.2070, 63.67365
487.6891, 63.08286
488.1713, 62.62561
488.6534, 62.33413
489.1355, 62.09414
489.6176, 61.81005
490.0997, 61.48037
490.5818, 61.12006
491.0640, 60.64697
491.5461, 60.23996
492.0282, 59.91970
492.5103, 59.68477
492.9924, 59.57210
493.4745, 59.58209
493.9567, 59.60194
494.4388, 59.47557
494.9209, 59.18900
495.4030, 58.91845
495.8851, 58.65212
496.3672, 58.43208
496.8494, 58.32115
497.3315, 58.26188
497.8136, 58.11512
498.2957, 57.74156
498.7778, 57.40916
499.2599, 57.61367
499.7421, 58.31146
500.2242, 58.61588
500.7063, 58.12390
501.1884, 57.34605
501.6705, 56.87527
502.1526, 56.68938
502.6348, 56.63892
503.1169, 56.88860
503.5990, 57.11175
504.0811, 56.87548
504.5632, 56.26231
505.0453, 55.81832
505.5274, 55.86732
506.0096, 56.23958
506.4917, 56.44031
506.9738, 56.46037
507.4559, 56.32256
507.9380, 55.81988
508.4201, 55.30312
508.9023, 55.11039
509.3844, 55.22526
509.8665, 55.36692
510.3486, 55.30065
510.8307, 55.05703
511.3128, 54.90898
511.7950, 54.94170
512.2771, 54.94714
512.7592, 54.85957
513.2413, 54.74907
513.7234, 54.70124
514.2056, 54.72435
514.6877, 54.72207
515.1698, 54.53223
515.6519, 54.19560
516.1340, 54.10716
516.6161, 54.41230
517.0983, 54.68462
517.5804, 54.57722
518.0625, 54.31333
518.5446, 54.23257
519.0267, 54.47430
519.5089, 54.72848
519.9910, 54.77692
520.4731, 54.66132
520.9552, 54.48310
521.4373, 54.25687
521.9194, 54.00492
522.4016, 53.72986
522.8837, 53.43296
523.3658, 53.21893
523.8479, 53.05663
524.3300, 53.00824
524.8121, 53.20022
525.2943, 53.50341
525.7764, 53.66647
526.2585, 53.60142
526.7406, 53.48962
527.2227, 53.65202
527.7048, 54.27319
528.1870, 54.50011
528.6691, 53.94584
529.1512, 53.41621
529.6333, 53.27175
530.1154, 53.36375
530.5975, 53.39807
531.0797, 53.23528
531.5618, 52.96045
532.0439, 52.69691
532.5260, 52.44001
533.0081, 52.22622
533.4902, 51.99337
533.9724, 51.89221
534.4545, 52.13882
534.9366, 52.61968
535.4187, 52.90565
535.9008, 52.71280
536.3829, 52.34407
536.8651, 52.11206
537.3472, 52.00350
537.8293, 51.94525
538.3114, 51.91356
538.7935, 51.91299
539.2756, 51.96846
539.7578, 52.10537
540.2399, 52.16767
540.7220, 52.08934
541.2041, 51.97686
541.6862, 51.89585
542.1683, 51.84248
542.6505, 51.79606
543.1326, 51.74727
543.6147, 51.68431
544.0968, 51.57468
544.5789, 51.38823
545.0610, 51.21673
545.5432, 51.06480
546.0253, 50.92487
546.5074, 50.77832
546.9895, 50.64019
547.4716, 50.55248
547.9537, 50.55244
548.4359, 50.60058
548.9180, 50.59333
549.4001, 50.51093
549.8822, 50.52163
550.3643, 50.78455
550.8464, 51.04463
551.3286, 51.01723
551.8107, 50.72680
552.2928, 50.47848
552.7749, 50.44283
553.2570, 50.46842
553.7391, 50.39294
554.2213, 50.22361
554.7034, 50.02068
555.1855, 49.79349
555.6676, 49.59082
556.1497, 49.52697
556.6318, 49.73733
557.1140, 49.76464
557.5961, 49.37671
558.0782, 48.99887
558.5603, 48.93978
559.0424, 49.12866
559.5245, 49.32540
560.0067, 49.39379
560.4888, 49.38670
560.9709, 49.44598
561.4530, 49.61931
561.9351, 49.72377
562.4172, 49.77708
562.8994, 49.71833
563.3815, 49.39837
563.8636, 48.92067
564.3457, 48.60386
564.8278, 48.67749
565.3099, 48.91869
565.7921, 49.01019
566.2742, 48.95637
566.7563, 48.84587
567.2384, 48.68102
567.7205, 48.51049
568.2026, 48.40492
568.6848, 48.36182
569.1669, 48.31799
569.6490, 48.20386
570.1311, 48.14040
570.6132, 48.29413
571.0953, 48.56098
571.5775, 48.65438
572.0596, 48.44705
572.5417, 48.13110
573.0238, 48.06142
573.5059, 48.38089
573.9880, 48.50632
574.4702, 48.13677
574.9523, 47.89562
575.4344, 48.19700
575.9165, 48.76476
576.3986, 49.09198
576.8807, 48.94901
577.3629, 48.58839
577.8450, 48.34365
578.3271, 48.21370
578.8092, 48.08910
579.2913, 47.91846
579.7734, 47.81452
580.2556, 47.92450
580.7377, 48.16866
581.2198, 48.36073
581.7019, 48.53444
582.1840, 48.55857
582.6661, 48.15374
583.1483, 47.57996
583.6304, 47.26582
584.1125, 47.32282
584.5946, 47.95382
585.0767, 49.58914
585.5588, 52.31030
586.0409, 53.54203
586.5230, 52.21827
587.0051, 50.80732
587.4872, 49.63639
587.9694, 48.75662
588.4515, 48.22577
588.9336, 48.03362
589.4157, 48.05974
