##NAMES=Pyrochlore
##RRUFFID=R060151
##IDEAL CHEMISTRY=Ca_2_Nb_2_O_7_
##LOCALITY=Oka, Quebec, Canada
##OWNER=RRUFF
##SOURCE=Marcus Origlieri
##DESCRIPTION=Reddish-brown octahedral crystals associated with calcite
##STATUS=The identification of this mineral has been confirmed by X-ray diffraction and chemical analysis
##URL=rruff.info/R060151
##MEASURED CHEMISTRY=(Ca_1.41_Na_0.59_)_Σ=2_(Nb_1.49_Ti_0.26_Ce_0.15_Fe^3+^_0.05_La_0.02_Nd_0.02_Mn_0.02_)_Σ=2_(O_5.40_(OH)_1.10_F_0.50_)_Σ=7_
92.02539, 566.5811
92.50751, 567.1464
92.98962, 571.5177
93.47174, 572.8326
93.95386, 574.1947
94.43597, 574.4296
94.91809, 574.0833
95.40021, 573.4229
95.88232, 570.9879
96.36444, 565.7961
96.84656, 560.2533
97.32867, 555.5262
97.81078, 551.3275
98.29290, 547.0027
98.77502, 541.6349
99.25713, 534.2509
99.73925, 527.3716
100.2214, 520.8917
100.7035, 514.9843
101.1856, 509.5912
101.6677, 504.6897
102.1498, 500.4086
102.6320, 496.9096
103.1141, 494.2227
103.5962, 492.4215
104.0783, 492.4811
104.5604, 492.9638
105.0425, 492.0491
105.5247, 488.9831
106.0068, 485.0911
106.4889, 482.6991
106.9710, 481.9601
107.4531, 481.0533
107.9352, 478.8748
108.4173, 475.6713
108.8995, 472.8539
109.3816, 471.1266
109.8637, 469.8476
110.3458, 468.2663
110.8279, 466.2079
111.3100, 464.1598
111.7922, 462.6337
112.2743, 461.6140
112.7564, 461.2288
113.2385, 462.2393
113.7206, 463.5137
114.2027, 464.0039
114.6849, 463.1854
115.1670, 461.4348
115.6491, 460.0979
116.1312, 459.6070
116.6133, 459.0402
117.0954, 458.1412
117.5776, 457.0707
118.0597, 456.1099
118.5418, 455.4740
119.0239, 455.1679
119.5060, 454.5107
119.9881, 452.6651
120.4703, 451.2907
120.9524, 451.5042
121.4345, 453.0367
121.9166, 454.5084
122.3987, 454.5743
122.8808, 452.9376
123.3630, 451.6996
123.8451, 451.1680
124.3272, 450.8716
124.8093, 450.4411
125.2914, 449.8414
125.7735, 448.9624
126.2557, 447.2655
126.7378, 444.9589
127.2199, 443.2594
127.7020, 443.1129
128.1841, 444.0190
128.6662, 444.3362
129.1483, 443.4519
129.6305, 442.3349
130.1126, 441.8839
130.5947, 442.0263
131.0768, 442.0310
131.5589, 441.1412
132.0410, 439.2234
132.5232, 437.5166
133.0053, 436.1601
133.4874, 435.0680
133.9695, 434.2115
134.4516, 433.5878
134.9337, 433.2358
135.4159, 433.3506
135.8980, 434.7224
136.3801, 434.9757
136.8622, 433.2530
137.3443, 430.9496
137.8264, 429.2340
138.3086, 428.5509
138.7907, 428.5380
139.2728, 428.2214
139.7549, 427.5356
140.2370, 426.5914
140.7191, 425.0813
141.2013, 423.3632
141.6834, 421.9928
142.1655, 421.3006
142.6476, 421.1237
143.1297, 420.7380
143.6118, 419.8703
144.0939, 419.1249
144.5761, 418.6003
145.0582, 418.3478
145.5403, 418.6936
146.0224, 420.2885
146.5045, 422.4807
146.9866, 423.3833
147.4688, 421.7731
147.9509, 419.7969
148.4330, 420.1188
148.9151, 423.2661
149.3972, 425.3922
149.8793, 422.8217
150.3615, 418.0490
150.8436, 413.9449
151.3257, 411.5814
151.8078, 410.4978
152.2899, 409.7755
152.7720, 409.6297
153.2542, 409.4642
153.7363, 408.8924
154.2184, 408.1581
154.7005, 407.6531
155.1826, 407.7064
155.6647, 408.2371
156.1469, 408.4007
156.6290, 407.5314
157.1111, 406.9389
157.5932, 407.2293
158.0753, 408.0919
158.5574, 408.8347
159.0396, 408.8410
159.5217, 408.0042
160.0038, 407.3984
160.4859, 407.2140
160.9680, 407.0535
161.4501, 406.7351
161.9323, 406.2702
162.4144, 405.7906
162.8965, 405.4341
163.3786, 405.2294
163.8607, 405.0437
164.3428, 404.8170
164.8250, 404.6481
165.3071, 404.7027
165.7892, 404.9872
166.2713, 405.2086
166.7534, 404.9188
167.2355, 404.0051
167.7177, 403.4652
168.1998, 403.7900
168.6819, 404.4109
169.1640, 404.5878
169.6461, 404.1370
170.1282, 403.3600
170.6104, 402.4913
171.0925, 401.5428
171.5746, 400.7666
172.0567, 400.5205
172.5388, 400.5543
173.0209, 400.0376
173.5031, 398.4247
173.9852, 396.7867
174.4673, 396.1455
174.9494, 396.4092
175.4315, 396.7043
175.9136, 396.3793
176.3958, 395.4550
176.8779, 394.5572
177.3600, 393.7707
177.8421, 393.0356
178.3242, 392.3187
178.8063, 391.6174
179.2885, 390.9577
179.7706, 390.3987
180.2527, 389.9921
180.7348, 389.4535
181.2169, 388.7611
181.6990, 387.9391
182.1812, 386.9525
182.6633, 385.8119
183.1454, 384.6126
183.6275, 383.4564
184.1096, 382.2478
184.5917, 381.3173
185.0738, 380.8794
185.5560, 380.5210
186.0381, 380.0686
186.5202, 379.4367
187.0023, 378.5009
187.4844, 377.0119
187.9665, 374.1251
188.4487, 372.0543
188.9308, 371.3121
189.4129, 371.1034
189.8950, 370.7574
190.3771, 370.0509
190.8592, 369.1011
191.3414, 368.1382
191.8235, 367.3366
192.3056, 366.1910
192.7877, 364.1666
193.2698, 361.9055
193.7519, 360.3960
194.2341, 360.0861
194.7162, 360.2855
195.1983, 359.4666
195.6804, 357.3853
196.1625, 355.4671
196.6446, 354.2579
197.1268, 353.5201
197.6089, 352.7007
198.0910, 351.5830
198.5731, 350.3617
199.0552, 349.4139
199.5373, 348.8177
200.0195, 348.0421
200.5016, 346.6354
200.9837, 344.7295
201.4658, 343.0333
201.9479, 341.8527
202.4300, 340.8698
202.9122, 339.7440
203.3943, 338.4562
203.8764, 337.0986
204.3585, 335.6664
204.8406, 334.1588
205.3227, 332.8498
205.8048, 331.9311
206.2870, 331.1640
206.7691, 330.4453
207.2512, 329.7593
207.7333, 328.9929
208.2154, 328.0188
208.6975, 326.8134
209.1797, 325.5379
209.6618, 323.8318
210.1439, 322.3254
210.6260, 321.5699
211.1081, 321.5942
211.5902, 321.7709
212.0724, 321.2560
212.5545, 319.8175
213.0366, 318.3821
213.5187, 316.7958
214.0008, 315.3867
214.4829, 314.4536
214.9651, 314.0150
215.4472, 313.7482
215.9293, 313.1463
216.4114, 311.8741
216.8935, 310.9738
217.3756, 310.7065
217.8578, 310.5612
218.3399, 310.2094
218.8220, 309.5721
219.3041, 308.7505
219.7862, 307.8721
220.2683, 306.7140
220.7505, 305.9854
221.2326, 305.9651
221.7147, 306.1479
222.1968, 306.1195
222.6789, 305.7915
223.1610, 305.3910
223.6432, 305.2616
224.1253, 305.5999
224.6074, 305.8232
225.0895, 305.7974
225.5716, 305.7317
226.0537, 305.8853
226.5358, 306.3076
227.0180, 306.7180
227.5001, 306.6717
227.9822, 305.9274
228.4643, 305.5014
228.9464, 305.4114
229.4285, 305.6880
229.9107, 306.4751
230.3928, 307.8160
230.8749, 309.3710
231.3570, 310.8200
231.8391, 312.2147
232.3212, 313.0523
232.8034, 312.4837
233.2855, 311.6057
233.7676, 312.0089
234.2497, 314.1261
234.7318, 316.6395
235.2139, 317.9391
235.6961, 318.1937
236.1782, 318.7070
236.6603, 320.0503
237.1424, 321.7726
237.6245, 323.1657
238.1066, 324.0851
238.5888, 324.8910
239.0709, 325.9605
239.5530, 327.2059
240.0351, 328.3699
240.5172, 329.1707
240.9993, 329.8708
241.4815, 330.9656
241.9636, 332.5304
242.4457, 334.3943
242.9278, 336.7055
243.4099, 339.2232
243.8920, 341.4057
244.3742, 342.6913
244.8563, 343.5309
245.3384, 345.0568
245.8205, 347.6034
246.3026, 350.0816
246.7847, 351.7762
247.2668, 353.0151
247.7490, 354.3056
248.2311, 355.9110
248.7132, 357.6964
249.1953, 359.3615
249.6774, 360.8640
250.1595, 362.3187
250.6417, 363.5404
251.1238, 364.8027
251.6059, 366.6065
252.0880, 369.4609
252.5701, 372.6433
253.0522, 374.1513
253.5344, 372.8356
254.0165, 372.0820
254.4986, 373.0620
254.9807, 374.9881
255.4628, 377.0827
255.9449, 379.0270
256.4271, 380.8790
256.9092, 382.8077
257.3913, 384.9218
257.8734, 386.8862
258.3555, 388.4803
258.8376, 389.9943
259.3198, 391.7614
259.8019, 393.9093
260.2840, 396.2064
260.7661, 398.1332
261.2482, 399.3844
261.7303, 400.8413
262.2125, 402.7834
262.6946, 404.8457
263.1767, 406.7038
263.6588, 408.2675
264.1409, 409.6781
264.6230, 411.1962
265.1052, 412.8583
265.5873, 414.5640
266.0694, 416.2585
266.5515, 418.0091
267.0336, 419.8417
267.5157, 421.7653
267.9979, 423.7989
268.4800, 426.0230
268.9621, 428.7289
269.4442, 430.9423
269.9263, 432.4680
270.4084, 433.7540
270.8906, 435.0385
271.3727, 436.3767
271.8548, 437.7198
272.3369, 439.0117
272.8190, 440.2386
273.3011, 441.4375
273.7833, 442.5283
274.2654, 443.6641
274.7475, 444.9971
275.2296, 446.4891
275.7117, 447.9122
276.1938, 448.9920
276.6760, 449.5940
277.1581, 450.7339
277.6402, 452.9605
278.1223, 455.0946
278.6044, 456.3721
279.0865, 457.0104
279.5686, 457.8995
280.0508, 459.8675
280.5329, 462.9564
281.0150, 464.8377
281.4971, 464.8902
281.9792, 464.6363
282.4613, 464.6011
282.9435, 464.7078
283.4256, 464.6099
283.9077, 464.0294
284.3898, 463.0714
284.8719, 462.7464
285.3540, 463.8620
285.8362, 464.5984
286.3183, 464.2471
286.8004, 463.2075
287.2825, 462.2018
287.7646, 461.5958
288.2467, 461.2910
288.7289, 460.9399
289.2110, 461.0217
289.6931, 460.4924
290.1752, 458.5168
290.6573, 456.0107
291.1394, 454.5071
291.6216, 454.6590
292.1037, 455.4238
292.5858, 454.5432
293.0679, 450.8200
293.5500, 447.7818
294.0321, 446.2772
294.5143, 445.4076
294.9964, 444.1705
295.4785, 442.2905
295.9606, 440.1772
296.4427, 438.4554
296.9248, 437.4305
297.4070, 435.7999
297.8891, 432.9462
298.3712, 429.8094
298.8533, 427.2442
299.3354, 425.3762
299.8175, 423.7413
300.2997, 421.9134
300.7818, 419.8625
301.2639, 417.6629
301.7460, 415.2865
302.2281, 412.8041
302.7102, 410.0887
303.1924, 407.2185
303.6745, 404.6161
304.1566, 402.7041
304.6387, 401.4204
305.1208, 399.5131
305.6029, 396.3986
306.0851, 393.2788
306.5672, 390.7974
307.0493, 388.8232
307.5314, 386.9288
308.0135, 384.9511
308.4956, 382.8027
308.9778, 380.1196
309.4599, 376.0478
309.9420, 372.5749
310.4241, 370.8830
310.9062, 370.1931
311.3883, 369.0060
311.8705, 366.6865
312.3526, 363.6485
312.8347, 360.7677
313.3168, 357.9479
313.7989, 355.4324
314.2810, 353.4453
314.7632, 351.7338
315.2453, 349.9497
315.7274, 348.0033
316.2095, 346.0104
316.6916, 344.1487
317.1737, 342.4852
317.6559, 340.6142
318.1380, 338.2112
318.6201, 335.7605
319.1022, 333.8167
319.5843, 332.4146
320.0664, 331.0128
320.5485, 329.0135
321.0306, 326.3662
321.5128, 324.3091
321.9949, 323.4622
322.4770, 322.6556
322.9591, 321.0434
323.4412, 318.7353
323.9233, 316.3838
324.4055, 314.3858
324.8876, 312.7323
325.3697, 311.3863
325.8518, 310.1522
326.3339, 309.3643
326.8160, 309.8888
327.2982, 310.9419
327.7803, 310.6429
328.2624, 307.9340
328.7445, 303.8084
329.2266, 300.9222
329.7087, 299.6605
330.1909, 298.7136
330.6730, 298.0618
331.1551, 297.5260
331.6372, 296.8760
332.1193, 296.0445
332.6014, 295.1083
333.0836, 294.1631
333.5657, 293.2059
334.0478, 292.2529
334.5299, 291.0521
335.0120, 290.0253
335.4941, 289.6581
335.9763, 289.9473
336.4584, 290.3452
336.9405, 290.3646
337.4226, 289.9712
337.9047, 289.4060
338.3868, 288.3383
338.8690, 287.4195
339.3511, 287.0419
339.8332, 287.1093
340.3153, 287.2903
340.7974, 287.3795
341.2795, 287.4034
341.7617, 287.5348
342.2438, 287.7199
342.7259, 288.0563
343.2080, 288.7213
343.6901, 289.5167
344.1722, 290.0920
344.6544, 290.2938
345.1365, 290.3585
345.6186, 290.7779
346.1007, 291.8726
346.5828, 292.8657
347.0649, 293.6284
347.5471, 294.3555
348.0292, 295.2546
348.5113, 296.3424
348.9934, 297.4417
349.4755, 298.2869
349.9576, 298.7180
350.4398, 299.6120
350.9219, 301.3585
351.4040, 303.1355
351.8861, 304.4186
352.3682, 305.3146
352.8503, 306.2866
353.3325, 307.6940
353.8146, 309.4986
354.2967, 311.1622
354.7788, 312.6437
355.2609, 314.0250
355.7430, 315.3215
356.2252, 316.5241
356.7073, 317.5628
357.1894, 318.3973
357.6715, 319.1878
358.1536, 320.3655
358.6357, 322.3058
359.1179, 324.0810
359.5999, 325.7104
360.0821, 327.1496
360.5642, 328.3071
361.0463, 329.1966
361.5284, 329.9551
362.0105, 330.7599
362.4926, 331.6396
362.9748, 332.4610
363.4569, 333.3045
363.9390, 334.0223
364.4211, 334.3857
364.9032, 334.5502
365.3853, 334.9293
365.8675, 335.9055
366.3496, 337.3758
366.8317, 338.3327
367.3138, 338.2470
367.7959, 338.2950
368.2780, 338.8237
368.7602, 339.5889
369.2423, 340.3069
369.7244, 340.8554
370.2065, 341.2555
370.6886, 341.5415
371.1707, 341.6940
371.6529, 341.7691
372.1350, 341.7625
372.6171, 341.6953
373.0992, 341.6548
373.5813, 341.6171
374.0634, 341.3678
374.5456, 340.5526
375.0277, 339.1332
375.5098, 338.0259
375.9919, 337.3862
376.4740, 336.9464
376.9561, 336.8792
377.4383, 336.9098
377.9204, 336.4287
378.4025, 334.9495
378.8846, 332.7940
379.3667, 330.7481
379.8488, 328.6507
380.3310, 327.1006
380.8131, 326.9947
381.2952, 327.2552
381.7773, 326.7044
382.2594, 324.9395
382.7415, 322.8092
383.2237, 321.3115
383.7058, 320.4380
384.1879, 319.3159
384.6700, 317.7594
385.1521, 315.8281
385.6342, 313.3689
386.1164, 310.4635
386.5985, 307.9638
387.0806, 306.7399
387.5627, 306.2447
388.0448, 305.1266
388.5269, 303.1785
389.0091, 300.9589
389.4912, 298.6581
389.9733, 296.3869
390.4554, 294.4324
390.9375, 293.0581
391.4196, 291.8336
391.9018, 290.3925
392.3839, 288.7449
392.8660, 286.9986
393.3481, 285.0843
393.8302, 283.2151
394.3123, 281.8238
394.7945, 281.0404
395.2766, 280.2511
395.7587, 279.1622
396.2408, 277.9260
396.7229, 276.8726
397.2050, 276.0897
397.6872, 275.2466
398.1693, 273.8629
398.6514, 271.8696
399.1335, 270.3328
399.6156, 269.5659
400.0977, 269.0380
400.5798, 268.3788
401.0620, 267.6071
401.5441, 266.9243
402.0262, 266.4685
402.5083, 266.1891
402.9904, 265.8420
403.4725, 265.5461
403.9547, 265.0502
404.4368, 263.9241
404.9189, 262.7154
405.4010, 262.2757
405.8831, 262.8365
406.3652, 263.6826
406.8474, 263.7201
407.3295, 262.4812
407.8116, 261.7896
408.2937, 262.0361
408.7758, 262.4153
409.2579, 262.4860
409.7401, 262.2762
410.2222, 262.0154
410.7043, 261.8480
411.1864, 261.7916
411.6685, 261.9917
412.1506, 262.7646
412.6328, 263.4146
413.1149, 263.6422
413.5970, 263.7860
414.0791, 264.3280
414.5612, 265.4105
415.0433, 266.5753
415.5255, 267.0024
416.0076, 266.3565
416.4897, 266.1427
416.9718, 266.8669
417.4539, 267.6928
417.9360, 268.1471
418.4182, 268.3330
418.9003, 268.6840
419.3824, 269.5045
419.8645, 270.7416
420.3466, 272.2667
420.8287, 274.3474
421.3109, 276.1283
421.7930, 277.0400
422.2751, 277.5725
422.7572, 278.2204
423.2393, 279.1054
423.7214, 280.1801
424.2036, 281.4837
424.6857, 283.0009
425.1678, 284.3543
425.6499, 285.2746
426.1320, 286.2479
426.6141, 287.8768
427.0963, 290.0572
427.5784, 291.9782
428.0605, 293.0378
428.5426, 293.7428
429.0247, 294.8725
429.5068, 296.4905
429.9890, 298.2607
430.4711, 300.0562
430.9532, 301.8212
431.4353, 303.4000
431.9174, 304.7170
432.3995, 305.9625
432.8817, 307.1785
433.3638, 308.3892
433.8459, 309.6342
434.3280, 310.9087
434.8101, 312.2827
435.2922, 313.8848
435.7744, 315.7931
436.2565, 317.5944
436.7386, 319.2088
437.2207, 320.7621
437.7028, 322.3544
438.1849, 323.9658
438.6671, 325.4504
439.1492, 326.6611
439.6313, 327.7148
440.1134, 329.2749
440.5955, 331.4077
441.0776, 333.9949
441.5598, 337.9178
442.0418, 341.8367
442.5240, 344.2458
443.0061, 344.8108
443.4882, 344.4462
443.9703, 344.2126
444.4524, 344.0299
444.9345, 344.3684
445.4167, 345.7089
445.8988, 347.1044
446.3809, 348.1149
446.8630, 348.9355
447.3451, 350.0468
447.8272, 351.7727
448.3094, 353.7964
448.7915, 355.3639
449.2736, 356.4799
449.7557, 357.1060
450.2378, 356.5254
450.7199, 355.9204
451.2021, 356.3669
451.6842, 357.9078
452.1663, 359.3227
452.6484, 359.4038
453.1305, 358.4925
453.6126, 358.0760
454.0948, 358.2813
454.5769, 358.9064
455.0590, 360.3105
455.5411, 361.9862
456.0232, 362.9583
456.5053, 362.6705
456.9875, 362.0918
457.4696, 362.0378
457.9517, 362.4040
458.4338, 362.7138
458.9159, 362.8147
459.3980, 362.7844
459.8802, 362.6917
460.3623, 362.5155
460.8444, 362.4545
461.3265, 362.7144
461.8086, 362.9853
462.2907, 362.9969
462.7729, 362.7402
463.2550, 362.3286
463.7371, 361.8256
464.2192, 361.2352
464.7013, 360.5613
465.1834, 359.4289
465.6656, 358.6929
466.1477, 358.8114
466.6298, 359.2130
467.1119, 359.2254
467.5940, 358.7212
468.0761, 358.1354
468.5583, 358.0316
469.0404, 358.5376
469.5225, 358.6944
470.0046, 358.5142
470.4867, 357.9575
470.9688, 356.5529
471.4510, 354.8536
471.9331, 353.7672
472.4152, 353.7508
472.8973, 354.3534
473.3794, 354.7977
473.8615, 355.1066
474.3437, 355.1466
474.8258, 354.5512
475.3079, 353.9488
475.7900, 353.8251
476.2721, 354.1077
476.7542, 354.2848
477.2364, 353.8971
477.7185, 353.2163
478.2006, 352.8765
478.6827, 352.9247
479.1648, 353.0549
479.6469, 353.0324
480.1291, 353.0475
480.6112, 353.5023
481.0933, 354.6667
481.5754, 355.5648
482.0575, 355.3763
482.5396, 354.6617
483.0217, 354.4590
483.5038, 354.9795
483.9860, 355.8847
484.4681, 356.9697
484.9502, 358.2346
485.4323, 359.0807
485.9144, 358.8067
486.3965, 358.8773
486.8787, 360.2049
487.3608, 362.2623
487.8429, 364.1686
488.3250, 365.5751
488.8071, 366.4533
489.2892, 366.6362
489.7714, 365.4213
490.2535, 365.2735
490.7356, 366.8756
491.2177, 368.7201
491.6998, 369.9237
492.1819, 370.7212
492.6641, 371.9280
493.1462, 374.1585
493.6283, 376.9142
494.1104, 378.6642
494.5925, 379.0379
495.0746, 379.4012
495.5568, 379.7248
496.0389, 380.3905
496.5210, 381.8839
497.0031, 384.1543
497.4852, 386.4144
497.9673, 388.0956
498.4495, 389.3344
498.9316, 390.4535
499.4137, 391.4376
499.8958, 392.4296
500.3779, 393.5494
500.8600, 394.7294
501.3422, 395.7842
501.8243, 396.5439
502.3064, 397.5366
502.7885, 399.2417
503.2706, 401.3108
503.7527, 403.2014
504.2349, 404.7948
504.7170, 406.0587
505.1991, 406.8847
505.6812, 407.2455
506.1633, 407.8730
506.6454, 408.7526
507.1276, 409.8803
507.6097, 411.6634
508.0918, 413.5797
508.5739, 414.7002
509.0560, 414.7085
509.5381, 414.3028
510.0203, 414.6304
510.5024, 415.9857
510.9845, 417.0678
511.4666, 417.7696
511.9487, 418.2996
512.4308, 418.8076
512.9130, 419.1938
513.3951, 419.1629
513.8772, 418.4504
514.3593, 417.5945
514.8414, 417.8350
515.3235, 419.4186
515.8057, 420.1771
516.2878, 419.1142
516.7699, 417.5440
517.2520, 416.4879
517.7341, 415.9269
518.2162, 415.6175
518.6984, 415.7423
519.1805, 415.8970
519.6626, 415.4769
520.1447, 414.5132
520.6268, 413.5842
521.1089, 413.0309
521.5911, 412.5984
522.0732, 411.6583
522.5553, 410.0323
523.0374, 408.5228
523.5195, 407.1931
524.0016, 406.0887
524.4838, 405.3523
524.9659, 404.9262
525.4480, 404.5268
525.9301, 403.9417
526.4122, 403.2339
526.8943, 402.7257
527.3765, 402.7442
527.8586, 402.4939
528.3407, 401.5170
528.8228, 400.5289
529.3049, 400.1902
529.7870, 400.5138
530.2692, 400.9651
530.7513, 401.0444
531.2334, 400.8436
531.7155, 400.9790
532.1976, 401.6933
532.6797, 402.1770
533.1619, 401.8802
533.6440, 401.2807
534.1261, 400.7459
534.6082, 400.2906
535.0903, 400.2260
535.5724, 401.1801
536.0546, 402.5831
536.5367, 403.0127
537.0188, 402.2159
537.5009, 401.5963
537.9830, 402.3958
538.4651, 404.2444
538.9473, 405.0384
539.4294, 403.7043
539.9115, 402.7668
540.3936, 403.4814
540.8757, 404.7149
541.3578, 405.0089
541.8400, 404.1170
542.3221, 402.8191
542.8042, 401.8739
543.2863, 401.2840
543.7684, 400.9085
544.2505, 401.0801
544.7326, 401.0721
545.2147, 400.5673
545.6968, 399.9092
546.1790, 399.5461
546.6611, 399.5699
547.1432, 399.5754
547.6253, 399.1096
548.1074, 398.2056
548.5895, 397.2449
549.0717, 396.2233
549.5538, 395.1928
550.0359, 394.2344
550.5180, 393.2745
551.0001, 392.1362
551.4822, 390.6485
551.9644, 389.3376
552.4465, 388.6022
552.9286, 388.2592
553.4107, 387.9914
553.8928, 387.7407
554.3749, 387.4040
554.8571, 386.9302
555.3392, 386.3061
555.8213, 385.2583
556.3034, 383.0623
556.7855, 381.3841
557.2676, 381.1227
557.7498, 381.3769
558.2319, 381.0142
558.7140, 379.8087
559.1961, 378.4448
559.6782, 377.7310
560.1603, 377.6844
560.6425, 377.1489
561.1246, 375.6907
561.6067, 374.3821
562.0888, 373.3812
562.5709, 372.7664
563.0530, 372.8013
563.5352, 373.5782
564.0173, 374.2438
564.4994, 373.8460
564.9815, 372.7428
565.4636, 372.2045
565.9457, 372.4640
566.4279, 372.6613
566.9100, 372.0497
567.3921, 370.9554
567.8742, 370.5240
568.3563, 370.9621
568.8384, 371.7061
569.3206, 372.8153
569.8027, 373.9995
570.2848, 374.9011
570.7669, 375.4723
571.2490, 375.8957
571.7311, 376.3027
572.2133, 376.7030
572.6954, 377.1976
573.1775, 378.0567
573.6596, 378.6279
574.1417, 378.4417
574.6238, 378.2071
575.1060, 378.5670
575.5881, 379.5738
576.0702, 380.8105
576.5523, 382.0229
577.0344, 383.1826
577.5165, 384.1441
577.9987, 384.8537
578.4808, 385.6176
578.9629, 386.7462
579.4450, 387.8594
579.9271, 388.3766
580.4092, 388.1991
580.8914, 388.0685
581.3735, 388.2968
581.8556, 388.6915
582.3377, 389.0415
582.8198, 389.3437
583.3019, 389.6825
583.7841, 390.0930
584.2662, 390.6071
584.7483, 391.3360
585.2304, 392.7572
585.7125, 393.5829
586.1946, 393.7051
586.6768, 393.3717
