##NAMES=Pyroaurite
##RRUFFID=R100053
##IDEAL CHEMISTRY=Mg_6_Fe^3+^_2_CO_3_(OH)_16_&#183;4H_2_O
##LOCALITY=Langban, Filipstad, Varmland, Sweden
##OWNER=RRUFF
##SOURCE=William W Pinch
##DESCRIPTION=Pale bluish-green hexagonal tablets embedded in calcite, associated with magnetite
##STATUS=The identification of this mineral has been confirmed by single-crystal X-ray diffraction.
##URL=rruff.info/R100053
93.46167, 217.2979
93.94379, 216.5170
94.42590, 213.7290
94.90802, 210.0092
95.39014, 205.7307
95.87225, 200.5906
96.35437, 196.1342
96.83649, 193.4549
97.31860, 191.6539
97.80072, 189.7938
98.28284, 187.1179
98.76495, 183.7085
99.24707, 180.9388
99.72919, 179.3537
100.2113, 177.8631
100.6934, 175.9712
101.1755, 173.8917
101.6577, 172.1411
102.1398, 171.1861
102.6219, 171.1763
103.1040, 171.1279
103.5861, 171.0970
104.0682, 170.9690
104.5504, 170.6871
105.0325, 170.2366
105.5146, 169.6038
105.9967, 168.7005
106.4788, 167.2732
106.9609, 166.2068
107.4431, 165.6812
107.9252, 165.4928
108.4073, 165.3600
108.8894, 165.1663
109.3715, 165.0482
109.8536, 165.2525
110.3358, 165.7950
110.8179, 166.4472
111.3000, 167.2188
111.7821, 168.0759
112.2642, 168.6680
112.7463, 168.6625
113.2285, 168.4314
113.7106, 168.3064
114.1927, 168.3176
114.6748, 168.5084
115.1569, 168.9972
115.6390, 169.9389
116.1212, 170.7905
116.6033, 171.3660
117.0854, 171.7981
117.5675, 172.2253
118.0496, 172.7285
118.5317, 173.2610
119.0139, 173.5890
119.4960, 173.2978
119.9781, 173.2395
120.4602, 173.5841
120.9423, 174.2689
121.4244, 175.2113
121.9066, 176.3997
122.3887, 177.8898
122.8708, 178.8037
123.3529, 178.9557
123.8350, 178.8598
124.3171, 178.6339
124.7993, 178.3365
125.2814, 178.0960
125.7635, 178.0512
126.2456, 178.2538
126.7277, 178.4424
127.2098, 178.5256
127.6920, 178.6307
128.1741, 178.9553
128.6562, 179.5776
129.1383, 180.2146
129.6204, 180.5243
130.1025, 180.5537
130.5847, 180.3752
131.0668, 179.9973
131.5489, 179.4303
132.0310, 178.6473
132.5131, 177.3087
132.9952, 176.1404
133.4774, 176.0064
133.9595, 176.8980
134.4416, 177.5694
134.9237, 176.6084
135.4058, 173.6884
135.8879, 171.3953
136.3701, 170.7204
136.8522, 170.5150
137.3343, 170.2599
137.8164, 169.8071
138.2985, 169.1902
138.7806, 168.4662
139.2628, 167.6705
139.7449, 166.6693
140.2270, 165.3881
140.7091, 163.9632
141.1912, 162.5084
141.6733, 161.0815
142.1555, 159.6534
142.6376, 158.1472
143.1197, 156.3016
143.6018, 154.6673
144.0839, 153.3008
144.5660, 152.1834
145.0482, 151.3738
145.5303, 150.9832
146.0124, 150.8666
146.4945, 149.9081
146.9766, 147.5054
147.4587, 145.0626
147.9409, 143.0491
148.4230, 141.4679
148.9051, 140.2803
149.3872, 139.6263
149.8693, 139.3752
150.3514, 138.7060
150.8336, 137.3117
151.3157, 135.6766
151.7978, 134.1909
152.2799, 132.8589
152.7620, 131.6455
153.2441, 130.6347
153.7263, 129.7209
154.2084, 128.6988
154.6905, 127.3625
155.1726, 125.9003
155.6547, 124.8000
156.1368, 124.3730
156.6190, 123.7380
157.1011, 122.1193
157.5832, 119.9712
158.0653, 118.1796
158.5474, 117.5445
159.0295, 117.9432
159.5117, 117.7337
159.9938, 116.4447
160.4759, 114.9362
160.9580, 113.2895
161.4401, 111.6501
161.9222, 110.3044
162.4044, 109.6028
162.8865, 109.7146
163.3686, 109.4441
163.8507, 108.4405
164.3328, 107.3841
164.8149, 106.5813
165.2971, 106.0341
165.7792, 105.5652
166.2613, 104.9521
166.7434, 104.1006
167.2255, 103.3931
167.7076, 102.8917
168.1898, 102.4660
168.6719, 102.0987
169.1540, 101.7628
169.6361, 101.3271
170.1182, 100.5725
170.6003, 99.28960
171.0825, 98.22141
171.5646, 97.60976
172.0467, 97.15107
172.5288, 96.44131
173.0109, 95.33556
173.4930, 94.14622
173.9752, 93.41151
174.4573, 93.13184
174.9394, 92.97945
175.4215, 93.02225
175.9036, 93.12151
176.3857, 92.96938
176.8679, 92.46392
177.3500, 91.67014
177.8321, 90.62785
178.3142, 89.29966
178.7963, 88.08090
179.2784, 87.25732
179.7606, 86.78126
180.2427, 86.30880
180.7248, 85.63241
181.2069, 85.04852
181.6890, 84.89768
182.1711, 85.22141
182.6533, 85.55392
183.1354, 85.43119
183.6175, 84.80508
184.0996, 84.10680
184.5817, 83.36330
185.0638, 82.61459
185.5460, 81.90567
186.0281, 81.24303
186.5102, 80.56434
186.9923, 79.69904
187.4744, 78.40650
187.9565, 77.60061
188.4387, 77.73705
188.9208, 78.12045
189.4029, 78.29445
189.8850, 78.11245
190.3671, 77.69029
190.8492, 77.21191
191.3314, 76.49229
191.8135, 76.05186
192.2956, 76.35997
192.7777, 76.71397
193.2598, 76.36952
193.7419, 75.05440
194.2241, 73.22697
194.7062, 71.99278
195.1883, 71.77917
195.6704, 71.74505
196.1525, 72.19437
196.6346, 72.71177
197.1168, 72.74340
197.5989, 72.03254
198.0810, 70.87153
198.5631, 70.11189
199.0452, 70.16908
199.5273, 70.05017
200.0095, 69.44077
200.4916, 68.57644
200.9737, 67.81814
201.4558, 67.31049
201.9379, 67.03336
202.4200, 66.95919
202.9022, 67.24233
203.3843, 67.42262
203.8664, 67.26948
204.3485, 66.87860
204.8306, 66.53095
205.3127, 66.38894
205.7949, 66.30922
206.2770, 65.97221
206.7591, 65.26588
207.2412, 64.56675
207.7233, 64.07826
208.2054, 63.78138
208.6876, 63.58306
209.1697, 63.50289
209.6518, 63.46338
210.1339, 63.31055
210.6160, 62.96559
211.0981, 62.72071
211.5803, 62.90658
212.0624, 63.52418
212.5445, 64.05206
213.0266, 64.39040
213.5087, 64.47740
213.9908, 64.21786
214.4730, 63.56792
214.9551, 62.73532
215.4372, 61.84259
215.9193, 60.82292
216.4014, 60.14103
216.8836, 60.19732
217.3657, 60.50287
217.8478, 60.80549
218.3299, 61.04674
218.8120, 61.19085
219.2941, 61.15080
219.7763, 60.85093
220.2584, 60.61618
220.7405, 60.60956
221.2226, 60.61881
221.7047, 60.54601
222.1868, 60.35569
222.6690, 59.98315
223.1511, 59.18960
223.6332, 57.43908
224.1153, 56.53736
224.5974, 57.30269
225.0795, 58.42444
225.5617, 58.95477
226.0438, 58.63241
226.5259, 57.86098
227.0080, 57.29948
227.4901, 56.89219
227.9722, 56.85975
228.4544, 57.56664
228.9365, 58.37579
229.4186, 58.75582
229.9007, 58.57230
230.3828, 58.10535
230.8649, 57.85231
231.3471, 58.11087
231.8292, 58.09362
232.3113, 57.50879
232.7934, 56.84196
233.2755, 56.55398
233.7576, 56.75293
234.2398, 57.12040
234.7219, 57.11128
235.2040, 56.27905
235.6861, 55.87952
236.1682, 56.13532
236.6503, 56.68945
237.1325, 57.33742
237.6146, 58.00158
238.0967, 58.50662
238.5788, 58.53955
239.0609, 57.73492
239.5430, 57.31178
240.0252, 57.66683
240.5073, 58.24631
240.9894, 58.54312
241.4715, 58.43667
241.9536, 58.01140
242.4357, 57.24697
242.9179, 55.95144
243.4000, 55.23463
243.8821, 55.56760
244.3642, 56.36446
244.8463, 57.11928
245.3284, 57.75126
245.8106, 58.07183
246.2927, 57.65552
246.7748, 56.45692
247.2569, 55.69584
247.7390, 55.78841
248.2211, 56.30763
248.7033, 56.77891
249.1854, 57.13512
249.6675, 57.43175
250.1496, 57.73785
250.6317, 58.04553
251.1138, 58.25346
251.5960, 58.28515
252.0781, 58.22966
252.5602, 58.17930
253.0423, 58.13288
253.5244, 58.14538
254.0065, 58.31488
254.4887, 58.58958
254.9708, 58.83180
255.4529, 58.96464
255.9350, 59.06292
256.4171, 59.24640
256.8992, 59.53963
257.3813, 59.82078
257.8635, 59.92629
258.3456, 59.96489
258.8277, 60.13694
259.3098, 60.57598
259.7919, 61.13116
260.2740, 61.56390
260.7562, 61.83424
261.2383, 62.15238
261.7204, 62.70626
262.2025, 63.36506
262.6846, 63.97641
263.1667, 64.47444
263.6489, 64.93317
264.1310, 65.50240
264.6131, 66.23666
265.0952, 66.84312
265.5773, 67.04594
266.0594, 67.10791
266.5416, 67.24953
267.0237, 67.51347
267.5058, 67.92010
267.9879, 68.59002
268.4700, 69.62186
268.9521, 70.45293
269.4343, 70.67684
269.9164, 70.73180
270.3985, 70.93530
270.8806, 71.36826
271.3627, 71.90508
271.8448, 72.37864
272.3270, 72.76293
272.8091, 73.22978
273.2912, 73.89281
273.7733, 74.60829
274.2554, 75.29408
274.7375, 75.93967
275.2197, 76.57802
275.7018, 77.33192
276.1839, 78.26643
276.6660, 78.87134
277.1481, 78.75594
277.6302, 78.50381
278.1124, 78.33430
278.5945, 78.28830
279.0766, 78.36016
279.5587, 78.64005
280.0408, 79.18591
280.5229, 79.42475
281.0051, 79.00380
281.4872, 78.53513
281.9693, 78.29016
282.4514, 78.23530
282.9335, 78.17394
283.4156, 77.89612
283.8978, 77.39300
284.3799, 77.09949
284.8620, 77.40098
285.3441, 77.52161
285.8262, 77.10947
286.3083, 76.30618
286.7905, 75.43147
287.2726, 74.68809
287.7547, 74.07339
288.2368, 73.59326
288.7189, 73.43985
289.2010, 73.19151
289.6832, 72.64402
290.1653, 71.95122
290.6474, 71.34992
291.1295, 70.98909
291.6116, 70.80538
292.0938, 70.55088
292.5759, 70.24018
293.0580, 69.82355
293.5401, 69.10677
294.0222, 68.35918
294.5043, 67.92598
294.9865, 67.96954
295.4686, 68.28297
295.9507, 68.34182
296.4328, 67.89253
296.9149, 67.64501
297.3970, 67.92892
297.8792, 68.28633
298.3613, 68.25359
298.8434, 67.70930
299.3255, 66.98515
299.8076, 66.67256
300.2897, 67.06934
300.7719, 67.20016
301.2540, 66.92285
301.7361, 66.48157
302.2182, 65.93804
302.7003, 65.34962
303.1824, 64.84592
303.6646, 64.57333
304.1467, 64.54307
304.6288, 64.72426
305.1109, 65.49999
305.5930, 66.14388
306.0751, 66.19734
306.5573, 65.75768
307.0394, 65.29008
307.5215, 65.26382
308.0036, 65.73371
308.4857, 65.82547
308.9678, 65.09684
309.4500, 64.40881
309.9321, 63.91258
310.4142, 63.64839
310.8963, 63.69767
311.3784, 64.18724
311.8605, 65.00150
312.3427, 65.21075
312.8248, 64.03318
313.3069, 63.13831
313.7890, 62.99701
314.2711, 63.25861
314.7532, 63.47798
315.2354, 63.43888
315.7175, 63.19297
316.1996, 62.88382
316.6817, 62.48895
317.1638, 62.05614
317.6459, 61.42357
318.1281, 60.84753
318.6102, 60.61348
319.0923, 60.79535
319.5744, 61.16454
320.0565, 61.37996
320.5386, 61.51050
321.0208, 61.29677
321.5029, 60.32443
321.9850, 59.36259
322.4671, 58.98783
322.9492, 59.20228
323.4313, 59.50985
323.9135, 59.31960
324.3956, 58.48120
324.8777, 57.90941
325.3598, 57.91712
325.8419, 57.90013
326.3240, 57.56844
326.8062, 57.00079
327.2883, 56.45034
327.7704, 56.09105
328.2525, 55.92382
328.7346, 55.95597
329.2167, 56.57289
329.6989, 56.94771
330.1810, 56.78468
330.6631, 56.27996
331.1452, 55.70242
331.6273, 55.18108
332.1094, 54.73186
332.5916, 54.39968
333.0737, 54.16661
333.5558, 54.10382
334.0379, 54.29815
334.5200, 54.59924
335.0021, 54.92542
335.4843, 55.24262
335.9664, 55.43817
336.4485, 55.28025
336.9306, 54.61127
337.4127, 54.05633
337.8948, 53.66058
338.3770, 53.39864
338.8591, 53.35364
339.3412, 53.48113
339.8233, 53.55770
340.3055, 53.25499
340.7876, 52.49937
341.2697, 52.12415
341.7518, 52.42642
342.2339, 52.85161
342.7160, 53.32415
343.1982, 53.75385
343.6803, 53.97174
344.1624, 53.81134
344.6445, 53.35594
345.1266, 53.03831
345.6087, 52.99782
346.0909, 52.86548
346.5730, 52.33997
347.0551, 51.72637
347.5372, 51.44552
348.0193, 51.70573
348.5014, 52.23280
348.9836, 52.53035
349.4657, 52.53732
349.9478, 52.51421
350.4299, 52.50603
350.9120, 52.50714
351.3941, 52.56483
351.8763, 52.68144
352.3584, 52.69054
352.8405, 52.24530
353.3226, 51.31746
353.8047, 50.92982
354.2868, 51.58817
354.7690, 52.46031
355.2511, 53.15000
355.7332, 53.62154
356.2153, 53.81233
356.6974, 53.45510
357.1795, 52.74730
357.6617, 52.52590
358.1438, 53.03835
358.6259, 53.54404
359.1080, 53.51379
359.5901, 53.21988
360.0722, 53.11048
360.5544, 53.43616
361.0365, 53.90866
361.5186, 54.05940
362.0007, 53.82764
362.4828, 53.76131
362.9649, 54.31443
363.4471, 55.01628
363.9292, 55.28783
364.4113, 54.98932
364.8934, 54.62907
365.3755, 54.62373
365.8576, 54.91021
366.3398, 55.13047
366.8219, 55.16159
367.3040, 55.16698
367.7861, 55.34552
368.2682, 55.67843
368.7503, 55.97210
369.2325, 56.10327
369.7146, 56.16123
370.1967, 56.34143
370.6788, 56.69365
371.1609, 56.95568
371.6430, 56.76481
372.1252, 56.30906
372.6073, 56.22364
373.0894, 57.01476
373.5715, 57.86619
374.0536, 58.05194
374.5357, 57.67210
375.0179, 57.34038
375.5000, 57.39754
375.9821, 57.64430
376.4642, 57.57846
376.9463, 57.03495
377.4284, 56.60280
377.9106, 56.56133
378.3927, 56.76020
378.8748, 56.97143
379.3569, 57.14377
379.8390, 57.24325
380.3211, 57.17210
380.8033, 56.86348
381.2854, 56.81100
381.7675, 57.33158
382.2496, 57.91890
382.7317, 58.20626
383.2138, 58.16679
383.6960, 57.88427
384.1781, 57.33924
384.6602, 56.58139
385.1423, 56.31643
385.6244, 56.91294
386.1065, 57.48920
386.5887, 57.82191
387.0708, 57.92725
387.5529, 57.79620
388.0350, 57.41197
388.5171, 56.92696
388.9992, 56.67608
389.4814, 56.83706
389.9635, 56.98098
390.4456, 57.15056
390.9277, 57.27610
391.4098, 57.32312
391.8919, 57.27531
392.3741, 57.09180
392.8562, 56.69115
393.3383, 56.00523
393.8204, 55.62542
394.3025, 55.62333
394.7846, 55.82703
395.2668, 56.34609
395.7489, 57.01279
396.2310, 57.55291
396.7131, 57.80634
397.1952, 57.82327
397.6773, 57.77237
398.1595, 57.60633
398.6416, 57.44697
399.1237, 57.23603
399.6058, 57.08050
400.0879, 57.06799
400.5700, 57.21930
401.0522, 57.49779
401.5343, 57.91152
402.0164, 58.50428
402.4985, 58.95595
402.9806, 59.10534
403.4627, 59.24826
403.9449, 59.51231
404.4270, 59.87357
404.9091, 60.24583
405.3912, 60.55489
405.8733, 60.84732
406.3554, 61.30029
406.8376, 62.02303
407.3197, 62.63966
407.8018, 62.80231
408.2839, 62.87480
408.7660, 63.29688
409.2481, 64.24004
409.7303, 65.18893
410.2124, 65.52084
410.6945, 65.28541
411.1766, 65.29282
411.6587, 65.85222
412.1408, 66.53138
412.6230, 66.84694
413.1051, 66.86112
413.5872, 67.04921
414.0693, 67.82988
414.5514, 68.82646
415.0335, 69.36897
415.5157, 69.38089
415.9978, 69.37292
416.4799, 69.62602
416.9620, 70.12821
417.4441, 70.78208
417.9262, 71.66798
418.4084, 72.59525
418.8905, 73.56248
419.3726, 74.49001
419.8547, 75.08899
420.3368, 75.19023
420.8189, 75.16529
421.3011, 75.64832
421.7832, 76.76846
422.2653, 77.81048
422.7474, 78.69446
423.2295, 79.47340
423.7116, 80.22606
424.1938, 80.94053
424.6759, 81.49112
425.1580, 81.73830
425.6401, 81.71152
426.1222, 81.97692
426.6043, 82.87874
427.0865, 83.62469
427.5686, 83.92307
428.0507, 83.97863
428.5328, 84.09074
429.0149, 84.37317
429.4970, 84.71501
429.9792, 84.90685
430.4613, 84.79446
430.9434, 84.87666
431.4255, 85.40412
431.9076, 85.87379
432.3897, 85.91955
432.8719, 85.62851
433.3540, 85.36845
433.8361, 85.44004
434.3182, 85.79160
434.8003, 86.05030
435.2824, 86.18192
435.7646, 86.26469
436.2467, 86.28560
436.7288, 86.29008
437.2109, 86.39578
437.6930, 86.64370
438.1751, 86.75967
438.6573, 86.24670
439.1394, 85.03360
439.6215, 84.23064
440.1036, 84.40258
440.5857, 84.55096
441.0678, 83.94711
441.5500, 82.74758
442.0321, 81.58252
442.5142, 80.71574
442.9963, 80.10178
443.4784, 79.71354
443.9605, 79.58393
444.4427, 79.42824
444.9248, 79.14046
445.4069, 78.71449
445.8890, 78.15546
446.3711, 77.43427
446.8532, 76.65746
447.3354, 75.91263
447.8175, 75.15337
448.2996, 74.19959
448.7817, 72.96834
449.2638, 71.83069
449.7459, 71.26454
450.2281, 71.31387
450.7102, 71.16003
451.1923, 70.59232
451.6744, 69.97424
452.1565, 69.54229
452.6386, 69.25488
453.1208, 68.97795
453.6029, 68.65293
454.0850, 68.25076
454.5671, 67.68617
455.0492, 66.50172
455.5313, 65.79741
456.0135, 66.06312
456.4956, 66.49194
456.9777, 66.36583
457.4598, 65.64700
457.9419, 64.83286
458.4240, 64.39280
458.9062, 64.33342
459.3883, 64.27881
459.8704, 64.45491
460.3525, 64.36269
460.8346, 63.71052
461.3167, 62.79785
461.7989, 61.96576
462.2810, 61.33864
462.7631, 60.90765
463.2452, 60.72463
463.7273, 60.85614
464.2094, 60.84130
464.6916, 60.63683
465.1737, 60.23978
465.6558, 59.45567
466.1379, 58.43986
466.6200, 57.71373
467.1021, 57.71701
467.5843, 58.12490
468.0664, 58.33177
468.5485, 58.33689
469.0306, 58.13111
469.5127, 57.52635
469.9948, 56.81454
470.4770, 56.43250
470.9591, 56.41732
471.4412, 56.64920
471.9233, 57.26541
472.4054, 58.04154
472.8875, 58.55405
473.3697, 58.72272
473.8518, 58.71567
474.3339, 58.64047
474.8160, 58.50187
475.2981, 58.46286
475.7802, 58.61721
476.2624, 58.76925
476.7445, 58.78598
477.2266, 58.74503
477.7087, 58.81060
478.1908, 59.04961
478.6729, 59.36311
479.1551, 59.53972
479.6372, 59.30714
480.1193, 59.61422
480.6014, 60.98535
481.0835, 62.35268
481.5656, 63.10513
482.0478, 63.32967
482.5299, 63.39215
483.0120, 63.49903
483.4941, 63.69100
483.9762, 64.15795
484.4583, 65.11880
484.9405, 65.90523
485.4226, 66.26591
485.9047, 66.50246
486.3868, 66.80156
486.8689, 67.20295
487.3510, 67.70672
487.8332, 68.38644
488.3153, 69.18546
488.7974, 69.79147
489.2795, 70.05710
489.7616, 70.46484
490.2437, 71.43439
490.7259, 72.71118
491.2080, 73.95410
491.6901, 75.11127
492.1722, 76.19225
492.6543, 77.14366
493.1364, 78.01640
493.6186, 78.95069
494.1007, 79.98943
494.5828, 81.10313
495.0649, 82.24708
495.5470, 83.41886
496.0291, 84.75040
496.5113, 86.47382
496.9934, 88.15369
497.4755, 89.33031
497.9576, 90.26216
498.4397, 91.66991
498.9218, 93.91534
499.4040, 96.56961
499.8861, 98.61179
500.3682, 99.34946
500.8503, 100.7390
501.3324, 103.0284
501.8145, 105.6802
502.2967, 108.4368
502.7788, 111.2690
503.2609, 114.2790
503.7430, 117.6097
504.2251, 121.1130
504.7072, 124.0849
505.1894, 126.1237
505.6715, 128.5885
506.1536, 132.1699
506.6357, 136.0820
507.1178, 139.6218
507.5999, 142.7312
508.0821, 146.0537
508.5642, 150.3429
509.0463, 155.1990
509.5284, 159.3783
510.0105, 162.6521
510.4926, 165.9451
510.9748, 170.1336
511.4569, 174.6273
511.9390, 177.9522
512.4211, 179.0671
512.9032, 180.7414
513.3853, 184.9170
513.8674, 190.3929
514.3495, 195.1280
514.8317, 198.7032
515.3138, 201.5633
515.7959, 204.0665
516.2780, 206.1780
516.7601, 208.6058
517.2422, 211.6518
517.7244, 214.6335
518.2065, 217.5308
518.6886, 220.1532
519.1707, 222.2091
519.6528, 223.6057
520.1349, 224.5855
520.6171, 225.5094
521.0992, 226.4362
521.5813, 227.0727
522.0634, 227.2964
522.5455, 227.3305
523.0276, 227.3676
523.5098, 227.2528
523.9919, 226.7323
524.4740, 225.7268
524.9561, 224.1744
525.4382, 221.8392
525.9203, 218.7217
526.4025, 215.4527
526.8846, 212.1472
527.3667, 208.7949
527.8488, 205.5190
528.3309, 202.2576
528.8130, 198.4150
529.2952, 193.6302
529.7773, 188.3425
530.2594, 182.8182
530.7415, 177.1058
531.2236, 171.2839
531.7057, 165.3517
532.1879, 159.4250
532.6700, 153.6883
533.1521, 147.8511
533.6342, 142.8986
534.1163, 139.8377
534.5984, 136.8500
535.0806, 132.6003
535.5627, 127.3645
536.0448, 122.1733
536.5269, 117.6739
537.0090, 113.7087
537.4911, 109.8630
537.9733, 105.9894
538.4554, 102.5005
538.9375, 99.67732
539.4196, 97.04075
539.9017, 94.28188
540.3839, 91.41458
540.8660, 88.65689
541.3481, 86.18697
541.8302, 83.89576
542.3123, 81.52500
542.7944, 79.06158
543.2766, 76.67124
543.7587, 74.43712
544.2408, 72.30965
544.7229, 70.16917
545.2050, 67.98335
545.6871, 66.04440
546.1693, 64.52646
546.6514, 63.26978
547.1335, 62.13348
547.6156, 61.09547
548.0977, 60.13019
548.5798, 59.25501
549.0620, 58.38873
549.5441, 57.26634
550.0262, 55.29563
550.5083, 53.87408
550.9904, 53.47440
551.4725, 53.27033
551.9547, 52.53803
552.4368, 51.36583
552.9189, 50.39794
553.4010, 50.18206
553.8831, 50.47173
554.3652, 50.22388
554.8474, 49.15950
555.3295, 48.26674
555.8116, 48.18102
556.2937, 48.08891
556.7758, 47.19395
557.2579, 45.54208
557.7401, 44.19273
558.2222, 44.05700
558.7043, 44.51002
559.1864, 44.42006
559.6685, 43.75566
560.1506, 43.10627
560.6328, 42.73461
561.1149, 42.57728
561.5970, 42.54351
562.0791, 42.71958
562.5612, 42.72663
563.0433, 42.28988
563.5255, 41.81048
564.0076, 41.79660
564.4897, 42.10622
564.9718, 42.01881
565.4539, 41.01716
565.9360, 39.46875
566.4182, 38.65126
566.9003, 39.04020
567.3824, 39.26707
567.8645, 39.16909
568.3466, 38.95855
568.8287, 38.77997
569.3109, 38.61410
569.7930, 38.34064
570.2751, 37.83525
570.7572, 37.22464
571.2393, 36.77004
571.7214, 36.47765
572.2036, 36.28202
572.6857, 36.20010
573.1678, 36.17199
573.6499, 36.09329
574.1320, 35.96539
574.6141, 35.96894
575.0963, 36.30015
575.5784, 36.66576
576.0605, 36.85168
576.5426, 36.85470
577.0247, 36.69701
577.5068, 36.38300
577.9890, 35.94337
578.4711, 35.39951
578.9532, 34.53263
579.4353, 34.14555
579.9174, 34.69697
580.3995, 35.20784
580.8817, 35.14090
581.3638, 34.69371
581.8459, 34.29106
582.3280, 34.13073
582.8101, 34.11503
583.2922, 34.08949
583.7744, 34.05038
584.2565, 34.07966
584.7386, 34.32270
585.2207, 34.44014
585.7029, 34.08852
586.1850, 33.43443
586.6671, 32.89124
587.1492, 32.50396
587.6313, 32.32423
588.1135, 32.48086
588.5956, 32.86398
589.0777, 33.25352
589.5598, 33.59705
590.0419, 33.82837
