##NAMES=Pyrope
##RRUFFID=R060448
##IDEAL CHEMISTRY=Mg_3_Al_2_(SiO_4_)_3_
##LOCALITY=India
##OWNER=RRUFF
##SOURCE=Gemological Institute of America
##DESCRIPTION=Deep red water worn pebble, variety rhodolite
##STATUS=The identification of this mineral has been confirmed by X-ray diffraction and chemical analysis
##URL=rruff.info/R060448
##MEASURED CHEMISTRY=(Mg_1.47_Fe_1.27_Ca_0.21_Mn_0.05_)_Î£=3_Al_2.00_(Si_1.00_O_4_)_3_
92.37695, 52.09325
92.85907, 52.01192
93.34119, 52.13149
93.82330, 52.05773
94.30542, 51.55029
94.78754, 50.55898
95.26965, 49.23015
95.75177, 47.84864
96.23389, 46.45969
96.71600, 45.13844
97.19812, 43.98088
97.68024, 43.01198
98.16235, 42.17202
98.64447, 41.36336
99.12659, 40.52446
99.60870, 39.78554
100.0908, 39.40636
100.5729, 39.17080
101.0551, 38.86517
101.5372, 38.37366
102.0193, 37.72598
102.5014, 37.10474
102.9835, 36.26307
103.4656, 35.69143
103.9478, 35.63008
104.4299, 35.89820
104.9120, 36.16189
105.3941, 36.15175
105.8762, 35.83315
106.3583, 35.57665
106.8405, 35.34218
107.3226, 35.17223
107.8047, 35.17823
108.2868, 35.34396
108.7689, 35.42938
109.2510, 35.08999
109.7332, 34.28334
110.2153, 33.67500
110.6974, 33.47966
111.1795, 33.49881
111.6616, 33.38380
112.1437, 32.96344
112.6259, 32.62486
113.1080, 32.92161
113.5901, 33.79649
114.0722, 34.52226
114.5543, 34.50495
115.0364, 33.78732
115.5185, 33.26404
116.0007, 33.26614
116.4828, 33.42266
116.9649, 33.53413
117.4470, 33.56821
117.9291, 33.55824
118.4112, 33.52181
118.8934, 33.38977
119.3755, 33.41369
119.8576, 33.75940
120.3397, 34.17090
120.8218, 34.45801
121.3039, 34.54301
121.7861, 34.46749
122.2682, 34.35093
122.7503, 34.12969
123.2324, 33.93293
123.7145, 33.77601
124.1966, 33.64751
124.6788, 33.53368
125.1609, 33.42669
125.6430, 33.32508
126.1251, 33.21656
126.6072, 33.04911
127.0893, 32.92459
127.5715, 32.91340
128.0536, 32.99677
128.5357, 33.07222
129.0178, 33.04141
129.4999, 32.93687
129.9821, 32.94473
130.4642, 33.24088
130.9463, 33.56382
131.4284, 33.61011
131.9105, 33.32312
132.3926, 32.97612
132.8748, 32.72761
133.3569, 32.56437
133.8390, 32.49576
134.3211, 32.55107
134.8032, 32.70770
135.2853, 32.89684
135.7674, 33.15594
136.2496, 33.39494
136.7317, 33.55564
137.2138, 33.66039
137.6959, 33.76545
138.1780, 33.93221
138.6601, 34.17347
139.1423, 34.34108
139.6244, 34.36671
140.1065, 34.37268
140.5886, 34.37860
141.0707, 34.40046
141.5528, 34.46955
142.0350, 34.65563
142.5171, 35.12471
142.9992, 35.24491
143.4813, 34.66850
143.9634, 34.04668
144.4455, 33.88374
144.9277, 34.27914
145.4098, 34.87104
145.8919, 35.06276
146.3740, 34.54068
146.8561, 34.17236
147.3382, 34.06727
147.8204, 34.10725
148.3025, 34.11499
148.7846, 34.00674
149.2667, 33.92419
149.7488, 34.29140
150.2309, 35.34368
150.7131, 36.02753
151.1952, 35.70892
151.6773, 34.66032
152.1594, 33.73648
152.6415, 33.23748
153.1236, 33.05838
153.6058, 32.96276
154.0879, 32.95998
154.5700, 33.01292
155.0521, 33.12579
155.5342, 33.30346
156.0163, 33.42593
156.4985, 33.40811
156.9806, 33.33015
157.4627, 33.24520
157.9448, 33.16254
158.4269, 33.08767
158.9090, 33.03405
159.3912, 33.01769
159.8733, 32.98113
160.3554, 32.87939
160.8375, 32.76765
161.3196, 32.70708
161.8017, 32.72914
162.2839, 32.79015
162.7660, 32.75660
163.2481, 32.54018
163.7302, 32.33997
164.2123, 32.11105
164.6944, 31.93268
165.1766, 31.95367
165.6587, 32.27897
166.1408, 32.81616
166.6229, 32.94736
167.1050, 32.19343
167.5871, 31.55659
168.0693, 31.19039
168.5514, 31.09089
169.0335, 31.24468
169.5156, 31.67352
169.9977, 32.35490
170.4798, 32.86485
170.9620, 33.08268
171.4441, 33.28327
171.9262, 33.57537
172.4083, 33.95596
172.8904, 34.39307
173.3725, 34.88788
173.8547, 35.42184
174.3368, 35.87280
174.8189, 36.10689
175.3010, 36.35302
175.7831, 36.91270
176.2652, 37.81226
176.7474, 38.53463
177.2295, 38.52486
177.7116, 38.03679
178.1937, 37.68330
178.6758, 37.77260
179.1579, 38.00259
179.6401, 37.89228
180.1222, 37.34449
180.6043, 36.73656
181.0864, 36.25688
181.5685, 35.88294
182.0506, 35.60732
182.5328, 35.49172
183.0149, 35.46533
183.4970, 35.29837
183.9791, 34.92772
184.4612, 34.50105
184.9433, 34.06043
185.4255, 33.62124
185.9076, 33.18761
186.3897, 32.69928
186.8718, 32.19294
187.3539, 32.09339
187.8360, 32.94275
188.3182, 33.64839
188.8003, 33.83188
189.2824, 33.62584
189.7645, 33.32526
190.2466, 33.14780
190.7287, 33.09515
191.2109, 33.11382
191.6930, 33.29637
192.1751, 33.46096
192.6572, 33.47556
193.1393, 33.40771
193.6214, 33.45129
194.1036, 33.80467
194.5857, 34.54054
195.0678, 34.99154
195.5499, 34.86764
196.0320, 34.78816
196.5141, 35.10862
196.9963, 35.78201
197.4784, 36.49419
197.9605, 36.94186
198.4426, 37.07373
198.9247, 37.32716
199.4068, 37.83756
199.8890, 38.35457
200.3711, 38.67931
200.8532, 38.80917
201.3353, 38.92949
201.8174, 39.23091
202.2995, 39.72635
202.7817, 40.11965
203.2638, 40.30039
203.7459, 40.43244
204.2280, 40.66236
204.7101, 41.00802
205.1922, 41.42080
205.6744, 41.91417
206.1565, 42.45989
206.6386, 42.90252
207.1207, 43.17952
207.6028, 43.34905
208.0849, 43.49481
208.5671, 43.63326
209.0492, 43.70864
209.5313, 43.68168
210.0134, 43.56342
210.4955, 43.34605
210.9776, 42.98771
211.4598, 42.53222
211.9419, 42.06243
212.4240, 41.55991
212.9061, 41.09159
213.3882, 40.80939
213.8703, 40.58516
214.3525, 40.15757
214.8346, 39.25437
215.3167, 38.04563
215.7988, 37.20172
216.2809, 36.97311
216.7630, 36.73187
217.2451, 36.09167
217.7273, 35.26269
218.2094, 34.61995
218.6915, 34.44155
219.1736, 34.63861
219.6557, 34.67889
220.1378, 34.46407
220.6200, 34.19503
221.1021, 33.98473
221.5842, 33.76295
222.0663, 33.38218
222.5484, 32.70033
223.0305, 31.77482
223.5127, 31.16316
223.9948, 31.21190
224.4769, 31.24114
224.9590, 30.99374
225.4411, 30.63799
225.9232, 30.50806
226.4054, 30.86463
226.8875, 31.63807
227.3696, 32.01778
227.8517, 31.68258
228.3338, 31.27110
228.8159, 30.80063
229.2981, 30.35493
229.7802, 30.05779
230.2623, 29.99368
230.7444, 30.14561
231.2265, 30.32631
231.7086, 30.66936
232.1908, 30.89564
232.6729, 30.90510
233.1550, 30.74664
233.6371, 30.49609
234.1192, 30.18049
234.6013, 29.82801
235.0835, 29.66513
235.5656, 29.76578
236.0477, 29.93052
236.5298, 30.18391
237.0119, 30.45976
237.4940, 30.62127
237.9762, 30.58417
238.4583, 30.37998
238.9404, 30.15713
239.4225, 29.73328
239.9046, 29.48762
240.3867, 29.63631
240.8689, 30.06957
241.3510, 30.55234
241.8331, 31.02083
242.3152, 31.39894
242.7973, 31.45794
243.2794, 30.98541
243.7616, 30.58666
244.2437, 30.65770
244.7258, 31.03364
245.2079, 31.16315
245.6900, 30.68761
246.1721, 30.00011
246.6543, 29.93435
247.1364, 30.70578
247.6185, 31.43978
248.1006, 31.65373
248.5827, 31.45876
249.0648, 31.25480
249.5470, 31.17659
250.0291, 31.14323
250.5112, 31.02043
250.9933, 30.78979
251.4754, 30.58524
251.9576, 30.47252
252.4397, 30.44560
252.9218, 30.48989
253.4039, 30.65953
253.8860, 30.82513
254.3681, 30.83531
254.8503, 30.69128
255.3324, 30.53907
255.8145, 30.46329
256.2966, 30.45444
256.7787, 30.47138
257.2608, 30.53636
257.7430, 30.58603
258.2251, 30.55458
258.7072, 30.45477
259.1893, 30.37058
259.6714, 30.34136
260.1535, 30.36801
260.6357, 30.47010
261.1178, 30.72359
261.5999, 30.95231
262.0820, 31.06311
262.5641, 31.06755
263.0462, 31.00283
263.5284, 30.85900
264.0105, 30.65340
264.4926, 30.48500
264.9747, 30.35990
265.4568, 30.26975
265.9389, 30.17832
266.4211, 30.11236
266.9032, 30.13283
267.3853, 30.31515
267.8674, 30.60980
268.3495, 30.79531
268.8316, 30.80195
269.3138, 30.79884
269.7959, 30.92867
270.2780, 31.07731
270.7601, 31.03967
271.2422, 30.64105
271.7243, 30.04979
272.2065, 29.86109
272.6886, 30.33988
273.1707, 30.79255
273.6528, 31.06507
274.1349, 31.19998
274.6170, 31.21386
275.0992, 31.10014
275.5813, 30.93609
276.0634, 30.92659
276.5455, 31.17610
277.0276, 31.38849
277.5097, 31.50759
277.9919, 31.57293
278.4740, 31.61139
278.9561, 31.63336
279.4382, 31.65217
279.9203, 31.71192
280.4024, 31.90017
280.8846, 31.93127
281.3667, 31.56940
281.8488, 31.19774
282.3309, 31.18585
282.8130, 31.59170
283.2951, 32.08217
283.7773, 32.09636
284.2594, 31.27400
284.7415, 30.88352
285.2236, 31.22151
285.7057, 31.73081
286.1878, 32.15957
286.6700, 32.43691
287.1521, 32.56498
287.6342, 32.51365
288.1163, 32.20771
288.5984, 32.02030
289.0805, 32.11595
289.5627, 32.17486
290.0448, 31.95987
290.5269, 31.54383
291.0090, 31.22158
291.4911, 31.29920
291.9732, 31.82731
292.4554, 32.10279
292.9375, 31.81193
293.4196, 31.58532
293.9017, 31.68664
294.3838, 32.01744
294.8659, 32.32545
295.3481, 32.42037
295.8302, 32.32699
296.3123, 32.37604
296.7944, 32.79819
297.2765, 33.12062
297.7586, 33.10876
298.2408, 32.96657
298.7229, 33.05390
299.2050, 33.58687
299.6871, 34.38762
300.1692, 34.75806
300.6513, 34.05137
301.1335, 33.68196
301.6156, 33.94487
302.0977, 34.52932
302.5798, 35.15751
303.0619, 35.71025
303.5440, 36.14399
304.0262, 36.35893
304.5083, 36.13729
304.9904, 36.01068
305.4725, 35.96951
305.9546, 36.02650
306.4367, 36.25251
306.9189, 36.63782
307.4010, 37.02678
307.8831, 37.17096
308.3652, 36.85518
308.8473, 36.87273
309.3294, 37.30756
309.8116, 37.94390
310.2937, 38.72411
310.7758, 39.59930
311.2579, 40.48652
311.7400, 41.31845
312.2221, 42.13032
312.7043, 42.65544
313.1864, 42.60761
313.6685, 42.59937
314.1506, 42.86764
314.6327, 43.37926
315.1148, 44.03742
315.5970, 44.80847
316.0791, 45.65694
316.5612, 46.07918
317.0433, 45.48403
317.5254, 45.12283
318.0075, 45.48723
318.4897, 46.20388
318.9718, 46.68642
319.4539, 46.62780
319.9360, 46.18745
320.4181, 45.86776
320.9002, 45.55322
321.3824, 45.54615
321.8645, 46.01551
322.3466, 46.71636
322.8287, 47.49342
323.3108, 48.26863
323.7929, 48.93084
324.2751, 49.23305
324.7572, 48.70214
325.2393, 48.75206
325.7214, 49.64614
326.2035, 50.83677
326.6856, 51.99527
327.1678, 53.06097
327.6499, 54.14000
328.1320, 55.36409
328.6141, 56.78148
329.0962, 58.11608
329.5783, 59.16505
330.0605, 60.33413
330.5426, 61.87392
331.0247, 63.69475
331.5068, 65.50006
331.9889, 67.04169
332.4710, 68.35441
332.9532, 70.00630
333.4353, 72.52565
333.9174, 74.84010
334.3995, 76.50941
334.8816, 77.89876
335.3637, 79.57545
335.8459, 81.82296
336.3280, 84.42259
336.8101, 86.65813
337.2922, 88.31557
337.7743, 89.90672
338.2564, 91.52177
338.7386, 93.07669
339.2206, 94.37512
339.7028, 95.41160
340.1849, 96.49843
340.6670, 98.17379
341.1491, 100.7895
341.6312, 103.1065
342.1133, 104.7311
342.5955, 106.4098
343.0776, 108.6108
343.5597, 111.2996
344.0418, 114.0922
344.5239, 116.5671
345.0060, 118.6755
345.4882, 121.3262
345.9703, 124.8506
346.4524, 128.6520
346.9345, 132.6590
347.4166, 136.8290
347.8987, 141.1175
348.3809, 145.4660
348.8630, 149.9255
349.3451, 154.6358
349.8272, 159.8840
350.3093, 165.0153
350.7914, 170.0430
351.2736, 174.8504
351.7557, 179.4786
352.2378, 183.9452
352.7199, 187.7447
353.2020, 189.8534
353.6841, 189.7408
354.1663, 189.5228
354.6484, 190.3356
355.1305, 190.4303
355.6126, 188.6817
356.0947, 185.0534
356.5768, 180.3101
357.0590, 175.0338
357.5411, 169.2501
358.0232, 163.1059
358.5053, 156.2154
358.9874, 149.3997
359.4695, 142.9135
359.9517, 136.7768
360.4338, 131.0211
360.9159, 125.6679
361.3980, 120.7100
361.8801, 116.0101
362.3622, 111.4671
362.8444, 107.4898
363.3265, 104.4210
363.8086, 101.8437
364.2907, 99.35915
364.7728, 96.83559
365.2549, 94.37973
365.7371, 92.07291
366.2192, 89.88530
366.7013, 88.04513
367.1834, 86.82091
367.6655, 85.81051
368.1476, 84.74710
368.6298, 83.61019
369.1119, 82.46214
369.5940, 81.25612
370.0761, 80.05099
370.5582, 79.19830
371.0403, 78.92222
371.5225, 78.64690
372.0046, 78.08727
372.4867, 77.24477
372.9688, 76.05575
373.4509, 74.25468
373.9330, 72.24744
374.4152, 70.68901
374.8973, 69.63933
375.3794, 68.58936
375.8615, 67.38895
376.3436, 65.98533
376.8257, 64.25330
377.3079, 62.03053
377.7900, 59.84776
378.2721, 58.09151
378.7542, 56.70161
379.2363, 55.45907
379.7184, 54.38771
380.2006, 53.29058
380.6827, 51.85961
381.1648, 50.11155
381.6469, 48.40210
382.1290, 46.77326
382.6111, 45.26942
383.0933, 44.01380
383.5754, 43.02603
384.0575, 42.06013
384.5396, 40.86097
385.0217, 39.48656
385.5038, 38.32883
385.9860, 37.55118
386.4681, 36.86169
386.9502, 36.08815
387.4323, 35.25653
387.9144, 34.45834
388.3965, 33.74844
388.8787, 33.08722
389.3608, 32.36097
389.8429, 31.49090
390.3250, 30.71964
390.8071, 30.18108
391.2892, 29.73075
391.7714, 29.15198
392.2535, 28.40504
392.7356, 27.69549
393.2177, 27.29761
393.6998, 27.31599
394.1819, 27.12252
394.6641, 26.52674
395.1462, 25.90871
395.6283, 25.46181
396.1104, 25.17733
396.5925, 24.99561
397.0746, 24.89159
397.5568, 24.83661
398.0389, 24.66167
398.5210, 24.20140
399.0031, 23.82045
399.4852, 23.65341
399.9673, 23.54191
400.4495, 23.25589
400.9316, 22.74120
401.4137, 22.21371
401.8958, 22.03360
402.3779, 22.40003
402.8600, 22.57319
403.3422, 22.46228
403.8243, 22.26904
404.3064, 22.03693
404.7885, 21.80558
405.2706, 21.64158
405.7527, 21.60579
406.2349, 21.68101
406.7170, 21.74883
407.1991, 21.95425
407.6812, 21.92335
408.1633, 21.29735
408.6454, 20.53068
409.1276, 20.17749
409.6097, 20.44595
410.0918, 20.95786
410.5739, 21.15133
411.0560, 20.96697
411.5381, 20.77795
412.0203, 20.63956
412.5024, 20.51030
412.9845, 20.34386
413.4666, 20.15623
413.9487, 20.02324
414.4308, 20.05950
414.9130, 20.20048
415.3951, 20.16846
415.8772, 19.87017
416.3593, 19.62842
416.8414, 19.78134
417.3235, 20.05436
417.8057, 20.02368
418.2878, 19.43867
418.7699, 18.82577
419.2520, 18.79249
419.7341, 19.26968
420.2162, 19.58894
420.6984, 19.53803
421.1805, 19.25504
421.6626, 18.83540
422.1447, 18.26693
422.6268, 17.90560
423.1089, 18.01956
423.5911, 18.35207
424.0732, 18.57309
424.5553, 18.64657
425.0374, 18.62996
425.5195, 18.52237
426.0016, 18.35427
426.4838, 18.31587
426.9659, 18.59071
427.4480, 18.79830
427.9301, 18.73516
428.4122, 18.48141
428.8943, 18.15038
429.3765, 17.76292
429.8586, 17.47190
430.3407, 17.57562
430.8228, 18.39751
431.3049, 18.90756
431.7870, 19.00164
432.2692, 18.85306
432.7513, 18.45410
433.2334, 17.89420
433.7155, 17.43314
434.1976, 17.29256
434.6797, 17.45004
435.1619, 17.58100
435.6440, 17.59244
436.1261, 17.68673
436.6082, 17.98544
437.0903, 18.34717
437.5724, 18.64082
438.0546, 18.81247
438.5367, 18.83662
439.0188, 18.59698
439.5009, 17.89864
439.9830, 17.57095
440.4651, 18.03063
440.9473, 18.51124
441.4294, 18.67018
441.9115, 18.55004
442.3936, 18.34390
442.8757, 18.13885
443.3578, 17.96815
443.8400, 17.99755
444.3221, 18.36778
444.8042, 18.58426
445.2863, 18.21127
445.7684, 17.74059
446.2505, 17.71188
446.7327, 18.26419
447.2148, 18.80375
447.6969, 18.71683
448.1790, 18.12510
448.6611, 17.70805
449.1432, 17.59781
449.6254, 17.62235
450.1075, 17.71007
450.5896, 17.82450
451.0717, 17.83539
451.5538, 17.53556
452.0359, 17.24141
452.5181, 17.30939
453.0002, 17.69408
453.4823, 18.09096
453.9644, 18.39748
454.4465, 18.59167
454.9286, 18.57290
455.4108, 18.23383
455.8929, 18.04074
456.3750, 18.24406
456.8571, 18.56804
457.3392, 18.68817
457.8214, 18.57074
458.3035, 18.42365
458.7856, 18.42825
459.2677, 18.58638
459.7498, 18.75606
460.2319, 19.00090
460.7141, 19.18347
461.1962, 19.21341
461.6783, 19.17394
462.1604, 19.20691
462.6425, 19.36202
463.1246, 19.52650
463.6068, 19.46906
464.0889, 18.99751
464.5710, 18.82088
465.0531, 19.29227
465.5352, 19.71251
466.0173, 19.68026
466.4995, 19.31012
466.9816, 18.95288
467.4637, 18.81660
467.9458, 18.87905
468.4279, 19.09900
468.9100, 19.55933
469.3922, 19.96417
469.8743, 20.18389
470.3564, 20.34098
470.8385, 20.54831
471.3206, 20.82067
471.8027, 21.03842
472.2849, 21.04226
472.7670, 20.90522
473.2491, 20.91001
473.7312, 21.10111
474.2133, 21.37900
474.6954, 21.72335
475.1776, 22.10041
475.6597, 22.42376
476.1418, 22.63782
476.6239, 22.84433
477.1060, 23.18117
477.5881, 23.57292
478.0703, 23.74668
478.5524, 23.56135
479.0345, 23.31409
479.5166, 23.45748
479.9987, 24.09393
480.4808, 24.66275
480.9630, 25.05789
481.4451, 25.44061
481.9272, 25.97706
482.4093, 26.60696
482.8914, 27.12670
483.3735, 27.41598
483.8557, 27.50714
484.3378, 27.52094
484.8199, 27.52630
485.3020, 27.33636
485.7841, 26.79759
486.2662, 26.17336
486.7484, 25.64746
487.2305, 25.24874
487.7126, 24.91740
488.1947, 24.57690
488.6768, 24.23921
489.1589, 24.10990
489.6411, 24.37714
490.1232, 24.55404
490.6053, 24.35892
491.0874, 24.06283
491.5695, 23.98549
492.0516, 24.22255
492.5338, 24.58806
493.0159, 24.94053
493.4980, 25.27237
493.9801, 25.48895
494.4622, 25.53696
494.9443, 25.54283
495.4265, 25.49315
495.9086, 25.46627
496.3907, 25.73413
496.8728, 26.56931
497.3549, 27.54073
497.8370, 28.17571
498.3192, 28.61126
498.8013, 29.42194
499.2834, 30.89215
499.7655, 32.63895
500.2476, 34.03454
500.7297, 34.94353
501.2119, 35.99110
501.6940, 37.37801
502.1761, 38.78052
502.6582, 40.08306
503.1403, 41.21189
503.6224, 42.06467
504.1045, 42.58397
504.5866, 42.75492
505.0688, 42.51905
505.5509, 41.66852
506.0330, 40.70592
506.5151, 39.68427
506.9972, 38.55426
507.4793, 37.22748
507.9615, 35.73413
508.4436, 34.21852
508.9257, 32.77033
509.4078, 31.39747
509.8899, 30.19990
510.3720, 29.17279
510.8542, 28.32908
511.3363, 27.81247
511.8184, 27.40488
512.3005, 26.85086
512.7827, 26.08257
513.2648, 25.41353
513.7469, 25.15778
514.2290, 25.18380
514.7111, 25.11234
515.1932, 24.89405
515.6754, 24.57885
516.1575, 24.12362
516.6396, 23.59589
517.1217, 23.29059
517.6038, 23.33407
518.0859, 23.46802
518.5681, 23.68742
519.0502, 23.89205
519.5323, 23.85905
520.0144, 23.53038
520.4965, 23.14495
520.9786, 22.99873
521.4608, 23.13776
521.9429, 23.24090
522.4250, 23.22207
522.9071, 23.26747
523.3892, 23.51869
523.8713, 23.85529
524.3535, 24.10251
524.8356, 24.18711
525.3177, 24.14850
525.7998, 24.02499
526.2819, 23.78989
526.7640, 23.60221
527.2462, 23.45029
527.7283, 23.37707
528.2104, 23.45503
528.6925, 23.62248
529.1746, 23.73197
529.6567, 23.68021
530.1389, 23.60729
530.6210, 23.72930
531.1031, 24.03352
531.5852, 24.28623
532.0673, 24.38817
532.5494, 24.46379
533.0316, 24.66523
533.5137, 24.98137
533.9958, 25.35379
534.4779, 25.82898
534.9600, 26.30727
535.4421, 26.73858
535.9243, 27.11030
536.4064, 27.37851
536.8885, 27.50539
537.3706, 27.59357
537.8527, 27.85813
538.3348, 28.38058
538.8170, 28.93709
539.2991, 29.54372
539.7812, 30.16459
540.2633, 30.79191
540.7454, 31.41905
541.2275, 32.03069
541.7097, 32.60793
542.1918, 33.19489
542.6739, 33.87998
543.1560, 34.62063
543.6381, 35.61391
544.1202, 37.30182
544.6024, 38.92205
545.0845, 39.86302
545.5666, 40.23504
546.0487, 40.70172
546.5308, 41.69651
547.0129, 42.96006
547.4951, 44.02663
547.9772, 44.90788
548.4593, 45.99578
548.9414, 47.47282
549.4235, 49.21310
549.9056, 51.01429
550.3878, 52.87288
550.8699, 54.75099
551.3520, 56.47571
551.8341, 58.32999
552.3162, 60.55687
552.7983, 63.13339
553.2805, 65.95145
553.7626, 68.99045
554.2447, 72.11662
554.7268, 74.97231
555.2089, 77.62080
555.6910, 79.84384
556.1732, 81.31687
556.6553, 82.70518
557.1374, 84.77184
557.6195, 87.17503
558.1016, 88.84470
558.5837, 89.15549
559.0659, 88.25581
559.5480, 86.30244
560.0301, 83.14651
560.5122, 79.86789
560.9943, 76.83266
561.4764, 73.72887
561.9586, 70.21610
562.4407, 66.32606
562.9228, 62.45989
563.4049, 58.69217
563.8870, 55.06878
564.3691, 51.61155
564.8513, 48.34724
565.3334, 45.40606
565.8155, 42.85744
566.2976, 40.63920
566.7797, 38.64345
567.2618, 37.02878
567.7440, 35.28441
568.2261, 33.10174
568.7082, 31.08660
569.1903, 29.57779
569.6724, 28.52604
570.1545, 27.76212
570.6367, 27.21549
571.1188, 26.77684
571.6009, 26.21294
572.0830, 25.47492
572.5651, 24.77645
573.0472, 24.07515
573.5294, 23.49104
574.0115, 23.14816
574.4936, 22.97247
574.9757, 22.77191
575.4578, 22.50271
575.9399, 22.12692
576.4221, 21.45867
576.9042, 20.58921
577.3863, 20.07054
577.8684, 20.11666
578.3505, 20.40054
578.8326, 20.60050
579.3148, 20.71403
579.7969, 20.64816
580.2790, 20.18874
580.7611, 19.76949
581.2432, 19.59598
581.7253, 19.60473
582.2075, 19.70108
582.6896, 19.84563
583.1717, 19.99625
583.6538, 20.09932
584.1359, 20.15665
584.6180, 20.15026
585.1002, 19.98238
585.5823, 19.86779
586.0643, 19.89491
586.5464, 20.00374
587.0286, 20.13165
587.5107, 20.26583
587.9928, 20.35585
588.4749, 20.33162
