##NAMES=Pyrosmalite-(Fe)
##RRUFFID=R050158
##IDEAL CHEMISTRY=Fe^2+^_8_Si_6_O_15_(OH)_10_
##LOCALITY=Burguillos del Cerro, Badajos, Spain
##OWNER=RRUFF
##SOURCE=Jim McGlasson
##DESCRIPTION=Green subhedral crystal aggregate
##STATUS=The identification of this mineral has been confirmed by X-ray diffraction and chemical analysis
##URL=rruff.info/R050158
##MEASURED CHEMISTRY=(Fe^2+^_0.92_Mn^2+^_0.06_Mg_0.02_)_8_Si_6_O_15_(OH_0.83_Cl_0.17_)_10_
93.46680, 166.3957
93.94891, 164.1739
94.43103, 164.6155
94.91315, 166.5925
95.39526, 168.1437
95.87738, 168.8978
96.35950, 169.1804
96.84161, 169.0547
97.32373, 168.3957
97.80585, 167.5914
98.28796, 167.2413
98.77008, 167.6287
99.25220, 168.1306
99.73431, 167.7445
100.2164, 166.0051
100.6985, 164.3043
101.1807, 163.4250
101.6628, 163.2298
102.1449, 163.6189
102.6270, 164.5864
103.1091, 165.9972
103.5912, 167.0894
104.0734, 167.5286
104.5555, 167.9457
105.0376, 168.3193
105.5197, 168.7388
106.0018, 169.3391
106.4839, 170.2302
106.9661, 171.4390
107.4482, 172.8406
107.9303, 174.6304
108.4124, 176.3716
108.8945, 177.7673
109.3766, 178.7915
109.8588, 179.6789
110.3409, 180.6567
110.8230, 181.7090
111.3051, 182.9726
111.7872, 184.6504
112.2693, 186.5052
112.7515, 188.1950
113.2336, 189.6164
113.7157, 190.8505
114.1978, 192.0312
114.6799, 193.1629
115.1620, 194.1550
115.6442, 194.9957
116.1263, 195.6812
116.6084, 196.0356
117.0905, 195.7464
117.5726, 195.2690
118.0547, 194.7773
118.5369, 194.3018
119.0190, 194.0631
119.5011, 194.5015
119.9832, 196.0911
120.4653, 197.2067
120.9474, 197.4234
121.4296, 197.2435
121.9117, 196.9782
122.3938, 196.7616
122.8759, 196.6690
123.3580, 196.9553
123.8401, 198.4837
124.3223, 199.4694
124.8044, 199.1883
125.2865, 198.3261
125.7686, 197.9527
126.2507, 198.7747
126.7328, 200.6923
127.2150, 202.2171
127.6971, 203.1840
128.1792, 204.0330
128.6613, 204.7444
129.1434, 205.4133
129.6255, 206.4549
130.1077, 208.3385
130.5898, 210.9941
131.0719, 213.3461
131.5540, 215.1054
132.0361, 216.6891
132.5182, 218.5486
133.0004, 220.7464
133.4825, 223.0681
133.9646, 225.3126
134.4467, 227.5482
134.9288, 229.9062
135.4109, 232.4924
135.8931, 235.2498
136.3752, 238.0452
136.8573, 240.9867
137.3394, 243.7966
137.8215, 246.1445
138.3036, 248.1972
138.7858, 250.4264
139.2679, 253.4557
139.7500, 257.4735
140.2321, 260.7668
140.7142, 262.8710
141.1963, 264.5945
141.6785, 266.1008
142.1606, 267.4811
142.6427, 268.8929
143.1248, 270.6781
143.6069, 273.6502
144.0890, 274.9701
144.5712, 274.0285
145.0533, 272.1862
145.5354, 270.1967
146.0175, 268.3246
146.4996, 266.5543
146.9817, 264.8835
147.4639, 263.7126
147.9460, 261.9491
148.4281, 258.7637
148.9102, 255.1824
149.3923, 252.5905
149.8744, 251.5981
150.3566, 251.5502
150.8387, 250.8735
151.3208, 249.2157
151.8029, 247.9098
152.2850, 247.6444
152.7671, 248.1702
153.2493, 248.6850
153.7314, 248.8389
154.2135, 248.8286
154.6956, 248.9987
155.1777, 249.3596
155.6598, 249.8705
156.1420, 250.4622
156.6241, 251.1219
157.1062, 252.0226
157.5883, 253.3937
158.0704, 254.9762
158.5525, 256.6620
159.0347, 258.5243
159.5168, 260.1951
159.9989, 260.8954
160.4810, 259.9583
160.9631, 259.7159
161.4452, 261.3721
161.9274, 263.7096
162.4095, 265.6494
162.8916, 266.6983
163.3737, 267.0223
163.8558, 267.1354
164.3379, 266.8852
164.8201, 266.6057
165.3022, 266.0579
165.7843, 265.5844
166.2664, 265.7007
166.7485, 266.7645
167.2306, 268.6157
167.7128, 269.9072
168.1949, 270.0806
168.6770, 270.2968
169.1591, 270.8000
169.6412, 271.5433
170.1233, 272.4092
170.6055, 273.3374
171.0876, 274.3255
171.5697, 275.0996
172.0518, 275.3921
172.5339, 275.7622
173.0160, 276.3846
173.4982, 277.2873
173.9803, 278.5494
174.4624, 280.3309
174.9445, 282.6030
175.4266, 284.6222
175.9087, 286.2700
176.3909, 287.7601
176.8730, 289.1899
177.3551, 290.5641
177.8372, 292.0509
178.3193, 293.8834
178.8014, 295.9529
179.2836, 297.8822
179.7657, 299.6136
180.2478, 301.1581
180.7299, 302.5103
181.2120, 303.6100
181.6941, 304.6693
182.1763, 306.0513
182.6584, 307.5029
183.1405, 308.4875
183.6226, 308.5527
184.1047, 307.9561
184.5868, 307.6869
185.0690, 308.5038
185.5511, 308.3970
186.0332, 306.1986
186.5153, 302.5667
186.9974, 298.7487
187.4795, 295.6573
187.9617, 293.2026
188.4438, 290.1925
188.9259, 286.4132
189.4080, 282.1996
189.8901, 277.4040
190.3722, 272.2507
190.8544, 267.1834
191.3365, 262.6695
191.8186, 258.7671
192.3007, 254.3078
192.7828, 248.6956
193.2649, 243.0657
193.7471, 237.8823
194.2292, 233.0676
194.7113, 228.2201
195.1934, 222.9778
195.6755, 217.2024
196.1576, 211.7828
196.6398, 206.9557
197.1219, 202.1795
197.6040, 197.0324
198.0861, 191.6120
198.5682, 186.3936
199.0503, 181.8894
199.5325, 178.2412
200.0146, 174.6838
200.4967, 171.3016
200.9788, 167.9382
201.4609, 164.4614
201.9430, 160.8604
202.4252, 157.2542
202.9073, 153.6461
203.3894, 150.0289
203.8715, 147.0246
204.3536, 145.0516
204.8357, 143.4818
205.3179, 141.7914
205.8000, 139.9109
206.2821, 137.8679
206.7642, 135.5515
207.2463, 133.0192
207.7284, 130.7023
208.2106, 128.5954
208.6927, 126.7837
209.1748, 125.4618
209.6569, 124.7252
210.1390, 124.1756
210.6211, 123.5579
211.1033, 122.8736
211.5854, 122.0943
212.0675, 121.2539
212.5496, 120.3044
213.0317, 119.0203
213.5138, 117.1141
213.9960, 115.4877
214.4781, 114.8314
214.9602, 114.8388
215.4423, 114.9225
215.9244, 114.8100
216.4065, 114.5363
216.8886, 114.2080
217.3708, 113.6777
217.8529, 113.3335
218.3350, 113.3882
218.8171, 113.7217
219.2992, 114.1230
219.7813, 114.5205
220.2635, 114.8862
220.7456, 114.9843
221.2277, 114.3853
221.7098, 114.0490
222.1919, 114.4831
222.6740, 115.3668
223.1562, 116.1283
223.6383, 116.3347
224.1204, 116.0479
224.6025, 116.0297
225.0846, 116.4009
225.5667, 116.9555
226.0489, 117.8942
226.5310, 118.9711
227.0131, 119.7607
227.4952, 119.9446
227.9773, 119.5653
228.4594, 119.3200
228.9416, 118.8844
229.4237, 118.9334
229.9058, 119.9815
230.3879, 121.6233
230.8700, 123.1309
231.3521, 124.0157
231.8343, 124.3143
232.3164, 124.5844
232.7985, 124.6242
233.2806, 124.8488
233.7627, 125.3673
234.2448, 126.1554
234.7270, 127.1681
235.2091, 128.3930
235.6912, 129.8094
236.1733, 131.2266
236.6554, 132.5468
237.1375, 133.9791
237.6197, 135.8068
238.1018, 137.8058
238.5839, 139.4419
239.0660, 140.3306
239.5481, 140.6613
240.0302, 141.5118
240.5124, 143.0046
240.9945, 144.7512
241.4766, 146.7396
241.9587, 148.8882
242.4408, 150.9919
242.9229, 152.9531
243.4051, 154.7857
243.8872, 156.5502
244.3693, 158.0600
244.8514, 159.7600
245.3335, 162.0606
245.8156, 164.7375
246.2978, 167.0809
246.7799, 168.7156
247.2620, 169.8877
247.7441, 171.1658
248.2262, 172.5244
248.7083, 174.0116
249.1905, 175.7899
249.6726, 177.7491
250.1547, 179.4854
250.6368, 180.7707
251.1189, 181.8651
251.6010, 183.2392
252.0832, 184.9881
252.5653, 186.5819
253.0474, 187.6150
253.5295, 188.2084
254.0116, 188.9984
254.4937, 190.4160
254.9759, 191.7500
255.4580, 192.1561
255.9401, 191.6165
256.4222, 190.9183
256.9043, 190.6436
257.3864, 190.6656
257.8686, 190.2544
258.3507, 188.9049
258.8328, 187.5630
259.3149, 187.2200
259.7970, 187.7516
260.2791, 188.0968
260.7613, 187.3876
261.2434, 185.8318
261.7255, 184.6673
262.2076, 184.4736
262.6897, 184.0794
263.1718, 182.6865
263.6540, 180.4681
264.1361, 178.0459
264.6182, 175.6093
265.1003, 173.2352
265.5824, 171.4254
266.0645, 170.8011
266.5467, 169.8762
267.0288, 167.8324
267.5109, 164.9666
267.9930, 161.9215
268.4751, 158.9315
268.9572, 156.0732
269.4394, 153.7134
269.9215, 152.1630
270.4036, 150.6709
270.8857, 149.0444
271.3678, 147.2595
271.8499, 145.2784
272.3321, 143.0714
272.8142, 140.6612
273.2963, 138.0836
273.7784, 134.9682
274.2605, 132.3691
274.7426, 130.7159
275.2248, 129.6029
275.7069, 128.5990
276.1890, 127.5110
276.6711, 126.3698
277.1532, 125.2528
277.6353, 124.1132
278.1175, 123.0907
278.5996, 122.1540
279.0817, 121.3483
279.5638, 120.7262
280.0459, 120.3045
280.5280, 120.0412
281.0102, 119.8262
281.4923, 119.5349
281.9744, 119.5900
282.4565, 120.1824
282.9386, 120.9833
283.4207, 121.7886
283.9029, 122.5310
284.3850, 123.2082
284.8671, 123.7681
285.3492, 124.0380
285.8313, 124.6372
286.3134, 125.6743
286.7956, 126.9279
287.2777, 128.3622
287.7598, 129.9168
288.2419, 131.4548
288.7240, 132.8315
289.2061, 134.0285
289.6883, 135.0815
290.1704, 135.8004
290.6525, 136.5483
291.1346, 137.4084
291.6167, 138.4386
292.0988, 139.7158
292.5810, 141.3165
293.0631, 143.2451
293.5452, 145.4161
294.0273, 148.4129
294.5094, 151.0811
294.9915, 152.9623
295.4737, 154.1956
295.9558, 155.0495
296.4379, 155.6061
296.9200, 155.9499
297.4021, 157.4153
297.8842, 161.4438
298.3664, 165.1172
298.8485, 167.6490
299.3306, 169.4837
299.8127, 171.2933
300.2948, 173.4423
300.7769, 175.8696
301.2591, 178.3101
301.7412, 180.4397
302.2233, 182.9967
302.7054, 186.3750
303.1875, 190.0576
303.6696, 193.4583
304.1518, 196.3322
304.6339, 198.9377
305.1160, 201.8985
305.5981, 205.6325
306.0802, 209.0691
306.5623, 212.1920
307.0445, 215.0276
307.5266, 217.7016
308.0087, 220.1984
308.4908, 222.2861
308.9729, 223.5807
309.4550, 223.7000
309.9372, 223.9412
310.4193, 224.6484
310.9014, 225.1917
311.3835, 224.9524
311.8656, 224.0476
312.3477, 223.2103
312.8299, 223.1897
313.3120, 224.0906
313.7941, 225.1591
314.2762, 226.4358
314.7583, 227.8156
315.2404, 229.2891
315.7226, 230.8370
316.2047, 232.3322
316.6868, 233.5805
317.1689, 234.6736
317.6510, 237.1127
318.1331, 242.4311
318.6153, 247.4162
319.0974, 251.2514
319.5795, 254.3340
320.0616, 257.2109
320.5437, 260.1420
321.0258, 263.2540
321.5080, 267.0240
321.9901, 271.9831
322.4722, 276.9538
322.9543, 282.4066
323.4364, 287.5774
323.9185, 291.9434
324.4007, 295.2466
324.8828, 297.3124
325.3649, 297.8968
325.8470, 297.5600
326.3291, 294.2826
326.8112, 287.6845
327.2934, 278.8952
327.7755, 268.1661
328.2576, 255.8196
328.7397, 242.5250
329.2218, 228.7610
329.7039, 214.0938
330.1861, 201.0477
330.6682, 190.1387
331.1503, 180.0896
331.6324, 170.2147
332.1145, 160.6985
332.5966, 152.2668
333.0788, 145.4873
333.5609, 140.3033
334.0430, 135.7868
334.5251, 132.5043
335.0072, 129.2771
335.4893, 125.6164
335.9715, 121.9468
336.4536, 118.8879
336.9357, 116.7752
337.4178, 115.4311
337.8999, 114.4078
338.3820, 113.9567
338.8642, 113.4687
339.3463, 113.0337
339.8284, 112.4662
340.3105, 111.4709
340.7926, 110.0119
341.2747, 108.5019
341.7568, 107.5703
342.2390, 107.3874
342.7211, 107.3940
343.2032, 107.7348
343.6853, 108.1183
344.1674, 108.3555
344.6495, 108.4641
345.1317, 108.6086
345.6138, 108.9691
346.0959, 109.5673
346.5780, 110.0190
347.0601, 109.9680
347.5422, 110.1212
348.0244, 110.8928
348.5065, 111.9862
348.9886, 112.8202
349.4707, 112.9856
349.9528, 112.7196
350.4349, 113.0200
350.9171, 114.4530
351.3992, 115.5846
351.8813, 115.6406
352.3634, 115.5358
352.8455, 116.3597
353.3276, 118.4794
353.8098, 121.0297
354.2919, 122.4690
354.7740, 122.3416
355.2561, 122.4884
355.7382, 123.1906
356.2203, 124.1530
356.7025, 125.3850
357.1846, 126.7938
357.6667, 128.0421
358.1488, 128.6086
358.6309, 128.4408
359.1130, 128.9707
359.5952, 131.1058
360.0773, 132.9334
360.5594, 133.3642
361.0415, 132.9199
361.5236, 132.7449
362.0057, 133.6906
362.4879, 135.2401
362.9700, 135.7726
363.4521, 134.9486
363.9342, 133.8193
364.4163, 132.3843
364.8984, 131.0208
365.3806, 130.2733
365.8627, 130.3909
366.3448, 130.5935
366.8269, 129.8528
367.3090, 128.0868
367.7911, 126.0788
368.2733, 123.6012
368.7554, 121.2743
369.2375, 119.6936
369.7196, 118.8208
370.2017, 117.9253
370.6838, 116.3470
371.1660, 114.2600
371.6481, 112.5245
372.1302, 111.3047
372.6123, 110.2721
373.0944, 109.3005
373.5765, 108.3398
374.0587, 107.2465
374.5408, 105.8328
375.0229, 104.3526
375.5050, 103.1948
375.9871, 102.3877
376.4692, 101.7020
376.9514, 101.1034
377.4335, 100.5342
377.9156, 99.88615
378.3977, 99.09478
378.8798, 98.36834
379.3619, 97.93423
379.8441, 97.71500
380.3262, 97.37012
380.8083, 96.78239
381.2904, 96.07264
381.7725, 95.21770
382.2546, 94.20995
382.7368, 93.73201
383.2189, 94.38976
383.7010, 95.54506
384.1831, 96.39388
384.6652, 96.85613
385.1473, 96.89934
385.6295, 96.27531
386.1116, 95.13766
386.5937, 94.52383
387.0758, 94.86926
387.5579, 95.37949
388.0400, 95.59216
388.5222, 95.57068
389.0043, 95.54629
389.4864, 95.61913
389.9685, 95.76458
390.4506, 95.92159
390.9327, 96.06011
391.4149, 96.27031
391.8970, 96.59669
392.3791, 96.99307
392.8612, 97.42636
393.3433, 97.88448
393.8254, 98.31215
394.3076, 98.60145
394.7897, 98.67284
395.2718, 99.12708
395.7539, 100.2785
396.2360, 101.4930
396.7181, 102.3084
397.2003, 102.8672
397.6824, 103.6702
398.1645, 105.0806
398.6466, 106.9210
399.1287, 108.3329
399.6108, 108.7795
400.0930, 109.4281
400.5751, 110.5614
401.0572, 111.8793
401.5393, 113.0713
402.0214, 114.0388
402.5035, 114.8900
402.9857, 115.7927
403.4678, 116.8113
403.9499, 117.6882
404.4320, 118.2384
404.9141, 118.8392
405.3962, 119.5978
405.8784, 120.5643
406.3605, 121.8567
406.8426, 123.6484
407.3247, 125.8088
407.8068, 127.2774
408.2889, 127.4192
408.7711, 127.7548
409.2532, 128.5479
409.7353, 129.7175
410.2174, 131.3681
410.6995, 133.5350
411.1816, 135.5926
411.6638, 136.4172
412.1459, 135.6691
412.6280, 135.5238
413.1101, 136.8275
413.5922, 138.3536
414.0743, 139.5111
414.5565, 140.2906
415.0386, 140.8908
415.5207, 141.3975
416.0028, 141.8264
416.4849, 142.3143
416.9670, 143.0496
417.4492, 143.3667
417.9313, 142.6778
418.4134, 141.4446
418.8955, 140.2332
419.3776, 139.2521
419.8597, 138.1470
420.3419, 136.4860
420.8240, 134.3254
421.3061, 132.2240
421.7882, 130.4860
422.2703, 128.6676
422.7524, 126.2080
423.2346, 123.1171
423.7167, 119.9586
424.1988, 116.6862
424.6809, 113.5750
425.1630, 111.1229
425.6451, 109.3915
426.1273, 107.6463
426.6094, 105.2327
427.0915, 102.3646
427.5736, 100.1922
428.0557, 99.31274
428.5378, 98.46529
429.0200, 97.07854
429.5021, 95.33138
429.9842, 93.54810
430.4663, 91.82338
430.9484, 90.23438
431.4305, 88.93436
431.9127, 88.11338
432.3948, 87.12038
432.8769, 85.56510
433.3590, 84.13651
433.8411, 83.44437
434.3232, 83.40525
434.8054, 83.47836
435.2875, 83.27791
435.7696, 82.80742
436.2517, 82.08452
436.7338, 80.72462
437.2159, 79.55550
437.6981, 78.75247
438.1802, 78.17811
438.6623, 77.73582
439.1444, 77.37632
439.6265, 76.97258
440.1086, 76.35674
440.5908, 75.55310
441.0729, 74.45335
441.5550, 72.40634
442.0371, 70.65327
442.5192, 69.97913
443.0013, 70.06564
443.4835, 70.05185
443.9656, 69.37314
444.4477, 68.21961
444.9298, 67.13863
445.4119, 66.00024
445.8940, 65.26506
446.3762, 65.58503
446.8583, 66.08585
447.3404, 65.93958
447.8225, 64.97981
448.3046, 63.89122
448.7867, 63.19877
449.2689, 62.87251
449.7510, 62.77039
450.2331, 62.93132
450.7152, 63.20414
451.1973, 63.71714
451.6794, 64.27502
452.1616, 64.27745
452.6437, 62.84354
453.1258, 61.36006
453.6079, 61.26697
454.0900, 62.39830
454.5721, 63.74895
455.0543, 65.02546
455.5364, 66.11043
456.0185, 66.69937
456.5006, 66.72047
456.9827, 66.67987
457.4648, 66.56130
457.9470, 66.50980
458.4291, 66.74098
458.9112, 67.25307
459.3933, 67.77990
459.8754, 68.08131
460.3575, 68.16983
460.8397, 68.48097
461.3218, 69.02785
461.8039, 69.74113
462.2860, 70.69927
462.7681, 71.78146
463.2502, 72.83723
463.7324, 73.81200
464.2145, 74.72811
464.6966, 75.61826
465.1787, 76.46922
465.6608, 77.31797
466.1429, 78.07307
466.6251, 78.90984
467.1072, 79.95177
467.5893, 81.14231
468.0714, 82.36677
468.5535, 83.58720
469.0356, 84.73770
469.5178, 85.63712
469.9999, 86.27515
470.4820, 86.69041
470.9641, 86.72123
471.4462, 86.64697
471.9283, 86.66442
472.4105, 86.79787
472.8926, 86.95711
473.3747, 86.92895
473.8568, 86.85251
474.3389, 87.33687
474.8210, 88.59681
475.3032, 89.88918
475.7853, 90.61499
476.2674, 91.04443
476.7495, 91.72720
477.2316, 93.02200
477.7137, 94.15881
478.1959, 94.20829
478.6780, 93.64577
479.1601, 93.92922
479.6422, 95.57410
480.1243, 97.87270
480.6064, 100.1250
481.0886, 102.4611
481.5707, 103.6567
482.0528, 102.4649
482.5349, 101.1232
483.0170, 101.3861
483.4991, 102.8081
483.9813, 103.8880
484.4634, 103.8162
484.9455, 102.7556
485.4276, 101.1933
485.9097, 99.15332
486.3918, 96.50195
486.8740, 92.52253
487.3561, 88.48553
487.8382, 85.40115
488.3203, 83.25369
488.8024, 81.34330
489.2845, 79.06243
489.7667, 76.45308
490.2488, 73.93066
490.7309, 71.37255
491.2130, 69.11227
491.6951, 67.25132
492.1772, 65.67052
492.6594, 64.26247
493.1415, 63.00106
493.6236, 61.90274
494.1057, 61.08683
494.5878, 60.50417
495.0699, 59.73115
495.5521, 58.61475
496.0342, 57.51744
496.5163, 56.65358
496.9984, 56.00735
497.4805, 55.61392
497.9626, 55.66291
498.4448, 55.75798
498.9269, 55.56625
499.4090, 55.14553
499.8911, 54.66473
500.3732, 54.14469
500.8553, 53.70673
501.3375, 53.60490
501.8196, 53.97528
502.3017, 53.94309
502.7838, 53.05297
503.2659, 52.08812
503.7480, 51.55613
504.2302, 51.40619
504.7123, 51.38029
505.1944, 51.34238
505.6765, 51.28592
506.1586, 51.18321
506.6407, 50.91151
507.1228, 50.80034
507.6049, 50.88667
508.0871, 51.09627
508.5692, 51.56040
509.0513, 52.14436
509.5334, 52.39010
510.0155, 51.82036
510.4977, 50.66724
510.9798, 50.12042
511.4619, 50.42701
511.9440, 50.78114
512.4261, 50.92265
512.9083, 50.99616
513.3904, 51.12828
513.8725, 51.33992
514.3546, 51.55965
514.8367, 51.74955
515.3188, 51.90709
515.8010, 52.01737
516.2831, 52.06990
516.7652, 52.12554
517.2473, 52.26728
517.7294, 52.43666
518.2115, 52.46321
518.6937, 52.38462
519.1758, 52.09779
519.6579, 51.33645
520.1400, 50.40162
520.6221, 49.86883
521.1042, 49.86226
521.5864, 49.90417
522.0685, 49.46284
522.5506, 48.48158
523.0327, 47.59889
523.5148, 46.75114
523.9969, 46.04441
524.4791, 45.48634
524.9612, 45.10086
525.4433, 44.99785
525.9254, 45.19781
526.4075, 45.44954
526.8896, 45.34611
527.3718, 44.80396
527.8539, 44.34243
528.3360, 43.94459
528.8181, 43.66772
529.3002, 43.60772
529.7823, 43.66901
530.2645, 43.68734
530.7466, 43.61024
531.2287, 43.43404
531.7108, 43.07332
532.1929, 42.55032
532.6750, 42.22097
533.1572, 42.21910
533.6393, 42.35262
534.1214, 42.51799
534.6035, 42.68977
535.0856, 42.61401
535.5677, 42.02074
536.0499, 41.35287
536.5320, 40.88001
537.0141, 40.60413
537.4962, 40.50132
537.9783, 40.56974
538.4604, 40.77008
538.9426, 41.07473
539.4247, 41.72966
539.9068, 41.80777
540.3889, 40.72774
540.8710, 39.66829
541.3531, 39.15098
541.8353, 39.16333
542.3174, 39.64491
542.7995, 40.61334
543.2816, 41.67367
543.7637, 41.83776
544.2458, 40.76768
544.7280, 39.92830
545.2101, 39.57316
545.6922, 39.46240
546.1743, 39.55779
546.6564, 39.80363
547.1385, 40.05657
547.6207, 40.31823
548.1028, 40.48502
548.5849, 40.29939
549.0670, 39.77952
549.5491, 39.45495
550.0313, 39.59787
550.5134, 39.90016
550.9955, 39.82220
551.4776, 39.33331
551.9597, 39.12432
552.4418, 39.57543
552.9240, 40.14954
553.4061, 40.42640
553.8882, 40.45476
554.3703, 40.46588
554.8524, 40.57401
555.3345, 40.75468
555.8167, 40.96114
556.2988, 41.26586
556.7809, 41.44667
557.2630, 41.56288
557.7451, 41.52020
558.2272, 41.05551
558.7094, 40.39165
559.1915, 40.07965
559.6736, 40.48222
560.1557, 41.25645
560.6378, 41.67154
561.1199, 41.66191
561.6021, 41.70686
562.0842, 41.96967
562.5663, 42.25053
563.0484, 42.37073
563.5305, 42.35715
564.0126, 42.35960
564.4948, 42.44272
564.9769, 42.56022
565.4590, 42.66480
565.9411, 42.76144
566.4232, 42.88798
566.9053, 43.07257
567.3875, 43.24180
567.8696, 43.25045
568.3517, 42.97729
568.8338, 42.98518
569.3159, 43.56502
569.7980, 44.13850
570.2802, 44.34342
570.7623, 44.32068
571.2444, 44.41339
571.7265, 44.77948
572.2086, 45.23886
572.6907, 45.39964
573.1729, 45.10212
573.6550, 45.16707
574.1371, 46.04609
574.6192, 46.85572
575.1013, 47.08341
575.5834, 46.96882
576.0656, 47.01598
576.5477, 47.44059
577.0298, 48.02789
577.5119, 48.65747
577.9940, 49.27849
578.4761, 49.54315
578.9583, 49.25695
579.4404, 48.97707
579.9225, 49.23620
580.4046, 50.03325
580.8867, 50.95201
581.3688, 52.16466
581.8510, 53.29591
582.3331, 54.11160
582.8152, 54.77016
583.2973, 55.51481
583.7794, 56.40971
584.2615, 57.38470
584.7437, 58.32915
585.2258, 59.22578
585.7079, 60.40709
586.1900, 62.28632
586.6721, 63.94405
587.1542, 64.82240
587.6363, 65.54556
588.1184, 66.84025
588.6005, 68.87101
589.0826, 71.14567
