##NAMES=Pyrolusite
##RRUFFID=R050361
##IDEAL CHEMISTRY=Mn^4+^O_2_
##LOCALITY=Serra do Navio, Amapa, Brazil
##OWNER=RRUFF
##SOURCE=University of Arizona Mineral Museum
##DESCRIPTION=Black prismatic crystals
##STATUS=The identification of this mineral has been confirmed by X-ray diffraction and chemical analysis
##URL=rruff.info/R050361
##MEASURED CHEMISTRY=Mn_1.00_O_2_
92.52344, 52.48884
93.00555, 52.97175
93.48767, 52.95566
93.96979, 52.89309
94.45190, 53.08780
94.93402, 53.68072
95.41614, 53.58779
95.89825, 52.68806
96.38037, 51.27546
96.86249, 49.54863
97.34460, 48.16071
97.82672, 46.96220
98.30884, 46.24557
98.79095, 46.46228
99.27307, 47.13264
99.75519, 47.32451
100.2373, 46.54569
100.7194, 45.06366
101.2015, 44.09111
101.6837, 43.88074
102.1658, 43.89097
102.6479, 43.71308
103.1300, 43.31928
103.6121, 42.94193
104.0942, 42.62347
104.5764, 42.42955
105.0585, 42.56090
105.5406, 43.48083
106.0227, 44.81148
106.5048, 45.37070
106.9869, 44.88622
107.4691, 43.90080
107.9512, 42.39794
108.4333, 40.62018
108.9154, 39.14273
109.3975, 38.56794
109.8796, 39.07542
110.3618, 39.29473
110.8439, 38.92553
111.3260, 38.51963
111.8081, 38.24023
112.2902, 38.14666
112.7723, 38.27082
113.2544, 38.70996
113.7366, 39.96492
114.2187, 40.54861
114.7008, 40.03060
115.1829, 39.12213
115.6650, 38.46010
116.1471, 38.27100
116.6293, 38.35201
117.1114, 38.23849
117.5935, 37.89106
118.0756, 37.46780
118.5577, 36.85624
119.0398, 36.18035
119.5220, 35.74318
120.0041, 35.72412
120.4862, 36.01945
120.9683, 36.34233
121.4504, 36.74803
121.9325, 37.09070
122.4147, 37.23597
122.8968, 37.17260
123.3789, 37.04618
123.8610, 36.95146
124.3431, 36.81890
124.8252, 36.52472
125.3074, 35.93053
125.7895, 35.27626
126.2716, 35.13498
126.7537, 35.91494
127.2358, 36.48417
127.7179, 36.44211
128.2001, 36.02611
128.6822, 35.52838
129.1643, 35.11149
129.6464, 34.77454
130.1285, 34.52960
130.6107, 34.55770
131.0928, 34.50780
131.5749, 34.22836
132.0570, 33.79295
132.5391, 33.37148
133.0212, 33.11464
133.5034, 33.04332
133.9855, 33.02020
134.4676, 33.15691
134.9497, 33.24513
135.4318, 33.08009
135.9139, 32.67838
136.3960, 32.31938
136.8782, 32.36440
137.3603, 32.92685
137.8424, 33.29778
138.3245, 33.27301
138.8066, 33.09951
139.2887, 33.14951
139.7709, 33.57825
140.2530, 33.93659
140.7351, 33.42276
141.2172, 32.12545
141.6993, 31.13092
142.1814, 31.21707
142.6636, 32.06189
143.1457, 32.41267
143.6278, 31.62296
144.1099, 30.69092
144.5920, 30.47210
145.0741, 30.97387
145.5563, 31.70133
146.0384, 32.34867
146.5205, 32.94952
147.0026, 33.17714
147.4847, 32.55192
147.9668, 31.79745
148.4490, 31.29358
148.9311, 31.12238
149.4132, 31.11834
149.8953, 31.04380
150.3774, 30.87704
150.8595, 30.67331
151.3417, 30.39702
151.8238, 30.11594
152.3059, 29.85833
152.7880, 29.64072
153.2701, 29.49418
153.7522, 29.50268
154.2344, 29.86581
154.7165, 30.17050
155.1986, 30.42672
155.6807, 30.61160
156.1628, 30.68812
156.6449, 30.63274
157.1271, 30.47204
157.6092, 30.30821
158.0913, 30.24402
158.5734, 30.06829
159.0555, 29.57513
159.5376, 28.90114
160.0198, 28.41053
160.5019, 28.32768
160.9840, 28.58545
161.4661, 28.83968
161.9482, 29.07757
162.4303, 29.32519
162.9125, 29.67648
163.3946, 30.12120
163.8767, 30.37656
164.3588, 30.06071
164.8409, 29.50579
165.3230, 29.30108
165.8052, 29.77899
166.2873, 30.43229
166.7694, 30.53479
167.2515, 29.92629
167.7336, 29.31246
168.2157, 29.05362
168.6979, 28.98324
169.1800, 28.91598
169.6621, 28.75862
170.1442, 28.56541
170.6263, 28.51779
171.1084, 28.80406
171.5906, 28.92479
172.0727, 28.58282
172.5548, 28.02811
173.0369, 27.61106
173.5190, 27.55835
174.0011, 27.82800
174.4833, 28.06881
174.9654, 28.46099
175.4475, 28.62280
175.9296, 28.24177
176.4117, 27.57289
176.8938, 27.09548
177.3760, 27.20896
177.8581, 27.93896
178.3402, 28.25065
178.8223, 27.61320
179.3044, 27.12280
179.7865, 27.37846
180.2687, 28.17486
180.7508, 28.82320
181.2329, 28.69321
181.7150, 27.68643
182.1971, 27.07312
182.6792, 27.06564
183.1614, 27.20954
183.6435, 27.29527
184.1256, 27.29607
184.6077, 27.22750
185.0898, 27.07484
185.5719, 26.83511
186.0541, 26.70057
186.5362, 26.82266
187.0183, 26.96658
187.5004, 26.83061
187.9825, 26.36323
188.4646, 25.97235
188.9468, 26.21171
189.4289, 26.90091
189.9110, 27.28851
190.3931, 26.88777
190.8752, 26.18209
191.3573, 25.96857
191.8395, 26.43680
192.3216, 27.02566
192.8037, 27.37966
193.2858, 27.53287
193.7679, 27.51716
194.2500, 27.20185
194.7322, 26.71264
195.2143, 26.49153
195.6964, 26.75921
196.1785, 26.96439
196.6606, 26.68557
197.1427, 26.11849
197.6249, 25.70317
198.1070, 25.83608
198.5891, 26.43997
199.0712, 26.72097
199.5533, 26.43593
200.0354, 26.06388
200.5176, 25.69217
200.9997, 25.37523
201.4818, 25.20618
201.9639, 25.29273
202.4460, 25.64293
202.9281, 25.91237
203.4103, 26.21334
203.8924, 26.31505
204.3745, 25.91297
204.8566, 25.20927
205.3387, 24.70838
205.8208, 24.90717
206.3030, 25.92671
206.7851, 26.51385
207.2672, 26.29138
207.7493, 26.04180
208.2314, 26.11198
208.7135, 26.45008
209.1957, 26.77551
209.6778, 26.81839
210.1599, 26.52008
210.6420, 26.39975
211.1241, 26.73718
211.6062, 26.97684
212.0884, 26.69094
212.5705, 25.96259
213.0526, 25.28769
213.5347, 25.12540
214.0168, 25.55408
214.4989, 25.88208
214.9811, 26.14852
215.4632, 26.29765
215.9453, 26.22348
216.4274, 25.94398
216.9095, 25.66893
217.3916, 25.57855
217.8737, 25.68557
218.3559, 25.80153
218.8380, 25.97795
219.3201, 26.12845
219.8022, 26.20181
220.2843, 26.19416
220.7664, 26.06199
221.2486, 25.69203
221.7307, 25.14716
222.2128, 24.71618
222.6949, 24.40787
223.1770, 24.24841
223.6591, 24.36013
224.1413, 24.79558
224.6234, 25.15046
225.1055, 25.01575
225.5876, 24.59704
226.0697, 24.25112
226.5518, 24.05684
227.0340, 23.99310
227.5161, 24.07511
227.9982, 24.35743
228.4803, 24.59430
228.9624, 24.69556
229.4445, 24.65533
229.9267, 24.40817
230.4088, 23.80829
230.8909, 23.08950
231.3730, 22.69449
231.8551, 22.66470
232.3372, 22.87501
232.8194, 23.47762
233.3015, 24.20423
233.7836, 24.72934
234.2657, 24.88475
234.7478, 24.81797
235.2299, 24.88118
235.7121, 25.20253
236.1942, 25.38890
236.6763, 25.34574
237.1584, 25.12735
237.6405, 24.73296
238.1227, 24.12935
238.6048, 23.46537
239.0869, 23.14560
239.5690, 23.39992
240.0511, 23.60920
240.5332, 23.57094
241.0154, 23.47163
241.4975, 23.53535
241.9796, 23.86135
242.4617, 24.29773
242.9438, 24.44843
243.4259, 24.09290
243.9081, 23.78129
244.3902, 23.53663
244.8723, 23.37750
245.3544, 23.35845
245.8365, 23.49531
246.3186, 23.69341
246.8008, 23.72771
247.2829, 23.39146
247.7650, 23.18894
248.2471, 23.14862
248.7292, 23.23646
249.2113, 23.45803
249.6935, 23.80641
250.1756, 24.20731
250.6577, 24.52393
251.1398, 24.84637
251.6219, 24.91476
252.1040, 24.55267
252.5862, 24.04340
253.0683, 23.62739
253.5504, 23.37804
254.0325, 23.21844
254.5146, 23.01769
254.9967, 22.66607
255.4789, 22.50142
255.9610, 22.62430
256.4431, 22.87304
256.9252, 23.18362
257.4073, 23.52328
257.8894, 23.74095
258.3716, 23.58901
258.8537, 22.77755
259.3358, 22.39915
259.8179, 22.82296
260.3000, 23.45696
260.7821, 23.80765
261.2643, 23.78723
261.7464, 23.57532
262.2285, 23.33650
262.7106, 23.04957
263.1927, 22.87761
263.6748, 23.08790
264.1570, 23.24588
264.6391, 22.78613
265.1212, 21.69785
265.6033, 20.77007
266.0854, 20.84341
266.5675, 21.98174
267.0497, 22.76661
267.5318, 22.99253
268.0139, 22.97396
268.4960, 22.92262
268.9781, 22.85549
269.4602, 22.73934
269.9424, 22.48367
270.4245, 22.14763
270.9066, 22.06989
271.3887, 22.57069
271.8708, 23.09629
272.3529, 23.14340
272.8351, 22.74860
273.3172, 22.41891
273.7993, 22.52299
274.2814, 22.90899
274.7635, 23.04852
275.2456, 22.70352
275.7278, 22.36513
276.2099, 22.40626
276.6920, 22.79013
277.1741, 23.23812
277.6562, 23.71503
278.1383, 24.09939
278.6205, 24.18876
279.1026, 23.89132
279.5847, 23.50001
280.0668, 23.12607
280.5489, 22.79067
281.0310, 22.65636
281.5132, 22.89074
281.9953, 23.24511
282.4774, 23.35294
282.9595, 23.17990
283.4416, 22.97169
283.9237, 22.89104
284.4059, 22.90284
284.8880, 22.85374
285.3701, 22.68620
285.8522, 22.47285
286.3343, 22.24541
286.8164, 22.00693
287.2986, 21.89630
287.7807, 22.05352
288.2628, 22.40565
288.7449, 22.73052
289.2270, 23.03459
289.7091, 23.23597
290.1913, 23.28851
290.6734, 23.20238
291.1555, 22.98613
291.6376, 22.48532
292.1197, 21.87226
292.6018, 21.58834
293.0840, 21.76193
293.5661, 22.01544
294.0482, 22.13836
294.5303, 22.16038
295.0124, 22.11595
295.4945, 21.94575
295.9767, 21.75498
296.4588, 21.79796
296.9409, 22.18369
297.4230, 22.42695
297.9051, 22.12854
298.3872, 21.58608
298.8694, 21.10336
299.3515, 20.71221
299.8336, 20.50725
300.3157, 20.69415
300.7978, 21.34907
301.2799, 21.94610
301.7621, 22.36120
302.2442, 22.57774
302.7263, 22.49859
303.2084, 22.06206
303.6905, 21.59018
304.1726, 21.43038
304.6548, 21.59603
305.1369, 21.76482
305.6190, 21.83194
306.1011, 21.90270
306.5832, 22.13337
307.0653, 22.52003
307.5475, 22.76470
308.0296, 22.49134
308.5117, 21.76001
308.9938, 21.31293
309.4759, 21.42722
309.9580, 21.64053
310.4402, 21.67716
310.9223, 21.54962
311.4044, 21.32495
311.8865, 20.89330
312.3686, 20.36336
312.8507, 20.27607
313.3329, 20.94873
313.8150, 21.52678
314.2971, 21.53372
314.7792, 21.14254
315.2613, 20.62604
315.7434, 19.93164
316.2256, 19.30209
316.7077, 19.42047
317.1898, 20.67202
317.6719, 21.59441
318.1540, 21.07370
318.6361, 20.06948
319.1183, 19.66718
319.6004, 20.30503
320.0825, 21.30865
320.5646, 21.75279
321.0467, 21.55182
321.5288, 21.33915
322.0110, 21.39795
322.4931, 21.46696
322.9752, 21.24098
323.4573, 20.66323
323.9394, 20.20833
324.4215, 20.45435
324.9037, 21.38166
325.3858, 22.10037
325.8679, 22.56666
326.3500, 22.62220
326.8321, 21.95768
327.3142, 20.70518
327.7964, 19.63404
328.2785, 19.25563
328.7606, 19.49209
329.2427, 20.02765
329.7248, 21.08308
330.2069, 22.02532
330.6891, 22.56770
331.1712, 22.73606
331.6533, 22.54529
332.1354, 21.85847
332.6175, 20.88944
333.0996, 20.02864
333.5818, 19.24315
334.0639, 18.66303
334.5460, 18.33330
335.0281, 18.25526
335.5102, 18.55136
335.9923, 19.40612
336.4745, 20.29239
336.9566, 20.54894
337.4387, 20.14079
337.9208, 19.67988
338.4029, 19.32599
338.8850, 19.03132
339.3671, 18.64107
339.8492, 18.11216
340.3314, 17.91912
340.8135, 18.77381
341.2956, 20.44258
341.7777, 21.35127
342.2598, 20.89458
342.7419, 20.06276
343.2241, 19.70048
343.7062, 19.73359
344.1883, 19.82086
344.6704, 19.91945
345.1525, 19.94090
345.6346, 19.56680
346.1168, 18.59921
346.5989, 17.82574
347.0810, 18.13679
347.5631, 19.01706
348.0452, 19.56970
348.5273, 19.34754
349.0095, 18.90021
349.4916, 18.88908
349.9737, 19.32474
350.4558, 19.70964
350.9379, 19.78022
351.4200, 19.67934
351.9022, 19.64993
352.3843, 19.72147
352.8664, 19.81190
353.3485, 19.94827
353.8306, 20.07932
354.3127, 19.93714
354.7949, 19.29031
355.2770, 18.60943
355.7591, 18.58349
356.2412, 19.19407
356.7233, 19.69433
357.2054, 19.75635
357.6876, 19.56194
358.1697, 19.38352
358.6518, 19.25564
359.1339, 19.13877
359.6160, 18.96545
360.0981, 18.76435
360.5803, 18.69436
361.0624, 18.86478
361.5445, 19.10617
362.0266, 19.38272
362.5087, 19.65855
362.9908, 19.64486
363.4730, 19.04768
363.9551, 18.12678
364.4372, 17.68420
364.9193, 17.96171
365.4014, 18.26842
365.8835, 18.22438
366.3657, 18.01878
366.8478, 18.13949
367.3299, 18.82479
367.8120, 19.55986
368.2941, 19.41101
368.7762, 18.11800
369.2584, 17.16515
369.7405, 16.85561
370.2226, 16.91796
370.7047, 17.23122
371.1868, 17.74002
371.6689, 18.12655
372.1511, 18.06223
372.6332, 17.52062
373.1153, 17.22065
373.5974, 17.21538
374.0795, 17.36776
374.5616, 17.75460
375.0438, 18.25378
375.5259, 18.58282
376.0080, 18.57917
376.4901, 18.31207
376.9722, 18.01684
377.4543, 17.64726
377.9365, 17.31013
378.4186, 16.87432
378.9007, 16.53989
379.3828, 16.59059
379.8649, 17.08664
380.3470, 17.78396
380.8292, 18.37806
381.3113, 18.96962
381.7934, 19.09522
382.2755, 18.24880
382.7576, 17.43768
383.2397, 17.34427
383.7219, 17.84325
384.2040, 18.34743
384.6861, 18.38291
385.1682, 17.98664
385.6503, 17.74234
386.1324, 17.87032
386.6146, 17.91165
387.0967, 17.70862
387.5788, 17.40137
388.0609, 17.16787
388.5430, 17.08465
389.0251, 17.09982
389.5073, 17.11877
389.9894, 17.17282
390.4715, 17.15997
390.9536, 17.08426
391.4357, 16.94456
391.9178, 16.56491
392.4000, 16.04130
392.8821, 15.82408
393.3642, 16.56855
393.8463, 18.33096
394.3284, 19.12926
394.8105, 18.11855
395.2927, 17.07082
395.7748, 16.63004
396.2569, 16.55660
396.7390, 16.37846
397.2211, 15.81117
397.7032, 15.11328
398.1854, 14.90168
398.6675, 15.32361
399.1496, 15.78621
399.6317, 16.25570
400.1138, 16.62366
400.5959, 16.79743
401.0781, 16.76173
401.5602, 16.56221
402.0423, 16.14205
402.5244, 15.53494
403.0065, 15.10073
403.4886, 14.85991
403.9708, 14.85019
404.4529, 15.30145
404.9350, 16.00659
405.4171, 16.35804
405.8992, 15.64199
406.3813, 14.65343
406.8635, 14.92480
407.3456, 16.64120
407.8277, 17.88797
408.3098, 17.38789
408.7919, 15.98013
409.2740, 15.13716
409.7562, 15.11112
410.2383, 15.19518
410.7204, 14.84304
411.2025, 14.25291
411.6846, 14.07695
412.1667, 14.58689
412.6489, 15.23772
413.1310, 15.28752
413.6131, 14.75865
414.0952, 14.37414
414.5773, 14.30860
415.0594, 14.40527
415.5416, 14.56996
416.0237, 14.78109
416.5058, 14.95964
416.9879, 15.04210
417.4700, 15.05262
417.9521, 15.12480
418.4343, 15.47315
418.9164, 15.62001
419.3985, 15.32057
419.8806, 14.77426
420.3627, 14.24438
420.8448, 13.81558
421.3270, 13.47845
421.8091, 13.20894
422.2912, 12.96434
422.7733, 12.95295
423.2554, 13.42469
423.7375, 13.89340
424.2197, 13.98264
424.7018, 13.78875
425.1839, 13.72336
425.6660, 14.12140
426.1481, 14.86593
426.6302, 15.15150
427.1124, 14.48608
427.5945, 13.93763
428.0766, 13.46967
428.5587, 13.25966
429.0408, 13.67111
429.5229, 14.74806
430.0051, 15.86401
430.4872, 15.99413
430.9693, 14.77765
431.4514, 14.08703
431.9335, 14.42058
432.4156, 14.90559
432.8978, 15.38789
433.3799, 15.74928
433.8620, 15.76033
434.3441, 15.13504
434.8262, 14.17620
435.3083, 13.84606
435.7905, 14.42683
436.2726, 14.85695
436.7547, 14.52459
437.2368, 13.99238
437.7189, 13.74043
438.2010, 13.86288
438.6832, 14.17372
439.1653, 14.69316
439.6474, 15.32649
440.1295, 15.50279
440.6116, 14.96463
441.0938, 14.28105
441.5759, 13.94126
442.0580, 13.85541
442.5401, 13.77305
443.0222, 13.49649
443.5043, 13.28271
443.9865, 13.48619
444.4686, 14.05572
444.9507, 14.52892
445.4328, 14.67269
445.9149, 14.60366
446.3970, 14.59535
446.8792, 14.69464
447.3613, 14.71499
447.8434, 14.48856
448.3255, 14.20990
448.8076, 14.11244
449.2897, 14.23571
449.7719, 14.52075
450.2540, 14.98027
450.7361, 15.63943
451.2182, 15.80147
451.7003, 14.99891
452.1824, 14.29008
452.6646, 14.15957
453.1467, 14.35995
453.6288, 14.43327
454.1109, 14.17828
454.5930, 13.78749
455.0751, 13.66246
455.5573, 14.04564
456.0394, 14.21935
456.5215, 13.90490
457.0036, 13.65192
457.4857, 13.95310
457.9678, 14.65233
458.4500, 15.12834
458.9321, 14.81761
459.4142, 13.91520
459.8963, 13.62114
460.3784, 14.37690
460.8605, 14.96052
461.3427, 14.87082
461.8248, 14.57409
462.3069, 14.57044
462.7890, 14.98369
463.2711, 15.43010
463.7532, 15.50336
464.2354, 15.22583
464.7175, 14.87043
465.1996, 14.34449
465.6817, 13.94620
466.1638, 13.90910
466.6459, 14.15026
467.1281, 14.50135
467.6102, 15.20060
468.0923, 15.71928
468.5744, 15.17976
469.0565, 13.71529
469.5386, 12.78935
470.0208, 13.17856
470.5029, 14.14174
470.9850, 14.26635
471.4671, 13.37101
471.9492, 12.83802
472.4313, 13.33369
472.9135, 14.17604
473.3956, 14.63962
473.8777, 14.66795
474.3598, 14.59680
474.8419, 14.69195
475.3240, 14.91765
475.8062, 14.91180
476.2883, 14.47417
476.7704, 14.08519
477.2525, 13.79293
477.7346, 13.62249
478.2167, 13.66396
478.6989, 13.91660
479.1810, 14.18895
479.6631, 14.23969
480.1452, 14.04203
480.6273, 13.75302
481.1094, 13.14783
481.5916, 12.68453
482.0737, 12.51724
482.5558, 12.59786
483.0379, 12.87560
483.5200, 13.35777
484.0021, 13.86650
484.4843, 14.03390
484.9664, 13.78619
485.4485, 13.52785
485.9306, 13.07191
486.4127, 12.87102
486.8948, 13.49788
487.3770, 14.77549
487.8591, 15.69973
488.3412, 15.38635
488.8233, 14.43248
489.3054, 14.00750
489.7875, 14.16252
490.2697, 14.46348
490.7518, 14.83559
491.2339, 15.13059
491.7160, 15.02765
492.1981, 14.31265
492.6802, 13.82887
493.1624, 14.18595
493.6445, 14.90210
494.1266, 15.29742
494.6087, 15.25435
495.0908, 14.86910
495.5729, 14.08840
496.0551, 12.93327
496.5372, 12.54771
497.0193, 13.60405
497.5014, 14.52366
497.9835, 14.79522
498.4656, 14.65004
498.9478, 14.41083
499.4299, 14.19083
499.9120, 13.93421
500.3941, 13.49089
500.8762, 12.65299
501.3583, 12.45579
501.8405, 13.80206
502.3226, 14.87104
502.8047, 14.67547
503.2868, 13.78126
503.7689, 13.31976
504.2510, 13.90274
504.7331, 14.92247
505.2152, 15.21028
505.6974, 14.63107
506.1795, 14.16226
506.6616, 14.03546
507.1437, 14.05396
507.6258, 14.08774
508.1079, 14.13394
508.5901, 14.20147
509.0722, 14.39103
509.5543, 14.55684
510.0364, 14.40145
510.5185, 13.93121
511.0006, 13.58200
511.4828, 13.57603
511.9649, 13.80148
512.4470, 14.04151
512.9291, 14.32290
513.4113, 14.53281
513.8934, 14.68427
514.3755, 14.72330
514.8576, 14.51760
515.3397, 14.09894
515.8218, 13.71290
516.3040, 13.53891
516.7861, 13.55640
517.2682, 13.61788
517.7503, 13.67952
518.2324, 13.84483
518.7145, 14.26635
519.1967, 14.71166
519.6788, 14.94612
520.1609, 14.94329
520.6430, 14.86654
521.1251, 14.90887
521.6072, 15.06035
522.0894, 14.94190
522.5715, 14.27282
523.0536, 13.78401
523.5357, 13.75438
524.0178, 14.00053
524.4999, 14.37266
524.9821, 14.85233
525.4642, 15.25383
525.9463, 15.39470
526.4284, 15.30972
526.9105, 15.13855
527.3926, 14.87445
527.8748, 14.60023
528.3569, 14.32032
528.8390, 14.08034
529.3211, 14.03981
529.8032, 14.43720
530.2853, 14.78442
530.7675, 14.71449
531.2496, 14.42319
531.7317, 14.31803
532.2138, 14.51948
532.6959, 14.81505
533.1780, 14.94841
533.6602, 14.89884
534.1423, 14.80790
534.6244, 14.47206
535.1065, 14.31981
535.5886, 14.67758
536.0707, 15.27512
536.5529, 15.72719
537.0350, 15.87540
537.5171, 15.77908
537.9992, 15.45678
538.4813, 14.82135
538.9634, 14.41311
539.4456, 14.36228
539.9277, 14.43752
540.4098, 14.58769
540.8919, 14.77507
541.3740, 14.93505
541.8561, 15.03872
542.3383, 15.11278
542.8204, 15.18143
543.3025, 15.24578
543.7846, 15.33384
544.2667, 15.49141
544.7488, 15.59746
545.2310, 15.45758
545.7131, 15.10463
546.1952, 14.84236
546.6773, 14.87677
547.1594, 14.86766
547.6415, 14.46185
548.1237, 13.83809
548.6058, 13.43553
549.0879, 13.43229
549.5700, 13.71635
550.0521, 14.15033
550.5342, 14.91143
551.0164, 15.25585
551.4985, 14.91304
551.9806, 14.49650
552.4627, 14.17831
552.9448, 14.00110
553.4269, 13.99945
553.9091, 14.19453
554.3912, 14.52219
554.8733, 14.92079
555.3554, 15.42826
555.8375, 15.75291
556.3196, 15.81170
556.8018, 15.71948
557.2839, 15.53970
557.7660, 15.28222
558.2481, 14.96636
558.7302, 14.53611
559.2123, 14.12680
559.6945, 13.81267
560.1766, 13.62252
560.6587, 13.78334
561.1408, 14.46911
561.6229, 15.16960
562.1050, 15.19268
562.5872, 14.39933
563.0693, 13.86642
563.5514, 13.66938
564.0335, 13.67262
564.5156, 13.92073
564.9977, 14.29716
565.4799, 14.62018
565.9620, 14.81555
566.4441, 14.92222
566.9262, 15.01401
567.4083, 15.12645
567.8904, 15.07663
568.3726, 14.53428
568.8547, 14.17477
569.3368, 14.39280
569.8189, 14.90705
570.3010, 15.23958
570.7831, 15.19952
571.2653, 15.02549
571.7474, 14.96780
572.2295, 15.02066
572.7116, 15.16303
573.1937, 15.44560
573.6758, 15.67998
574.1580, 15.65800
574.6401, 15.44654
575.1222, 15.30924
575.6043, 15.37893
576.0864, 15.40469
576.5685, 15.16087
577.0507, 14.82142
577.5328, 14.70563
578.0149, 14.88438
578.4970, 15.16936
578.9791, 15.41032
579.4612, 15.62470
579.9434, 15.35445
580.4255, 13.70077
580.9076, 12.62408
581.3897, 12.83108
581.8718, 13.60888
582.3539, 14.24739
582.8361, 14.56001
583.3182, 14.67292
583.8003, 14.59192
584.2824, 14.37476
584.7645, 14.52810
585.2466, 15.24593
585.7288, 15.78438
586.2108, 15.69774
586.6929, 15.24175
587.1750, 14.72498
587.6572, 14.11230
588.1393, 13.68607
588.6214, 13.64478
589.1035, 13.82777
589.5856, 13.99922
590.0677, 14.15476
