##NAMES=Pyrope
##RRUFFID=R060441
##IDEAL CHEMISTRY=Mg_3_Al_2_(SiO_4_)_3_
##LOCALITY=Apache County, Arizona, USA
##OWNER=RRUFF
##SOURCE=Gemological Institute of America
##DESCRIPTION=Deep red fragment
##STATUS=The identification of this mineral has been confirmed by X-ray diffraction and chemical analysis
##URL=rruff.info/R060441
##MEASURED CHEMISTRY=(Mg_1.83_Fe_0.75_Ca_0.39_Mn_0.03_)_Σ=3_(Al_1.95_Cr_0.05_)_Σ=2_(Si_1.00_O_4_)_3_
92.37695, 37.40287
92.85907, 36.69017
93.34119, 36.87577
93.82330, 37.72174
94.30542, 38.34283
94.78754, 38.42296
95.26965, 38.08654
95.75177, 37.61776
96.23389, 37.11169
96.71600, 36.54625
97.19812, 35.89043
97.68024, 35.11275
98.16235, 34.37644
98.64447, 33.93079
99.12659, 33.89445
99.60870, 33.72896
100.0908, 33.30545
100.5729, 32.83381
101.0551, 32.48914
101.5372, 32.34892
102.0193, 32.38926
102.5014, 32.52200
102.9835, 32.87856
103.4656, 33.19864
103.9478, 33.41978
104.4299, 33.57066
104.9120, 33.72424
105.3941, 33.95284
105.8762, 34.28014
106.3583, 34.37096
106.8405, 34.20493
107.3226, 33.87042
107.8047, 33.36305
108.2868, 32.70042
108.7689, 31.98600
109.2510, 31.32337
109.7332, 30.71181
110.2153, 30.15654
110.6974, 29.63116
111.1795, 29.16875
111.6616, 28.81361
112.1437, 28.57554
112.6259, 28.46257
113.1080, 28.50980
113.5901, 28.70316
114.0722, 28.89970
114.5543, 29.03931
115.0364, 29.12069
115.5185, 29.09346
116.0007, 28.73757
116.4828, 28.42769
116.9649, 28.42615
117.4470, 28.76707
117.9291, 29.24660
118.4112, 29.62300
118.8934, 29.90913
119.3755, 30.03485
119.8576, 29.81332
120.3397, 29.55354
120.8218, 29.54748
121.3039, 29.90839
121.7861, 30.46790
122.2682, 30.74085
122.7503, 30.41525
123.2324, 30.10224
123.7145, 29.84453
124.1966, 29.62384
124.6788, 29.39727
125.1609, 29.12953
125.6430, 28.83955
126.1251, 28.69569
126.6072, 28.78809
127.0893, 28.89694
127.5715, 28.97998
128.0536, 29.01986
128.5357, 28.93264
129.0178, 28.55429
129.4999, 27.98252
129.9821, 27.75679
130.4642, 28.25280
130.9463, 28.91504
131.4284, 29.11710
131.9105, 28.75433
132.3926, 28.32180
132.8748, 28.22793
133.3569, 28.33500
133.8390, 28.41330
134.3211, 28.27118
134.8032, 28.00993
135.2853, 27.99949
135.7674, 28.40451
136.2496, 28.85691
136.7317, 29.19668
137.2138, 29.43386
137.6959, 29.60367
138.1780, 29.73543
138.6601, 29.83175
139.1423, 29.86245
139.6244, 29.74964
140.1065, 29.63356
140.5886, 29.59583
141.0707, 29.62123
141.5528, 29.61901
142.0350, 29.45868
142.5171, 28.99834
142.9992, 28.76123
143.4813, 28.90864
143.9634, 29.12445
144.4455, 29.21309
144.9277, 29.12221
145.4098, 28.91368
145.8919, 28.67824
146.3740, 28.36007
146.8561, 28.12499
147.3382, 28.05166
147.8204, 28.04139
148.3025, 27.92230
148.7846, 27.60120
149.2667, 27.27058
149.7488, 27.44872
150.2309, 28.34919
150.7131, 28.95953
151.1952, 28.73876
151.6773, 27.89528
152.1594, 27.06582
152.6415, 26.41362
153.1236, 25.98039
153.6058, 25.77576
154.0879, 25.85127
154.5700, 25.99933
155.0521, 26.09035
155.5342, 26.12627
156.0163, 26.06735
156.4985, 25.82564
156.9806, 25.51241
157.4627, 25.20458
157.9448, 24.91723
158.4269, 24.65076
158.9090, 24.39061
159.3912, 24.10340
159.8733, 23.91816
160.3554, 24.02506
160.8375, 24.16247
161.3196, 24.05956
161.8017, 23.58374
162.2839, 22.88841
162.7660, 22.43841
163.2481, 22.42518
163.7302, 22.42438
164.2123, 22.38276
164.6944, 22.31352
165.1766, 22.23649
165.6587, 22.16214
166.1408, 22.09041
166.6229, 22.01850
167.1050, 21.97186
167.5871, 21.89787
168.0693, 21.70970
168.5514, 21.48548
169.0335, 21.39022
169.5156, 21.55222
169.9977, 21.94784
170.4798, 22.17206
170.9620, 22.10749
171.4441, 22.02282
171.9262, 21.99268
172.4083, 22.03293
172.8904, 22.19306
173.3725, 22.55335
173.8547, 23.08402
174.3368, 23.48249
174.8189, 23.61267
175.3010, 23.70786
175.7831, 23.98134
176.2652, 24.44660
176.7474, 24.91512
177.2295, 25.23181
177.7116, 25.44500
178.1937, 25.66076
178.6758, 25.93527
179.1579, 26.21299
179.6401, 26.35628
180.1222, 26.26925
180.6043, 26.33553
181.0864, 26.97598
181.5685, 27.90848
182.0506, 28.66954
182.5328, 28.96964
183.0149, 28.95328
183.4970, 29.08844
183.9791, 29.50477
184.4612, 29.87254
184.9433, 30.10965
185.4255, 30.20586
185.9076, 30.11220
186.3897, 29.66991
186.8718, 28.95424
187.3539, 28.81034
187.8360, 29.82508
188.3182, 30.84202
188.8003, 31.61246
189.2824, 32.12670
189.7645, 32.40955
190.2466, 32.43715
190.7287, 32.19152
191.2109, 32.13511
191.6930, 32.39104
192.1751, 32.71459
192.6572, 33.03938
193.1393, 33.36599
193.6214, 33.73122
194.1036, 34.17310
194.5857, 34.71203
195.0678, 35.17196
195.5499, 35.51587
196.0320, 35.83526
196.5141, 36.19045
196.9963, 36.56929
197.4784, 36.89654
197.9605, 37.07321
198.4426, 37.06033
198.9247, 37.28514
199.4068, 37.92652
199.8890, 38.64410
200.3711, 39.23840
200.8532, 39.68844
201.3353, 40.04984
201.8174, 40.37323
202.2995, 40.65212
202.7817, 40.85670
203.2638, 40.83744
203.7459, 40.82860
204.2280, 41.14679
204.7101, 41.84608
205.1922, 42.47528
205.6744, 42.55154
206.1565, 42.17707
206.6386, 41.81456
207.1207, 41.43778
207.6028, 41.16580
208.0849, 41.24635
208.5671, 41.79552
209.0492, 42.32816
209.5313, 42.42826
210.0134, 42.22419
210.4955, 41.93801
210.9776, 41.67784
211.4598, 41.38700
211.9419, 40.89471
212.4240, 40.08269
212.9061, 39.32231
213.3882, 38.85261
213.8703, 38.58131
214.3525, 38.35389
214.8346, 38.12260
215.3167, 37.87450
215.7988, 37.56701
216.2809, 37.19287
216.7630, 36.75926
217.2451, 36.21459
217.7273, 35.62723
218.2094, 35.11933
218.6915, 34.79140
219.1736, 34.60471
219.6557, 34.32734
220.1378, 33.89620
220.6200, 33.44395
221.1021, 32.99623
221.5842, 32.55964
222.0663, 32.13187
222.5484, 31.70559
223.0305, 31.28886
223.5127, 30.96062
223.9948, 30.81878
224.4769, 30.67280
224.9590, 30.45815
225.4411, 30.21331
225.9232, 30.01630
226.4054, 29.92646
226.8875, 29.92921
227.3696, 29.84113
227.8517, 29.64364
228.3338, 29.37057
228.8159, 28.90461
229.2981, 28.37488
229.7802, 28.01842
230.2623, 28.00271
230.7444, 28.28845
231.2265, 28.42768
231.7086, 28.35479
232.1908, 28.22213
232.6729, 28.00402
233.1550, 27.75418
233.6371, 27.56617
234.1192, 27.49924
234.6013, 27.54040
235.0835, 27.59938
235.5656, 27.64879
236.0477, 27.74072
236.5298, 27.94738
237.0119, 28.20991
237.4940, 28.40288
237.9762, 28.45278
238.4583, 28.38143
238.9404, 28.29180
239.4225, 28.12522
239.9046, 28.00686
240.3867, 28.01793
240.8689, 28.11341
241.3510, 28.19022
241.8331, 28.20802
242.3152, 28.15893
242.7973, 28.01697
243.2794, 27.69981
243.7616, 27.43485
244.2437, 27.37219
244.7258, 27.44964
245.2079, 27.45236
245.6900, 27.22703
246.1721, 26.96133
246.6543, 27.07759
247.1364, 27.75886
247.6185, 28.29409
248.1006, 28.17909
248.5827, 27.58867
249.0648, 27.15073
249.5470, 27.09483
250.0291, 27.27248
250.5112, 27.47715
250.9933, 27.73197
251.4754, 27.89112
251.9576, 27.76858
252.4397, 27.44868
252.9218, 27.33414
253.4039, 27.66960
253.8860, 28.06593
254.3681, 28.07021
254.8503, 27.68556
255.3324, 27.28350
255.8145, 27.12797
256.2966, 27.16437
256.7787, 27.10113
257.2608, 26.81440
257.7430, 26.51407
258.2251, 26.36499
258.7072, 26.35509
259.1893, 26.40460
259.6714, 26.45393
260.1535, 26.51539
260.6357, 26.68402
261.1178, 27.10355
261.5999, 27.44208
262.0820, 27.48464
262.5641, 27.28778
263.0462, 27.02788
263.5284, 26.73440
264.0105, 26.44241
264.4926, 26.39368
264.9747, 26.82838
265.4568, 27.16047
265.9389, 26.99004
266.4211, 26.52370
266.9032, 26.19507
267.3853, 26.34578
267.8674, 26.83322
268.3495, 27.00736
268.8316, 26.61986
269.3138, 26.28640
269.7959, 26.33239
270.2780, 26.55350
270.7601, 26.62424
271.2422, 26.32888
271.7243, 25.80990
272.2065, 25.56340
272.6886, 25.77626
273.1707, 25.95843
273.6528, 25.93546
274.1349, 25.82713
274.6170, 25.78332
275.0992, 25.87954
275.5813, 26.03955
276.0634, 26.05106
276.5455, 25.75989
277.0276, 25.61572
277.5097, 25.75147
277.9919, 26.01633
278.4740, 26.32157
278.9561, 26.63391
279.4382, 26.86523
279.9203, 26.79563
280.4024, 26.14170
280.8846, 25.80225
281.3667, 26.02311
281.8488, 26.43531
282.3309, 26.82910
282.8130, 27.13073
283.2951, 27.31097
283.7773, 27.30437
284.2594, 27.02152
284.7415, 26.76875
285.2236, 26.53053
285.7057, 26.33633
286.1878, 26.20825
286.6700, 26.14687
287.1521, 26.13381
287.6342, 26.15175
288.1163, 26.20531
288.5984, 26.27314
289.0805, 26.45421
289.5627, 26.56205
290.0448, 26.40366
290.5269, 26.06044
291.0090, 25.82336
291.4911, 25.99703
291.9732, 26.63337
292.4554, 27.00888
292.9375, 26.81665
293.4196, 26.67427
293.9017, 26.87319
294.3838, 27.28420
294.8659, 27.59013
295.3481, 27.54807
295.8302, 27.19272
296.3123, 26.99590
296.7944, 27.03646
297.2765, 27.16305
297.7586, 27.40748
298.2408, 27.70975
298.7229, 28.00712
299.2050, 28.26921
299.6871, 28.47144
300.1692, 28.51055
300.6513, 28.09645
301.1335, 27.87021
301.6156, 28.03066
302.0977, 28.34574
302.5798, 28.54149
303.0619, 28.51207
303.5440, 28.39137
304.0262, 28.46967
304.5083, 28.94462
304.9904, 29.33095
305.4725, 29.59509
305.9546, 29.79230
306.4367, 29.96243
306.9189, 30.11659
307.4010, 30.24675
307.8831, 30.32850
308.3652, 30.28868
308.8473, 30.40371
309.3294, 30.78157
309.8116, 31.20028
310.2937, 31.53068
310.7758, 31.76424
311.2579, 31.95220
311.7400, 32.12608
312.2221, 32.26075
312.7043, 32.58589
313.1864, 33.36604
313.6685, 34.05198
314.1506, 34.31643
314.6327, 34.29644
315.1148, 34.38491
315.5970, 34.90028
316.0791, 35.78729
316.5612, 36.27515
317.0433, 35.89649
317.5254, 35.64132
318.0075, 35.86664
318.4897, 36.31430
318.9718, 36.57281
319.4539, 36.42623
319.9360, 35.99172
320.4181, 35.63798
320.9002, 35.32594
321.3824, 35.16889
321.8645, 35.23451
322.3466, 35.42354
322.8287, 35.69954
323.3108, 36.03267
323.7929, 36.30955
324.2751, 36.29316
324.7572, 35.58957
325.2393, 35.37580
325.7214, 35.96703
326.2035, 36.74080
326.6856, 37.30379
327.1678, 37.59568
327.6499, 37.76470
328.1320, 37.94777
328.6141, 38.10627
329.0962, 38.49018
329.5783, 39.25363
330.0605, 40.06281
330.5426, 40.88169
331.0247, 41.63792
331.5068, 42.15380
331.9889, 42.24072
332.4710, 41.95219
332.9532, 42.16632
333.4353, 43.32525
333.9174, 44.54272
334.3995, 45.68296
334.8816, 46.77000
335.3637, 47.86833
335.8459, 49.00500
336.3280, 50.15252
336.8101, 51.18770
337.2922, 51.96549
337.7743, 52.85505
338.2564, 53.91619
338.7386, 55.07686
339.2206, 56.26795
339.7028, 57.47589
340.1849, 58.72283
340.6670, 60.05831
341.1491, 61.53570
341.6312, 62.95992
342.1133, 64.11418
342.5955, 65.39092
343.0776, 67.08781
343.5597, 69.15357
344.0418, 71.28014
344.5239, 73.16471
345.0060, 74.78652
345.4882, 76.53345
345.9703, 78.37955
346.4524, 80.39761
346.9345, 82.55219
347.4166, 84.90383
347.8987, 87.60390
348.3809, 90.77857
348.8630, 94.28829
349.3451, 97.45530
349.8272, 99.84876
350.3093, 102.6336
350.7914, 106.1831
351.2736, 110.1074
351.7557, 113.9600
352.2378, 117.5988
352.7199, 121.2664
353.2020, 125.3941
353.6841, 130.1570
354.1663, 134.8453
354.6484, 139.5333
355.1305, 144.0186
355.6126, 148.1386
356.0947, 151.8915
356.5768, 155.3955
357.0590, 158.9221
357.5411, 162.4895
358.0232, 165.1727
358.5053, 166.6960
358.9874, 167.5216
359.4695, 168.0333
359.9517, 168.0324
360.4338, 167.0859
360.9159, 164.8802
361.3980, 161.5936
361.8801, 157.6493
362.3622, 152.8495
362.8444, 147.8482
363.3265, 142.6700
363.8086, 137.5119
364.2907, 132.5863
364.7728, 127.9437
365.2549, 123.4871
365.7371, 119.0910
366.2192, 114.7315
366.7013, 110.4858
367.1834, 106.3569
367.6655, 102.3737
368.1476, 98.46062
368.6298, 94.62926
369.1119, 91.19550
369.5940, 88.68282
370.0761, 86.85152
370.5582, 84.50568
371.0403, 81.26137
371.5225, 78.02052
372.0046, 75.40854
372.4867, 73.26174
372.9688, 71.19582
373.4509, 69.00964
373.9330, 66.87212
374.4152, 65.07935
374.8973, 63.67122
375.3794, 62.32413
375.8615, 60.85308
376.3436, 59.37520
376.8257, 58.09074
377.3079, 57.10633
377.7900, 56.08654
378.2721, 54.74482
378.7542, 53.14656
379.2363, 51.55769
379.7184, 49.99817
380.2006, 48.55247
380.6827, 47.37012
381.1648, 46.44727
381.6469, 45.50245
382.1290, 44.43480
382.6111, 43.29221
383.0933, 42.11079
383.5754, 40.88424
384.0575, 39.73193
384.5396, 38.74243
385.0217, 37.91884
385.5038, 37.14537
385.9860, 36.43766
386.4681, 35.76707
386.9502, 35.13768
387.4323, 34.53757
387.9144, 33.92715
388.3965, 33.30238
388.8787, 32.63732
389.3608, 31.83713
389.8429, 30.78001
390.3250, 29.85441
390.8071, 29.15571
391.2892, 28.62304
391.7714, 28.22042
392.2535, 27.93377
392.7356, 27.68502
393.2177, 27.40347
393.6998, 27.10711
394.1819, 26.63277
394.6641, 25.75533
395.1462, 24.91535
395.6283, 24.38653
396.1104, 24.11738
396.5925, 23.91144
397.0746, 23.64100
397.5568, 23.32534
398.0389, 23.06299
398.5210, 22.87955
399.0031, 22.72368
399.4852, 22.70462
399.9673, 22.65861
400.4495, 22.33396
400.9316, 21.67568
401.4137, 20.95284
401.8958, 20.59897
402.3779, 20.79621
402.8600, 20.87347
403.3422, 20.78856
403.8243, 20.63995
404.3064, 20.47282
404.7885, 20.28593
405.2706, 20.04097
405.7527, 19.68271
406.2349, 19.24475
406.7170, 19.03315
407.1991, 19.29914
407.6812, 19.43394
408.1633, 19.22835
408.6454, 18.85901
409.1276, 18.49301
409.6097, 18.18871
410.0918, 17.97536
410.5739, 17.95033
411.0560, 18.17803
411.5381, 18.24682
412.0203, 17.90763
412.5024, 17.54549
412.9845, 17.40322
413.4666, 17.45584
413.9487, 17.51069
414.4308, 17.39987
414.9130, 17.18040
415.3951, 17.09545
415.8772, 17.22216
416.3593, 17.29319
416.8414, 17.09724
417.3235, 16.77433
417.8057, 16.50841
418.2878, 16.35871
418.7699, 16.24693
419.2520, 16.06723
419.7341, 15.83523
420.2162, 15.71947
420.6984, 15.83146
421.1805, 16.00207
421.6626, 16.00559
422.1447, 15.84415
422.6268, 15.67883
423.1089, 15.58625
423.5911, 15.51529
424.0732, 15.36501
424.5553, 15.12408
425.0374, 14.94256
425.5195, 14.96917
426.0016, 15.16501
426.4838, 15.23592
426.9659, 14.99515
427.4480, 14.82954
427.9301, 15.03679
428.4122, 15.43776
428.8943, 15.62936
429.3765, 15.44729
429.8586, 15.08385
430.3407, 14.87462
430.8228, 14.92316
431.3049, 14.90716
431.7870, 14.76828
432.2692, 14.60664
432.7513, 14.48909
433.2334, 14.42077
433.7155, 14.37303
434.1976, 14.32036
434.6797, 14.26660
435.1619, 14.26979
435.6440, 14.34910
436.1261, 14.46673
436.6082, 14.69926
437.0903, 14.93265
437.5724, 15.03954
438.0546, 14.97486
438.5367, 14.78565
439.0188, 14.47632
439.5009, 13.88723
439.9830, 13.70045
440.4651, 14.40784
440.9473, 15.09778
441.4294, 15.32243
441.9115, 15.16719
442.3936, 14.95956
442.8757, 14.90528
443.3578, 14.96603
443.8400, 15.03083
444.3221, 15.13278
444.8042, 15.15490
445.2863, 14.90762
445.7684, 14.63971
446.2505, 14.63899
446.7327, 14.98202
447.2148, 15.31608
447.6969, 15.27831
448.1790, 14.93985
448.6611, 14.68933
449.1432, 14.58058
449.6254, 14.58032
450.1075, 14.76377
450.5896, 15.05108
451.0717, 15.17468
451.5538, 14.89166
452.0359, 14.53762
452.5181, 14.41471
453.0002, 14.51070
453.4823, 14.76782
453.9644, 15.23797
454.4465, 15.76071
454.9286, 15.92566
455.4108, 15.60881
455.8929, 15.38691
456.3750, 15.37930
456.8571, 15.53726
457.3392, 15.89577
457.8214, 16.42432
458.3035, 16.87959
458.7856, 17.03633
459.2677, 16.89089
459.7498, 16.76311
460.2319, 16.66507
460.7141, 16.56763
461.1962, 16.36085
461.6783, 16.18170
462.1604, 16.28009
462.6425, 16.74053
463.1246, 17.32443
463.6068, 17.61430
464.0889, 17.48320
464.5710, 17.38610
465.0531, 17.38212
465.5352, 17.35568
466.0173, 17.18331
466.4995, 16.93757
466.9816, 16.80810
467.4637, 16.93231
467.9458, 17.24463
468.4279, 17.54220
468.9100, 17.82328
469.3922, 18.09678
469.8743, 18.39855
470.3564, 18.67524
470.8385, 18.85675
471.3206, 18.93534
471.8027, 19.02460
472.2849, 19.24257
472.7670, 19.54845
473.2491, 19.79846
473.7312, 19.99784
474.2133, 20.08567
474.6954, 19.87496
475.1776, 19.52472
475.6597, 19.42096
476.1418, 19.73127
476.6239, 20.17201
477.1060, 20.62501
477.5881, 21.05569
478.0703, 21.33705
478.5524, 21.39484
479.0345, 21.39998
479.5166, 21.60177
479.9987, 22.04366
480.4808, 22.49842
480.9630, 22.87777
481.4451, 23.32992
481.9272, 24.04896
482.4093, 24.94441
482.8914, 25.73041
483.3735, 26.23865
483.8557, 26.51330
484.3378, 26.71795
484.8199, 26.90591
485.3020, 26.93067
485.7841, 26.70500
486.2662, 26.38051
486.7484, 26.03645
487.2305, 25.70447
487.7126, 25.42459
488.1947, 25.24290
488.6768, 25.15162
489.1589, 25.03312
489.6411, 24.92746
490.1232, 24.72302
490.6053, 24.29828
491.0874, 23.81021
491.5695, 23.43514
492.0516, 23.22343
492.5338, 23.10971
493.0159, 23.04626
493.4980, 23.02967
493.9801, 23.04458
494.4622, 23.12625
494.9443, 23.16823
495.4265, 22.94305
495.9086, 22.58924
496.3907, 22.53504
496.8728, 23.07651
497.3549, 23.78447
497.8370, 24.30127
498.3192, 24.67810
498.8013, 25.09277
499.2834, 25.59744
499.7655, 26.21041
500.2476, 26.98014
500.7297, 27.94291
501.2119, 28.94108
501.6940, 30.02958
502.1761, 31.09772
502.6582, 31.97166
503.1403, 32.74166
503.6224, 33.76258
504.1045, 35.29749
504.5866, 37.11817
505.0688, 38.40279
505.5509, 38.84434
506.0330, 39.20426
506.5151, 39.51498
506.9972, 39.78172
507.4793, 40.13451
507.9615, 40.49378
508.4436, 40.52625
508.9257, 39.91570
509.4078, 38.73362
509.8899, 37.40796
510.3720, 35.83086
510.8542, 34.33897
511.3363, 33.04164
511.8184, 31.89635
512.3005, 30.88970
512.7827, 30.02373
513.2648, 29.22749
513.7469, 28.39638
514.2290, 27.59082
514.7111, 27.02044
515.1932, 26.75447
515.6754, 26.51437
516.1575, 26.07978
516.6396, 25.48887
517.1217, 24.94448
517.6038, 24.30437
518.0859, 23.88664
518.5681, 24.06957
519.0502, 24.51094
519.5323, 24.57830
520.0144, 24.09885
520.4965, 23.44934
520.9786, 23.07685
521.4608, 23.01445
521.9429, 23.04127
522.4250, 23.20154
522.9071, 23.38805
523.3892, 23.59143
523.8713, 23.78755
524.3535, 23.94504
524.8356, 24.05027
525.3177, 24.11821
525.7998, 24.17435
526.2819, 24.22479
526.7640, 24.23130
527.2462, 24.15316
527.7283, 24.06941
528.2104, 24.01620
528.6925, 23.98691
529.1746, 23.96333
529.6567, 23.93876
530.1389, 23.91478
530.6210, 23.83923
531.1031, 23.72480
531.5852, 23.82134
532.0673, 24.27933
532.5494, 24.85259
533.0316, 25.23305
533.5137, 25.43342
533.9958, 25.65380
534.4779, 25.90733
534.9600, 26.21671
535.4421, 26.64991
535.9243, 27.16305
536.4064, 27.60423
536.8885, 27.88748
537.3706, 28.11721
537.8527, 28.51857
538.3348, 29.25979
538.8170, 29.84171
539.2991, 30.01332
539.7812, 30.26028
540.2633, 30.85446
540.7454, 31.76999
541.2275, 32.89760
541.7097, 34.20238
542.1918, 35.57441
542.6739, 36.69809
543.1560, 37.48602
543.6381, 38.32215
544.1202, 39.29845
544.6024, 40.32825
545.0845, 41.31141
545.5666, 42.28362
546.0487, 43.40101
546.5308, 44.80503
547.0129, 46.38223
547.4951, 47.93682
547.9772, 49.47436
548.4593, 51.09463
548.9414, 52.80320
549.4235, 54.64956
549.9056, 56.79346
550.3878, 59.29990
550.8699, 61.62535
551.3520, 63.22902
551.8341, 64.93250
552.3162, 67.48368
552.7983, 70.78159
553.2805, 74.29459
553.7626, 77.74673
554.2447, 81.14355
554.7268, 84.51971
555.2089, 87.87686
555.6910, 91.20031
556.1732, 94.90981
556.6553, 98.24590
557.1374, 100.9015
557.6195, 102.7967
558.1016, 103.8894
558.5837, 104.1916
559.0659, 103.4049
559.5480, 102.0116
560.0301, 99.25036
560.5122, 95.78053
560.9943, 91.43362
561.4764, 86.67578
561.9586, 81.97448
562.4407, 77.33241
562.9228, 72.61191
563.4049, 67.47976
563.8870, 62.43700
564.3691, 58.04976
564.8513, 54.27988
565.3334, 50.84364
565.8155, 47.62269
566.2976, 44.64700
566.7797, 41.96902
567.2618, 39.73180
567.7440, 37.50462
568.2261, 35.03782
568.7082, 32.82574
569.1903, 31.27100
569.6724, 30.19956
570.1545, 29.14461
570.6367, 27.86082
571.1188, 26.48965
571.6009, 25.35491
572.0830, 24.49969
572.5651, 23.67777
573.0472, 22.77394
573.5294, 21.99655
574.0115, 21.50298
574.4936, 21.22283
574.9757, 20.96892
575.4578, 20.69963
575.9399, 20.37512
576.4221, 19.85540
576.9042, 19.20262
577.3863, 18.79058
577.8684, 18.76272
578.3505, 18.90437
578.8326, 19.00931
579.3148, 19.07779
579.7969, 19.01610
580.2790, 18.74853
580.7611, 18.42631
581.2432, 18.07155
581.7253, 17.72582
582.2075, 17.42892
582.6896, 17.20071
583.1717, 17.06998
583.6538, 17.10208
584.1359, 17.33223
584.6180, 17.47249
585.1002, 17.47330
585.5823, 17.43877
586.0643, 17.38313
586.5464, 17.32012
587.0286, 17.24914
587.5107, 17.16477
587.9928, 17.13835
