##NAMES=Pyroxmangite
##RRUFFID=R060999
##IDEAL CHEMISTRY=Mn^2+^SiO_3_
##LOCALITY=Yokoneyama, Tochigi, Japan
##OWNER=RRUFF
##SOURCE=Michael Scott
##DESCRIPTION=Pink bladed crystals frozen in matrix associated with protomangano-ferro-anthophyllite R061000
##STATUS=The identification of this mineral is confirmed by single-crystal X-ray diffraction and chemical analysis.
##URL=rruff.info/R060999
##MEASURED CHEMISTRY=(Mn^2+^_0.61_Fe^2+^_0.27_Mg_0.09_Ca_0.03_)_Î£=1_Si_1.00_O_3_
123.9327, 1065.187
124.4148, 1108.333
124.8969, 1148.760
125.3791, 1197.489
125.8612, 1267.203
126.3433, 1345.003
126.8254, 1411.302
127.3075, 1464.376
127.7896, 1512.021
128.2718, 1564.254
128.7539, 1619.811
129.2360, 1670.364
129.7181, 1715.434
130.2002, 1752.524
130.6823, 1773.320
131.1645, 1773.196
131.6466, 1761.455
132.1287, 1755.314
132.6108, 1754.994
133.0929, 1755.727
133.5750, 1754.016
134.0572, 1749.864
134.5393, 1745.414
135.0214, 1743.099
135.5035, 1740.867
135.9856, 1726.277
136.4677, 1696.507
136.9499, 1663.033
137.4320, 1639.118
137.9141, 1626.116
138.3962, 1616.231
138.8783, 1605.405
139.3604, 1592.813
139.8426, 1591.731
140.3247, 1606.173
140.8068, 1628.561
141.2889, 1645.183
141.7710, 1654.662
142.2531, 1660.959
142.7353, 1665.251
143.2174, 1665.859
143.6995, 1668.554
144.1816, 1673.926
144.6637, 1681.520
145.1458, 1689.121
145.6280, 1696.741
146.1101, 1704.298
146.5922, 1711.548
147.0743, 1716.421
147.5564, 1723.994
148.0385, 1736.041
148.5207, 1752.793
149.0028, 1766.929
149.4849, 1773.035
149.9670, 1779.189
150.4491, 1792.882
150.9312, 1825.558
151.4134, 1854.829
151.8955, 1876.245
152.3776, 1888.258
152.8597, 1898.142
153.3418, 1902.161
153.8239, 1905.085
154.3061, 1914.022
154.7882, 1937.393
155.2703, 1960.925
155.7524, 1979.136
156.2345, 1988.120
156.7166, 1997.543
157.1988, 2009.948
157.6809, 2024.048
158.1630, 2036.389
158.6451, 2045.692
159.1272, 2052.805
159.6093, 2058.245
160.0915, 2062.760
160.5736, 2064.564
161.0557, 2065.100
161.5378, 2063.508
162.0199, 2053.804
162.5020, 2028.966
162.9841, 1996.775
163.4663, 1964.198
163.9484, 1935.194
164.4305, 1905.099
164.9126, 1870.134
165.3947, 1830.009
165.8768, 1792.092
166.3590, 1763.371
166.8411, 1739.009
167.3232, 1711.565
167.8053, 1669.223
168.2874, 1628.044
168.7695, 1602.828
169.2517, 1598.349
169.7338, 1594.698
170.2159, 1576.460
170.6980, 1548.208
171.1801, 1519.825
171.6622, 1495.112
172.1444, 1473.578
172.6265, 1454.436
173.1086, 1436.865
173.5907, 1422.970
174.0728, 1415.127
174.5549, 1412.738
175.0371, 1413.270
175.5192, 1418.414
176.0013, 1424.765
176.4834, 1426.242
176.9655, 1417.747
177.4476, 1407.407
177.9298, 1406.373
178.4119, 1414.277
178.8940, 1423.786
179.3761, 1427.020
179.8582, 1427.178
180.3403, 1432.449
180.8225, 1449.846
181.3046, 1472.441
181.7867, 1487.569
182.2688, 1494.713
182.7509, 1498.942
183.2330, 1506.394
183.7152, 1515.744
184.1973, 1521.874
184.6794, 1523.128
185.1615, 1519.444
185.6436, 1508.735
186.1257, 1489.305
186.6079, 1468.791
187.0900, 1457.192
187.5721, 1454.076
188.0542, 1454.813
188.5363, 1458.800
189.0184, 1465.190
189.5006, 1469.616
189.9827, 1471.162
190.4648, 1471.749
190.9469, 1476.137
191.4290, 1484.447
191.9111, 1490.407
192.3932, 1487.001
192.8754, 1475.409
193.3575, 1471.134
193.8396, 1478.489
194.3217, 1492.195
194.8038, 1498.654
195.2859, 1497.475
195.7681, 1491.870
196.2502, 1481.296
196.7323, 1465.624
197.2144, 1456.777
197.6965, 1459.136
198.1786, 1469.577
198.6608, 1475.462
199.1429, 1476.380
199.6250, 1473.903
200.1071, 1467.952
200.5892, 1457.830
201.0714, 1450.485
201.5535, 1447.029
202.0356, 1447.569
202.5177, 1455.260
202.9998, 1472.667
203.4819, 1491.508
203.9641, 1499.903
204.4462, 1495.558
204.9283, 1492.071
205.4104, 1493.168
205.8925, 1498.918
206.3746, 1509.928
206.8568, 1530.003
207.3389, 1550.149
207.8210, 1553.890
208.3031, 1536.185
208.7852, 1519.832
209.2673, 1514.254
209.7495, 1521.580
210.2316, 1527.630
210.7137, 1531.421
211.1958, 1534.913
211.6779, 1542.893
212.1600, 1557.793
212.6422, 1571.213
213.1243, 1579.433
213.6064, 1581.787
214.0885, 1580.167
214.5706, 1571.131
215.0527, 1559.465
215.5349, 1561.345
216.0170, 1584.855
216.4991, 1605.537
216.9812, 1607.453
217.4633, 1581.280
217.9454, 1564.328
218.4276, 1562.119
218.9097, 1570.951
219.3918, 1575.372
219.8739, 1575.014
220.3560, 1570.814
220.8381, 1562.275
221.3203, 1546.348
221.8024, 1534.177
222.2845, 1527.475
222.7666, 1525.784
223.2487, 1526.464
223.7308, 1532.251
224.2129, 1536.913
224.6951, 1534.900
225.1772, 1521.940
225.6593, 1511.555
226.1414, 1505.631
226.6235, 1504.099
227.1056, 1504.878
227.5878, 1509.592
228.0699, 1514.758
228.5520, 1516.817
229.0341, 1512.545
229.5162, 1511.613
229.9983, 1517.410
230.4805, 1530.429
230.9626, 1538.111
231.4447, 1537.237
231.9268, 1533.876
232.4089, 1535.061
232.8910, 1544.864
233.3732, 1551.694
233.8553, 1551.632
234.3374, 1543.198
234.8195, 1539.447
235.3016, 1539.976
235.7837, 1545.526
236.2659, 1557.875
236.7480, 1581.642
237.2301, 1604.377
237.7122, 1623.082
238.1943, 1637.548
238.6764, 1648.931
239.1586, 1655.943
239.6407, 1660.847
240.1228, 1666.725
240.6049, 1673.011
241.0870, 1681.326
241.5691, 1693.073
242.0513, 1710.278
242.5334, 1722.940
243.0155, 1729.256
243.4976, 1731.909
243.9797, 1734.871
244.4618, 1735.532
244.9440, 1740.592
245.4261, 1754.105
245.9082, 1781.711
246.3903, 1799.803
246.8724, 1805.120
247.3545, 1802.326
247.8367, 1800.232
248.3188, 1797.644
248.8009, 1797.777
249.2830, 1802.685
249.7651, 1815.203
250.2472, 1824.523
250.7294, 1829.299
251.2115, 1831.567
251.6936, 1835.537
252.1757, 1840.505
252.6578, 1848.545
253.1399, 1860.489
253.6220, 1876.115
254.1042, 1897.020
254.5863, 1926.041
255.0684, 1959.250
255.5505, 1984.885
256.0326, 1995.980
256.5147, 2011.174
256.9969, 2040.556
257.4790, 2091.082
257.9611, 2137.217
258.4432, 2177.154
258.9253, 2212.982
259.4074, 2249.393
259.8896, 2284.917
260.3717, 2324.226
260.8538, 2370.613
261.3359, 2425.801
261.8180, 2483.906
262.3001, 2547.680
262.7823, 2613.374
263.2644, 2671.093
263.7465, 2717.728
264.2286, 2761.716
264.7107, 2808.690
265.1928, 2864.140
265.6750, 2904.364
266.1571, 2924.066
266.6392, 2929.395
267.1213, 2941.123
267.6034, 2963.625
268.0855, 2982.511
268.5677, 2988.204
269.0498, 2977.663
269.5319, 2968.294
270.0140, 2962.859
270.4961, 2958.771
270.9782, 2946.855
271.4604, 2924.779
271.9425, 2901.077
272.4246, 2880.317
272.9067, 2862.527
273.3888, 2847.045
273.8709, 2832.477
274.3531, 2820.919
274.8352, 2820.277
275.3173, 2833.161
275.7994, 2848.006
276.2815, 2856.811
276.7636, 2858.656
277.2458, 2863.033
277.7279, 2871.313
278.2100, 2882.284
278.6921, 2891.385
279.1742, 2897.359
279.6563, 2907.407
280.1385, 2930.903
280.6206, 2968.075
281.1027, 2991.701
281.5848, 2993.903
282.0669, 2985.294
282.5490, 2994.490
283.0312, 3023.702
283.5133, 3053.764
283.9954, 3071.760
284.4775, 3078.150
284.9596, 3082.033
285.4417, 3081.894
285.9239, 3083.182
286.4060, 3099.427
286.8881, 3130.958
287.3702, 3167.451
287.8523, 3205.253
288.3344, 3243.612
288.8166, 3275.533
289.2987, 3300.361
289.7808, 3318.559
290.2629, 3326.097
290.7450, 3323.331
291.2271, 3326.621
291.7093, 3354.582
292.1914, 3399.673
292.6735, 3429.073
293.1556, 3435.450
293.6377, 3430.431
294.1198, 3430.520
294.6020, 3435.408
295.0841, 3441.205
295.5662, 3444.840
296.0483, 3447.658
296.5304, 3454.877
297.0125, 3469.619
297.4947, 3482.656
297.9768, 3479.622
298.4589, 3462.718
298.9410, 3442.734
299.4231, 3427.333
299.9052, 3413.103
300.3873, 3393.329
300.8694, 3366.129
301.3516, 3336.161
301.8337, 3308.930
302.3158, 3283.011
302.7979, 3254.347
303.2800, 3216.525
303.7621, 3175.640
304.2443, 3138.475
304.7264, 3105.904
305.2085, 3079.235
305.6906, 3066.436
306.1727, 3061.295
306.6548, 3048.002
307.1370, 3007.824
307.6191, 2960.792
308.1012, 2929.240
308.5833, 2918.076
309.0654, 2911.003
309.5475, 2897.366
310.0297, 2879.638
310.5118, 2862.128
310.9939, 2842.729
311.4760, 2827.207
311.9581, 2821.428
312.4402, 2827.366
312.9224, 2834.163
313.4045, 2831.220
313.8866, 2826.009
314.3687, 2829.705
314.8508, 2860.207
315.3329, 2890.485
315.8151, 2902.044
316.2972, 2891.448
316.7793, 2885.157
317.2614, 2902.082
317.7435, 2927.135
318.2256, 2942.375
318.7078, 2931.149
319.1899, 2919.021
319.6720, 2914.385
320.1541, 2917.699
320.6362, 2928.676
321.1183, 2951.190
321.6005, 2979.517
322.0826, 3008.136
322.5647, 3043.706
323.0468, 3071.635
323.5289, 3084.864
324.0110, 3082.847
324.4932, 3083.476
324.9753, 3087.744
325.4574, 3096.459
325.9395, 3110.262
326.4216, 3135.534
326.9037, 3158.945
327.3859, 3178.513
327.8680, 3194.296
328.3501, 3209.223
328.8322, 3221.282
329.3143, 3233.822
329.7964, 3248.911
330.2786, 3265.788
330.7607, 3286.640
331.2428, 3315.630
331.7249, 3350.090
332.2070, 3374.036
332.6891, 3377.220
333.1713, 3381.741
333.6534, 3401.712
334.1355, 3449.063
334.6176, 3486.011
335.0997, 3511.177
335.5818, 3524.289
336.0640, 3524.095
336.5461, 3507.044
337.0282, 3483.130
337.5103, 3455.590
337.9924, 3423.246
338.4745, 3394.495
338.9567, 3373.367
339.4388, 3352.609
339.9209, 3313.618
340.4030, 3253.011
340.8851, 3189.889
341.3672, 3135.628
341.8494, 3089.937
342.3315, 3040.557
342.8136, 2987.037
343.2957, 2929.844
343.7778, 2863.575
344.2599, 2788.367
344.7421, 2723.428
345.2242, 2684.000
345.7063, 2664.626
346.1884, 2638.152
346.6705, 2603.944
347.1526, 2566.066
347.6348, 2526.477
348.1169, 2486.557
348.5990, 2453.066
349.0811, 2430.366
349.5632, 2415.869
350.0453, 2407.274
350.5275, 2404.821
351.0096, 2399.583
351.4917, 2373.864
351.9738, 2338.889
352.4559, 2321.559
352.9380, 2339.225
353.4202, 2371.584
353.9023, 2395.539
354.3844, 2411.983
354.8665, 2428.271
355.3486, 2450.612
355.8307, 2475.535
356.3129, 2499.414
356.7950, 2523.117
357.2771, 2542.250
357.7592, 2551.549
358.2413, 2552.894
358.7234, 2553.176
359.2056, 2555.448
359.6877, 2558.389
360.1698, 2560.325
360.6519, 2558.510
361.1340, 2560.545
361.6161, 2578.646
362.0982, 2602.964
362.5804, 2612.327
363.0625, 2589.487
363.5446, 2557.795
364.0267, 2527.871
364.5088, 2501.025
364.9909, 2475.667
365.4731, 2456.577
365.9552, 2437.453
366.4373, 2409.308
366.9194, 2359.332
367.4015, 2311.192
367.8836, 2272.927
368.3658, 2248.158
368.8479, 2216.829
369.3300, 2172.937
369.8121, 2125.458
370.2942, 2083.729
370.7763, 2051.427
371.2585, 2019.105
371.7406, 1984.267
372.2227, 1947.333
372.7048, 1913.916
373.1869, 1884.634
373.6690, 1858.442
374.1512, 1835.595
374.6333, 1819.109
375.1154, 1796.652
375.5975, 1765.214
376.0796, 1726.872
376.5617, 1688.456
377.0439, 1647.937
377.5260, 1614.391
378.0081, 1596.808
378.4902, 1596.101
378.9723, 1592.000
379.4544, 1582.938
379.9366, 1570.082
380.4187, 1552.315
380.9008, 1529.559
381.3829, 1512.831
381.8650, 1511.855
382.3471, 1522.516
382.8293, 1526.662
383.3114, 1522.853
383.7935, 1516.727
384.2756, 1513.225
384.7577, 1512.607
385.2398, 1515.808
385.7220, 1524.293
386.2041, 1536.352
386.6862, 1549.094
387.1683, 1562.604
387.6504, 1578.496
388.1325, 1601.333
388.6147, 1626.942
389.0968, 1647.632
389.5789, 1655.595
390.0610, 1663.819
390.5431, 1685.674
391.0252, 1718.067
391.5074, 1746.017
391.9895, 1754.530
392.4716, 1759.528
392.9537, 1775.505
393.4358, 1813.364
393.9179, 1847.908
394.4001, 1870.371
394.8822, 1882.735
395.3643, 1889.803
395.8464, 1886.323
396.3285, 1883.207
396.8106, 1888.586
397.2928, 1911.609
397.7749, 1916.978
398.2570, 1884.991
398.7391, 1837.722
399.2212, 1804.144
399.7033, 1796.686
400.1855, 1789.922
400.6676, 1777.218
401.1497, 1757.831
401.6318, 1748.041
402.1139, 1754.323
402.5960, 1763.702
403.0782, 1764.162
403.5603, 1748.915
404.0424, 1742.298
404.5245, 1751.053
405.0066, 1770.545
405.4887, 1781.161
405.9709, 1781.659
406.4530, 1776.940
406.9351, 1765.070
407.4172, 1744.993
407.8993, 1743.388
408.3814, 1766.431
408.8636, 1801.468
409.3457, 1826.512
409.8278, 1841.992
410.3099, 1856.227
410.7920, 1871.886
411.2741, 1889.333
411.7563, 1910.011
412.2384, 1934.386
412.7205, 1959.872
413.2026, 1980.248
413.6847, 1999.929
414.1668, 2029.970
414.6490, 2079.472
415.1311, 2137.623
415.6132, 2197.012
416.0953, 2257.202
416.5774, 2309.890
417.0595, 2342.713
417.5417, 2369.491
418.0238, 2406.385
418.5059, 2463.544
418.9880, 2520.138
419.4701, 2568.590
419.9522, 2608.353
420.4344, 2636.693
420.9165, 2648.502
421.3986, 2652.088
421.8807, 2653.019
422.3628, 2655.078
422.8449, 2643.690
423.3270, 2608.160
423.8091, 2560.482
424.2913, 2515.026
424.7734, 2483.523
425.2555, 2444.076
425.7376, 2392.765
426.2197, 2329.449
426.7018, 2259.297
427.1840, 2175.328
427.6661, 2090.796
428.1482, 2015.887
428.6303, 1953.386
429.1124, 1890.782
429.5945, 1825.897
430.0767, 1760.342
430.5588, 1695.979
431.0409, 1631.357
431.5230, 1574.997
432.0051, 1533.786
432.4872, 1507.332
432.9694, 1481.147
433.4515, 1454.449
433.9336, 1427.887
434.4157, 1403.387
434.8978, 1380.387
435.3799, 1354.414
435.8621, 1318.957
436.3442, 1281.052
436.8263, 1257.553
437.3084, 1247.873
437.7905, 1240.191
438.2726, 1222.101
438.7548, 1200.400
439.2369, 1186.061
439.7190, 1183.754
440.2011, 1186.659
440.6832, 1190.656
441.1653, 1195.662
441.6475, 1201.426
442.1296, 1206.882
442.6117, 1213.702
443.0938, 1223.649
443.5759, 1238.075
444.0580, 1251.410
444.5402, 1259.059
445.0223, 1265.309
445.5044, 1275.319
445.9865, 1293.184
446.4686, 1311.758
446.9507, 1329.695
447.4329, 1347.066
447.9150, 1363.233
448.3971, 1377.179
448.8792, 1390.822
449.3613, 1405.953
449.8434, 1424.759
450.3256, 1440.413
450.8077, 1452.659
451.2898, 1461.318
451.7719, 1466.443
452.2540, 1468.960
452.7361, 1464.501
453.2183, 1448.380
453.7004, 1420.989
454.1825, 1398.229
454.6646, 1380.878
455.1467, 1366.003
455.6288, 1352.475
456.1110, 1339.524
456.5931, 1321.302
457.0752, 1291.895
457.5573, 1260.172
458.0394, 1245.182
458.5215, 1245.028
459.0037, 1244.864
459.4858, 1231.545
459.9679, 1212.741
460.4500, 1199.929
460.9321, 1196.440
461.4142, 1194.029
461.8964, 1184.397
462.3785, 1171.865
462.8606, 1164.481
463.3427, 1171.122
463.8248, 1178.922
464.3069, 1180.984
464.7891, 1176.714
465.2712, 1172.266
465.7533, 1171.206
466.2354, 1169.448
466.7175, 1163.858
467.1996, 1145.958
467.6818, 1134.099
468.1639, 1131.959
468.6460, 1136.897
469.1281, 1139.951
469.6102, 1140.841
470.0923, 1140.210
470.5745, 1138.014
471.0566, 1133.877
471.5387, 1130.013
472.0208, 1126.233
472.5029, 1123.037
472.9850, 1121.387
473.4672, 1121.415
473.9493, 1121.248
474.4314, 1121.827
474.9135, 1121.104
475.3956, 1111.568
475.8777, 1093.266
476.3599, 1074.377
476.8420, 1060.697
477.3241, 1051.056
477.8062, 1043.443
478.2883, 1038.067
478.7704, 1033.189
479.2526, 1025.291
479.7347, 1016.633
480.2168, 1012.133
480.6989, 1019.395
481.1810, 1027.261
481.6631, 1027.646
482.1453, 1020.378
482.6274, 1012.579
483.1095, 1005.697
483.5916, 1000.271
484.0737, 996.8013
484.5558, 995.2937
485.0379, 995.7393
485.5201, 999.9509
486.0022, 1006.192
486.4843, 1009.795
486.9664, 1009.227
487.4485, 1007.948
487.9306, 1007.175
488.4128, 1007.184
488.8949, 1005.772
489.3770, 1002.344
489.8591, 998.5242
490.3412, 994.0021
490.8233, 987.5625
491.3055, 991.8475
491.7876, 1013.649
492.2697, 1043.257
492.7518, 1055.407
493.2339, 1050.340
493.7160, 1043.572
494.1982, 1047.219
494.6803, 1055.919
495.1624, 1054.887
495.6445, 1041.827
496.1266, 1029.572
496.6087, 1030.169
497.0909, 1039.499
497.5730, 1050.596
498.0551, 1064.331
498.5372, 1075.761
499.0193, 1080.939
499.5014, 1080.692
499.9836, 1078.840
500.4657, 1076.990
500.9478, 1073.955
501.4299, 1068.292
501.9120, 1057.035
502.3941, 1049.951
502.8763, 1048.734
503.3584, 1052.336
503.8405, 1059.438
504.3226, 1071.902
504.8047, 1084.929
505.2868, 1097.111
505.7690, 1108.793
506.2511, 1123.037
506.7332, 1138.784
507.2153, 1159.488
507.6974, 1191.327
508.1795, 1234.362
508.6617, 1264.946
509.1438, 1277.952
509.6259, 1287.030
510.1080, 1313.222
510.5901, 1354.202
511.0722, 1396.413
511.5544, 1435.072
512.0365, 1471.011
512.5186, 1503.998
513.0007, 1534.650
513.4828, 1565.837
513.9650, 1602.041
514.4471, 1638.677
514.9292, 1670.540
515.4113, 1695.353
515.8934, 1718.720
516.3755, 1738.767
516.8576, 1760.095
517.3397, 1790.335
517.8218, 1847.834
518.3040, 1898.074
518.7861, 1928.027
519.2682, 1936.745
519.7503, 1948.911
520.2324, 1966.900
520.7145, 1986.256
521.1967, 2006.428
521.6788, 2034.225
522.1609, 2042.513
522.6430, 2025.859
523.1251, 1994.468
523.6072, 1966.750
524.0894, 1943.530
524.5715, 1915.021
525.0536, 1873.599
525.5357, 1825.649
526.0178, 1792.747
526.4999, 1774.680
526.9821, 1756.933
527.4642, 1724.588
527.9463, 1685.356
528.4284, 1655.344
528.9105, 1639.764
529.3926, 1623.701
529.8748, 1593.637
530.3569, 1554.924
530.8390, 1517.280
531.3211, 1484.259
531.8032, 1453.531
532.2853, 1424.895
532.7675, 1397.982
533.2496, 1369.955
533.7317, 1334.105
534.2138, 1301.409
534.6959, 1277.602
535.1780, 1265.409
535.6602, 1257.370
536.1423, 1255.642
536.6244, 1256.375
537.1065, 1254.802
537.5886, 1252.117
538.0707, 1242.436
538.5529, 1221.614
539.0350, 1192.985
539.5171, 1170.961
539.9992, 1155.814
540.4813, 1143.112
540.9634, 1128.095
541.4456, 1112.956
541.9277, 1106.369
542.4098, 1110.565
542.8919, 1115.091
543.3740, 1108.163
543.8561, 1094.296
544.3383, 1081.470
544.8204, 1069.545
545.3025, 1062.519
545.7846, 1067.772
546.2667, 1081.610
546.7488, 1088.501
547.2310, 1071.668
547.7131, 1055.876
548.1952, 1054.584
548.6773, 1076.110
549.1594, 1090.980
549.6415, 1095.060
550.1237, 1094.585
550.6058, 1095.070
551.0879, 1095.524
551.5700, 1099.811
552.0521, 1109.746
552.5342, 1123.137
553.0164, 1133.242
553.4985, 1139.682
553.9806, 1146.459
554.4627, 1155.813
554.9448, 1167.276
555.4269, 1179.545
555.9091, 1192.799
556.3912, 1204.486
556.8733, 1211.502
557.3554, 1215.467
557.8375, 1219.388
558.3196, 1225.877
558.8018, 1229.056
559.2839, 1219.370
559.7660, 1203.759
560.2481, 1196.520
560.7302, 1210.801
561.2123, 1226.870
561.6945, 1237.310
562.1766, 1241.415
562.6587, 1244.319
563.1408, 1249.357
563.6229, 1250.563
564.1050, 1243.681
564.5872, 1224.087
565.0693, 1208.738
565.5514, 1199.781
566.0335, 1192.855
566.5156, 1179.914
566.9977, 1160.562
567.4799, 1143.563
567.9620, 1132.644
568.4441, 1125.419
568.9262, 1115.682
569.4083, 1103.743
569.8904, 1093.843
570.3726, 1088.651
570.8547, 1087.205
571.3368, 1089.340
571.8189, 1095.652
572.3010, 1100.255
572.7831, 1091.843
573.2653, 1082.652
573.7474, 1086.420
574.2295, 1125.284
574.7116, 1157.036
575.1937, 1167.143
575.6758, 1162.243
576.1580, 1164.029
576.6401, 1180.856
577.1222, 1194.396
577.6043, 1198.205
578.0864, 1191.793
578.5685, 1186.920
579.0507, 1183.898
579.5328, 1181.524
580.0149, 1179.300
580.4970, 1177.132
580.9791, 1174.159
581.4612, 1171.336
581.9434, 1164.411
582.4255, 1143.220
582.9076, 1112.486
583.3897, 1086.631
583.8718, 1075.559
584.3539, 1069.152
584.8361, 1059.808
585.3182, 1047.590
585.8003, 1032.684
586.2824, 1008.474
586.7645, 986.8470
587.2466, 976.8170
587.7288, 984.1301
588.2109, 985.8725
588.6930, 972.0789
589.1751, 956.0490
589.6572, 949.8967
590.1393, 960.7375
590.6215, 965.3660
591.1036, 959.3475
591.5857, 947.3720
592.0678, 941.7319
592.5499, 943.2374
593.0320, 942.5674
593.5142, 933.6661
593.9963, 919.8479
594.4784, 910.8801
594.9605, 906.6783
595.4426, 906.9279
595.9247, 916.2279
596.4069, 927.8588
596.8890, 931.4102
597.3711, 922.7225
597.8532, 915.8761
598.3353, 920.1553
598.8174, 930.2644
599.2996, 939.6734
599.7817, 946.9209
600.2638, 952.9619
600.7459, 957.6231
601.2280, 961.1623
601.7101, 964.3018
602.1923, 966.4258
602.6744, 969.2330
603.1565, 974.0011
603.6386, 980.7556
604.1207, 983.2538
604.6028, 980.2665
605.0850, 978.3236
605.5671, 984.7443
606.0492, 997.6134
606.5313, 1007.952
607.0134, 1014.004
607.4955, 1019.680
607.9777, 1030.950
608.4598, 1044.879
608.9419, 1055.994
609.4240, 1060.585
609.9061, 1062.940
610.3882, 1062.737
610.8704, 1061.606
611.3525, 1065.755
611.8346, 1083.292
612.3167, 1100.738
612.7988, 1111.714
613.2809, 1115.029
613.7631, 1120.305
614.2452, 1126.229
614.7273, 1135.981
615.2094, 1154.417
615.6915, 1183.333
616.1736, 1203.982
616.6558, 1212.783
617.1379, 1216.911
617.6200, 1226.243
618.1021, 1240.318
618.5842, 1257.241
