##NAMES=Pyrope
##RRUFFID=R050446
##IDEAL CHEMISTRY=Mg_3_Al_2_(SiO_4_)_3_
##LOCALITY=Sunset Crater, Arizona, USA
##OWNER=RRUFF
##SOURCE=Marcus Origlieri
##DESCRIPTION=Red fragment
##STATUS=The identification of this mineral has been confirmed by X-ray diffraction and chemical analysis
##URL=rruff.info/R050446
##MEASURED CHEMISTRY=(Mg_1.93_Fe^2+^_0.65_Ca_0.42_)_Î£=3_Al_2.00_(Si_1.00_O_4_)_3_
91.00781, 3.842762
91.48993, 3.922213
91.97205, 3.954101
92.45416, 3.849353
92.93628, 3.700503
93.41840, 3.751228
93.90051, 4.120140
94.38263, 4.563530
94.86475, 4.599627
95.34686, 4.233056
95.82898, 3.906435
96.31110, 4.119646
96.79321, 4.802947
97.27533, 5.159101
97.75745, 4.820813
98.23956, 4.040792
98.72168, 4.000721
99.20380, 4.867033
99.68591, 5.952112
100.1680, 6.469396
100.6501, 6.294608
101.1323, 6.135130
101.6144, 6.181223
102.0965, 6.441335
102.5786, 6.813401
103.0607, 7.332095
103.5428, 7.934733
104.0250, 8.530165
104.5071, 9.097258
104.9892, 9.683571
105.4713, 10.28883
105.9534, 10.85326
106.4355, 11.57684
106.9177, 12.63533
107.3998, 13.86077
107.8819, 14.75236
108.3640, 15.00098
108.8461, 15.15356
109.3282, 15.46588
109.8104, 16.03223
110.2925, 16.64130
110.7746, 17.12015
111.2567, 17.53487
111.7388, 18.43415
112.2209, 20.61592
112.7031, 22.89248
113.1852, 24.46612
113.6673, 24.21151
114.1494, 24.15009
114.6315, 24.90889
115.1136, 26.53783
115.5958, 28.20247
116.0779, 29.84781
116.5600, 31.32983
117.0421, 32.48240
117.5242, 32.78418
118.0063, 33.09850
118.4885, 33.92060
118.9706, 35.35419
119.4527, 36.96467
119.9348, 38.69662
120.4169, 40.42950
120.8990, 41.96862
121.3812, 43.00208
121.8633, 43.88523
122.3454, 45.05030
122.8275, 46.78375
123.3096, 48.26582
123.7917, 48.58553
124.2739, 47.97433
124.7560, 47.28173
125.2381, 46.83453
125.7202, 46.69900
126.2023, 47.02923
126.6844, 47.99582
127.1666, 49.26377
127.6487, 50.46029
128.1308, 51.58526
128.6129, 52.55862
129.0950, 53.19674
129.5771, 53.60574
130.0593, 54.17836
130.5414, 55.08788
131.0235, 56.20620
131.5056, 57.13527
131.9877, 57.64310
132.4698, 57.86681
132.9520, 58.25670
133.4341, 58.80472
133.9162, 59.36449
134.3983, 59.82821
134.8804, 60.23115
135.3625, 60.91954
135.8447, 61.96443
136.3268, 63.11647
136.8089, 63.98211
137.2910, 64.49343
137.7731, 65.15440
138.2552, 66.39680
138.7374, 68.39735
139.2195, 69.42660
139.7016, 69.29575
140.1837, 68.41468
140.6658, 67.57899
141.1479, 66.74666
141.6301, 66.02570
142.1122, 65.47438
142.5943, 65.15004
143.0764, 64.80848
143.5585, 64.36404
144.0406, 63.89887
144.5228, 63.70846
145.0049, 63.90582
145.4870, 64.23254
145.9691, 64.58353
146.4512, 65.27421
146.9333, 65.47428
147.4155, 64.92415
147.8976, 63.72304
148.3797, 62.85336
148.8618, 62.60631
149.3439, 62.47078
149.8260, 62.11806
150.3082, 61.17039
150.7903, 60.42144
151.2724, 60.10270
151.7545, 60.23495
152.2366, 59.95256
152.7188, 58.58471
153.2009, 57.10242
153.6830, 56.30087
154.1651, 57.36439
154.6472, 58.02349
155.1293, 57.50639
155.6115, 55.60236
156.0936, 54.16279
156.5757, 53.91771
157.0578, 54.14526
157.5399, 54.06067
158.0220, 53.19118
158.5042, 52.23541
158.9863, 51.40804
159.4684, 50.70380
159.9505, 50.22694
160.4326, 50.25255
160.9147, 50.49028
161.3969, 50.50763
161.8790, 49.94376
162.3611, 49.27547
162.8432, 48.76528
163.3253, 48.49933
163.8074, 48.24618
164.2896, 47.74026
164.7717, 47.16966
165.2538, 46.91158
165.7359, 47.40774
166.2180, 48.12189
166.7001, 48.62693
167.1823, 48.73562
167.6644, 48.86212
168.1465, 49.27166
168.6286, 49.90639
169.1107, 50.60521
169.5928, 51.47742
170.0750, 52.28553
170.5571, 52.74915
171.0392, 52.61224
171.5213, 52.42910
172.0034, 52.59084
172.4855, 53.08369
172.9677, 53.83582
173.4498, 55.02684
173.9319, 56.39930
174.4140, 57.56579
174.8961, 58.29847
175.3782, 58.93333
175.8604, 59.91544
176.3425, 61.20994
176.8246, 62.48032
177.3067, 63.42715
177.7888, 64.18501
178.2709, 65.01236
178.7531, 66.01506
179.2352, 67.11447
179.7173, 68.16393
180.1994, 69.17267
180.6815, 70.28202
181.1636, 71.73631
181.6458, 73.41335
182.1279, 74.88640
182.6100, 75.87312
183.0921, 76.64146
183.5742, 77.89127
184.0563, 79.62788
184.5385, 81.30811
185.0206, 82.17653
185.5027, 82.41931
185.9848, 82.90007
186.4669, 84.13121
186.9490, 85.80055
187.4312, 87.00961
187.9133, 87.70805
188.3954, 88.14297
188.8775, 88.45417
189.3596, 88.66635
189.8417, 89.04497
190.3239, 89.77184
190.8060, 90.77258
191.2881, 91.61871
191.7702, 92.27412
192.2523, 92.88505
192.7344, 93.70181
193.2166, 94.72117
193.6987, 95.61520
194.1808, 96.23369
194.6629, 96.59405
195.1450, 96.85422
195.6271, 96.92971
196.1093, 97.11877
196.5914, 97.99168
197.0735, 99.60915
197.5556, 101.1499
198.0377, 102.1942
198.5198, 102.7461
199.0020, 103.4799
199.4841, 104.4665
199.9662, 105.5095
200.4483, 106.3288
200.9304, 106.9191
201.4125, 107.3184
201.8947, 107.4798
202.3768, 107.3772
202.8589, 107.3589
203.3410, 107.4191
203.8231, 107.5751
204.3052, 107.9019
204.7874, 108.4547
205.2695, 108.9571
205.7516, 109.3249
206.2337, 109.5789
206.7158, 109.5472
207.1979, 109.1780
207.6801, 108.5708
208.1622, 107.9332
208.6443, 107.2726
209.1264, 106.5498
209.6085, 105.7195
210.0906, 104.7398
210.5728, 103.8410
211.0549, 103.0384
211.5370, 102.3152
212.0191, 101.6980
212.5012, 101.2758
212.9833, 100.7315
213.4655, 99.84873
213.9476, 98.45100
214.4297, 97.40414
214.9118, 96.93432
215.3939, 96.71835
215.8760, 95.87701
216.3581, 94.16786
216.8403, 92.34595
217.3224, 90.75266
217.8045, 89.36407
218.2866, 88.26813
218.7687, 87.61243
219.2508, 87.19736
219.7330, 86.49711
220.2151, 85.41939
220.6972, 84.22603
221.1793, 83.00642
221.6614, 81.62585
222.1435, 80.56561
222.6257, 79.91473
223.1078, 79.55987
223.5899, 79.19582
224.0720, 78.88895
224.5541, 78.46500
225.0362, 77.80707
225.5184, 76.78957
226.0005, 75.85979
226.4826, 75.00097
226.9647, 74.24049
227.4468, 73.65215
227.9289, 73.35713
228.4111, 73.05800
228.8932, 72.57036
229.3753, 71.65269
229.8574, 71.15398
230.3395, 71.30602
230.8216, 71.83663
231.3038, 71.99275
231.7859, 71.63779
232.2680, 71.10492
232.7501, 70.48013
233.2322, 69.51593
233.7143, 69.04041
234.1965, 69.25322
234.6786, 69.91373
235.1607, 70.37279
235.6428, 70.63933
236.1249, 70.68913
236.6070, 70.47090
237.0892, 69.78201
237.5713, 69.26595
238.0534, 68.92561
238.5355, 68.75639
239.0176, 68.76573
239.4997, 69.06055
239.9819, 69.38154
240.4640, 69.63178
240.9461, 69.84727
241.4282, 69.89511
241.9103, 69.65643
242.3924, 69.28837
242.8746, 69.18427
243.3567, 69.49805
243.8388, 69.84392
244.3209, 70.08957
244.8030, 70.26292
245.2851, 70.23482
245.7673, 69.84554
246.2494, 69.32089
246.7315, 69.19066
247.2136, 69.75182
247.6957, 70.23514
248.1778, 70.29078
248.6600, 69.68300
249.1421, 69.37051
249.6242, 69.44724
250.1063, 69.76546
250.5884, 70.06603
251.0705, 70.42500
251.5527, 70.63283
252.0348, 70.55819
252.5169, 70.06041
252.9990, 69.80368
253.4811, 69.89712
253.9632, 70.15738
254.4454, 70.26751
254.9275, 70.20492
255.4096, 70.03230
255.8917, 69.70159
256.3738, 69.10789
256.8560, 68.87966
257.3381, 69.16944
257.8202, 69.69408
258.3023, 70.04726
258.7844, 70.22266
259.2665, 70.22906
259.7487, 70.00541
260.2308, 69.49052
260.7129, 69.19221
261.1950, 69.17480
261.6771, 69.30283
262.1592, 69.39535
262.6414, 69.42670
263.1235, 69.49047
263.6056, 69.65456
264.0877, 69.94059
264.5698, 69.98456
265.0519, 69.66989
265.5341, 69.27328
266.0162, 69.15694
266.4983, 69.44751
266.9804, 69.62772
267.4625, 69.54167
267.9446, 69.19502
268.4268, 68.87984
268.9089, 68.58325
269.3910, 68.35147
269.8731, 68.25022
270.3552, 68.31258
270.8373, 68.37654
271.3195, 68.41730
271.8016, 68.43195
272.2837, 68.37312
272.7658, 68.19433
273.2479, 68.04463
273.7300, 68.14503
274.2122, 68.58112
274.6943, 68.69502
275.1764, 68.17973
275.6585, 67.23936
276.1406, 67.06624
276.6227, 67.85909
277.1049, 68.76411
277.5870, 69.07208
278.0691, 68.73849
278.5512, 68.29671
279.0333, 67.73997
279.5154, 67.17954
279.9976, 67.06889
280.4797, 67.48820
280.9618, 67.94319
281.4439, 68.01712
281.9260, 67.70366
282.4081, 67.62403
282.8903, 67.92966
283.3724, 68.43176
283.8545, 68.67173
284.3366, 68.63185
284.8187, 68.51623
285.3008, 68.39784
285.7830, 68.28795
286.2651, 68.34843
286.7472, 68.62502
287.2293, 69.01681
287.7114, 69.32571
288.1935, 69.55258
288.6757, 69.83401
289.1578, 70.37654
289.6399, 71.08389
290.1220, 71.35176
290.6041, 71.04893
291.0862, 70.62999
291.5684, 70.87733
292.0505, 71.71075
292.5326, 72.36454
293.0147, 72.31453
293.4968, 71.79415
293.9789, 71.47042
294.4611, 71.36101
294.9432, 71.46426
295.4253, 71.88021
295.9074, 72.54764
296.3895, 73.18811
296.8716, 73.67495
297.3538, 74.06393
297.8359, 74.46549
298.3180, 74.88374
298.8001, 75.30293
299.2822, 75.71980
299.7643, 76.13269
300.2465, 76.52601
300.7286, 76.82522
301.2107, 77.14683
301.6928, 77.67247
302.1749, 78.39034
302.6570, 79.19101
303.1392, 80.03490
303.6213, 80.89206
304.1034, 81.68069
304.5855, 82.31927
305.0676, 82.96150
305.5497, 83.90047
306.0319, 85.05200
306.5140, 86.02632
306.9961, 86.37161
307.4782, 86.45425
307.9603, 86.68977
308.4424, 87.12747
308.9246, 87.82077
309.4067, 88.94820
309.8888, 90.38380
310.3709, 91.79409
310.8530, 92.98976
311.3351, 94.07133
311.8173, 95.10201
312.2994, 96.07834
312.7815, 97.08473
313.2636, 98.29386
313.7457, 99.55074
314.2278, 100.5833
314.7100, 101.1934
315.1921, 101.5924
315.6742, 101.8376
316.1563, 101.8927
316.6384, 102.0699
317.1205, 102.6366
317.6027, 103.3638
318.0848, 103.9580
318.5669, 104.2076
319.0490, 104.4140
319.5311, 104.7602
320.0132, 105.2657
320.4954, 105.5563
320.9775, 105.4404
321.4596, 105.1032
321.9417, 104.7014
322.4238, 103.7563
322.9059, 103.2775
323.3881, 103.7433
323.8702, 105.0607
324.3523, 106.1269
324.8344, 106.5090
325.3165, 106.7761
325.7986, 107.2691
326.2808, 108.1338
326.7629, 109.0858
327.2450, 110.0824
327.7271, 111.1471
328.2092, 112.3731
328.6913, 113.8359
329.1735, 115.3920
329.6556, 117.0120
330.1377, 118.7148
330.6198, 120.4318
331.1019, 121.9998
331.5840, 123.6239
332.0662, 125.7564
332.5483, 128.7153
333.0304, 131.7413
333.5125, 134.4623
333.9946, 136.7491
334.4767, 139.6273
334.9589, 143.4656
335.4410, 147.4963
335.9231, 150.5848
336.4052, 152.1244
336.8873, 154.2691
337.3694, 157.6716
337.8516, 162.2363
338.3336, 166.5384
338.8158, 170.4476
339.2979, 174.3973
339.7800, 178.9642
340.2621, 184.2376
340.7442, 189.2320
341.2263, 193.5242
341.7085, 197.4774
342.1906, 202.1426
342.6727, 207.6435
343.1548, 213.3358
343.6369, 218.8183
344.1190, 224.0716
344.6012, 229.5658
345.0833, 235.2939
345.5654, 241.3116
346.0475, 247.7668
346.5296, 254.6155
347.0117, 261.7016
347.4939, 268.7560
347.9760, 275.8851
348.4581, 283.7358
348.9402, 292.4328
349.4223, 301.2014
349.9044, 309.2830
350.3866, 316.8488
350.8687, 324.5640
351.3508, 332.6485
351.8329, 341.1460
352.3150, 350.3732
352.7971, 360.3487
353.2793, 370.2379
353.7614, 379.5699
354.2435, 388.5317
354.7256, 397.4977
355.2077, 406.6395
355.6898, 415.7037
356.1720, 424.9998
356.6541, 434.2794
357.1362, 442.4465
357.6183, 448.6900
358.1004, 453.7369
358.5826, 458.4679
359.0647, 463.6360
359.5468, 466.9758
360.0289, 467.0113
360.5110, 464.3792
360.9931, 460.2729
361.4753, 455.2450
361.9574, 448.8458
362.4395, 440.6471
362.9216, 430.4371
363.4037, 419.5965
363.8858, 408.5264
364.3680, 397.0436
364.8501, 384.9037
365.3322, 371.4221
365.8143, 358.1022
366.2964, 345.2965
366.7785, 332.9589
367.2607, 320.9482
367.7428, 308.6039
368.2249, 296.9120
368.7070, 286.4576
369.1891, 278.4015
369.6712, 270.1400
370.1534, 261.2967
370.6355, 252.1444
371.1176, 243.5106
371.5997, 235.2154
372.0818, 227.6561
372.5639, 221.0607
373.0461, 215.7719
373.5282, 210.1214
374.0103, 203.6811
374.4924, 197.1560
374.9745, 191.8875
375.4566, 188.3578
375.9388, 184.4315
376.4209, 179.3244
376.9030, 173.0894
377.3851, 167.7697
377.8672, 163.4886
378.3493, 159.5269
378.8315, 155.1537
379.3136, 150.3191
379.7957, 146.0037
380.2778, 142.4750
380.7599, 139.4404
381.2420, 136.0478
381.7242, 132.3533
382.2063, 128.6904
382.6884, 125.3204
383.1705, 122.1785
383.6526, 119.1638
384.1347, 116.2771
384.6169, 113.4820
385.0990, 110.8140
385.5811, 108.2458
386.0632, 105.8154
386.5453, 103.6848
387.0274, 101.6260
387.5096, 99.28642
387.9917, 96.67773
388.4738, 94.16927
388.9559, 92.26609
389.4380, 90.63391
389.9201, 88.79524
390.4023, 86.34073
390.8844, 83.96344
391.3665, 82.16465
391.8486, 80.83289
392.3307, 79.62375
392.8128, 78.53672
393.2950, 77.40349
393.7771, 76.06602
394.2592, 74.40489
394.7413, 72.80278
395.2234, 71.48210
395.7055, 70.28699
396.1877, 68.97682
396.6698, 67.25862
397.1519, 65.64710
397.6340, 64.30818
398.1161, 63.27320
398.5982, 62.28529
399.0804, 61.32467
399.5625, 60.40918
400.0446, 59.55914
400.5267, 58.88964
401.0088, 58.10822
401.4909, 57.09224
401.9731, 55.94092
402.4552, 55.09166
402.9373, 54.68426
403.4194, 54.35110
403.9015, 53.93443
404.3836, 53.43463
404.8658, 52.83079
405.3479, 52.08590
405.8300, 51.29379
406.3121, 50.54605
406.7942, 49.82179
407.2763, 49.29865
407.7585, 49.14491
408.2406, 49.25089
408.7227, 48.94929
409.2048, 48.19968
409.6869, 47.39198
410.1690, 46.87865
410.6512, 46.61617
411.1333, 46.39001
411.6154, 46.19516
412.0975, 45.95436
412.5796, 45.50719
413.0617, 44.88824
413.5439, 44.26302
414.0260, 43.71577
414.5081, 43.21687
414.9902, 42.68957
415.4723, 42.10976
415.9544, 41.67229
416.4366, 41.71910
416.9187, 41.97578
417.4008, 42.03107
417.8829, 41.50640
418.3650, 40.92875
418.8471, 40.61857
419.3293, 40.53991
419.8114, 40.45271
420.2935, 40.34882
420.7756, 40.14101
421.2577, 39.73995
421.7398, 38.92786
422.2220, 38.30932
422.7041, 38.17299
423.1862, 38.28697
423.6683, 38.23243
424.1504, 37.67448
424.6325, 37.22524
425.1147, 37.08987
425.5968, 37.31022
426.0789, 37.44463
426.5610, 37.43983
427.0431, 37.39767
427.5252, 37.40208
428.0074, 37.47885
428.4895, 37.53819
428.9716, 37.55282
429.4537, 37.54833
429.9358, 37.64346
430.4179, 37.89705
430.9001, 38.04191
431.3822, 37.89652
431.8643, 37.45576
432.3464, 37.05240
432.8285, 36.66799
433.3106, 36.38354
433.7928, 36.36029
434.2749, 36.56670
434.7570, 36.74026
435.2391, 36.81026
435.7212, 36.79026
436.2033, 36.64271
436.6855, 36.38765
437.1676, 36.21275
437.6497, 36.32352
438.1318, 36.58001
438.6139, 36.79742
439.0960, 36.97465
439.5782, 37.00634
440.0603, 36.60372
440.5424, 36.00871
441.0245, 35.67873
441.5066, 36.05444
441.9887, 36.54469
442.4709, 36.81299
442.9530, 36.85321
443.4351, 36.85255
443.9172, 36.92443
444.3993, 36.95602
444.8814, 36.85520
445.3636, 36.34100
445.8457, 36.05043
446.3278, 36.23498
446.8099, 36.70478
447.2920, 36.99250
447.7741, 36.98386
448.2563, 36.90786
448.7384, 36.81129
449.2205, 36.68355
449.7026, 36.60627
450.1847, 36.55548
450.6668, 36.58636
451.1490, 36.77025
451.6311, 37.15038
452.1132, 37.52686
452.5953, 37.89191
453.0774, 38.22256
453.5595, 38.45795
454.0417, 38.58956
454.5238, 38.71112
455.0059, 38.86236
455.4880, 39.04385
455.9701, 39.26346
456.4522, 39.51826
456.9344, 39.82533
457.4165, 40.29429
457.8986, 40.84079
458.3807, 41.20575
458.8628, 41.23463
459.3449, 41.13239
459.8271, 40.98700
460.3092, 40.86650
460.7913, 41.05452
461.2734, 42.18375
461.7555, 43.40963
462.2376, 43.88755
462.7198, 43.29815
463.2019, 42.90679
463.6840, 43.53691
464.1661, 44.61782
464.6482, 45.45896
465.1303, 45.60095
465.6125, 45.77477
466.0946, 46.24644
466.5767, 46.97527
467.0588, 47.51475
467.5409, 47.56615
468.0230, 47.65703
468.5052, 48.01297
468.9873, 48.68348
469.4694, 49.53002
469.9515, 50.72781
470.4336, 51.94794
470.9157, 52.66450
471.3979, 52.68332
471.8800, 52.85735
472.3621, 53.43974
472.8442, 54.34348
473.3263, 55.20532
473.8084, 56.02874
474.2906, 56.78384
474.7727, 57.38607
475.2548, 57.88223
475.7369, 58.49206
476.2190, 59.23714
476.7011, 60.10741
477.1833, 61.14980
477.6654, 62.32172
478.1475, 63.50788
478.6296, 64.73773
479.1117, 65.90509
479.5938, 66.78359
480.0760, 67.43949
480.5581, 68.28094
481.0402, 69.71571
481.5223, 71.33858
482.0044, 72.80553
482.4865, 73.94714
482.9687, 75.18593
483.4508, 76.99150
483.9329, 78.89923
484.4150, 80.22426
484.8971, 80.34685
485.3792, 80.41750
485.8614, 80.78590
486.3435, 81.41474
486.8256, 81.69569
487.3077, 81.59162
487.7898, 81.18240
488.2719, 80.46056
488.7541, 79.33083
489.2362, 78.22346
489.7183, 77.09751
490.2004, 76.05028
490.6825, 75.18507
491.1646, 74.49367
491.6468, 74.05656
492.1289, 73.94189
492.6110, 74.07054
493.0931, 74.22504
493.5752, 74.40611
494.0573, 74.61360
494.5395, 74.65993
495.0216, 74.76336
495.5037, 75.47791
495.9858, 76.93197
496.4679, 78.55696
496.9500, 79.65617
497.4322, 80.59333
497.9143, 81.95284
498.3964, 84.19078
498.8785, 86.71458
499.3606, 89.28386
499.8427, 91.89808
500.3249, 94.38206
500.8070, 96.23033
501.2891, 98.31258
501.7712, 101.1587
502.2533, 105.1618
502.7354, 108.9308
503.2176, 112.2948
503.6997, 115.3889
504.1818, 118.3573
504.6639, 121.3139
505.1460, 123.9309
505.6281, 126.1491
506.1103, 128.0009
506.5924, 129.6479
507.0745, 131.2529
507.5566, 132.0735
508.0387, 131.6349
508.5208, 129.9753
509.0030, 127.8701
509.4851, 125.3411
509.9672, 122.2560
510.4493, 118.2453
510.9314, 113.5261
511.4135, 108.7483
511.8957, 103.9488
512.3778, 99.47869
512.8599, 95.88592
513.3420, 93.00018
513.8242, 90.33286
514.3063, 87.52061
514.7884, 84.86268
515.2705, 82.57718
515.7526, 80.68565
516.2347, 79.14182
516.7169, 78.11641
517.1990, 77.32225
517.6811, 76.54353
518.1632, 75.74962
518.6453, 74.96001
519.1274, 74.05695
519.6096, 73.17763
520.0917, 72.59432
520.5738, 72.41103
521.0559, 72.35681
521.5380, 72.40643
522.0201, 72.54976
522.5023, 72.60057
522.9844, 72.53990
523.4665, 72.44176
523.9486, 72.31108
524.4307, 72.15624
524.9128, 72.21087
525.3950, 72.53882
525.8771, 72.91456
526.3592, 73.01588
526.8413, 72.90298
527.3234, 72.78623
527.8055, 72.62793
528.2877, 72.61334
528.7698, 73.11938
529.2519, 74.01264
529.7340, 74.74597
530.2161, 74.78951
530.6982, 74.70362
531.1804, 74.92052
531.6625, 75.52584
532.1446, 76.20682
532.6267, 76.80534
533.1088, 77.45847
533.5909, 78.28289
534.0731, 79.45808
534.5552, 80.60887
535.0373, 81.58758
535.5194, 82.53749
536.0015, 83.94071
536.4836, 86.08709
536.9658, 88.05148
537.4479, 89.30305
537.9300, 89.90121
538.4121, 91.48679
538.8942, 94.20319
539.3763, 97.27676
539.8585, 99.97791
540.3406, 102.4275
540.8227, 105.3568
541.3048, 108.9453
541.7869, 112.8166
542.2690, 116.6219
542.7512, 120.3582
543.2333, 124.0136
543.7154, 127.1903
544.1975, 130.6117
544.6796, 134.9683
545.1617, 140.1445
545.6439, 145.4596
546.1260, 150.7022
546.6081, 155.9220
547.0902, 161.0629
547.5723, 165.9220
548.0544, 171.3159
548.5366, 177.7494
549.0187, 184.6002
549.5008, 191.3522
549.9829, 198.0672
550.4650, 204.5073
550.9471, 210.3120
551.4293, 216.0027
551.9114, 223.1676
552.3935, 232.1448
552.8756, 240.9592
553.3577, 248.7385
553.8398, 255.7481
554.3220, 263.2995
554.8041, 271.4455
555.2862, 279.4821
555.7683, 287.4882
556.2504, 294.9332
556.7325, 300.8531
557.2147, 305.0447
557.6968, 308.1108
558.1789, 311.2617
558.6610, 313.4433
559.1431, 313.0765
559.6252, 309.0032
560.1074, 302.9207
560.5895, 295.1963
561.0716, 285.9033
561.5537, 275.4808
562.0358, 263.6353
562.5179, 250.8772
563.0001, 237.1580
563.4822, 222.3907
563.9643, 208.3215
564.4464, 194.8919
564.9285, 182.2261
565.4106, 170.2554
565.8928, 158.9134
566.3749, 148.5153
566.8570, 139.0790
567.3391, 130.3623
567.8212, 121.7784
568.3033, 113.3747
568.7855, 106.1281
569.2676, 100.5878
569.7497, 96.06022
570.2318, 91.40385
570.7139, 86.79436
571.1960, 82.61206
571.6782, 79.22505
572.1603, 76.32153
572.6424, 73.79826
573.1245, 71.64145
573.6066, 69.50918
574.0887, 67.02803
574.5709, 64.64089
575.0530, 62.66911
575.5351, 61.33794
576.0172, 60.14247
576.4993, 59.15120
576.9814, 58.24368
577.4636, 57.22033
577.9457, 55.99028
578.4278, 54.89585
578.9099, 54.07127
579.3920, 53.44487
579.8741, 52.69531
580.3563, 51.80626
580.8384, 51.06524
581.3205, 50.74880
581.8026, 50.70473
582.2847, 50.45077
582.7668, 49.96531
583.2490, 49.59441
583.7311, 49.80986
584.2132, 50.24440
584.6953, 50.40916
585.1774, 50.10794
585.6595, 49.71725
586.1416, 49.40568
586.6237, 49.13649
587.1058, 48.84873
587.5880, 48.46012
