##NAMES=Pyrope
##RRUFFID=R100153
##IDEAL CHEMISTRY=Mg_3_Al_2_(SiO_4_)_3_
##LOCALITY=Sri Lanka
##OWNER=Pinch
##SOURCE=William W. Pinch
##DESCRIPTION=Light purplish-red gemstones. X-ray diffraction and Raman spectra were collected from the gemstone on the left.
##STATUS=The identification of this mineral has been confirmed only by single crystal X-ray diffraction.
##URL=rruff.info/R100153
131.5854, 110.6146
132.0675, 110.8544
132.5496, 111.0765
133.0317, 111.1766
133.5138, 111.2993
133.9959, 111.8362
134.4781, 113.1186
134.9602, 114.3064
135.4423, 115.1355
135.9244, 115.7491
136.4065, 116.3219
136.8886, 116.9538
137.3708, 117.6487
137.8529, 118.4041
138.3350, 119.3456
138.8171, 120.2298
139.2992, 121.0153
139.7813, 121.6993
140.2635, 122.2765
140.7456, 122.7159
141.2277, 122.9833
141.7098, 123.4773
142.1919, 124.4782
142.6740, 125.4265
143.1561, 126.0625
143.6383, 126.3518
144.1204, 126.3446
144.6025, 125.9859
145.0846, 125.1838
145.5667, 124.8256
146.0488, 125.3740
146.5310, 126.1898
147.0131, 126.6010
147.4952, 126.4723
147.9773, 126.0405
148.4594, 125.3510
148.9415, 124.4624
149.4237, 123.8970
149.9058, 124.1534
150.3879, 124.9039
150.8700, 125.1827
151.3521, 124.5727
151.8342, 123.8065
152.3164, 123.5089
152.7985, 123.6366
153.2806, 123.8540
153.7627, 124.0576
154.2448, 124.2574
154.7269, 123.9865
155.2091, 122.4876
155.6912, 121.0109
156.1733, 120.1968
156.6554, 120.0887
157.1375, 120.3381
157.6196, 120.6095
158.1018, 121.0185
158.5839, 121.0829
159.0660, 120.5573
159.5481, 119.8790
160.0302, 119.3474
160.5123, 119.0240
160.9945, 118.7279
161.4766, 118.1310
161.9587, 116.9029
162.4408, 115.8442
162.9229, 115.1492
163.4050, 114.5259
163.8871, 113.6264
164.3693, 112.3245
164.8514, 110.8927
165.3335, 110.0099
165.8156, 110.1244
166.2977, 110.1653
166.7798, 109.9808
167.2620, 109.6639
167.7441, 109.3880
168.2262, 109.2580
168.7083, 109.1445
169.1904, 108.6398
169.6725, 107.5051
170.1547, 106.4955
170.6368, 105.7452
171.1189, 105.3176
171.6010, 105.5236
172.0831, 106.8180
172.5652, 108.5997
173.0474, 109.6195
173.5295, 109.5739
174.0116, 109.3479
174.4937, 109.5960
174.9758, 110.3169
175.4579, 111.1388
175.9401, 112.1091
176.4222, 112.9902
176.9043, 113.4895
177.3864, 113.4931
177.8685, 113.2553
178.3506, 113.1859
178.8328, 113.4504
179.3149, 113.2642
179.7970, 111.8326
180.2791, 110.0878
180.7612, 108.9064
181.2433, 108.6622
181.7255, 108.8802
182.2076, 108.4382
182.6897, 106.6241
183.1718, 105.4920
183.6539, 105.8470
184.1360, 106.8147
184.6181, 107.4799
185.1003, 107.3852
185.5824, 106.7907
186.0645, 106.6200
186.5466, 107.1802
187.0287, 107.8418
187.5108, 108.6531
187.9930, 109.4777
188.4751, 110.0909
188.9572, 110.3433
189.4393, 110.3639
189.9214, 110.8890
190.4035, 112.3841
190.8857, 113.8636
191.3678, 115.0502
191.8499, 116.1016
192.3320, 117.3255
192.8141, 118.9227
193.2962, 120.8374
193.7784, 122.6649
194.2605, 124.2219
194.7426, 125.9011
195.2247, 127.9384
195.7068, 130.2286
196.1889, 132.4178
196.6711, 134.1761
197.1532, 135.7227
197.6353, 138.0594
198.1174, 141.6929
198.5995, 145.5671
199.0816, 149.2607
199.5638, 152.7681
200.0459, 155.9914
200.5280, 158.7585
201.0101, 161.2429
201.4922, 163.8872
201.9743, 166.4743
202.4565, 169.4759
202.9386, 173.6535
203.4207, 179.0605
203.9028, 184.0724
204.3849, 187.6975
204.8670, 190.3687
205.3492, 192.5806
205.8313, 194.1771
206.3134, 195.6584
206.7955, 197.8267
207.2776, 200.9347
207.7597, 203.5469
208.2419, 205.1270
208.7240, 205.8295
209.2061, 205.5993
209.6882, 204.3317
210.1703, 202.3052
210.6524, 199.9881
211.1346, 197.4579
211.6167, 194.4313
212.0988, 190.5972
212.5809, 186.3955
213.0630, 182.1776
213.5451, 178.0982
214.0273, 174.1104
214.5094, 170.1522
214.9915, 166.3281
215.4736, 162.3212
215.9557, 157.8969
216.4378, 153.3645
216.9200, 148.9634
217.4021, 144.8206
217.8842, 140.9158
218.3663, 137.2471
218.8484, 133.8582
219.3305, 130.6965
219.8127, 127.6974
220.2948, 124.9086
220.7769, 122.3853
221.2590, 120.1525
221.7411, 118.1728
222.2232, 116.3400
222.7054, 114.8435
223.1875, 113.2766
223.6696, 111.2394
224.1517, 109.2458
224.6338, 108.1384
225.1159, 108.2994
225.5980, 109.0483
226.0802, 108.3901
226.5623, 104.0972
227.0444, 101.0335
227.5265, 100.2337
228.0086, 100.6646
228.4907, 101.0878
228.9729, 100.9880
229.4550, 100.5565
229.9371, 100.2912
230.4192, 100.4775
230.9013, 100.3817
231.3834, 99.53177
231.8656, 98.41108
232.3477, 97.75224
232.8298, 97.85480
233.3119, 98.45874
233.7940, 99.09448
234.2761, 99.91305
234.7583, 100.4187
235.2404, 100.2414
235.7225, 99.70532
236.2046, 99.43111
236.6867, 99.69170
237.1688, 100.1052
237.6510, 99.89380
238.1331, 98.94447
238.6152, 98.20988
239.0973, 98.14529
239.5794, 98.51209
240.0615, 98.81184
240.5437, 98.91374
241.0258, 98.90950
241.5079, 98.92790
241.9900, 98.97319
242.4721, 98.96197
242.9542, 98.77789
243.4364, 98.50955
243.9185, 98.40090
244.4006, 98.54739
244.8827, 98.77839
245.3648, 98.98063
245.8469, 99.14795
246.3290, 99.16145
246.8112, 98.80735
247.2933, 98.24041
247.7754, 97.96613
248.2575, 98.19580
248.7396, 98.47973
249.2217, 98.54861
249.7039, 98.40781
250.1860, 98.03738
250.6681, 97.19947
251.1502, 96.08400
251.6323, 95.43163
252.1144, 95.51545
252.5966, 95.68779
253.0787, 95.47576
253.5608, 95.04502
254.0429, 94.77820
254.5250, 95.04587
255.0071, 95.65527
255.4893, 95.82210
255.9714, 95.29745
256.4535, 94.70651
256.9356, 94.25249
257.4177, 93.94189
257.8998, 93.80435
258.3820, 93.92260
258.8641, 94.19660
259.3462, 94.26006
259.8283, 93.98854
260.3104, 93.69949
260.7925, 93.36962
261.2747, 93.11878
261.7568, 93.13534
262.2389, 93.55283
262.7210, 94.21983
263.2031, 94.71927
263.6852, 95.07787
264.1674, 95.18793
264.6495, 94.94820
265.1316, 94.52614
265.6137, 94.04801
266.0958, 93.55688
266.5779, 93.14051
267.0601, 93.01438
267.5422, 93.25282
268.0243, 93.68759
268.5064, 94.71000
268.9885, 95.67001
269.4706, 95.89011
269.9528, 95.14930
270.4349, 93.90573
270.9170, 92.98566
271.3991, 92.36537
271.8812, 92.18419
272.3633, 92.59959
272.8455, 93.27398
273.3276, 94.16102
273.8097, 95.16611
274.2918, 95.90681
274.7739, 95.65960
275.2560, 93.52515
275.7382, 92.34084
276.2202, 92.43974
276.7024, 93.01840
277.1845, 93.72715
277.6666, 94.43590
278.1487, 95.04812
278.6308, 95.44335
279.1129, 95.57880
279.5951, 95.62611
280.0772, 95.47817
280.5593, 95.34908
281.0414, 95.43824
281.5235, 95.68794
282.0056, 95.81284
282.4878, 95.47295
282.9699, 94.51582
283.4520, 94.22599
283.9341, 95.16086
284.4162, 96.11764
284.8983, 96.66862
285.3805, 96.83182
285.8626, 96.74938
286.3447, 96.47415
286.8268, 96.01845
287.3089, 96.11392
287.7910, 97.68067
288.2732, 98.77309
288.7553, 98.37516
289.2374, 97.11539
289.7195, 96.24782
290.2016, 96.56008
290.6837, 97.80546
291.1659, 98.62558
291.6480, 98.45738
292.1301, 98.51823
292.6122, 99.22581
293.0943, 100.2254
293.5764, 100.9797
294.0586, 101.2383
294.5407, 101.2068
295.0228, 101.4445
295.5049, 102.2958
295.9870, 103.0064
296.4691, 103.4443
296.9513, 103.7749
297.4334, 104.1874
297.9155, 104.7390
298.3976, 105.3290
298.8797, 105.7616
299.3618, 105.6885
299.8440, 106.1730
300.3261, 107.9016
300.8082, 109.7434
301.2903, 110.5810
301.7724, 110.2913
302.2545, 109.8769
302.7367, 110.6056
303.2188, 113.0010
303.7009, 114.4570
304.1830, 113.8124
304.6651, 113.2615
305.1472, 114.3269
305.6294, 116.9270
306.1115, 119.9252
306.5936, 122.3589
307.0757, 124.1945
307.5578, 126.2417
308.0399, 128.0430
308.5221, 130.4494
309.0042, 134.2675
309.4863, 139.0460
309.9684, 143.5191
310.4505, 146.7961
310.9326, 149.1319
311.4148, 152.2206
311.8969, 156.8312
312.3790, 161.2001
312.8611, 164.9920
313.3432, 168.2491
313.8253, 171.0751
314.3075, 173.4964
314.7896, 175.5603
315.2717, 177.4141
315.7538, 180.1558
316.2359, 181.0738
316.7180, 178.6629
317.2001, 174.8850
317.6823, 171.9024
318.1644, 170.3244
318.6465, 169.2974
319.1286, 167.5120
319.6107, 164.4446
320.0928, 161.8824
320.5750, 159.7840
321.0571, 158.1852
321.5392, 157.2219
322.0213, 156.8554
322.5034, 156.7843
322.9855, 156.7149
323.4677, 156.6245
323.9498, 156.7498
324.4319, 156.7438
324.9140, 157.2253
325.3961, 158.5950
325.8782, 160.7376
326.3604, 163.2879
326.8425, 166.0173
327.3246, 168.9205
327.8067, 172.0096
328.2888, 175.0715
328.7709, 178.5290
329.2531, 182.5884
329.7352, 187.0920
330.2173, 191.8300
330.6994, 196.7143
331.1815, 201.6784
331.6636, 206.5820
332.1458, 210.5780
332.6279, 215.6120
333.1100, 222.5737
333.5921, 230.1585
334.0742, 237.0432
334.5563, 242.8351
335.0385, 248.2574
335.5206, 254.2557
336.0027, 260.8578
336.4848, 268.1670
336.9669, 277.0628
337.4490, 285.9633
337.9312, 293.6434
338.4133, 300.2209
338.8954, 306.6784
339.3775, 313.8646
339.8596, 321.7895
340.3417, 330.5665
340.8239, 340.2113
341.3060, 350.5210
341.7881, 361.2827
342.2702, 372.6841
342.7523, 384.9679
343.2344, 398.2079
343.7166, 412.4799
344.1987, 428.0476
344.6808, 444.7896
345.1629, 463.2430
345.6450, 483.9885
346.1271, 506.1524
346.6093, 528.6850
347.0914, 551.0734
347.5735, 574.0750
348.0556, 598.7813
348.5377, 626.6719
349.0198, 653.8715
349.5020, 680.5870
349.9841, 706.5946
350.4662, 732.3461
350.9483, 757.3459
351.4304, 779.9384
351.9125, 798.4100
352.3947, 812.8737
352.8768, 822.1531
353.3589, 826.6579
353.8410, 825.6698
354.3231, 817.9747
354.8052, 804.5027
355.2874, 786.9548
355.7695, 766.4353
356.2516, 742.9169
356.7337, 715.5396
357.2158, 681.1426
357.6979, 646.9346
358.1800, 613.3403
358.6621, 580.9235
359.1443, 550.4396
359.6264, 522.0129
360.1085, 495.4556
360.5906, 470.0938
361.0727, 445.5733
361.5548, 423.2895
362.0370, 403.9521
362.5191, 386.3185
363.0012, 369.7394
363.4833, 354.0284
363.9654, 339.6509
364.4475, 326.9982
364.9297, 316.0850
365.4118, 306.6812
365.8939, 299.7706
366.3760, 293.4193
366.8581, 286.7747
367.3402, 280.1114
367.8224, 274.0517
368.3045, 269.0284
368.7866, 264.8473
369.2687, 261.0593
369.7508, 258.0163
370.2329, 254.5870
370.7151, 249.8738
371.1972, 244.8585
371.6793, 240.6146
372.1614, 237.5804
372.6435, 234.6270
373.1256, 230.3050
373.6078, 224.5351
374.0899, 218.6797
374.5720, 212.8871
375.0541, 207.2075
375.5362, 201.8520
376.0183, 196.7306
376.5005, 191.3055
376.9826, 184.7701
377.4647, 177.5640
377.9468, 171.3613
378.4289, 166.5769
378.9110, 162.1062
379.3932, 157.2227
379.8753, 152.1085
380.3574, 147.0851
380.8395, 142.1317
381.3216, 137.4161
381.8037, 133.2639
382.2859, 129.6773
382.7680, 126.1474
383.2501, 122.3923
383.7322, 118.6244
384.2143, 115.0950
384.6964, 111.8151
385.1786, 108.8214
385.6607, 106.2850
386.1428, 104.0832
386.6249, 101.7958
387.1070, 99.23502
387.5891, 96.85983
388.0713, 95.47424
388.5534, 94.97265
389.0355, 94.02068
389.5176, 91.99430
389.9997, 89.61612
390.4818, 87.57676
390.9640, 85.90364
391.4461, 84.34185
391.9282, 82.67105
392.4103, 80.98354
392.8924, 79.70262
393.3745, 79.13625
393.8567, 78.59832
394.3388, 77.85188
394.8209, 76.94203
395.3030, 75.96587
395.7851, 74.95003
396.2672, 73.87074
396.7494, 72.62176
397.2315, 70.92014
397.7136, 69.77683
398.1957, 69.74950
398.6778, 69.94244
399.1599, 69.53673
399.6420, 68.50957
400.1241, 67.44691
400.6063, 66.89156
401.0884, 66.86317
401.5705, 66.60164
402.0526, 66.05295
402.5347, 65.37070
403.0168, 64.36246
403.4990, 63.29918
403.9811, 62.64832
404.4632, 62.64093
404.9453, 63.02977
405.4274, 63.22631
405.9095, 63.16892
406.3917, 63.00193
406.8738, 62.63090
407.3559, 62.23810
407.8380, 61.96659
408.3201, 61.82220
408.8022, 61.69636
409.2844, 61.46343
409.7665, 61.11122
410.2486, 60.86341
410.7307, 60.88374
411.2128, 60.83037
411.6949, 60.59655
412.1771, 60.22407
412.6592, 59.76638
413.1413, 59.23233
413.6234, 58.68650
414.1055, 58.28335
414.5876, 58.07146
415.0698, 57.84906
415.5519, 57.59389
416.0340, 57.29560
416.5161, 56.90225
416.9982, 56.41900
417.4803, 55.99090
417.9625, 55.69880
418.4446, 55.55209
418.9267, 55.67423
419.4088, 56.30243
419.8909, 56.77959
420.3730, 56.57812
420.8552, 55.93837
421.3373, 55.31161
421.8194, 54.74616
422.3015, 54.36409
422.7836, 54.41461
423.2657, 54.89154
423.7479, 55.33037
424.2300, 55.65932
424.7121, 55.73462
425.1942, 55.24841
425.6763, 54.02917
426.1584, 53.13922
426.6406, 53.27062
427.1227, 53.95940
427.6048, 54.48771
428.0869, 54.74844
428.5690, 54.71517
429.0511, 54.16970
429.5333, 53.15052
430.0154, 52.90727
430.4975, 54.29744
430.9796, 55.66135
431.4617, 55.97083
431.9438, 55.50057
432.4260, 55.00041
432.9081, 54.81201
433.3902, 54.84487
433.8723, 54.90213
434.3544, 55.15309
434.8365, 55.13077
435.3187, 54.51762
435.8008, 53.82558
436.2829, 53.44209
436.7650, 53.42635
437.2471, 53.69137
437.7292, 54.21377
438.2114, 55.01203
438.6935, 55.39917
439.1756, 55.02877
439.6577, 54.62537
440.1398, 54.30036
440.6219, 54.05533
441.1040, 53.84886
441.5862, 53.66493
442.0683, 53.59177
442.5504, 53.89528
443.0325, 54.86769
443.5146, 55.31695
443.9967, 54.64370
444.4789, 53.83791
444.9610, 53.35935
445.4431, 53.21173
445.9252, 53.19690
446.4073, 53.18664
446.8894, 53.19794
447.3716, 53.29104
447.8537, 53.45729
448.3358, 53.72783
448.8179, 54.27766
449.3000, 54.87032
449.7821, 55.27404
450.2643, 55.45463
450.7464, 55.37946
451.2285, 54.73973
451.7106, 53.72355
452.1927, 53.36765
452.6748, 54.05214
453.1570, 55.07883
453.6391, 55.84493
454.1212, 56.38318
454.6033, 56.74589
455.0854, 56.82619
455.5675, 56.82107
456.0497, 56.85463
456.5318, 56.94532
457.0139, 57.16259
457.4960, 57.54302
457.9781, 58.07402
458.4602, 58.79424
458.9424, 60.07069
459.4245, 60.76647
459.9066, 60.15285
460.3887, 59.15724
460.8708, 58.68619
461.3529, 58.88473
461.8351, 59.45672
462.3172, 60.17156
462.7993, 61.03399
463.2814, 61.75542
463.7635, 62.23984
464.2456, 62.70394
464.7278, 63.21487
465.2099, 63.73785
465.6920, 64.21445
466.1741, 64.62522
466.6562, 65.00097
467.1383, 65.36137
467.6205, 65.63339
468.1026, 66.13187
468.5847, 66.76253
469.0668, 67.72523
469.5489, 69.49649
470.0310, 71.71561
470.5132, 73.43360
470.9953, 73.95789
471.4774, 73.70325
471.9595, 73.56190
472.4416, 73.35493
472.9237, 73.93326
473.4059, 76.25518
473.8880, 79.13054
474.3701, 81.47791
474.8522, 83.15228
475.3343, 84.79589
475.8164, 86.82629
476.2986, 89.11938
476.7807, 91.29593
477.2628, 93.21953
477.7449, 95.49139
478.2270, 98.68327
478.7091, 102.6424
479.1913, 106.5702
479.6734, 110.4949
480.1555, 114.2982
480.6376, 117.9076
481.1197, 121.3492
481.6018, 124.8762
482.0839, 128.6179
482.5660, 131.8946
483.0482, 133.7845
483.5303, 134.0581
484.0124, 133.4133
484.4945, 131.5478
484.9766, 129.1166
485.4587, 126.1551
485.9409, 122.9083
486.4230, 119.8581
486.9051, 117.2746
487.3872, 114.9786
487.8693, 112.4492
488.3514, 109.3380
488.8336, 106.6241
489.3157, 104.2254
489.7978, 102.2987
490.2799, 100.9629
490.7620, 100.2141
491.2441, 99.99928
491.7263, 100.3652
492.2084, 101.2272
492.6905, 102.0988
493.1726, 102.7302
493.6547, 103.9725
494.1368, 106.2838
494.6190, 109.3229
495.1011, 112.8215
495.5832, 116.7263
496.0653, 121.1000
496.5474, 125.7113
497.0295, 130.7901
497.5117, 137.1748
497.9938, 145.1821
498.4759, 153.6945
498.9580, 161.6765
499.4401, 169.4355
499.9222, 178.4214
500.4044, 190.0359
500.8865, 201.5574
501.3686, 211.9877
501.8507, 221.3151
502.3328, 229.9977
502.8149, 238.2065
503.2971, 244.8771
503.7792, 248.5671
504.2613, 249.1443
504.7434, 246.6619
505.2255, 240.0066
505.7076, 231.7689
506.1898, 222.9787
506.6719, 213.5706
507.1540, 202.9890
507.6361, 190.8694
508.1182, 178.0792
508.6003, 166.7355
509.0825, 157.2064
509.5646, 148.1063
510.0467, 138.5838
510.5288, 130.0992
511.0109, 123.7831
511.4930, 119.2989
511.9752, 115.2785
512.4573, 110.7587
512.9394, 106.2012
513.4215, 102.7369
513.9036, 100.4743
514.3857, 98.54475
514.8679, 96.67990
515.3500, 94.94592
515.8321, 93.43797
516.3142, 92.17603
516.7963, 90.97411
517.2784, 89.64912
517.7606, 88.37935
518.2427, 87.41930
518.7248, 86.78666
519.2069, 86.37949
519.6890, 86.21671
520.1711, 86.19299
520.6533, 85.77395
521.1354, 84.42307
521.6175, 83.44932
522.0996, 83.31776
522.5817, 83.52060
523.0638, 83.56618
523.5460, 83.37259
524.0281, 83.11342
524.5102, 82.91045
524.9923, 82.77219
525.4744, 83.09528
525.9565, 84.71619
526.4387, 85.67726
526.9208, 85.07717
527.4029, 83.92616
527.8850, 83.24244
528.3671, 83.28889
528.8492, 83.71236
529.3314, 84.27309
529.8135, 84.94111
530.2956, 85.41251
530.7777, 85.61264
531.2598, 85.73296
531.7419, 85.56985
532.2241, 85.47380
532.7062, 86.17983
533.1883, 88.29057
533.6704, 90.26160
534.1525, 90.79167
534.6346, 90.42222
535.1168, 90.33882
535.5989, 90.78687
536.0810, 91.77299
536.5631, 93.33146
537.0452, 95.49962
537.5273, 97.97324
538.0095, 101.1001
538.4916, 104.1233
538.9737, 106.5774
539.4558, 108.8258
539.9379, 111.4735
540.4200, 114.6947
540.9022, 118.1260
541.3843, 121.2217
541.8664, 123.8911
542.3485, 126.7401
542.8306, 129.5037
543.3127, 132.7539
543.7948, 136.9637
544.2769, 141.6817
544.7590, 146.0917
545.2411, 149.8283
545.7233, 153.7266
546.2054, 158.8819
546.6875, 165.2375
547.1696, 171.6109
547.6517, 177.6516
548.1339, 183.9833
548.6160, 191.0872
549.0981, 198.8674
549.5802, 207.3472
550.0623, 216.3262
550.5444, 226.1685
551.0266, 237.1614
551.5087, 249.2218
551.9908, 262.3510
552.4729, 276.5748
552.9550, 291.3779
553.4371, 306.1034
553.9193, 320.7428
554.4014, 335.7247
554.8835, 352.6125
555.3656, 368.0757
555.8477, 381.1531
556.3298, 392.0631
556.8120, 401.4620
557.2941, 409.5734
557.7762, 415.0252
558.2583, 415.8648
558.7404, 411.9254
559.2225, 404.7515
559.7047, 393.5965
560.1868, 380.0469
560.6689, 364.7238
561.1510, 347.8514
561.6331, 329.4187
562.1152, 309.0407
562.5974, 288.3611
563.0795, 268.2213
563.5616, 248.9494
564.0437, 231.9825
564.5258, 217.7493
565.0079, 204.8395
565.4901, 191.9547
565.9722, 179.2091
566.4543, 167.6127
566.9364, 157.1467
567.4185, 147.8381
567.9006, 139.9957
568.3828, 133.2150
568.8649, 126.8995
569.3470, 120.9233
569.8291, 115.3807
570.3112, 110.4736
570.7933, 106.1973
571.2755, 102.3195
571.7576, 98.94193
572.2397, 95.85128
572.7218, 93.17744
573.2039, 90.64737
573.6860, 87.75916
574.1682, 84.40536
574.6503, 81.50125
575.1324, 80.19260
575.6145, 80.12086
576.0966, 79.71259
576.5787, 78.84898
577.0609, 77.71856
577.5430, 76.16951
578.0251, 74.52857
578.5072, 73.54984
578.9893, 73.41403
579.4714, 73.56664
579.9536, 74.09756
580.4357, 74.64487
580.9178, 74.52896
581.3999, 73.80762
581.8820, 73.43510
582.3641, 74.18395
582.8463, 75.86342
583.3284, 77.38221
583.8105, 79.04298
584.2926, 80.06728
584.7747, 79.87817
585.2568, 79.46530
585.7390, 79.51362
586.2211, 80.08281
586.7032, 80.97208
587.1853, 82.31234
587.6674, 83.67322
588.1495, 83.74953
588.6317, 82.37170
589.1138, 80.72319
589.5959, 78.99937
590.0780, 77.33094
590.5601, 75.91633
591.0422, 74.74799
591.5244, 73.54319
592.0065, 72.23139
592.4886, 70.83829
592.9707, 69.32704
593.4528, 67.75909
593.9349, 66.35202
594.4171, 65.22356
594.8992, 64.17149
595.3813, 62.79693
595.8634, 60.83670
596.3455, 59.34023
596.8276, 58.46515
597.3098, 57.81707
597.7919, 57.29515
598.2740, 56.86706
598.7561, 56.51460
599.2382, 56.23158
599.7203, 55.99144
600.2025, 55.77935
600.6846, 55.59232
601.1667, 55.31160
601.6488, 54.82674
602.1309, 54.44955
602.6130, 54.57694
603.0952, 54.94244
603.5773, 54.95107
604.0594, 54.20650
604.5415, 53.70763
605.0236, 54.35598
605.5057, 55.42261
605.9879, 55.72758
606.4700, 55.11519
606.9521, 54.20203
607.4342, 53.44529
607.9163, 52.85860
608.3984, 52.54234
608.8806, 52.57481
609.3627, 52.79649
609.8448, 53.44935
610.3269, 54.08880
610.8090, 54.37244
611.2911, 54.29364
611.7733, 54.04442
612.2554, 53.73780
612.7375, 53.36822
613.2196, 52.83337
613.7017, 52.08757
614.1838, 51.67087
614.6660, 51.91896
615.1481, 52.35183
615.6302, 52.29404
616.1123, 51.79069
616.5944, 51.65510
617.0765, 52.48260
617.5587, 53.32224
618.0408, 53.31661
618.5229, 52.85850
619.0050, 52.91392
619.4871, 53.81148
619.9692, 54.97369
620.4514, 55.59671
620.9335, 55.58068
621.4156, 55.80398
621.8977, 56.40462
622.3798, 57.09665
622.8619, 57.69828
623.3441, 58.40227
623.8262, 59.49645
624.3083, 61.03375
624.7904, 62.63898
625.2725, 63.91779
625.7546, 65.02206
626.2367, 66.32353
626.7188, 67.83525
627.2009, 69.67357
627.6830, 72.04809
628.1652, 74.67908
628.6473, 76.83970
