##NAMES=Pyrrhotite
##RRUFFID=R060440
##IDEAL CHEMISTRY=Fe^2+^_5_Fe^3+^_2_S^2-^_8_
##LOCALITY=Dal 'Negorsk, Primorskiy Kray, far eastern Russia
##OWNER=RRUFF
##SOURCE=Michael Scott
##DESCRIPTION=Bronze-yellow metallic tabular hexagonal prisms
##STATUS=The identification of this mineral has been confirmed by X-ray diffraction and chemical analysis
##URL=rruff.info/R060440
##MEASURED CHEMISTRY=Fe_7.1_S_8.0_
160.5123, 30.85309
160.9945, 31.28355
161.4766, 31.47849
161.9587, 31.25642
162.4408, 31.04673
162.9229, 30.86907
163.4050, 30.69768
163.8871, 30.48935
164.3693, 30.22887
164.8514, 29.96838
165.3335, 29.83909
165.8156, 29.90666
166.2977, 30.01420
166.7798, 30.13468
167.2620, 30.28820
167.7441, 30.53767
168.2262, 30.93774
168.7083, 31.38652
169.1904, 31.61074
169.6725, 31.72893
170.1547, 31.51695
170.6368, 30.53380
171.1189, 29.05311
171.6010, 28.06116
172.0831, 28.18437
172.5652, 28.94870
173.0474, 29.28649
173.5295, 29.03331
174.0116, 28.67023
174.4937, 28.57181
174.9758, 28.73699
175.4579, 28.88688
175.9401, 28.83259
176.4222, 28.73800
176.9043, 28.81796
177.3864, 29.18008
177.8685, 29.55964
178.3506, 29.56567
178.8328, 29.07149
179.3149, 28.65658
179.7970, 28.61972
180.2791, 28.70201
180.7612, 28.69119
181.2433, 28.50820
181.7255, 28.20478
182.2076, 27.86354
182.6897, 27.37486
183.1718, 27.06743
183.6539, 27.07590
184.1360, 27.23569
184.6181, 27.40020
185.1003, 27.50268
185.5824, 27.53889
186.0645, 27.49160
186.5466, 27.29201
187.0287, 27.08307
187.5108, 26.85618
187.9930, 26.63925
188.4751, 26.47483
188.9572, 26.39079
189.4393, 26.36603
189.9214, 26.28216
190.4035, 25.81178
190.8857, 25.64491
191.3678, 26.25581
191.8499, 27.23479
192.3320, 27.82598
192.8141, 27.51918
193.2962, 26.48116
193.7784, 26.01941
194.2605, 26.54884
194.7426, 27.06096
195.2247, 27.19317
195.7068, 27.02607
196.1889, 26.81364
196.6711, 26.69596
197.1532, 26.66343
197.6353, 26.64163
198.1174, 26.65039
198.5995, 26.65059
199.0816, 26.59721
199.5638, 26.50219
200.0459, 26.45921
200.5280, 26.58790
201.0101, 26.78321
201.4922, 26.73695
201.9743, 26.07787
202.4565, 25.53763
202.9386, 25.99406
203.4207, 27.48517
203.9028, 28.64436
204.3849, 28.44729
204.8670, 27.53674
205.3492, 26.80105
205.8313, 26.38688
206.3134, 26.21676
206.7955, 26.24155
207.2776, 26.49324
207.7597, 26.79241
208.2419, 27.22753
208.7240, 27.60548
209.2061, 27.70095
209.6882, 27.40999
210.1703, 26.87321
210.6524, 26.26677
211.1346, 25.47935
211.6167, 24.93419
212.0988, 24.88259
212.5809, 25.05828
213.0630, 25.20521
213.5451, 25.21133
214.0273, 25.17844
214.5094, 25.38484
214.9915, 26.12852
215.4736, 26.55219
215.9557, 26.21402
216.4378, 25.65201
216.9200, 25.47853
217.4021, 25.98194
217.8842, 26.82016
218.3663, 27.00226
218.8484, 25.89799
219.3305, 25.01254
219.8127, 24.50459
220.2948, 24.28787
220.7769, 24.32620
221.2590, 24.60360
221.7411, 25.00935
222.2232, 25.21255
222.7054, 24.89511
223.1875, 24.75015
223.6696, 25.03079
224.1517, 25.42958
224.6338, 25.56054
225.1159, 25.25075
225.5980, 24.66064
226.0802, 24.25383
226.5623, 24.15765
227.0444, 24.10369
227.5265, 24.05696
228.0086, 24.04737
228.4907, 24.13637
228.9729, 24.35469
229.4550, 24.63830
229.9371, 24.80968
230.4192, 24.69842
230.9013, 24.74414
231.3834, 25.15250
231.8656, 25.72801
232.3477, 26.21187
232.8298, 26.51805
233.3119, 26.63882
233.7940, 26.47029
234.2761, 25.80757
234.7583, 25.40835
235.2404, 25.69141
235.7225, 26.32712
236.2046, 26.72746
236.6867, 26.67230
237.1688, 26.38391
237.6510, 26.24895
238.1331, 26.29036
238.6152, 26.30025
239.0973, 26.24059
239.5794, 26.09857
240.0615, 25.77730
240.5437, 25.13505
241.0258, 24.55174
241.5079, 24.63460
241.9900, 25.36970
242.4721, 26.03089
242.9542, 26.31280
243.4364, 26.29297
243.9185, 26.13602
244.4006, 25.80654
244.8827, 25.46938
245.3648, 25.25359
245.8469, 25.15290
246.3290, 25.19837
246.8112, 25.49511
247.2933, 25.95746
247.7754, 26.37424
248.2575, 26.83784
248.7396, 27.02345
249.2217, 26.48009
249.7039, 25.42489
250.1860, 24.60797
250.6681, 24.62085
251.1502, 25.22723
251.6323, 25.53961
252.1144, 25.41556
252.5966, 25.15006
253.0787, 24.89057
253.5608, 24.64122
254.0429, 24.40764
254.5250, 24.18292
255.0071, 23.97713
255.4893, 23.82363
255.9714, 23.70871
256.4535, 23.68081
256.9356, 23.86186
257.4177, 24.11589
257.8998, 24.20661
258.3820, 23.94981
258.8641, 23.46171
259.3462, 23.14875
259.8283, 23.05298
260.3104, 23.08502
260.7925, 23.36395
261.2747, 23.68899
261.7568, 23.74824
262.2389, 23.32581
262.7210, 22.65603
263.2031, 22.46007
263.6852, 23.10493
264.1674, 23.60823
264.6495, 23.64441
265.1316, 23.48126
265.6137, 23.40958
266.0958, 23.55861
266.5779, 23.82417
267.0601, 23.93889
267.5422, 23.72893
268.0243, 23.68851
268.5064, 24.05887
268.9885, 24.51315
269.4706, 24.77870
269.9528, 24.75758
270.4349, 24.51042
270.9170, 24.07569
271.3991, 23.07244
271.8812, 22.68105
272.3633, 23.47776
272.8455, 24.49103
273.3276, 24.92030
273.8097, 24.60066
274.2918, 23.99764
274.7739, 23.87290
275.2560, 24.70893
275.7382, 24.97383
276.2202, 24.23908
276.7024, 23.37857
277.1845, 22.92703
277.6666, 22.95997
278.1487, 23.23197
278.6308, 23.47187
279.1129, 23.71142
279.5951, 23.79396
280.0772, 23.64451
280.5593, 23.43438
281.0414, 23.17854
281.5235, 22.92565
282.0056, 22.80294
282.4878, 22.97366
282.9699, 23.52703
283.4520, 23.71420
283.9341, 23.20345
284.4162, 22.70565
284.8983, 22.51395
285.3805, 22.58354
285.8626, 22.73739
286.3447, 22.85754
286.8268, 22.94183
287.3089, 22.85449
287.7910, 22.39823
288.2732, 21.99697
288.7553, 21.65066
289.2374, 21.45614
289.7195, 21.67234
290.2016, 22.51339
290.6837, 23.76773
291.1659, 24.24006
291.6480, 22.96548
292.1301, 22.03908
292.6122, 21.87213
293.0943, 22.23923
293.5764, 22.93664
294.0586, 23.89386
294.5407, 24.87161
295.0228, 25.22158
295.5049, 23.96516
295.9870, 23.26435
296.4691, 23.60897
296.9513, 24.36739
297.4334, 24.83410
297.9155, 24.78592
298.3976, 24.55494
298.8797, 24.71079
299.3618, 25.62793
299.8440, 26.23535
300.3261, 26.26575
300.8082, 26.15699
301.2903, 26.25973
301.7724, 26.63874
302.2545, 27.15162
302.7367, 27.66153
303.2188, 28.21592
303.7009, 28.51775
304.1830, 28.35179
304.6651, 28.13445
305.1472, 28.15554
305.6294, 28.39913
306.1115, 28.62088
306.5936, 28.56927
307.0757, 28.21243
307.5578, 28.32225
308.0399, 29.48154
308.5221, 30.44740
309.0042, 30.48158
309.4863, 29.85356
309.9684, 29.33967
310.4505, 29.46232
310.9326, 30.10106
311.4148, 30.40682
311.8969, 29.92921
312.3790, 29.69172
312.8611, 30.19385
313.3432, 31.04985
313.8253, 31.59122
314.3075, 31.49381
314.7896, 31.03576
315.2717, 30.93157
315.7538, 31.44919
316.2359, 31.93786
316.7180, 32.32869
317.2001, 32.67488
317.6823, 33.03905
318.1644, 33.44007
318.6465, 33.84435
319.1286, 34.21593
319.6107, 34.60921
320.0928, 34.79233
320.5750, 34.53658
321.0571, 34.23458
321.5392, 34.24800
322.0213, 34.58338
322.5034, 34.92607
322.9855, 34.95184
323.4677, 34.60424
323.9498, 34.31845
324.4319, 34.00831
324.9140, 33.82528
325.3961, 33.97925
325.8782, 34.35051
326.3604, 34.57111
326.8425, 34.35493
327.3246, 33.75674
327.8067, 33.39789
328.2888, 33.68316
328.7709, 33.71709
329.2531, 32.98405
329.7352, 31.90022
330.2173, 31.18332
330.6994, 31.18718
331.1815, 31.64242
331.6636, 31.82178
332.1458, 31.60403
332.6279, 31.23354
333.1100, 30.47521
333.5921, 29.68847
334.0742, 29.31120
334.5563, 29.44234
335.0385, 29.71686
335.5206, 29.60129
336.0027, 28.92310
336.4848, 28.25884
336.9669, 27.46185
337.4490, 26.78273
337.9312, 26.47889
338.4133, 26.49708
338.8954, 26.50014
339.3775, 26.13472
339.8596, 25.33497
340.3417, 24.99740
340.8239, 25.80931
341.3060, 26.31169
341.7881, 25.71128
342.2702, 24.41390
342.7523, 23.29132
343.2344, 22.89235
343.7166, 23.07409
344.1987, 23.14745
344.6808, 23.04850
345.1629, 22.90105
345.6450, 22.66176
346.1271, 22.40149
346.6093, 22.17744
347.0914, 22.01552
347.5735, 21.93637
348.0556, 22.00425
348.5377, 22.42110
349.0198, 22.61062
349.5020, 22.33893
349.9841, 22.04544
350.4662, 22.05691
350.9483, 22.38790
351.4304, 22.81375
351.9125, 23.08484
352.3947, 23.16386
352.8768, 23.33542
353.3589, 23.67467
353.8410, 24.03002
354.3231, 24.42058
354.8052, 24.78429
355.2874, 24.99413
355.7695, 24.93686
356.2516, 24.67977
356.7337, 24.62240
357.2158, 25.05547
357.6979, 25.28830
358.1800, 25.04706
358.6621, 24.61975
359.1443, 24.28443
359.6264, 24.14756
360.1085, 24.21197
360.5906, 24.56717
361.0727, 25.47981
361.5548, 25.97208
362.0370, 25.47931
362.5191, 24.91748
363.0012, 24.90493
363.4833, 25.46066
363.9654, 26.13408
364.4475, 26.50533
364.9297, 26.56464
365.4118, 26.47391
365.8939, 26.03126
366.3760, 25.65834
366.8581, 25.54154
367.3402, 25.61742
367.8224, 25.76307
368.3045, 25.95802
368.7866, 26.13137
369.2687, 26.01448
369.7508, 25.40207
370.2329, 24.95971
370.7151, 25.22174
371.1972, 25.60435
371.6793, 25.41176
372.1614, 24.38014
372.6435, 23.25088
373.1256, 23.02676
373.6078, 23.77763
374.0899, 24.43960
374.5720, 24.95333
375.0541, 25.13707
375.5362, 24.71259
376.0183, 23.74850
376.5005, 22.85504
376.9826, 22.37546
377.4647, 22.27823
377.9468, 22.56293
378.4289, 23.51428
378.9110, 24.20923
379.3932, 23.79742
379.8753, 22.71774
380.3574, 21.76789
380.8395, 21.24276
381.3216, 20.91117
381.8037, 20.43818
382.2859, 19.81494
382.7680, 19.45005
383.2501, 19.74358
383.7322, 20.25380
384.2143, 20.21112
384.6964, 19.41338
385.1786, 18.73207
385.6607, 18.82516
386.1428, 19.42205
386.6249, 19.83533
387.1070, 19.92863
387.5891, 19.73830
388.0713, 19.04047
388.5534, 17.89540
389.0355, 17.30523
389.5176, 17.84782
389.9997, 18.80388
390.4818, 19.59678
390.9640, 20.16980
391.4461, 20.38819
391.9282, 20.09115
392.4103, 19.35409
392.8924, 18.67160
393.3745, 17.91916
393.8567, 17.34835
394.3388, 17.09036
394.8209, 17.08091
395.3030, 17.27067
395.7851, 17.67346
396.2672, 18.07251
396.7494, 18.04421
397.2315, 17.26728
397.7136, 16.83735
398.1957, 17.07825
398.6778, 17.49436
399.1599, 17.67459
399.6420, 17.58685
400.1241, 17.43522
400.6063, 17.39283
401.0884, 17.46154
401.5705, 17.58153
402.0526, 17.76284
402.5347, 17.97608
403.0168, 18.33713
403.4990, 18.69959
403.9811, 18.80806
404.4632, 18.53745
404.9453, 18.02545
405.4274, 17.59328
405.9095, 17.21170
406.3917, 16.98104
406.8738, 16.96766
407.3559, 17.04197
407.8380, 17.15434
408.3201, 17.27307
408.8022, 17.33464
409.2844, 17.24076
409.7665, 16.97086
410.2486, 16.88771
410.7307, 17.13369
411.2128, 17.42553
411.6949, 17.92797
412.1771, 18.37015
412.6592, 18.24197
413.1413, 17.19725
413.6234, 15.77070
414.1055, 15.13190
414.5876, 15.46912
415.0698, 16.02206
415.5519, 17.06454
416.0340, 17.95483
416.5161, 18.09836
416.9982, 17.47175
417.4803, 16.77290
417.9625, 16.67885
418.4446, 17.07851
418.9267, 17.15812
419.4088, 16.67697
419.8909, 16.21045
420.3730, 16.22072
420.8552, 16.50788
421.3373, 16.67027
421.8194, 16.53655
422.3015, 16.25938
422.7836, 16.02351
423.2657, 15.82792
423.7479, 15.52571
424.2300, 14.86380
424.7121, 14.25311
425.1942, 14.40916
425.6763, 15.51555
426.1584, 16.41986
426.6406, 16.48607
427.1227, 16.07105
427.6048, 15.70850
428.0869, 15.47350
428.5690, 15.44533
429.0511, 15.77715
429.5333, 16.46621
430.0154, 16.91651
430.4975, 17.09800
430.9796, 17.06694
431.4617, 16.76241
431.9438, 16.26638
432.4260, 15.74119
432.9081, 15.24718
433.3902, 14.84297
433.8723, 14.68842
434.3544, 15.12177
434.8365, 15.23854
435.3187, 14.61988
435.8008, 13.93218
436.2829, 13.81863
436.7650, 14.28528
437.2471, 14.81318
437.7292, 14.90193
438.2114, 14.53662
438.6935, 14.33834
439.1756, 14.41850
439.6577, 14.54549
440.1398, 14.79779
440.6219, 15.02498
441.1040, 14.96135
441.5862, 14.49786
442.0683, 13.92224
442.5504, 13.78939
443.0325, 14.25142
443.5146, 14.69025
443.9967, 15.17483
444.4789, 15.52061
444.9610, 15.51180
445.4431, 15.23995
445.9252, 15.05614
446.4073, 15.34952
446.8894, 15.91082
447.3716, 15.81928
447.8537, 14.72221
448.3358, 13.85516
448.8179, 14.05601
449.3000, 14.64373
449.7821, 14.86558
450.2643, 14.50496
450.7464, 14.07200
451.2285, 14.03004
451.7106, 14.30678
452.1927, 14.56232
452.6748, 14.76070
453.1570, 14.85734
453.6391, 14.70963
454.1212, 14.38175
454.6033, 14.18899
455.0854, 14.39679
455.5675, 14.62850
456.0497, 14.39580
456.5318, 13.80096
457.0139, 13.52167
457.4960, 13.98376
457.9781, 14.88388
458.4602, 15.39110
458.9424, 15.36929
459.4245, 15.32171
459.9066, 15.32962
460.3887, 15.35579
460.8708, 15.33967
461.3529, 15.28358
461.8351, 15.28689
462.3172, 15.48100
462.7993, 15.88130
463.2814, 15.93850
463.7635, 15.34839
464.2456, 14.79012
464.7278, 14.31205
465.2099, 14.00504
465.6920, 14.06236
466.1741, 14.54446
466.6562, 15.14461
467.1383, 15.33006
467.6205, 14.96907
468.1026, 14.60384
468.5847, 14.04191
469.0668, 13.67057
469.5489, 13.84822
470.0310, 14.38490
470.5132, 14.74993
470.9953, 14.54342
471.4774, 14.02000
471.9595, 13.87724
472.4416, 14.23838
472.9237, 14.52158
473.4059, 14.45703
473.8880, 14.25686
474.3701, 14.06469
474.8522, 13.89219
475.3343, 13.83885
475.8164, 14.08783
476.2986, 14.49359
476.7807, 14.65698
477.2628, 14.49067
477.7449, 14.32274
478.2270, 14.50517
478.7091, 14.89443
479.1913, 14.89725
479.6734, 13.91502
480.1555, 13.17354
480.6376, 13.66022
481.1197, 14.80851
481.6018, 15.34654
482.0839, 14.83410
482.5660, 13.94586
483.0482, 13.62926
483.5303, 14.10493
484.0124, 14.38744
484.4945, 14.33804
484.9766, 14.23824
485.4587, 14.17450
485.9409, 14.18529
486.4230, 14.38939
486.9051, 14.88121
487.3872, 15.44019
487.8693, 15.37060
488.3514, 14.11018
488.8336, 13.27769
489.3157, 13.12629
489.7978, 13.26099
490.2799, 13.52652
490.7620, 13.84908
491.2441, 14.10836
491.7263, 14.15812
492.2084, 14.06686
492.6905, 14.21907
493.1726, 14.78970
493.6547, 15.18104
494.1368, 14.93884
494.6190, 14.49262
495.1011, 14.26316
495.5832, 14.33285
496.0653, 14.54091
496.5474, 14.89928
497.0295, 15.30484
497.5117, 15.40717
497.9938, 15.11124
498.4759, 14.69061
498.9580, 14.31970
499.4401, 14.00388
499.9222, 13.75714
500.4044, 13.51147
500.8865, 13.40466
501.3686, 13.70254
501.8507, 14.16545
502.3328, 14.15427
502.8149, 13.42666
503.2971, 12.69586
503.7792, 13.08236
504.2613, 15.19251
504.7434, 16.20109
505.2255, 15.29633
505.7076, 14.21939
506.1898, 13.76904
506.6719, 13.78916
507.1540, 13.85989
507.6361, 13.76789
508.1182, 13.52683
508.6003, 13.10176
509.0825, 12.26966
509.5646, 11.85402
510.0467, 12.22991
510.5288, 12.78931
511.0109, 13.32246
511.4930, 13.76645
511.9752, 14.03252
512.4573, 14.01266
512.9394, 13.81092
513.4215, 13.65711
513.9036, 13.55454
514.3857, 13.46828
514.8679, 13.31750
515.3500, 13.23381
515.8321, 13.47584
516.3142, 14.11405
516.7963, 14.46923
517.2784, 13.88574
517.7606, 13.01709
518.2427, 12.89745
518.7248, 13.57902
519.2069, 14.23761
519.6890, 14.33503
520.1711, 13.96260
520.6533, 13.56023
521.1354, 12.71770
521.6175, 12.38284
522.0996, 13.25553
522.5817, 14.39687
523.0638, 14.76390
523.5460, 14.25635
524.0281, 13.58456
524.5102, 13.44878
524.9923, 13.82833
525.4744, 13.96595
525.9565, 13.58400
526.4387, 13.31769
526.9208, 13.40836
527.4029, 13.61253
527.8850, 13.66219
528.3671, 13.49361
528.8492, 13.26645
529.3314, 13.06755
529.8135, 12.91919
530.2956, 13.11882
530.7777, 13.90995
531.2598, 14.57597
531.7419, 14.52819
532.2241, 14.09021
532.7062, 13.74108
533.1883, 13.52838
533.6704, 13.49688
534.1525, 13.89328
534.6346, 14.47307
535.1168, 14.55828
535.5989, 13.95486
536.0810, 13.30778
536.5631, 13.36059
537.0452, 14.15666
537.5273, 14.31036
538.0095, 13.04505
538.4916, 12.06420
538.9737, 12.20364
539.4558, 12.95269
539.9379, 13.56656
540.4200, 13.79202
540.9022, 13.80508
541.3843, 13.84101
541.8664, 13.91534
542.3485, 13.92370
542.8306, 13.77525
543.3127, 13.65851
543.7948, 13.66524
544.2769, 13.73210
544.7590, 13.75303
545.2411, 13.68335
545.7233, 13.60093
546.2054, 13.59138
546.6875, 13.65390
547.1696, 13.79399
547.6517, 14.06099
548.1339, 14.31262
548.6160, 14.48725
549.0981, 14.55960
549.5802, 14.40550
550.0623, 13.63669
550.5444, 13.02409
551.0266, 13.26992
551.5087, 14.02906
551.9908, 14.46837
552.4729, 14.32700
552.9550, 14.02327
553.4371, 14.12291
553.9193, 14.77574
554.4014, 14.89400
554.8835, 13.86004
555.3656, 13.05427
555.8477, 13.18397
556.3298, 13.78944
556.8120, 14.17104
557.2941, 14.07439
557.7762, 13.74667
558.2583, 13.48078
558.7404, 13.25920
559.2225, 13.28289
559.7047, 13.87133
560.1868, 14.28641
560.6689, 14.04023
561.1510, 13.44641
561.6331, 13.02173
562.1152, 12.91858
562.5974, 13.03031
563.0795, 13.28581
563.5616, 13.67794
564.0437, 14.32313
564.5258, 15.37395
565.0079, 16.05644
565.4901, 15.42816
565.9722, 13.57751
566.4543, 12.54252
566.9364, 12.93435
567.4185, 13.43384
567.9006, 13.58713
568.3828, 13.52514
568.8649, 13.37490
569.3470, 13.19969
569.8291, 13.16804
570.3112, 13.54607
570.7933, 14.38485
571.2755, 14.72457
571.7576, 14.14484
572.2397, 13.57451
572.7218, 13.21622
573.2039, 12.99253
573.6860, 12.77743
574.1682, 12.54309
574.6503, 12.44840
575.1324, 12.78751
575.6145, 13.42215
576.0966, 13.67144
576.5787, 13.38850
577.0609, 13.13718
577.5430, 13.29245
578.0251, 13.71191
578.5072, 14.05220
578.9893, 14.34464
579.4714, 14.47197
579.9536, 14.24664
580.4357, 13.90609
580.9178, 13.77764
581.3999, 13.87522
581.8820, 13.93958
582.3641, 13.75320
582.8463, 13.38319
583.3284, 13.22612
583.8105, 13.56061
584.2926, 13.70338
584.7747, 13.52675
585.2568, 13.20929
585.7390, 12.77931
586.2211, 12.31587
586.7032, 12.03016
587.1853, 12.08952
587.6674, 12.42167
588.1495, 12.89305
588.6317, 13.55036
589.1138, 14.06763
589.5959, 14.38164
590.0780, 14.46019
590.5601, 14.21826
591.0422, 13.66212
591.5244, 13.16522
592.0065, 12.72801
592.4886, 12.48750
592.9707, 12.73942
593.4528, 13.32493
593.9349, 13.70084
594.4171, 13.61780
594.8992, 13.28014
595.3813, 13.03601
595.8634, 12.90643
596.3455, 12.81238
596.8276, 12.84477
597.3098, 12.81296
597.7919, 12.46794
598.2740, 12.04716
598.7561, 12.01174
599.2382, 12.56577
599.7203, 13.25281
600.2025, 13.39993
600.6846, 13.02616
601.1667, 12.83352
601.6488, 12.94796
602.1309, 13.13746
602.6130, 13.36681
603.0952, 13.54167
603.5773, 13.39275
604.0594, 12.58734
604.5415, 12.02186
605.0236, 12.39212
605.5057, 13.19981
605.9879, 13.69398
606.4700, 13.75426
606.9521, 13.62186
607.4342, 13.46187
607.9163, 13.29602
608.3984, 13.29725
608.8806, 13.78303
609.3627, 13.99110
609.8448, 13.53327
610.3269, 13.02538
610.8090, 13.04591
611.2911, 13.53110
611.7733, 13.92354
612.2554, 13.78930
612.7375, 13.34502
613.2196, 13.09966
613.7017, 13.07151
614.1838, 13.00999
614.6660, 12.70580
615.1481, 12.50205
615.6302, 12.96280
616.1123, 14.03141
616.5944, 14.76550
617.0765, 14.83697
617.5587, 14.64527
618.0408, 14.38815
618.5229, 14.08209
619.0050, 13.66872
619.4871, 13.13498
619.9692, 12.71480
620.4514, 12.76036
620.9335, 13.35271
621.4156, 13.79533
621.8977, 14.03079
622.3798, 14.17357
622.8619, 14.19603
623.3441, 14.17000
623.8262, 14.18966
624.3083, 14.27472
624.7904, 14.32654
625.2725, 14.24536
625.7546, 14.06851
626.2367, 13.91282
626.7188, 13.79111
627.2009, 13.58089
627.6830, 13.13360
628.1652, 12.62346
628.6473, 12.48797
629.1294, 12.83545
629.6115, 13.12785
630.0936, 13.32437
630.5757, 13.40905
631.0579, 13.30801
631.5400, 13.08716
632.0221, 12.89014
632.5042, 12.78870
632.9863, 12.77995
633.4684, 12.86788
633.9506, 13.06538
634.4327, 13.31590
634.9148, 13.82049
635.3969, 14.10618
635.8790, 13.83201
636.3611, 13.23347
636.8433, 12.67391
637.3254, 12.18479
637.8075, 11.94444
638.2896, 12.24596
638.7717, 12.84210
639.2538, 13.26611
639.7360, 13.45259
640.2181, 13.55801
640.7002, 13.69963
641.1823, 13.84089
641.6644, 13.83161
642.1465, 13.48620
642.6287, 13.24339
643.1108, 13.14278
643.5929, 13.11610
644.0750, 13.09099
644.5571, 13.09877
645.0392, 13.27151
645.5214, 13.72963
646.0035, 14.22790
646.4856, 14.28380
646.9677, 13.89959
647.4498, 13.64954
647.9319, 13.69269
648.4141, 13.76495
648.8962, 13.62202
649.3783, 13.32451
649.8604, 13.09939
650.3425, 12.81674
650.8246, 12.80930
651.3068, 13.53285
651.7889, 14.43457
652.2710, 14.80311
652.7531, 14.57625
653.2352, 14.13469
653.7173, 13.74881
654.1995, 13.43110
654.6816, 13.24243
655.1637, 13.23542
655.6458, 13.23306
656.1279, 13.15353
656.6100, 13.11943
657.0922, 13.22151
