##NAMES=Pyrrhotite
##RRUFFID=R061127
##IDEAL CHEMISTRY=Fe^2+^_5_Fe^3+^_2_S^2-^_8_
##LOCALITY=Morro Velho Gold mine, Nova Umha, Minas Gerais, Brazil
##OWNER=RRUFF
##SOURCE=Michael Scott
##DESCRIPTION=Brass colored, prismatic crystals associated with quartz and dolomite
##STATUS=The identification of this mineral has been confirmed by single-crystal X-ray diffraction.
##URL=rruff.info/R061127
196.1889, 44.41396
196.6711, 43.99983
197.1532, 43.36906
197.6353, 43.16248
198.1174, 44.00781
198.5995, 44.66370
199.0816, 44.07932
199.5638, 42.47401
200.0459, 41.36197
200.5280, 41.83765
201.0101, 43.43903
201.4922, 44.61205
201.9743, 45.29456
202.4565, 45.55297
202.9386, 45.37551
203.4207, 44.75649
203.9028, 43.90716
204.3849, 42.56006
204.8670, 41.19250
205.3492, 40.57557
205.8313, 41.18012
206.3134, 42.15311
206.7955, 42.34624
207.2776, 41.56162
207.7597, 40.91920
208.2419, 40.85975
208.7240, 41.23175
209.2061, 42.18381
209.6882, 44.10182
210.1703, 45.92669
210.6524, 45.37884
211.1346, 41.10742
211.6167, 37.99133
212.0988, 38.48779
212.5809, 40.36238
213.0630, 41.37130
213.5451, 40.49720
214.0273, 38.81350
214.5094, 38.95682
214.9915, 42.54953
215.4736, 45.02547
215.9557, 45.00503
216.4378, 43.85388
216.9200, 42.86914
217.4021, 42.62725
217.8842, 42.88137
218.3663, 42.92528
218.8484, 42.33681
219.3305, 42.17543
219.8127, 42.93728
220.2948, 44.00007
220.7769, 44.85383
221.2590, 45.26763
221.7411, 45.12063
222.2232, 44.01466
222.7054, 39.76543
223.1875, 37.22945
223.6696, 37.91849
224.1517, 40.01692
224.6338, 41.38839
225.1159, 41.08119
225.5980, 39.73075
226.0802, 39.17768
226.5623, 40.46062
227.0444, 41.32586
227.5265, 41.26001
228.0086, 40.78718
228.4907, 40.72194
228.9729, 41.44500
229.4550, 42.41848
229.9371, 42.14915
230.4192, 39.41944
230.9013, 37.42078
231.3834, 37.04867
231.8656, 37.61397
232.3477, 38.17916
232.8298, 38.41721
233.3119, 38.38116
233.7940, 38.15646
234.2761, 37.79533
234.7583, 37.19964
235.2404, 35.88057
235.7225, 34.37902
236.2046, 33.66300
236.6867, 34.10894
237.1688, 35.31346
237.6510, 36.77252
238.1331, 38.58243
238.6152, 40.08533
239.0973, 40.97808
239.5794, 41.41372
240.0615, 41.81720
240.5437, 42.47828
241.0258, 42.74441
241.5079, 41.25457
241.9900, 37.98504
242.4721, 35.61535
242.9542, 35.82430
243.4364, 37.79042
243.9185, 39.48670
244.4006, 40.60685
244.8827, 41.19786
245.3648, 41.36148
245.8469, 41.12347
246.3290, 40.42166
246.8112, 38.50257
247.2933, 36.02922
247.7754, 35.25568
248.2575, 37.38012
248.7396, 39.71208
249.2217, 40.11054
249.7039, 38.97857
250.1860, 37.58654
250.6681, 36.22638
251.1502, 35.08253
251.6323, 34.99415
252.1144, 36.71619
252.5966, 38.32544
253.0787, 38.76704
253.5608, 38.27462
254.0429, 37.30786
254.5250, 35.57894
255.0071, 33.54911
255.4893, 33.19182
255.9714, 35.57336
256.4535, 37.97896
256.9356, 39.37795
257.4177, 39.96189
257.8998, 40.02252
258.3820, 39.65477
258.8641, 38.90293
259.3462, 37.78014
259.8283, 35.54652
260.3104, 34.24257
260.7925, 35.09517
261.2747, 36.93977
261.7568, 38.20435
262.2389, 38.03210
262.7210, 36.95252
263.2031, 36.62494
263.6852, 37.98871
264.1674, 38.44576
264.6495, 36.47290
265.1316, 33.80200
265.6137, 32.30191
266.0958, 32.79580
266.5779, 34.65499
267.0601, 36.49450
267.5422, 38.53046
268.0243, 40.09774
268.5064, 41.59692
268.9885, 42.43591
269.4706, 41.65560
269.9528, 38.98794
270.4349, 35.69868
270.9170, 34.28996
271.3991, 35.85920
271.8812, 37.25732
272.3633, 38.42744
272.8455, 39.26762
273.3276, 39.69531
273.8097, 39.69470
274.2918, 39.30481
274.7739, 38.49146
275.2560, 36.79000
275.7382, 35.67963
276.2202, 35.24944
276.7024, 35.20131
277.1845, 35.45630
277.6666, 35.94383
278.1487, 36.53032
278.6308, 37.14472
279.1129, 38.06403
279.5951, 37.97303
280.0772, 35.76181
280.5593, 33.67496
281.0414, 32.82048
281.5235, 33.23957
282.0056, 34.49904
282.4878, 36.39217
282.9699, 39.26001
283.4520, 40.21804
283.9341, 37.25897
284.4162, 34.62545
284.8983, 34.42630
285.3805, 36.08477
285.8626, 37.71474
286.3447, 37.84517
286.8268, 36.50472
287.3089, 35.40795
287.7910, 34.26936
288.2732, 33.64799
288.7553, 34.02311
289.2374, 35.02664
289.7195, 35.96105
290.2016, 36.39234
290.6837, 36.44165
291.1659, 36.80421
291.6480, 38.45045
292.1301, 39.27269
292.6122, 38.16201
293.0943, 36.20854
293.5764, 34.95308
294.0586, 35.10627
294.5407, 36.23928
295.0228, 37.19540
295.5049, 38.42520
295.9870, 38.87761
296.4691, 37.66277
296.9513, 36.01855
297.4334, 35.47132
297.9155, 36.48031
298.3976, 38.02216
298.8797, 38.33669
299.3618, 36.24559
299.8440, 35.11773
300.3261, 35.73457
300.8082, 36.80906
301.2903, 37.25496
301.7724, 36.89339
302.2545, 36.33928
302.7367, 36.33636
303.2188, 37.10725
303.7009, 37.58151
304.1830, 37.96920
304.6651, 37.93317
305.1472, 36.89301
305.6294, 35.06226
306.1115, 33.45343
306.5936, 32.96081
307.0757, 33.65351
307.5578, 34.32272
308.0399, 35.12757
308.5221, 35.76264
309.0042, 36.12128
309.4863, 36.20354
309.9684, 35.99327
310.4505, 35.44917
310.9326, 34.62841
311.4148, 33.94631
311.8969, 33.71255
312.3790, 33.23877
312.8611, 31.71297
313.3432, 29.95585
313.8253, 29.52983
314.3075, 31.24136
314.7896, 34.06135
315.2717, 35.32209
315.7538, 33.30302
316.2359, 32.21153
316.7180, 33.46682
317.2001, 35.33099
317.6823, 35.68961
318.1644, 33.96585
318.6465, 31.45884
319.1286, 30.06908
319.6107, 30.19344
320.0928, 30.72705
320.5750, 32.61064
321.0571, 34.25193
321.5392, 33.95775
322.0213, 31.78893
322.5034, 29.64052
322.9855, 29.55441
323.4677, 31.98961
323.9498, 33.08132
324.4319, 31.02442
324.9140, 29.50211
325.3961, 31.42772
325.8782, 35.69712
326.3604, 38.57517
326.8425, 37.17693
327.3246, 32.03481
327.8067, 29.21408
328.2888, 29.82746
328.7709, 31.11903
329.2531, 33.38836
329.7352, 35.70833
330.2173, 36.43950
330.6994, 34.73602
331.1815, 31.56879
331.6636, 29.54865
332.1458, 29.58501
332.6279, 29.72898
333.1100, 30.04051
333.5921, 30.37712
334.0742, 30.92605
334.5563, 31.63988
335.0385, 31.65032
335.5206, 29.41279
336.0027, 22.82770
336.4848, 19.60299
336.9669, 22.34484
337.4490, 25.98773
337.9312, 26.88167
338.4133, 25.13657
338.8954, 23.56976
339.3775, 25.03954
339.8596, 29.99168
340.3417, 32.36462
340.8239, 30.99253
341.3060, 28.65697
341.7881, 25.18362
342.2702, 21.53119
342.7523, 19.51525
343.2344, 20.37038
343.7166, 23.45151
344.1987, 25.61604
344.6808, 26.51643
345.1629, 26.77394
345.6450, 25.75431
346.1271, 24.38690
346.6093, 23.85766
347.0914, 24.56717
347.5735, 25.73029
348.0556, 25.75931
348.5377, 23.41167
349.0198, 22.19915
349.5020, 23.15920
349.9841, 24.32446
350.4662, 24.21467
350.9483, 22.77485
351.4304, 21.02864
351.9125, 20.00588
352.3947, 19.70883
352.8768, 20.14837
353.3589, 22.21701
353.8410, 24.12706
354.3231, 25.06453
354.8052, 25.35164
355.2874, 25.82062
355.7695, 27.10460
356.2516, 28.95487
356.7337, 29.97924
357.2158, 29.89847
357.6979, 29.26252
358.1800, 27.50472
358.6621, 25.56845
359.1443, 24.65397
359.6264, 25.21021
360.1085, 26.35011
360.5906, 26.38235
361.0727, 24.72780
361.5548, 23.47224
362.0370, 23.09465
362.5191, 22.94924
363.0012, 22.66632
363.4833, 22.20317
363.9654, 21.72995
364.4475, 21.44869
364.9297, 21.37821
365.4118, 21.16683
365.8939, 20.51120
366.3760, 20.05815
366.8581, 20.17940
367.3402, 20.68401
367.8224, 21.15685
368.3045, 21.30386
368.7866, 21.29166
369.2687, 21.61017
369.7508, 22.30143
370.2329, 23.25272
370.7151, 25.14854
371.1972, 26.92867
371.6793, 27.26713
372.1614, 25.63224
372.6435, 23.62116
373.1256, 23.48120
373.6078, 25.39408
374.0899, 26.54385
374.5720, 25.94700
375.0541, 24.70220
375.5362, 23.41155
376.0183, 22.15165
376.5005, 21.22655
376.9826, 20.79094
377.4647, 20.84138
377.9468, 21.58367
378.4289, 23.56729
378.9110, 25.03637
379.3932, 24.33764
379.8753, 22.34492
380.3574, 20.63422
380.8395, 19.61322
381.3216, 19.16281
381.8037, 19.45658
382.2859, 20.52088
382.7680, 21.01388
383.2501, 19.74982
383.7322, 17.98594
384.2143, 17.77758
384.6964, 19.54463
385.1786, 21.51564
385.6607, 22.94170
386.1428, 23.79757
386.6249, 23.85753
387.1070, 22.85975
387.5891, 21.64457
388.0713, 21.21106
388.5534, 21.48188
389.0355, 21.88125
389.5176, 22.64641
389.9997, 23.26865
390.4818, 23.10495
390.9640, 22.16562
391.4461, 21.10220
391.9282, 20.21888
392.4103, 19.61147
392.8924, 19.61964
393.3745, 21.56213
393.8567, 22.63355
394.3388, 20.82060
394.8209, 17.45999
395.3030, 15.15601
395.7851, 14.88048
396.2672, 15.93268
396.7494, 17.20312
397.2315, 19.09054
397.7136, 20.16809
398.1957, 19.58597
398.6778, 18.70726
399.1599, 18.70793
399.6420, 19.65435
400.1241, 20.91157
400.6063, 22.01478
401.0884, 22.98858
401.5705, 23.01479
402.0526, 21.05373
402.5347, 19.43496
403.0168, 19.29126
403.4990, 19.87530
403.9811, 19.67491
404.4632, 17.93958
404.9453, 15.72447
405.4274, 15.73287
405.9095, 20.02235
406.3917, 23.10253
406.8738, 24.87926
407.3559, 25.47924
407.8380, 24.41314
408.3201, 21.99418
408.8022, 19.64114
409.2844, 18.83572
409.7665, 19.69211
410.2486, 20.35666
410.7307, 20.67841
411.2128, 20.95653
411.6949, 21.49858
412.1771, 22.01093
412.6592, 21.96773
413.1413, 21.04619
413.6234, 19.64738
414.1055, 18.61959
414.5876, 18.03598
415.0698, 17.59156
415.5519, 17.06124
416.0340, 16.75481
416.5161, 17.12219
416.9982, 18.14857
417.4803, 18.99844
417.9625, 18.74337
418.4446, 17.58389
418.9267, 17.00664
419.4088, 17.55802
419.8909, 17.88169
420.3730, 16.34817
420.8552, 14.00517
421.3373, 13.11018
421.8194, 14.99301
422.3015, 18.04383
422.7836, 20.95416
423.2657, 23.69662
423.7479, 24.49820
424.2300, 21.30668
424.7121, 16.98841
425.1942, 16.32116
425.6763, 20.06463
426.1584, 23.40757
426.6406, 23.96430
427.1227, 22.87924
427.6048, 22.12716
428.0869, 22.06763
428.5690, 21.81884
429.0511, 20.39273
429.5333, 17.79903
430.0154, 16.00602
430.4975, 14.96490
430.9796, 14.77689
431.4617, 16.07205
431.9438, 18.29343
432.4260, 20.15017
432.9081, 21.06420
433.3902, 21.11119
433.8723, 20.39169
434.3544, 17.95659
434.8365, 16.33877
435.3187, 15.58480
435.8008, 15.69994
436.2829, 17.20608
436.7650, 19.84327
437.2471, 22.29313
437.7292, 23.29060
438.2114, 22.80264
438.6935, 22.30391
439.1756, 21.86378
439.6577, 21.33261
440.1398, 20.54103
440.6219, 19.68224
441.1040, 19.02700
441.5862, 18.69096
442.0683, 18.55140
442.5504, 18.31927
443.0325, 17.78343
443.5146, 17.81027
443.9967, 19.11402
444.4789, 20.46331
444.9610, 21.41737
445.4431, 21.86752
445.9252, 21.70738
446.4073, 20.67039
446.8894, 18.98409
447.3716, 17.34100
447.8537, 15.35073
448.3358, 14.39802
448.8179, 16.06311
449.3000, 18.66485
449.7821, 20.38162
450.2643, 20.71943
450.7464, 20.73995
451.2285, 21.51426
451.7106, 22.82238
452.1927, 23.51036
452.6748, 23.26386
453.1570, 22.52297
453.6391, 21.82352
454.1212, 21.07942
454.6033, 19.62544
455.0854, 16.01599
455.5675, 12.59337
456.0497, 11.80187
456.5318, 13.32965
457.0139, 15.09046
457.4960, 16.16838
457.9781, 16.62753
458.4602, 16.51141
458.9424, 15.32367
459.4245, 14.68309
459.9066, 15.45665
460.3887, 16.58673
460.8708, 16.87965
461.3529, 16.22395
461.8351, 15.39870
462.3172, 15.07503
462.7993, 15.25282
463.2814, 16.04876
463.7635, 18.81803
464.2456, 20.61306
464.7278, 20.04284
465.2099, 18.27551
465.6920, 16.98679
466.1741, 16.81260
466.6562, 17.05895
467.1383, 16.38578
467.6205, 14.13633
468.1026, 13.00956
468.5847, 14.20465
469.0668, 15.54975
469.5489, 15.72301
470.0310, 15.19838
470.5132, 15.53086
470.9953, 18.16804
471.4774, 21.82735
471.9595, 23.07863
472.4416, 21.43403
472.9237, 19.17134
473.4059, 15.79917
473.8880, 12.98069
474.3701, 12.73599
474.8522, 15.37958
475.3343, 17.97518
475.8164, 18.60409
476.2986, 17.77417
476.7807, 16.42586
477.2628, 14.45172
477.7449, 13.15047
478.2270, 13.93664
478.7091, 16.28425
479.1913, 17.83539
479.6734, 18.04980
480.1555, 17.91624
480.6376, 17.96648
481.1197, 18.03223
481.6018, 17.50930
482.0839, 16.13511
482.5660, 14.96683
483.0482, 15.67759
483.5303, 19.19518
484.0124, 21.14637
484.4945, 20.08857
484.9766, 18.91736
485.4587, 19.55138
485.9409, 21.34448
486.4230, 22.49027
486.9051, 21.96021
487.3872, 20.23337
487.8693, 18.62886
488.3514, 16.81783
488.8336, 15.77583
489.3157, 15.70968
489.7978, 16.19304
490.2799, 17.46627
490.7620, 19.17605
491.2441, 20.07914
491.7263, 18.59215
492.2084, 15.50385
492.6905, 15.06723
493.1726, 18.80638
493.6547, 21.52506
494.1368, 19.74971
494.6190, 16.51595
495.1011, 15.01905
495.5832, 16.00369
496.0653, 17.18843
496.5474, 16.51046
497.0295, 14.65407
497.5117, 13.81684
497.9938, 14.49568
498.4759, 15.44336
498.9580, 15.49068
499.4401, 14.89605
499.9222, 15.03951
500.4044, 16.67080
500.8865, 18.36859
501.3686, 19.75393
501.8507, 20.63776
502.3328, 20.40844
502.8149, 18.81559
503.2971, 16.87524
503.7792, 16.05279
504.2613, 16.72342
504.7434, 17.21115
505.2255, 17.41030
505.7076, 17.55246
506.1898, 17.90619
506.6719, 18.27139
507.1540, 18.08396
507.6361, 17.00566
508.1182, 15.66754
508.6003, 15.72847
509.0825, 18.05943
509.5646, 19.44858
510.0467, 19.18335
510.5288, 18.24408
511.0109, 16.65229
511.4930, 14.75238
511.9752, 13.44474
512.4573, 13.29019
512.9394, 14.10485
513.4215, 15.84139
513.9036, 18.79525
514.3857, 20.79355
514.8679, 20.44711
515.3500, 19.10633
515.8321, 18.67691
516.3142, 19.33838
516.7963, 19.58693
517.2784, 18.42187
517.7606, 16.62774
518.2427, 15.00072
518.7248, 13.67377
519.2069, 13.30629
519.6890, 14.50017
520.1711, 16.95474
520.6533, 19.14881
521.1354, 22.04310
521.6175, 23.49022
522.0996, 22.13559
522.5817, 19.74127
523.0638, 17.98577
523.5460, 17.17764
524.0281, 16.68835
524.5102, 15.82009
524.9923, 14.61513
525.4744, 14.74815
525.9565, 18.35224
526.4387, 20.46415
526.9208, 18.68585
527.4029, 15.73539
527.8850, 14.61150
528.3671, 16.02197
528.8492, 18.11893
529.3314, 19.03343
529.8135, 18.87794
530.2956, 18.80566
530.7777, 19.03602
531.2598, 19.02234
531.7419, 18.26139
532.2241, 17.06726
532.7062, 15.81370
533.1883, 14.27062
533.6704, 13.29271
534.1525, 13.86104
534.6346, 15.38849
535.1168, 16.55668
535.5989, 17.07624
536.0810, 17.10667
536.5631, 16.67974
537.0452, 15.76562
537.5273, 15.30283
538.0095, 15.71522
538.4916, 16.06131
538.9737, 15.86671
539.4558, 15.42917
539.9379, 15.09270
540.4200, 15.00086
540.9022, 15.33853
541.3843, 16.54032
541.8664, 18.92904
542.3485, 20.35299
542.8306, 20.17425
543.3127, 19.65316
543.7948, 19.02566
544.2769, 18.35237
544.7590, 17.60106
545.2411, 16.71028
545.7233, 16.07372
546.2054, 16.27110
546.6875, 17.25757
547.1696, 18.44699
547.6517, 19.99980
548.1339, 21.26444
548.6160, 21.38748
549.0981, 20.74782
549.5802, 20.38984
550.0623, 20.69858
550.5444, 21.13446
551.0266, 21.78830
551.5087, 22.27293
551.9908, 21.40119
552.4729, 18.76021
552.9550, 15.74177
553.4371, 13.96902
553.9193, 13.46838
554.4014, 14.21352
554.8835, 17.80673
555.3656, 20.69042
555.8477, 20.90232
556.3298, 19.81843
556.8120, 19.77814
557.2941, 21.58133
557.7762, 23.60046
558.2583, 23.34087
558.7404, 20.49946
559.2225, 17.88541
559.7047, 15.18396
560.1868, 13.30514
560.6689, 12.55392
561.1510, 12.82155
561.6331, 14.29913
562.1152, 17.76958
562.5974, 20.38621
563.0795, 18.21161
563.5616, 12.80534
564.0437, 10.16326
564.5258, 11.84478
565.0079, 14.63445
565.4901, 15.63601
565.9722, 14.92940
566.4543, 14.91241
566.9364, 16.63895
567.4185, 17.84812
567.9006, 17.60824
568.3828, 16.35558
568.8649, 14.10795
569.3470, 11.12925
569.8291, 9.124853
570.3112, 10.45195
570.7933, 15.41133
571.2755, 18.33850
571.7576, 17.84566
572.2397, 16.96456
572.7218, 16.02370
573.2039, 15.29195
573.6860, 15.07338
574.1682, 15.43597
574.6503, 16.10068
575.1324, 16.84607
575.6145, 17.67721
576.0966, 18.80615
576.5787, 20.49080
577.0609, 21.47582
577.5430, 20.61383
578.0251, 18.60060
578.5072, 17.18186
578.9893, 16.58947
579.4714, 16.14525
579.9536, 15.44551
580.4357, 14.82899
580.9178, 14.83673
581.3999, 15.45493
581.8820, 16.08010
582.3641, 16.22057
582.8463, 16.00553
583.3284, 16.21909
583.8105, 17.78902
584.2926, 18.41052
584.7747, 17.12092
585.2568, 15.47247
585.7390, 14.61418
586.2211, 14.58720
586.7032, 14.78397
587.1853, 14.75657
587.6674, 14.65394
588.1495, 14.89104
588.6317, 15.49912
589.1138, 16.29015
589.5959, 17.42890
590.0780, 18.51085
590.5601, 19.15613
591.0422, 19.37298
591.5244, 19.07309
592.0065, 17.47586
592.4886, 15.93879
592.9707, 16.05038
593.4528, 17.36316
593.9349, 18.30992
594.4171, 18.21976
594.8992, 17.24548
595.3813, 15.44054
595.8634, 11.79475
596.3455, 10.39908
596.8276, 13.44731
597.3098, 16.11578
597.7919, 16.17009
598.2740, 14.51205
598.7561, 12.50279
599.2382, 10.62964
599.7203, 9.778143
600.2025, 12.23230
600.6846, 17.83398
601.1667, 19.89593
601.6488, 16.19876
602.1309, 12.02908
602.6130, 11.29620
603.0952, 12.63714
603.5773, 13.38990
604.0594, 12.78259
604.5415, 12.37698
605.0236, 13.21038
605.5057, 14.66133
605.9879, 15.86264
606.4700, 16.64626
606.9521, 17.07668
607.4342, 17.15588
607.9163, 16.94137
608.3984, 16.88125
608.8806, 17.44223
609.3627, 17.49300
609.8448, 16.60199
610.3269, 15.43565
610.8090, 14.26261
611.2911, 13.26992
611.7733, 12.89186
612.2554, 13.72408
612.7375, 15.10850
613.2196, 15.46454
613.7017, 14.71375
614.1838, 13.67803
614.6660, 12.17974
615.1481, 11.00525
615.6302, 11.38886
616.1123, 13.20313
616.5944, 14.52941
617.0765, 14.85608
617.5587, 14.69155
618.0408, 13.95990
618.5229, 13.05098
619.0050, 12.86299
619.4871, 13.69693
619.9692, 14.89602
620.4514, 15.57610
620.9335, 15.66701
621.4156, 15.79867
621.8977, 16.36825
622.3798, 16.48480
622.8619, 15.47698
623.3441, 14.12308
623.8262, 13.29117
624.3083, 13.19073
624.7904, 13.48831
625.2725, 14.24528
625.7546, 15.14990
626.2367, 15.11096
626.7188, 13.96932
627.2009, 13.20697
627.6830, 13.90636
628.1652, 15.22107
628.6473, 15.01173
629.1294, 12.67274
629.6115, 11.05358
630.0936, 10.69768
630.5757, 11.08119
631.0579, 12.25348
631.5400, 13.82699
632.0221, 14.91080
632.5042, 15.03290
632.9863, 14.77831
633.4684, 15.39138
633.9506, 17.21064
634.4327, 18.23127
634.9148, 18.20511
635.3969, 17.50440
635.8790, 15.85161
636.3611, 13.83869
636.8433, 12.39407
637.3254, 11.64002
637.8075, 11.85769
638.2896, 14.22248
638.7717, 17.43148
639.2538, 18.73124
639.7360, 17.78848
640.2181, 16.53375
640.7002, 16.31988
641.1823, 16.86975
641.6644, 17.05359
642.1465, 16.66912
642.6287, 16.16950
643.1108, 15.33026
643.5929, 14.57575
644.0750, 14.08944
644.5571, 13.93598
645.0392, 14.22878
645.5214, 15.09695
646.0035, 16.21541
646.4856, 17.16577
646.9677, 17.94654
647.4498, 18.07800
647.9319, 17.19156
648.4141, 16.23709
648.8962, 16.35641
649.3783, 17.09492
649.8604, 16.66043
650.3425, 13.03163
650.8246, 10.77528
651.3068, 13.32755
651.7889, 17.38639
652.2710, 18.84916
652.7531, 17.27474
653.2352, 14.48472
653.7173, 11.67523
654.1995, 9.166297
654.6816, 8.508152
655.1637, 10.76719
655.6458, 12.32789
656.1279, 11.36693
656.6100, 10.61842
657.0922, 12.27799
657.5743, 15.59762
658.0564, 17.82926
658.5385, 17.54922
659.0206, 16.30436
659.5027, 15.16379
659.9849, 14.24989
660.4670, 14.00208
660.9491, 14.53764
661.4312, 15.33539
661.9133, 16.00600
662.3954, 16.52626
662.8776, 16.55760
663.3597, 15.59730
663.8418, 14.80090
664.3239, 14.24350
664.8060, 13.91357
665.2881, 13.96708
665.7703, 14.26885
666.2524, 14.31826
666.7345, 13.63914
667.2166, 12.76925
667.6987, 12.90636
668.1808, 14.01125
668.6630, 14.49814
669.1451, 13.73243
669.6272, 12.89716
670.1093, 13.38394
670.5914, 15.02036
671.0735, 15.63148
671.5557, 13.78386
672.0378, 12.62181
672.5199, 13.93728
673.0020, 16.00045
673.4841, 16.72026
673.9662, 16.01242
674.4484, 15.43196
674.9305, 16.29962
675.4126, 18.00623
675.8947, 18.39009
676.3768, 17.09187
676.8589, 16.06028
677.3411, 15.75385
677.8232, 15.75103
678.3053, 15.91558
678.7874, 16.12156
679.2695, 15.86618
679.7516, 14.45678
680.2338, 13.29088
680.7159, 13.59713
681.1980, 14.52365
681.6801, 14.73887
682.1622, 14.02415
682.6443, 12.77310
683.1265, 11.11972
683.6086, 9.432083
684.0907, 9.713290
684.5728, 13.44849
685.0549, 15.89662
685.5370, 15.19880
686.0192, 14.11671
686.5013, 14.16638
686.9834, 15.13891
687.4655, 16.21531
687.9476, 17.23452
688.4297, 17.99850
688.9119, 18.36841
689.3940, 18.34204
689.8761, 17.76811
690.3582, 16.63587
690.8403, 15.55346
691.3224, 15.04315
691.8046, 14.91797
692.2867, 14.24542
692.7688, 12.21027
