##NAMES=Pyrrhotite
##RRUFFID=R060440
##IDEAL CHEMISTRY=Fe^2+^_5_Fe^3+^_2_S^2-^_8_
##LOCALITY=Dal 'Negorsk, Primorskiy Kray, far eastern Russia
##OWNER=RRUFF
##SOURCE=Michael Scott
##DESCRIPTION=Bronze-yellow metallic tabular hexagonal prisms
##STATUS=The identification of this mineral has been confirmed by X-ray diffraction and chemical analysis
##URL=rruff.info/R060440
##MEASURED CHEMISTRY=Fe_7.1_S_8.0_
180.7090, 33.79003
181.1911, 32.38688
181.6732, 31.12185
182.1553, 30.26416
182.6374, 29.75758
183.1195, 29.60840
183.6017, 29.86729
184.0838, 30.16792
184.5659, 29.90955
185.0480, 29.23529
185.5301, 28.86677
186.0123, 29.54458
186.4944, 30.83722
186.9765, 31.25700
187.4586, 30.62913
187.9407, 29.61867
188.4228, 29.15064
188.9050, 29.17892
189.3871, 29.21514
189.8692, 28.74853
190.3513, 27.98651
190.8334, 28.21967
191.3155, 29.78766
191.7977, 31.62714
192.2798, 31.71770
192.7619, 30.06561
193.2440, 28.74787
193.7261, 29.16521
194.2082, 31.12965
194.6904, 32.48188
195.1725, 33.10416
195.6546, 33.11290
196.1367, 32.42933
196.6188, 30.97436
197.1009, 29.81826
197.5831, 29.71140
198.0652, 30.64598
198.5473, 31.35574
199.0294, 31.81844
199.5115, 31.96210
199.9937, 31.51184
200.4758, 30.38893
200.9579, 29.22238
201.4400, 28.12529
201.9221, 27.02500
202.4042, 27.17260
202.8864, 29.13455
203.3685, 31.88007
203.8506, 32.82346
204.3327, 31.60719
204.8148, 30.02659
205.2969, 28.98457
205.7791, 28.52061
206.2612, 28.28152
206.7433, 28.21299
207.2254, 28.37965
207.7075, 29.15522
208.1896, 30.89328
208.6718, 32.21920
209.1539, 32.24201
209.6360, 30.67574
210.1181, 29.24659
210.6002, 27.98129
211.0823, 26.94139
211.5645, 26.33469
212.0466, 26.24533
212.5287, 26.38632
213.0108, 26.59796
213.4929, 26.84943
213.9750, 27.33716
214.4572, 28.24667
214.9393, 29.32847
215.4214, 29.78420
215.9035, 29.31820
216.3856, 28.82966
216.8678, 28.92426
217.3499, 29.97128
217.8320, 30.36709
218.3141, 29.86362
218.7962, 28.71235
219.2783, 27.63657
219.7605, 26.53847
220.2426, 25.70789
220.7247, 25.35139
221.2068, 25.63377
221.6889, 25.88945
222.1710, 25.94777
222.6532, 25.99475
223.1353, 26.77060
223.6174, 28.99145
224.0995, 30.76090
224.5816, 30.97290
225.0637, 28.80751
225.5459, 27.16903
226.0280, 26.19682
226.5101, 25.79183
226.9922, 25.72159
227.4743, 26.13324
227.9564, 26.64509
228.4386, 27.09517
228.9207, 27.48874
229.4028, 27.76872
229.8849, 27.81805
230.3670, 27.78147
230.8492, 28.15145
231.3313, 29.37315
231.8134, 30.32367
232.2955, 30.42533
232.7776, 29.19764
233.2597, 28.19584
233.7419, 27.26307
234.2240, 26.60582
234.7061, 26.92840
235.1882, 29.03931
235.6703, 30.89785
236.1524, 31.58321
236.6346, 30.50169
237.1167, 29.56168
237.5988, 28.65040
238.0809, 27.91258
238.5630, 27.80511
239.0451, 29.04567
239.5273, 29.83172
240.0094, 29.22320
240.4915, 26.20837
240.9736, 24.47606
241.4557, 24.47090
241.9378, 25.53360
242.4200, 26.31361
242.9021, 26.69669
243.3842, 26.98724
243.8663, 27.31526
244.3484, 27.75648
244.8306, 27.99453
245.3127, 27.92722
245.7948, 27.70938
246.2769, 27.60785
246.7590, 27.58644
247.2411, 27.75110
247.7233, 28.26776
248.2054, 29.42870
248.6875, 29.78420
249.1696, 28.88196
249.6517, 27.47715
250.1338, 26.83854
250.6160, 27.36840
251.0981, 27.94404
251.5802, 28.22754
252.0623, 28.18312
252.5444, 28.01426
253.0265, 27.57902
253.5087, 27.13718
253.9908, 27.14733
254.4729, 27.99708
254.9550, 28.49846
255.4371, 28.13674
255.9192, 26.72385
256.4014, 26.06031
256.8835, 26.49644
257.3656, 27.33521
257.8477, 27.70169
258.3298, 27.33072
258.8120, 27.09437
259.2941, 27.30384
259.7762, 28.00970
260.2583, 28.27656
260.7404, 27.96452
261.2225, 27.38956
261.7047, 26.79479
262.1868, 26.00166
262.6689, 25.67557
263.1510, 26.09550
263.6331, 27.23066
264.1152, 28.14359
264.5974, 28.90731
265.0795, 29.32314
265.5616, 29.03547
266.0437, 27.69841
266.5258, 26.79648
267.0079, 26.66173
267.4901, 27.21995
267.9722, 27.87699
268.4543, 28.73960
268.9364, 29.50331
269.4185, 29.96139
269.9006, 30.13589
270.3828, 29.82656
270.8649, 28.65922
271.3470, 27.01136
271.8291, 26.88034
272.3112, 28.79145
272.7933, 30.84015
273.2755, 31.41976
273.7576, 30.23014
274.2397, 29.77598
274.7218, 30.71093
275.2039, 32.36106
275.6860, 32.50322
276.1682, 30.80762
276.6503, 28.85073
277.1324, 27.45220
277.6145, 26.60983
278.0966, 26.60378
278.5787, 27.71124
279.0609, 29.36110
279.5430, 30.39587
280.0251, 30.79593
280.5072, 30.66751
280.9893, 29.71398
281.4715, 27.95104
281.9536, 27.13900
282.4357, 27.56464
282.9178, 28.54720
283.3999, 28.91211
283.8820, 28.62738
284.3642, 28.29531
284.8463, 28.10107
285.3284, 28.06003
285.8105, 28.52387
286.2926, 29.67645
286.7747, 30.75094
287.2569, 30.41508
287.7390, 28.72914
288.2211, 27.29993
288.7032, 26.71309
289.1853, 26.90641
289.6674, 27.93667
290.1496, 29.98816
290.6317, 31.71904
291.1138, 31.04398
291.5959, 28.35946
292.0780, 26.46066
292.5602, 26.50248
293.0423, 27.84604
293.5244, 29.15726
294.0065, 30.45104
294.4886, 31.18896
294.9707, 30.27701
295.4529, 28.26214
295.9350, 27.24545
296.4171, 28.31517
296.8992, 30.14993
297.3813, 30.06718
297.8634, 28.24121
298.3456, 26.63002
298.8277, 27.17529
299.3098, 29.02084
299.7919, 30.27957
300.2740, 30.45484
300.7561, 30.06669
301.2383, 29.46613
301.7204, 28.76005
302.2025, 28.48346
302.6846, 29.56504
303.1667, 31.11673
303.6488, 31.68662
304.1310, 30.81899
304.6131, 29.67298
305.0952, 29.48893
305.5773, 29.96765
306.0594, 30.29957
306.5415, 29.48757
307.0237, 28.59417
307.5058, 29.01026
307.9879, 31.06022
308.4700, 33.04484
308.9521, 33.54480
309.4343, 33.10672
309.9164, 32.71475
310.3985, 32.81013
310.8806, 33.09840
311.3627, 33.27282
311.8448, 33.31712
312.3270, 33.65868
312.8091, 35.07586
313.2912, 36.76907
313.7733, 37.79385
314.2554, 36.83633
314.7375, 35.97202
315.2197, 36.46985
315.7018, 38.18676
316.1839, 39.82443
316.6660, 40.73743
317.1481, 41.35978
317.6302, 42.01964
318.1124, 42.59223
318.5945, 43.47100
319.0766, 45.11397
319.5587, 47.24986
320.0408, 48.96320
320.5229, 49.52657
321.0051, 49.89750
321.4872, 50.64275
321.9693, 52.13328
322.4514, 53.44872
322.9335, 54.29283
323.4156, 54.84616
323.8978, 55.45662
324.3799, 55.90540
324.8620, 56.66274
325.3441, 58.13877
325.8262, 60.91066
326.3083, 62.61605
326.7905, 62.39203
327.2726, 61.22726
327.7547, 60.34430
328.2368, 60.05456
328.7189, 59.76179
329.2010, 59.25258
329.6832, 58.47193
330.1653, 58.13288
330.6474, 58.44769
331.1295, 59.05138
331.6116, 59.66785
332.0938, 60.37026
332.5759, 60.95035
333.0580, 61.17933
333.5401, 61.18168
334.0222, 61.93203
334.5043, 63.89620
334.9865, 65.97315
335.4686, 67.46626
335.9507, 68.05326
336.4328, 68.90187
336.9149, 69.95365
337.3970, 71.38221
337.8792, 73.82139
338.3613, 77.82777
338.8434, 81.37432
339.3255, 83.37978
339.8076, 83.59502
340.2898, 84.44094
340.7719, 86.38818
341.2540, 88.17696
341.7361, 87.74991
342.2182, 84.93095
342.7003, 81.66833
343.1825, 78.61292
343.6646, 75.68391
344.1467, 72.43993
344.6288, 68.76965
345.1109, 65.20364
345.5930, 62.28233
346.0752, 59.98725
346.5573, 57.71726
347.0394, 55.17405
347.5215, 52.68163
348.0036, 51.00904
348.4857, 50.15004
348.9679, 49.49627
349.4500, 48.46272
349.9321, 47.26300
350.4142, 46.54680
350.8963, 46.47272
351.3784, 46.74061
351.8606, 47.16021
352.3427, 47.64862
352.8248, 47.90399
353.3069, 47.34930
353.7890, 46.61439
354.2711, 46.70010
354.7533, 47.76684
355.2354, 48.87030
355.7175, 48.97442
356.1996, 48.57837
356.6817, 48.55265
357.1638, 49.80243
357.6460, 51.16817
358.1281, 51.55370
358.6102, 51.04345
359.0923, 50.84137
359.5744, 51.51876
360.0565, 52.88586
360.5387, 54.82717
361.0208, 58.21028
361.5029, 61.04372
361.9850, 61.92442
362.4671, 61.44771
362.9492, 61.42766
363.4314, 62.62432
363.9135, 64.35216
364.3956, 66.30417
364.8777, 68.60233
365.3598, 70.74363
365.8419, 72.61491
366.3241, 74.26960
366.8062, 75.77345
367.2883, 76.56616
367.7704, 77.75780
368.2526, 79.76488
368.7347, 82.76530
369.2168, 85.62732
369.6989, 87.76082
370.1810, 90.10915
370.6631, 93.57401
371.1453, 99.84323
371.6274, 104.6542
372.1095, 106.6588
372.5916, 106.5192
373.0737, 108.7038
373.5558, 114.4984
374.0380, 120.7312
374.5201, 125.8806
375.0022, 129.9543
375.4843, 132.7610
375.9664, 134.2592
376.4485, 134.5139
376.9307, 133.6636
377.4128, 131.7187
377.8949, 128.6569
378.3770, 124.4502
378.8591, 119.1330
379.3412, 112.5657
379.8234, 104.5273
380.3055, 96.21228
380.7876, 89.04204
381.2697, 82.92203
381.7518, 77.21174
382.2339, 71.52745
382.7161, 66.31728
383.1982, 62.89655
383.6803, 61.24134
384.1624, 59.80787
384.6445, 56.99025
385.1266, 53.55157
385.6088, 51.61238
386.0909, 51.82634
386.5730, 52.54150
387.0551, 51.99303
387.5372, 50.40911
388.0193, 48.41789
388.5015, 45.48079
388.9836, 42.78045
389.4657, 41.88459
389.9478, 42.92297
390.4299, 44.14685
390.9120, 44.65999
391.3942, 44.57550
391.8763, 44.01751
392.3584, 42.66014
392.8405, 41.19489
393.3226, 39.94452
393.8047, 38.87922
394.2869, 37.86249
394.7690, 36.76802
395.2511, 35.75554
395.7332, 34.91638
396.2154, 34.25325
396.6975, 33.79039
397.1796, 33.66731
397.6617, 33.72319
398.1438, 33.68235
398.6259, 33.42716
399.1081, 33.15002
399.5902, 32.93232
400.0723, 32.80479
400.5544, 32.50683
401.0365, 31.66080
401.5186, 30.92391
402.0008, 30.90749
402.4829, 32.23244
402.9650, 33.09253
403.4471, 33.19373
403.9292, 32.68093
404.4113, 32.18694
404.8935, 31.80072
405.3756, 31.22570
405.8577, 30.10376
406.3398, 28.26214
406.8219, 27.32344
407.3040, 27.50153
407.7862, 28.20678
408.2683, 28.67339
408.7504, 28.90087
409.2325, 28.91141
409.7146, 28.54315
410.1967, 28.00314
410.6789, 28.09229
411.1610, 28.83503
411.6431, 29.57829
412.1252, 29.86942
412.6073, 29.71994
413.0894, 28.99932
413.5716, 27.41717
414.0537, 25.88032
414.5358, 25.51286
415.0179, 26.14016
415.5000, 27.18259
415.9821, 29.03344
416.4643, 30.74639
416.9464, 30.99761
417.4285, 29.58334
417.9106, 28.39028
418.3927, 29.02357
418.8748, 30.44107
419.3570, 31.39432
419.8391, 30.98986
420.3212, 30.50667
420.8033, 30.55441
421.2854, 31.01184
421.7675, 31.30192
422.2497, 31.10188
422.7318, 30.79891
423.2139, 30.61505
423.6960, 30.69588
424.1781, 30.63346
424.6602, 29.89482
425.1424, 29.12206
425.6245, 29.29911
426.1066, 31.57714
426.5887, 33.33553
427.0709, 33.88546
427.5530, 33.22780
428.0351, 32.68092
428.5172, 32.11612
428.9993, 31.83083
429.4814, 32.18901
429.9636, 33.50833
430.4457, 34.23729
430.9278, 34.20070
431.4099, 33.55476
431.8920, 32.49328
432.3741, 30.93494
432.8563, 29.52006
433.3384, 28.55262
433.8205, 27.98511
434.3026, 27.64462
434.7847, 27.58153
435.2668, 27.33884
435.7490, 26.00420
436.2311, 24.00164
436.7132, 22.99345
437.1953, 23.84710
437.6774, 25.27968
438.1595, 25.55094
438.6417, 24.86779
439.1238, 24.08608
439.6059, 23.40960
440.0880, 23.05664
440.5701, 23.49590
441.0522, 24.93433
441.5344, 26.04815
442.0165, 25.63795
442.4986, 24.54523
442.9807, 23.80140
443.4628, 23.95177
443.9449, 24.31356
444.4271, 24.83045
444.9092, 25.41665
445.3913, 25.61847
445.8734, 24.79301
446.3555, 23.95753
446.8376, 23.69819
447.3198, 24.70872
447.8019, 24.97312
448.2840, 23.70425
448.7661, 21.98450
449.2482, 21.38616
449.7303, 22.74521
450.2125, 23.80081
450.6946, 23.93583
451.1767, 23.23989
451.6588, 23.10282
452.1409, 23.74779
452.6230, 24.43113
453.1052, 24.64924
453.5873, 24.38863
454.0694, 23.76330
454.5515, 22.62905
455.0337, 21.45363
455.5158, 21.18684
455.9979, 21.76240
456.4800, 22.22560
456.9621, 21.90670
457.4442, 21.27210
457.9264, 21.60678
458.4085, 22.87170
458.8906, 24.08289
459.3727, 24.29901
459.8548, 23.96183
460.3369, 23.76592
460.8191, 23.88223
461.3012, 24.11630
461.7833, 24.30638
462.2654, 24.49856
462.7475, 24.78718
463.2296, 25.72077
463.7118, 26.34888
464.1939, 25.91452
464.6760, 24.35613
465.1581, 23.06047
465.6402, 22.29674
466.1223, 22.05802
466.6045, 22.35696
467.0866, 24.18378
467.5687, 25.31963
468.0508, 25.43749
468.5329, 24.81244
469.0150, 23.96060
469.4972, 22.29261
469.9793, 21.33112
470.4614, 21.88685
470.9435, 24.09227
471.4256, 25.00000
471.9077, 24.13992
472.3899, 22.92159
472.8720, 22.70377
473.3541, 23.59600
473.8362, 24.13902
474.3183, 24.07799
474.8004, 23.66222
475.2826, 23.29028
475.7647, 22.96899
476.2468, 22.79779
476.7289, 23.09274
477.2110, 23.52169
477.6931, 23.12530
478.1753, 21.90073
478.6574, 20.86402
479.1395, 21.30568
479.6216, 22.34381
480.1037, 22.52485
480.5858, 20.80078
481.0680, 19.41342
481.5501, 20.64685
482.0322, 23.32012
482.5143, 24.95904
482.9964, 23.61398
483.4786, 21.86293
483.9607, 21.00696
484.4428, 21.21766
484.9249, 21.11136
485.4070, 19.72189
485.8892, 18.36478
486.3713, 18.00471
486.8534, 19.55919
487.3355, 20.78323
487.8176, 21.72190
488.2997, 22.26565
488.7819, 22.09035
489.2640, 20.80366
489.7461, 19.67994
490.2282, 19.14886
490.7103, 19.17712
491.1924, 19.29470
491.6746, 19.51962
492.1567, 19.76138
492.6388, 19.84024
493.1209, 19.80839
493.6030, 20.24378
494.0851, 21.42386
494.5673, 22.54933
495.0494, 22.07881
495.5315, 20.45780
496.0136, 19.31105
496.4957, 19.79145
496.9778, 20.90003
497.4600, 21.66122
497.9421, 22.06717
498.4242, 22.17349
498.9063, 21.76278
499.3884, 21.21277
499.8705, 20.88744
500.3527, 21.02017
500.8348, 20.97863
501.3169, 20.22204
501.7990, 19.24491
502.2811, 18.74196
502.7632, 19.57196
503.2454, 20.10162
503.7275, 19.50046
504.2096, 17.97519
504.6917, 17.98027
505.1738, 20.88091
505.6559, 23.45798
506.1381, 23.70968
506.6202, 20.73269
507.1023, 19.24365
507.5844, 19.69128
508.0665, 20.81826
508.5486, 20.93335
509.0308, 20.01390
509.5129, 18.92817
509.9950, 17.70840
510.4771, 16.64565
510.9592, 16.40907
511.4413, 16.95986
511.9235, 17.89029
512.4056, 19.45853
512.8877, 21.04830
513.3698, 21.65562
513.8519, 21.16272
514.3340, 20.35949
514.8162, 19.52233
515.2983, 18.81633
515.7804, 18.44514
516.2625, 18.59730
516.7446, 18.93231
517.2267, 19.62626
517.7089, 20.41296
518.1910, 20.62548
518.6731, 19.09110
519.1552, 17.92768
519.6373, 18.20939
520.1194, 20.16267
520.6016, 21.11410
521.0837, 20.57680
521.5658, 19.57265
522.0479, 18.71176
522.5300, 17.86298
523.0121, 17.75706
523.4943, 18.70663
523.9764, 20.06483
524.4585, 20.63645
524.9406, 20.39719
525.4227, 20.10196
525.9048, 20.13819
526.3870, 20.24544
526.8691, 19.46438
527.3513, 17.87607
527.8334, 16.73713
528.3155, 17.60743
528.7976, 19.24295
529.2797, 19.69372
529.7618, 18.55972
530.2440, 17.27266
530.7261, 16.60367
531.2082, 16.46174
531.6903, 16.74140
532.1724, 18.03726
532.6545, 19.08350
533.1367, 19.33719
533.6188, 18.99363
534.1009, 18.76780
534.5830, 18.72462
535.0651, 18.86190
535.5472, 19.30988
536.0294, 20.19772
536.5115, 20.41789
536.9936, 19.58484
537.4757, 18.62321
537.9578, 18.46189
538.4399, 19.33026
538.9221, 19.37916
539.4042, 18.08990
539.8863, 16.48019
540.3684, 16.68202
540.8505, 18.52090
541.3326, 19.89314
541.8148, 19.64425
542.2969, 18.58157
542.7790, 18.07407
543.2611, 18.08013
543.7432, 18.24036
544.2253, 18.32594
544.7075, 18.43440
545.1896, 18.72880
545.6717, 19.29094
546.1538, 19.69535
546.6359, 19.62683
547.1180, 19.33746
547.6002, 19.09533
548.0823, 18.81480
548.5644, 18.75636
549.0465, 19.07203
549.5286, 19.64913
550.0107, 20.20525
550.4929, 21.09260
550.9750, 21.39757
551.4571, 20.52454
551.9392, 18.46001
552.4213, 17.66890
552.9034, 18.44169
553.3856, 19.55647
553.8677, 19.97824
554.3498, 19.77908
554.8319, 19.96660
555.3140, 20.78732
555.7961, 21.46473
556.2783, 20.49039
556.7604, 18.49974
557.2425, 17.34267
557.7246, 18.30008
558.2067, 19.75940
558.6888, 20.28924
559.1710, 20.02637
559.6531, 19.41198
560.1352, 17.95084
560.6173, 16.76744
561.0994, 16.74692
561.5815, 18.12161
562.0637, 19.16446
562.5458, 19.45784
563.0279, 19.34539
563.5100, 19.06314
563.9921, 18.27615
564.4742, 17.89728
564.9564, 17.90139
565.4385, 18.35250
565.9206, 19.73489
566.4027, 22.46788
566.8848, 23.85802
567.3669, 22.62390
567.8491, 19.75689
568.3312, 18.52383
568.8133, 18.87695
569.2954, 19.50921
569.7775, 19.68849
570.2596, 19.54591
570.7418, 19.15556
571.2239, 18.50183
571.7060, 18.17464
572.1881, 19.20443
572.6702, 20.54479
573.1523, 20.97885
573.6345, 19.68765
574.1166, 18.38721
574.5987, 17.69310
575.0808, 17.41315
575.5629, 17.21947
576.0450, 16.97422
576.5272, 16.92486
577.0093, 17.19224
577.4914, 17.71929
577.9735, 18.11548
578.4556, 18.26308
578.9377, 18.51996
579.4199, 19.20378
579.9020, 20.32266
580.3841, 20.87079
580.8662, 20.80331
581.3483, 20.41110
581.8304, 19.77655
582.3126, 19.02941
582.7947, 18.68934
583.2768, 18.96408
583.7589, 19.32589
584.2410, 19.05831
584.7231, 18.47712
585.2053, 18.20743
585.6874, 19.11545
586.1696, 19.84586
586.6517, 19.51893
587.1338, 18.33953
587.6159, 17.24686
588.0980, 16.24144
588.5801, 15.58948
589.0623, 15.42435
589.5444, 15.75781
590.0265, 16.46584
590.5086, 17.84076
590.9907, 19.21621
591.4728, 20.19650
591.9550, 20.84657
592.4371, 20.45803
592.9192, 18.68223
593.4013, 16.57424
593.8834, 15.67270
594.3655, 15.85169
594.8477, 16.36911
595.3298, 17.17637
595.8119, 17.95629
596.2940, 18.18533
596.7761, 17.99590
597.2582, 17.83989
597.7404, 18.06392
598.2225, 18.32266
598.7046, 18.42634
599.1867, 18.35837
599.6688, 18.05717
600.1509, 16.91539
600.6331, 15.95775
601.1152, 15.93904
601.5973, 17.55825
602.0794, 18.46740
602.5615, 18.35476
603.0436, 17.82253
603.5258, 17.51558
604.0079, 17.45603
604.4900, 17.55645
604.9721, 17.92234
605.4542, 18.26730
605.9363, 17.67412
606.4185, 16.30773
606.9006, 15.61309
607.3827, 16.83230
607.8648, 18.74817
608.3469, 19.54015
608.8290, 19.36587
609.3112, 19.06734
609.7933, 19.09677
610.2754, 19.22927
610.7575, 19.36078
611.2396, 19.50700
611.7217, 19.39240
612.2039, 18.40682
612.6860, 17.46727
613.1681, 17.30979
613.6502, 18.74215
614.1323, 19.55905
614.6144, 19.54390
615.0966, 19.07128
615.5787, 18.66215
616.0608, 18.33897
616.5429, 17.90030
617.0250, 17.16306
617.5071, 16.43898
617.9893, 16.62867
618.4714, 17.61959
618.9535, 18.51650
619.4356, 18.81995
619.9177, 18.79634
620.3998, 18.74860
620.8820, 18.68162
621.3641, 18.58677
621.8462, 18.28276
622.3283, 18.06918
622.8104, 18.21178
623.2925, 18.84379
623.7747, 19.41810
624.2568, 19.97048
624.7389, 20.33649
625.2210, 20.35468
625.7031, 19.78441
626.1852, 19.40484
626.6674, 19.32168
627.1495, 19.37599
627.6316, 19.30027
628.1137, 19.08822
628.5958, 18.90975
629.0779, 18.84471
629.5601, 18.80621
630.0422, 18.56930
630.5243, 18.18458
631.0064, 17.88067
631.4885, 17.88656
631.9706, 17.96373
632.4528, 17.89079
632.9349, 17.66950
633.4170, 17.40509
633.8991, 17.03419
634.3812, 16.71754
634.8633, 16.51287
635.3455, 16.36136
635.8276, 16.59263
636.3097, 17.68706
636.7918, 18.72500
637.2739, 18.86106
637.7560, 17.84401
638.2382, 16.88781
638.7203, 16.03070
639.2024, 15.38652
639.6845, 15.17943
640.1666, 15.37345
640.6487, 15.68508
641.1309, 16.07343
641.6130, 16.47850
642.0951, 16.83817
642.5772, 17.14488
643.0594, 17.36159
643.5415, 17.51234
644.0236, 17.53456
644.5057, 17.28844
644.9879, 16.81713
645.4700, 16.52525
645.9521, 16.64260
646.4342, 16.83407
646.9163, 16.88304
647.3984, 16.70198
647.8806, 17.07041
648.3627, 18.32506
648.8448, 19.50592
649.3269, 19.73727
649.8090, 19.01810
650.2911, 18.48278
650.7733, 18.23809
651.2554, 18.06171
651.7375, 17.59619
652.2196, 16.99085
652.7017, 16.59440
653.1838, 16.47754
653.6660, 16.64919
654.1481, 17.37031
654.6302, 18.34203
655.1123, 19.04615
655.5944, 19.29330
656.0765, 19.25546
656.5587, 18.80963
657.0408, 18.07382
657.5229, 17.58403
658.0050, 17.46213
658.4871, 17.39070
658.9692, 17.23449
659.4514, 17.01652
659.9335, 16.95436
660.4156, 17.03202
660.8977, 17.38661
661.3798, 18.58440
661.8619, 20.08929
662.3441, 20.16247
662.8262, 18.66379
663.3083, 17.33957
663.7904, 18.05569
664.2725, 19.46794
664.7546, 19.98287
665.2368, 18.82340
665.7189, 18.01378
666.2010, 18.75588
666.6831, 19.96334
667.1652, 20.36143
667.6473, 19.25506
668.1295, 18.40901
668.6116, 17.91673
669.0937, 17.76322
669.5758, 18.02396
670.0579, 18.75585
670.5400, 19.35525
671.0222, 19.61502
671.5043, 19.66666
671.9864, 19.81885
672.4685, 20.03071
672.9506, 20.10067
673.4327, 19.74318
673.9149, 19.31850
674.3970, 19.11466
674.8791, 19.13159
675.3612, 19.30923
675.8433, 20.15960
676.3254, 20.71433
676.8076, 20.23577
677.2897, 18.41591
