##NAMES=Qilianshanite
##RRUFFID=R100019
##IDEAL CHEMISTRY=NaH_4_(CO_3_)(BO_3_)&#183;2H_2_O
##LOCALITY=Lewis Cliff Ice Tongue, Antarctica
##OWNER=RRUFF
##SOURCE=Dave Bish
##DESCRIPTION=Colorless to white granular massive with excellent bladed cleavage on individual crystalline grains
##STATUS=The identification of this mineral has been confirmed by single-crystal X-ray diffraction.
##URL=rruff.info/R100019
89.60352, 34.19018
90.08563, 34.48947
90.56775, 34.58745
91.04987, 34.54700
91.53198, 34.24372
92.01410, 33.10643
92.49622, 31.19824
92.97833, 29.80963
93.46045, 30.71078
93.94257, 33.25438
94.42468, 35.20965
94.90680, 35.45288
95.38892, 34.50629
95.87103, 34.00929
96.35315, 34.02612
96.83527, 34.25068
97.31738, 34.42650
97.79950, 34.56165
98.28162, 34.33191
98.76373, 33.20969
99.24585, 31.14104
99.72797, 30.29257
100.2101, 31.10946
100.6922, 32.78653
101.1743, 33.33220
101.6564, 32.37760
102.1385, 31.30755
102.6207, 31.10798
103.1028, 32.35672
103.5849, 32.56263
104.0670, 30.87222
104.5491, 27.71423
105.0313, 26.57046
105.5134, 28.98244
105.9955, 31.80078
106.4776, 32.47996
106.9597, 28.76508
107.4418, 26.10526
107.9240, 25.65146
108.4061, 27.74168
108.8882, 29.40984
109.3703, 30.67237
109.8524, 31.50669
110.3345, 31.87579
110.8167, 31.24460
111.2988, 30.63842
111.7809, 30.39663
112.2630, 30.79660
112.7451, 30.78854
113.2272, 29.52135
113.7094, 27.84168
114.1915, 27.13604
114.6736, 28.69236
115.1557, 30.62460
115.6378, 31.99881
116.1199, 32.37576
116.6021, 32.70951
117.0842, 33.48654
117.5663, 34.52019
118.0484, 35.24978
118.5305, 34.83953
119.0126, 34.30985
119.4948, 34.46078
119.9769, 35.21521
120.4590, 37.02212
120.9411, 41.02538
121.4232, 46.88332
121.9053, 51.90709
122.3875, 54.51483
122.8696, 55.20838
123.3517, 54.68460
123.8338, 52.05167
124.3159, 48.90601
124.7980, 46.51917
125.2802, 44.84861
125.7623, 44.80684
126.2444, 47.90558
126.7265, 53.39817
127.2086, 59.29413
127.6907, 64.09694
128.1729, 68.75030
128.6550, 75.58806
129.1371, 85.18028
129.6192, 95.25709
130.1013, 101.9947
130.5834, 105.8955
131.0656, 111.5004
131.5477, 122.0570
132.0298, 136.7547
132.5119, 151.6889
132.9940, 166.8193
133.4761, 181.5997
133.9583, 195.5910
134.4404, 208.7751
134.9225, 221.4263
135.4046, 233.4914
135.8867, 245.0179
136.3688, 256.3810
136.8510, 267.8487
137.3331, 279.0550
137.8152, 289.3688
138.2973, 298.6866
138.7794, 307.4662
139.2615, 315.8080
139.7437, 323.1494
140.2258, 332.1262
140.7079, 343.4909
141.1900, 357.1266
141.6721, 371.2594
142.1542, 385.7335
142.6364, 400.8161
143.1185, 416.6791
143.6006, 432.7673
144.0827, 450.5538
144.5648, 470.8938
145.0469, 494.9563
145.5291, 516.3140
146.0112, 535.3366
146.4933, 551.7301
146.9754, 565.2985
147.4575, 574.3900
147.9396, 582.4609
148.4218, 590.4529
148.9039, 598.3058
149.3860, 606.0975
149.8681, 613.9488
150.3502, 621.6266
150.8323, 628.6998
151.3145, 635.8837
151.7966, 641.8024
152.2787, 645.7994
152.7608, 644.9909
153.2429, 646.6757
153.7250, 652.4686
154.2072, 661.2372
154.6893, 669.8085
155.1714, 674.8388
155.6535, 676.1165
156.1356, 678.0645
156.6177, 681.2297
157.0999, 685.3743
157.5820, 691.3375
158.0641, 698.5374
158.5462, 704.5162
159.0283, 707.3582
159.5104, 709.5720
159.9926, 712.7911
160.4747, 718.4420
160.9568, 724.0975
161.4389, 728.8817
161.9210, 732.8518
162.4031, 736.9943
162.8853, 742.5807
163.3674, 748.0891
163.8495, 752.1259
164.3316, 753.0748
164.8137, 753.4337
165.2958, 754.5116
165.7780, 756.3050
166.2601, 757.8445
166.7422, 758.3901
167.2243, 758.4461
167.7064, 758.6482
168.1885, 759.4435
168.6707, 760.3279
169.1528, 760.9215
169.6349, 761.1979
170.1170, 761.4255
170.5991, 761.4400
171.0812, 761.5627
171.5634, 762.3447
172.0455, 764.6416
172.5276, 767.3986
173.0097, 769.4129
173.4918, 770.4854
173.9739, 771.6733
174.4561, 774.2781
174.9382, 777.7635
175.4203, 780.8491
175.9024, 782.2803
176.3845, 783.0970
176.8666, 784.7596
177.3488, 787.5280
177.8309, 790.7389
178.3130, 793.7865
178.7951, 796.7194
179.2772, 799.5925
179.7593, 802.2744
180.2415, 804.9553
180.7236, 808.1497
181.2057, 812.0677
181.6878, 816.1547
182.1699, 819.9734
182.6520, 823.4195
183.1342, 826.2704
183.6163, 827.5572
184.0984, 828.0187
184.5805, 830.0017
185.0626, 834.3808
185.5447, 839.5475
186.0269, 842.9572
186.5090, 844.6237
186.9911, 845.4158
187.4732, 844.9157
187.9553, 843.7001
188.4374, 845.0088
188.9196, 850.5031
189.4017, 857.5926
189.8838, 860.1485
190.3659, 858.0189
190.8480, 855.0405
191.3301, 854.5397
191.8123, 856.1962
192.2944, 856.6737
192.7765, 854.9711
193.2586, 851.9083
193.7407, 849.7806
194.2228, 848.5991
194.7050, 848.2735
195.1871, 849.2077
195.6692, 851.3857
196.1513, 852.7214
196.6334, 852.3466
197.1155, 850.9109
197.5977, 851.0269
198.0798, 852.8674
198.5619, 855.5604
199.0440, 858.4670
199.5261, 861.6248
200.0082, 864.5679
200.4904, 867.3504
200.9725, 869.8610
201.4546, 871.4541
201.9367, 872.0558
202.4188, 871.9310
202.9009, 871.0427
203.3831, 869.1844
203.8652, 868.0172
204.3473, 868.5189
204.8294, 870.3650
205.3115, 869.5596
205.7936, 865.4293
206.2758, 860.0980
206.7579, 856.0892
207.2400, 854.0160
207.7221, 850.6917
208.2042, 844.9057
208.6863, 836.7094
209.1685, 829.4792
209.6506, 823.0579
210.1327, 817.7778
210.6148, 814.4694
211.0969, 813.9919
211.5790, 812.6594
212.0612, 809.1932
212.5433, 803.5651
213.0254, 798.7535
213.5075, 794.7131
213.9896, 791.5172
214.4717, 789.4764
214.9538, 789.0109
215.4360, 788.4708
215.9181, 787.3615
216.4002, 785.6397
216.8823, 784.0517
217.3644, 782.4838
217.8465, 781.1652
218.3287, 780.4823
218.8108, 780.8405
219.2929, 780.8754
219.7750, 780.0428
220.2571, 778.1608
220.7392, 777.1404
221.2214, 777.4628
221.7035, 778.1606
222.1856, 777.9211
222.6677, 776.2779
223.1498, 774.6877
223.6319, 773.5707
224.1141, 772.9612
224.5962, 772.4453
225.0783, 772.0634
225.5604, 771.7410
226.0425, 771.3461
226.5246, 770.7482
227.0068, 770.3426
227.4889, 770.3429
227.9710, 770.8712
228.4531, 770.9847
228.9352, 770.6906
229.4173, 769.9730
229.8995, 768.6631
230.3816, 765.9952
230.8637, 764.1135
231.3458, 763.8680
231.8279, 765.6318
232.3100, 766.6047
232.7922, 766.6774
233.2743, 766.0616
233.7564, 764.8351
234.2385, 762.1494
234.7206, 760.4004
235.2027, 760.5048
235.6849, 762.8648
236.1670, 764.4799
236.6491, 765.2104
237.1312, 765.3190
237.6133, 764.9984
238.0954, 763.5826
238.5776, 762.9171
239.0597, 763.7512
239.5418, 766.4143
240.0239, 768.1673
240.5060, 768.7034
240.9881, 768.5852
241.4703, 768.4905
241.9524, 768.4591
242.4345, 768.3781
242.9166, 768.1552
243.3987, 767.7296
243.8808, 767.6133
244.3630, 767.6628
244.8451, 768.1472
245.3272, 769.6053
245.8093, 773.1933
246.2914, 775.6023
246.7735, 775.5765
247.2557, 772.7131
247.7378, 771.6700
248.2199, 773.3648
248.7020, 775.9564
249.1841, 777.3182
249.6662, 776.5896
250.1484, 776.2944
250.6305, 777.1592
251.1126, 779.2600
251.5947, 780.7817
252.0768, 781.4935
252.5589, 781.8322
253.0411, 782.2698
253.5232, 782.9642
254.0053, 783.3837
254.4874, 783.3436
254.9695, 782.8358
255.4516, 782.4675
255.9338, 782.2221
256.4159, 782.1577
256.8980, 782.4229
257.3801, 783.3253
257.8622, 783.8564
258.3444, 783.7498
258.8265, 783.0453
259.3086, 782.4660
259.7907, 782.0517
260.2728, 781.7477
260.7549, 781.4515
261.2371, 780.9958
261.7192, 781.0508
262.2013, 781.9187
262.6834, 783.4902
263.1655, 784.5320
263.6476, 784.8561
264.1298, 784.9617
264.6119, 785.2297
265.0940, 785.6735
265.5761, 786.2084
266.0582, 786.8853
266.5403, 787.6359
267.0225, 787.9763
267.5046, 787.5701
267.9867, 787.4335
268.4688, 788.5520
268.9509, 791.4005
269.4330, 793.4866
269.9152, 794.4079
270.3973, 794.3756
270.8794, 794.0746
271.3615, 793.3539
271.8436, 792.7847
272.3257, 792.7929
272.8079, 793.4471
273.2900, 794.3225
273.7721, 795.6257
274.2542, 796.9924
274.7363, 797.0303
275.2184, 795.2990
275.7006, 793.9926
276.1827, 794.8594
276.6648, 798.1505
277.1469, 800.4959
277.6290, 801.4575
278.1111, 801.5884
278.5933, 802.2298
279.0754, 803.5387
279.5575, 804.4420
280.0396, 804.0989
280.5217, 802.4977
281.0038, 801.2559
281.4860, 800.3668
281.9681, 799.9659
282.4502, 800.6324
282.9323, 802.4576
283.4144, 803.9054
283.8965, 803.4879
284.3787, 801.5124
284.8608, 802.1171
285.3429, 805.9826
285.8250, 810.7263
286.3071, 812.6489
286.7892, 811.8128
287.2714, 810.9261
287.7535, 811.7328
288.2356, 813.6940
288.7177, 813.1912
289.1998, 809.7982
289.6819, 806.2362
290.1641, 806.3300
290.6462, 809.6229
291.1283, 812.4120
291.6104, 812.8416
292.0925, 811.7930
292.5746, 811.9266
293.0568, 813.3207
293.5389, 814.8956
294.0210, 815.2091
294.5031, 814.6516
294.9852, 814.8195
295.4673, 816.7025
295.9495, 819.3410
296.4316, 820.7887
296.9137, 821.0635
297.3958, 820.9786
297.8779, 820.7719
298.3600, 820.7059
298.8422, 821.5079
299.3243, 823.7117
299.8064, 826.4850
300.2885, 828.8881
300.7706, 830.8942
301.2527, 832.3867
301.7349, 833.0396
302.2170, 833.1525
302.6991, 833.2135
303.1812, 833.3391
303.6633, 833.4227
304.1454, 832.8378
304.6276, 831.9562
305.1097, 832.1118
305.5918, 835.7025
306.0739, 840.1676
306.5560, 842.1667
307.0381, 840.6798
307.5203, 838.2890
308.0024, 836.3558
308.4845, 835.1020
308.9666, 835.0485
309.4487, 837.9199
309.9308, 841.2551
310.4130, 842.4049
310.8951, 840.6188
311.3772, 839.5633
311.8593, 842.9267
312.3414, 848.3453
312.8235, 852.1154
313.3057, 851.6732
313.7878, 849.9626
314.2699, 848.2743
314.7520, 846.6518
315.2341, 846.1731
315.7162, 847.9677
316.1984, 850.9855
316.6805, 854.0233
317.1626, 858.1691
317.6447, 860.9337
318.1268, 860.1990
318.6089, 856.2468
319.0911, 853.8871
319.5732, 856.4393
320.0553, 860.3134
320.5374, 862.7200
321.0195, 861.5690
321.5016, 860.5311
321.9838, 860.3301
322.4659, 860.8959
322.9480, 861.8546
323.4301, 862.9905
323.9122, 864.6127
324.3943, 866.9424
324.8765, 871.2517
325.3586, 874.4702
325.8407, 875.8172
326.3228, 875.8450
326.8049, 875.9717
327.2870, 876.2641
327.7692, 876.6588
328.2513, 877.0241
328.7334, 876.8632
329.2155, 877.8214
329.6976, 880.8032
330.1797, 884.6119
330.6619, 887.3500
331.1440, 888.5712
331.6261, 889.3361
332.1082, 889.7402
332.5903, 889.6412
333.0724, 890.1155
333.5546, 891.1272
334.0367, 892.7565
334.5188, 895.2848
335.0009, 899.5576
335.4830, 902.8107
335.9651, 904.1501
336.4473, 903.7828
336.9294, 904.3099
337.4115, 906.1432
337.8936, 908.0638
338.3757, 908.7707
338.8578, 907.7773
339.3399, 908.1771
339.8221, 910.6275
340.3042, 914.6432
340.7863, 918.9171
341.2684, 923.7841
341.7505, 927.6113
342.2326, 928.6515
342.7148, 926.9336
343.1969, 927.3387
343.6790, 930.7607
344.1611, 935.3066
344.6432, 937.1116
345.1253, 936.2078
345.6075, 936.1312
346.0896, 939.2611
346.5717, 944.7714
347.0538, 948.8933
347.5359, 951.4305
348.0180, 953.5426
348.5002, 956.6511
348.9823, 960.5300
349.4644, 964.2692
349.9465, 967.5424
350.4286, 970.4697
350.9107, 973.4521
351.3929, 976.4733
351.8750, 978.9884
352.3571, 980.3456
352.8392, 980.9485
353.3213, 981.5020
353.8034, 982.1943
354.2856, 982.9552
354.7677, 983.9391
355.2498, 985.0182
355.7319, 985.6680
356.2140, 984.7809
356.6961, 983.6727
357.1783, 983.9168
357.6604, 986.3203
358.1425, 988.4062
358.6246, 988.0609
359.1067, 986.2967
359.5888, 985.0998
360.0710, 985.8693
360.5531, 987.0155
361.0352, 987.5321
361.5173, 987.2342
361.9994, 987.1323
362.4815, 988.1796
362.9637, 989.4095
363.4458, 989.7870
363.9279, 988.5996
364.4100, 986.9724
364.8921, 984.7874
365.3742, 982.1549
365.8564, 980.6190
366.3385, 981.5974
366.8206, 982.9935
367.3027, 983.5477
367.7848, 982.6801
368.2669, 981.5443
368.7491, 979.8958
369.2312, 978.0164
369.7133, 976.7654
370.1954, 976.6811
370.6775, 976.6660
371.1596, 976.2443
371.6418, 975.0514
372.1239, 974.5622
372.6060, 975.0208
373.0881, 976.0314
373.5702, 977.1646
374.0523, 978.7864
374.5345, 979.6516
375.0166, 979.1544
375.4987, 977.3086
375.9808, 976.1195
376.4629, 975.5432
376.9450, 975.6238
377.4272, 976.5934
377.9093, 978.5579
378.3914, 980.2938
378.8735, 981.6163
379.3556, 982.5419
379.8377, 983.2714
380.3199, 983.8284
380.8020, 983.7792
381.2841, 982.3361
381.7662, 979.8621
382.2483, 978.4346
382.7304, 978.3495
383.2126, 978.9794
383.6947, 979.6819
384.1768, 980.4308
384.6589, 981.0414
385.1410, 981.5793
385.6231, 981.9034
386.1053, 981.3541
386.5874, 979.8956
387.0695, 979.1373
387.5516, 980.6925
388.0337, 983.8431
388.5158, 987.3995
388.9980, 991.7490
389.4801, 995.5574
389.9622, 997.8496
390.4443, 998.6522
390.9264, 998.1017
391.4085, 994.5281
391.8907, 990.6215
392.3728, 988.7285
392.8549, 989.9584
393.3370, 991.4559
393.8191, 991.6316
394.3012, 991.3233
394.7834, 991.9460
395.2655, 994.9822
395.7476, 998.0701
396.2297, 1000.370
396.7118, 1001.792
397.1939, 1002.670
397.6761, 1002.898
398.1582, 1002.679
398.6403, 1002.185
399.1224, 999.9050
399.6045, 999.1561
400.0866, 1001.172
400.5688, 1005.338
401.0509, 1007.877
401.5330, 1007.907
402.0151, 1007.452
402.4972, 1007.352
402.9793, 1007.361
403.4615, 1008.603
403.9436, 1011.860
404.4257, 1015.674
404.9078, 1017.282
405.3899, 1016.157
405.8720, 1014.823
406.3542, 1013.817
406.8363, 1013.192
407.3184, 1013.982
407.8005, 1016.421
408.2826, 1019.236
408.7647, 1021.013
409.2469, 1021.851
409.7290, 1023.343
410.2111, 1026.155
410.6932, 1029.329
411.1753, 1030.702
411.6574, 1030.448
412.1396, 1030.329
412.6217, 1031.841
413.1038, 1034.196
413.5859, 1035.928
414.0680, 1036.885
414.5501, 1037.416
415.0323, 1037.275
415.5144, 1036.996
415.9965, 1037.618
416.4786, 1040.907
416.9607, 1044.274
417.4428, 1045.226
417.9250, 1044.018
418.4071, 1043.334
418.8892, 1045.128
419.3713, 1047.769
419.8534, 1049.839
420.3355, 1050.625
420.8177, 1051.506
421.2998, 1053.676
421.7819, 1056.263
422.2640, 1057.422
422.7461, 1054.322
423.2282, 1051.910
423.7104, 1052.365
424.1925, 1056.769
424.6746, 1060.109
425.1567, 1061.593
425.6388, 1062.331
426.1209, 1063.311
426.6031, 1064.827
427.0852, 1066.059
427.5673, 1066.737
428.0494, 1066.993
428.5315, 1067.548
429.0136, 1068.304
429.4958, 1069.468
429.9779, 1071.246
430.4600, 1073.736
430.9421, 1076.152
431.4242, 1078.618
431.9063, 1080.707
432.3885, 1081.517
432.8706, 1081.032
433.3527, 1080.501
433.8348, 1080.179
434.3169, 1080.204
434.7990, 1081.417
435.2812, 1083.837
435.7633, 1085.805
436.2454, 1085.052
436.7275, 1082.825
437.2096, 1082.201
437.6917, 1084.261
438.1739, 1086.898
438.6560, 1087.745
439.1381, 1087.350
439.6202, 1087.150
440.1023, 1087.634
440.5844, 1088.790
441.0666, 1091.174
441.5487, 1094.870
442.0308, 1097.522
442.5129, 1096.767
442.9950, 1094.925
443.4771, 1094.213
443.9593, 1096.450
444.4414, 1098.563
444.9235, 1099.704
445.4056, 1100.070
445.8877, 1100.423
446.3698, 1100.062
446.8520, 1100.373
447.3341, 1102.056
447.8162, 1105.598
448.2983, 1108.910
448.7804, 1112.071
449.2625, 1114.901
449.7447, 1117.215
450.2268, 1119.233
450.7089, 1120.140
451.1910, 1119.188
451.6731, 1116.981
452.1552, 1117.121
452.6374, 1120.301
453.1195, 1123.331
453.6016, 1124.001
454.0837, 1122.391
454.5658, 1120.625
455.0479, 1118.576
455.5301, 1117.266
456.0122, 1118.443
456.4943, 1121.849
456.9764, 1125.834
457.4585, 1130.797
457.9406, 1135.410
458.4228, 1136.824
458.9049, 1135.336
459.3870, 1134.009
459.8691, 1135.174
460.3512, 1137.739
460.8333, 1140.469
461.3155, 1143.328
461.7976, 1145.789
462.2797, 1147.426
462.7618, 1148.449
463.2439, 1149.193
463.7260, 1149.491
464.2082, 1149.806
464.6903, 1150.183
465.1724, 1150.633
465.6545, 1151.689
466.1366, 1154.880
466.6187, 1157.802
467.1009, 1158.865
467.5830, 1154.945
468.0651, 1153.339
468.5472, 1155.162
469.0293, 1158.994
469.5114, 1162.050
469.9936, 1164.200
470.4757, 1165.778
470.9578, 1166.821
471.4399, 1167.329
471.9220, 1167.449
472.4041, 1166.941
472.8863, 1166.732
473.3684, 1167.707
473.8505, 1169.840
474.3326, 1172.504
474.8147, 1175.836
475.2968, 1179.205
475.7790, 1181.492
476.2611, 1182.794
476.7432, 1183.727
477.2253, 1184.089
477.7074, 1184.488
478.1895, 1186.042
478.6717, 1188.766
479.1538, 1191.781
479.6359, 1194.672
480.1180, 1197.389
480.6001, 1199.854
481.0822, 1201.947
481.5644, 1204.009
482.0465, 1206.621
482.5286, 1209.335
483.0107, 1211.165
483.4928, 1209.636
483.9749, 1209.101
484.4571, 1212.032
484.9392, 1219.197
485.4213, 1224.733
485.9034, 1226.850
486.3855, 1227.967
486.8676, 1229.680
487.3498, 1232.219
487.8319, 1234.887
488.3140, 1237.557
488.7961, 1240.327
489.2782, 1243.557
489.7603, 1247.427
490.2425, 1251.027
490.7246, 1254.034
491.2067, 1256.464
491.6888, 1258.029
492.1709, 1258.577
492.6530, 1259.208
493.1352, 1261.255
493.6173, 1264.357
494.0994, 1266.961
494.5815, 1268.794
495.0636, 1270.016
495.5457, 1270.465
496.0279, 1270.404
496.5100, 1270.583
496.9921, 1271.061
497.4742, 1272.163
497.9563, 1274.434
498.4384, 1277.849
498.9206, 1281.230
499.4027, 1284.902
499.8848, 1287.754
500.3669, 1288.801
500.8490, 1286.298
501.3311, 1284.491
501.8133, 1284.333
502.2954, 1285.446
502.7775, 1287.121
503.2596, 1291.219
503.7417, 1293.685
504.2238, 1292.935
504.7060, 1289.054
505.1881, 1286.906
505.6702, 1287.300
506.1523, 1288.111
506.6344, 1287.816
507.1165, 1286.207
507.5987, 1285.025
508.0808, 1284.485
508.5629, 1284.221
509.0450, 1283.448
509.5271, 1282.259
510.0092, 1281.875
510.4914, 1283.376
510.9735, 1285.569
511.4556, 1285.860
511.9377, 1284.431
512.4199, 1282.771
512.9020, 1281.510
513.3841, 1280.780
513.8662, 1281.080
514.3483, 1282.809
514.8304, 1283.869
515.3126, 1281.803
515.7947, 1278.656
516.2768, 1277.005
516.7589, 1278.743
517.2410, 1280.895
517.7231, 1282.680
518.2053, 1284.139
518.6874, 1285.582
519.1695, 1287.517
519.6516, 1288.967
520.1337, 1289.313
520.6158, 1288.029
521.0980, 1288.180
521.5801, 1290.467
522.0622, 1293.326
522.5443, 1295.089
523.0264, 1295.500
523.5085, 1296.482
523.9907, 1298.518
524.4728, 1301.073
524.9549, 1302.812
525.4370, 1303.793
525.9191, 1305.175
526.4012, 1308.340
526.8834, 1312.168
527.3655, 1313.879
527.8476, 1313.493
528.3297, 1312.866
528.8118, 1312.841
529.2939, 1313.644
529.7761, 1315.612
530.2582, 1318.932
530.7403, 1323.100
531.2224, 1329.146
531.7045, 1335.577
532.1866, 1339.933
532.6688, 1339.201
533.1509, 1338.675
533.6330, 1340.144
534.1151, 1343.551
534.5972, 1346.678
535.0793, 1349.467
535.5615, 1351.936
536.0436, 1354.267
536.5257, 1356.953
537.0078, 1357.521
537.4899, 1354.967
537.9720, 1351.934
538.4542, 1352.252
538.9363, 1356.185
539.4184, 1359.308
539.9005, 1360.509
540.3826, 1360.467
540.8647, 1360.213
541.3469, 1359.827
541.8290, 1359.842
542.3111, 1360.857
542.7932, 1362.346
543.2753, 1363.426
543.7574, 1364.066
544.2396, 1364.919
544.7217, 1366.960
545.2038, 1369.147
545.6859, 1370.397
546.1680, 1370.162
546.6501, 1369.477
547.1323, 1368.001
547.6144, 1366.404
548.0965, 1365.830
548.5786, 1366.727
549.0607, 1368.406
549.5428, 1371.561
550.0250, 1375.846
550.5071, 1377.254
550.9892, 1374.266
551.4713, 1371.170
551.9534, 1370.561
552.4355, 1372.799
552.9177, 1373.822
553.3998, 1373.455
553.8819, 1372.365
554.3640, 1371.007
554.8461, 1369.500
555.3282, 1368.434
555.8104, 1367.815
556.2925, 1367.964
556.7746, 1370.032
557.2567, 1373.376
557.7388, 1375.995
558.2209, 1376.252
558.7031, 1375.779
559.1852, 1375.658
559.6673, 1375.944
560.1494, 1376.605
560.6315, 1377.630
561.1136, 1379.032
561.5958, 1380.845
562.0779, 1383.274
562.5600, 1385.787
563.0421, 1388.736
563.5242, 1391.541
564.0063, 1393.359
564.4885, 1393.598
564.9706, 1394.177
565.4527, 1395.547
565.9348, 1397.412
566.4169, 1398.783
566.8990, 1399.579
567.3812, 1400.371
567.8633, 1401.542
568.3454, 1402.945
568.8275, 1403.957
569.3096, 1404.552
569.7917, 1405.399
570.2739, 1407.672
570.7560, 1410.398
571.2381, 1411.867
571.7202, 1411.243
572.2023, 1410.879
572.6844, 1412.867
573.1666, 1415.951
573.6487, 1418.272
574.1308, 1418.848
574.6129, 1419.007
575.0950, 1418.582
575.5771, 1417.859
576.0593, 1418.559
576.5414, 1422.286
577.0235, 1425.417
577.5056, 1426.164
577.9877, 1424.065
578.4698, 1424.259
578.9520, 1427.441
579.4341, 1431.158
579.9162, 1432.982
580.3983, 1433.051
580.8804, 1433.716
581.3625, 1435.398
581.8447, 1437.428
582.3268, 1438.852
582.8089, 1439.859
583.2910, 1441.047
583.7731, 1442.739
584.2552, 1444.641
584.7373, 1446.309
585.2194, 1447.922
585.7015, 1450.136
586.1837, 1453.964
