##NAMES=Quartz
##RRUFFID=R040031
##IDEAL CHEMISTRY=SiO_2_
##LOCALITY=Spruce Claim, King County, Washington, USA
##OWNER=RRUFF
##SOURCE=Bob Downs
##DESCRIPTION=Colorless hexagonal prism
##STATUS=The identification of this mineral has been confirmed by X-ray diffraction and chemical analysis
##URL=rruff.info/R040031
##MEASURED CHEMISTRY=Si_1.00_O_2_
108.9736, 128.9795
109.4557, 130.3679
109.9378, 132.3184
110.4199, 134.4956
110.9020, 136.6878
111.3842, 139.5185
111.8663, 143.0154
112.3484, 147.1701
112.8305, 151.9833
113.3126, 157.4735
113.7947, 163.6852
114.2769, 170.1806
114.7590, 176.7370
115.2411, 183.7705
115.7232, 191.5499
116.2053, 200.0193
116.6874, 208.8117
117.1695, 217.5791
117.6517, 226.1414
118.1338, 235.6015
118.6159, 245.8545
119.0980, 256.9696
119.5801, 268.7817
120.0622, 281.1766
120.5444, 294.9958
121.0265, 311.2342
121.5086, 329.4493
121.9907, 351.3210
122.4728, 377.0025
122.9549, 406.6529
123.4371, 440.6926
123.9192, 479.2086
124.4013, 523.0360
124.8834, 573.9713
125.3655, 632.6944
125.8476, 688.2850
126.3298, 737.4919
126.8119, 781.5267
127.2940, 801.8274
127.7761, 783.5926
128.2582, 743.5491
128.7404, 684.1937
129.2225, 605.9785
129.7046, 519.8370
130.1867, 442.6035
130.6688, 374.0186
131.1509, 316.8170
131.6331, 270.8048
132.1152, 233.8508
132.5973, 204.4878
133.0794, 182.2729
133.5615, 166.1316
134.0436, 152.1087
134.5258, 140.6033
135.0079, 131.0174
135.4900, 123.7351
135.9721, 118.2992
136.4542, 113.9858
136.9363, 110.3550
137.4184, 107.4370
137.9006, 105.4801
138.3827, 105.0754
138.8648, 104.8384
139.3469, 104.0900
139.8290, 102.8704
140.3111, 101.6416
140.7933, 100.8089
141.2754, 100.3217
141.7575, 99.63641
142.2396, 98.32680
142.7217, 97.00571
143.2038, 96.43068
143.6860, 96.76794
144.1681, 97.29552
144.6502, 97.67377
145.1323, 97.83102
145.6144, 97.44873
146.0965, 95.93698
146.5787, 93.73332
147.0608, 92.28609
147.5429, 92.19531
148.0250, 92.14989
148.5071, 91.27134
148.9892, 89.79380
149.4714, 88.38547
149.9535, 87.65376
150.4356, 87.66203
150.9177, 87.49722
151.3998, 87.06197
151.8819, 86.51335
152.3641, 85.91442
152.8462, 85.25674
153.3283, 84.47415
153.8104, 83.38779
154.2925, 81.64072
154.7746, 80.65803
155.2568, 80.53821
155.7389, 80.91817
156.2210, 81.90520
156.7031, 83.37866
157.1852, 84.74193
157.6673, 85.00554
158.1495, 82.92462
158.6316, 81.84785
159.1137, 82.36947
159.5958, 83.59483
160.0779, 84.54183
160.5600, 84.86208
161.0422, 85.07423
161.5243, 86.39427
162.0064, 89.38434
162.4885, 92.00542
162.9706, 93.45901
163.4527, 94.25460
163.9349, 95.41454
164.4170, 97.39905
164.8991, 99.84456
165.3812, 102.0340
165.8633, 103.8817
166.3454, 105.7891
166.8276, 108.1160
167.3097, 110.7842
167.7918, 113.2397
168.2739, 114.9904
168.7560, 116.6148
169.2381, 118.7871
169.7203, 121.6321
170.2024, 124.8085
170.6845, 128.1581
171.1666, 131.7662
171.6487, 134.9610
172.1308, 136.8071
172.6130, 138.4719
173.0951, 140.8214
173.5772, 144.1242
174.0593, 148.1477
174.5414, 152.5332
175.0235, 157.2616
175.5057, 162.4278
175.9878, 168.1671
176.4699, 174.1902
176.9520, 180.3161
177.4341, 186.4501
177.9162, 192.5884
178.3984, 198.8063
178.8805, 205.1126
179.3626, 211.4950
179.8447, 218.0327
180.3268, 224.6427
180.8089, 231.1952
181.2911, 237.5590
181.7732, 243.8861
182.2553, 251.1728
182.7374, 260.7804
183.2195, 269.8769
183.7016, 277.0344
184.1838, 283.3469
184.6659, 290.8849
185.1480, 301.0760
185.6301, 313.6272
186.1122, 325.3422
186.5943, 335.9849
187.0765, 346.1974
187.5586, 355.6168
188.0407, 364.6210
188.5228, 374.5519
189.0049, 386.5068
189.4870, 400.1299
189.9692, 413.0038
190.4513, 423.9997
190.9334, 435.1985
191.4155, 447.9482
191.8976, 462.1700
192.3797, 477.2953
192.8619, 493.5513
193.3440, 510.2944
193.8261, 525.6787
194.3082, 538.7796
194.7903, 550.8851
195.2724, 562.8781
195.7546, 574.5922
196.2367, 587.1340
196.7188, 603.1172
197.2009, 620.0548
197.6830, 634.2733
198.1651, 643.1334
198.6473, 649.7106
199.1294, 659.7889
199.6115, 674.9537
200.0936, 689.6429
200.5757, 701.7794
201.0578, 711.8841
201.5400, 720.4741
202.0221, 727.7092
202.5042, 733.5636
202.9863, 738.1655
203.4684, 741.9574
203.9505, 743.3741
204.4327, 742.1777
204.9148, 738.7067
205.3969, 733.2952
205.8790, 725.9046
206.3611, 716.8725
206.8432, 707.8138
207.3254, 699.9081
207.8075, 690.3724
208.2896, 677.8939
208.7717, 663.6293
209.2538, 649.1818
209.7359, 635.6852
210.2181, 622.9155
210.7002, 609.3019
211.1823, 595.9186
211.6644, 580.4318
212.1465, 560.7532
212.6286, 538.7362
213.1108, 517.5143
213.5929, 499.2350
214.0750, 483.6278
214.5571, 467.3376
215.0392, 448.8636
215.5213, 431.2341
216.0035, 415.9765
216.4856, 402.3132
216.9677, 388.5767
217.4498, 373.4489
217.9319, 357.2303
218.4140, 342.7530
218.8961, 330.6577
219.3783, 319.3253
219.8604, 308.0400
220.3425, 296.9573
220.8246, 286.6651
221.3067, 277.6423
221.7888, 269.7086
222.2710, 261.2559
222.7531, 251.3256
223.2352, 241.8545
223.7173, 233.8278
224.1994, 227.1236
224.6815, 221.0563
225.1637, 215.4093
225.6458, 210.0558
226.1279, 204.4457
226.6100, 198.2693
227.0921, 192.1492
227.5742, 186.4519
228.0564, 181.1868
228.5385, 176.2019
229.0206, 171.4743
229.5027, 167.0040
229.9848, 162.8401
230.4669, 159.0934
230.9491, 155.4786
231.4312, 151.6117
231.9133, 147.4799
232.3954, 143.7968
232.8775, 141.3286
233.3596, 139.3252
233.8418, 136.8281
234.3239, 133.6207
234.8060, 130.0303
235.2881, 126.1533
235.7702, 121.9013
236.2523, 118.1924
236.7345, 115.6460
237.2166, 113.7275
237.6987, 112.0865
238.1808, 110.6794
238.6629, 109.4219
239.1451, 108.1558
239.6272, 106.8104
240.1093, 105.8255
240.5914, 105.9223
241.0735, 106.1101
241.5556, 105.5291
242.0378, 103.9527
242.5199, 102.2330
243.0020, 101.5808
243.4841, 102.3468
243.9662, 102.9009
244.4483, 102.6003
244.9305, 102.2160
245.4126, 102.4224
245.8947, 103.3208
246.3768, 104.2032
246.8589, 104.0192
247.3410, 102.3919
247.8232, 100.8558
248.3053, 98.98160
248.7874, 97.62041
249.2695, 97.62807
249.7516, 99.01039
250.2337, 100.7630
250.7159, 101.4557
251.1980, 100.4953
251.6801, 100.0888
252.1622, 100.7335
252.6443, 101.5192
253.1264, 101.8218
253.6086, 101.6281
254.0907, 101.4439
254.5728, 101.8974
255.0549, 103.1482
255.5370, 104.6065
256.0191, 106.4153
256.5013, 108.2792
256.9834, 109.8143
257.4655, 111.1254
257.9476, 112.7353
258.4297, 115.1537
258.9118, 118.3118
259.3940, 122.7383
259.8761, 128.5502
260.3582, 135.2036
260.8403, 142.5713
261.3224, 150.5383
261.8045, 159.1460
262.2867, 168.7672
262.7688, 179.9660
263.2509, 187.8154
263.7330, 193.6918
264.2151, 195.8346
264.6972, 193.0073
265.1794, 185.5691
265.6615, 174.5922
266.1436, 160.6246
266.6257, 143.4320
267.1078, 127.5877
267.5899, 112.1630
268.0721, 98.45239
268.5542, 86.99332
269.0363, 77.71336
269.5184, 70.35690
270.0005, 64.96696
270.4826, 61.41714
270.9648, 58.04813
271.4469, 54.49342
271.9290, 51.44266
272.4111, 49.29812
272.8932, 47.87147
273.3753, 46.71977
273.8575, 45.62960
274.3396, 44.58985
274.8217, 43.54110
275.3038, 42.40377
275.7859, 41.34637
276.2680, 40.47815
276.7502, 39.72772
277.2323, 38.93135
277.7144, 38.00502
278.1965, 37.00267
278.6786, 36.07588
279.1607, 35.18086
279.6429, 34.41070
280.1250, 33.84789
280.6071, 33.41653
281.0892, 32.94933
281.5713, 32.35360
282.0534, 31.78637
282.5356, 31.65953
283.0177, 32.16905
283.4998, 32.37796
283.9819, 31.85193
284.4640, 30.93647
284.9461, 30.10616
285.4283, 29.46513
285.9104, 29.04391
286.3925, 28.98763
286.8746, 29.33151
287.3567, 29.56526
287.8388, 29.62026
288.3210, 29.49598
288.8031, 29.10378
289.2852, 28.39409
289.7673, 27.70631
290.2494, 27.49417
290.7315, 27.72424
291.2137, 27.76734
291.6958, 27.45091
292.1779, 26.94407
292.6600, 26.32118
293.1421, 25.58151
293.6242, 25.05150
294.1064, 25.17066
294.5885, 25.78358
295.0706, 26.03510
295.5527, 25.51947
296.0348, 24.83492
296.5169, 24.50770
296.9991, 24.53779
297.4812, 24.61905
297.9633, 24.51446
298.4454, 24.34090
298.9275, 24.44882
299.4096, 25.19836
299.8918, 25.83987
300.3739, 25.68540
300.8560, 24.85109
301.3381, 24.16652
301.8202, 24.04483
302.3023, 24.27933
302.7845, 24.42574
303.2666, 24.50612
303.7487, 24.45143
304.2308, 24.09141
304.7129, 23.53476
305.1950, 23.19220
305.6772, 23.27369
306.1593, 23.51697
306.6414, 23.47920
307.1235, 23.11181
307.6056, 22.92132
308.0877, 23.32332
308.5699, 24.05060
309.0520, 24.49021
309.5341, 24.49819
310.0162, 24.23909
310.4983, 23.74979
310.9804, 23.07235
311.4626, 22.59910
311.9447, 22.58998
312.4268, 22.81416
312.9089, 22.90483
313.3910, 22.80079
313.8731, 22.69756
314.3553, 22.86080
314.8374, 23.17454
315.3195, 23.24797
315.8016, 22.80302
316.2837, 22.19936
316.7658, 21.81450
317.2480, 21.65857
317.7301, 21.58855
318.2122, 21.49026
318.6943, 21.43579
319.1764, 21.58609
319.6585, 22.07129
320.1407, 22.61534
320.6228, 23.05075
321.1049, 23.37633
321.5870, 23.58651
322.0691, 23.67867
322.5512, 23.63824
323.0334, 23.43346
323.5155, 22.98869
323.9976, 22.62573
324.4797, 22.59128
324.9618, 22.78461
325.4439, 22.86061
325.9261, 22.64575
326.4082, 22.43680
326.8903, 22.69455
327.3724, 23.40888
327.8545, 24.07056
328.3366, 24.55447
328.8188, 24.85608
329.3009, 24.90341
329.7830, 24.63602
330.2651, 24.34605
330.7472, 24.22288
331.2293, 24.28346
331.7115, 24.72601
332.1936, 25.75312
332.6757, 27.08479
333.1578, 28.51737
333.6399, 30.04093
334.1220, 31.44562
334.6042, 32.44238
335.0863, 33.24260
335.5684, 34.58127
336.0505, 37.30049
336.5326, 39.72612
337.0147, 40.45226
337.4969, 39.82901
337.9790, 39.48721
338.4611, 40.27458
338.9432, 41.65902
339.4253, 42.41806
339.9074, 42.30870
340.3896, 42.28332
340.8717, 42.54954
341.3538, 43.17693
341.8359, 44.41797
342.3180, 46.44973
342.8001, 48.74538
343.2822, 50.54740
343.7643, 51.81879
344.2465, 53.13647
344.7286, 54.24257
345.2107, 55.63236
345.6928, 58.01182
346.1749, 61.47875
346.6570, 65.26358
347.1392, 68.71424
347.6213, 71.81300
348.1034, 74.87174
348.5855, 77.02904
349.0676, 79.88044
349.5497, 84.20850
350.0319, 90.10818
350.5140, 97.72320
350.9961, 107.2880
351.4782, 118.6492
351.9603, 130.8926
352.4424, 144.9142
352.9246, 158.6160
353.4067, 173.3055
353.8888, 187.0307
354.3709, 196.8673
354.8530, 201.9549
355.3351, 201.2392
355.8173, 191.8697
356.2994, 170.0862
356.7815, 148.2203
357.2636, 125.4120
357.7457, 104.0131
358.2278, 86.29567
358.7100, 72.66740
359.1921, 62.10492
359.6742, 53.83898
360.1563, 48.18009
360.6384, 43.50684
361.1205, 40.00959
361.6027, 37.20309
362.0848, 34.97742
362.5669, 33.24316
363.0490, 31.81384
363.5311, 30.58184
364.0132, 29.54526
364.4954, 28.72778
364.9775, 28.20901
365.4596, 27.79984
365.9417, 27.57231
366.4238, 27.40322
366.9059, 27.12344
367.3881, 26.66307
367.8702, 26.09491
368.3523, 25.55285
368.8344, 24.88231
369.3165, 24.52182
369.7986, 24.67548
370.2808, 24.96780
370.7629, 25.07075
371.2450, 24.97292
371.7271, 24.94202
372.2092, 25.28912
372.6913, 26.09234
373.1735, 26.78614
373.6556, 27.15312
374.1377, 27.63251
374.6198, 28.54760
375.1019, 29.69424
375.5840, 30.65100
376.0662, 31.15564
376.5483, 31.24910
377.0304, 31.07989
377.5125, 30.22853
377.9946, 29.73376
378.4767, 29.87741
378.9589, 30.36709
379.4410, 30.92893
379.9231, 31.46924
380.4052, 32.04113
380.8873, 32.74410
381.3694, 33.61938
381.8516, 34.48551
382.3337, 35.18111
382.8158, 35.98681
383.2979, 37.17050
383.7800, 38.65166
384.2621, 40.05195
384.7443, 40.97501
385.2264, 41.47372
385.7085, 42.25109
386.1906, 43.32336
386.6727, 44.69218
387.1548, 46.27111
387.6370, 48.11521
388.1191, 50.27479
388.6012, 52.75159
389.0833, 55.61818
389.5654, 58.80308
390.0475, 62.10122
390.5297, 66.67192
391.0118, 74.56252
391.4939, 82.91713
391.9760, 89.87403
392.4581, 95.19286
392.9402, 98.31618
393.4224, 98.75898
393.9045, 96.59090
394.3866, 91.92339
394.8687, 83.71102
395.3508, 74.70359
395.8329, 66.30381
396.3151, 58.75179
396.7972, 53.14319
397.2793, 50.46960
397.7614, 49.71400
398.2435, 49.60398
398.7256, 50.14288
399.2078, 51.06578
399.6899, 52.18095
400.1720, 53.64015
400.6541, 55.82207
401.1362, 59.42284
401.6183, 62.45107
402.1005, 63.79979
402.5826, 63.65215
403.0647, 62.46627
403.5468, 60.32870
404.0289, 57.33169
404.5110, 53.16614
404.9932, 47.67506
405.4753, 42.95231
405.9574, 39.59023
406.4395, 37.04633
406.9216, 34.82643
407.4037, 32.88194
407.8859, 31.43341
408.3680, 30.70032
408.8501, 30.65280
409.3322, 30.76148
409.8143, 31.36857
410.2964, 31.73324
410.7786, 31.34255
411.2607, 30.57853
411.7428, 30.12927
412.2249, 30.28572
412.7070, 30.78344
413.1891, 31.10846
413.6713, 31.12960
414.1534, 31.20034
414.6355, 31.28174
415.1176, 31.43853
415.5997, 31.72105
416.0818, 32.12922
416.5640, 32.66284
417.0461, 33.38223
417.5282, 34.29673
418.0103, 34.65700
418.4924, 33.66167
418.9745, 32.97207
419.4567, 32.94843
419.9388, 33.45019
420.4209, 34.35911
420.9030, 35.62478
421.3851, 37.00361
421.8672, 37.99413
422.3494, 38.54020
422.8315, 38.83293
423.3136, 38.49280
423.7957, 38.23472
424.2778, 38.52917
424.7599, 39.36770
425.2421, 40.41095
425.7242, 41.47909
426.2063, 42.54564
426.6884, 43.23611
427.1705, 43.15148
427.6526, 43.37097
428.1348, 44.58924
428.6169, 46.30515
429.0990, 47.79299
429.5811, 48.74673
430.0632, 49.53761
430.5453, 50.60847
431.0275, 51.96230
431.5096, 53.43953
431.9917, 54.95385
432.4738, 56.63806
432.9559, 58.73837
433.4380, 61.24688
433.9202, 63.51525
434.4023, 64.68520
434.8844, 65.57127
435.3665, 67.65235
435.8486, 71.12332
436.3307, 75.24770
436.8129, 79.64494
437.2950, 84.28505
437.7771, 88.93703
438.2592, 92.96315
438.7413, 97.70825
439.2234, 103.9823
439.7056, 111.5153
440.1877, 119.5628
440.6698, 127.8068
441.1519, 136.7179
441.6340, 147.2135
442.1161, 159.4742
442.5983, 172.9675
443.0804, 187.7061
443.5625, 203.6109
444.0446, 220.7791
444.5267, 239.1348
445.0089, 258.8794
445.4910, 280.3069
445.9731, 303.2133
446.4552, 325.9024
446.9373, 349.8774
447.4194, 372.1190
447.9016, 391.0524
448.3837, 408.5788
448.8658, 426.3178
449.3479, 444.8521
449.8300, 464.4305
450.3121, 485.2897
450.7943, 507.5051
451.2764, 530.7308
451.7585, 553.3308
452.2406, 578.6019
452.7227, 608.0400
453.2048, 641.1777
453.6870, 676.4947
454.1691, 712.6604
454.6512, 750.9977
455.1333, 795.9354
455.6154, 848.3848
456.0975, 904.6279
456.5797, 962.4774
457.0618, 1024.653
457.5439, 1094.405
458.0260, 1171.754
458.5081, 1255.656
458.9902, 1344.823
459.4724, 1439.379
459.9545, 1541.542
460.4366, 1653.336
460.9187, 1768.464
461.4008, 1890.187
461.8829, 2011.866
462.3651, 2115.216
462.8472, 2204.445
463.3293, 2267.388
463.8114, 2296.749
464.2935, 2292.649
464.7756, 2253.958
465.2578, 2178.627
465.7399, 2072.606
466.2220, 1941.876
466.7041, 1779.854
467.1862, 1620.795
467.6683, 1463.153
468.1505, 1313.379
468.6326, 1176.384
469.1147, 1052.385
469.5968, 942.2623
470.0789, 846.4695
470.5610, 764.1471
471.0432, 691.0398
471.5253, 628.3891
472.0074, 573.3849
472.4895, 527.8678
472.9716, 488.7254
473.4537, 453.9842
473.9359, 422.8499
474.4180, 394.2808
474.9001, 366.8697
475.3822, 340.3581
475.8643, 318.3845
476.3464, 304.7135
476.8286, 291.9362
477.3107, 277.5158
477.7928, 262.4366
478.2749, 248.4069
478.7570, 236.1540
479.2391, 225.3553
479.7213, 215.7550
480.2034, 207.4109
480.6855, 199.4797
481.1676, 191.7913
481.6497, 184.3766
482.1318, 176.9479
482.6140, 169.6006
483.0961, 163.2741
483.5782, 159.1805
484.0603, 156.0353
484.5424, 151.6133
485.0245, 145.8103
485.5067, 140.0763
485.9888, 135.0573
486.4709, 130.7431
486.9530, 127.0201
487.4351, 123.8804
487.9172, 121.2789
488.3994, 119.5331
488.8815, 118.1629
489.3636, 116.4853
489.8457, 114.3818
490.3278, 112.3101
490.8099, 110.7600
491.2921, 109.7839
491.7742, 108.2389
492.2563, 105.5839
492.7384, 103.0894
493.2205, 101.1728
493.7026, 99.64981
494.1848, 98.31429
494.6669, 97.07802
495.1490, 95.81786
495.6311, 94.22012
496.1132, 91.96483
496.5953, 90.43294
497.0775, 90.33630
497.5596, 90.29576
498.0417, 89.66878
498.5238, 88.67598
499.0059, 87.87490
499.4880, 87.57773
499.9702, 87.59261
500.4523, 87.42477
500.9344, 86.95219
501.4165, 87.07391
501.8986, 88.21437
502.3807, 89.93364
502.8629, 91.78519
503.3450, 93.75922
503.8271, 96.05872
504.3092, 98.51864
504.7913, 101.4783
505.2734, 105.7012
505.7556, 111.2172
506.2377, 116.9071
506.7198, 122.5357
507.2019, 127.6615
507.6840, 131.1390
508.1661, 134.0122
508.6482, 133.6393
509.1303, 128.0189
509.6125, 119.4714
510.0946, 109.9525
510.5767, 100.0898
511.0588, 90.80008
511.5409, 82.88940
512.0231, 76.35494
512.5052, 70.96219
512.9873, 67.38203
513.4694, 64.14610
513.9515, 60.92965
514.4337, 57.95543
514.9158, 55.48561
515.3979, 53.59663
515.8800, 52.21854
516.3621, 51.38249
516.8442, 51.15942
517.3264, 50.74479
517.8085, 50.02799
518.2906, 49.23737
518.7727, 48.39530
519.2548, 47.57397
519.7369, 46.93832
520.2191, 46.63302
520.7012, 46.28994
521.1833, 45.35621
521.6654, 43.93194
522.1475, 42.80735
522.6296, 42.19849
523.1118, 41.87536
523.5939, 41.76650
524.0760, 41.82073
524.5581, 41.53778
525.0402, 40.27231
525.5223, 39.13779
526.0045, 39.19707
526.4866, 40.07148
526.9687, 40.60259
527.4508, 40.27441
527.9329, 39.45806
528.4150, 38.82616
528.8972, 38.42393
529.3793, 38.13190
529.8614, 38.04958
530.3435, 37.97964
530.8256, 37.88127
531.3077, 37.70095
531.7899, 37.28613
532.2720, 36.50535
532.7541, 35.61372
533.2362, 35.39318
533.7183, 36.26171
534.2004, 36.61005
534.6826, 35.62209
535.1647, 34.45865
535.6468, 33.70385
536.1289, 33.37989
536.6110, 33.34313
537.0931, 33.73029
537.5753, 34.24323
538.0574, 34.27765
538.5395, 33.81498
539.0216, 33.30146
539.5037, 32.92744
539.9858, 32.59460
540.4680, 32.08637
540.9501, 31.33334
541.4322, 30.79564
541.9143, 30.65992
542.3964, 30.76053
542.8785, 31.07985
543.3607, 31.52757
543.8428, 31.75522
544.3249, 31.52652
544.8070, 30.93398
545.2891, 30.31274
545.7712, 29.37879
546.2534, 28.82885
546.7355, 28.87671
547.2176, 29.16237
547.6997, 29.57889
548.1818, 30.00418
548.6639, 30.18955
549.1461, 29.92055
549.6282, 29.26841
550.1103, 28.46836
550.5924, 27.34909
551.0745, 26.52024
551.5566, 26.20176
552.0388, 26.23458
552.5209, 26.74486
553.0030, 27.69586
553.4851, 28.25742
553.9672, 27.56714
554.4493, 26.31345
554.9315, 25.80466
555.4136, 26.11010
555.8957, 26.45758
556.3778, 26.48501
556.8599, 26.23041
557.3420, 25.71051
557.8242, 24.61812
558.3063, 24.01532
558.7884, 24.62343
559.2705, 25.45462
559.7526, 25.52946
560.2347, 24.88067
560.7169, 24.19011
561.1990, 23.94726
561.6811, 24.06371
562.1632, 24.15415
562.6453, 24.28358
563.1274, 24.26418
563.6096, 24.04076
564.0917, 23.71053
564.5738, 23.24862
565.0559, 22.71638
565.5380, 22.33418
566.0201, 22.29669
566.5023, 22.50177
566.9844, 22.80171
567.4665, 23.28153
567.9486, 23.25656
568.4307, 22.03886
568.9128, 20.54743
569.3950, 20.02036
569.8771, 20.50356
570.3592, 21.28144
570.8413, 22.61364
571.3234, 23.79430
571.8055, 23.96041
572.2877, 23.22327
572.7698, 22.28350
573.2519, 21.48320
573.7340, 20.86042
574.2161, 20.52115
574.6982, 20.50869
575.1804, 20.73652
575.6625, 21.43061
576.1446, 22.15014
576.6267, 22.76400
577.1088, 23.17141
577.5909, 23.15266
578.0731, 22.50003
578.5552, 21.58780
579.0373, 21.33761
579.5194, 21.91538
580.0015, 22.20792
580.4836, 21.65401
580.9658, 21.11698
581.4479, 21.42316
581.9300, 22.35833
582.4121, 22.97210
582.8942, 22.75591
583.3763, 22.20663
583.8585, 21.62084
584.3406, 21.08094
584.8227, 20.96582
585.3048, 21.45880
585.7869, 22.15992
586.2690, 22.52543
586.7512, 22.47997
587.2333, 22.43508
587.7154, 22.44335
588.1975, 22.39650
588.6796, 22.22960
589.1617, 21.98243
589.6438, 21.67779
590.1259, 21.33478
590.6080, 21.06366
591.0901, 21.05496
591.5723, 21.33896
592.0544, 21.59727
592.5365, 21.86175
593.0186, 22.04150
593.5007, 22.17752
593.9828, 22.18490
594.4650, 21.86235
594.9471, 21.05967
595.4292, 20.32708
595.9113, 20.02882
596.3934, 20.12213
596.8755, 20.70314
597.3577, 21.81330
597.8398, 22.63778
598.3219, 22.46703
598.8040, 21.46514
599.2861, 20.75154
599.7682, 20.42781
600.2504, 20.20866
600.7325, 20.01892
601.2146, 19.93369
601.6967, 20.17731
602.1788, 20.65442
602.6609, 20.87389
603.1431, 20.36801
603.6252, 19.36354
604.1073, 18.89720
604.5894, 19.17047
605.0715, 19.45451
605.5536, 19.61013
606.0358, 19.68206
606.5179, 19.71072
607.0000, 19.69003
