##NAMES=Quartz
##RRUFFID=R150091
##IDEAL CHEMISTRY=SiO_2_
##LOCALITY=unknown
##OWNER=RRUFF
##SOURCE=Michael Scott
##DESCRIPTION=Polished and fragments
##STATUS=The identification of this mineral has been determined only by Raman spectroscopy
##URL=rruff.info/R150091
89.78320, 402.9979
90.26532, 403.9182
90.74744, 404.3891
91.22955, 404.1232
91.71167, 404.3792
92.19379, 406.4484
92.67590, 410.3305
93.15802, 414.4285
93.64014, 418.5121
94.12225, 422.0866
94.60437, 423.2010
95.08649, 420.4440
95.56860, 415.4487
96.05072, 412.7191
96.53284, 412.8284
97.01495, 413.0714
97.49707, 409.6978
97.97919, 402.8111
98.46130, 397.9914
98.94342, 397.7125
99.42554, 401.4853
99.90765, 402.9818
100.3898, 401.7298
100.8719, 399.3777
101.3540, 398.3998
101.8361, 399.1643
102.3182, 399.7867
102.8004, 399.4006
103.2825, 397.5780
103.7646, 396.6778
104.2467, 396.6465
104.7288, 397.5123
105.2109, 399.4452
105.6931, 402.9105
106.1752, 406.7571
106.6573, 410.4225
107.1394, 412.6130
107.6215, 416.7670
108.1036, 423.9156
108.5858, 433.3971
109.0679, 441.6212
109.5500, 447.3211
110.0321, 452.7814
110.5142, 459.1728
110.9963, 466.3209
111.4785, 474.5592
111.9606, 484.3390
112.4427, 495.5927
112.9248, 506.4780
113.4069, 517.0077
113.8890, 526.9483
114.3712, 536.2367
114.8533, 543.5273
115.3354, 551.3188
115.8175, 560.3498
116.2996, 570.8105
116.7817, 582.0758
117.2639, 594.3635
117.7460, 607.3152
118.2281, 620.4743
118.7102, 632.5217
119.1923, 645.5474
119.6744, 660.5037
120.1566, 677.4144
120.6387, 696.6883
121.1208, 717.0500
121.6029, 739.7678
122.0850, 767.2992
122.5671, 799.5074
123.0493, 837.7328
123.5314, 882.5604
124.0135, 932.8332
124.4956, 993.0919
124.9777, 1066.903
125.4598, 1153.919
125.9420, 1251.953
126.4241, 1359.451
126.9062, 1476.995
127.3883, 1608.308
127.8704, 1761.639
128.3525, 1919.094
128.8347, 2072.654
129.3168, 2220.180
129.7989, 2315.559
130.2810, 2317.958
130.7631, 2236.531
131.2452, 2104.247
131.7274, 1910.275
132.2095, 1679.937
132.6916, 1476.290
133.1737, 1298.011
133.6558, 1147.606
134.1379, 1025.840
134.6201, 932.5425
135.1022, 856.9880
135.5843, 799.4725
136.0664, 758.3269
136.5485, 723.9131
137.0306, 696.4102
137.5128, 674.9570
137.9949, 658.5627
138.4770, 647.8505
138.9591, 638.9156
139.4412, 630.2867
139.9233, 621.9047
140.4055, 615.8312
140.8876, 612.8563
141.3697, 611.3485
141.8518, 608.4012
142.3339, 603.0978
142.8160, 598.4415
143.2982, 595.8754
143.7803, 596.6161
144.2624, 595.4329
144.7445, 591.0403
145.2266, 585.1302
145.7087, 581.8221
146.1909, 582.3867
146.6730, 583.8662
147.1551, 585.2730
147.6372, 587.6297
148.1193, 588.1337
148.6014, 585.6182
149.0836, 581.1021
149.5657, 578.0010
150.0478, 577.3649
150.5299, 577.3635
151.0120, 577.2040
151.4941, 577.5857
151.9763, 576.9860
152.4584, 574.8397
152.9405, 571.4662
153.4226, 568.4681
153.9047, 565.9899
154.3868, 563.8934
154.8690, 562.1028
155.3511, 560.5180
155.8332, 559.3313
156.3153, 558.7584
156.7974, 558.7257
157.2795, 558.6361
157.7617, 558.5076
158.2438, 558.2084
158.7259, 557.6450
159.2080, 555.9622
159.6901, 554.8229
160.1722, 554.8959
160.6544, 556.1444
161.1365, 557.5985
161.6186, 558.5919
162.1007, 559.7574
162.5828, 561.7052
163.0649, 565.8658
163.5471, 569.7990
164.0292, 571.8707
164.5113, 572.0214
164.9934, 572.8744
165.4755, 576.9373
165.9576, 582.1488
166.4398, 585.9114
166.9219, 584.7941
167.4040, 583.6520
167.8861, 586.2043
168.3682, 592.8107
168.8503, 599.7040
169.3325, 604.8044
169.8146, 608.5789
170.2967, 611.7174
170.7788, 613.7936
171.2609, 615.8391
171.7430, 618.7286
172.2252, 622.5518
172.7073, 627.0367
173.1894, 632.5175
173.6715, 638.5822
174.1536, 644.1139
174.6357, 648.0763
175.1179, 651.5283
175.6000, 655.6517
176.0821, 660.4773
176.5642, 666.1038
177.0463, 672.8657
177.5284, 680.5878
178.0106, 688.6083
178.4927, 696.8024
178.9748, 705.0573
179.4569, 712.6956
179.9390, 719.4487
180.4211, 726.6674
180.9033, 736.5011
181.3854, 748.5646
181.8675, 760.7061
182.3496, 771.5341
182.8317, 781.5441
183.3138, 792.4865
183.7960, 804.4731
184.2781, 817.3149
184.7602, 830.4823
185.2423, 844.1133
185.7244, 858.3097
186.2065, 873.1740
186.6887, 888.7371
187.1708, 905.3087
187.6529, 922.7941
188.1350, 941.4584
188.6171, 961.7535
189.0992, 983.8104
189.5814, 1006.059
190.0635, 1026.646
190.5456, 1046.362
191.0277, 1068.608
191.5098, 1094.106
191.9919, 1122.001
192.4741, 1150.167
192.9562, 1178.470
193.4383, 1207.428
193.9204, 1237.093
194.4025, 1267.459
194.8846, 1298.071
195.3668, 1328.163
195.8489, 1359.254
196.3310, 1396.580
196.8131, 1441.071
197.2952, 1484.503
197.7773, 1520.173
198.2595, 1547.607
198.7416, 1578.985
199.2237, 1616.323
199.7058, 1657.612
200.1879, 1696.985
200.6700, 1734.650
201.1522, 1771.187
201.6343, 1807.335
202.1164, 1843.247
202.5985, 1877.535
203.0806, 1909.947
203.5627, 1940.365
204.0449, 1968.004
204.5270, 1992.892
205.0091, 2014.862
205.4912, 2034.415
205.9733, 2052.097
206.4554, 2063.844
206.9376, 2068.649
207.4197, 2067.310
207.9018, 2063.010
208.3839, 2055.981
208.8660, 2045.363
209.3481, 2030.577
209.8303, 2011.333
210.3124, 1988.884
210.7945, 1962.598
211.2766, 1933.445
211.7587, 1904.547
212.2408, 1876.554
212.7230, 1847.301
213.2051, 1814.708
213.6872, 1777.804
214.1693, 1740.672
214.6514, 1704.163
215.1335, 1667.714
215.6157, 1630.382
216.0978, 1591.176
216.5799, 1552.242
217.0620, 1514.779
217.5441, 1479.316
218.0262, 1443.296
218.5084, 1405.559
218.9905, 1366.554
219.4726, 1330.873
219.9547, 1299.322
220.4368, 1268.782
220.9189, 1237.124
221.4011, 1202.132
221.8832, 1171.357
222.3653, 1145.995
222.8474, 1125.315
223.3295, 1104.876
223.8116, 1085.041
224.2938, 1065.601
224.7759, 1046.477
225.2580, 1027.833
225.7401, 1009.376
226.2222, 990.4995
226.7043, 971.7666
227.1865, 954.7708
227.6686, 940.2873
228.1507, 926.8670
228.6328, 913.9531
229.1149, 901.7808
229.5970, 889.6254
230.0792, 877.4982
230.5613, 865.3717
231.0434, 853.4723
231.5255, 841.7098
232.0076, 830.5490
232.4897, 820.4113
232.9719, 811.5689
233.4540, 803.2126
233.9361, 795.2748
234.4182, 787.7736
234.9003, 780.7139
235.3824, 774.4960
235.8646, 768.1439
236.3467, 761.0009
236.8288, 752.1027
237.3109, 744.5953
237.7930, 739.0983
238.2751, 734.9176
238.7573, 730.0027
239.2394, 723.3566
239.7215, 717.3766
240.2036, 713.3405
240.6857, 712.7687
241.1678, 710.5606
241.6500, 705.7860
242.1321, 699.6375
242.6142, 695.1248
243.0963, 692.9893
243.5784, 691.4479
244.0605, 689.8667
244.5427, 688.3868
245.0248, 686.4608
245.5069, 683.8466
245.9890, 680.8840
246.4711, 678.3144
246.9532, 676.0485
247.4354, 674.3068
247.9175, 673.3059
248.3996, 673.3715
248.8817, 673.1469
249.3638, 672.6431
249.8459, 671.8607
250.3281, 670.8160
250.8102, 669.6064
251.2923, 667.9542
251.7744, 665.3776
252.2565, 661.1991
252.7386, 659.2327
253.2208, 660.5130
253.7029, 663.2455
254.1850, 664.5651
254.6671, 663.7368
255.1492, 662.9028
255.6313, 662.6642
256.1135, 663.0470
256.5956, 663.7238
257.0777, 664.5025
257.5598, 665.7244
258.0419, 667.9564
258.5240, 671.5468
259.0062, 675.2640
259.4883, 678.7021
259.9704, 681.7374
260.4525, 685.2772
260.9346, 688.8597
261.4167, 693.4602
261.8989, 700.4016
262.3810, 710.2572
262.8631, 720.8507
263.3452, 731.9115
263.8273, 743.5793
264.3094, 754.6218
264.7916, 766.4221
265.2737, 775.7510
265.7558, 780.1301
266.2379, 780.0695
266.7200, 772.9067
267.2021, 756.2722
267.6843, 731.2688
268.1664, 707.7700
268.6485, 685.3922
269.1306, 665.3677
269.6127, 649.1454
270.0948, 637.1263
270.5770, 627.2697
271.0591, 619.4438
271.5412, 613.5947
272.0233, 609.7511
272.5054, 608.6049
272.9875, 607.7203
273.4697, 605.1451
273.9518, 600.5000
274.4339, 596.4440
274.9160, 593.2132
275.3981, 590.8260
275.8802, 589.5911
276.3624, 589.8541
276.8445, 590.0029
277.3266, 588.7543
277.8087, 585.9697
278.2908, 584.0046
278.7729, 583.2867
279.2551, 583.2200
279.7372, 582.3699
280.2193, 580.6011
280.7014, 578.9304
281.1835, 578.0346
281.6656, 577.8985
282.1478, 577.3889
282.6299, 576.3836
283.1120, 575.1464
283.5941, 573.9164
284.0762, 572.6619
284.5583, 572.0239
285.0405, 572.7323
285.5226, 574.5679
286.0047, 575.3732
286.4868, 574.9625
286.9689, 574.0969
287.4510, 573.8809
287.9332, 574.2712
288.4153, 574.4075
288.8974, 573.7318
289.3795, 572.5176
289.8616, 571.9430
290.3438, 572.0920
290.8259, 572.2862
291.3080, 571.5205
291.7901, 570.0073
292.2722, 569.0116
292.7543, 569.2013
293.2365, 570.0660
293.7186, 570.3553
294.2007, 570.0580
294.6828, 569.7344
295.1649, 570.0211
295.6470, 570.7145
296.1292, 571.1447
296.6113, 571.0878
297.0934, 570.7343
297.5755, 570.3529
298.0576, 569.9412
298.5397, 569.4836
299.0219, 568.5709
299.5040, 567.6300
299.9861, 567.6868
300.4682, 569.1908
300.9503, 571.2422
301.4324, 573.4717
301.9146, 575.5687
302.3967, 576.3054
302.8788, 573.2190
303.3609, 568.8107
303.8430, 566.9156
304.3251, 568.4010
304.8073, 571.0859
305.2894, 573.5480
305.7715, 575.6874
306.2536, 577.3342
306.7357, 578.1172
307.2178, 578.4754
307.7000, 578.8336
308.1821, 579.2271
308.6642, 579.5067
309.1463, 579.5636
309.6284, 579.4260
310.1105, 579.1403
310.5927, 578.5624
311.0748, 577.9599
311.5569, 577.2656
312.0390, 576.5038
312.5211, 576.4998
313.0032, 578.8025
313.4854, 581.7092
313.9675, 583.3793
314.4496, 581.8311
314.9317, 580.1603
315.4138, 579.8352
315.8959, 580.7163
316.3781, 581.8819
316.8602, 584.0483
317.3423, 585.7072
317.8244, 585.5483
318.3065, 581.0792
318.7886, 577.9202
319.2708, 579.0790
319.7529, 583.1317
320.2350, 586.0837
320.7171, 586.0308
321.1992, 585.0883
321.6813, 584.0961
322.1635, 582.6860
322.6456, 582.3033
323.1277, 584.0762
323.6098, 586.9081
324.0919, 588.9761
324.5740, 589.4725
325.0562, 589.6100
325.5383, 589.7473
326.0204, 589.9574
326.5025, 589.9469
326.9846, 589.6246
327.4667, 589.1120
327.9489, 588.5280
328.4310, 587.1127
328.9131, 586.5071
329.3952, 587.3747
329.8773, 589.7763
330.3594, 591.2532
330.8416, 590.8693
331.3237, 590.3436
331.8058, 590.9906
332.2879, 594.1102
332.7700, 596.1330
333.2521, 596.2301
333.7343, 594.9244
334.2164, 594.8068
334.6985, 596.3284
335.1806, 598.3187
335.6627, 600.3417
336.1448, 602.7217
336.6270, 603.8712
337.1091, 602.9859
337.5912, 601.4141
338.0733, 602.1117
338.5554, 605.6406
339.0375, 609.6195
339.5197, 613.4046
340.0018, 617.0201
340.4839, 619.1829
340.9660, 619.3745
341.4481, 619.1581
341.9302, 620.8640
342.4124, 624.6935
342.8945, 627.8124
343.3766, 629.1559
343.8587, 629.1280
344.3408, 629.3125
344.8229, 629.5877
345.3051, 630.9319
345.7872, 635.1832
346.2693, 641.7536
346.7514, 646.6527
347.2335, 648.4241
347.7156, 648.8804
348.1978, 651.3943
348.6799, 655.8783
349.1620, 661.1804
349.6441, 665.6769
350.1262, 670.4769
350.6083, 678.5099
351.0905, 690.6252
351.5726, 704.4772
352.0547, 716.7717
352.5368, 728.4553
353.0189, 742.3975
353.5010, 760.8112
353.9832, 781.9122
354.4653, 803.6513
354.9474, 826.1266
355.4295, 849.2682
355.9116, 880.2689
356.3937, 910.5833
356.8759, 927.0989
357.3580, 924.4072
357.8401, 907.1720
358.3222, 872.4860
358.8043, 822.8517
359.2864, 775.0879
359.7686, 734.8370
360.2507, 701.8136
360.7328, 676.4597
361.2149, 660.2610
361.6970, 648.8577
362.1791, 642.4680
362.6613, 639.6577
363.1434, 637.1320
363.6255, 634.0425
364.1076, 630.8354
364.5897, 627.3305
365.0718, 622.9559
365.5540, 620.4789
366.0361, 622.1326
366.5182, 625.3607
367.0003, 627.0990
367.4824, 625.7438
367.9645, 624.1790
368.4467, 622.6889
368.9288, 621.2787
369.4109, 620.9362
369.8930, 622.6087
370.3751, 624.6395
370.8572, 625.9127
371.3394, 625.9088
371.8215, 625.9978
372.3036, 626.1428
372.7857, 626.4527
373.2678, 627.3710
373.7499, 629.1868
374.2321, 631.0978
374.7142, 632.7096
375.1963, 633.9555
375.6784, 635.1970
376.1605, 636.4122
376.6426, 637.6288
377.1248, 638.4730
377.6069, 638.6276
378.0890, 640.3721
378.5711, 644.9520
379.0532, 651.9375
379.5353, 657.8190
380.0175, 662.5122
380.4996, 666.8051
380.9817, 672.1349
381.4638, 678.1429
381.9459, 681.7708
382.4280, 681.8241
382.9102, 679.8787
383.3923, 678.5535
383.8744, 677.8305
384.3565, 677.6890
384.8386, 678.3112
385.3207, 679.4669
385.8029, 680.4127
386.2850, 680.8892
386.7671, 682.2054
387.2492, 685.6197
387.7313, 690.9103
388.2134, 697.5286
388.6956, 705.7247
389.1777, 714.7086
389.6598, 723.3974
390.1419, 731.8667
390.6240, 741.9229
391.1061, 754.6722
391.5883, 769.7006
392.0704, 786.3632
392.5525, 802.1234
393.0346, 822.7224
393.5167, 854.4354
393.9988, 893.7073
394.4810, 930.8572
394.9631, 975.4413
395.4452, 1007.063
395.9273, 1012.883
396.4094, 984.3029
396.8915, 952.7797
397.3737, 918.0966
397.8558, 885.4664
398.3379, 861.3138
398.8200, 855.3466
399.3021, 848.2990
399.7842, 836.8795
400.2664, 821.0918
400.7485, 802.6621
401.2306, 778.3016
401.7127, 754.7141
402.1948, 736.2311
402.6769, 724.2504
403.1591, 714.4637
403.6412, 707.0644
404.1233, 701.5499
404.6054, 696.6310
405.0875, 692.5334
405.5696, 688.5008
406.0518, 683.9348
406.5339, 678.7838
407.0160, 675.2697
407.4981, 673.5993
407.9802, 673.1046
408.4623, 673.1818
408.9445, 673.8373
409.4266, 674.9170
409.9087, 676.6000
410.3908, 678.5166
410.8729, 679.5950
411.3550, 679.8746
411.8372, 680.2599
412.3193, 681.9600
412.8014, 684.2107
413.2835, 684.8203
413.7656, 683.0509
414.2477, 681.4391
414.7299, 683.7844
415.2120, 688.4886
415.6941, 691.6603
416.1762, 689.6661
416.6583, 686.5103
417.1404, 685.7485
417.6226, 687.3939
418.1047, 689.8058
418.5868, 693.1968
419.0689, 696.3407
419.5510, 697.9877
420.0331, 696.0347
420.5153, 694.8926
420.9974, 697.2363
421.4795, 701.7436
421.9616, 704.9694
422.4437, 705.1056
422.9258, 704.6313
423.4080, 704.5052
423.8901, 704.8351
424.3722, 705.4305
424.8543, 705.9402
425.3364, 706.8995
425.8185, 708.9276
426.3007, 713.8309
426.7828, 717.1572
427.2649, 717.5590
427.7470, 715.6230
428.2291, 715.3438
428.7112, 717.5071
429.1934, 719.9487
429.6755, 721.1823
430.1576, 720.6049
430.6397, 722.0292
431.1218, 726.0414
431.6039, 731.2651
432.0861, 735.7513
432.5682, 739.4731
433.0503, 742.6826
433.5324, 745.2095
434.0145, 747.3731
434.4966, 750.4066
434.9788, 754.3403
435.4609, 758.4216
435.9430, 761.3752
436.4251, 764.0054
436.9072, 768.7278
437.3893, 776.4869
437.8715, 785.2198
438.3536, 792.6099
438.8357, 799.0606
439.3178, 805.6937
439.7999, 812.6899
440.2820, 820.3994
440.7642, 828.8888
441.2463, 838.2263
441.7284, 848.8030
442.2105, 861.3263
442.6926, 875.0379
443.1747, 889.1662
443.6569, 902.1632
444.1390, 917.2074
444.6211, 934.9716
445.1032, 955.5016
445.5853, 978.3737
446.0674, 1002.395
446.5496, 1029.903
447.0317, 1061.685
447.5138, 1098.027
447.9959, 1138.530
448.4780, 1183.263
448.9601, 1232.366
449.4423, 1286.997
449.9244, 1347.919
450.4065, 1412.010
450.8886, 1480.842
451.3707, 1552.105
451.8528, 1618.573
452.3350, 1680.243
452.8171, 1738.127
453.2992, 1790.841
453.7813, 1838.430
454.2634, 1894.722
454.7455, 1959.984
455.2277, 2035.483
455.7098, 2123.119
456.1919, 2222.488
456.6740, 2336.975
457.1561, 2463.374
457.6382, 2606.552
458.1204, 2770.378
458.6025, 2956.209
459.0846, 3162.485
459.5667, 3389.875
460.0488, 3639.038
460.5309, 3911.749
461.0131, 4206.983
461.4952, 4527.216
461.9773, 4875.694
462.4594, 5245.550
462.9415, 5631.970
463.4236, 6056.179
463.9058, 6469.212
464.3879, 6882.955
464.8700, 7282.078
465.3521, 7587.142
465.8342, 7813.763
466.3163, 7918.089
466.7985, 7873.671
467.2806, 7645.245
467.7627, 7325.104
468.2448, 6873.833
468.7269, 6353.258
469.2090, 5840.201
469.6912, 5313.723
470.1733, 4822.737
470.6554, 4375.157
471.1375, 3971.337
471.6196, 3616.626
472.1017, 3313.631
472.5839, 3051.522
473.0660, 2820.086
473.5481, 2620.508
474.0302, 2446.145
474.5123, 2298.527
474.9944, 2170.534
475.4766, 2052.941
475.9587, 1945.961
476.4408, 1850.665
476.9229, 1770.550
477.4050, 1701.555
477.8871, 1638.623
478.3693, 1581.668
478.8514, 1529.886
479.3335, 1483.185
479.8156, 1440.954
480.2977, 1403.227
480.7798, 1370.615
481.2620, 1340.656
481.7441, 1311.703
482.2262, 1284.595
482.7083, 1260.578
483.1904, 1242.444
483.6725, 1225.048
484.1547, 1206.706
484.6368, 1187.505
485.1189, 1168.472
485.6010, 1148.747
486.0831, 1129.964
486.5652, 1113.065
487.0474, 1098.302
487.5295, 1084.706
488.0116, 1072.874
488.4937, 1061.922
488.9758, 1050.155
489.4579, 1036.587
489.9401, 1025.340
490.4222, 1018.213
490.9043, 1014.036
491.3864, 1006.499
491.8685, 995.0599
492.3506, 983.7761
492.8328, 975.5724
493.3149, 969.9471
493.7970, 964.6971
494.2791, 959.7859
494.7612, 954.5259
495.2433, 947.6890
495.7255, 939.8141
496.2076, 932.1810
496.6897, 925.1569
497.1718, 918.6830
497.6539, 912.4869
498.1360, 906.8024
498.6182, 902.4042
499.1003, 901.4266
499.5824, 900.7396
500.0645, 897.9565
500.5466, 892.2347
501.0287, 886.8405
501.5109, 882.3444
501.9930, 878.7731
502.4751, 876.2158
502.9572, 876.7438
503.4393, 875.7869
503.9214, 872.1772
504.4036, 866.7054
504.8857, 861.9525
505.3678, 857.7899
505.8499, 854.5112
506.3320, 852.4926
506.8141, 851.8636
507.2963, 850.5784
507.7784, 848.4855
508.2605, 846.1007
508.7426, 843.4364
509.2247, 840.6036
509.7068, 839.6357
510.1890, 841.5811
510.6711, 844.2803
511.1532, 843.8400
511.6353, 840.7637
512.1174, 837.5285
512.5995, 835.6320
513.0817, 834.1387
513.5638, 831.6475
514.0459, 828.1998
514.5280, 825.2617
515.0101, 824.3177
515.4922, 824.0326
515.9744, 823.0460
516.4565, 820.2874
516.9386, 818.3718
517.4207, 818.7658
517.9028, 820.4325
518.3849, 821.6673
518.8671, 822.8415
519.3492, 822.8252
519.8313, 820.5961
520.3134, 816.4299
520.7955, 814.3447
521.2776, 815.3495
521.7598, 816.9316
522.2419, 817.9017
522.7240, 818.3855
523.2061, 817.4164
523.6882, 814.6053
524.1703, 811.1089
524.6525, 808.2122
525.1346, 805.9116
525.6167, 804.3928
526.0988, 803.8547
526.5809, 803.9904
527.0630, 804.9491
527.5452, 806.4090
528.0273, 806.5480
528.5094, 802.5978
528.9915, 797.6375
529.4736, 795.2781
529.9557, 795.8374
530.4379, 797.0975
530.9200, 798.1365
531.4021, 799.0143
531.8842, 799.8176
532.3663, 800.8859
532.8484, 801.3972
533.3306, 800.5790
533.8127, 799.0887
534.2948, 798.3524
534.7769, 799.4007
535.2590, 800.1411
535.7411, 800.0413
536.2233, 799.1348
536.7054, 798.1442
537.1875, 796.6784
537.6696, 795.9333
538.1517, 797.4657
538.6339, 801.6459
539.1160, 802.6219
539.5981, 799.3855
540.0802, 794.8831
540.5623, 792.7429
541.0444, 792.7247
541.5266, 793.4844
542.0087, 795.0668
542.4908, 796.6651
542.9729, 796.8726
543.4550, 795.9788
543.9371, 795.1667
544.4193, 795.1364
544.9014, 795.4339
545.3835, 795.6725
545.8656, 795.8063
546.3477, 796.0739
546.8298, 797.2183
547.3120, 798.1728
547.7941, 798.0046
548.2762, 794.1953
548.7583, 792.5459
549.2404, 795.8475
549.7225, 800.8468
550.2047, 801.6899
550.6868, 795.6667
551.1689, 790.7799
551.6510, 789.5708
552.1331, 791.2870
552.6152, 790.5626
553.0974, 786.7947
553.5795, 783.6278
554.0616, 784.3951
554.5437, 788.2099
555.0258, 789.6456
555.5079, 788.2208
555.9901, 785.9102
556.4722, 784.0725
556.9543, 782.9427
557.4364, 783.2265
557.9185, 786.2095
558.4006, 788.8934
558.8828, 788.0690
559.3649, 785.1146
559.8470, 783.2172
560.3291, 784.7477
560.8112, 786.5914
561.2933, 787.4391
561.7755, 787.2059
562.2576, 786.6012
562.7397, 784.5103
563.2218, 783.0583
563.7039, 783.5394
564.1860, 787.4139
564.6682, 789.4044
565.1503, 789.1802
565.6324, 787.5347
566.1145, 784.8563
566.5966, 780.8160
567.0787, 778.9247
567.5609, 780.3636
568.0430, 783.8606
568.5251, 787.5372
569.0072, 791.2031
569.4893, 793.0218
569.9714, 790.0573
570.4536, 785.5619
570.9357, 784.6644
571.4178, 787.2393
571.8999, 789.7819
572.3820, 789.2880
572.8641, 788.1440
573.3463, 788.7105
573.8284, 792.3572
574.3105, 795.1035
574.7926, 795.3607
575.2747, 794.1960
575.7568, 792.9323
576.2390, 791.0657
576.7211, 789.8940
577.2032, 789.6801
577.6853, 790.2520
578.1674, 791.0915
578.6495, 792.2972
579.1317, 793.5016
579.6138, 794.6625
580.0959, 795.7316
580.5780, 796.1595
581.0601, 795.9025
581.5422, 795.5776
582.0244, 795.4335
582.5065, 795.6473
582.9886, 796.9117
583.4707, 799.5599
583.9528, 802.0255
584.4349, 802.9352
584.9171, 802.7543
585.3992, 802.1618
585.8813, 800.8297
586.3634, 799.7352
586.8455, 799.4362
587.3276, 799.6872
587.8098, 799.8463
588.2919, 799.5232
588.7740, 799.3502
589.2561, 799.4422
589.7382, 799.7928
