##NAMES=Quartz
##RRUFFID=R050125
##IDEAL CHEMISTRY=SiO_2_
##LOCALITY=Linopolis, Minas Gerais, Brazil
##OWNER=RRUFF
##SOURCE=Carlos and Paulo Vasconcelos
##DESCRIPTION=Pale pink group of single crystals, variety rose quartz
##STATUS=The identification of this mineral has been confirmed by X-ray diffraction and chemical analysis
##URL=rruff.info/R050125
##MEASURED CHEMISTRY=Si_1.00_O_2_
91.40820, 4.610394
91.89032, 4.296455
92.37244, 4.462873
92.85455, 5.031534
93.33667, 5.535451
93.81879, 5.608125
94.30090, 5.346088
94.78302, 5.020422
95.26514, 4.630818
95.74725, 4.263083
96.22937, 4.134580
96.71149, 4.258130
97.19360, 4.487513
97.67572, 4.736359
98.15784, 4.998945
98.63995, 5.173188
99.12207, 5.204664
99.60419, 5.110967
100.0863, 5.031227
100.5684, 4.941339
101.0505, 4.914184
101.5327, 5.087180
102.0148, 5.538564
102.4969, 5.921532
102.9790, 6.098055
103.4611, 6.014001
103.9432, 6.000521
104.4253, 6.015549
104.9075, 6.124954
105.3896, 6.450412
105.8717, 6.985844
106.3538, 7.750948
106.8359, 8.776007
107.3180, 10.13698
107.8002, 11.61014
108.2823, 13.20610
108.7644, 14.91273
109.2465, 16.75412
109.7286, 18.68610
110.2107, 20.76019
110.6929, 23.03483
111.1750, 25.37232
111.6571, 28.03559
112.1392, 31.28675
112.6213, 35.01716
113.1034, 38.48733
113.5856, 41.34436
114.0677, 44.07271
114.5498, 46.99322
115.0319, 50.29279
115.5140, 53.70702
115.9961, 57.15907
116.4783, 60.64615
116.9604, 64.13368
117.4425, 67.48249
117.9246, 70.90865
118.4067, 74.61891
118.8888, 79.10360
119.3710, 83.62185
119.8531, 87.42440
120.3352, 90.30672
120.8173, 93.94960
121.2994, 99.09803
121.7815, 105.7086
122.2637, 113.7425
122.7458, 122.8651
123.2279, 133.4694
123.7100, 145.6067
124.1921, 159.0275
124.6742, 175.0510
125.1564, 195.5769
125.6385, 219.9050
126.1206, 245.9320
126.6027, 275.5641
127.0848, 305.3680
127.5669, 330.1292
128.0491, 350.5239
128.5312, 362.6343
129.0133, 359.4151
129.4954, 341.6353
129.9775, 316.1467
130.4596, 283.3206
130.9418, 245.7699
131.4239, 212.4307
131.9060, 185.0826
132.3881, 162.7180
132.8702, 143.7023
133.3523, 127.9611
133.8345, 115.1363
134.3166, 105.4141
134.7987, 98.72136
135.2808, 93.39445
135.7629, 89.02761
136.2450, 85.64599
136.7272, 83.70124
137.2093, 83.46651
137.6914, 83.78287
138.1735, 83.30026
138.6556, 81.75644
139.1377, 80.82784
139.6199, 81.11709
140.1020, 82.61395
140.5841, 83.65032
141.0662, 83.99151
141.5483, 84.17131
142.0304, 84.92411
142.5126, 86.53236
142.9947, 88.01574
143.4768, 88.78136
143.9589, 88.54308
144.4410, 88.40121
144.9231, 88.40400
145.4053, 88.46879
145.8874, 88.49162
146.3695, 88.62880
146.8516, 88.51833
147.3337, 88.04888
147.8158, 87.13602
148.2980, 86.08836
148.7801, 84.83131
149.2622, 83.45212
149.7443, 82.15942
150.2264, 81.11999
150.7085, 79.99416
151.1907, 78.64394
151.6728, 76.57788
152.1549, 75.05331
152.6370, 74.49525
153.1191, 74.50188
153.6012, 74.09962
154.0834, 72.58610
154.5655, 71.13116
155.0476, 70.23755
155.5297, 70.60670
156.0118, 70.67648
156.4939, 69.84486
156.9761, 68.45600
157.4582, 67.69193
157.9403, 68.20757
158.4224, 69.15646
158.9045, 70.05138
159.3866, 70.70422
159.8688, 71.38590
160.3509, 72.04926
160.8330, 72.75056
161.3151, 73.75914
161.7972, 75.55374
162.2793, 77.49349
162.7615, 79.08715
163.2436, 79.84052
163.7257, 80.56609
164.2078, 81.55501
164.6899, 82.79918
165.1720, 84.25515
165.6541, 85.93639
166.1363, 87.80164
166.6184, 89.81017
167.1005, 92.20061
167.5826, 94.52924
168.0647, 96.45161
168.5468, 98.00111
169.0290, 99.62241
169.5111, 101.6207
169.9932, 103.8470
170.4753, 106.1148
170.9574, 108.1569
171.4395, 110.3060
171.9217, 112.9746
172.4038, 116.1613
172.8859, 119.3391
173.3680, 121.8934
173.8501, 124.1691
174.3322, 126.8223
174.8144, 130.2172
175.2965, 134.1173
175.7786, 138.1361
176.2607, 142.2950
176.7428, 146.7041
177.2249, 151.5494
177.7071, 156.7071
178.1892, 161.9963
178.6713, 167.3478
179.1534, 172.7741
179.6355, 178.2609
180.1176, 183.8372
180.5998, 189.6140
181.0819, 195.7548
181.5640, 202.2162
182.0461, 209.0942
182.5282, 216.4143
183.0103, 224.1238
183.4925, 232.1278
183.9746, 240.4158
184.4567, 248.8173
184.9388, 256.7289
185.4209, 264.4070
185.9030, 272.9296
186.3852, 283.2312
186.8673, 294.8549
187.3494, 306.7242
187.8315, 318.8647
188.3136, 330.8622
188.7957, 342.2537
189.2779, 353.0194
189.7600, 364.2896
190.2421, 376.6325
190.7242, 389.8686
191.2063, 403.4158
191.6884, 417.2532
192.1706, 431.2058
192.6527, 445.5470
193.1348, 460.2170
193.6169, 474.8058
194.0990, 489.0264
194.5811, 502.8839
195.0633, 517.6241
195.5454, 533.4612
196.0275, 549.8642
196.5096, 565.2167
196.9917, 579.5062
197.4738, 593.6968
197.9560, 608.3450
198.4381, 623.3938
198.9202, 638.4413
199.4023, 653.6918
199.8844, 668.5439
200.3665, 681.4836
200.8487, 692.4503
201.3308, 702.4268
201.8129, 712.0859
202.2950, 721.5332
202.7771, 729.3973
203.2592, 735.6568
203.7414, 740.3941
204.2235, 744.1123
204.7056, 747.0886
205.1877, 747.8488
205.6698, 745.2690
206.1519, 738.9302
206.6341, 731.9113
207.1162, 724.4336
207.5983, 716.2927
208.0804, 707.0714
208.5625, 696.8355
209.0446, 685.6050
209.5268, 673.4254
210.0089, 660.3250
210.4910, 646.0976
210.9731, 630.5106
211.4552, 613.8948
211.9373, 597.3144
212.4195, 581.0510
212.9016, 564.3198
213.3837, 546.6931
213.8658, 527.8561
214.3479, 508.9962
214.8300, 489.8092
215.3121, 470.6603
215.7943, 452.3716
216.2764, 435.1232
216.7585, 418.6534
217.2406, 402.6599
217.7227, 387.2138
218.2048, 372.5262
218.6870, 358.7096
219.1691, 345.6197
219.6512, 332.4569
220.1333, 318.5677
220.6154, 305.7281
221.0975, 294.5679
221.5797, 285.7136
222.0618, 277.0774
222.5439, 268.7526
223.0260, 260.6305
223.5081, 252.1879
223.9902, 243.2720
224.4724, 234.4041
224.9545, 225.8889
225.4366, 217.3626
225.9187, 209.9433
226.4008, 203.9655
226.8829, 198.8768
227.3651, 193.4143
227.8472, 187.1035
228.3293, 181.1039
228.8114, 175.9429
229.2935, 172.0066
229.7757, 167.7231
230.2578, 162.8804
230.7399, 157.8336
231.2220, 153.2066
231.7041, 149.1355
232.1862, 145.3130
232.6684, 141.6120
233.1505, 137.9580
233.6326, 134.6846
234.1147, 131.9595
234.5968, 129.5179
235.0789, 126.9280
235.5611, 124.0800
236.0432, 121.2757
236.5253, 118.5781
237.0074, 116.0491
237.4895, 113.5588
237.9716, 111.1286
238.4538, 108.7256
238.9359, 106.2490
239.4180, 103.3492
239.9001, 100.9120
240.3822, 99.33682
240.8643, 98.91233
241.3465, 98.03133
241.8286, 96.35741
242.3107, 94.46354
242.7928, 93.17537
243.2749, 92.71899
243.7570, 92.47977
244.2392, 92.32165
244.7213, 92.25387
245.2034, 92.21238
245.6855, 92.21966
246.1676, 92.23500
246.6497, 92.21182
247.1319, 92.16164
247.6140, 92.05386
248.0961, 91.86907
248.5782, 91.59731
249.0603, 91.33021
249.5424, 91.00074
250.0246, 90.73878
250.5067, 90.68465
250.9888, 90.87571
251.4709, 91.21042
251.9530, 91.73354
252.4351, 92.46680
252.9173, 92.94589
253.3994, 92.96487
253.8815, 92.96971
254.3636, 93.38848
254.8457, 94.28298
255.3278, 95.44355
255.8100, 96.87202
256.2921, 98.56957
256.7742, 100.2672
257.2563, 101.6889
257.7384, 103.4750
258.2205, 106.1412
258.7026, 109.8246
259.1848, 114.0887
259.6669, 118.8123
260.1490, 124.0552
260.6311, 130.0138
261.1132, 136.8683
261.5953, 144.1275
262.0775, 151.5871
262.5596, 159.8922
263.0417, 166.8392
263.5238, 172.8304
264.0059, 177.3098
264.4880, 177.7867
264.9702, 174.0366
265.4523, 166.6680
265.9344, 155.3442
266.4165, 138.5601
266.8986, 122.8695
267.3807, 108.4391
267.8629, 95.45822
268.3450, 84.42435
268.8271, 75.37888
269.3092, 67.89425
269.7913, 61.65979
270.2734, 56.80144
270.7556, 52.83865
271.2377, 49.89166
271.7198, 47.66898
272.2019, 45.45507
272.6840, 43.18512
273.1661, 41.14586
273.6483, 39.52789
274.1304, 38.38805
274.6125, 37.22356
275.0946, 35.98852
275.5767, 34.79091
276.0588, 33.83974
276.5410, 33.16756
277.0231, 32.57895
277.5052, 32.02814
277.9873, 31.51315
278.4694, 30.93484
278.9515, 30.24325
279.4337, 29.59310
279.9158, 29.26425
280.3979, 29.29407
280.8800, 29.26340
281.3621, 29.02241
281.8442, 28.58660
282.3264, 28.07557
282.8085, 27.46640
283.2906, 26.86354
283.7727, 26.42103
284.2548, 26.14138
284.7369, 25.79888
285.2191, 25.26503
285.7012, 24.62675
286.1833, 24.25869
286.6654, 24.19116
287.1475, 24.19023
287.6296, 24.08030
288.1118, 23.85852
288.5939, 23.46021
289.0760, 22.75999
289.5581, 21.95656
290.0402, 21.60074
290.5223, 21.70468
291.0045, 21.85394
291.4866, 21.66916
291.9687, 21.23154
292.4508, 20.94407
292.9329, 20.91928
293.4150, 21.01105
293.8972, 20.95411
294.3793, 20.76066
294.8614, 20.57040
295.3435, 20.50620
295.8256, 20.51974
296.3077, 20.47930
296.7899, 20.36821
297.2720, 20.20356
297.7541, 19.95837
298.2362, 19.66143
298.7183, 19.43756
299.2004, 19.43075
299.6826, 19.52896
300.1647, 19.51886
300.6468, 19.37679
301.1289, 19.17724
301.6110, 18.92927
302.0931, 18.67593
302.5753, 18.52413
303.0574, 18.66080
303.5395, 18.86889
304.0216, 18.81457
304.5037, 18.48466
304.9858, 18.16097
305.4680, 18.16356
305.9501, 18.32265
306.4322, 18.34481
306.9143, 17.96297
307.3964, 17.51637
307.8785, 17.32241
308.3607, 17.36459
308.8428, 17.47011
309.3249, 17.56859
309.8070, 17.65125
310.2891, 17.70426
310.7712, 17.69877
311.2534, 17.69541
311.7355, 17.73581
312.2176, 17.81372
312.6997, 17.90563
313.1818, 18.04600
313.6639, 18.16726
314.1461, 18.20412
314.6282, 18.10135
315.1103, 18.00316
315.5924, 17.98370
316.0745, 18.02074
316.5566, 18.06814
317.0388, 18.11180
317.5209, 18.15722
318.0030, 18.23352
318.4851, 18.37754
318.9672, 18.41275
319.4493, 18.14770
319.9315, 17.77401
320.4136, 17.54254
320.8957, 17.61895
321.3778, 17.76614
321.8599, 17.93818
322.3420, 18.14117
322.8242, 18.24409
323.3063, 18.09472
323.7884, 17.89323
324.2705, 17.81420
324.7526, 18.02661
325.2347, 18.21375
325.7169, 18.29939
326.1990, 18.29188
326.6811, 18.29188
327.1632, 18.28214
327.6453, 18.29818
328.1274, 18.35992
328.6096, 18.52404
329.0917, 18.66356
329.5738, 18.72656
330.0559, 18.75664
330.5380, 18.90259
331.0201, 19.28262
331.5023, 19.64953
331.9844, 19.88135
332.4665, 19.83675
332.9486, 20.00126
333.4307, 20.41977
333.9128, 21.02398
334.3950, 21.68718
334.8771, 22.39388
335.3592, 23.19708
335.8413, 24.08814
336.3234, 25.06023
336.8055, 26.23644
337.2877, 27.64647
337.7698, 29.20206
338.2519, 30.90799
338.7340, 32.86540
339.2161, 34.50792
339.6982, 35.62267
340.1803, 36.30722
340.6624, 37.06213
341.1446, 37.87687
341.6267, 38.82759
342.1088, 40.01272
342.5909, 41.42616
343.0730, 42.96309
343.5551, 44.62236
344.0373, 46.36451
344.5194, 48.02204
345.0015, 49.60110
345.4836, 51.26638
345.9657, 53.00227
346.4478, 54.87090
346.9300, 57.22448
347.4121, 60.13137
347.8942, 63.42145
348.3763, 66.68914
348.8584, 70.06187
349.3405, 74.35025
349.8227, 80.00923
350.3048, 86.81538
350.7869, 94.37064
351.2690, 102.6437
351.7511, 111.5807
352.2332, 121.2163
352.7154, 131.3962
353.1975, 141.9962
353.6796, 154.5039
354.1617, 165.8386
354.6438, 173.9344
355.1259, 178.3680
355.6081, 176.9046
356.0902, 165.7809
356.5723, 148.8723
357.0544, 129.8028
357.5365, 108.0638
358.0186, 87.75683
358.5008, 71.38623
358.9829, 58.57279
359.4650, 48.49625
359.9471, 41.90771
360.4292, 37.12468
360.9113, 33.21146
361.3935, 30.13558
361.8756, 27.74916
362.3577, 26.25084
362.8398, 25.32597
363.3219, 24.61679
363.8040, 24.18046
364.2862, 23.79305
364.7683, 23.30659
365.2504, 22.73689
365.7325, 22.43610
366.2146, 22.74340
366.6967, 23.16345
367.1789, 23.38853
367.6610, 23.00715
368.1431, 22.88024
368.6252, 23.26662
369.1073, 23.97845
369.5894, 24.41650
370.0716, 24.54159
370.5537, 24.43627
371.0358, 24.09792
371.5179, 23.43937
372.0000, 22.79520
372.4821, 22.07734
372.9643, 21.43971
373.4464, 21.08535
373.9285, 21.02504
374.4106, 21.24111
374.8927, 21.78983
375.3748, 22.66137
375.8570, 23.50211
376.3391, 24.33408
376.8212, 25.10310
377.3033, 25.73277
377.7854, 26.18541
378.2675, 26.77781
378.7497, 27.62472
379.2318, 28.57369
379.7139, 29.17588
380.1960, 29.38713
380.6781, 29.71383
381.1602, 30.58010
381.6424, 31.87378
382.1245, 32.80378
382.6066, 33.27039
383.0887, 33.67629
383.5708, 34.56805
384.0529, 35.86639
384.5351, 37.22721
385.0172, 38.37782
385.4993, 39.54858
385.9814, 41.16659
386.4635, 43.21423
386.9456, 45.62262
387.4278, 48.24448
387.9099, 51.17483
388.3920, 54.61221
388.8741, 58.61039
389.3562, 63.09266
389.8383, 67.83766
390.3205, 73.03890
390.8026, 79.11491
391.2847, 87.08918
391.7668, 95.48349
392.2489, 103.9087
392.7310, 112.7518
393.2132, 118.8772
393.6953, 121.3991
394.1774, 120.1088
394.6595, 114.6918
395.1416, 101.4007
395.6237, 87.48683
396.1059, 74.62279
396.5880, 62.97306
397.0701, 53.74176
397.5522, 48.07964
398.0343, 44.39755
398.5164, 41.80079
398.9986, 41.05413
399.4807, 40.30101
399.9628, 39.30384
400.4449, 38.27318
400.9270, 37.72898
401.4091, 38.17814
401.8913, 38.46977
402.3734, 38.28365
402.8555, 37.62145
403.3376, 36.38708
403.8197, 34.20746
404.3018, 31.89072
404.7840, 30.36281
405.2661, 29.84560
405.7482, 29.33226
406.2303, 28.59525
406.7124, 27.72230
407.1945, 27.02731
407.6767, 26.49976
408.1588, 26.20066
408.6409, 26.23812
409.1230, 26.59162
409.6051, 26.94110
410.0872, 27.25394
410.5694, 27.58576
411.0515, 28.08361
411.5336, 28.70892
412.0157, 29.20498
412.4978, 29.38180
412.9799, 29.37553
413.4621, 29.43974
413.9442, 29.57487
414.4263, 29.76751
414.9084, 30.09822
415.3905, 30.46019
415.8727, 30.66843
416.3548, 30.59486
416.8369, 30.48971
417.3190, 30.52678
417.8011, 30.69522
418.2832, 30.96932
418.7654, 31.44536
419.2475, 31.94503
419.7296, 32.30183
420.2117, 32.46424
420.6938, 32.72749
421.1759, 33.28523
421.6581, 33.97021
422.1402, 34.61274
422.6223, 35.12224
423.1044, 35.63150
423.5865, 36.19640
424.0686, 36.79917
424.5508, 37.32203
425.0329, 37.50548
425.5150, 37.80581
425.9971, 38.46178
426.4792, 39.78326
426.9613, 40.80387
427.4435, 41.34662
427.9256, 41.68037
428.4077, 42.22488
428.8898, 43.04205
429.3719, 43.94618
429.8540, 44.86207
430.3362, 45.80061
430.8183, 47.05323
431.3004, 48.69942
431.7825, 50.41345
432.2646, 51.88018
432.7467, 53.09238
433.2289, 54.44947
433.7110, 55.95843
434.1931, 57.67103
434.6752, 59.67312
435.1573, 61.96052
435.6394, 64.49224
436.1216, 67.15022
436.6037, 70.06654
437.0858, 73.63719
437.5679, 77.89881
438.0500, 82.19613
438.5321, 85.57117
439.0142, 88.65891
439.4963, 92.51826
439.9785, 97.44404
440.4606, 103.2914
440.9427, 109.9222
441.4248, 117.3464
441.9069, 125.5265
442.3890, 134.1775
442.8712, 143.7727
443.3533, 154.4391
443.8354, 166.0393
444.3175, 179.5845
444.7996, 195.1459
445.2817, 212.7817
445.7639, 232.6875
446.2460, 255.6357
446.7281, 280.1402
447.2102, 306.0026
447.6923, 333.2415
448.1744, 361.0400
448.6566, 389.4295
449.1387, 418.4679
449.6208, 448.3361
450.1029, 479.9340
450.5850, 509.9943
451.0671, 537.0925
451.5493, 563.7194
452.0314, 592.9697
452.5135, 624.3708
452.9956, 659.3693
453.4777, 698.1706
453.9598, 740.4840
454.4420, 785.8356
454.9241, 833.6656
455.4062, 886.1475
455.8883, 943.4670
456.3704, 1006.127
456.8525, 1075.706
457.3347, 1150.791
457.8168, 1233.941
458.2989, 1326.714
458.7810, 1429.341
459.2631, 1539.400
459.7452, 1659.391
460.2274, 1786.089
460.7095, 1917.767
461.1916, 2054.873
461.6737, 2186.994
462.1558, 2319.895
462.6379, 2440.235
463.1201, 2538.395
463.6022, 2619.234
464.0843, 2664.119
464.5664, 2667.434
465.0485, 2629.791
465.5306, 2552.162
466.0128, 2415.117
466.4949, 2257.776
466.9770, 2084.710
467.4591, 1895.709
467.9412, 1717.766
468.4233, 1546.743
468.9055, 1389.220
469.3876, 1247.025
469.8697, 1120.786
470.3518, 1009.227
470.8339, 912.8956
471.3160, 829.6765
471.7982, 755.3109
472.2803, 690.1368
472.7624, 632.3268
473.2445, 582.7380
473.7266, 540.4037
474.2087, 501.0779
474.6909, 464.8225
475.1730, 432.0038
475.6551, 403.9210
476.1372, 380.0430
476.6193, 358.2162
477.1014, 338.4363
477.5836, 320.3341
478.0657, 303.8033
478.5478, 288.6445
479.0299, 274.5913
479.5120, 261.5103
479.9941, 249.2620
480.4763, 237.7214
480.9584, 226.8892
481.4405, 217.2882
481.9226, 210.0152
482.4047, 203.6240
482.8868, 196.8600
483.3690, 189.1103
483.8511, 181.9031
484.3332, 176.0283
484.8153, 170.9240
485.2974, 165.5457
485.7795, 159.1009
486.2617, 153.1405
486.7438, 148.0064
487.2259, 143.6766
487.7080, 139.7877
488.1901, 136.5396
488.6722, 133.4304
489.1544, 130.1101
489.6365, 126.5430
490.1186, 122.9834
490.6007, 119.3316
491.0828, 115.8412
491.5649, 112.9122
492.0471, 110.5903
492.5292, 108.3244
493.0113, 105.9281
493.4934, 103.4979
493.9755, 101.2859
494.4576, 99.30041
494.9398, 97.32704
495.4219, 95.19897
495.9040, 92.98296
496.3861, 90.84550
496.8682, 88.75200
497.3503, 86.86044
497.8325, 85.43233
498.3146, 84.24894
498.7967, 82.94095
499.2788, 81.27306
499.7609, 79.55025
500.2430, 77.89316
500.7252, 76.30861
501.2073, 74.77563
501.6894, 73.31494
502.1715, 71.90673
502.6536, 70.51991
503.1357, 69.13649
503.6179, 67.84907
504.1000, 66.63194
504.5821, 65.52776
505.0642, 64.62683
505.5463, 64.17058
506.0284, 63.35250
506.5106, 61.88724
506.9927, 60.04270
507.4748, 58.70799
507.9569, 57.93561
508.4390, 57.41542
508.9211, 57.08567
509.4033, 56.91273
509.8854, 56.61910
510.3675, 56.19988
510.8496, 55.69970
511.3317, 55.14004
511.8138, 54.53144
512.2960, 53.90294
512.7781, 53.22123
513.2602, 52.58245
513.7423, 52.08743
514.2244, 51.71242
514.7065, 51.39916
515.1887, 51.22099
515.6708, 51.01453
516.1529, 50.60849
516.6350, 50.00802
517.1171, 49.54632
517.5992, 49.50127
518.0814, 49.53133
518.5635, 49.42082
519.0456, 49.14866
519.5277, 48.71582
520.0098, 47.90396
520.4919, 47.02761
520.9741, 46.60342
521.4562, 46.97497
521.9383, 47.09982
522.4204, 46.62990
522.9025, 45.70029
523.3846, 45.21651
523.8668, 45.26979
524.3489, 45.39712
524.8310, 45.26872
525.3131, 44.92797
525.7952, 44.77384
526.2773, 44.83847
526.7595, 44.99393
527.2416, 45.12816
527.7237, 45.23826
528.2058, 45.32130
528.6879, 45.38943
529.1700, 45.41077
529.6522, 45.31960
530.1343, 45.15144
530.6164, 45.00563
531.0985, 45.19563
531.5806, 45.21797
532.0627, 44.69048
532.5449, 43.56262
533.0270, 42.40178
533.5091, 41.29599
533.9912, 40.26063
534.4733, 39.32132
534.9554, 38.36804
535.4376, 37.66673
535.9197, 37.42779
536.4018, 37.34109
536.8839, 36.81182
537.3660, 35.57826
537.8481, 34.60633
538.3303, 34.22443
538.8124, 34.30820
539.2945, 34.17311
539.7766, 33.79933
540.2587, 33.37634
540.7408, 33.02066
541.2230, 32.71954
541.7051, 32.42184
542.1872, 32.11617
542.6693, 31.88060
543.1514, 31.85062
543.6335, 31.93614
544.1157, 31.97540
544.5978, 31.94967
545.0799, 31.81952
545.5620, 31.50850
546.0441, 31.06959
546.5262, 30.63368
547.0084, 30.24289
547.4905, 29.87308
547.9726, 29.49726
548.4547, 29.11195
548.9368, 28.77980
549.4189, 28.52407
549.9011, 28.30718
550.3832, 28.12002
550.8653, 28.02151
551.3474, 27.80752
551.8295, 27.45086
552.3116, 27.01020
552.7938, 26.55668
553.2759, 26.08552
553.7580, 25.64531
554.2401, 25.24162
554.7222, 24.88325
555.2043, 24.59792
555.6865, 24.38529
556.1686, 24.21343
556.6507, 24.06697
557.1328, 23.94885
557.6149, 23.90024
558.0970, 23.92455
558.5792, 23.86363
559.0613, 23.51991
559.5434, 23.07754
560.0255, 22.72481
560.5076, 22.55038
560.9897, 22.39608
561.4719, 22.16444
561.9540, 21.92923
562.4361, 21.81594
562.9182, 21.98682
563.4003, 22.11590
563.8824, 22.17128
564.3646, 22.14517
564.8467, 21.93833
565.3288, 21.39641
565.8109, 20.99235
566.2930, 21.06362
566.7751, 21.63742
567.2573, 21.89826
567.7394, 21.81767
568.2215, 21.56432
568.7036, 21.22516
569.1857, 20.84620
569.6678, 20.58891
570.1500, 20.49691
570.6321, 20.51904
571.1142, 20.66790
571.5963, 20.88736
572.0784, 21.05041
572.5605, 21.10626
573.0427, 21.08582
573.5248, 20.94860
574.0069, 20.72519
574.4890, 20.59680
574.9711, 20.71667
575.4532, 20.86924
575.9354, 20.95598
576.4175, 20.97004
576.8996, 20.92007
577.3817, 20.76266
577.8638, 20.58448
578.3459, 20.44212
578.8281, 20.31382
579.3102, 20.34678
579.7923, 20.62277
580.2744, 20.96846
580.7565, 21.02251
581.2386, 20.79976
581.7208, 20.56154
582.2029, 20.39119
582.6850, 20.27666
583.1671, 20.17875
583.6492, 20.10546
584.1313, 20.10450
584.6135, 20.31085
585.0956, 20.54026
585.5776, 20.58178
586.0598, 20.39232
586.5419, 20.26269
587.0240, 20.41717
587.5061, 20.62556
587.9882, 20.69638
588.4703, 20.49516
