##NAMES=Quartz
##RRUFFID=R100134
##IDEAL CHEMISTRY=SiO_2_
##LOCALITY=Sri Lanka
##OWNER=RRUFF
##SOURCE=William W. Pinch
##DESCRIPTION=Transparent colorless cut gemstone
##STATUS=The identification of this mineral has been confirmed by single-crystal X-ray diffraction.
##URL=rruff.info/R100134
91.03516, 35.07998
91.51727, 34.24058
91.99939, 35.17666
92.48151, 37.23170
92.96362, 38.54237
93.44574, 37.37496
93.92786, 34.87387
94.40997, 33.65744
94.89210, 34.16430
95.37421, 35.17664
95.85633, 34.60881
96.33845, 32.54369
96.82056, 30.75008
97.30268, 30.71396
97.78480, 32.22926
98.26691, 33.20777
98.74903, 33.37379
99.23115, 32.85359
99.71326, 31.69121
100.1954, 29.63527
100.6775, 27.94183
101.1596, 27.85141
101.6417, 29.74270
102.1239, 31.40375
102.6060, 32.44907
103.0881, 32.91079
103.5702, 33.17765
104.0523, 33.22448
104.5344, 33.11068
105.0166, 32.86035
105.4987, 32.31367
105.9808, 31.93130
106.4629, 31.95447
106.9450, 32.61860
107.4271, 32.57600
107.9093, 31.12976
108.3914, 29.22388
108.8735, 28.26028
109.3556, 29.30848
109.8377, 30.31893
110.3198, 30.66682
110.8020, 29.74055
111.2841, 29.32780
111.7662, 29.69041
112.2483, 30.60875
112.7304, 31.59018
113.2125, 33.20371
113.6947, 34.43323
114.1768, 34.74269
114.6589, 33.18141
115.1410, 31.87778
115.6231, 31.53238
116.1052, 31.91065
116.5874, 32.11502
117.0695, 31.58916
117.5516, 30.89025
118.0337, 30.44869
118.5158, 30.48336
118.9980, 30.70689
119.4801, 31.10038
119.9622, 31.63935
120.4443, 32.06164
120.9264, 32.16507
121.4085, 32.08231
121.8907, 31.97626
122.3728, 31.89726
122.8549, 31.82947
123.3370, 31.68671
123.8191, 31.45609
124.3012, 31.40808
124.7834, 31.97940
125.2655, 32.90715
125.7476, 33.63060
126.2297, 33.71014
126.7118, 33.47373
127.1939, 33.31543
127.6761, 33.22553
128.1582, 33.38202
128.6403, 34.21574
129.1224, 35.58126
129.6045, 36.77702
130.0867, 37.00806
130.5688, 36.70197
131.0509, 37.33926
131.5330, 39.25555
132.0151, 41.73660
132.4972, 43.47892
132.9794, 44.48090
133.4615, 45.60406
133.9436, 47.41791
134.4257, 49.90626
134.9078, 52.60963
135.3899, 55.48597
135.8721, 58.54367
136.3542, 61.78408
136.8363, 65.12669
137.3184, 69.02950
137.8005, 73.78061
138.2826, 79.43543
138.7648, 85.88815
139.2469, 93.16882
139.7290, 101.2854
140.2111, 109.7309
140.6932, 118.4676
141.1753, 127.7425
141.6575, 137.9450
142.1396, 149.8564
142.6217, 160.8027
143.1038, 169.8859
143.5859, 177.0567
144.0681, 185.0315
144.5502, 194.1874
145.0323, 203.8709
145.5144, 213.5360
145.9965, 223.1688
146.4786, 232.7215
146.9608, 242.0569
147.4429, 251.3957
147.9250, 260.0554
148.4071, 266.3212
148.8892, 272.5653
149.3713, 282.1866
149.8535, 298.6296
150.3356, 315.1848
150.8177, 329.8416
151.2998, 340.8236
151.7819, 353.7174
152.2640, 368.8575
152.7462, 385.9279
153.2283, 404.0836
153.7104, 424.2435
154.1925, 444.7110
154.6746, 465.0499
155.1567, 486.1942
155.6389, 505.0156
156.1210, 520.0720
156.6031, 532.5291
157.0852, 545.4376
157.5673, 560.8858
158.0495, 575.8370
158.5316, 588.9974
159.0137, 600.1492
159.4958, 609.2975
159.9779, 615.4249
160.4600, 619.3598
160.9422, 623.8093
161.4243, 629.1649
161.9064, 635.6359
162.3885, 643.3375
162.8706, 652.5701
163.3527, 662.8490
163.8349, 673.8818
164.3170, 685.7874
164.7991, 699.1324
165.2812, 714.3956
165.7633, 731.1268
166.2454, 748.9258
166.7276, 767.8870
167.2097, 787.6829
167.6918, 808.2278
168.1739, 829.4108
168.6560, 851.8336
169.1381, 876.5604
169.6203, 902.1600
170.1024, 921.1191
170.5845, 936.7087
171.0666, 951.6160
171.5487, 964.8724
172.0309, 976.5865
172.5130, 988.6337
172.9951, 1003.650
173.4772, 1019.651
173.9593, 1033.567
174.4414, 1042.509
174.9236, 1049.671
175.4057, 1058.490
175.8878, 1069.066
176.3699, 1079.488
176.8520, 1087.723
177.3341, 1094.674
177.8163, 1102.355
178.2984, 1111.498
178.7805, 1121.797
179.2626, 1132.646
179.7447, 1143.757
180.2268, 1156.152
180.7090, 1170.615
181.1911, 1187.013
181.6732, 1204.894
182.1553, 1224.896
182.6374, 1246.084
183.1195, 1265.319
183.6017, 1282.362
184.0838, 1299.824
184.5659, 1320.928
185.0480, 1345.321
185.5301, 1372.473
186.0123, 1403.125
186.4944, 1436.372
186.9765, 1467.970
187.4586, 1497.668
187.9407, 1527.237
188.4228, 1558.954
188.9050, 1592.620
189.3871, 1628.302
189.8692, 1666.814
190.3513, 1707.283
190.8334, 1746.301
191.3155, 1783.265
191.7977, 1819.313
192.2798, 1856.397
192.7619, 1894.531
193.2440, 1932.141
193.7261, 1968.083
194.2082, 2002.535
194.6904, 2039.354
195.1725, 2079.024
195.6546, 2120.641
196.1367, 2161.185
196.6188, 2200.802
197.1009, 2240.176
197.5831, 2279.595
198.0652, 2319.397
198.5473, 2358.937
199.0294, 2398.573
199.5115, 2437.383
199.9937, 2473.845
200.4758, 2507.548
200.9579, 2538.684
201.4400, 2567.148
201.9221, 2593.001
202.4042, 2615.429
202.8864, 2634.605
203.3685, 2650.119
203.8506, 2661.085
204.3327, 2667.414
204.8148, 2669.260
205.2969, 2666.853
205.7791, 2660.349
206.2612, 2648.355
206.7433, 2629.995
207.2254, 2606.752
207.7075, 2582.454
208.1896, 2557.442
208.6718, 2530.232
209.1539, 2499.682
209.6360, 2465.979
210.1181, 2429.491
210.6002, 2389.693
211.0823, 2347.501
211.5645, 2305.697
212.0466, 2264.916
212.5287, 2222.709
213.0108, 2177.351
213.4929, 2127.518
213.9750, 2078.845
214.4572, 2031.435
214.9393, 1985.558
215.4214, 1940.699
215.9035, 1896.938
216.3856, 1853.572
216.8678, 1810.839
217.3499, 1767.606
217.8320, 1726.781
218.3141, 1689.112
218.7962, 1653.943
219.2783, 1619.620
219.7605, 1586.006
220.2426, 1553.911
220.7247, 1524.107
221.2068, 1497.003
221.6889, 1471.188
222.1710, 1446.863
222.6532, 1423.811
223.1353, 1402.422
223.6174, 1383.465
224.0995, 1364.552
224.5816, 1344.222
225.0637, 1320.859
225.5459, 1299.748
226.0280, 1281.477
226.5101, 1265.406
226.9922, 1250.340
227.4743, 1236.634
227.9564, 1223.167
228.4386, 1208.969
228.9207, 1193.288
229.4028, 1179.320
229.8849, 1167.417
230.3670, 1157.123
230.8492, 1146.843
231.3313, 1136.591
231.8134, 1126.477
232.2955, 1116.374
232.7776, 1106.287
233.2597, 1096.635
233.7419, 1087.559
234.2240, 1078.880
234.7061, 1070.269
235.1882, 1061.298
235.6703, 1053.115
236.1524, 1046.305
236.6346, 1041.814
237.1167, 1036.558
237.5988, 1030.066
238.0809, 1022.972
238.5630, 1016.627
239.0451, 1011.177
239.5273, 1006.301
240.0094, 1001.926
240.4915, 998.2168
240.9736, 994.3947
241.4557, 989.8873
241.9378, 985.4576
242.4200, 982.9213
242.9021, 983.6225
243.3842, 984.0471
243.8663, 982.6672
244.3484, 978.5052
244.8306, 975.4379
245.3127, 973.6365
245.7948, 972.8604
246.2769, 972.8418
246.7590, 974.2336
247.2411, 975.2870
247.7233, 975.3334
248.2054, 974.0884
248.6875, 972.9132
249.1696, 971.7914
249.6517, 970.7778
250.1338, 970.0426
250.6160, 969.9472
251.0981, 969.4642
251.5802, 967.9456
252.0623, 964.8375
252.5444, 963.6777
253.0265, 965.4876
253.5087, 968.4254
253.9908, 969.6295
254.4729, 967.8121
254.9550, 966.9227
255.4371, 968.3476
255.9192, 972.4297
256.4014, 975.8058
256.8835, 977.8587
257.3656, 979.8179
257.8477, 983.2333
258.3298, 988.3502
258.8120, 994.3779
259.2941, 1001.024
259.7762, 1008.262
260.2583, 1017.193
260.7404, 1028.376
261.2225, 1040.631
261.7047, 1052.982
262.1868, 1065.277
262.6689, 1078.288
263.1510, 1093.490
263.6331, 1110.555
264.1152, 1122.527
264.5974, 1129.761
265.0795, 1131.172
265.5616, 1125.666
266.0437, 1112.931
266.5258, 1093.693
267.0079, 1065.882
267.4901, 1030.725
267.9722, 1001.564
268.4543, 979.4068
268.9364, 960.6573
269.4185, 941.9493
269.9006, 922.4146
270.3828, 906.8839
270.8649, 896.4962
271.3470, 890.5419
271.8291, 885.8444
272.3112, 882.7939
272.7933, 879.7730
273.2755, 875.1896
273.7576, 868.5547
274.2397, 863.6299
274.7218, 861.2431
275.2039, 860.6381
275.6860, 859.6341
276.1682, 858.1823
276.6503, 856.4836
277.1324, 854.6464
277.6145, 852.7012
278.0966, 850.5533
278.5787, 848.0432
279.0609, 845.5717
279.5430, 844.0377
280.0251, 843.5636
280.5072, 843.4833
280.9893, 843.5513
281.4715, 843.7756
281.9536, 843.9616
282.4357, 844.1485
282.9178, 844.1950
283.3999, 843.6282
283.8820, 842.3776
284.3642, 841.5054
284.8463, 841.8177
285.3284, 843.1456
285.8105, 843.5060
286.2926, 842.6261
286.7747, 841.5384
287.2569, 842.0177
287.7390, 843.9749
288.2211, 845.3010
288.7032, 844.5685
289.1853, 842.4142
289.6674, 842.1004
290.1496, 843.9236
290.6317, 845.6894
291.1138, 844.2260
291.5959, 840.0793
292.0780, 837.0876
292.5602, 837.0464
293.0423, 838.8068
293.5244, 839.3837
294.0065, 838.7383
294.4886, 837.8961
294.9707, 838.0301
295.4529, 838.7998
295.9350, 838.8564
296.4171, 837.3149
296.8992, 835.3796
297.3813, 835.5917
297.8634, 837.7657
298.3456, 839.8378
298.8277, 840.1389
299.3098, 839.1739
299.7919, 837.8787
300.2740, 836.1331
300.7561, 834.7125
301.2383, 834.7850
301.7204, 836.1641
302.2025, 838.0081
302.6846, 840.5250
303.1667, 842.9700
303.6488, 844.0792
304.1310, 843.3552
304.6131, 842.2002
305.0952, 842.2289
305.5773, 842.9785
306.0594, 843.1988
306.5415, 841.3704
307.0237, 839.1000
307.5058, 838.1801
307.9879, 838.9095
308.4700, 840.1102
308.9521, 841.0089
309.4343, 841.7492
309.9164, 842.6049
310.3985, 844.1584
310.8806, 845.5590
311.3627, 845.8210
311.8448, 844.8883
312.3270, 844.4147
312.8091, 846.0945
313.2912, 848.5682
313.7733, 850.2305
314.2554, 849.8713
314.7375, 849.1155
315.2197, 848.5961
315.7018, 848.3370
316.1839, 848.4948
316.6660, 849.4877
317.1481, 850.7512
317.6302, 851.8199
318.1124, 852.6209
318.5945, 853.1739
319.0766, 853.5338
319.5587, 853.6628
320.0408, 853.4461
320.5229, 851.8800
321.0051, 850.6323
321.4872, 850.7661
321.9693, 853.3900
322.4514, 855.6099
322.9335, 856.9022
323.4156, 857.3992
323.8978, 857.3565
324.3799, 855.9293
324.8620, 854.7451
325.3441, 854.5289
325.8262, 855.7871
326.3083, 856.5825
326.7905, 856.2756
327.2726, 855.5880
327.7547, 855.4102
328.2368, 855.8104
328.7189, 856.6804
329.2010, 858.1115
329.6832, 860.1390
330.1653, 862.2328
330.6474, 865.2017
331.1295, 867.6530
331.6116, 868.2900
332.0938, 864.7977
332.5759, 863.2311
333.0580, 865.0805
333.5401, 869.7999
334.0222, 873.0917
334.5043, 874.1076
334.9865, 874.9005
335.4686, 876.7460
335.9507, 880.0568
336.4328, 883.3013
336.9149, 886.3453
337.3970, 889.3445
337.8792, 892.5831
338.3613, 896.1223
338.8434, 899.8643
339.3255, 904.0522
339.8076, 908.9107
340.2898, 912.4316
340.7719, 914.1930
341.2540, 915.4246
341.7361, 917.9622
342.2182, 921.8342
342.7003, 926.3848
343.1825, 931.5331
343.6646, 937.2146
344.1467, 942.3405
344.6288, 946.7090
345.1109, 951.7421
345.5930, 959.6266
346.0752, 969.9495
346.5573, 979.4371
347.0394, 986.8704
347.5215, 993.4070
348.0036, 1001.296
348.4857, 1010.529
348.9679, 1021.927
349.4500, 1035.870
349.9321, 1052.588
350.4142, 1072.680
350.8963, 1096.488
351.3784, 1123.171
351.8606, 1151.826
352.3427, 1182.139
352.8248, 1213.666
353.3069, 1250.111
353.7890, 1285.691
354.2711, 1314.795
354.7533, 1337.438
355.2354, 1349.072
355.7175, 1347.375
356.1996, 1331.600
356.6817, 1300.427
357.1638, 1240.423
357.6460, 1174.200
358.1281, 1115.686
358.6102, 1065.382
359.0923, 1022.970
359.5744, 989.9734
360.0565, 964.5803
360.5387, 945.2323
361.0208, 933.9156
361.5029, 925.4891
361.9850, 918.4346
362.4671, 912.6458
362.9492, 907.9119
363.4314, 904.7881
363.9135, 902.2454
364.3956, 899.7207
364.8777, 897.0274
365.3598, 894.5997
365.8419, 892.4145
366.3241, 890.5765
366.8062, 889.2604
367.2883, 888.8333
367.7704, 888.5954
368.2526, 888.3453
368.7347, 888.0356
369.2168, 887.9404
369.6989, 887.9539
370.1810, 888.2405
370.6631, 888.9466
371.1453, 890.2581
371.6274, 891.7667
372.1095, 893.9631
372.5916, 896.5150
373.0737, 896.9548
373.5558, 893.8493
374.0380, 890.7610
374.5201, 889.7838
375.0022, 891.6790
375.4843, 893.1151
375.9664, 893.7087
376.4485, 894.0351
376.9307, 895.4794
377.4128, 898.3831
377.8949, 900.8943
378.3770, 902.1558
378.8591, 902.2222
379.3412, 902.1968
379.8234, 902.0199
380.3055, 901.9574
380.7876, 902.4391
381.2697, 903.4324
381.7518, 904.2400
382.2339, 904.6458
382.7161, 904.7861
383.1982, 904.5714
383.6803, 904.0481
384.1624, 904.4714
384.6445, 907.6300
385.1266, 912.4294
385.6088, 915.9995
386.0909, 917.6395
386.5730, 918.8132
387.0551, 921.0255
387.5372, 924.0982
388.0193, 927.5756
388.5015, 931.6594
388.9836, 935.7558
389.4657, 939.0292
389.9478, 941.4031
390.4299, 943.9441
390.9120, 947.5533
391.3942, 951.7020
391.8763, 955.6847
392.3584, 958.7668
392.8405, 962.0989
393.3226, 966.5168
393.8047, 971.7861
394.2869, 976.8274
394.7690, 979.9849
395.2511, 983.6299
395.7332, 989.3488
396.2154, 998.2261
396.6975, 1007.401
397.1796, 1015.848
397.6617, 1024.383
398.1438, 1034.312
398.6259, 1044.956
399.1081, 1057.900
399.5902, 1073.956
400.0723, 1093.470
400.5544, 1113.758
401.0365, 1137.063
401.5186, 1159.522
402.0008, 1178.258
402.4829, 1195.929
402.9650, 1205.163
403.4471, 1205.227
403.9292, 1196.184
404.4113, 1177.422
404.8935, 1145.771
405.3756, 1111.533
405.8577, 1078.627
406.3398, 1046.773
406.8219, 1020.663
407.3040, 1000.674
407.7862, 985.7692
408.2683, 974.8333
408.7504, 967.9422
409.2325, 962.8426
409.7146, 959.0965
410.1967, 956.5435
410.6789, 954.4988
411.1610, 952.9805
411.6431, 951.7603
412.1252, 950.6334
412.6073, 949.6565
413.0894, 948.9548
413.5716, 948.4822
414.0537, 948.4732
414.5358, 949.4420
415.0179, 951.1631
415.5000, 952.9517
415.9821, 954.3997
416.4643, 955.6956
416.9464, 957.1728
417.4285, 958.8713
417.9106, 960.0812
418.3927, 959.8919
418.8748, 959.0856
419.3570, 958.5991
419.8391, 958.6190
420.3212, 959.1339
420.8033, 960.2618
421.2854, 961.9339
421.7675, 963.8199
422.2497, 966.2369
422.7318, 968.5560
423.2139, 970.4364
423.6960, 971.7904
424.1781, 972.8558
424.6602, 973.1280
425.1424, 973.2824
425.6245, 974.3046
426.1066, 976.6568
426.5887, 979.2875
427.0709, 982.1381
427.5530, 985.2032
428.0351, 987.6205
428.5172, 988.8467
428.9993, 990.1849
429.4814, 992.8131
429.9636, 997.3163
430.4457, 1000.605
430.9278, 1001.791
431.4099, 1002.248
431.8920, 1005.327
432.3741, 1011.405
432.8563, 1017.374
433.3384, 1021.572
433.8205, 1024.347
434.3026, 1027.879
434.7847, 1032.204
435.2668, 1037.103
435.7490, 1042.268
436.2311, 1047.828
436.7132, 1054.029
437.1953, 1060.847
437.6774, 1068.482
438.1595, 1077.852
438.6417, 1088.569
439.1238, 1099.016
439.6059, 1106.775
440.0880, 1114.516
440.5701, 1124.946
441.0522, 1138.463
441.5344, 1154.411
442.0165, 1172.940
442.4986, 1193.470
442.9807, 1215.209
443.4628, 1235.741
443.9449, 1259.542
444.4271, 1288.202
444.9092, 1321.591
445.3913, 1359.149
445.8734, 1398.938
446.3555, 1443.373
446.8376, 1493.864
447.3198, 1552.959
447.8019, 1613.489
448.2840, 1673.955
448.7661, 1735.750
449.2482, 1800.736
449.7303, 1868.924
450.2125, 1939.243
450.6946, 2011.547
451.1767, 2086.276
451.6588, 2164.253
452.1409, 2245.414
452.6230, 2331.367
453.1052, 2421.020
453.5873, 2514.660
454.0694, 2618.574
454.5515, 2732.765
455.0337, 2857.851
455.5158, 2989.762
455.9979, 3130.212
456.4800, 3287.194
456.9621, 3466.236
457.4442, 3665.103
457.9264, 3879.331
458.4085, 4108.041
458.8906, 4356.835
459.3727, 4630.100
459.8548, 4924.760
460.3369, 5231.947
460.8191, 5557.167
461.3012, 5885.666
461.7833, 6225.963
462.2654, 6561.208
462.7475, 6855.086
463.2296, 7123.585
463.7118, 7324.179
464.1939, 7440.824
464.6760, 7473.779
465.1581, 7405.558
465.6402, 7205.255
466.1223, 6917.794
466.6045, 6576.318
467.0866, 6140.231
467.5687, 5707.232
468.0508, 5264.275
468.5329, 4827.293
469.0150, 4425.146
469.4972, 4061.832
469.9793, 3734.589
470.4614, 3447.591
470.9435, 3201.575
471.4256, 2982.579
471.9077, 2792.162
472.3899, 2625.745
472.8720, 2482.529
473.3541, 2361.874
473.8362, 2252.515
474.3183, 2152.488
474.8004, 2061.822
475.2826, 1980.867
475.7647, 1909.534
476.2468, 1846.755
476.7289, 1794.149
477.2110, 1749.078
477.6931, 1706.982
478.1753, 1667.602
478.6574, 1630.894
479.1395, 1596.752
479.6216, 1565.274
480.1037, 1536.816
480.5858, 1512.166
481.0680, 1489.071
481.5501, 1466.214
482.0322, 1443.726
482.5143, 1422.084
482.9964, 1401.000
483.4786, 1381.238
483.9607, 1362.957
484.4428, 1346.316
484.9249, 1331.553
485.4070, 1320.310
485.8892, 1310.141
486.3713, 1299.270
486.8534, 1285.599
487.3355, 1274.489
487.8176, 1267.458
488.2997, 1262.610
488.7819, 1255.474
489.2640, 1244.541
489.7461, 1234.655
490.2282, 1227.628
490.7103, 1223.220
491.1924, 1218.631
491.6746, 1213.852
492.1567, 1208.759
492.6388, 1202.901
493.1209, 1196.389
493.6030, 1191.090
494.0851, 1187.419
494.5673, 1184.300
495.0494, 1180.285
495.5315, 1175.519
496.0136, 1170.687
496.4957, 1165.041
496.9778, 1160.103
497.4600, 1158.318
497.9421, 1159.328
498.4242, 1159.504
498.9063, 1155.248
499.3884, 1150.019
499.8705, 1146.900
500.3527, 1147.267
500.8348, 1147.896
501.3169, 1147.571
501.7990, 1146.857
502.2811, 1146.556
502.7632, 1146.237
503.2454, 1146.975
503.7275, 1148.978
504.2096, 1152.227
504.6917, 1156.746
505.1738, 1162.572
505.6559, 1169.546
506.1381, 1177.783
506.6202, 1187.772
507.1023, 1197.640
507.5844, 1208.444
508.0665, 1217.262
508.5486, 1220.081
509.0308, 1216.839
509.5129, 1209.132
509.9950, 1196.342
510.4771, 1180.361
510.9592, 1164.059
511.4413, 1147.656
511.9235, 1132.733
512.4056, 1120.621
512.8877, 1110.510
513.3698, 1100.569
513.8519, 1090.533
514.3340, 1082.698
514.8162, 1080.409
515.2983, 1080.680
515.7804, 1079.939
516.2625, 1076.557
516.7446, 1072.717
517.2267, 1068.637
517.7089, 1064.763
518.1910, 1062.224
518.6731, 1063.122
519.1552, 1063.675
519.6373, 1062.193
520.1194, 1058.374
520.6016, 1055.719
521.0837, 1054.740
521.5658, 1054.369
522.0479, 1053.955
522.5300, 1053.613
523.0121, 1052.738
523.4943, 1051.150
523.9764, 1049.182
524.4585, 1047.349
524.9406, 1045.682
525.4227, 1044.128
525.9048, 1042.332
526.3870, 1040.818
526.8691, 1041.525
527.3513, 1044.277
527.8334, 1046.370
528.3155, 1045.217
528.7976, 1042.441
529.2797, 1040.386
529.7618, 1039.398
530.2440, 1038.713
530.7261, 1037.930
531.2082, 1037.085
531.6903, 1036.235
532.1724, 1035.383
532.6545, 1034.525
533.1367, 1033.514
533.6188, 1032.461
534.1009, 1031.719
534.5830, 1031.292
535.0651, 1031.261
535.5472, 1031.883
536.0294, 1033.391
536.5115, 1033.906
536.9936, 1033.123
537.4757, 1031.786
537.9578, 1030.349
538.4399, 1028.687
538.9221, 1027.748
539.4042, 1027.838
539.8863, 1028.307
540.3684, 1027.760
540.8505, 1026.314
541.3326, 1025.433
541.8148, 1026.131
542.2969, 1027.504
542.7790, 1027.901
543.2611, 1027.417
543.7432, 1026.830
544.2253, 1026.715
544.7075, 1026.738
545.1896, 1026.550
545.6717, 1026.082
546.1538, 1025.530
546.6359, 1024.906
547.1180, 1024.284
547.6002, 1023.747
548.0823, 1023.786
548.5644, 1023.368
549.0465, 1021.586
549.5286, 1019.171
550.0107, 1018.378
550.4929, 1020.762
550.9750, 1022.377
551.4571, 1021.595
551.9392, 1018.388
552.4213, 1016.582
552.9034, 1016.421
553.3856, 1016.831
553.8677, 1017.202
554.3498, 1017.490
554.8319, 1016.999
555.3140, 1015.491
555.7961, 1013.812
556.2783, 1013.082
556.7604, 1013.092
557.2425, 1013.302
557.7246, 1013.795
558.2067, 1014.119
558.6888, 1013.852
559.1710, 1013.059
559.6531, 1011.929
560.1352, 1009.808
560.6173, 1007.987
561.0994, 1007.573
561.5815, 1008.888
562.0637, 1009.458
562.5458, 1007.820
563.0279, 1005.902
563.5100, 1005.093
563.9921, 1005.961
564.4742, 1006.985
564.9564, 1008.348
565.4385, 1009.655
565.9206, 1010.102
566.4027, 1009.474
566.8848, 1008.964
567.3669, 1008.843
567.8491, 1009.108
568.3312, 1010.105
568.8133, 1011.783
569.2954, 1012.929
569.7775, 1011.940
570.2596, 1010.115
570.7418, 1010.328
571.2239, 1012.828
571.7060, 1014.788
572.1881, 1013.546
572.6702, 1010.837
573.1523, 1008.532
573.6345, 1007.183
574.1166, 1006.181
574.5987, 1005.148
575.0808, 1004.362
575.5629, 1004.275
576.0450, 1006.141
576.5272, 1007.373
577.0093, 1007.196
577.4914, 1005.872
577.9735, 1005.131
578.4556, 1005.157
578.9377, 1005.419
579.4199, 1005.680
579.9020, 1005.942
580.3841, 1006.352
580.8662, 1006.925
581.3483, 1007.627
581.8304, 1008.509
582.3126, 1009.506
582.7947, 1010.411
583.2768, 1011.225
583.7589, 1011.812
584.2410, 1011.609
584.7231, 1011.095
585.2053, 1011.220
585.6874, 1013.257
586.1696, 1015.198
586.6517, 1015.869
587.1338, 1015.461
587.6159, 1014.926
588.0980, 1014.604
588.5801, 1014.083
589.0623, 1012.856
589.5444, 1010.594
590.0265, 1009.943
590.5086, 1012.093
