##NAMES=Quartz
##RRUFFID=R060604
##IDEAL CHEMISTRY=SiO_2_
##LOCALITY=Piedras Parada, Veracruz, Mexico
##OWNER=RRUFF
##SOURCE=Michael Scott
##DESCRIPTION=Purple hexagonal prisms, variety amethyst
##STATUS=The identification of this mineral has been confirmed by X-ray diffraction and chemical analysis
##URL=rruff.info/R060604
##MEASURED CHEMISTRY=Si_1.00_O_2_
91.40820, 3.958539
91.89032, 3.775473
92.37244, 3.837772
92.85455, 4.115214
93.33667, 4.426744
93.81879, 4.721362
94.30090, 4.958956
94.78302, 5.008284
95.26514, 4.778684
95.74725, 4.395249
96.22937, 4.109877
96.71149, 3.925683
97.19360, 3.832383
97.67572, 3.874176
98.15784, 4.047270
98.63995, 4.147685
99.12207, 4.067260
99.60419, 3.842258
100.0863, 3.804332
100.5684, 3.990497
101.0505, 4.290805
101.5327, 4.573575
102.0148, 4.827972
102.4969, 5.095077
102.9790, 5.395958
103.4611, 5.736241
103.9432, 6.027737
104.4253, 6.103803
104.9075, 6.221248
105.3896, 6.875044
105.8717, 8.124598
106.3538, 9.841205
106.8359, 12.04208
107.3180, 14.99424
107.8002, 17.92691
108.2823, 20.71291
108.7644, 23.44921
109.2465, 26.61339
109.7286, 30.32608
110.2107, 34.33875
110.6929, 38.61360
111.1750, 42.99768
111.6571, 47.75749
112.1392, 53.04124
112.6213, 58.78979
113.1034, 64.68034
113.5856, 70.48640
114.0677, 76.59316
114.5498, 83.21968
115.0319, 91.03793
115.5140, 98.85139
115.9961, 106.2029
116.4783, 113.0899
116.9604, 119.9628
117.4425, 127.0474
117.9246, 134.2744
118.4067, 141.5044
118.8888, 149.0197
119.3710, 156.3567
119.8531, 162.7980
120.3352, 168.0907
120.8173, 174.3909
121.2994, 182.4938
121.7815, 192.4994
122.2637, 204.6369
122.7458, 217.8492
123.2279, 233.6802
123.7100, 253.5078
124.1921, 277.4732
124.6742, 305.4547
125.1564, 337.8813
125.6385, 374.3797
126.1206, 413.9429
126.6027, 462.0001
127.0848, 511.4637
127.5669, 551.1851
128.0491, 581.6877
128.5312, 597.4306
129.0133, 587.6217
129.4954, 553.6409
129.9775, 507.4412
130.4596, 450.2737
130.9418, 386.2692
131.4239, 329.2956
131.9060, 281.9635
132.3881, 242.9930
132.8702, 210.8803
133.3523, 185.5890
133.8345, 165.2336
134.3166, 148.8666
134.7987, 136.3743
135.2808, 126.4761
135.7629, 119.1117
136.2450, 113.9407
136.7272, 109.4677
137.2093, 105.6296
137.6914, 102.5876
138.1735, 100.6787
138.6556, 100.0976
139.1377, 99.70927
139.6199, 99.24765
140.1020, 98.71735
140.5841, 98.25075
141.0662, 97.77683
141.5483, 97.46810
142.0304, 97.58076
142.5126, 98.24782
142.9947, 99.00013
143.4768, 99.50879
143.9589, 99.65921
144.4410, 99.21935
144.9231, 97.79179
145.4053, 96.05190
145.8874, 95.07813
146.3695, 95.61491
146.8516, 95.86347
147.3337, 95.21961
147.8158, 93.22512
148.2980, 91.53102
148.7801, 90.19907
149.2622, 89.13847
149.7443, 88.20368
150.2264, 87.41068
150.7085, 86.70822
151.1907, 86.11295
151.6728, 85.85770
152.1549, 85.30515
152.6370, 84.22405
153.1191, 82.82287
153.6012, 81.64501
154.0834, 80.86311
154.5655, 80.20600
155.0476, 79.54798
155.5297, 78.86026
156.0118, 78.20613
156.4939, 77.48869
156.9761, 76.77958
157.4582, 76.35088
157.9403, 76.21670
158.4224, 76.39978
158.9045, 76.92525
159.3866, 78.10888
159.8688, 79.26241
160.3509, 80.17113
160.8330, 80.87934
161.3151, 81.58739
161.7972, 82.46886
162.2793, 83.32781
162.7615, 84.01121
163.2436, 84.08472
163.7257, 84.34737
164.2078, 85.28352
164.6899, 86.79897
165.1720, 88.23398
165.6541, 89.10802
166.1363, 89.80556
166.6184, 90.70574
167.1005, 92.22657
167.5826, 93.75719
168.0647, 94.82531
168.5468, 95.47217
169.0290, 96.25321
169.5111, 97.51057
169.9932, 99.10540
170.4753, 100.8629
170.9574, 102.8092
171.4395, 104.8077
171.9217, 106.7056
172.4038, 108.5039
172.8859, 110.4345
173.3680, 112.6482
173.8501, 115.1094
174.3322, 117.7973
174.8144, 120.8277
175.2965, 124.0467
175.7786, 127.1389
176.2607, 130.1181
176.7428, 133.2167
177.2249, 136.6238
177.7071, 140.2931
178.1892, 144.1980
178.6713, 148.1970
179.1534, 152.4591
179.6355, 157.4241
180.1176, 163.2126
180.5998, 169.1038
181.0819, 174.2637
181.5640, 178.8731
182.0461, 183.7864
182.5282, 189.3522
183.0103, 195.4657
183.4925, 201.8473
183.9746, 208.4355
184.4567, 215.3824
184.9388, 223.1032
185.4209, 231.5233
185.9030, 239.7191
186.3852, 246.9248
186.8673, 253.5191
187.3494, 261.1638
187.8315, 270.0235
188.3136, 279.5089
188.7957, 289.1741
189.2779, 298.9432
189.7600, 308.9588
190.2421, 319.2559
190.7242, 329.7596
191.2063, 340.3465
191.6884, 350.9677
192.1706, 361.6357
192.6527, 372.8648
193.1348, 384.6142
193.6169, 396.1779
194.0990, 407.2274
194.5811, 417.7510
195.0633, 428.3282
195.5454, 438.8571
196.0275, 449.6699
196.5096, 461.0990
196.9917, 473.2427
197.4738, 485.4481
197.9560, 497.5793
198.4381, 509.5947
198.9202, 521.0015
199.4023, 531.8359
199.8844, 541.9119
200.3665, 550.5311
200.8487, 557.6054
201.3308, 564.1332
201.8129, 570.9446
202.2950, 578.2038
202.7771, 583.6037
203.2592, 586.8649
203.7414, 588.5197
204.2235, 589.8637
204.7056, 591.1022
205.1877, 591.1812
205.6698, 589.6514
206.1519, 586.5275
206.6341, 581.4525
207.1162, 573.9785
207.5983, 564.9900
208.0804, 556.7658
208.5625, 549.9830
209.0446, 542.1381
209.5268, 531.7244
210.0089, 518.1467
210.4910, 504.8615
210.9731, 492.0696
211.4552, 479.4905
211.9373, 466.6610
212.4195, 453.6325
212.9016, 440.3849
213.3837, 426.9033
213.8658, 413.0713
214.3479, 399.2293
214.8300, 385.1450
215.3121, 371.0883
215.7943, 357.6655
216.2764, 345.0039
216.7585, 332.9256
217.2406, 321.2804
217.7227, 310.2782
218.2048, 299.3550
218.6870, 288.3410
219.1691, 277.5051
219.6512, 267.1552
220.1333, 257.0551
220.6154, 247.8143
221.0975, 239.6157
221.5797, 232.9006
222.0618, 226.1991
222.5439, 219.5098
223.0260, 212.8578
223.5081, 206.0139
223.9902, 198.6508
224.4724, 191.7560
224.9545, 185.9854
225.4366, 181.7098
225.9187, 177.2528
226.4008, 172.5233
226.8829, 167.6194
227.3651, 162.6655
227.8472, 157.3577
228.3293, 152.4095
228.8114, 148.1161
229.2935, 144.6415
229.7757, 141.3508
230.2578, 138.3175
230.7399, 135.4616
231.2220, 132.5951
231.7041, 129.7873
232.1862, 126.8783
232.6684, 123.7229
233.1505, 120.0730
233.6326, 116.9947
234.1147, 114.6729
234.5968, 112.8166
235.0789, 110.9726
235.5611, 109.2010
236.0432, 107.3518
236.5253, 105.3077
237.0074, 102.9929
237.4895, 100.8712
237.9716, 98.94388
238.4538, 97.20947
238.9359, 95.68562
239.4180, 94.43780
239.9001, 93.26815
240.3822, 92.10630
240.8643, 90.94411
241.3465, 89.86905
241.8286, 88.83508
242.3107, 87.91970
242.7928, 87.24377
243.2749, 86.88506
243.7570, 86.63114
244.2392, 86.43539
244.7213, 86.30113
245.2034, 86.20338
245.6855, 86.15401
246.1676, 86.13091
246.6497, 86.11533
247.1319, 86.14534
247.6140, 86.11691
248.0961, 86.00729
248.5782, 85.81483
249.0603, 85.55286
249.5424, 85.19367
250.0246, 84.79127
250.5067, 84.34814
250.9888, 83.64854
251.4709, 83.34639
251.9530, 83.70107
252.4351, 84.75950
252.9173, 85.54322
253.3994, 85.90212
253.8815, 86.17007
254.3636, 86.64445
254.8457, 87.28202
255.3278, 88.20286
255.8100, 89.43370
256.2921, 90.97945
256.7742, 92.76769
257.2563, 94.75941
257.7384, 97.03964
258.2205, 99.63960
258.7026, 102.5646
259.1848, 105.8354
259.6669, 109.3779
260.1490, 113.2517
260.6311, 117.7382
261.1132, 123.0108
261.5953, 128.6009
262.0775, 134.4186
262.5596, 141.2859
263.0417, 146.1936
263.5238, 149.1048
264.0059, 149.8253
264.4880, 147.3347
264.9702, 141.1686
265.4523, 132.6940
265.9344, 122.2267
266.4165, 108.6916
266.8986, 96.74728
267.3807, 86.70136
267.8629, 78.42524
268.3450, 71.48886
268.8271, 66.02415
269.3092, 61.39532
269.7913, 57.12182
270.2734, 53.14591
270.7556, 49.97361
271.2377, 47.69881
271.7198, 46.14869
272.2019, 45.00438
272.6840, 44.38806
273.1661, 43.75985
273.6483, 42.80142
274.1304, 41.44863
274.6125, 40.31644
275.0946, 39.43173
275.5767, 38.75468
276.0588, 38.28776
276.5410, 38.09116
277.0231, 37.79010
277.5052, 37.15146
277.9873, 36.16240
278.4694, 35.44697
278.9515, 35.05433
279.4337, 34.82917
279.9158, 34.54731
280.3979, 34.19666
280.8800, 33.92622
281.3621, 33.84716
281.8442, 33.92623
282.3264, 33.80869
282.8085, 33.44373
283.2906, 33.05983
283.7727, 32.98860
284.2548, 33.23493
284.7369, 33.34422
285.2191, 33.14093
285.7012, 32.70495
286.1833, 32.33409
286.6654, 32.02725
287.1475, 31.79195
287.6296, 31.70532
288.1118, 31.74266
288.5939, 31.63345
289.0760, 31.24544
289.5581, 30.72386
290.0402, 30.46358
290.5223, 30.47196
291.0045, 30.48483
291.4866, 30.18591
291.9687, 29.67563
292.4508, 29.48870
292.9329, 29.84780
293.4150, 30.37106
293.8972, 30.32468
294.3793, 29.75512
294.8614, 29.19876
295.3435, 29.07101
295.8256, 29.23819
296.3077, 29.34052
296.7899, 29.33265
297.2720, 29.25425
297.7541, 29.14069
298.2362, 28.99717
298.7183, 28.84386
299.2004, 28.71315
299.6826, 28.57622
300.1647, 28.35319
300.6468, 28.02452
301.1289, 27.70181
301.6110, 27.49953
302.0931, 27.39335
302.5753, 27.31379
303.0574, 27.27661
303.5395, 27.22785
304.0216, 27.06071
304.5037, 26.76842
304.9858, 26.51368
305.4680, 26.50126
305.9501, 26.61038
306.4322, 26.63262
306.9143, 26.39713
307.3964, 26.11247
307.8785, 25.93456
308.3607, 25.86652
308.8428, 25.92240
309.3249, 26.31152
309.8070, 26.75983
310.2891, 26.92739
310.7712, 26.54949
311.2534, 26.08540
311.7355, 25.88099
312.2176, 25.86678
312.6997, 25.79189
313.1818, 25.31491
313.6639, 24.83886
314.1461, 24.73782
314.6282, 25.28592
315.1103, 25.78623
315.5924, 25.81683
316.0745, 25.54866
316.5566, 25.33761
317.0388, 25.33954
317.5209, 25.43259
318.0030, 25.58187
318.4851, 25.82040
318.9672, 25.95873
319.4493, 25.85210
319.9315, 25.62939
320.4136, 25.45977
320.8957, 25.43841
321.3778, 25.43639
321.8599, 25.43618
322.3420, 25.44423
322.8242, 25.34991
323.3063, 24.94283
323.7884, 24.51291
324.2705, 24.31305
324.7526, 24.74006
325.2347, 25.02201
325.7169, 24.95535
326.1990, 24.56543
326.6811, 24.17484
327.1632, 23.71891
327.6453, 23.32732
328.1274, 23.07221
328.6096, 22.97422
329.0917, 22.98998
329.5738, 23.17491
330.0559, 23.47810
330.5380, 23.74745
331.0201, 24.07572
331.5023, 24.26877
331.9844, 24.21598
332.4665, 23.74985
332.9486, 23.43679
333.4307, 23.21555
333.9128, 23.18172
334.3950, 23.56123
334.8771, 24.66516
335.3592, 25.60508
335.8413, 26.08423
336.3234, 26.06753
336.8055, 25.93229
337.2877, 25.54108
337.7698, 25.22342
338.2519, 25.43653
338.7340, 26.36893
339.2161, 27.07533
339.6982, 27.26850
340.1803, 27.05498
340.6624, 27.11267
341.1446, 27.51317
341.6267, 27.95144
342.1088, 28.15491
342.5909, 28.10941
343.0730, 28.21271
343.5551, 28.55048
344.0373, 29.02637
344.5194, 29.37685
345.0015, 29.59491
345.4836, 29.90054
345.9657, 30.53104
346.4478, 31.40095
346.9300, 31.97157
347.4121, 32.14168
347.8942, 32.28257
348.3763, 32.88963
348.8584, 33.92291
349.3405, 35.15306
349.8227, 36.43950
350.3048, 37.86024
350.7869, 39.61214
351.2690, 41.69081
351.7511, 43.95395
352.2332, 46.26419
352.7154, 48.64183
353.1975, 51.17613
353.6796, 54.23955
354.1617, 57.11622
354.6438, 59.36018
355.1259, 60.85516
355.6081, 60.98463
356.0902, 58.69759
356.5723, 55.08720
357.0544, 51.30023
357.5365, 47.47659
358.0186, 43.82518
358.5008, 40.34029
358.9829, 37.14037
359.4650, 34.47937
359.9471, 32.60078
360.4292, 31.20676
360.9113, 30.17202
361.3935, 29.52334
361.8756, 29.00969
362.3577, 28.51331
362.8398, 28.10508
363.3219, 27.86548
363.8040, 28.04557
364.2862, 28.17512
364.7683, 28.02895
365.2504, 27.62455
365.7325, 27.36831
366.2146, 27.48595
366.6967, 27.68135
367.1789, 27.77058
367.6610, 27.49873
368.1431, 27.40001
368.6252, 27.65212
369.1073, 28.12359
369.5894, 28.39134
370.0716, 28.27646
370.5537, 28.14339
371.0358, 28.11116
371.5179, 28.19032
372.0000, 28.34308
372.4821, 28.60094
372.9643, 28.90863
373.4464, 29.20608
373.9285, 29.53447
374.4106, 29.74894
374.8927, 29.74889
375.3748, 29.55023
375.8570, 29.62451
376.3391, 30.05243
376.8212, 30.58439
377.3033, 31.00196
377.7854, 31.27501
378.2675, 31.65435
378.7497, 32.21625
379.2318, 32.86740
379.7139, 33.35980
380.1960, 33.67402
380.6781, 34.01245
381.1602, 34.46580
381.6424, 35.03456
382.1245, 35.70244
382.6066, 36.46216
383.0887, 37.37316
383.5708, 38.65091
384.0529, 40.20114
384.5351, 41.62400
385.0172, 42.63365
385.4993, 43.45429
385.9814, 44.53170
386.4635, 45.84729
386.9456, 47.20676
387.4278, 48.35905
387.9099, 49.45192
388.3920, 50.71978
388.8741, 52.15685
389.3562, 53.88849
389.8383, 56.14902
390.3205, 58.83457
390.8026, 61.59181
391.2847, 64.19286
391.7668, 66.81222
392.2489, 69.80640
392.7310, 73.37746
393.2132, 76.34453
393.6953, 77.87606
394.1774, 78.53282
394.6595, 78.99548
395.1416, 79.16723
395.6237, 79.46107
396.1059, 79.74971
396.5880, 80.09798
397.0701, 81.42411
397.5522, 84.12029
398.0343, 87.69841
398.5164, 91.88167
398.9986, 97.39804
399.4807, 102.5485
399.9628, 107.7491
400.4449, 112.5299
400.9270, 115.9336
401.4091, 119.2070
401.8913, 119.4332
402.3734, 115.1906
402.8555, 105.6919
403.3376, 95.97755
403.8197, 85.45123
404.3018, 75.40147
404.7840, 67.19741
405.2661, 60.97013
405.7482, 56.13776
406.2303, 52.76617
406.7124, 50.64297
407.1945, 48.77040
407.6767, 47.12897
408.1588, 45.83217
408.6409, 45.05257
409.1230, 44.76262
409.6051, 44.49604
410.0872, 44.22073
410.5694, 43.94218
411.0515, 43.66026
411.5336, 43.37931
412.0157, 43.13276
412.4978, 42.89981
412.9799, 42.72246
413.4621, 42.68917
413.9442, 42.79878
414.4263, 43.00005
414.9084, 43.34407
415.3905, 43.73228
415.8727, 44.01257
416.3548, 44.14208
416.8369, 44.15857
417.3190, 44.06448
417.8011, 43.88066
418.2832, 43.65936
418.7654, 43.21113
419.2475, 42.88517
419.7296, 43.03573
420.2117, 43.79978
420.6938, 44.38745
421.1759, 44.25101
421.6581, 43.87252
422.1402, 43.76158
422.6223, 44.35178
423.1044, 44.89183
423.5865, 45.10915
424.0686, 45.06027
424.5508, 45.21421
425.0329, 45.82832
425.5150, 46.47949
425.9971, 46.96851
426.4792, 47.16107
426.9613, 47.47099
427.4435, 47.94244
427.9256, 48.50589
428.4077, 49.02160
428.8898, 49.38159
429.3719, 49.95178
429.8540, 50.84027
430.3362, 52.03155
430.8183, 53.44566
431.3004, 55.15660
431.7825, 56.85607
432.2646, 58.18568
432.7467, 59.13768
433.2289, 60.40892
433.7110, 62.10506
434.1931, 64.09631
434.6752, 66.16581
435.1573, 68.31418
435.6394, 70.55267
436.1216, 72.74100
436.6037, 75.05893
437.0858, 77.91484
437.5679, 81.33337
438.0500, 85.00957
438.5321, 88.65112
439.0142, 92.37193
439.4963, 96.33773
439.9785, 100.4480
440.4606, 105.0481
440.9427, 110.0970
441.4248, 115.7815
441.9069, 122.6127
442.3890, 130.8645
442.8712, 140.3279
443.3533, 150.8806
443.8354, 162.5100
444.3175, 175.2842
444.7996, 188.4201
445.2817, 202.9079
445.7639, 219.8968
446.2460, 240.6649
446.7281, 262.8500
447.2102, 286.1403
447.6923, 310.5467
448.1744, 335.3736
448.6566, 361.7065
449.1387, 387.4081
449.6208, 411.4314
450.1029, 433.4818
450.5850, 455.0919
451.0671, 475.6460
451.5493, 496.1055
452.0314, 517.4532
452.5135, 539.1508
452.9956, 563.2454
453.4777, 589.9579
453.9598, 619.2504
454.4420, 651.5192
454.9241, 686.3837
455.4062, 725.2008
455.8883, 767.9264
456.3704, 814.9568
456.8525, 867.7418
457.3347, 925.3881
457.8168, 989.0678
458.2989, 1059.969
458.7810, 1137.625
459.2631, 1218.297
459.7452, 1301.423
460.2274, 1387.506
460.7095, 1478.305
461.1916, 1573.983
461.6737, 1666.252
462.1558, 1758.460
462.6379, 1841.708
463.1201, 1910.201
463.6022, 1969.188
464.0843, 1999.775
464.5664, 1992.506
465.0485, 1952.428
465.5306, 1887.589
466.0128, 1788.766
466.4949, 1676.552
466.9770, 1552.291
467.4591, 1415.735
467.9412, 1287.176
468.4233, 1164.332
468.9055, 1050.659
469.3876, 946.6133
469.8697, 851.7059
470.3518, 768.0540
470.8339, 696.2853
471.3160, 634.5290
471.7982, 579.1714
472.2803, 530.5720
472.7624, 486.7440
473.2445, 447.5924
473.7266, 412.8797
474.2087, 382.8408
474.6909, 357.7913
475.1730, 335.4311
475.6551, 314.0774
476.1372, 294.0067
476.6193, 276.5318
477.1014, 262.2916
477.5836, 249.8413
478.0657, 237.6114
478.5478, 225.7574
479.0299, 214.9522
479.5120, 205.7963
479.9941, 197.4767
480.4763, 189.2762
480.9584, 181.2049
481.4405, 173.8240
481.9226, 167.8341
482.4047, 162.4364
482.8868, 156.9012
483.3690, 150.7736
483.8511, 145.2856
484.3332, 141.0817
484.8153, 137.6986
485.2974, 134.2890
485.7795, 130.8129
486.2617, 127.2645
486.7438, 123.4644
487.2259, 119.4163
487.7080, 116.0530
488.1901, 113.5893
488.6722, 111.4934
489.1544, 109.4761
489.6365, 107.6204
490.1186, 105.5628
490.6007, 103.1941
491.0828, 100.7609
491.5649, 98.60302
492.0471, 96.74513
492.5292, 94.99934
493.0113, 93.35779
493.4934, 91.78175
493.9755, 90.04945
494.4576, 88.18945
494.9398, 86.52324
495.4219, 85.35824
495.9040, 84.54236
496.3861, 83.88477
496.8682, 83.37619
497.3503, 82.87487
497.8325, 82.17722
498.3146, 81.42366
498.7967, 80.81762
499.2788, 80.66261
499.7609, 80.47444
500.2430, 80.02016
500.7252, 79.33405
501.2073, 78.55489
501.6894, 77.43899
502.1715, 76.48246
502.6536, 76.00522
503.1357, 76.36417
503.6179, 76.26199
504.1000, 75.53088
504.5821, 74.41991
505.0642, 73.16373
505.5463, 71.76637
506.0284, 70.18094
506.5106, 68.23192
506.9927, 66.15578
507.4748, 64.84385
507.9569, 64.44840
508.4390, 64.07526
508.9211, 63.18792
509.4033, 61.87570
509.8854, 60.93919
510.3675, 60.41386
510.8496, 59.96410
511.3317, 59.23513
511.8138, 58.31535
512.2960, 57.44446
512.7781, 56.63232
513.2602, 55.94724
513.7423, 55.53468
514.2244, 55.30696
514.7065, 55.04990
515.1887, 54.63246
515.6708, 54.17229
516.1529, 53.76663
516.6350, 53.41383
517.1171, 53.00061
517.5992, 52.31254
518.0814, 51.67187
518.5635, 51.31627
519.0456, 51.64877
519.5277, 51.63869
520.0098, 50.93718
520.4919, 49.99790
520.9741, 49.51640
521.4562, 49.75233
521.9383, 49.93459
522.4204, 49.88579
522.9025, 49.63936
523.3846, 49.39675
523.8668, 49.15502
524.3489, 48.93380
524.8310, 48.68896
525.3131, 48.44524
525.7952, 48.47375
526.2773, 48.82153
526.7595, 49.22920
527.2416, 49.36244
527.7237, 49.31847
528.2058, 49.35146
528.6879, 49.56353
529.1700, 49.84410
529.6522, 50.14436
530.1343, 50.43250
530.6164, 50.62447
531.0985, 50.53674
531.5806, 50.44931
532.0627, 50.67155
532.5449, 51.26167
533.0270, 51.42223
533.5091, 50.77107
533.9912, 49.71078
534.4733, 48.52936
534.9554, 47.09725
535.4376, 45.72509
535.9197, 44.38682
536.4018, 43.12777
536.8839, 42.07494
537.3660, 41.26088
537.8481, 40.53760
538.3303, 39.84145
538.8124, 39.19952
539.2945, 38.76080
539.7766, 38.53904
540.2587, 38.40393
540.7408, 38.33675
541.2230, 38.29171
541.7051, 38.11097
542.1872, 37.78599
542.6693, 37.31361
543.1514, 36.43337
543.6335, 35.44191
544.1157, 34.90561
544.5978, 35.35490
545.0799, 35.80457
545.5620, 35.37437
546.0441, 34.40531
546.5262, 33.74015
547.0084, 34.00356
547.4905, 34.35733
547.9726, 34.47208
548.4547, 34.31647
548.9368, 34.04731
549.4189, 33.67978
549.9011, 33.20118
550.3832, 32.57622
550.8653, 31.65731
551.3474, 30.92962
551.8295, 30.40954
552.3116, 30.07767
552.7938, 29.99790
553.2759, 30.21569
553.7580, 30.22080
554.2401, 29.79059
554.7222, 29.13618
555.2043, 28.79958
555.6865, 28.76163
556.1686, 28.77751
556.6507, 28.70882
557.1328, 28.59612
557.6149, 28.49222
558.0970, 28.40028
558.5792, 28.32725
559.0613, 28.35106
559.5434, 28.36271
560.0255, 28.23040
560.5076, 27.78742
560.9897, 27.44972
561.4719, 27.43660
561.9540, 27.59751
562.4361, 27.68165
562.9182, 27.70871
563.4003, 27.58606
563.8824, 27.16395
564.3646, 26.52751
564.8467, 26.30712
565.3288, 26.69128
565.8109, 27.10129
566.2930, 27.19921
566.7751, 26.96670
567.2573, 26.94214
567.7394, 27.16218
568.2215, 27.41953
568.7036, 27.48782
569.1857, 27.40982
569.6678, 27.33838
570.1500, 27.29168
570.6321, 27.29663
571.1142, 27.41834
571.5963, 27.61596
572.0784, 27.79664
572.5605, 27.88583
573.0427, 27.97665
573.5248, 28.16498
574.0069, 28.42543
574.4890, 28.59900
574.9711, 28.48679
575.4532, 28.39449
575.9354, 28.48271
576.4175, 28.80642
576.8996, 29.14573
577.3817, 29.52105
577.8638, 29.88797
578.3459, 30.17940
578.8281, 30.32843
579.3102, 30.69515
579.7923, 31.40602
580.2744, 32.21978
580.7565, 32.57373
581.2386, 32.50041
581.7208, 32.58749
582.2029, 33.19444
582.6850, 34.00742
583.1671, 34.47355
583.6492, 34.63005
584.1313, 34.69769
584.6135, 34.83612
585.0956, 34.94049
585.5776, 34.90796
586.0598, 34.72204
586.5419, 34.46193
587.0240, 34.00109
587.5061, 33.57009
587.9882, 33.36440
588.4703, 33.69201
588.9525, 33.85677
