##NAMES=Quartz
##RRUFFID=R040031
##IDEAL CHEMISTRY=SiO_2_
##LOCALITY=Spruce Claim, King County, Washington, USA
##OWNER=RRUFF
##SOURCE=Bob Downs
##DESCRIPTION=Colorless hexagonal prism
##STATUS=The identification of this mineral has been confirmed by X-ray diffraction and chemical analysis
##URL=rruff.info/R040031
##MEASURED CHEMISTRY=Si_1.00_O_2_
113.1730, 200.0811
113.6551, 209.4138
114.1373, 219.9703
114.6194, 230.7797
115.1015, 241.1838
115.5836, 250.7773
116.0657, 260.1132
116.5478, 269.0828
117.0300, 277.7660
117.5121, 286.7027
117.9942, 294.9904
118.4763, 303.8994
118.9584, 315.0174
119.4405, 328.9486
119.9227, 345.4678
120.4048, 363.9273
120.8869, 383.9688
121.3690, 407.6230
121.8511, 436.4055
122.3332, 469.7215
122.8154, 506.3188
123.2975, 542.8520
123.7796, 583.3085
124.2617, 633.4717
124.7438, 695.7286
125.2259, 762.7213
125.7081, 835.7106
126.1902, 910.1558
126.6723, 964.3698
127.1544, 995.2623
127.6365, 1002.378
128.1186, 976.4509
128.6008, 908.8278
129.0829, 817.7687
129.5650, 722.4937
130.0471, 623.5471
130.5292, 532.4377
131.0113, 457.9790
131.4935, 398.8480
131.9756, 350.6635
132.4577, 314.1256
132.9398, 286.9104
133.4219, 264.5284
133.9040, 246.8650
134.3862, 232.9931
134.8683, 222.6844
135.3504, 215.8061
135.8325, 210.6619
136.3146, 207.0337
136.7967, 204.8087
137.2789, 202.7096
137.7610, 200.5830
138.2431, 198.8670
138.7252, 198.3874
139.2073, 199.4449
139.6894, 200.2421
140.1716, 199.8786
140.6537, 198.0602
141.1358, 197.4105
141.6179, 198.3014
142.1000, 199.9654
142.5821, 200.9776
143.0643, 201.2429
143.5464, 201.1041
144.0285, 200.6185
144.5106, 199.5419
144.9927, 198.7954
145.4748, 198.6163
145.9570, 198.7296
146.4391, 198.3387
146.9212, 197.2198
147.4033, 195.8715
147.8854, 194.4981
148.3675, 193.0823
148.8497, 191.6755
149.3318, 190.2955
149.8139, 188.9398
150.2960, 187.5970
150.7781, 186.4374
151.2602, 185.1706
151.7424, 183.6517
152.2245, 181.4138
152.7066, 179.4525
153.1887, 177.7927
153.6708, 176.4538
154.1529, 175.5008
154.6351, 175.1490
155.1172, 175.0470
155.5993, 174.9572
156.0814, 174.8636
156.5635, 174.7672
157.0456, 174.5183
157.5278, 174.1223
158.0099, 174.1837
158.4920, 174.8883
158.9741, 176.0702
159.4562, 177.5816
159.9383, 179.6305
160.4205, 181.7841
160.9026, 183.7479
161.3847, 185.4718
161.8668, 187.7265
162.3489, 191.1825
162.8310, 195.1939
163.3132, 199.0075
163.7953, 201.7253
164.2774, 204.6780
164.7595, 208.8077
165.2416, 214.4024
165.7237, 219.6735
166.2059, 223.4490
166.6880, 226.4217
167.1701, 229.6460
167.6522, 233.5628
168.1343, 237.8920
168.6164, 242.4144
169.0985, 247.0939
169.5807, 252.1129
170.0628, 257.7256
170.5449, 263.7719
171.0270, 269.8951
171.5091, 275.9436
171.9912, 281.9776
172.4734, 287.9202
172.9555, 293.6249
173.4376, 299.8017
173.9197, 307.1863
174.4018, 315.5668
174.8839, 324.3253
175.3661, 332.4089
175.8482, 340.8060
176.3303, 350.8528
176.8124, 363.0241
177.2945, 376.3423
177.7766, 390.5347
178.2588, 405.3657
178.7409, 419.2374
179.2230, 429.8044
179.7051, 439.0737
180.1872, 450.6891
180.6693, 465.7008
181.1515, 482.6878
181.6336, 500.1688
182.1157, 518.0322
182.5978, 535.4108
183.0799, 551.0090
183.5620, 565.7756
184.0442, 581.9484
184.5263, 600.1754
185.0084, 619.9228
185.4905, 641.0126
185.9726, 663.3298
186.4547, 686.2108
186.9369, 708.8802
187.4190, 731.7264
187.9011, 755.2784
188.3832, 779.6826
188.8653, 805.1843
189.3474, 832.9460
189.8296, 863.2875
190.3117, 893.9998
190.7938, 923.6862
191.2759, 952.3544
191.7580, 979.4984
192.2401, 1004.011
192.7223, 1027.753
193.2044, 1057.235
193.6865, 1093.290
194.1686, 1130.820
194.6507, 1165.018
195.1328, 1196.007
195.6150, 1226.437
196.0971, 1256.605
196.5792, 1286.491
197.0613, 1315.911
197.5434, 1344.620
198.0255, 1373.605
198.5077, 1403.851
198.9898, 1435.631
199.4719, 1465.151
199.9540, 1491.864
200.4361, 1515.528
200.9182, 1534.893
201.4004, 1549.156
201.8825, 1561.236
202.3646, 1575.145
202.8467, 1591.563
203.3288, 1603.285
203.8109, 1608.431
204.2931, 1607.327
204.7752, 1602.458
205.2573, 1593.770
205.7394, 1581.499
206.2215, 1565.388
206.7036, 1545.194
207.1858, 1523.310
207.6679, 1500.443
208.1500, 1476.509
208.6321, 1450.220
209.1142, 1421.498
209.5963, 1390.573
210.0785, 1357.046
210.5606, 1320.332
211.0427, 1284.040
211.5248, 1249.014
212.0069, 1215.212
212.4890, 1180.769
212.9712, 1145.799
213.4533, 1109.872
213.9354, 1072.526
214.4175, 1032.434
214.8996, 993.9608
215.3817, 957.7527
215.8639, 924.1091
216.3460, 891.7845
216.8281, 860.9832
217.3102, 831.0798
217.7923, 801.4871
218.2744, 771.2146
218.7565, 743.1708
219.2387, 719.1622
219.7208, 699.0743
220.2029, 677.7025
220.6850, 654.2031
221.1671, 630.6350
221.6492, 609.8036
222.1314, 592.5141
222.6135, 575.6735
223.0956, 558.9974
223.5777, 542.2688
224.0598, 525.6456
224.5419, 508.5703
225.0241, 492.0570
225.5062, 476.9610
225.9883, 463.8226
226.4704, 451.1688
226.9525, 438.8640
227.4346, 426.7183
227.9168, 415.6125
228.3989, 405.9428
228.8810, 396.8900
229.3631, 387.7931
229.8452, 378.5037
230.3273, 369.2509
230.8095, 359.8946
231.2916, 350.3970
231.7737, 341.9415
232.2558, 335.0428
232.7379, 328.6523
233.2200, 321.7218
233.7022, 313.6556
234.1843, 306.2707
234.6664, 300.1899
235.1485, 295.4877
235.6306, 290.1845
236.1127, 283.6746
236.5949, 277.1115
237.0770, 271.5938
237.5591, 267.5820
238.0412, 263.7308
238.5233, 259.7789
239.0054, 255.7117
239.4876, 252.1234
239.9697, 249.1928
240.4518, 246.5149
240.9339, 243.6640
241.4160, 240.2273
241.8981, 237.4319
242.3803, 235.4654
242.8624, 234.3233
243.3445, 234.0641
243.8266, 235.3150
244.3087, 236.7350
244.7908, 237.1510
245.2730, 235.9509
245.7551, 235.0096
246.2372, 234.9203
246.7193, 235.5368
247.2014, 234.6698
247.6835, 231.1912
248.1657, 227.5944
248.6478, 225.9193
249.1299, 227.1363
249.6120, 228.1295
250.0941, 228.4712
250.5762, 228.2455
251.0584, 228.1467
251.5405, 228.3300
252.0226, 228.4386
252.5047, 228.1250
252.9868, 226.9403
253.4689, 226.3937
253.9511, 226.7054
254.4332, 227.7993
254.9153, 229.2247
255.3974, 231.0139
255.8795, 233.0879
256.3616, 235.2518
256.8438, 237.1180
257.3259, 240.1375
257.8080, 244.5977
258.2901, 250.2644
258.7722, 256.2698
259.2543, 262.1492
259.7365, 269.2029
260.2186, 278.4601
260.7007, 290.4043
261.1828, 302.9181
261.6649, 316.3660
262.1470, 330.1144
262.6292, 343.3641
263.1113, 357.7009
263.5934, 368.0721
264.0755, 372.3759
264.5576, 371.0489
265.0397, 361.6904
265.5219, 342.3129
266.0040, 316.1183
266.4861, 288.9916
266.9682, 259.9254
267.4503, 232.9431
267.9324, 210.5090
268.4146, 192.7498
268.8967, 177.4502
269.3788, 164.7616
269.8609, 154.3628
270.3430, 146.2247
270.8251, 140.8330
271.3073, 136.1109
271.7894, 131.1908
272.2715, 125.9333
272.7536, 121.9639
273.2357, 119.6044
273.7178, 118.1178
274.2000, 116.3128
274.6821, 114.0442
275.1642, 112.1713
275.6463, 111.2943
276.1284, 111.4170
276.6105, 110.3245
277.0927, 107.7094
277.5748, 104.5478
278.0569, 101.9869
278.5390, 100.0592
279.0211, 98.53632
279.5032, 97.44966
279.9854, 96.76348
280.4675, 96.03885
280.9496, 95.23552
281.4317, 94.53123
281.9138, 94.22891
282.3959, 94.35185
282.8781, 94.27000
283.3602, 93.83509
283.8423, 93.06604
284.3244, 91.88793
284.8065, 90.19720
285.2886, 88.70412
285.7708, 88.35909
286.2529, 89.07497
286.7350, 89.13856
287.2171, 87.95342
287.6992, 86.04826
288.1813, 84.99255
288.6635, 84.82057
289.1456, 84.73314
289.6277, 83.87261
290.1098, 82.41839
290.5919, 81.72160
291.0740, 82.25903
291.5562, 83.24459
292.0383, 82.99098
292.5204, 81.55308
293.0025, 80.13541
293.4846, 79.65082
293.9667, 79.84042
294.4489, 79.73871
294.9310, 79.13604
295.4131, 78.47120
295.8952, 78.64783
296.3773, 79.49629
296.8594, 79.93169
297.3416, 78.90043
297.8237, 77.05859
298.3058, 75.93382
298.7879, 75.67659
299.2700, 75.87275
299.7521, 76.30911
300.2343, 76.86191
300.7164, 77.11059
301.1985, 76.63591
301.6806, 75.80505
302.1627, 75.18107
302.6448, 74.78088
303.1270, 74.50523
303.6091, 74.23457
304.0912, 74.01845
304.5733, 73.94798
305.0554, 74.18456
305.5375, 74.51971
306.0197, 74.72408
306.5018, 74.80141
306.9839, 74.83486
307.4660, 74.85905
307.9481, 74.88329
308.4302, 74.92583
308.9124, 75.06117
309.3945, 75.14915
309.8766, 75.01675
310.3587, 74.70623
310.8408, 74.44550
311.3229, 74.44064
311.8051, 74.52289
312.2872, 74.51884
312.7693, 74.35437
313.2514, 74.15392
313.7335, 73.95872
314.2156, 73.77962
314.6978, 73.64526
315.1799, 73.60165
315.6620, 73.58652
316.1441, 73.58855
316.6262, 73.67287
317.1083, 73.58934
317.5905, 72.92696
318.0726, 72.05760
318.5547, 71.62253
319.0368, 72.29584
319.5189, 73.10784
320.0010, 73.64064
320.4832, 73.86702
320.9653, 73.76620
321.4474, 72.75309
321.9295, 71.60191
322.4116, 71.21868
322.8937, 73.10223
323.3759, 74.52516
323.8580, 74.39803
324.3401, 72.59637
324.8222, 71.23360
325.3043, 71.01060
325.7864, 71.12902
326.2686, 70.97321
326.7507, 69.61931
327.2328, 68.94498
327.7149, 69.69769
328.1970, 71.67920
328.6791, 72.76707
329.1613, 71.92074
329.6434, 70.96790
330.1255, 70.83939
330.6076, 72.35700
331.0897, 73.50072
331.5718, 73.95922
332.0540, 74.02895
332.5361, 74.55132
333.0182, 75.59525
333.5003, 77.00957
333.9824, 78.73673
334.4645, 80.82032
334.9467, 83.10439
335.4288, 85.48963
335.9109, 88.13412
336.3930, 91.35693
336.8751, 95.57967
337.3572, 99.46233
337.8394, 102.6357
338.3215, 105.0567
338.8036, 107.0796
339.2857, 108.4984
339.7678, 109.8843
340.2499, 111.8631
340.7320, 114.4225
341.2141, 117.4836
341.6963, 121.1950
342.1784, 125.3563
342.6605, 128.8140
343.1426, 131.3703
343.6247, 134.0129
344.1068, 137.5192
344.5890, 141.8174
345.0711, 146.4859
345.5532, 151.5395
346.0353, 156.7537
346.5174, 160.7237
346.9995, 163.5305
347.4817, 168.3067
347.9638, 177.2472
348.4459, 189.7554
348.9280, 203.6663
349.4101, 218.6978
349.8922, 235.3975
350.3744, 253.8801
350.8565, 274.2224
351.3386, 297.2720
351.8207, 324.3547
352.3028, 353.8273
352.7849, 385.2881
353.2671, 419.0690
353.7492, 448.8694
354.2313, 474.8740
354.7134, 492.4966
355.1955, 493.5195
355.6776, 470.4301
356.1598, 433.9307
356.6419, 388.1922
357.1240, 335.2463
357.6061, 286.0023
358.0882, 245.8396
358.5703, 213.0822
359.0525, 187.0621
359.5346, 168.9214
360.0167, 154.6836
360.4988, 143.1158
360.9809, 133.8540
361.4630, 126.2402
361.9452, 120.6852
362.4273, 116.1867
362.9094, 112.2060
363.3915, 108.6502
363.8736, 105.7451
364.3557, 103.9833
364.8379, 102.7960
365.3200, 101.5300
365.8021, 99.89269
366.2842, 98.29796
366.7663, 96.79998
367.2484, 95.39436
367.7306, 94.32719
368.2127, 94.04333
368.6948, 93.85284
369.1769, 93.29249
369.6590, 91.37270
370.1411, 90.30156
370.6233, 90.77160
371.1054, 92.25727
371.5875, 92.71227
372.0696, 91.28848
372.5517, 89.86137
373.0338, 89.26037
373.5160, 89.89816
373.9981, 90.13492
374.4802, 89.67933
374.9623, 89.05743
375.4444, 89.25535
375.9265, 90.72014
376.4087, 91.74039
376.8908, 91.60994
377.3729, 90.38479
377.8550, 89.86266
378.3371, 90.18534
378.8192, 90.84468
379.3014, 91.35741
379.7835, 91.71876
380.2656, 92.14063
380.7477, 92.67260
381.2298, 93.27831
381.7119, 93.77257
382.1941, 94.14176
382.6762, 94.81418
383.1583, 96.25694
383.6404, 98.27950
384.1225, 100.0907
384.6046, 101.6008
385.0868, 102.9341
385.5689, 104.0778
386.0510, 105.1386
386.5331, 106.5236
387.0152, 108.5185
387.4973, 110.9281
387.9795, 113.4995
388.4616, 116.2294
388.9437, 119.1471
389.4258, 121.9039
389.9079, 124.9669
390.3900, 129.0178
390.8722, 134.8530
391.3543, 141.0403
391.8364, 147.3254
392.3185, 153.2492
392.8006, 157.3388
393.2827, 159.0901
393.7649, 158.6124
394.2470, 155.5462
394.7291, 148.9047
395.2112, 142.3081
395.6933, 136.2199
396.1754, 131.1329
396.6576, 127.7863
397.1397, 126.9350
397.6218, 127.3007
398.1039, 128.5909
398.5860, 130.8075
399.0681, 133.6924
399.5503, 137.7363
400.0324, 142.1504
400.5145, 146.3527
400.9966, 151.2303
401.4787, 154.7355
401.9608, 157.0869
402.4430, 158.0095
402.9251, 156.3195
403.4072, 151.2845
403.8893, 144.7106
404.3714, 136.9801
404.8535, 127.2658
405.3357, 119.7210
405.8178, 114.8125
406.2999, 111.5522
406.7820, 108.6020
407.2641, 105.8901
407.7462, 103.9431
408.2284, 103.1821
408.7105, 103.3262
409.1926, 102.7450
409.6747, 101.3279
410.1568, 100.0054
410.6389, 99.61393
411.1211, 100.0428
411.6032, 100.6818
412.0853, 101.5019
412.5674, 102.3551
413.0495, 103.1155
413.5316, 103.7647
414.0138, 104.1894
414.4959, 103.9030
414.9780, 103.5128
415.4601, 104.1802
415.9422, 106.0427
416.4243, 107.7866
416.9065, 108.0181
417.3886, 107.5182
417.8707, 107.4430
418.3528, 108.4376
418.8349, 109.7510
419.3170, 111.0505
419.7992, 112.3229
420.2813, 113.4431
420.7634, 114.2774
421.2455, 115.0211
421.7276, 115.7942
422.2097, 116.6168
422.6919, 117.4832
423.1740, 118.4009
423.6561, 119.3620
424.1382, 120.3781
424.6203, 121.2349
425.1024, 122.3378
425.5846, 123.9060
426.0667, 125.9677
426.5488, 127.8421
427.0309, 129.4215
427.5130, 130.9296
427.9951, 132.5252
428.4773, 134.2492
428.9594, 135.9188
429.4415, 137.2597
429.9236, 138.6506
430.4057, 141.2608
430.8878, 145.4507
431.3700, 149.7136
431.8521, 153.3936
432.3342, 156.4924
432.8163, 159.4919
433.2984, 162.2867
433.7805, 165.3537
434.2627, 169.2603
434.7448, 173.9657
435.2269, 179.0282
435.7090, 184.3656
436.1911, 190.0631
436.6732, 196.0551
437.1554, 202.4204
437.6375, 209.6429
438.1196, 217.8522
438.6017, 227.1793
439.0838, 237.7752
439.5659, 249.6681
440.0480, 263.0004
440.5302, 278.1943
441.0123, 294.9839
441.4944, 312.9254
441.9765, 330.0439
442.4586, 349.7451
442.9407, 374.1336
443.4229, 402.9224
443.9050, 435.3065
444.3871, 470.0217
444.8692, 508.4324
445.3513, 551.5185
445.8334, 600.7036
446.3156, 652.4838
446.7977, 707.4775
447.2798, 764.1804
447.7619, 819.7402
448.2440, 871.6771
448.7261, 924.4803
449.2083, 978.0272
449.6904, 1032.413
450.1725, 1090.448
450.6546, 1152.486
451.1367, 1216.865
451.6188, 1281.206
452.1010, 1343.753
452.5831, 1413.730
453.0652, 1493.146
453.5473, 1580.462
454.0294, 1673.188
454.5115, 1771.218
454.9937, 1878.773
455.4758, 1998.768
455.9579, 2130.658
456.4400, 2272.081
456.9221, 2423.776
457.4042, 2588.976
457.8864, 2774.311
458.3685, 2976.629
458.8506, 3193.855
459.3327, 3426.841
459.8148, 3668.990
460.2969, 3918.282
460.7791, 4172.766
461.2612, 4418.111
461.7433, 4669.466
462.2254, 4894.831
462.7075, 5070.955
463.1896, 5199.345
463.6718, 5256.002
464.1539, 5228.475
464.6360, 5123.443
465.1181, 4947.034
465.6002, 4665.327
466.0823, 4351.559
466.5645, 4007.229
467.0466, 3642.252
467.5287, 3294.035
468.0108, 2955.596
468.4929, 2645.148
468.9750, 2369.237
469.4572, 2130.556
469.9393, 1919.154
470.4214, 1739.756
470.9035, 1585.143
471.3856, 1449.043
471.8677, 1333.437
472.3499, 1229.563
472.8320, 1134.376
473.3141, 1048.781
473.7962, 975.5817
474.2783, 915.5723
474.7604, 862.2670
475.2426, 812.4770
475.7247, 766.0978
476.2068, 724.2570
476.6889, 686.9636
477.1710, 652.8815
477.6531, 620.3011
478.1353, 589.7151
478.6174, 562.6100
479.0995, 540.3645
479.5816, 520.6875
480.0637, 501.4868
480.5458, 482.8587
481.0280, 465.5036
481.5101, 450.4987
481.9922, 436.4158
482.4743, 422.1544
482.9564, 407.3203
483.4385, 393.2798
483.9207, 380.7939
484.4028, 369.4230
484.8849, 358.7259
485.3670, 348.1876
485.8491, 338.9526
486.3312, 332.0588
486.8134, 326.9568
487.2955, 320.6790
487.7776, 312.3610
488.2597, 304.0985
488.7418, 296.6060
489.2239, 289.9153
489.7061, 284.2595
490.1882, 279.9377
490.6703, 276.2002
491.1524, 272.0853
491.6345, 267.4538
492.1166, 263.3086
492.5988, 259.8870
493.0809, 256.9114
493.5630, 253.7955
494.0451, 250.5120
494.5272, 247.1541
495.0093, 243.3438
495.4915, 239.5320
495.9736, 236.7876
496.4557, 235.1942
496.9378, 234.1418
497.4199, 233.6667
497.9020, 233.2645
498.3842, 232.0633
498.8663, 228.9090
499.3484, 226.1580
499.8305, 225.6526
500.3126, 226.7338
500.7947, 227.7213
501.2769, 227.0130
501.7590, 226.9308
502.2411, 228.6406
502.7232, 232.4060
503.2053, 236.7472
503.6874, 241.1570
504.1696, 246.2520
504.6517, 252.4819
505.1338, 260.7492
505.6159, 268.5996
506.0980, 276.1450
506.5801, 283.0294
507.0623, 288.7693
507.5444, 294.0143
508.0265, 296.2630
508.5086, 295.1989
508.9907, 290.5718
509.4728, 279.0128
509.9550, 259.9236
510.4371, 239.0663
510.9192, 220.4402
511.4013, 204.1767
511.8834, 191.4044
512.3655, 182.5622
512.8477, 175.9975
513.3298, 170.3179
513.8119, 165.4349
514.2940, 161.1366
514.7761, 157.0653
515.2582, 153.7489
515.7404, 152.0743
516.2225, 151.7774
516.7046, 150.9354
517.1867, 147.9588
517.6688, 144.6596
518.1509, 142.2154
518.6331, 141.0339
519.1152, 140.1034
519.5973, 139.8504
520.0794, 139.5391
520.5615, 138.2065
521.0436, 134.6155
521.5258, 131.9279
522.0079, 130.8786
522.4900, 131.1365
522.9721, 131.1610
523.4542, 130.9969
523.9363, 130.4712
524.4185, 129.2970
524.9006, 127.4774
525.3827, 126.2545
525.8648, 125.7214
526.3469, 125.2914
526.8290, 124.2487
527.3112, 122.7504
527.7933, 121.3418
528.2754, 120.0390
528.7575, 119.0698
529.2396, 118.9788
529.7217, 119.4767
530.2039, 119.7148
530.6860, 119.1231
531.1681, 118.2112
531.6502, 117.1605
532.1323, 115.9936
532.6144, 115.2230
533.0966, 115.3722
533.5787, 115.7718
534.0608, 115.9673
534.5429, 115.9544
535.0250, 115.6182
535.5071, 114.6544
535.9893, 113.4756
536.4714, 112.7187
536.9535, 112.6457
537.4356, 112.4841
537.9177, 112.0153
538.3998, 111.3116
538.8820, 110.8945
539.3641, 110.8436
539.8462, 110.7388
540.3283, 110.2846
540.8104, 109.5309
541.2925, 108.7094
541.7747, 107.7836
542.2568, 107.1261
542.7389, 107.4785
543.2210, 108.3982
543.7031, 108.8382
544.1852, 108.4357
544.6674, 107.5687
545.1495, 106.2562
545.6316, 104.7318
546.1137, 103.5791
546.5958, 103.2908
547.0779, 103.2492
547.5601, 103.2235
548.0422, 103.2004
548.5243, 102.9754
549.0064, 102.3992
549.4885, 101.6808
549.9706, 100.9520
550.4528, 100.2771
550.9349, 99.44556
551.4170, 98.23743
551.8991, 97.02807
552.3812, 96.41286
552.8633, 96.52502
553.3455, 96.69072
553.8276, 96.76035
554.3097, 96.76583
554.7918, 96.94940
555.2739, 97.30875
555.7560, 97.27428
556.2382, 96.15688
556.7203, 94.46107
557.2024, 93.33431
557.6845, 92.83945
558.1666, 92.50304
558.6487, 92.07573
559.1309, 91.52632
559.6130, 90.74257
560.0951, 89.33943
560.5772, 88.39071
561.0593, 88.93211
561.5414, 90.19662
562.0236, 90.82226
562.5057, 89.53557
562.9878, 88.56199
563.4699, 88.84843
563.9520, 90.21981
564.4341, 90.74934
564.9163, 90.04339
565.3984, 89.04072
565.8805, 88.02904
566.3626, 86.86504
566.8447, 86.73587
567.3268, 87.91432
567.8090, 89.35609
568.2911, 89.71768
568.7732, 89.14580
569.2553, 89.01441
569.7374, 89.81349
570.2195, 90.73747
570.7017, 90.53847
571.1838, 89.50038
571.6659, 88.53075
572.1480, 88.06924
572.6301, 87.86047
573.1122, 87.78557
573.5944, 87.81279
574.0765, 87.73102
574.5586, 87.25536
575.0407, 86.78452
575.5228, 86.55974
576.0049, 86.66651
576.4871, 86.87114
576.9692, 87.31377
577.4513, 87.74516
577.9334, 87.97004
578.4155, 88.08237
578.8976, 87.68116
579.3798, 86.43877
579.8619, 84.87633
580.3440, 84.32519
580.8261, 84.84024
581.3082, 85.67702
581.7903, 86.76660
582.2725, 87.88061
582.7546, 88.22951
583.2367, 87.86060
583.7188, 87.35274
584.2009, 86.71782
584.6830, 86.37502
585.1652, 87.25884
585.6473, 89.77522
586.1294, 91.54765
586.6115, 90.43764
587.0936, 88.20072
587.5757, 86.69521
588.0578, 87.02318
588.5399, 87.37412
589.0220, 87.42442
589.5042, 87.27753
589.9863, 87.16408
590.4684, 86.98615
590.9505, 87.01295
591.4326, 87.40708
591.9147, 88.10225
592.3969, 88.46407
592.8790, 88.42094
593.3611, 88.35453
593.8432, 88.70248
594.3253, 89.29921
594.8074, 89.17697
595.2896, 88.25468
595.7717, 87.05987
596.2538, 85.70537
596.7359, 84.52222
597.2180, 84.21017
597.7001, 85.31760
598.1823, 86.53915
598.6644, 87.30447
599.1465, 87.54012
599.6286, 87.11684
600.1107, 85.09789
600.5928, 83.34575
601.0750, 82.48325
601.5571, 82.45942
602.0392, 82.58418
602.5213, 83.13125
603.0034, 83.43554
603.4855, 83.09698
603.9677, 82.02957
604.4498, 81.59779
604.9319, 81.97780
605.4140, 82.43031
605.8961, 82.13777
606.3782, 81.23892
606.8604, 80.77615
607.3425, 80.97570
607.8246, 81.21645
608.3067, 80.61467
608.7888, 79.50031
609.2709, 78.57778
609.7531, 77.92513
610.2352, 77.75346
610.7173, 78.55070
611.1994, 79.96497
