##NAMES=Quartz
##RRUFFID=R100134
##IDEAL CHEMISTRY=SiO_2_
##LOCALITY=Sri Lanka
##OWNER=RRUFF
##SOURCE=William W. Pinch
##DESCRIPTION=Transparent colorless cut gemstone
##STATUS=The identification of this mineral has been confirmed by single-crystal X-ray diffraction.
##URL=rruff.info/R100134
90.60547, 235.0713
91.08759, 236.0171
91.56970, 238.4447
92.05182, 239.2348
92.53394, 240.6610
93.01605, 240.4741
93.49817, 237.4767
93.98029, 232.5121
94.46240, 228.2490
94.94452, 225.4971
95.42664, 223.0202
95.90874, 220.1808
96.39086, 217.0185
96.87298, 213.9147
97.35509, 211.1036
97.83721, 208.2482
98.31933, 205.8254
98.80145, 204.1559
99.28356, 202.6423
99.76568, 200.6935
100.2478, 198.1370
100.7299, 195.4938
101.2120, 194.1124
101.6941, 195.1570
102.1763, 196.2287
102.6584, 197.3232
103.1405, 198.3470
103.6226, 199.1568
104.1047, 199.6508
104.5868, 199.8815
105.0690, 200.2014
105.5511, 200.3204
106.0332, 200.7336
106.5153, 201.9987
106.9974, 203.9808
107.4795, 205.5831
107.9617, 205.5300
108.4438, 204.4256
108.9259, 204.4269
109.4080, 206.5150
109.8901, 209.5949
110.3722, 212.1064
110.8544, 213.7758
111.3365, 215.4421
111.8186, 217.2966
112.3007, 219.5045
112.7828, 222.5245
113.2649, 226.8799
113.7471, 232.4875
114.2292, 237.9812
114.7113, 243.0538
115.1934, 248.3747
115.6755, 253.9598
116.1576, 259.9596
116.6397, 266.7079
117.1219, 274.3754
117.6040, 282.4813
118.0861, 293.3705
118.5682, 306.1623
119.0503, 321.6911
119.5324, 340.1931
120.0146, 361.7916
120.4967, 386.9001
120.9788, 415.9346
121.4609, 447.9633
121.9430, 486.8822
122.4251, 531.7083
122.9073, 583.8016
123.3894, 643.9847
123.8715, 712.7308
124.3536, 790.2492
124.8357, 879.2275
125.3178, 984.3114
125.8000, 1088.055
126.2821, 1197.516
126.7642, 1304.557
127.2463, 1377.465
127.7284, 1403.407
128.2105, 1379.162
128.6927, 1312.785
129.1748, 1191.313
129.6569, 1049.157
130.1390, 912.2927
130.6211, 778.7963
131.1032, 662.7247
131.5854, 574.7065
132.0675, 505.1303
132.5496, 448.8448
133.0317, 405.0141
133.5138, 371.7877
133.9959, 344.7959
134.4781, 325.9233
134.9602, 311.0049
135.4423, 299.2787
135.9244, 289.9398
136.4065, 282.0582
136.8886, 275.0019
137.3708, 268.8007
137.8529, 264.4702
138.3350, 263.7831
138.8171, 263.3071
139.2992, 262.2066
139.7813, 260.6591
140.2635, 259.2372
140.7456, 258.4136
141.2277, 258.2255
141.7098, 258.4792
142.1919, 259.8924
142.6740, 261.0699
143.1561, 261.2026
143.6383, 260.2621
144.1204, 258.7960
144.6025, 257.2652
145.0846, 255.6478
145.5667, 254.2477
146.0488, 253.4726
146.5310, 252.7471
147.0131, 251.4482
147.4952, 249.4360
147.9773, 247.0053
148.4594, 243.9759
148.9415, 240.4917
149.4237, 237.8881
149.9058, 237.7109
150.3879, 238.8756
150.8700, 238.1895
151.3521, 234.1976
151.8342, 229.4417
152.3164, 225.9454
152.7985, 223.6353
153.2806, 221.8486
153.7627, 220.2440
154.2448, 218.8214
154.7269, 217.3728
155.2091, 215.9166
155.6912, 214.3903
156.1733, 212.4897
156.6554, 210.2932
157.1375, 208.4594
157.6196, 207.9321
158.1018, 209.2661
158.5839, 210.3148
159.0660, 210.7793
159.5481, 211.0864
160.0302, 211.4639
160.5123, 211.9792
160.9945, 212.5826
161.4766, 213.1305
161.9587, 212.9801
162.4408, 213.8596
162.9229, 216.4482
163.4050, 219.6572
163.8871, 222.5247
164.3693, 224.6969
164.8514, 226.3869
165.3335, 228.0919
165.8156, 229.8274
166.2977, 231.5495
166.7798, 233.0891
167.2620, 234.6491
167.7441, 236.5491
168.2262, 238.9468
168.7083, 241.7245
169.1904, 244.6130
169.6725, 248.0255
170.1547, 250.8559
170.6368, 251.8028
171.1189, 251.5735
171.6010, 252.6908
172.0831, 256.6785
172.5652, 262.4938
173.0474, 267.7934
173.5295, 272.5017
174.0116, 276.8260
174.4937, 280.6117
174.9758, 283.8683
175.4579, 287.5880
175.9401, 292.4272
176.4222, 297.8964
176.9043, 303.4911
177.3864, 309.1972
177.8685, 314.8977
178.3506, 320.2515
178.8328, 324.9237
179.3149, 330.5414
179.7970, 338.0097
180.2791, 346.4748
180.7612, 355.3511
181.2433, 364.5328
181.7255, 373.8177
182.2076, 382.6648
182.6897, 390.2900
183.1718, 399.0060
183.6539, 409.5517
184.1360, 421.1011
184.6181, 432.6477
185.1003, 443.6760
185.5824, 454.6384
186.0645, 467.0188
186.5466, 481.6495
187.0287, 496.9633
187.5108, 512.6195
187.9930, 528.7444
188.4751, 545.4277
188.9572, 562.6096
189.4393, 580.4379
189.9214, 599.6669
190.4035, 620.4398
190.8857, 642.3865
191.3678, 665.7815
191.8499, 690.2018
192.3320, 715.1124
192.8141, 740.2334
193.2962, 765.5404
193.7784, 791.2517
194.2605, 816.4850
194.7426, 842.8666
195.2247, 871.6855
195.7068, 902.2874
196.1889, 932.9636
196.6711, 962.6544
197.1532, 991.5770
197.6353, 1020.971
198.1174, 1051.545
198.5995, 1082.011
199.0816, 1112.235
199.5638, 1142.142
200.0459, 1170.805
200.5280, 1197.751
201.0101, 1223.059
201.4922, 1247.159
201.9743, 1271.166
202.4565, 1293.010
202.9386, 1311.300
203.4207, 1326.098
203.9028, 1337.066
204.3849, 1342.667
204.8670, 1344.440
205.3492, 1344.622
205.8313, 1344.249
206.3134, 1341.567
206.7955, 1334.102
207.2776, 1321.333
207.7597, 1306.151
208.2419, 1289.413
208.7240, 1271.047
209.2061, 1250.601
209.6882, 1227.598
210.1703, 1203.104
210.6524, 1179.251
211.1346, 1157.281
211.6167, 1132.959
212.0988, 1104.951
212.5809, 1074.389
213.0630, 1041.291
213.5451, 1005.457
214.0273, 968.7317
214.5094, 935.6894
214.9915, 908.5295
215.4736, 881.2510
215.9557, 852.2288
216.4378, 822.6518
216.9200, 793.1227
217.4021, 764.0236
217.8842, 735.7785
218.3663, 710.0185
218.8484, 688.1617
219.3305, 667.1084
219.8127, 646.0687
220.2948, 625.6472
220.7769, 606.5607
221.2590, 589.1364
221.7411, 572.9710
222.2232, 556.8691
222.7054, 540.2044
223.1875, 524.4451
223.6696, 509.8849
224.1517, 496.1640
224.6338, 482.9144
225.1159, 469.9175
225.5980, 457.3466
226.0802, 445.7168
226.5623, 435.8896
227.0444, 426.0562
227.5265, 416.0034
228.0086, 405.8996
228.4907, 396.0546
228.9729, 386.5905
229.4550, 377.5038
229.9371, 368.9649
230.4192, 361.3789
230.9013, 353.6638
231.3834, 345.1327
231.8656, 336.5125
232.3477, 328.9888
232.8298, 323.0906
233.3119, 318.1849
233.7940, 312.8677
234.2761, 306.8678
234.7583, 301.2139
235.2404, 296.2822
235.7225, 291.8524
236.2046, 287.5432
236.6867, 283.2333
237.1688, 278.9259
237.6510, 274.4686
238.1331, 269.7759
238.6152, 265.4359
239.0973, 261.8452
239.5794, 258.7302
240.0615, 255.4758
240.5437, 251.7893
241.0258, 248.1591
241.5079, 245.1645
241.9900, 242.7394
242.4721, 240.8221
242.9542, 239.6949
243.4364, 239.0715
243.9185, 238.2298
244.4006, 237.0319
244.8827, 235.5772
245.3648, 233.9215
245.8469, 232.0928
246.3290, 230.2716
246.8112, 228.4926
247.2933, 226.7907
247.7754, 225.1861
248.2575, 223.5496
248.7396, 222.2802
249.2217, 221.8756
249.7039, 222.1035
250.1860, 222.1855
250.6681, 221.5172
251.1502, 220.3369
251.6323, 219.5564
252.1144, 219.4241
252.5966, 219.3658
253.0787, 218.7097
253.5608, 217.8342
254.0429, 217.5918
254.5250, 218.3749
255.0071, 220.1590
255.4893, 222.9416
255.9714, 227.0182
256.4535, 231.7101
256.9356, 236.1207
257.4177, 240.8711
257.8998, 246.9566
258.3820, 254.7295
258.8641, 264.2897
259.3462, 276.0215
259.8283, 290.1660
260.3104, 306.4021
260.7925, 323.7570
261.2747, 343.0349
261.7568, 365.7873
262.2389, 393.5971
262.7210, 424.1056
263.2031, 451.8579
263.6852, 481.5895
264.1674, 499.0525
264.6495, 502.6204
265.1316, 493.9731
265.6137, 472.9638
266.0958, 439.1347
266.5779, 397.1388
267.0601, 357.3098
267.5422, 318.0350
268.0243, 284.8264
268.5064, 258.8978
268.9885, 237.9078
269.4706, 220.3893
269.9528, 205.7370
270.4349, 193.5407
270.9170, 183.0328
271.3991, 174.2517
271.8812, 167.4870
272.3633, 163.4884
272.8455, 160.6474
273.3276, 157.8528
273.8097, 154.7923
274.2918, 151.7917
274.7739, 149.4059
275.2560, 148.0829
275.7382, 146.4236
276.2202, 144.0395
276.7024, 141.6745
277.1845, 139.8224
277.6666, 138.5244
278.1487, 137.4724
278.6308, 136.3181
279.1129, 135.0855
279.5951, 133.6545
280.0772, 131.4909
280.5593, 129.6076
281.0414, 128.7899
281.5235, 128.8685
282.0056, 128.9740
282.4878, 128.2401
282.9699, 126.5052
283.4520, 125.0580
283.9341, 123.8024
284.4162, 122.8655
284.8983, 122.4740
285.3805, 122.4727
285.8626, 122.4949
286.3447, 122.2655
286.8268, 121.7892
287.3089, 121.2203
287.7910, 120.5580
288.2732, 119.8172
288.7553, 118.8760
289.2374, 117.8676
289.7195, 117.0650
290.2016, 116.6497
290.6837, 116.5354
291.1659, 116.2286
291.6480, 115.5294
292.1301, 114.8737
292.6122, 114.3400
293.0943, 113.8889
293.5764, 113.5107
294.0586, 113.2062
294.5407, 112.8742
295.0228, 112.2360
295.5049, 110.4695
295.9870, 109.4171
296.4691, 109.6295
296.9513, 110.3792
297.4334, 110.9822
297.9155, 111.2022
298.3976, 111.0791
298.8797, 110.6422
299.3618, 109.4993
299.8440, 108.8025
300.3261, 108.9231
300.8082, 109.2515
301.2903, 109.2879
301.7724, 108.9442
302.2545, 108.4640
302.7367, 108.1260
303.2188, 107.9741
303.7009, 107.8167
304.1830, 107.5790
304.6651, 107.3935
305.1472, 107.5448
305.6294, 107.9159
306.1115, 107.8978
306.5936, 106.8286
307.0757, 104.6006
307.5578, 103.5928
308.0399, 104.9199
308.5221, 106.1316
309.0042, 105.8804
309.4863, 104.6019
309.9684, 103.5812
310.4505, 103.6669
310.9326, 104.6879
311.4148, 105.4600
311.8969, 105.9835
312.3790, 106.3102
312.8611, 106.4074
313.3432, 106.3223
313.8253, 106.0947
314.3075, 105.7324
314.7896, 105.3076
315.2717, 105.0050
315.7538, 104.9028
316.2359, 104.8115
316.7180, 104.7822
317.2001, 104.7284
317.6823, 104.5074
318.1644, 104.0842
318.6465, 103.6374
319.1286, 103.4669
319.6107, 103.8679
320.0928, 103.7919
320.5750, 102.5572
321.0571, 101.3252
321.5392, 101.1458
322.0213, 102.0460
322.5034, 103.1580
322.9855, 103.6167
323.4677, 103.3206
323.9498, 103.0328
324.4319, 102.6324
324.9140, 102.3461
325.3961, 102.5081
325.8782, 102.9233
326.3604, 102.9392
326.8425, 101.9923
327.3246, 100.2417
327.8067, 99.51143
328.2888, 101.0056
328.7709, 102.0069
329.2531, 101.2816
329.7352, 99.70338
330.2173, 98.78423
330.6994, 99.26591
331.1815, 100.6159
331.6636, 101.3993
332.1458, 100.7951
332.6279, 100.6263
333.1100, 101.3037
333.5921, 102.2634
334.0742, 103.0268
334.5563, 103.4351
335.0385, 103.5063
335.5206, 103.2114
336.0027, 102.2251
336.4848, 101.7352
336.9669, 101.9838
337.4490, 102.4734
337.9312, 102.7909
338.4133, 102.9789
338.8954, 103.4973
339.3775, 104.8938
339.8596, 107.3323
340.3417, 108.5895
340.8239, 107.2525
341.3060, 106.3583
341.7881, 107.3895
342.2702, 109.6740
342.7523, 111.6201
343.2344, 112.1731
343.7166, 111.7801
344.1987, 112.6185
344.6808, 115.8666
345.1629, 119.1137
345.6450, 121.9082
346.1271, 124.6784
346.6093, 127.7157
347.0914, 131.1442
347.5735, 135.3259
348.0556, 140.7702
348.5377, 146.9260
349.0198, 155.7170
349.5020, 166.1885
349.9841, 179.5203
350.4662, 196.4577
350.9483, 217.0149
351.4304, 240.8320
351.9125, 267.5046
352.3947, 297.0779
352.8768, 328.9726
353.3589, 369.2905
353.8410, 405.8008
354.3231, 439.6212
354.8052, 466.0741
355.2874, 476.9302
355.7695, 465.8301
356.2516, 435.1170
356.7337, 397.0408
357.2158, 342.1333
357.6979, 292.7354
358.1800, 251.6981
358.6621, 218.2212
359.1443, 192.2377
359.6264, 173.5394
360.1085, 160.2255
360.5906, 148.8647
361.0727, 139.3348
361.5548, 132.2425
362.0370, 129.2957
362.5191, 127.3798
363.0012, 124.6166
363.4833, 120.8343
363.9654, 117.1022
364.4475, 114.5564
364.9297, 113.2709
365.4118, 111.9233
365.8939, 110.4002
366.3760, 108.9418
366.8581, 107.5556
367.3402, 106.3103
367.8224, 105.3416
368.3045, 104.7801
368.7866, 104.5140
369.2687, 104.2140
369.7508, 103.8421
370.2329, 103.5249
370.7151, 103.2552
371.1972, 103.0787
371.6793, 103.1994
372.1614, 103.7468
372.6435, 104.0564
373.1256, 102.8684
373.6078, 99.99953
374.0899, 98.36374
374.5720, 99.65744
375.0541, 101.4468
375.5362, 101.9673
376.0183, 101.2388
376.5005, 100.1579
376.9826, 99.06741
377.4647, 98.06022
377.9468, 97.49691
378.4289, 97.48363
378.9110, 97.73557
379.3932, 98.31575
379.8753, 98.99995
380.3574, 99.32411
380.8395, 99.02843
381.3216, 98.41502
381.8037, 97.65271
382.2859, 96.72576
382.7680, 96.33656
383.2501, 97.06763
383.7322, 98.36337
384.2143, 99.31149
384.6964, 99.83447
385.1786, 100.2105
385.6607, 100.5339
386.1428, 100.8255
386.6249, 101.1223
387.1070, 101.4075
387.5891, 101.7702
388.0713, 102.3900
388.5534, 103.2392
389.0355, 103.9987
389.5176, 104.4691
389.9997, 104.9053
390.4818, 105.5516
390.9640, 106.4222
391.4461, 107.3904
391.9282, 108.2841
392.4103, 109.2330
392.8924, 110.8116
393.3745, 113.7395
393.8567, 116.4550
394.3388, 118.0420
394.8209, 119.0160
395.3030, 120.0770
395.7851, 121.3868
396.2672, 123.5908
396.7494, 127.9728
397.2315, 135.3457
397.7136, 143.0869
398.1957, 150.2286
398.6778, 158.3411
399.1599, 168.6671
399.6420, 181.3430
400.1241, 196.1560
400.6063, 213.3326
401.0884, 233.0921
401.5705, 249.7355
402.0526, 267.0413
402.5347, 277.6978
403.0168, 279.2427
403.4990, 272.6883
403.9811, 258.3864
404.4632, 236.4505
404.9453, 210.1694
405.4274, 187.3850
405.9095, 168.6020
406.3917, 153.1810
406.8738, 141.3317
407.3559, 132.2707
407.8380, 125.9777
408.3201, 122.0961
408.8022, 119.4560
409.2844, 116.8722
409.7665, 114.3105
410.2486, 112.5754
410.7307, 112.4459
411.2128, 112.3468
411.6949, 111.5822
412.1771, 110.5869
412.6592, 110.1795
413.1413, 110.8571
413.6234, 112.0179
414.1055, 112.3025
414.5876, 111.4012
415.0698, 110.5665
415.5519, 110.0252
416.0340, 109.7036
416.5161, 109.5466
416.9982, 109.5545
417.4803, 109.8155
417.9625, 110.6264
418.4446, 111.8547
418.9267, 112.5600
419.4088, 112.4749
419.8909, 112.2176
420.3730, 112.1503
420.8552, 112.2121
421.3373, 112.2696
421.8194, 112.1283
422.3015, 112.1168
422.7836, 112.8377
423.2657, 114.2761
423.7479, 115.3388
424.2300, 115.3689
424.7121, 114.9843
425.1942, 115.1708
425.6763, 116.0055
426.1584, 116.9733
426.6406, 117.8594
427.1227, 118.7365
427.6048, 119.7565
428.0869, 120.9629
428.5690, 122.1657
429.0511, 123.2015
429.5333, 124.0589
430.0154, 124.8240
430.4975, 125.2388
430.9796, 125.8060
431.4617, 126.8519
431.9438, 128.2739
432.4260, 129.7991
432.9081, 131.2891
433.3902, 132.8135
433.8723, 134.5459
434.3544, 136.7374
434.8365, 138.7107
435.3187, 139.9803
435.8008, 141.3311
436.2829, 143.4870
436.7650, 146.4666
437.2471, 149.7160
437.7292, 152.6833
438.2114, 155.3598
438.6935, 158.5641
439.1756, 162.5325
439.6577, 166.7925
440.1398, 171.2435
440.6219, 175.9189
441.1040, 180.6737
441.5862, 185.4331
442.0683, 190.7216
442.5504, 197.5582
443.0325, 206.4073
443.5146, 215.4590
443.9967, 223.7674
444.4789, 232.9012
444.9610, 243.7598
445.4431, 256.1832
445.9252, 269.5529
446.4073, 283.2865
446.8894, 297.5280
447.3716, 312.8405
447.8537, 329.2948
448.3358, 346.6257
448.8179, 364.7295
449.3000, 383.7309
449.7821, 403.5637
450.2643, 423.9029
450.7464, 446.6055
451.2285, 472.5355
451.7106, 501.9980
452.1927, 535.6702
452.6748, 573.1464
453.1570, 615.6330
453.6391, 664.0939
454.1212, 718.1525
454.6033, 779.9758
455.0854, 847.9817
455.5675, 925.1456
456.0497, 1012.590
456.5318, 1110.893
457.0139, 1224.325
457.4960, 1354.503
457.9781, 1502.153
458.4602, 1672.334
458.9424, 1867.779
459.4245, 2074.705
459.9066, 2284.089
460.3887, 2506.944
460.8708, 2762.951
461.3529, 3050.824
461.8351, 3344.310
462.3172, 3626.491
462.7993, 3897.246
463.2814, 4105.063
463.7635, 4271.830
464.2456, 4356.151
464.7278, 4337.642
465.2099, 4233.694
465.6920, 4059.241
466.1741, 3820.848
466.6562, 3540.089
467.1383, 3247.298
467.6205, 2928.973
468.1026, 2633.179
468.5847, 2360.005
469.0668, 2111.303
469.5489, 1891.386
470.0310, 1698.077
470.5132, 1528.620
470.9953, 1382.838
471.4774, 1257.887
471.9595, 1147.466
472.4416, 1052.666
472.9237, 968.8134
473.4059, 898.4726
473.8880, 836.9276
474.3701, 780.5076
474.8522, 729.1627
475.3343, 682.9883
475.8164, 643.4023
476.2986, 609.2616
476.7807, 577.2982
477.2628, 547.2408
477.7449, 519.6815
478.2270, 495.4550
478.7091, 474.3043
479.1913, 454.7499
479.6734, 437.1159
480.1555, 420.6582
480.6376, 405.0775
481.1197, 390.4043
481.6018, 376.6998
482.0839, 364.0002
482.5660, 352.0904
483.0482, 340.5546
483.5303, 329.2841
484.0124, 319.1670
484.4945, 310.8068
484.9766, 302.9779
485.4587, 294.6016
485.9409, 286.1855
486.4230, 279.3125
486.9051, 274.9590
487.3872, 271.9628
487.8693, 266.8003
488.3514, 257.1330
488.8336, 249.6631
489.3157, 246.3647
489.7978, 243.8929
490.2799, 240.0480
490.7620, 234.8034
491.2441, 229.4499
491.7263, 225.0032
492.2084, 221.3203
492.6905, 217.7095
493.1726, 214.1385
493.6547, 210.7406
494.1368, 207.5863
494.6190, 204.6531
495.1011, 201.9350
495.5832, 199.4341
496.0653, 197.1490
496.5474, 195.2942
497.0295, 193.6783
497.5117, 191.6405
497.9938, 188.9728
498.4759, 186.3218
498.9580, 184.0155
499.4401, 182.1447
499.9222, 181.0451
500.4044, 180.6448
500.8865, 181.1057
501.3686, 182.7290
501.8507, 185.2444
502.3328, 187.7957
502.8149, 190.0350
503.2971, 193.2485
503.7792, 199.1772
504.2613, 208.1285
504.7434, 219.4185
505.2255, 233.3629
505.7076, 249.0344
506.1898, 267.5237
506.6719, 287.2585
507.1540, 306.1326
507.6361, 323.2737
508.1182, 336.7338
508.6003, 342.1305
509.0825, 339.4562
509.5646, 328.6430
510.0467, 303.6368
510.5288, 275.6881
511.0109, 248.4212
511.4930, 223.1580
511.9752, 201.9917
512.4573, 186.7882
512.9394, 176.1914
513.4215, 167.2720
513.9036, 160.0467
514.3857, 154.2262
514.8679, 150.1185
515.3500, 147.1117
515.8321, 144.4395
516.3142, 142.1165
516.7963, 139.8592
517.2784, 137.4015
517.7606, 134.9944
518.2427, 133.0544
518.7248, 131.5971
519.2069, 130.1968
519.6890, 128.5335
520.1711, 126.7071
520.6533, 125.2834
521.1354, 124.2814
521.6175, 123.5698
522.0996, 123.5422
522.5817, 123.5610
523.0638, 122.9854
523.5460, 121.7226
524.0281, 120.0050
524.5102, 117.9315
524.9923, 115.5408
525.4744, 114.0762
525.9565, 114.3090
526.4387, 114.5212
526.9208, 114.4023
527.4029, 114.0713
527.8850, 113.7061
528.3671, 113.3414
528.8492, 112.7736
529.3314, 111.5699
529.8135, 109.8430
530.2956, 108.7593
530.7777, 108.6512
531.2598, 108.6390
531.7419, 107.9702
532.2241, 107.0801
532.7062, 106.7340
533.1883, 107.3198
533.6704, 107.9621
534.1525, 108.1586
534.6346, 107.9578
535.1168, 107.3856
535.5989, 106.4173
536.0810, 105.3889
536.5631, 104.6106
537.0452, 104.0930
537.5273, 103.7955
538.0095, 103.9235
538.4916, 104.0199
538.9737, 103.9516
539.4558, 103.7334
539.9379, 103.4232
540.4200, 103.0342
540.9022, 102.4788
541.3843, 101.5971
541.8664, 100.3076
542.3485, 99.14733
542.8306, 97.91286
543.3127, 97.06425
543.7948, 96.80924
544.2769, 97.01842
544.7590, 97.68366
545.2411, 98.90585
545.7233, 99.85273
546.2054, 99.13838
546.6875, 96.90563
547.1696, 95.36739
547.6517, 95.05788
548.1339, 95.11732
548.6160, 94.96642
549.0981, 94.62646
549.5802, 94.10007
550.0623, 93.11375
550.5444, 92.23432
551.0266, 91.91315
551.5087, 91.96516
551.9908, 91.98682
552.4729, 91.85915
552.9550, 91.62978
553.4371, 91.35967
553.9193, 91.05681
554.4014, 90.64754
554.8835, 90.18542
555.3656, 89.57736
555.8477, 88.43246
556.3298, 87.23341
556.8120, 86.91569
557.2941, 87.76814
557.7762, 88.75573
558.2583, 88.18272
558.7404, 85.77722
559.2225, 84.11607
559.7047, 83.48906
560.1868, 83.38330
560.6689, 83.79048
561.1510, 84.43317
561.6331, 84.84072
562.1152, 84.83625
562.5974, 84.66145
563.0795, 84.62746
563.5616, 84.62160
564.0437, 84.11681
564.5258, 82.89388
565.0079, 81.68571
565.4901, 81.16187
565.9722, 81.32191
566.4543, 81.53590
566.9364, 81.92016
567.4185, 82.22617
567.9006, 82.20057
568.3828, 82.10007
568.8649, 82.41465
569.3470, 83.21608
569.8291, 83.97152
570.3112, 84.04147
570.7933, 83.39016
571.2755, 82.68749
571.7576, 81.65073
572.2397, 80.93188
572.7218, 80.92737
573.2039, 81.18642
573.6860, 81.19544
574.1682, 80.82858
574.6503, 80.35046
575.1324, 79.82869
575.6145, 79.37172
576.0966, 79.64468
576.5787, 80.93763
577.0609, 81.93928
577.5430, 81.42394
578.0251, 80.19504
578.5072, 80.31023
578.9893, 82.71732
579.4714, 84.41966
579.9536, 83.60110
580.4357, 81.80420
580.9178, 80.91814
581.3999, 81.13705
581.8820, 81.63050
582.3641, 81.79774
582.8463, 81.67760
583.3284, 81.49003
583.8105, 81.03986
584.2926, 80.81494
584.7747, 81.17480
585.2568, 81.51755
585.7390, 81.29306
586.2211, 80.56036
586.7032, 79.82232
587.1853, 79.38885
587.6674, 79.24081
588.1495, 79.40970
588.6317, 79.96281
589.1138, 80.42235
589.5959, 80.65630
590.0780, 80.70328
