##NAMES=Quenselite
##RRUFFID=R100036
##IDEAL CHEMISTRY=Pb^2+^Mn^3+^O_2_(OH)
##LOCALITY=Langban, Filipstad, Varmland, Sweden
##OWNER=RRUFF
##SOURCE=William W Pinch
##DESCRIPTION=Tabular to rectangular blocky, black with a hint of red highlights
##STATUS=The identification of this mineral has been confirmed by single-crystal X-ray diffraction.
##URL=rruff.info/R100036
##MEASURED CHEMISTRY=Pb_1.02_Mn^3+^_0.98_O_2_(OH)
91.53320, 318.1738
92.01532, 327.3098
92.49744, 329.7740
92.97955, 326.7114
93.46167, 318.2967
93.94379, 309.7340
94.42590, 304.0926
94.90802, 299.6111
95.39014, 293.5618
95.87225, 285.6790
96.35437, 277.6610
96.83649, 269.9073
97.31860, 262.7013
97.80072, 256.4237
98.28284, 251.0978
98.76495, 246.3212
99.24707, 241.5052
99.72919, 237.1785
100.2113, 232.2519
100.6934, 225.9109
101.1755, 218.6795
101.6577, 211.6843
102.1398, 205.8130
102.6219, 201.1860
103.1040, 197.0673
103.5861, 193.3231
104.0682, 189.9607
104.5504, 187.7429
105.0325, 186.4853
105.5146, 184.4743
105.9967, 179.1886
106.4788, 169.4048
106.9609, 159.0860
107.4431, 147.4475
107.9252, 135.5840
108.4073, 124.9104
108.8894, 115.7828
109.3715, 108.2700
109.8536, 102.6196
110.3358, 98.87737
110.8179, 95.81153
111.3000, 92.69557
111.7821, 89.59475
112.2642, 87.20130
112.7463, 86.16020
113.2285, 85.78764
113.7106, 85.36506
114.1927, 84.72079
114.6748, 84.17473
115.1569, 84.46141
115.6390, 86.34057
116.1212, 87.02302
116.6033, 84.58692
117.0854, 81.13553
117.5675, 78.85484
118.0496, 78.95486
118.5317, 80.81513
119.0139, 81.43968
119.4960, 78.90691
119.9781, 77.11378
120.4602, 77.06918
120.9423, 78.25368
121.4244, 79.73153
121.9066, 80.82186
122.3887, 81.51714
122.8708, 81.88172
123.3529, 81.70996
123.8350, 81.47721
124.3171, 81.11395
124.7993, 80.75436
125.2814, 80.92188
125.7635, 82.16381
126.2456, 84.72639
126.7277, 87.74390
127.2098, 91.07138
127.6920, 94.90511
128.1741, 99.76586
128.6562, 105.9113
129.1383, 112.2130
129.6204, 117.5097
130.1025, 121.9727
130.5847, 125.1582
131.0668, 126.4180
131.5489, 126.1571
132.0310, 125.7303
132.5131, 125.2129
132.9952, 124.8375
133.4774, 124.7627
133.9595, 124.9917
134.4416, 125.4258
134.9237, 126.0025
135.4058, 126.7336
135.8879, 127.5517
136.3701, 128.3381
136.8522, 129.2789
137.3343, 130.5785
137.8164, 132.2818
138.2985, 134.1244
138.7806, 135.7215
139.2628, 137.2046
139.7449, 138.1159
140.2270, 138.1358
140.7091, 137.8073
141.1912, 137.6660
141.6733, 137.9525
142.1555, 138.4481
142.6376, 138.3953
143.1197, 137.5132
143.6018, 136.3401
144.0839, 134.8733
144.5660, 133.1501
145.0482, 131.1856
145.5303, 128.9644
146.0124, 126.5308
146.4945, 124.1746
146.9766, 121.7782
147.4587, 119.5557
147.9409, 117.8928
148.4230, 116.6114
148.9051, 114.9758
149.3872, 112.6007
149.8693, 109.3142
150.3514, 105.0745
150.8336, 99.07358
151.3157, 92.61497
151.7978, 86.64851
152.2799, 81.12962
152.7620, 76.33958
153.2441, 72.78967
153.7263, 70.10313
154.2084, 67.75103
154.6905, 65.51628
155.1726, 63.53012
155.6547, 62.13885
156.1368, 61.60175
156.6190, 61.23744
157.1011, 60.76077
157.5832, 60.16341
158.0653, 59.40031
158.5474, 58.28789
159.0295, 56.88470
159.5117, 55.98966
159.9938, 56.06484
160.4759, 56.23693
160.9580, 56.19614
161.4401, 55.98315
161.9222, 55.77412
162.4044, 55.75000
162.8865, 55.96651
163.3686, 56.03387
163.8507, 55.81862
164.3328, 55.58099
164.8149, 55.49523
165.2971, 55.53151
165.7792, 55.49553
166.2613, 55.13086
166.7434, 54.23409
167.2255, 53.60887
167.7076, 53.44118
168.1898, 53.37367
168.6719, 53.15619
169.1540, 52.73851
169.6361, 52.23835
170.1182, 51.80103
170.6003, 51.38849
171.0825, 51.18014
171.5646, 51.39464
172.0467, 51.73813
172.5288, 51.88585
173.0109, 51.74443
173.4930, 51.40581
173.9752, 50.94139
174.4573, 50.31604
174.9394, 49.80019
175.4215, 49.42090
175.9036, 49.20582
176.3857, 49.28811
176.8679, 49.86595
177.3500, 50.50285
177.8321, 50.56512
178.3142, 50.01002
178.7963, 49.46510
179.2784, 49.33696
179.7606, 49.57759
180.2427, 49.81371
180.7248, 49.98584
181.2069, 50.07814
181.6890, 50.02225
182.1711, 49.80438
182.6533, 49.65445
183.1354, 49.88661
183.6175, 50.57531
184.0996, 51.05606
184.5817, 50.87496
185.0638, 50.62018
185.5460, 50.72518
186.0281, 51.26835
186.5102, 51.83906
186.9923, 51.77455
187.4744, 50.71731
187.9565, 49.97764
188.4387, 49.82588
188.9208, 49.93575
189.4029, 50.12819
189.8850, 50.33844
190.3671, 50.55012
190.8492, 50.72056
191.3314, 50.71788
191.8135, 50.90547
192.2956, 51.40958
192.7777, 52.03432
193.2598, 52.60418
193.7419, 53.04972
194.2241, 53.43296
194.7062, 53.90322
195.1883, 54.74526
195.6704, 55.33529
196.1525, 55.45786
196.6346, 55.38508
197.1168, 55.39312
197.5989, 55.59596
198.0810, 56.00090
198.5631, 56.65569
199.0452, 57.84309
199.5273, 58.89157
200.0095, 59.60634
200.4916, 60.12447
200.9737, 60.66794
201.4558, 61.33605
201.9379, 62.09476
202.4200, 62.86912
202.9022, 63.67389
203.3843, 64.46024
203.8664, 65.22081
204.3485, 65.95245
204.8306, 66.62709
205.3127, 67.20133
205.7949, 67.74773
206.2770, 68.42583
206.7591, 69.30526
207.2412, 70.16108
207.7233, 70.84463
208.2054, 71.38179
208.6876, 71.89278
209.1697, 72.31583
209.6518, 72.83958
210.1339, 73.71906
210.6160, 75.04007
211.0981, 76.48650
211.5803, 77.85537
212.0624, 79.14462
212.5445, 80.32191
213.0266, 81.40163
213.5087, 82.31628
213.9908, 82.85998
214.4730, 82.90503
214.9551, 83.09477
215.4372, 84.29234
215.9193, 86.69661
216.4014, 88.89905
216.8836, 90.54031
217.3657, 91.80384
217.8478, 92.73867
218.3299, 93.34814
218.8120, 93.73650
219.2941, 93.98176
219.7763, 93.99821
220.2584, 94.15779
220.7405, 94.58062
221.2226, 95.12603
221.7047, 95.78327
222.1868, 96.53444
222.6690, 97.21284
223.1511, 97.53295
223.6332, 97.35569
224.1153, 97.11631
224.5974, 96.74845
225.0795, 96.41364
225.5617, 96.32668
226.0438, 96.51709
226.5259, 96.71471
227.0080, 96.39407
227.4901, 95.05283
227.9722, 94.11815
228.4544, 93.95889
228.9365, 93.96984
229.4186, 93.66450
229.9007, 92.91673
230.3828, 91.96486
230.8649, 91.22660
231.3471, 90.81992
231.8292, 90.45963
232.3113, 90.15545
232.7934, 89.88719
233.2755, 89.68700
233.7576, 89.54983
234.2398, 89.36939
234.7219, 88.99281
235.2040, 88.55739
235.6861, 87.57158
236.1682, 85.37054
236.6503, 82.98736
237.1325, 81.47966
237.6146, 81.10655
238.0967, 81.17854
238.5788, 80.66702
239.0609, 79.23082
239.5430, 77.96513
240.0252, 76.79719
240.5073, 75.87109
240.9894, 75.38287
241.4715, 75.37539
241.9536, 75.66819
242.4357, 76.10831
242.9179, 76.79827
243.4000, 77.13943
243.8821, 76.53710
244.3642, 75.80569
244.8463, 75.97645
245.3284, 77.28947
245.8106, 78.88124
246.2927, 79.60738
246.7748, 79.41345
247.2569, 79.77296
247.7390, 81.01938
248.2211, 82.88435
248.7033, 85.13728
249.1854, 87.77847
249.6675, 90.57885
250.1496, 93.31654
250.6317, 96.02953
251.1138, 98.87589
251.5960, 101.7105
252.0781, 104.7774
252.5602, 108.5748
253.0423, 113.2335
253.5244, 117.9956
254.0065, 122.0358
254.4887, 125.5948
254.9708, 129.3521
255.4529, 133.7144
255.9350, 138.2645
256.4171, 142.2739
256.8992, 145.5827
257.3813, 148.9854
257.8635, 153.6212
258.3456, 158.7121
258.8277, 162.8790
259.3098, 165.1004
259.7919, 166.5257
260.2740, 168.8201
260.7562, 172.1463
261.2383, 175.6270
261.7204, 178.9182
262.2025, 182.0356
262.6846, 185.0258
263.1667, 187.9953
263.6489, 190.7251
264.1310, 192.9290
264.6131, 194.5796
265.0952, 195.8190
265.5773, 196.4227
266.0594, 196.7477
266.5416, 197.1187
267.0237, 197.6490
267.5058, 198.1840
267.9879, 198.6456
268.4700, 199.1470
268.9521, 199.0435
269.4343, 197.7415
269.9164, 195.9201
270.3985, 194.0466
270.8806, 192.2391
271.3627, 190.3180
271.8448, 188.0860
272.3270, 185.5297
272.8091, 182.6757
273.2912, 179.4853
273.7733, 176.0000
274.2554, 172.0759
274.7375, 167.6898
275.2197, 163.2727
275.7018, 159.3282
276.1839, 155.9680
276.6660, 152.4473
277.1481, 148.6372
277.6302, 144.6578
278.1124, 140.5087
278.5945, 136.2153
279.0766, 131.9712
279.5587, 127.9870
280.0408, 124.2816
280.5229, 120.5756
281.0051, 116.4886
281.4872, 112.7602
281.9693, 109.6949
282.4514, 107.2841
282.9335, 105.3894
283.4156, 104.1728
283.8978, 103.6671
284.3799, 102.2622
284.8620, 98.93123
285.3441, 95.67990
285.8262, 93.07945
286.3083, 91.09505
286.7905, 89.55724
287.2726, 88.43902
287.7547, 87.68277
288.2368, 86.74186
288.7189, 85.28457
289.2010, 84.04337
289.6832, 83.34658
290.1653, 82.96341
290.6474, 82.50255
291.1295, 81.70661
291.6116, 80.73093
292.0938, 80.22251
292.5759, 80.41521
293.0580, 80.79721
293.5401, 81.42836
294.0222, 82.11217
294.5043, 82.60094
294.9865, 82.77817
295.4686, 82.79458
295.9507, 83.02517
296.4328, 83.61333
296.9149, 84.16950
297.3970, 84.34618
297.8792, 84.63417
298.3613, 85.55876
298.8434, 87.25172
299.3255, 89.27585
299.8076, 90.99696
300.2897, 92.62988
300.7719, 93.39045
301.2540, 92.32683
301.7361, 91.19001
302.2182, 91.18025
302.7003, 92.43552
303.1824, 94.18580
303.6646, 95.58192
304.1467, 96.61839
304.6288, 97.27309
305.1109, 97.44979
305.5930, 97.36152
306.0751, 96.89378
306.5573, 96.19064
307.0394, 95.64153
307.5215, 95.64564
308.0036, 96.25404
308.4857, 96.66924
308.9678, 96.82040
309.4500, 96.83684
309.9321, 96.83154
310.4142, 96.71380
310.8963, 96.26743
311.3784, 95.29490
311.8605, 93.88858
312.3427, 92.80408
312.8248, 92.47500
313.3069, 91.96127
313.7890, 91.01446
314.2711, 89.81068
314.7532, 88.56102
315.2354, 87.37328
315.7175, 86.23160
316.1996, 85.14503
316.6817, 84.43791
317.1638, 83.21716
317.6459, 81.06254
318.1281, 78.59077
318.6102, 76.35137
319.0923, 74.51800
319.5744, 72.90067
320.0565, 71.14626
320.5386, 69.02518
321.0208, 67.32648
321.5029, 66.39799
321.9850, 65.59658
322.4671, 64.49362
322.9492, 63.05620
323.4313, 61.56595
323.9135, 60.33634
324.3956, 59.44182
324.8777, 58.43472
325.3598, 57.06919
325.8419, 55.81553
326.3240, 54.93772
326.8062, 54.33769
327.2883, 53.68798
327.7704, 52.66985
328.2525, 51.33001
328.7346, 50.48220
329.2167, 50.81429
329.6989, 50.86810
330.1810, 49.99817
330.6631, 48.69411
331.1452, 47.75605
331.6273, 47.65969
332.1094, 48.05056
332.5916, 47.76784
333.0737, 46.21633
333.5558, 45.00480
334.0379, 44.35285
334.5200, 44.13432
335.0021, 44.37598
335.4843, 45.06440
335.9664, 45.85250
336.4485, 46.15634
336.9306, 45.81973
337.4127, 45.45839
337.8948, 44.93409
338.3770, 44.55017
338.8591, 44.68235
339.3412, 45.25552
339.8233, 45.69460
340.3055, 45.26392
340.7876, 43.83421
341.2697, 42.86047
341.7518, 42.60931
342.2339, 42.60476
342.7160, 42.81468
343.1982, 43.12884
343.6803, 43.31830
344.1624, 43.15031
344.6445, 42.74576
345.1266, 42.75438
345.6087, 43.50185
346.0909, 44.13820
346.5730, 44.39323
347.0551, 44.39382
347.5372, 44.21642
348.0193, 43.82347
348.5014, 43.50057
348.9836, 43.88488
349.4657, 45.25612
349.9478, 46.38788
350.4299, 46.55431
350.9120, 46.61134
351.3941, 47.24232
351.8763, 48.56432
352.3584, 50.06799
352.8405, 51.22949
353.3226, 52.04394
353.8047, 52.86312
354.2868, 53.81481
354.7690, 54.68546
355.2511, 55.28424
355.7332, 55.66972
356.2153, 56.08495
356.6974, 56.66643
357.1795, 57.40126
357.6617, 58.28408
358.1438, 59.42826
358.6259, 60.46973
359.1080, 61.24312
359.5901, 61.77830
360.0722, 62.07206
360.5544, 61.97754
361.0365, 61.80900
361.5186, 62.02437
362.0007, 62.65645
362.4828, 63.42445
362.9649, 64.37975
363.4471, 65.32047
363.9292, 66.00749
364.4113, 66.38422
364.8934, 66.65517
365.3755, 67.13209
365.8576, 67.70395
366.3398, 67.68152
366.8219, 66.64332
367.3040, 65.34672
367.7861, 64.52697
368.2682, 64.14906
368.7503, 64.03914
369.2325, 64.41783
369.7146, 64.93581
370.1967, 64.92677
370.6788, 64.26938
371.1609, 63.49424
371.6430, 63.10784
372.1252, 62.93391
372.6073, 62.39020
373.0894, 60.90003
373.5715, 59.41574
374.0536, 58.83322
374.5357, 59.01355
375.0179, 59.10902
375.5000, 58.69287
375.9821, 57.95551
376.4642, 57.36145
376.9463, 56.98330
377.4284, 56.56649
377.9106, 55.86709
378.3927, 55.10196
378.8748, 54.64325
379.3569, 54.59349
379.8390, 54.84272
380.3211, 55.34380
380.8033, 56.18374
381.2854, 56.72951
381.7675, 56.73066
382.2496, 56.56652
382.7317, 56.37837
383.2138, 56.24826
383.6960, 56.48909
384.1781, 57.41487
384.6602, 58.95905
385.1423, 60.16956
385.6244, 60.91705
386.1065, 61.54712
386.5887, 62.14631
387.0708, 62.70477
387.5529, 63.13362
388.0350, 63.38068
388.5171, 63.63958
388.9992, 64.34439
389.4814, 65.88744
389.9635, 67.30204
390.4456, 68.77431
390.9277, 70.00121
391.4098, 70.52670
391.8919, 70.41206
392.3741, 70.33800
392.8562, 71.07409
393.3383, 72.79257
393.8204, 74.01871
394.3025, 74.50208
394.7846, 74.79482
395.2668, 74.95639
395.7489, 75.07849
396.2310, 75.32989
396.7131, 75.83540
397.1952, 76.44302
397.6773, 76.59402
398.1595, 75.88654
398.6416, 75.37908
399.1237, 75.44727
399.6058, 75.60355
400.0879, 75.41870
400.5700, 74.80010
401.0522, 73.98035
401.5343, 73.19058
402.0164, 72.41977
402.4985, 71.77776
402.9806, 71.63235
403.4627, 71.25870
403.9449, 70.29182
404.4270, 68.83791
404.9091, 67.17939
405.3912, 65.35496
405.8733, 63.51683
406.3554, 62.29707
406.8376, 62.09631
407.3197, 61.48134
407.8018, 59.30825
408.2839, 56.70327
408.7660, 54.90812
409.2481, 54.30141
409.7303, 53.95840
410.2124, 52.87745
410.6945, 51.11557
411.1766, 49.51428
411.6587, 48.17401
412.1408, 47.15937
412.6230, 46.66806
413.1051, 46.61477
413.5872, 46.35051
414.0693, 45.28038
414.5514, 43.95067
415.0335, 43.38952
415.5157, 43.73164
415.9978, 43.95650
416.4799, 43.25255
416.9620, 41.94881
417.4441, 41.10729
417.9262, 40.97516
418.4084, 41.03102
418.8905, 41.07978
419.3726, 41.09269
419.8547, 40.93967
420.3368, 40.52673
420.8189, 40.09886
421.3011, 40.09100
421.7832, 40.60809
422.2653, 41.06958
422.7474, 41.35451
423.2295, 41.59999
423.7116, 41.96006
424.1938, 42.42390
424.6759, 42.81202
425.1580, 42.94369
425.6401, 42.85003
426.1222, 43.12917
426.6043, 44.42613
427.0865, 45.28871
427.5686, 44.96460
428.0507, 44.11326
428.5328, 43.69543
429.0149, 44.07303
429.4970, 44.83850
429.9792, 45.27480
430.4613, 45.19768
430.9434, 45.18522
431.4255, 45.18517
431.9076, 45.28037
432.3897, 45.66679
432.8719, 46.21998
433.3540, 46.56023
433.8361, 46.35314
434.3182, 45.68148
434.8003, 45.14082
435.2824, 44.82563
435.7646, 44.50574
436.2467, 43.98755
436.7288, 43.49969
437.2109, 43.34471
437.6930, 43.62069
438.1751, 44.01302
438.6573, 44.11569
439.1394, 43.90637
439.6215, 43.73018
440.1036, 43.81934
440.5857, 43.72653
441.0678, 42.98446
441.5500, 41.78131
442.0321, 40.83309
442.5142, 40.79684
442.9963, 41.12427
443.4784, 40.63380
443.9605, 39.17913
444.4427, 38.07225
444.9248, 38.28677
445.4069, 39.10327
445.8890, 39.24372
446.3711, 38.48305
446.8532, 37.53343
447.3354, 36.53645
447.8175, 35.66289
448.2996, 35.40699
448.7817, 35.95037
449.2638, 36.65411
449.7459, 36.80361
450.2281, 36.35585
450.7102, 36.07099
451.1923, 36.02842
451.6744, 36.10951
452.1565, 36.39558
452.6386, 36.76208
453.1208, 36.81141
453.6029, 36.29346
454.0850, 35.47142
454.5671, 35.07782
455.0492, 35.59585
455.5313, 35.89921
456.0135, 35.96251
456.4956, 35.81603
456.9777, 35.29230
457.4598, 34.49339
457.9419, 33.92306
458.4240, 34.13321
458.9062, 35.14030
459.3883, 35.72661
459.8704, 35.38858
460.3525, 35.18303
460.8346, 35.40815
461.3167, 35.86864
461.7989, 36.34175
462.2810, 36.74687
462.7631, 37.04796
463.2452, 37.09774
463.7273, 36.79795
464.2094, 36.84401
464.6916, 37.66755
465.1737, 38.53979
465.6558, 39.10044
466.1379, 39.35285
466.6200, 39.38572
467.1021, 39.00154
467.5843, 38.53792
468.0664, 38.79596
468.5485, 39.88944
469.0306, 40.88549
469.5127, 41.31388
469.9948, 41.42377
470.4770, 41.58603
470.9591, 41.79311
471.4412, 42.12920
471.9233, 42.72671
472.4054, 43.46077
472.8875, 44.05970
473.3697, 44.46474
473.8518, 44.92066
474.3339, 45.69657
474.8160, 46.78452
475.2981, 47.64641
475.7802, 47.88465
476.2624, 48.31562
476.7445, 49.43523
477.2266, 50.99102
477.7087, 52.48421
478.1908, 53.72709
478.6729, 54.85207
479.1551, 56.05885
479.6372, 57.16738
480.1193, 58.84289
480.6014, 61.39571
481.0835, 64.16273
481.5656, 66.71207
482.0478, 69.14236
482.5299, 71.78865
483.0120, 74.84132
483.4941, 78.32107
483.9762, 82.28907
484.4583, 87.14308
484.9405, 91.66570
485.4226, 95.01440
485.9047, 98.38937
486.3868, 102.7831
486.8689, 108.2876
487.3510, 114.1025
487.8332, 119.5513
488.3153, 124.7108
488.7974, 130.2398
489.2795, 136.4109
489.7616, 142.3109
490.2437, 147.4190
490.7259, 151.8858
491.2080, 155.8974
491.6901, 159.3542
492.1722, 162.5478
492.6543, 165.6513
493.1364, 168.6422
493.6186, 171.4541
494.1007, 174.0983
494.5828, 176.5464
495.0649, 178.7666
495.5470, 180.7424
496.0291, 182.5547
496.5113, 184.3168
496.9934, 185.8233
497.4755, 186.9860
497.9576, 187.7986
498.4397, 188.3335
498.9218, 188.6429
499.4040, 188.5205
499.8861, 187.4768
500.3682, 185.1514
500.8503, 182.5069
501.3324, 179.2703
501.8145, 175.9751
502.2967, 172.9890
502.7788, 170.2388
503.2609, 167.4456
503.7430, 164.4942
504.2251, 161.2319
504.7072, 156.9659
505.1894, 151.0996
505.6715, 145.5533
506.1536, 140.9005
506.6357, 136.6855
507.1178, 132.7847
507.5999, 129.1315
508.0821, 125.2362
508.5642, 120.2670
509.0463, 114.7946
509.5284, 110.5139
510.0105, 107.6434
510.4926, 105.4675
510.9748, 103.6178
511.4569, 102.1906
511.9390, 101.3567
512.4211, 101.3030
512.9032, 101.5354
513.3853, 101.8458
513.8674, 102.2734
514.3495, 102.6691
514.8317, 103.0086
515.3138, 104.0819
515.7959, 106.8640
516.2780, 111.5285
516.7601, 115.4479
517.2422, 117.6271
517.7244, 120.3179
518.2065, 124.3228
518.6886, 129.2975
519.1707, 134.7933
519.6528, 140.6163
520.1349, 146.6866
520.6171, 152.8357
521.0992, 159.0353
521.5813, 165.4349
522.0634, 172.2537
522.5455, 179.0660
523.0276, 185.5503
523.5098, 191.9527
523.9919, 198.7178
524.4740, 206.1379
524.9561, 213.8204
525.4382, 221.3886
525.9203, 228.8016
526.4025, 236.0017
526.8846, 243.0432
527.3667, 249.6882
527.8488, 256.0102
528.3309, 261.9236
528.8130, 266.8201
529.2952, 269.7512
529.7773, 272.1702
530.2594, 275.5605
530.7415, 279.7009
531.2236, 283.5752
531.7057, 286.8135
532.1879, 289.3182
532.6700, 290.8482
533.1521, 291.0024
533.6342, 291.0246
534.1163, 291.0429
534.5984, 290.8428
535.0806, 290.6072
535.5627, 290.0504
536.0448, 288.4885
536.5269, 285.4938
537.0090, 281.2648
537.4911, 276.3657
537.9733, 270.3908
538.4554, 264.5312
538.9375, 259.4356
539.4196, 254.0785
539.9017, 247.5353
540.3839, 240.0111
540.8660, 232.6730
541.3481, 226.6267
541.8302, 221.0643
542.3123, 214.0076
542.7944, 205.3050
543.2766, 196.5410
543.7587, 188.2296
544.2408, 180.3009
544.7229, 172.5806
545.2050, 165.0262
545.6871, 157.9773
546.1693, 151.9254
546.6514, 146.2426
547.1335, 139.9937
547.6156, 133.2957
548.0977, 127.1488
548.5798, 122.2386
549.0620, 118.2011
549.5441, 113.8496
550.0262, 108.4531
550.5083, 103.7388
550.9904, 100.0041
551.4725, 96.72813
551.9547, 93.60178
552.4368, 90.56577
552.9189, 87.60764
553.4010, 84.71397
553.8831, 81.92539
554.3652, 79.46007
554.8474, 77.38468
555.3295, 75.49511
555.8116, 73.92234
556.2937, 72.39345
556.7758, 70.72757
557.2579, 68.91898
557.7401, 67.04417
558.2222, 64.97542
558.7043, 62.94350
559.1864, 61.31432
559.6685, 60.10796
560.1506, 59.22403
560.6328, 58.73523
561.1149, 58.43481
561.5970, 57.84096
562.0791, 56.88076
562.5612, 55.93956
563.0433, 55.16471
563.5255, 54.38197
564.0076, 53.27851
564.4897, 51.98256
564.9718, 51.01992
565.4539, 50.75203
565.9360, 50.97832
566.4182, 51.03381
566.9003, 50.87708
567.3824, 50.61925
567.8645, 50.21986
568.3466, 49.77642
568.8287, 49.27527
569.3109, 48.77289
569.7930, 48.45476
570.2751, 48.53904
570.7572, 48.76790
571.2393, 48.55420
571.7214, 47.86363
572.2036, 47.12482
572.6857, 46.26069
573.1678, 45.65321
573.6499, 45.98844
574.1320, 47.23552
574.6141, 47.93749
575.0963, 47.24477
575.5784, 46.20443
576.0605, 45.67279
576.5426, 45.58321
577.0247, 45.62662
577.5068, 45.69107
577.9890, 45.63566
578.4711, 45.14928
578.9532, 43.87263
579.4353, 43.09351
579.9174, 43.10880
580.3995, 43.25719
580.8817, 43.31420
581.3638, 43.25190
581.8459, 43.06703
582.3280, 42.75134
582.8101, 42.36339
583.2922, 41.97945
583.7744, 41.59774
584.2565, 41.26563
584.7386, 41.02844
585.2207, 40.78122
585.7029, 40.47441
586.1850, 40.10173
586.6671, 39.62090
587.1492, 38.83010
587.6313, 38.18347
