##NAMES=Quenselite
##RRUFFID=R100036
##IDEAL CHEMISTRY=Pb^2+^Mn^3+^O_2_(OH)
##LOCALITY=Langban, Filipstad, Varmland, Sweden
##OWNER=RRUFF
##SOURCE=William W Pinch
##DESCRIPTION=Tabular to rectangular blocky, black with a hint of red highlights
##STATUS=The identification of this mineral has been confirmed by single-crystal X-ray diffraction.
##URL=rruff.info/R100036
##MEASURED CHEMISTRY=Pb_1.02_Mn^3+^_0.98_O_2_(OH)
90.01007, 0.0000000E+00
90.49219, 37.29074
90.97430, 39.82090
91.45642, 40.72190
91.93854, 38.51535
92.42065, 35.10877
92.90277, 33.46107
93.38489, 33.97185
93.86700, 35.18805
94.34912, 35.48280
94.83124, 34.95877
95.31335, 34.18634
95.79547, 33.31796
96.27759, 32.43839
96.75970, 31.84673
97.24182, 31.56644
97.72394, 31.62219
98.20605, 32.34544
98.68817, 33.85574
99.17029, 35.07143
99.65240, 34.88799
100.1345, 33.18493
100.6166, 31.91069
101.0988, 31.73302
101.5809, 32.40993
102.0630, 31.49284
102.5451, 28.04450
103.0272, 24.65236
103.5093, 24.75356
103.9915, 30.23172
104.4736, 34.28158
104.9557, 34.56453
105.4378, 30.12783
105.9199, 27.29297
106.4020, 26.55359
106.8842, 27.15625
107.3663, 27.86393
107.8484, 29.20486
108.3305, 30.02967
108.8126, 29.90910
109.2947, 28.34006
109.7769, 26.65805
110.2590, 24.55649
110.7411, 22.28073
111.2232, 20.65008
111.7053, 19.86064
112.1874, 19.58726
112.6696, 19.69378
113.1517, 19.75501
113.6338, 20.63897
114.1159, 23.72087
114.5980, 28.42602
115.0801, 30.71383
115.5623, 26.72240
116.0444, 21.32772
116.5265, 18.31101
117.0086, 21.86200
117.4907, 25.11450
117.9728, 24.82429
118.4550, 20.78723
118.9371, 17.35143
119.4192, 16.31720
119.9013, 17.02190
120.3834, 18.64424
120.8655, 22.30752
121.3477, 25.85314
121.8298, 27.69839
122.3119, 27.62084
122.7940, 26.46993
123.2761, 23.87491
123.7582, 20.57059
124.2404, 18.19335
124.7225, 18.29766
125.2046, 19.58026
125.6867, 20.38154
126.1688, 20.29843
126.6509, 20.10057
127.1331, 20.94155
127.6152, 22.57110
128.0973, 23.74550
128.5794, 23.12680
129.0615, 21.40649
129.5436, 20.24952
130.0258, 20.13155
130.5079, 20.61542
130.9900, 20.96084
131.4721, 21.16500
131.9542, 21.40280
132.4363, 22.15294
132.9185, 23.25001
133.4006, 23.44022
133.8827, 21.73486
134.3648, 18.98020
134.8469, 18.40085
135.3290, 20.32480
135.8112, 22.99411
136.2933, 24.24369
136.7754, 23.96831
137.2575, 24.05346
137.7396, 25.48206
138.2217, 28.16607
138.7039, 29.39947
139.1860, 28.59408
139.6681, 27.26679
140.1502, 28.06513
140.6323, 31.74221
141.1144, 35.00793
141.5966, 36.46315
142.0787, 35.65321
142.5608, 34.91993
143.0429, 34.01290
143.5250, 33.31933
144.0071, 33.87706
144.4893, 36.35574
144.9714, 38.99137
145.4535, 40.84696
145.9356, 40.98972
146.4177, 42.30215
146.8998, 45.32704
147.3820, 49.61526
147.8641, 53.47322
148.3462, 56.96957
148.8283, 59.92408
149.3104, 62.22868
149.7925, 62.86855
150.2747, 64.18133
150.7568, 67.13534
151.2389, 71.46094
151.7210, 73.72574
152.2031, 72.61519
152.6852, 70.23923
153.1674, 67.88995
153.6495, 64.77674
154.1316, 62.58930
154.6137, 62.01060
155.0958, 63.07895
155.5779, 63.62560
156.0601, 63.32002
156.5422, 62.42430
157.0243, 61.16245
157.5064, 58.46104
157.9885, 56.43007
158.4706, 55.84180
158.9528, 56.87133
159.4349, 58.10445
159.9170, 59.49741
160.3991, 60.80892
160.8812, 61.76006
161.3633, 61.72437
161.8455, 61.74876
162.3276, 62.32716
162.8097, 63.57774
163.2918, 64.98235
163.7739, 66.78899
164.2560, 68.48093
164.7382, 68.93757
165.2203, 67.35452
165.7024, 65.60080
166.1845, 64.84284
166.6666, 65.50117
167.1487, 66.20145
167.6309, 66.05587
168.1130, 65.40324
168.5951, 64.96063
169.0772, 64.73985
169.5593, 65.02715
170.0414, 66.30637
170.5236, 69.22374
171.0057, 71.81235
171.4878, 72.41992
171.9699, 71.50735
172.4520, 70.45045
172.9341, 70.20333
173.4163, 70.17783
173.8984, 69.55043
174.3805, 67.65630
174.8626, 65.91622
175.3447, 65.99989
175.8268, 67.55857
176.3090, 68.99046
176.7911, 68.93061
177.2732, 68.07387
177.7553, 67.57397
178.2374, 67.94559
178.7195, 68.54198
179.2017, 68.59765
179.6838, 68.13622
180.1659, 67.34589
180.6480, 66.04426
181.1301, 64.51529
181.6122, 63.41653
182.0944, 63.09797
182.5765, 63.18863
183.0586, 62.88335
183.5407, 62.19413
184.0228, 61.86940
184.5049, 62.97636
184.9871, 65.11982
185.4692, 66.85485
185.9513, 67.84046
186.4334, 68.10037
186.9155, 67.43625
187.3976, 65.77850
187.8798, 64.04613
188.3619, 63.29166
188.8440, 63.36726
189.3261, 63.36713
189.8082, 62.83549
190.2903, 61.99358
190.7725, 61.65617
191.2546, 61.85894
191.7367, 62.35136
192.2188, 62.92020
192.7009, 63.56435
193.1830, 64.17204
193.6652, 64.76648
194.1473, 65.31606
194.6294, 65.54709
195.1115, 65.41875
195.5936, 65.11269
196.0757, 64.73704
196.5579, 64.27698
197.0400, 64.14758
197.5221, 64.75268
198.0042, 66.00973
198.4863, 66.48221
198.9684, 65.88620
199.4506, 65.13170
199.9327, 65.81768
200.4148, 68.12984
200.8969, 70.18919
201.3790, 71.16099
201.8611, 71.00195
202.3433, 70.81936
202.8254, 70.53078
203.3075, 70.34599
203.7896, 70.70394
204.2717, 71.70626
204.7538, 72.72823
205.2360, 73.50706
205.7181, 74.02044
206.2002, 74.51088
206.6823, 75.02277
207.1644, 75.45904
207.6465, 75.45708
208.1287, 74.74779
208.6108, 74.53645
209.0929, 75.53520
209.5750, 78.04160
210.0571, 80.14757
210.5392, 81.71827
211.0214, 83.02314
211.5035, 84.76069
211.9856, 87.22717
212.4677, 89.27300
212.9498, 89.97807
213.4319, 88.59072
213.9140, 89.14400
214.3962, 92.29433
214.8783, 97.01183
215.3604, 100.9240
215.8425, 103.9648
216.3246, 106.4314
216.8067, 108.3235
217.2889, 109.2923
217.7710, 110.8377
218.2531, 113.1286
218.7352, 115.9233
219.2173, 118.6794
219.6994, 121.2847
220.1816, 124.0844
220.6637, 127.4239
221.1458, 131.7814
221.6279, 135.2457
222.1100, 137.3897
222.5921, 138.7995
223.0743, 141.2087
223.5564, 145.2792
224.0385, 149.1667
224.5206, 151.7582
225.0027, 152.2215
225.4848, 153.7319
225.9670, 156.4545
226.4491, 160.1911
226.9312, 164.6524
227.4133, 170.3677
227.8954, 175.9107
228.3775, 180.3771
228.8597, 183.1137
229.3418, 186.5669
229.8239, 190.9300
230.3060, 195.9834
230.7881, 201.0040
231.2702, 206.0441
231.7524, 211.0630
232.2345, 216.0237
232.7166, 221.1831
233.1987, 225.8679
233.6808, 230.0796
234.1629, 233.7988
234.6451, 237.0650
235.1272, 239.9768
235.6093, 242.2618
236.0914, 243.7581
236.5735, 244.2199
237.0556, 244.5144
237.5378, 244.8779
238.0199, 245.0208
238.5020, 244.1506
238.9841, 241.8518
239.4662, 239.1509
239.9483, 236.5721
240.4305, 234.7339
240.9126, 231.6171
241.3947, 227.0042
241.8768, 221.1790
242.3589, 214.6444
242.8410, 206.5379
243.3232, 199.0443
243.8053, 193.3321
244.2874, 190.5106
244.7695, 186.6902
245.2516, 181.3408
245.7337, 175.1802
246.2159, 169.7769
246.6980, 165.1962
247.1801, 161.2661
247.6622, 157.9888
248.1443, 155.6674
248.6264, 153.0912
249.1086, 149.9933
249.5907, 146.7553
250.0728, 144.0918
250.5549, 141.8072
251.0370, 140.4297
251.5191, 140.3598
252.0013, 142.1470
252.4834, 143.3679
252.9655, 143.7393
253.4476, 143.7008
253.9297, 144.0862
254.4118, 145.1084
254.8940, 146.1315
255.3761, 146.7543
255.8582, 146.5903
256.3403, 147.7133
256.8224, 150.6941
257.3046, 154.5237
257.7867, 157.4321
258.2688, 159.0798
258.7509, 160.5732
259.2330, 162.1836
259.7151, 163.8784
260.1973, 165.9401
260.6794, 168.2960
261.1615, 171.0499
261.6436, 174.3159
262.1257, 178.2064
262.6078, 182.4018
263.0900, 186.8199
263.5721, 191.5269
264.0542, 196.1436
264.5363, 200.6286
265.0184, 205.1184
265.5005, 209.8542
265.9827, 214.6362
266.4648, 220.1287
266.9469, 226.5777
267.4290, 233.9662
267.9111, 241.5698
268.3932, 249.3838
268.8754, 257.3330
269.3575, 265.3932
269.8396, 273.7718
270.3217, 281.7698
270.8038, 289.1003
271.2859, 295.8644
271.7681, 302.9473
272.2502, 310.6782
272.7323, 318.0512
273.2144, 323.9950
273.6965, 328.5695
274.1786, 331.6135
274.6608, 333.0898
275.1429, 333.0152
275.6250, 331.5568
276.1071, 328.6961
276.5892, 324.5341
277.0714, 319.1391
277.5535, 312.4419
278.0356, 304.9997
278.5177, 296.9312
278.9998, 288.1964
279.4819, 278.3364
279.9641, 266.9516
280.4462, 255.7220
280.9283, 246.0727
281.4104, 238.1358
281.8925, 230.1543
282.3746, 221.8296
282.8568, 213.3187
283.3389, 204.9424
283.8210, 196.6530
284.3031, 188.8396
284.7852, 181.5541
285.2673, 174.8871
285.7495, 169.6010
286.2316, 166.1722
286.7137, 163.6174
287.1958, 159.6137
287.6779, 154.1000
288.1600, 148.9768
288.6422, 145.7148
289.1243, 144.0253
289.6064, 141.9816
290.0885, 139.2890
290.5706, 136.4637
291.0527, 134.3757
291.5349, 132.9898
292.0170, 131.7684
292.4991, 130.4602
292.9812, 129.0879
293.4633, 127.7357
293.9454, 126.3704
294.4276, 125.1501
294.9097, 124.4358
295.3918, 124.1272
295.8739, 123.7102
296.3560, 122.3409
296.8381, 120.7449
297.3203, 120.8009
297.8024, 122.6299
298.2845, 125.2609
298.7666, 128.6237
299.2487, 132.1194
299.7308, 133.9926
300.2130, 131.8385
300.6951, 128.2432
301.1772, 127.4144
301.6593, 129.3388
302.1414, 132.6314
302.6235, 137.0608
303.1057, 141.9428
303.5878, 145.7523
304.0699, 147.4120
304.5520, 148.2653
305.0341, 149.7946
305.5162, 151.9418
305.9984, 154.2946
306.4805, 156.1195
306.9626, 158.0661
307.4447, 161.0918
307.9268, 166.0692
308.4089, 171.4339
308.8911, 175.6267
309.3732, 178.9516
309.8553, 182.6641
310.3374, 187.4061
310.8195, 192.9504
311.3016, 199.1611
311.7838, 206.3765
312.2659, 213.4411
312.7480, 219.2726
313.2301, 224.2646
313.7122, 229.5162
314.1943, 236.2601
314.6765, 243.0437
315.1586, 249.0243
315.6407, 254.2122
316.1228, 258.0956
316.6049, 260.1234
317.0870, 260.6866
317.5692, 260.4120
318.0513, 259.9174
318.5334, 258.3283
319.0155, 255.1200
319.4976, 250.1171
319.9797, 244.2481
320.4619, 237.6656
320.9440, 230.3901
321.4261, 222.5393
321.9082, 213.3608
322.3903, 204.2892
322.8724, 195.8278
323.3546, 188.0061
323.8367, 180.1781
324.3188, 171.5576
324.8009, 163.2199
325.2830, 156.0810
325.7651, 151.3945
326.2473, 146.5667
326.7294, 141.0595
327.2115, 134.9907
327.6936, 129.2888
328.1757, 124.0065
328.6578, 119.1667
329.1400, 114.7560
329.6221, 110.4318
330.1042, 107.0926
330.5863, 105.5391
331.0684, 104.9869
331.5505, 103.0906
332.0327, 98.33990
332.5148, 94.00066
332.9969, 91.43169
333.4790, 91.42240
333.9611, 91.13194
334.4432, 90.43153
334.9254, 89.52019
335.4075, 88.80433
335.8896, 88.55069
336.3717, 87.92962
336.8538, 86.54336
337.3359, 84.26273
337.8180, 82.54759
338.3001, 81.60513
338.7823, 80.91474
339.2644, 79.83899
339.7465, 78.22556
340.2286, 76.87038
340.7107, 76.00827
341.1928, 75.57233
341.6750, 75.21024
342.1571, 74.94295
342.6392, 74.65091
343.1213, 74.10842
343.6034, 73.30995
344.0855, 72.97166
344.5677, 73.42250
345.0498, 74.18544
345.5319, 74.14064
346.0140, 73.28078
346.4961, 71.84292
346.9782, 69.31255
347.4604, 66.11509
347.9425, 64.72431
348.4246, 65.72546
348.9067, 67.45455
349.3888, 67.27742
349.8709, 65.54288
350.3531, 64.18356
350.8352, 64.37249
351.3173, 65.55177
351.7994, 66.83444
352.2815, 68.21919
352.7636, 69.30175
353.2458, 69.65668
353.7279, 69.41865
354.2100, 68.86605
354.6921, 67.68116
355.1742, 66.52312
355.6563, 66.22240
356.1385, 66.70910
356.6206, 67.22974
357.1027, 67.04205
357.5848, 66.68115
358.0669, 66.85841
358.5490, 68.30810
359.0312, 69.51910
359.5133, 69.27052
359.9954, 67.94966
360.4775, 66.76385
360.9596, 65.82396
361.4417, 65.52503
361.9239, 66.33141
362.4060, 68.78030
362.8881, 70.95458
363.3702, 71.89317
363.8523, 72.15175
364.3344, 72.58236
364.8166, 74.09813
365.2987, 75.23074
365.7808, 75.06152
366.2629, 73.31357
366.7450, 72.38713
367.2271, 73.02769
367.7093, 74.46796
368.1914, 76.03355
368.6735, 78.27767
369.1556, 79.97328
369.6377, 80.61504
370.1198, 80.36698
370.6020, 80.62783
371.0841, 82.28571
371.5662, 83.62917
372.0483, 83.61931
372.5304, 80.96899
373.0125, 79.43752
373.4947, 79.62510
373.9768, 80.79906
374.4589, 81.27821
374.9410, 80.96238
375.4231, 80.14133
375.9052, 78.74059
376.3874, 76.60740
376.8695, 75.09566
377.3516, 74.29817
377.8337, 73.94118
378.3158, 73.66123
378.7979, 73.43822
379.2801, 73.47911
379.7622, 74.00693
380.2443, 74.82488
380.7264, 75.04678
381.2085, 74.63413
381.6906, 73.87301
382.1728, 72.62742
382.6549, 71.07171
383.1370, 70.52895
383.6191, 71.51364
384.1012, 73.07253
384.5833, 73.60006
385.0655, 73.20075
385.5476, 72.68928
386.0297, 72.56255
386.5118, 72.63573
386.9939, 72.49574
387.4760, 72.06314
387.9582, 71.75381
388.4403, 71.73708
388.9224, 72.14177
389.4045, 73.21687
389.8866, 76.14978
390.3687, 79.05591
390.8509, 79.80584
391.3330, 78.60654
391.8151, 77.89015
392.2972, 79.80483
392.7793, 82.57331
393.2614, 84.44548
393.7436, 84.24445
394.2257, 84.08158
394.7078, 84.78646
395.1899, 86.19599
395.6720, 87.88233
396.1541, 90.05589
396.6363, 92.20113
397.1184, 93.98433
397.6005, 95.13258
398.0826, 96.67800
398.5647, 99.29199
399.0468, 102.2102
399.5290, 104.5062
400.0111, 105.5561
400.4932, 106.5786
400.9753, 107.6451
401.4574, 108.7638
401.9395, 110.4053
402.4217, 112.9728
402.9038, 115.6495
403.3859, 117.9701
403.8680, 120.1279
404.3501, 121.4181
404.8322, 121.5391
405.3144, 120.8736
405.7965, 120.6166
406.2786, 121.1450
406.7607, 120.8287
407.2428, 118.5579
407.7249, 114.2378
408.2071, 110.9458
408.6892, 108.9526
409.1713, 107.1354
409.6534, 103.9440
410.1355, 99.45510
410.6176, 94.93090
411.0998, 90.38863
411.5819, 86.23959
412.0640, 83.95005
412.5461, 83.46248
413.0282, 82.79480
413.5103, 79.83747
413.9925, 75.69917
414.4746, 72.79576
414.9567, 71.81445
415.4388, 71.25832
415.9209, 69.47733
416.4030, 66.88270
416.8852, 64.44371
417.3673, 62.54281
417.8494, 61.10372
418.3315, 60.25946
418.8136, 60.03335
419.2957, 59.58611
419.7779, 58.00013
420.2600, 56.15229
420.7421, 54.94695
421.2242, 55.17756
421.7063, 55.51702
422.1884, 55.49212
422.6706, 55.21559
423.1527, 55.11234
423.6348, 55.87106
424.1169, 56.35270
424.5990, 55.86056
425.0811, 53.43459
425.5633, 52.14968
426.0454, 52.95202
426.5275, 54.58387
427.0096, 55.47088
427.4917, 55.24890
427.9738, 54.80303
428.4560, 54.17561
428.9381, 53.38735
429.4202, 53.08230
429.9023, 53.45042
430.3844, 53.95388
430.8665, 54.10698
431.3487, 53.77511
431.8308, 54.00747
432.3129, 55.10661
432.7950, 56.53209
433.2771, 57.10177
433.7592, 56.78400
434.2414, 56.28680
434.7235, 55.88965
435.2056, 55.57229
435.6877, 55.12972
436.1698, 54.52555
436.6519, 54.24319
437.1341, 55.15987
437.6162, 56.79673
438.0983, 57.87105
438.5804, 57.76327
439.0625, 57.33929
439.5446, 57.82401
440.0268, 58.91673
440.5089, 59.51765
440.9910, 58.35390
441.4731, 56.78614
441.9552, 56.11902
442.4373, 56.67259
442.9195, 57.20958
443.4016, 57.01719
443.8837, 56.48195
444.3658, 56.07368
444.8479, 56.48738
445.3300, 56.48873
445.8122, 55.42879
446.2943, 53.44871
446.7764, 51.77003
447.2585, 50.14996
447.7406, 49.19668
448.2227, 49.36047
448.7049, 51.82478
449.1870, 53.07573
449.6691, 52.44283
450.1512, 50.92286
450.6333, 50.11449
451.1154, 50.32954
451.5976, 50.58784
452.0797, 50.71878
452.5618, 50.70723
453.0439, 50.13341
453.5260, 48.76680
454.0081, 47.58703
454.4903, 47.56222
454.9724, 48.67262
455.4545, 49.60254
455.9366, 50.29993
456.4187, 50.51902
456.9008, 49.35142
457.3830, 47.01160
457.8651, 45.28489
458.3472, 45.61663
458.8293, 46.90881
459.3114, 46.96394
459.7935, 45.77940
460.2757, 44.73036
460.7578, 45.26881
461.2399, 46.53015
461.7220, 47.28798
462.2041, 47.02708
462.6862, 46.53944
463.1684, 46.16596
463.6505, 45.95002
464.1326, 46.00281
464.6147, 46.65781
465.0968, 47.35532
465.5789, 47.82228
466.0611, 48.02957
466.5432, 48.07995
467.0253, 47.77153
467.5074, 47.43067
467.9895, 47.33362
468.4716, 47.89390
468.9538, 48.17544
469.4359, 47.90369
469.9180, 47.31684
470.4001, 47.24330
470.8822, 48.07477
471.3643, 48.71801
471.8465, 48.59032
472.3286, 47.56326
472.8107, 47.22129
473.2928, 47.76942
473.7749, 48.50848
474.2570, 48.59336
474.7392, 48.03017
475.2213, 47.56281
475.7034, 47.36377
476.1855, 47.33829
476.6676, 47.20323
477.1497, 46.99738
477.6319, 47.08257
478.1140, 48.03528
478.5961, 49.30666
479.0782, 49.83170
479.5603, 49.48407
480.0424, 49.19081
480.5246, 50.05239
481.0067, 51.34753
481.4888, 52.02243
481.9709, 50.92348
482.4530, 50.06997
482.9352, 50.83645
483.4173, 52.75008
483.8994, 54.31645
484.3815, 55.26068
484.8636, 55.55552
485.3457, 54.92738
485.8279, 52.90190
486.3100, 51.72440
486.7921, 51.93610
487.2742, 52.88940
487.7563, 54.05847
488.2384, 55.53365
488.7206, 57.09903
489.2027, 58.83012
489.6848, 60.61899
490.1669, 62.02575
490.6490, 62.94991
491.1311, 63.76045
491.6133, 64.48061
492.0954, 65.12171
492.5775, 66.48418
493.0596, 68.72131
493.5417, 71.00407
494.0238, 72.10904
494.5060, 72.36472
494.9881, 73.37397
495.4702, 75.82481
495.9523, 78.73442
496.4344, 80.42081
496.9165, 81.24387
497.3987, 82.54866
497.8808, 85.46105
498.3629, 89.00587
498.8450, 92.29786
499.3271, 95.29128
499.8092, 98.17168
500.2914, 101.1981
500.7735, 104.0992
501.2556, 106.6894
501.7377, 108.1960
502.2198, 110.2174
502.7019, 113.4686
503.1841, 117.5166
503.6662, 121.2000
504.1483, 124.7617
504.6304, 127.6526
505.1125, 129.6024
505.5946, 130.5586
506.0768, 131.4100
506.5589, 132.3956
507.0410, 132.9128
507.5231, 132.7124
508.0052, 131.9855
508.4873, 129.1162
508.9695, 123.4653
509.4516, 116.4036
509.9337, 110.2790
510.4158, 105.0761
510.8979, 100.5467
511.3800, 96.59059
511.8622, 93.19142
512.3443, 90.38851
512.8264, 88.18199
513.3085, 86.14477
513.7906, 84.21825
514.2728, 82.17562
514.7549, 79.42754
515.2370, 75.30999
515.7191, 72.18253
516.2012, 72.42043
516.6833, 74.41711
517.1655, 75.70394
517.6476, 74.47800
518.1297, 73.41460
518.6118, 73.57504
519.0939, 74.87061
519.5760, 76.03223
520.0582, 76.70935
520.5403, 77.39063
521.0224, 78.22283
521.5045, 79.09019
521.9866, 80.48417
522.4688, 82.58173
522.9509, 85.01112
523.4330, 87.39710
523.9151, 89.75825
524.3972, 91.87571
524.8793, 93.36765
525.3615, 94.83881
525.8436, 98.24917
526.3257, 103.5872
526.8078, 108.9518
527.2899, 113.1577
527.7720, 116.6641
528.2542, 120.4519
528.7363, 124.5550
529.2184, 128.7361
529.7005, 132.5424
530.1826, 136.3309
530.6647, 140.5754
531.1469, 145.3624
531.6290, 150.6425
532.1111, 156.6061
532.5932, 162.9927
533.0753, 169.2455
533.5574, 175.1309
534.0396, 180.9803
534.5217, 186.9349
535.0038, 192.9441
535.4859, 199.1648
535.9680, 205.8848
536.4501, 212.4730
536.9323, 218.5729
537.4144, 224.2487
537.8965, 229.4255
538.3786, 234.1162
538.8607, 238.2875
539.3428, 241.7975
539.8250, 244.6714
540.3071, 247.0366
540.7892, 249.1587
541.2713, 250.6068
541.7534, 250.2254
542.2355, 248.0616
542.7177, 244.5982
543.1998, 239.7875
543.6819, 233.9458
544.1640, 227.5340
544.6461, 220.5806
545.1282, 213.2104
545.6104, 204.9235
546.0925, 196.5839
546.5746, 189.2420
547.0567, 184.4606
547.5388, 178.9407
548.0209, 170.5273
548.5031, 160.7059
548.9852, 152.5621
549.4673, 148.3866
549.9494, 144.0066
550.4315, 138.1125
550.9136, 130.7152
551.3958, 124.4366
551.8779, 119.5673
552.3600, 115.3155
552.8421, 111.1029
553.3242, 106.8724
553.8063, 103.2884
554.2885, 100.4769
554.7706, 98.04166
555.2527, 95.48412
555.7348, 92.83286
556.2169, 90.25613
556.6990, 87.83271
557.1812, 85.51427
557.6633, 83.21009
558.1454, 80.95337
558.6275, 78.86124
559.1096, 77.08052
559.5917, 75.45529
560.0739, 73.82852
560.5560, 72.17709
561.0381, 70.81292
561.5202, 70.06448
562.0023, 69.54323
562.4844, 68.97584
562.9666, 68.42161
563.4487, 67.66435
563.9308, 66.79054
564.4129, 65.67641
564.8950, 63.98077
565.3771, 61.07637
565.8593, 59.06487
566.3414, 58.58614
566.8235, 59.34219
567.3056, 60.17459
567.7877, 61.15607
568.2698, 61.63704
568.7520, 60.91870
569.2341, 59.34920
569.7162, 58.11774
570.1983, 57.25694
570.6804, 56.94400
571.1625, 58.11623
571.6447, 59.76208
572.1268, 60.12023
572.6089, 58.24786
573.0910, 56.15531
573.5731, 54.80309
574.0552, 54.16076
574.5374, 54.14664
575.0195, 55.74501
575.5016, 56.95604
575.9837, 56.70637
576.4658, 55.16518
576.9479, 54.62120
577.4301, 56.06672
577.9122, 57.40118
578.3943, 57.68752
578.8764, 56.73026
579.3585, 55.72246
579.8406, 54.54335
580.3228, 53.58130
580.8049, 53.42996
581.2870, 54.02976
581.7691, 54.27918
582.2512, 53.92670
582.7333, 53.29750
583.2155, 52.63744
583.6975, 52.07046
584.1796, 51.96197
584.6617, 53.11230
585.1439, 54.34221
585.6260, 54.47272
586.1081, 53.67668
