##NAMES=Rajite
##RRUFFID=R060729
##IDEAL CHEMISTRY=Cu^2+^Te^4+^_2_O_5_
##LOCALITY=Lone Pine mine, Catron County, New Mexico, USA
##OWNER=RRUFF
##SOURCE=Bob Jenkins
##DESCRIPTION=Bundles of green to white bladed crystals
##STATUS=The identification of this mineral is confirmed by single-crystal X-ray diffraction and chemical analysis.
##URL=rruff.info/R060729
##MEASURED CHEMISTRY=(Cu_0.930_Fe^2+^_0.055_Cr_0.010_[box]_0.005_)_Î£=1_Te^4+^_2.00_O_5_
116.219, 11467.110
116.702, 12603.860
117.184, 13747.490
117.666, 15053.460
118.148, 16326.800
118.630, 17211.840
119.112, 17475.830
119.594, 17354.430
120.076, 16976.180
120.559, 16249.020
121.041, 15484.650
121.523, 14820.780
122.005, 14266.740
122.487, 13860.750
122.969, 13670.210
123.451, 13626.480
123.933, 13637.770
124.415, 13680.030
124.898, 13760.780
125.380, 13887.250
125.862, 14059.660
126.344, 14280.070
126.826, 14551.040
127.308, 14870.640
127.790, 15232.270
128.272, 15690.290
128.755, 16181.120
129.237, 16571.090
129.719, 16856.410
130.201, 17033.711
130.683, 17058.160
131.165, 16938.910
131.647, 16799.961
132.129, 16689.369
132.611, 16612.340
133.094, 16608.760
133.576, 16685.939
134.058, 16837.570
134.540, 17046.539
135.022, 17314.920
135.504, 17637.350
135.986, 18026.760
136.468, 18483.580
136.951, 18955.020
137.433, 19447.449
137.915, 19949.320
138.397, 20411.100
138.879, 20872.949
139.361, 21225.439
139.843, 21350.311
140.325, 21228.109
140.807, 20934.900
141.290, 20455.471
141.772, 19753.619
142.254, 19082.131
142.736, 18431.420
143.218, 17823.311
143.700, 17292.369
144.182, 16849.020
144.664, 16472.830
145.146, 16161.560
145.629, 15923.790
146.111, 15728.710
146.593, 15584.700
147.075, 15483.820
147.557, 15394.610
148.039, 15299.930
148.521, 15228.720
149.003, 15198.710
149.486, 15257.610
149.968, 15301.500
150.450, 15312.770
150.932, 15289.330
151.414, 15284.510
151.896, 15313.990
152.378, 15356.500
152.860, 15393.240
153.342, 15448.640
153.824, 15476.710
154.307, 15459.350
154.789, 15382.980
155.271, 15317.350
155.753, 15275.320
156.235, 15249.890
156.717, 15231.470
157.199, 15207.370
157.682, 15197.440
158.164, 15212.140
158.646, 15263.900
159.128, 15315.620
159.610, 15346.420
160.092, 15367.360
160.574, 15405.390
161.056, 15479.990
161.538, 15567.210
162.020, 15651.660
162.503, 15729.640
162.985, 15803.320
163.467, 15863.940
163.949, 15916.090
164.431, 15983.630
164.913, 16088.900
165.395, 16210.870
165.877, 16329.480
166.360, 16415.961
166.842, 16514.891
167.324, 16653.660
167.806, 16831.641
168.288, 17035.301
168.770, 17262.500
169.252, 17509.561
169.734, 17772.029
170.217, 18036.961
170.699, 18320.529
171.181, 18644.109
171.663, 19010.650
172.145, 19386.051
172.627, 19728.439
173.109, 20055.189
173.591, 20414.760
174.073, 20851.789
174.555, 21330.551
175.038, 21801.650
175.520, 22264.301
176.002, 22715.080
176.484, 23148.109
176.966, 23565.580
177.448, 23994.420
177.930, 24526.289
178.413, 25070.170
178.895, 25483.490
179.377, 25775.650
179.859, 25872.090
180.341, 25633.250
180.823, 25071.000
181.305, 24368.199
181.787, 23592.760
182.269, 22779.250
182.751, 21998.199
183.234, 21254.350
183.716, 20569.070
184.198, 20009.461
184.680, 19577.430
185.162, 19230.189
185.644, 18930.010
186.126, 18679.789
186.608, 18480.211
187.091, 18344.301
187.573, 18260.160
188.055, 18192.980
188.537, 18141.529
189.019, 18113.420
189.501, 18126.740
189.983, 18179.381
190.465, 18236.199
190.947, 18278.100
191.430, 18309.311
191.912, 18353.480
192.394, 18408.561
192.876, 18481.539
193.358, 18579.490
193.840, 18701.711
194.322, 18854.680
194.804, 19041.320
195.286, 19261.590
195.769, 19512.930
196.251, 19804.400
196.733, 20120.230
197.215, 20427.289
197.697, 20720.051
198.179, 21043.150
198.661, 21428.939
199.143, 21883.471
199.626, 22353.461
200.108, 22830.801
200.590, 23320.400
201.072, 23853.551
201.554, 24432.939
202.036, 25045.480
202.518, 25674.561
203.000, 26314.619
203.482, 27010.670
203.965, 27776.420
204.447, 28606.801
204.929, 29458.311
205.411, 30345.471
205.893, 31226.641
206.375, 32080.070
206.857, 32919.828
207.339, 33665.160
207.822, 34305.352
208.304, 34841.430
208.786, 35237.051
209.268, 35467.012
209.750, 35608.941
210.232, 35735.762
210.714, 35834.980
211.196, 35963.211
211.678, 36144.969
212.161, 36386.391
212.643, 36615.969
213.125, 36850.789
213.607, 37057.691
214.089, 37214.238
214.571, 37360.961
215.053, 37353.281
215.535, 37147.879
216.018, 36739.738
216.500, 36139.699
216.982, 35327.000
217.464, 34351.199
217.946, 33282.852
218.428, 32085.650
218.910, 30893.080
219.392, 29735.250
219.874, 28596.250
220.357, 27584.711
220.839, 26717.811
221.321, 25981.250
221.803, 25334.160
222.285, 24790.260
222.767, 24323.490
223.249, 23932.070
223.731, 23623.471
224.214, 23366.260
224.696, 23165.461
225.178, 23014.881
225.660, 22883.670
226.142, 22764.090
226.624, 22677.381
227.106, 22637.539
227.588, 22657.670
228.070, 22694.160
228.553, 22752.840
229.035, 22825.930
229.517, 22884.770
229.999, 22920.051
230.481, 22953.650
230.963, 23002.619
231.445, 23092.141
231.927, 23147.910
232.410, 23179.920
232.892, 23178.301
233.374, 23077.090
233.856, 22849.100
234.338, 22557.439
234.820, 22233.471
235.302, 21855.740
235.784, 21491.770
236.266, 21143.170
236.749, 20808.221
237.231, 20517.551
237.713, 20272.500
238.195, 20067.430
238.677, 19899.580
239.159, 19775.250
239.641, 19677.109
240.123, 19604.869
240.605, 19558.539
241.088, 19526.830
241.570, 19510.760
242.052, 19507.801
242.534, 19516.150
243.016, 19537.010
243.498, 19565.359
243.980, 19594.600
244.462, 19623.930
244.945, 19690.539
245.427, 19818.029
245.909, 19956.631
246.391, 20058.340
246.873, 20107.480
247.355, 20146.939
247.837, 20181.930
248.319, 20211.881
248.801, 20249.590
249.284, 20315.900
249.766, 20368.891
250.248, 20363.600
250.730, 20285.400
251.212, 20179.170
251.694, 20046.439
252.176, 19886.320
252.658, 19742.430
253.141, 19620.789
253.623, 19512.730
254.105, 19406.490
254.587, 19293.369
255.069, 19203.449
255.551, 19145.910
256.033, 19123.061
256.515, 19114.270
256.997, 19126.109
257.480, 19144.801
257.962, 19150.850
258.444, 19129.971
258.926, 19126.760
259.408, 19159.920
259.890, 19235.689
260.372, 19279.449
260.854, 19270.711
261.336, 19250.930
261.819, 19278.301
262.301, 19376.000
262.783, 19464.590
263.265, 19520.930
263.747, 19541.381
264.229, 19558.410
264.711, 19569.770
265.193, 19580.070
265.676, 19596.631
266.158, 19623.029
266.640, 19646.010
267.122, 19662.391
267.604, 19672.721
268.086, 19672.561
268.568, 19655.170
269.050, 19637.020
269.532, 19647.289
270.015, 19699.189
270.497, 19734.660
270.979, 19728.510
271.461, 19677.750
271.943, 19644.189
272.425, 19625.230
272.907, 19628.119
273.389, 19667.480
273.871, 19749.240
274.354, 19839.961
274.836, 19929.480
275.318, 20017.170
275.800, 20111.340
276.282, 20210.580
276.764, 20317.721
277.246, 20436.770
277.728, 20564.980
278.211, 20711.449
278.693, 20888.010
279.175, 21092.471
279.657, 21269.480
280.139, 21410.590
280.621, 21543.650
281.103, 21710.811
281.585, 21912.141
282.068, 22109.801
282.550, 22284.289
283.032, 22438.881
283.514, 22608.320
283.996, 22796.199
284.478, 22988.199
284.960, 23173.840
285.442, 23354.820
285.924, 23507.051
286.406, 23612.051
286.889, 23680.930
287.371, 23781.090
287.853, 23921.650
288.335, 24052.779
288.817, 24117.439
289.299, 24117.670
289.781, 24079.869
290.263, 24016.170
290.746, 23921.811
291.228, 23771.539
291.710, 23560.320
292.192, 23327.770
292.674, 23111.619
293.156, 22910.961
293.638, 22726.051
294.120, 22565.090
294.603, 22420.359
295.085, 22265.930
295.567, 22100.779
296.049, 21948.721
296.531, 21835.900
297.013, 21757.619
297.495, 21699.010
297.977, 21656.080
298.459, 21630.760
298.942, 21627.811
299.424, 21647.131
299.906, 21685.900
300.388, 21749.619
300.870, 21830.881
301.352, 21908.859
301.834, 21965.279
302.316, 22022.740
302.798, 22121.689
303.281, 22258.029
303.763, 22388.250
304.245, 22454.471
304.727, 22492.891
305.209, 22563.980
305.691, 22699.289
306.173, 22862.900
306.655, 23033.320
307.138, 23207.990
307.620, 23369.801
308.102, 23516.939
308.584, 23644.051
309.066, 23745.330
309.548, 23819.410
310.030, 23868.279
310.512, 23907.070
310.994, 23928.760
311.477, 23894.680
311.959, 23761.760
312.441, 23572.391
312.923, 23366.840
313.405, 23149.529
313.887, 22926.850
314.369, 22687.850
314.851, 22440.270
315.333, 22209.039
315.816, 21986.881
316.298, 21796.869
316.780, 21658.350
317.262, 21609.230
317.744, 21560.250
318.226, 21463.410
318.708, 21339.260
319.190, 21243.561
319.672, 21199.439
320.155, 21185.430
320.637, 21191.580
321.119, 21222.811
321.601, 21261.490
322.083, 21306.070
322.565, 21354.891
323.047, 21404.750
323.530, 21462.061
324.012, 21513.881
324.494, 21549.830
324.976, 21546.510
325.458, 21576.689
325.940, 21663.619
326.422, 21785.580
326.904, 21905.580
327.386, 21957.920
327.868, 22066.369
328.351, 22295.590
328.833, 22724.750
329.315, 23026.029
329.797, 23124.270
330.279, 23124.570
330.761, 23160.779
331.243, 23229.391
331.725, 23340.250
332.208, 23507.490
332.690, 23742.980
333.172, 23955.721
333.654, 24121.240
334.136, 24283.520
334.618, 24495.910
335.100, 24777.160
335.582, 25064.641
336.065, 25352.199
336.547, 25637.051
337.029, 25895.320
337.511, 26119.900
337.993, 26329.211
338.475, 26542.369
338.957, 26754.160
339.439, 26984.109
339.921, 27249.090
340.404, 27533.590
340.886, 27769.279
341.368, 27949.760
341.850, 28098.971
342.332, 28241.240
342.814, 28379.020
343.296, 28469.369
343.778, 28499.070
344.260, 28486.391
344.743, 28479.770
345.225, 28481.289
345.707, 28466.080
346.189, 28415.490
346.671, 28333.289
347.153, 28233.211
347.635, 28113.490
348.117, 27983.881
348.599, 27849.461
349.082, 27712.359
349.564, 27590.400
350.046, 27482.961
350.528, 27398.311
351.010, 27364.711
351.492, 27392.359
351.974, 27433.051
352.457, 27419.029
352.939, 27372.100
353.421, 27354.650
353.903, 27413.270
354.385, 27511.090
354.867, 27605.779
355.349, 27694.939
355.831, 27793.109
356.313, 27905.311
356.796, 28036.211
357.278, 28191.539
357.760, 28358.010
358.242, 28560.449
358.724, 28823.830
359.206, 29147.250
359.688, 29490.490
360.170, 29847.689
360.652, 30207.730
361.135, 30561.090
361.617, 30878.039
362.099, 31208.090
362.581, 31563.119
363.063, 31943.520
363.545, 32353.260
364.027, 32830.859
364.509, 33314.129
364.991, 33763.051
365.474, 34143.160
365.956, 34524.801
366.438, 34932.289
366.920, 35352.309
367.402, 35753.922
367.884, 36171.949
368.366, 36541.422
368.848, 36832.602
369.331, 37014.730
369.813, 37181.191
370.295, 37351.262
370.777, 37502.270
371.259, 37594.609
371.741, 37628.000
372.223, 37600.512
372.705, 37506.020
373.188, 37336.609
373.670, 37138.148
374.152, 36925.559
374.634, 36665.488
375.116, 36308.109
375.598, 35818.199
376.080, 35336.910
376.562, 34911.988
377.044, 34532.090
377.526, 34108.578
378.009, 33634.391
378.491, 33145.641
378.973, 32682.180
379.455, 32241.211
379.937, 31804.350
380.419, 31359.910
380.901, 30921.980
381.384, 30509.770
381.866, 30125.619
382.348, 29771.840
382.830, 29451.369
383.312, 29161.211
383.794, 28907.840
384.276, 28701.570
384.758, 28506.631
385.240, 28253.840
385.723, 27963.051
386.205, 27719.650
386.687, 27612.279
387.169, 27563.279
387.651, 27458.359
388.133, 27282.631
388.615, 27100.760
389.097, 26957.199
389.579, 26848.070
390.062, 26764.430
390.544, 26721.740
391.026, 26688.990
391.508, 26647.520
391.990, 26597.699
392.472, 26541.660
392.954, 26476.539
393.436, 26409.150
393.918, 26346.631
394.401, 26283.240
394.883, 26233.270
395.365, 26204.869
395.847, 26195.381
396.329, 26192.320
396.811, 26200.000
397.293, 26207.539
397.775, 26205.270
398.258, 26149.350
398.740, 26150.760
399.222, 26261.689
399.704, 26429.211
400.186, 26547.340
400.668, 26588.500
401.150, 26611.551
401.632, 26624.340
402.114, 26614.980
402.597, 26658.529
403.079, 26781.750
403.561, 26932.689
404.043, 27045.670
404.525, 27101.721
405.007, 27176.850
405.489, 27297.920
405.971, 27454.490
406.453, 27579.551
406.936, 27663.949
407.418, 27747.631
407.900, 27864.461
408.382, 28013.010
408.864, 28172.359
409.346, 28343.961
409.828, 28518.250
410.310, 28666.391
410.793, 28790.061
411.275, 28943.410
411.757, 29177.320
412.239, 29464.279
412.721, 29740.301
413.203, 30000.369
413.685, 30255.109
414.167, 30513.131
414.650, 30780.570
415.132, 31067.971
415.614, 31375.641
416.096, 31709.840
416.578, 32087.320
417.060, 32510.619
417.542, 32943.301
418.024, 33363.371
418.506, 33787.711
418.988, 34241.051
419.471, 34709.871
419.953, 35226.930
420.435, 35812.070
420.917, 36459.898
421.399, 37128.410
421.881, 37766.238
422.363, 38451.871
422.845, 39228.039
423.328, 40141.359
423.810, 41075.301
424.292, 41998.531
424.774, 42945.191
425.256, 43979.559
425.738, 45096.980
426.220, 46307.211
426.702, 47609.961
427.185, 49018.719
427.667, 50505.648
428.149, 52082.969
428.631, 53715.949
429.113, 55400.230
429.595, 57112.051
430.077, 58867.539
430.559, 60659.281
431.041, 62502.559
431.524, 64403.941
432.006, 66372.828
432.488, 68348.523
432.970, 70283.617
433.452, 72184.227
433.934, 74128.297
434.416, 76141.727
434.898, 78144.297
435.380, 80034.789
435.863, 81817.594
436.345, 83512.133
436.827, 85189.992
437.309, 86759.602
437.791, 88115.617
438.273, 89256.320
438.755, 90169.562
439.237, 90897.852
439.720, 91377.844
440.202, 91520.438
440.684, 91304.289
441.166, 90729.094
441.648, 89772.656
442.130, 88453.008
442.612, 86839.961
443.094, 84866.477
443.576, 82678.727
444.059, 80329.867
444.541, 77788.141
445.023, 75186.391
445.505, 72523.320
445.987, 69835.156
446.469, 67226.922
446.951, 64674.250
447.433, 62217.352
447.915, 59851.672
448.398, 57565.840
448.880, 55436.000
449.362, 53496.340
449.844, 51675.172
450.326, 49940.059
450.808, 48255.980
451.290, 46726.469
451.772, 45398.410
452.254, 44222.590
452.737, 43077.051
453.219, 41960.281
453.701, 40914.051
454.183, 39950.551
454.665, 39075.648
455.147, 38261.789
455.629, 37517.160
456.112, 36826.949
456.594, 36199.090
457.076, 35619.141
457.558, 35065.199
458.040, 34506.910
458.522, 33976.828
459.004, 33524.340
459.486, 33145.789
459.968, 32780.672
460.451, 32400.670
460.933, 32007.961
461.415, 31608.320
461.897, 31186.609
462.379, 30794.740
462.861, 30475.689
463.343, 30207.980
463.825, 29959.561
464.307, 29718.051
464.790, 29492.561
465.272, 29300.109
465.754, 29144.461
466.236, 28973.721
466.718, 28752.189
467.200, 28526.609
467.682, 28333.461
468.164, 28203.061
468.647, 28061.010
469.129, 27886.539
469.611, 27698.109
470.093, 27559.420
470.575, 27498.400
471.057, 27430.051
471.539, 27307.900
472.021, 27121.551
472.503, 26972.029
472.986, 26862.529
473.468, 26782.070
473.950, 26730.699
474.432, 26706.660
474.914, 26651.439
475.396, 26526.250
475.878, 26377.010
476.360, 26318.439
476.842, 26345.080
477.325, 26375.410
477.807, 26342.920
478.289, 26279.939
478.771, 26237.971
479.253, 26227.400
479.735, 26229.580
480.217, 26239.410
480.699, 26250.020
481.181, 26248.881
481.664, 26204.330
482.146, 26167.609
482.628, 26168.070
483.110, 26204.779
483.592, 26249.211
484.074, 26306.100
484.556, 26357.840
485.039, 26390.820
485.521, 26381.721
486.003, 26382.500
486.485, 26408.279
486.967, 26442.881
487.449, 26450.109
487.931, 26417.439
488.413, 26379.811
488.895, 26347.330
489.378, 26320.850
489.860, 26299.510
490.342, 26280.061
490.824, 26276.619
491.306, 26314.811
491.788, 26395.289
492.270, 26451.920
492.752, 26466.650
493.234, 26459.529
493.717, 26464.539
494.199, 26480.949
494.681, 26505.910
495.163, 26540.660
495.645, 26581.119
496.127, 26618.160
496.609, 26650.439
497.091, 26688.670
497.573, 26759.461
498.056, 26836.301
498.538, 26882.449
499.020, 26869.359
499.502, 26842.369
499.984, 26823.039
500.466, 26807.891
500.948, 26783.859
501.430, 26737.330
501.913, 26689.199
502.395, 26647.391
502.877, 26609.330
503.359, 26586.740
503.841, 26604.211
504.323, 26621.410
504.805, 26592.859
505.287, 26499.590
505.770, 26398.619
506.252, 26294.619
506.734, 26189.311
507.216, 26086.289
507.698, 25982.160
508.180, 25894.650
508.662, 25852.029
509.144, 25846.600
509.626, 25788.100
510.108, 25664.670
510.591, 25526.420
511.073, 25427.131
511.555, 25361.920
512.037, 25314.939
512.519, 25285.609
513.001, 25268.350
513.483, 25268.980
513.966, 25281.020
514.448, 25273.850
514.930, 25208.730
515.412, 25130.211
515.894, 25070.980
516.376, 25037.311
516.858, 25018.039
517.340, 25021.590
517.822, 25032.820
518.305, 25033.650
518.787, 25005.539
519.269, 24984.211
519.751, 24974.740
520.233, 24976.740
520.715, 24989.119
521.197, 25023.170
521.679, 25050.670
522.161, 25058.430
522.644, 25045.471
523.126, 25015.311
523.608, 24962.160
524.090, 24904.311
524.572, 24864.150
525.054, 24841.561
525.536, 24835.891
526.018, 24857.490
526.500, 24886.279
526.983, 24875.920
527.465, 24831.301
527.947, 24787.490
528.429, 24768.881
528.911, 24764.430
529.393, 24766.900
529.875, 24778.480
530.357, 24775.211
530.839, 24724.770
531.322, 24656.859
531.804, 24607.961
532.286, 24592.000
532.768, 24593.811
533.250, 24620.430
533.732, 24665.350
534.214, 24698.150
534.696, 24730.170
535.179, 24735.939
535.661, 24695.980
536.143, 24590.551
536.625, 24532.279
537.107, 24534.990
537.589, 24565.369
538.071, 24588.430
538.553, 24603.000
539.036, 24622.529
539.518, 24653.090
540.000, 24685.650
540.482, 24687.590
540.964, 24662.430
541.446, 24655.119
541.928, 24714.689
542.410, 24801.770
542.892, 24841.939
543.375, 24830.789
543.857, 24815.051
544.339, 24831.650
544.821, 24862.910
545.303, 24888.400
545.785, 24899.439
546.267, 24907.869
546.749, 24919.391
547.231, 24932.150
547.714, 24941.740
548.196, 24957.211
548.678, 24960.180
549.160, 24935.539
549.642, 24879.211
550.124, 24855.529
550.606, 24881.240
551.088, 24918.760
551.570, 24942.100
552.053, 24949.330
552.535, 24950.820
553.017, 24946.340
553.499, 24937.859
553.981, 24920.461
554.463, 24895.770
554.945, 24895.770
555.427, 24951.439
555.909, 25029.840
556.392, 25071.949
556.874, 25080.010
557.356, 25072.039
557.838, 25044.289
558.320, 25015.480
558.802, 25004.400
559.284, 25013.750
559.766, 25043.410
560.249, 25107.369
560.731, 25186.721
561.213, 25258.551
561.695, 25309.961
562.177, 25360.350
562.659, 25411.301
563.141, 25463.730
563.623, 25520.051
564.106, 25583.039
564.588, 25646.061
565.070, 25708.811
565.552, 25773.391
566.034, 25809.891
566.516, 25805.270
566.998, 25807.199
567.480, 25881.740
567.963, 26018.471
568.445, 26126.211
568.927, 26177.711
569.409, 26209.221
569.891, 26272.699
570.373, 26360.600
570.855, 26445.619
571.337, 26504.500
571.819, 26560.910
572.302, 26636.490
572.784, 26730.490
573.266, 26829.420
573.748, 26918.100
574.230, 27014.461
574.712, 27131.850
575.194, 27286.119
575.676, 27435.430
576.158, 27571.480
576.641, 27703.080
577.123, 27842.230
577.605, 27985.561
578.087, 28143.490
578.569, 28323.650
579.051, 28521.449
579.533, 28711.230
580.015, 28893.289
580.497, 29085.170
580.980, 29296.100
581.462, 29525.471
581.944, 29772.520
582.426, 30040.859
582.908, 30317.020
583.390, 30594.900
583.872, 30874.020
584.354, 31154.670
584.836, 31438.881
585.319, 31718.680
585.801, 31980.631
586.283, 32232.529
586.765, 32491.199
587.247, 32771.781
587.729, 33046.551
588.211, 33311.309
588.693, 33565.531
589.176, 33791.781
589.658, 33979.980
590.140, 34152.922
590.622, 34332.320
591.104, 34534.180
591.586, 34663.641
592.068, 34716.488
592.550, 34706.660
593.032, 34643.621
593.515, 34529.609
593.997, 34386.328
594.479, 34220.789
594.961, 34029.160
595.443, 33809.270
595.925, 33558.129
596.407, 33264.711
596.890, 32873.961
597.372, 32473.930
597.854, 32144.109
598.336, 31886.199
598.818, 31608.600
599.300, 31255.971
599.782, 30881.900
600.264, 30516.061
600.746, 30136.000
601.229, 29810.420
601.711, 29559.650
602.193, 29346.750
602.675, 29124.801
603.157, 28878.680
603.639, 28668.551
604.121, 28523.100
604.603, 28413.480
605.085, 28241.160
605.568, 28007.449
606.050, 27796.270
606.532, 27676.490
607.014, 27608.990
607.496, 27508.939
607.978, 27373.750
608.460, 27252.631
608.942, 27196.330
609.424, 27164.641
609.907, 27110.971
610.389, 27012.211
610.871, 26924.141
611.353, 26888.609
