##NAMES=Rajite
##RRUFFID=R060729
##IDEAL CHEMISTRY=Cu^2+^Te^4+^_2_O_5_
##LOCALITY=Lone Pine mine, Catron County, New Mexico, USA
##OWNER=RRUFF
##SOURCE=Bob Jenkins
##DESCRIPTION=Bundles of green to white bladed crystals
##STATUS=The identification of this mineral is confirmed by single-crystal X-ray diffraction and chemical analysis.
##URL=rruff.info/R060729
##MEASURED CHEMISTRY=(Cu_0.930_Fe^2+^_0.055_Cr_0.010_[box]_0.005_)_Î£=1_Te^4+^_2.00_O_5_
165.401, 7292.934
165.883, 7381.962
166.365, 7465.767
166.847, 7538.598
167.329, 7612.229
167.811, 7693.166
168.293, 7780.108
168.775, 7868.413
169.258, 7959.295
169.740, 8052.381
170.222, 8126.973
170.704, 8166.725
171.186, 8202.667
171.668, 8248.005
172.150, 8302.804
172.632, 8363.358
173.115, 8430.724
173.597, 8505.740
174.079, 8569.747
174.561, 8610.038
175.043, 8651.182
175.525, 8707.961
176.007, 8777.018
176.489, 8842.615
176.971, 8898.036
177.454, 8945.143
177.936, 8958.283
178.418, 8908.759
178.900, 8846.909
179.382, 8790.764
179.864, 8739.972
180.346, 8686.295
180.828, 8619.223
181.311, 8536.608
181.793, 8463.437
182.275, 8394.503
182.757, 8341.214
183.239, 8311.221
183.721, 8302.549
184.203, 8307.344
184.685, 8320.741
185.167, 8343.538
185.650, 8366.104
186.132, 8354.492
186.614, 8408.245
187.096, 8446.130
187.578, 8469.001
188.060, 8431.887
188.542, 8472.230
189.024, 8481.535
189.507, 8489.564
189.989, 8540.811
190.471, 8541.230
190.953, 8585.146
191.435, 8678.291
191.917, 8779.319
192.399, 8849.997
192.881, 8886.297
193.363, 8944.320
193.846, 9040.869
194.328, 9146.344
194.810, 9252.428
195.292, 9359.674
195.774, 9472.096
196.256, 9591.904
196.738, 9719.424
197.220, 9859.131
197.702, 10028.500
198.185, 10195.060
198.667, 10336.780
199.149, 10467.240
199.631, 10616.970
200.113, 10814.500
200.595, 11060.790
201.077, 11300.200
201.559, 11529.750
202.042, 11756.080
202.524, 11978.850
203.006, 12199.500
203.488, 12419.610
203.970, 12642.900
204.452, 12868.630
204.934, 13071.060
205.416, 13241.210
205.898, 13392.440
206.381, 13522.570
206.863, 13636.290
207.345, 13739.810
207.827, 13837.270
208.309, 13928.360
208.791, 14010.490
209.273, 14079.530
209.755, 14142.770
210.238, 14198.190
210.720, 14249.070
211.202, 14306.180
211.684, 14382.400
212.166, 14463.990
212.648, 14472.890
213.130, 14367.660
213.612, 14231.960
214.094, 14083.660
214.577, 13918.940
215.059, 13729.480
215.541, 13512.290
216.023, 13268.550
216.505, 12996.260
216.987, 12663.300
217.469, 12349.970
217.951, 12064.440
218.434, 11806.340
218.916, 11575.550
219.398, 11372.710
219.880, 11193.600
220.362, 11025.750
220.844, 10858.370
221.326, 10723.230
221.808, 10635.660
222.290, 10572.640
222.773, 10511.620
223.255, 10443.030
223.737, 10376.040
224.219, 10330.950
224.701, 10316.510
225.183, 10306.240
225.665, 10290.860
226.147, 10279.760
226.629, 10281.390
227.112, 10298.270
227.594, 10325.200
228.076, 10356.330
228.558, 10395.450
229.040, 10427.160
229.522, 10455.010
230.004, 10471.600
230.486, 10473.850
230.969, 10460.370
231.451, 10426.840
231.933, 10365.250
232.415, 10271.550
232.897, 10166.830
233.379, 10039.370
233.861, 9912.111
234.343, 9793.216
234.825, 9685.049
235.307, 9590.181
235.790, 9516.646
236.272, 9467.585
236.754, 9406.207
237.236, 9307.354
237.718, 9215.207
238.200, 9150.436
238.682, 9112.423
239.165, 9088.776
239.647, 9070.920
240.129, 9058.879
240.611, 9056.085
241.093, 9070.826
241.575, 9085.614
242.057, 9090.147
242.539, 9087.466
243.021, 9086.281
243.503, 9091.656
243.986, 9103.117
244.468, 9119.003
244.950, 9142.360
245.432, 9165.364
245.914, 9192.865
246.396, 9216.969
246.878, 9221.446
247.361, 9188.641
247.843, 9135.924
248.325, 9103.773
248.807, 9097.971
249.289, 9097.808
249.771, 9105.817
250.253, 9109.878
250.735, 9089.742
251.217, 9026.908
251.699, 8951.401
252.182, 8906.329
252.664, 8895.773
253.146, 8890.442
253.628, 8881.507
254.110, 8868.883
254.592, 8851.561
255.074, 8827.724
255.556, 8802.696
256.039, 8780.463
256.521, 8761.008
257.003, 8745.608
257.485, 8734.006
257.967, 8727.845
258.449, 8729.423
258.931, 8740.929
259.413, 8751.962
259.896, 8757.120
260.378, 8756.729
260.860, 8751.724
261.342, 8741.711
261.824, 8727.986
262.306, 8709.947
262.788, 8686.869
263.270, 8669.696
263.752, 8661.753
264.235, 8662.706
264.717, 8676.555
265.199, 8708.331
265.681, 8736.576
266.163, 8729.053
266.645, 8687.674
267.127, 8662.176
267.609, 8675.834
268.091, 8702.727
268.574, 8714.680
269.056, 8708.721
269.538, 8697.188
270.020, 8689.679
270.502, 8686.370
270.984, 8682.319
271.466, 8673.568
271.948, 8667.276
272.431, 8667.489
272.913, 8674.337
273.395, 8688.261
273.877, 8712.212
274.359, 8743.306
274.841, 8760.446
275.323, 8740.236
275.805, 8733.394
276.288, 8768.229
276.770, 8828.938
277.252, 8881.331
277.734, 8907.831
278.216, 8919.615
278.698, 8951.424
279.180, 9035.911
279.662, 9098.990
280.144, 9114.821
280.626, 9113.805
281.109, 9131.966
281.591, 9180.672
282.073, 9244.221
282.555, 9296.606
283.037, 9338.236
283.519, 9366.071
284.001, 9370.923
284.483, 9369.850
284.966, 9375.341
285.448, 9388.565
285.930, 9402.745
286.412, 9410.724
286.894, 9412.452
287.376, 9408.110
287.858, 9395.814
288.340, 9379.888
288.823, 9366.168
289.305, 9350.847
289.787, 9323.012
290.269, 9271.300
290.751, 9199.196
291.233, 9143.261
291.715, 9108.351
292.197, 9086.424
292.679, 9090.688
293.162, 9102.149
293.644, 9092.517
294.126, 9045.029
294.608, 8976.787
295.090, 8928.541
295.572, 8903.870
296.054, 8891.178
296.536, 8895.200
297.018, 8904.701
297.501, 8908.798
297.983, 8904.264
298.465, 8900.473
298.947, 8911.682
299.429, 8939.513
299.911, 8959.323
300.393, 8959.419
300.875, 8955.599
301.358, 8956.693
301.840, 8963.521
302.322, 8979.185
302.804, 9013.646
303.286, 9059.985
303.768, 9090.489
304.250, 9096.661
304.732, 9098.462
305.215, 9112.088
305.697, 9134.681
306.179, 9157.739
306.661, 9178.829
307.143, 9199.065
307.625, 9223.729
308.107, 9253.592
308.589, 9272.130
309.071, 9262.306
309.553, 9233.202
310.036, 9219.277
310.518, 9242.146
311.000, 9258.481
311.482, 9234.956
311.964, 9182.861
312.446, 9137.899
312.928, 9116.398
313.410, 9109.641
313.893, 9097.350
314.375, 9078.092
314.857, 9057.625
315.339, 9034.437
315.821, 9011.907
316.303, 8991.174
316.785, 8973.039
317.267, 8965.537
317.750, 8982.166
318.232, 9037.933
318.714, 9068.757
319.196, 9053.228
319.678, 9032.492
320.160, 9027.281
320.642, 9039.745
321.124, 9065.656
321.606, 9102.944
322.089, 9151.390
322.571, 9195.021
323.053, 9226.335
323.535, 9260.809
324.017, 9304.232
324.499, 9352.089
324.981, 9397.163
325.463, 9435.549
325.945, 9470.656
326.428, 9509.797
326.910, 9551.704
327.392, 9600.567
327.874, 9652.441
328.356, 9713.366
328.838, 9796.525
329.320, 9902.104
329.802, 10001.170
330.284, 10051.870
330.767, 10050.540
331.249, 10075.130
331.731, 10143.060
332.213, 10229.040
332.695, 10325.760
333.177, 10428.220
333.659, 10522.980
334.142, 10599.580
334.624, 10662.950
335.106, 10688.550
335.588, 10731.203
336.070, 10797.095
336.552, 10857.358
337.034, 10912.274
337.516, 10945.862
337.998, 11006.990
338.480, 11057.079
338.963, 11106.716
339.445, 11171.720
339.927, 11218.650
340.409, 11211.320
340.891, 11234.730
341.373, 11216.113
341.855, 11227.628
342.337, 11231.828
342.819, 11229.107
343.302, 11198.734
343.784, 11204.067
344.266, 11195.092
344.748, 11193.200
345.230, 11171.810
345.712, 11186.020
346.194, 11183.180
346.677, 11144.080
347.159, 11106.890
347.641, 11095.320
348.123, 11103.120
348.605, 11109.610
349.087, 11101.330
349.569, 11081.050
350.051, 11063.580
350.533, 11035.220
351.016, 11028.570
351.498, 11062.190
351.980, 11111.480
352.462, 11151.800
352.944, 11175.300
353.426, 11190.640
353.908, 11208.330
354.390, 11226.490
354.872, 11254.690
355.355, 11298.700
355.837, 11349.480
356.319, 11409.290
356.801, 11474.050
357.283, 11530.130
357.765, 11557.410
358.247, 11567.430
358.729, 11610.510
359.211, 11700.380
359.694, 11790.130
360.176, 11849.770
360.658, 11894.730
361.140, 11947.130
361.622, 12014.400
362.104, 12086.940
362.586, 12154.640
363.069, 12219.040
363.551, 12291.460
364.033, 12381.440
364.515, 12472.980
364.997, 12534.920
365.479, 12561.350
365.961, 12598.080
366.443, 12677.980
366.925, 12765.150
367.408, 12811.970
367.890, 12813.070
368.372, 12800.650
368.854, 12805.300
369.336, 12828.700
369.818, 12829.760
370.300, 12801.010
370.782, 12761.140
371.264, 12719.870
371.747, 12672.400
372.229, 12605.280
372.711, 12510.780
373.193, 12401.850
373.675, 12312.300
374.157, 12257.350
374.639, 12197.020
375.121, 12126.780
375.603, 12052.700
376.086, 11981.230
376.568, 11912.040
377.050, 11836.350
377.532, 11742.790
378.014, 11631.070
378.496, 11524.440
378.978, 11421.070
379.460, 11325.970
379.943, 11248.310
380.425, 11178.710
380.907, 11099.150
381.389, 10993.650
381.871, 10884.870
382.353, 10809.300
382.835, 10767.820
383.317, 10720.870
383.799, 10647.940
384.282, 10567.670
384.764, 10508.260
385.246, 10472.600
385.728, 10443.270
386.210, 10418.020
386.692, 10393.100
387.174, 10361.240
387.656, 10321.150
388.138, 10280.390
388.621, 10243.740
389.103, 10211.400
389.585, 10195.670
390.067, 10213.920
390.549, 10229.800
391.031, 10224.820
391.513, 10205.460
391.996, 10183.660
392.478, 10164.790
392.960, 10152.270
393.442, 10156.530
393.924, 10195.480
394.406, 10220.050
394.888, 10223.970
395.370, 10217.710
395.852, 10200.440
396.335, 10177.160
396.817, 10165.000
397.299, 10186.290
397.781, 10237.840
398.263, 10268.160
398.745, 10267.800
399.227, 10260.790
399.709, 10251.550
400.191, 10244.420
400.674, 10246.240
401.156, 10260.000
401.638, 10281.410
402.120, 10310.500
402.602, 10345.860
403.084, 10370.060
403.566, 10370.790
404.048, 10368.580
404.530, 10397.350
405.013, 10459.260
405.495, 10504.960
405.977, 10511.730
406.459, 10502.410
406.941, 10491.700
407.423, 10484.150
407.905, 10497.070
408.387, 10547.280
408.870, 10628.640
409.352, 10688.870
409.834, 10702.750
410.316, 10728.730
410.798, 10783.490
411.280, 10853.460
411.762, 10922.790
412.244, 10986.760
412.727, 11051.010
413.209, 11123.370
413.691, 11205.100
414.173, 11289.680
414.655, 11375.820
415.137, 11466.150
415.619, 11562.550
416.101, 11664.120
416.583, 11769.640
417.065, 11875.960
417.548, 11987.980
418.030, 12116.390
418.512, 12263.860
418.994, 12415.900
419.476, 12566.090
419.958, 12720.190
420.440, 12885.180
420.922, 13063.300
421.405, 13243.260
421.887, 13408.740
422.369, 13576.850
422.851, 13776.490
423.333, 14010.310
423.815, 14264.230
424.297, 14527.080
424.779, 14798.240
425.262, 15081.660
425.744, 15377.810
426.226, 15683.660
426.708, 15993.720
427.190, 16313.790
427.672, 16658.320
428.154, 17031.061
428.636, 17418.510
429.118, 17800.770
429.601, 18173.830
430.083, 18555.029
430.565, 18944.631
431.047, 19341.680
431.529, 19759.990
432.011, 20187.160
432.493, 20598.490
432.975, 20986.391
433.457, 21341.260
433.940, 21635.500
434.422, 21858.289
434.904, 22076.270
435.386, 22335.590
435.868, 22581.109
436.350, 22757.381
436.832, 22859.660
437.314, 22901.070
437.797, 22884.750
438.279, 22812.150
438.761, 22685.340
439.243, 22503.561
439.725, 22267.289
440.207, 21971.180
440.689, 21616.770
441.171, 21248.820
441.654, 20879.590
442.136, 20482.881
442.618, 20035.641
443.100, 19562.350
443.582, 19094.580
444.064, 18642.689
444.546, 18192.631
445.028, 17721.109
445.510, 17212.670
445.992, 16752.430
446.475, 16380.210
446.957, 16019.690
447.439, 15642.640
447.921, 15256.970
448.403, 14883.370
448.885, 14528.490
449.367, 14192.290
449.849, 13865.020
450.332, 13548.070
450.814, 13264.700
451.296, 13034.530
451.778, 12829.730
452.260, 12610.020
452.742, 12375.220
453.224, 12160.440
453.706, 11985.590
454.189, 11829.600
454.671, 11671.780
455.153, 11511.950
455.635, 11355.910
456.117, 11205.630
456.599, 11063.890
457.081, 10942.140
457.563, 10860.050
458.045, 10772.310
458.528, 10664.120
459.010, 10557.990
459.492, 10480.260
459.974, 10429.200
460.456, 10374.010
460.938, 10277.780
461.420, 10146.810
461.902, 10064.330
462.384, 10058.040
462.867, 10049.300
463.349, 10006.470
463.831, 9944.999
464.313, 9880.102
464.795, 9813.484
465.277, 9751.527
465.759, 9696.736
466.241, 9650.856
466.724, 9619.563
467.206, 9604.504
467.688, 9602.687
468.170, 9624.231
468.652, 9666.590
469.134, 9650.019
469.616, 9509.773
470.098, 9382.106
470.581, 9332.312
471.063, 9329.968
471.545, 9324.887
472.027, 9298.720
472.509, 9260.544
472.991, 9223.070
473.473, 9184.308
473.955, 9152.161
474.437, 9132.621
474.919, 9113.895
475.402, 9093.130
475.884, 9069.763
476.366, 9043.469
476.848, 9013.605
477.330, 8981.478
477.812, 8944.312
478.294, 8902.473
478.776, 8877.663
479.259, 8882.205
479.741, 8896.363
480.223, 8898.694
480.705, 8890.199
481.187, 8873.930
481.669, 8836.959
482.151, 8803.796
482.633, 8800.170
483.116, 8817.627
483.598, 8825.549
484.080, 8807.089
484.562, 8777.046
485.044, 8772.163
485.526, 8815.118
486.008, 8841.492
486.490, 8840.192
486.972, 8833.410
487.455, 8832.573
487.937, 8837.732
488.419, 8844.811
488.901, 8852.436
489.383, 8858.789
489.865, 8857.533
490.347, 8846.672
490.829, 8841.890
491.311, 8854.969
491.794, 8870.350
492.276, 8868.400
492.758, 8848.003
493.240, 8825.473
493.722, 8806.953
494.204, 8788.219
494.686, 8760.830
495.168, 8727.248
495.651, 8702.849
496.133, 8697.622
496.615, 8705.776
497.097, 8708.845
497.579, 8710.430
498.061, 8700.719
498.543, 8662.714
499.025, 8627.189
499.508, 8619.889
499.990, 8637.492
500.472, 8657.271
500.954, 8664.550
501.436, 8660.947
501.918, 8649.329
502.400, 8627.630
502.882, 8606.807
503.364, 8584.640
503.846, 8570.325
504.329, 8576.505
504.811, 8605.763
505.293, 8633.971
505.775, 8665.317
506.257, 8683.177
506.739, 8657.883
507.221, 8595.579
507.703, 8538.017
508.186, 8510.234
508.668, 8506.566
509.150, 8508.988
509.632, 8534.304
510.114, 8539.846
510.596, 8506.526
511.078, 8468.420
511.560, 8447.926
512.042, 8445.393
512.525, 8450.196
513.007, 8458.215
513.489, 8465.623
513.971, 8458.979
514.453, 8434.911
514.935, 8418.410
515.417, 8426.401
515.899, 8438.836
516.382, 8426.417
516.864, 8386.408
517.346, 8354.220
517.828, 8342.655
518.310, 8342.511
518.792, 8347.071
519.274, 8355.343
519.756, 8368.422
520.239, 8388.156
520.721, 8408.468
521.203, 8411.311
521.685, 8378.933
522.167, 8362.357
522.649, 8379.829
523.131, 8396.396
523.613, 8384.864
524.096, 8353.946
524.578, 8334.511
525.060, 8349.942
525.542, 8379.259
526.024, 8382.170
526.506, 8358.649
526.988, 8342.811
527.470, 8349.622
527.952, 8360.868
528.435, 8349.731
528.917, 8316.051
529.399, 8291.035
529.881, 8276.813
530.363, 8274.640
530.845, 8298.458
531.327, 8333.898
531.809, 8346.934
532.291, 8322.842
532.774, 8282.977
533.256, 8267.096
533.738, 8285.858
534.220, 8291.211
534.702, 8267.711
535.184, 8246.359
535.666, 8241.671
536.148, 8248.193
536.630, 8255.297
537.113, 8260.530
537.595, 8261.821
538.077, 8250.741
538.559, 8232.912
539.041, 8233.104
539.523, 8259.230
540.005, 8287.606
540.487, 8296.460
540.969, 8285.210
541.452, 8269.091
541.934, 8236.004
542.416, 8212.960
542.898, 8213.360
543.380, 8225.334
543.862, 8236.896
544.344, 8244.072
544.826, 8245.232
545.309, 8233.661
545.791, 8211.501
546.273, 8211.791
546.755, 8247.875
547.237, 8275.025
547.719, 8261.960
548.201, 8233.292
548.683, 8221.730
549.166, 8233.829
549.648, 8246.760
550.130, 8256.569
550.612, 8258.141
551.094, 8232.689
551.576, 8186.335
552.058, 8164.870
552.540, 8203.118
553.023, 8278.247
553.505, 8307.329
553.987, 8257.022
554.469, 8217.842
554.951, 8189.385
555.433, 8176.710
555.915, 8190.458
556.397, 8224.019
556.879, 8256.331
557.362, 8278.043
557.844, 8289.494
558.326, 8287.843
558.808, 8274.129
559.290, 8259.523
559.772, 8243.269
560.254, 8237.475
560.736, 8264.749
561.218, 8333.445
561.701, 8365.182
562.183, 8328.230
562.665, 8286.641
563.147, 8263.152
563.629, 8255.499
564.111, 8261.638
564.593, 8279.806
565.075, 8299.998
565.557, 8307.967
566.040, 8303.440
566.522, 8304.607
567.004, 8312.920
567.486, 8324.123
567.968, 8341.393
568.450, 8358.376
568.932, 8363.977
569.414, 8352.799
569.896, 8344.265
570.379, 8339.636
570.861, 8346.769
571.343, 8386.054
571.825, 8452.285
572.307, 8508.521
572.789, 8529.324
573.271, 8523.800
573.753, 8523.826
574.236, 8535.110
574.718, 8540.713
575.200, 8521.458
575.682, 8512.146
576.164, 8540.979
576.646, 8598.718
577.128, 8650.789
577.610, 8674.589
578.093, 8693.382
578.575, 8740.425
579.057, 8808.588
579.539, 8861.772
580.021, 8888.042
580.503, 8908.885
580.985, 8948.042
581.467, 9007.430
581.950, 9060.768
582.432, 9103.350
582.914, 9146.322
583.396, 9196.882
583.878, 9247.405
584.360, 9285.586
584.842, 9310.550
585.324, 9336.624
585.806, 9381.622
586.289, 9439.099
586.771, 9484.662
587.253, 9518.025
587.735, 9540.275
588.217, 9546.510
588.699, 9546.397
589.181, 9559.762
589.663, 9591.796
590.145, 9611.834
590.628, 9613.558
591.110, 9603.241
591.592, 9581.399
592.074, 9551.335
592.556, 9519.412
593.038, 9488.520
593.520, 9455.236
594.002, 9402.211
594.484, 9322.525
594.967, 9253.946
595.449, 9220.158
595.931, 9177.936
596.413, 9127.717
596.895, 9045.583
597.377, 9004.668
597.859, 8947.216
598.341, 8897.961
598.823, 8858.784
599.306, 8839.214
599.788, 8802.285
600.270, 8746.195
600.752, 8690.183
601.234, 8647.174
601.716, 8614.907
602.198, 8586.279
602.680, 8563.480
603.162, 8539.084
603.645, 8512.129
604.127, 8483.454
604.609, 8451.810
605.091, 8418.730
605.573, 8388.764
606.055, 8364.680
606.537, 8342.859
607.019, 8317.334
607.502, 8292.270
607.984, 8281.037
608.466, 8285.910
608.948, 8288.202
609.430, 8268.093
609.912, 8227.943
610.394, 8206.199
610.876, 8222.396
611.359, 8227.161
611.841, 8203.319
612.323, 8173.296
612.805, 8155.809
613.287, 8150.782
613.769, 8144.863
614.251, 8124.392
614.733, 8103.456
615.216, 8103.804
615.698, 8121.068
616.180, 8136.420
616.662, 8144.186
617.144, 8145.748
617.626, 8141.047
618.108, 8128.597
618.590, 8125.950
619.072, 8149.243
619.555, 8162.857
620.037, 8149.492
620.519, 8128.265
621.001, 8122.467
621.483, 8134.476
621.965, 8142.768
622.447, 8119.169
622.929, 8085.739
623.411, 8092.065
623.894, 8135.280
624.376, 8169.513
624.858, 8176.549
625.340, 8166.360
625.822, 8151.799
626.304, 8128.464
626.786, 8119.943
627.268, 8137.660
627.750, 8155.576
628.233, 8164.576
628.715, 8168.566
629.197, 8171.539
629.679, 8174.941
630.161, 8183.149
630.643, 8203.328
631.125, 8230.625
631.607, 8251.468
632.089, 8265.331
632.572, 8283.374
633.054, 8312.868
633.536, 8345.296
634.018, 8364.799
634.500, 8366.168
634.982, 8369.251
635.464, 8372.481
635.946, 8378.899
636.429, 8392.956
636.911, 8409.852
637.393, 8421.870
637.875, 8426.584
638.357, 8430.080
638.839, 8432.349
639.321, 8438.461
639.803, 8469.700
640.286, 8528.204
640.768, 8579.026
641.250, 8600.851
641.732, 8610.150
642.214, 8642.538
642.696, 8719.351
643.178, 8765.544
643.660, 8742.035
644.143, 8729.614
644.625, 8777.269
645.107, 8857.795
645.589, 8923.164
646.071, 8957.227
646.553, 8986.822
647.035, 9044.657
647.517, 9118.397
647.999, 9169.678
648.482, 9195.622
648.964, 9219.470
649.446, 9250.297
649.928, 9291.125
650.410, 9348.789
650.892, 9433.581
651.374, 9511.081
651.856, 9571.793
652.338, 9636.041
652.821, 9714.851
653.303, 9802.439
653.785, 9892.269
654.267, 9982.518
654.749, 10060.470
655.231, 10096.950
655.713, 10115.590
656.195, 10182.300
656.677, 10298.960
657.160, 10409.090
657.642, 10485.750
658.124, 10537.830
658.606, 10580.970
659.088, 10605.740
659.570, 10648.570
660.052, 10731.000
660.534, 10806.750
661.016, 10861.510
661.499, 10897.330
661.981, 10914.910
662.463, 10914.290
662.945, 10909.330
663.427, 10910.780
663.909, 10915.010
664.391, 10914.000
664.873, 10908.530
665.356, 10907.280
665.838, 10914.760
666.320, 10925.970
666.802, 10929.580
667.284, 10916.750
667.766, 10934.560
668.248, 11023.610
668.730, 11096.020
669.213, 11101.050
669.695, 11088.580
670.177, 11123.680
670.659, 11218.650
671.141, 11317.730
671.623, 11373.970
672.105, 11426.710
672.587, 11537.630
673.070, 11690.190
673.552, 11813.820
674.034, 11881.470
674.516, 11927.570
674.998, 12004.620
675.480, 12117.980
675.962, 12181.590
676.444, 12181.660
676.926, 12154.430
677.409, 12104.590
