##NAMES=Ramdohrite
##RRUFFID=R100190
##IDEAL CHEMISTRY=Pb_5.9_Fe_0.1_Mn_0.1_In_0.1_Cd_0.2_Ag_2.8_Sb_10.8_S_24_
##LOCALITY=Potosi, Bolivia
##OWNER=RRUFF
##SOURCE=William W Pinch
##DESCRIPTION=Type sample. Unconsolidated steel-gray fragments associated with elongated zinkenite. This sample is primarily andorite VI mixed with andorite IV, as pointed out by Donnay and Donnay (1954).
##STATUS=The identification of this mineral has been confirmed only by single crystal X-ray diffraction.
##URL=rruff.info/R100190
175.4057, 146.9053
175.8878, 147.8750
176.3699, 149.2891
176.8520, 150.3736
177.3341, 151.1597
177.8163, 151.7141
178.2984, 151.8839
178.7805, 151.8960
179.2626, 152.0992
179.7447, 152.5027
180.2268, 152.9754
180.7090, 153.6444
181.1911, 154.3361
181.6732, 154.4842
182.1553, 153.1294
182.6374, 151.1467
183.1195, 150.7170
183.6017, 152.1063
184.0838, 153.7506
184.5659, 153.5821
185.0480, 151.9460
185.5301, 150.5778
186.0123, 150.5847
186.4944, 151.5329
186.9765, 151.9860
187.4586, 151.7903
187.9407, 151.4952
188.4228, 152.0624
188.9050, 153.3916
189.3871, 154.4593
189.8692, 154.5904
190.3513, 153.9612
190.8334, 153.3628
191.3155, 152.7562
191.7977, 152.3903
192.2798, 153.0115
192.7619, 154.6190
193.2440, 155.7306
193.7261, 155.0910
194.2082, 152.9257
194.6904, 151.9844
195.1725, 152.6681
195.6546, 154.1049
196.1367, 154.6504
196.6188, 154.2567
197.1009, 153.7110
197.5831, 153.3894
198.0652, 153.2871
198.5473, 153.2915
199.0294, 153.4023
199.5115, 153.6028
199.9937, 153.9482
200.4758, 154.4878
200.9579, 154.8332
201.4400, 154.5336
201.9221, 153.4894
202.4042, 153.3329
202.8864, 154.5604
203.3685, 156.3143
203.8506, 156.2600
204.3327, 153.9113
204.8148, 151.7314
205.2969, 151.2452
205.7791, 152.7273
206.2612, 153.9032
206.7433, 154.6538
207.2254, 155.0200
207.7075, 154.9993
208.1896, 154.4296
208.6718, 153.9460
209.1539, 153.9335
209.6360, 154.4899
210.1181, 155.0129
210.6002, 155.4453
211.0823, 155.8418
211.5645, 156.3878
212.0466, 157.1741
212.5287, 157.9099
213.0108, 158.4083
213.4929, 158.5925
213.9750, 158.8649
214.4572, 159.2659
214.9393, 159.7616
215.4214, 160.2302
215.9035, 160.5775
216.3856, 161.0929
216.8678, 161.9432
217.3499, 163.2235
217.8320, 164.5621
218.3141, 165.9902
218.7962, 167.4370
219.2783, 168.6933
219.7605, 169.7906
220.2426, 170.6102
220.7247, 171.0226
221.2068, 170.8468
221.6889, 170.7522
222.1710, 170.6880
222.6532, 170.7423
223.1353, 171.1810
223.6174, 172.0223
224.0995, 173.2307
224.5816, 174.9178
225.0637, 177.5785
225.5459, 179.4650
226.0280, 180.2398
226.5101, 180.2777
226.9922, 180.6897
227.4743, 181.6153
227.9564, 182.6984
228.4386, 183.7686
228.9207, 184.7043
229.4028, 185.8971
229.8849, 187.5456
230.3670, 189.4069
230.8492, 190.8220
231.3313, 191.5486
231.8134, 192.1744
232.2955, 192.9411
232.7776, 193.7593
233.2597, 194.9380
233.7419, 196.7016
234.2240, 198.7737
234.7061, 200.3547
235.1882, 201.1930
235.6703, 201.9302
236.1524, 202.8619
236.6346, 204.1378
237.1167, 205.2916
237.5988, 206.4765
238.0809, 207.4947
238.5630, 207.7586
239.0451, 206.4762
239.5273, 205.6252
240.0094, 206.1215
240.4915, 208.6503
240.9736, 210.7682
241.4557, 212.5546
241.9378, 213.9058
242.4200, 214.5473
242.9021, 214.1189
243.3842, 213.5403
243.8663, 213.1054
244.3484, 212.7535
244.8306, 212.7447
245.3127, 213.2221
245.7948, 213.9659
246.2769, 214.6006
246.7590, 215.1915
247.2411, 215.5523
247.7233, 215.5460
248.2054, 214.9992
248.6875, 214.7328
249.1696, 214.7589
249.6517, 215.0605
250.1338, 215.7250
250.6160, 217.2551
251.0981, 218.2305
251.5802, 217.9458
252.0623, 215.9467
252.5444, 215.1247
253.0265, 216.1125
253.5087, 217.7659
253.9908, 218.3708
254.4729, 217.3531
254.9550, 216.4629
255.4371, 216.1827
255.9192, 216.5650
256.4014, 217.2126
256.8835, 218.4365
257.3656, 219.6166
257.8477, 219.9046
258.3298, 218.7636
258.8120, 217.9549
259.2941, 218.1017
259.7762, 219.3037
260.2583, 219.6077
260.7404, 218.4291
261.2225, 217.0742
261.7047, 217.0286
262.1868, 218.8190
262.6689, 220.5545
263.1510, 221.9380
263.6331, 222.9536
264.1152, 223.3515
264.5974, 222.7840
265.0795, 222.1312
265.5616, 222.4151
266.0437, 224.1161
266.5258, 225.1589
267.0079, 224.9995
267.4901, 223.7941
267.9722, 222.8416
268.4543, 222.0237
268.9364, 221.6870
269.4185, 222.3935
269.9006, 224.5768
270.3828, 225.8918
270.8649, 225.8117
271.3470, 224.6142
271.8291, 223.5590
272.3112, 222.6049
272.7933, 221.8554
273.2755, 221.4116
273.7576, 221.2930
274.2397, 221.3258
274.7218, 221.5956
275.2039, 221.9378
275.6860, 221.9060
276.1682, 221.5239
276.6503, 220.6791
277.1324, 219.0126
277.6145, 216.4272
278.0966, 214.6674
278.5787, 214.1284
279.0609, 214.1947
279.5430, 213.3166
280.0251, 211.3066
280.5072, 209.5775
280.9893, 209.3113
281.4715, 210.5002
281.9536, 210.2522
282.4357, 207.9956
282.9178, 205.1397
283.3999, 204.3604
283.8820, 205.7735
284.3642, 207.1011
284.8463, 207.0135
285.3284, 205.6739
285.8105, 205.2050
286.2926, 205.8190
286.7747, 206.6283
287.2569, 206.2537
287.7390, 204.7404
288.2211, 203.3625
288.7032, 202.8156
289.1853, 202.8534
289.6674, 202.2593
290.1496, 200.9473
290.6317, 199.5648
291.1138, 199.0186
291.5959, 199.1626
292.0780, 198.9822
292.5602, 198.0570
293.0423, 196.6185
293.5244, 195.2284
294.0065, 193.8984
294.4886, 192.5291
294.9707, 190.9144
295.4529, 189.1442
295.9350, 187.5875
296.4171, 186.3823
296.8992, 185.3780
297.3813, 184.2653
297.8634, 183.0720
298.3456, 182.0644
298.8277, 181.4383
299.3098, 181.1555
299.7919, 181.2102
300.2740, 181.7545
300.7561, 182.3622
301.2383, 182.3818
301.7204, 181.9258
302.2025, 181.5011
302.6846, 181.1177
303.1667, 181.0527
303.6488, 181.9391
304.1310, 184.1725
304.6131, 186.4007
305.0952, 187.0362
305.5773, 186.5347
306.0594, 186.1300
306.5415, 186.3388
307.0237, 187.0379
307.5058, 188.1478
307.9879, 189.6780
308.4700, 191.4609
308.9521, 193.5831
309.4343, 195.8544
309.9164, 197.9869
310.3985, 199.8678
310.8806, 201.5742
311.3627, 203.0459
311.8448, 204.2897
312.3270, 205.7297
312.8091, 207.6817
313.2912, 209.9559
313.7733, 212.3285
314.2554, 215.1183
314.7375, 217.6437
315.2197, 219.1281
315.7018, 219.7702
316.1839, 221.1175
316.6660, 224.8301
317.1481, 229.0595
317.6302, 232.2359
318.1124, 233.3003
318.5945, 234.1458
319.0766, 235.5080
319.5587, 237.1891
320.0408, 238.5243
320.5229, 239.1974
321.0051, 239.5431
321.4872, 239.7427
321.9693, 239.8344
322.4514, 239.7566
322.9335, 239.8516
323.4156, 239.7436
323.8978, 238.7075
324.3799, 235.5956
324.8620, 232.4268
325.3441, 229.9756
325.8262, 228.6236
326.3083, 227.0319
326.7905, 225.0801
327.2726, 222.8337
327.7547, 220.4015
328.2368, 217.3661
328.7189, 214.5635
329.2010, 212.1227
329.6832, 210.0680
330.1653, 208.3409
330.6474, 207.1819
331.1295, 206.1797
331.6116, 204.9326
332.0938, 202.7878
332.5759, 201.4952
333.0580, 201.9125
333.5401, 203.6296
334.0222, 203.4136
334.5043, 200.1100
334.9865, 196.4644
335.4686, 194.1525
335.9507, 193.7439
336.4328, 193.1049
336.9149, 192.0369
337.3970, 190.6967
337.8792, 189.6145
338.3613, 188.9545
338.8434, 188.0533
339.3255, 186.6789
339.8076, 184.8494
340.2898, 182.3187
340.7719, 178.9888
341.2540, 175.0998
341.7361, 170.7940
342.2182, 166.1024
342.7003, 161.4105
343.1825, 156.9013
343.6646, 152.5211
344.1467, 148.1193
344.6288, 143.5943
345.1109, 139.3650
345.5930, 135.9478
346.0752, 133.2991
346.5573, 130.5250
347.0394, 127.3037
347.5215, 123.8944
348.0036, 120.7405
348.4857, 117.8556
348.9679, 115.2302
349.4500, 112.9316
349.9321, 110.8677
350.4142, 108.7933
350.8963, 106.6683
351.3784, 104.5026
351.8606, 102.1828
352.3427, 99.82169
352.8248, 97.78686
353.3069, 96.55912
353.7890, 95.70377
354.2711, 94.57382
354.7533, 93.09542
355.2354, 91.61776
355.7175, 90.44421
356.1996, 89.48988
356.6817, 88.60647
357.1638, 87.65394
357.6460, 86.80618
358.1281, 86.28018
358.6102, 86.04810
359.0923, 85.72523
359.5744, 85.09853
360.0565, 84.27678
360.5387, 83.33861
361.0208, 81.95731
361.5029, 80.89693
361.9850, 80.79139
362.4671, 81.33540
362.9492, 81.59237
363.4314, 81.19667
363.9135, 80.45683
364.3956, 79.43609
364.8777, 77.82446
365.3598, 76.69952
365.8419, 76.53445
366.3241, 76.93461
366.8062, 77.31288
367.2883, 77.75905
367.7704, 78.01006
368.2526, 77.93413
368.7347, 77.45818
369.2168, 77.06664
369.6989, 76.91668
370.1810, 76.76051
370.6631, 76.39231
371.1453, 75.73586
371.6274, 74.96304
372.1095, 73.93575
372.5916, 72.74725
373.0737, 72.09079
373.5558, 72.27193
374.0380, 72.52218
374.5201, 72.35549
375.0022, 71.54067
375.4843, 71.11564
375.9664, 71.25841
376.4485, 71.67989
376.9307, 71.81032
377.4128, 71.60617
377.8949, 71.28732
378.3770, 70.89697
378.8591, 70.44454
379.3412, 70.07488
379.8234, 69.77522
380.3055, 69.61362
380.7876, 69.76525
381.2697, 70.20779
381.7518, 70.51136
382.2339, 70.53171
382.7161, 70.36734
383.1982, 70.32909
383.6803, 70.40560
384.1624, 70.23830
384.6445, 69.17598
385.1266, 67.67637
385.6088, 66.96214
386.0909, 67.35445
386.5730, 68.12836
387.0551, 68.62092
387.5372, 68.83425
388.0193, 68.77710
388.5015, 67.95998
388.9836, 67.13579
389.4657, 67.38700
389.9478, 68.81007
390.4299, 69.95318
390.9120, 69.64646
391.3942, 68.54165
391.8763, 67.43851
392.3584, 66.32168
392.8405, 65.55260
393.3226, 65.47572
393.8047, 65.96551
394.2869, 66.44740
394.7690, 66.88454
395.2511, 67.11752
395.7332, 67.00359
396.2154, 66.30481
396.6975, 65.71500
397.1796, 65.35423
397.6617, 65.19346
398.1438, 65.18137
398.6259, 65.51606
399.1081, 65.79690
399.5902, 65.93675
400.0723, 65.94033
400.5544, 65.75231
401.0365, 65.12782
401.5186, 64.49094
402.0008, 64.20102
402.4829, 64.40578
402.9650, 64.69557
403.4471, 65.17706
403.9292, 65.70896
404.4113, 65.58967
404.8935, 64.49458
405.3756, 63.49379
405.8577, 63.27822
406.3398, 64.01814
406.8219, 64.21020
407.3040, 63.66607
407.7862, 62.90532
408.2683, 62.76167
408.7504, 63.25842
409.2325, 63.61803
409.7146, 63.53715
410.1967, 63.13044
410.6789, 62.66080
411.1610, 62.11680
411.6431, 61.81372
412.1252, 62.28960
412.6073, 63.24356
413.0894, 63.77818
413.5716, 63.61696
414.0537, 63.18462
414.5358, 62.97456
415.0179, 62.92281
415.5000, 62.81408
415.9821, 62.46836
416.4643, 62.04026
416.9464, 61.67396
417.4285, 61.38113
417.9106, 61.15572
418.3927, 60.87892
418.8748, 60.70355
419.3570, 60.81544
419.8391, 61.69810
420.3212, 62.47249
420.8033, 62.84903
421.2854, 62.83057
421.7675, 62.45428
422.2497, 61.15786
422.7318, 59.93592
423.2139, 59.39753
423.6960, 60.05442
424.1781, 60.42173
424.6602, 60.01789
425.1424, 59.32236
425.6245, 59.05627
426.1066, 59.83234
426.5887, 60.25460
427.0709, 59.78027
427.5530, 58.41012
428.0351, 57.94806
428.5172, 58.89520
428.9993, 60.05753
429.4814, 60.53733
429.9636, 60.12438
430.4457, 59.86651
430.9278, 59.94773
431.4099, 60.13114
431.8920, 59.79325
432.3741, 58.84450
432.8563, 58.04568
433.3384, 57.72889
433.8205, 57.86037
434.3026, 58.37431
434.7847, 59.34456
435.2668, 60.13359
435.7490, 59.84159
436.2311, 58.77179
436.7132, 58.02325
437.1953, 57.95742
437.6774, 58.23985
438.1595, 58.51635
438.6417, 58.77395
439.1238, 58.95856
439.6059, 59.04585
440.0880, 59.03992
440.5701, 58.95414
441.0522, 58.79497
441.5344, 58.51472
442.0165, 57.94395
442.4986, 57.28057
442.9807, 56.77009
443.4628, 56.41259
443.9449, 56.30190
444.4271, 56.62910
444.9092, 57.30288
445.3913, 57.81399
445.8734, 58.02712
446.3555, 58.04326
446.8376, 57.85601
447.3198, 57.14629
447.8019, 56.87975
448.2840, 57.37745
448.7661, 58.19823
449.2482, 58.75758
449.7303, 59.10502
450.2125, 59.06084
450.6946, 58.30982
451.1767, 56.96005
451.6588, 56.80381
452.1409, 58.32746
452.6230, 59.91314
453.1052, 60.31806
453.5873, 59.45211
454.0694, 58.62258
454.5515, 57.90766
455.0337, 57.31703
455.5158, 56.86869
455.9979, 56.56088
456.4800, 56.43978
456.9621, 56.77176
457.4442, 57.23010
457.9264, 56.82149
458.4085, 55.58562
458.8906, 54.53410
459.3727, 54.59863
459.8548, 55.37079
460.3369, 56.30822
460.8191, 57.53072
461.3012, 58.35186
461.7833, 57.83126
462.2654, 56.51577
462.7475, 55.54467
463.2296, 55.68249
463.7118, 56.06814
464.1939, 56.25182
464.6760, 56.20438
465.1581, 56.11229
465.6402, 55.80014
466.1223, 55.60397
466.6045, 55.76690
467.0866, 57.10268
467.5687, 57.82504
468.0508, 57.43964
468.5329, 56.41982
469.0150, 55.82035
469.4972, 55.92571
469.9793, 56.03392
470.4614, 55.95559
470.9435, 55.68908
471.4256, 55.21676
471.9077, 54.39363
472.3899, 53.65570
472.8720, 53.49339
473.3541, 53.97128
473.8362, 54.18304
474.3183, 53.88453
474.8004, 53.44957
475.2826, 53.66012
475.7647, 54.48080
476.2468, 55.41265
476.7289, 56.59509
477.2110, 57.63407
477.6931, 57.27671
478.1753, 55.52315
478.6574, 53.96259
479.1395, 54.42507
479.6216, 55.77192
480.1037, 56.23356
480.5858, 54.89069
481.0680, 53.44109
481.5501, 53.06538
482.0322, 53.43465
482.5143, 53.87132
482.9964, 54.31007
483.4786, 54.58448
483.9607, 54.50978
484.4428, 54.04227
484.9249, 53.78299
485.4070, 53.95203
485.8892, 54.30567
486.3713, 54.68300
486.8534, 55.21930
487.3355, 55.57571
487.8176, 55.82374
488.2997, 55.85997
488.7819, 55.35326
489.2640, 53.88963
489.7461, 52.82927
490.2282, 52.72897
490.7103, 53.52138
491.1924, 54.11267
491.6746, 54.52520
492.1567, 54.66069
492.6388, 54.25937
493.1209, 53.40022
493.6030, 52.84863
494.0851, 52.73881
494.5673, 52.85272
495.0494, 52.93041
495.5315, 52.97677
496.0136, 53.00703
496.4957, 53.03194
496.9778, 53.04311
497.4600, 52.94353
497.9421, 52.76508
498.4242, 52.79877
498.9063, 53.69843
499.3884, 54.61485
499.8705, 54.70457
500.3527, 53.37487
500.8348, 52.28207
501.3169, 52.24947
501.7990, 52.75389
502.2811, 53.06042
502.7632, 52.66803
503.2454, 52.46560
503.7275, 52.85369
504.2096, 53.73851
504.6917, 54.05931
505.1738, 53.48619
505.6559, 52.79620
506.1381, 52.33604
506.6202, 52.05371
507.1023, 52.33471
507.5844, 53.44801
508.0665, 54.64191
508.5486, 54.76243
509.0308, 53.78197
509.5129, 52.86832
509.9950, 52.30486
510.4771, 52.00557
510.9592, 51.81399
511.4413, 51.72662
511.9235, 51.70535
512.4056, 51.89088
512.8877, 52.06441
513.3698, 51.73121
513.8519, 50.80584
514.3340, 50.14589
514.8162, 50.75556
515.2983, 51.85277
515.7804, 52.48372
516.2625, 51.93880
516.7446, 51.42365
517.2267, 51.53896
517.7089, 52.04810
518.1910, 52.36892
518.6731, 52.23757
519.1552, 52.03113
519.6373, 51.86148
520.1194, 51.72929
520.6016, 51.63650
521.0837, 51.60191
521.5658, 51.58596
522.0479, 51.60113
522.5300, 51.73124
523.0121, 51.49162
523.4943, 50.60354
523.9764, 49.66223
524.4585, 50.02060
524.9406, 51.71080
525.4227, 52.94001
525.9048, 52.92284
526.3870, 52.06983
526.8691, 51.26114
527.3513, 50.50480
527.8334, 49.96031
528.3155, 49.76368
528.7976, 49.83578
529.2797, 50.09544
529.7618, 50.55592
530.2440, 51.05852
530.7261, 51.69765
531.2082, 52.24483
531.6903, 52.39671
532.1724, 51.58456
532.6545, 50.86323
533.1367, 50.51069
533.6188, 50.50608
534.1009, 50.75299
534.5830, 51.91835
535.0651, 52.66566
535.5472, 52.37951
536.0294, 50.83277
536.5115, 49.90420
536.9936, 49.84085
537.4757, 50.05043
537.9578, 50.02374
538.4399, 49.69765
538.9221, 49.53701
539.4042, 49.59938
539.8863, 49.82562
540.3684, 50.20111
540.8505, 50.70216
541.3326, 51.04751
541.8148, 51.14095
542.2969, 50.99818
542.7790, 50.46930
543.2611, 49.62437
543.7432, 49.00007
544.2253, 49.18314
544.7075, 49.65267
545.1896, 49.82359
545.6717, 49.54692
546.1538, 49.36986
546.6359, 49.74247
547.1180, 50.27852
547.6002, 50.56269
548.0823, 50.33849
548.5644, 50.03955
549.0465, 49.63966
549.5286, 49.21441
550.0107, 48.99002
550.4929, 49.09394
550.9750, 49.20300
551.4571, 49.17803
551.9392, 49.01752
552.4213, 49.14875
552.9034, 49.70805
553.3856, 50.13639
553.8677, 49.77943
554.3498, 48.73405
554.8319, 48.24341
555.3140, 48.51502
555.7961, 49.04699
556.2783, 49.22029
556.7604, 49.12499
557.2425, 49.00502
557.7246, 48.90082
558.2067, 48.86359
558.6888, 49.08202
559.1710, 49.44277
559.6531, 49.55400
560.1352, 48.77885
560.6173, 48.04935
561.0994, 48.10344
561.5815, 49.14099
562.0637, 49.67997
562.5458, 48.89898
563.0279, 47.86109
563.5100, 47.34527
563.9921, 47.73053
564.4742, 47.96955
564.9564, 47.96623
565.4385, 47.86227
565.9206, 47.95987
566.4027, 48.34848
566.8848, 48.45049
567.3669, 47.95895
567.8491, 47.13638
568.3312, 46.92326
568.8133, 47.29693
569.2954, 47.65446
569.7775, 47.45086
570.2596, 47.01091
570.7418, 47.02016
571.2239, 47.53413
571.7060, 47.98114
572.1881, 47.66404
572.6702, 47.15990
573.1523, 47.17931
573.6345, 48.38807
574.1166, 49.24816
574.5987, 48.80418
575.0808, 47.71406
575.5629, 47.06251
576.0450, 47.72694
576.5272, 48.05805
577.0093, 47.57123
577.4914, 46.42947
577.9735, 45.68931
578.4556, 45.43422
578.9377, 45.42413
579.4199, 45.64671
579.9020, 46.10866
580.3841, 46.22892
580.8662, 45.96566
581.3483, 45.59075
581.8304, 45.22942
582.3126, 44.96355
582.7947, 45.16945
583.2768, 46.05954
583.7589, 46.99919
584.2410, 47.27528
584.7231, 47.10689
585.2053, 46.92776
585.6874, 47.17876
586.1696, 47.22686
586.6517, 46.38733
587.1338, 44.94164
587.6159, 44.14347
588.0980, 44.97517
588.5801, 45.93627
589.0623, 46.37293
589.5444, 46.19699
590.0265, 46.04909
590.5086, 45.94244
590.9907, 45.84764
591.4728, 45.68964
591.9550, 45.41452
592.4371, 45.52468
592.9192, 46.20384
593.4013, 46.92834
593.8834, 46.88580
594.3655, 46.16590
594.8477, 45.29096
595.3298, 44.29713
595.8119, 43.41251
596.2940, 42.90470
596.7761, 42.76673
597.2582, 42.95842
597.7404, 43.74778
598.2225, 44.63673
598.7046, 45.35134
599.1867, 45.86554
599.6688, 46.09813
600.1509, 45.78067
600.6331, 45.35331
601.1152, 45.10542
601.5973, 45.18698
602.0794, 45.09512
602.5615, 44.68065
603.0436, 44.23654
603.5258, 44.21602
604.0079, 44.79301
604.4900, 44.78057
604.9721, 43.78010
605.4542, 42.40752
605.9363, 41.94698
606.4185, 42.32164
606.9006, 42.82070
607.3827, 43.21640
607.8648, 43.48607
608.3469, 43.58333
608.8290, 43.51398
609.3112, 43.30450
609.7933, 42.60993
610.2754, 42.03273
610.7575, 42.16344
611.2396, 43.17843
611.7217, 43.96209
612.2039, 44.27057
612.6860, 44.18081
613.1681, 43.70564
613.6502, 42.22913
614.1323, 41.50063
614.6144, 41.90889
615.0966, 42.75008
615.5787, 42.95379
616.0608, 42.39555
616.5429, 42.00334
617.0250, 42.05561
617.5071, 42.32891
617.9893, 42.22403
618.4714, 41.80738
618.9535, 41.59428
619.4356, 42.09061
619.9177, 42.81102
620.3998, 43.18798
620.8820, 43.22227
621.3641, 43.00780
621.8462, 42.31476
622.3283, 41.58293
622.8104, 41.13625
623.2925, 41.04735
623.7747, 41.09495
624.2568, 41.26026
624.7389, 41.53593
625.2210, 41.94891
625.7031, 42.71490
626.1852, 43.11482
626.6674, 42.98728
627.1495, 42.61535
627.6316, 42.51106
628.1137, 42.69238
628.5958, 42.68260
629.0779, 42.26937
629.5601, 41.67327
630.0422, 41.26730
630.5243, 41.05183
631.0064, 41.00989
631.4885, 41.43425
631.9706, 41.82421
632.4528, 41.52111
632.9349, 40.59337
633.4170, 39.95376
633.8991, 40.26361
634.3812, 40.78846
634.8633, 41.08074
635.3455, 40.99207
635.8276, 40.99242
636.3097, 41.12084
636.7918, 41.31711
637.2739, 41.58906
637.7560, 42.03837
638.2382, 42.07608
638.7203, 41.51216
639.2024, 40.79465
639.6845, 40.70895
640.1666, 41.16322
640.6487, 41.39454
641.1309, 41.07426
641.6130, 40.55979
642.0951, 40.28344
642.5772, 40.21572
643.0594, 40.28811
643.5415, 40.51841
644.0236, 40.83210
644.5057, 41.26479
644.9879, 41.78788
645.4700, 42.14466
645.9521, 42.40969
646.4342, 42.36356
646.9163, 41.80107
647.3984, 40.56441
647.8806, 39.89821
648.3627, 39.99332
648.8448, 40.29150
649.3269, 40.41597
649.8090, 40.36495
650.2911, 39.94563
650.7733, 39.03628
651.2554, 38.21804
651.7375, 38.33632
652.2196, 39.07488
652.7017, 39.65136
653.1838, 39.79156
653.6660, 39.81865
654.1481, 39.95974
654.6302, 40.16320
655.1123, 40.34033
655.5944, 40.47429
656.0765, 40.56057
656.5587, 40.64667
657.0408, 40.69378
657.5229, 40.48458
658.0050, 39.65778
658.4871, 39.21692
658.9692, 39.69276
659.4514, 40.95874
659.9335, 41.51803
660.4156, 41.29299
660.8977, 40.99120
661.3798, 41.27351
661.8619, 41.85456
662.3441, 41.94460
662.8262, 41.49163
663.3083, 40.82954
663.7904, 39.93550
664.2725, 39.11561
664.7546, 38.76599
665.2368, 39.16069
665.7189, 39.49184
666.2010, 39.34469
666.6831, 39.05946
667.1652, 39.04254
667.6473, 39.63870
668.1295, 39.94553
668.6116, 39.80251
669.0937, 39.41252
