##NAMES=Ramdohrite
##RRUFFID=R100190
##IDEAL CHEMISTRY=Pb_5.9_Fe_0.1_Mn_0.1_In_0.1_Cd_0.2_Ag_2.8_Sb_10.8_S_24_
##LOCALITY=Potosi, Bolivia
##OWNER=RRUFF
##SOURCE=William W Pinch
##DESCRIPTION=Type sample. Unconsolidated steel-gray fragments associated with elongated zinkenite. This sample is primarily andorite VI mixed with andorite IV, as pointed out by Donnay and Donnay (1954).
##STATUS=The identification of this mineral has been confirmed only by single crystal X-ray diffraction.
##URL=rruff.info/R100190
164.8514, 98.27691
165.3335, 98.28902
165.8156, 99.64127
166.2977, 100.4912
166.7798, 100.3144
167.2620, 99.57888
167.7441, 98.93131
168.2262, 98.61416
168.7083, 98.63840
169.1904, 99.14537
169.6725, 100.6318
170.1547, 101.6474
170.6368, 101.3961
171.1189, 100.1495
171.6010, 98.72602
172.0831, 97.14317
172.5652, 95.94727
173.0474, 96.11581
173.5295, 98.36777
174.0116, 100.6070
174.4937, 100.9738
174.9758, 99.47515
175.4579, 98.16617
175.9401, 98.18569
176.4222, 98.73920
176.9043, 98.93144
177.3864, 98.48397
177.8685, 97.93002
178.3506, 98.11181
178.8328, 99.35972
179.3149, 100.1441
179.7970, 99.57865
180.2791, 98.50375
180.7612, 97.59354
181.2433, 97.08956
181.7255, 96.85149
182.2076, 96.54537
182.6897, 95.96217
183.1718, 95.72871
183.6539, 96.52712
184.1360, 97.46286
184.6181, 97.46738
185.1003, 95.97305
185.5824, 93.51951
186.0645, 92.05134
186.5466, 92.57836
187.0287, 92.93243
187.5108, 92.72617
187.9930, 92.21551
188.4751, 91.76656
188.9572, 91.59554
189.4393, 91.61471
189.9214, 91.32510
190.4035, 90.15072
190.8857, 89.30882
191.3678, 89.17017
191.8499, 89.51118
192.3320, 90.02153
192.8141, 90.58133
193.2962, 91.10253
193.7784, 90.83329
194.2605, 89.10136
194.7426, 87.49734
195.2247, 86.48275
195.7068, 86.01818
196.1889, 85.98804
196.6711, 86.44221
197.1532, 87.23721
197.6353, 87.63686
198.1174, 87.23957
198.5995, 86.85693
199.0816, 87.13290
199.5638, 87.94252
200.0459, 88.39478
200.5280, 87.70782
201.0101, 86.35361
201.4922, 85.75026
201.9743, 86.27486
202.4565, 87.22832
202.9386, 88.25462
203.4207, 89.37247
203.9028, 89.99581
204.3849, 89.27056
204.8670, 88.02341
205.3492, 87.50118
205.8313, 88.25442
206.3134, 89.38475
206.7955, 89.80065
207.2776, 89.40835
207.7597, 88.73154
208.2419, 87.53599
208.7240, 86.35068
209.2061, 85.77867
209.6882, 86.11337
210.1703, 86.93126
210.6524, 87.51112
211.1346, 87.75011
211.6167, 88.00251
212.0988, 88.39733
212.5809, 88.84885
213.0630, 89.28161
213.5451, 89.66282
214.0273, 90.01128
214.5094, 90.35263
214.9915, 90.61978
215.4736, 91.01540
215.9557, 91.66541
216.4378, 92.40125
216.9200, 92.99539
217.4021, 93.33225
217.8842, 93.61526
218.3663, 94.45678
218.8484, 96.57828
219.3305, 98.21264
219.8127, 99.03406
220.2948, 99.36581
220.7769, 99.49551
221.2590, 99.55373
221.7411, 99.57870
222.2232, 99.68063
222.7054, 99.77913
223.1875, 100.0781
223.6696, 100.5008
224.1517, 101.1569
224.6338, 102.2878
225.1159, 104.0102
225.5980, 106.0296
226.0802, 107.4877
226.5623, 107.8748
227.0444, 108.2792
227.5265, 108.7154
228.0086, 109.2281
228.4907, 109.8798
228.9729, 110.6994
229.4550, 111.6443
229.9371, 112.6185
230.4192, 113.9396
230.9013, 114.8101
231.3834, 114.5756
231.8656, 113.9291
232.3477, 113.9857
232.8298, 115.2361
233.3119, 117.1100
233.7940, 118.3968
234.2761, 119.0539
234.7583, 119.4237
235.2404, 119.1699
235.7225, 118.7430
236.2046, 119.0365
236.6867, 120.4813
237.1688, 122.4137
237.6510, 123.8172
238.1331, 124.8153
238.6152, 125.1204
239.0973, 123.8977
239.5794, 121.9509
240.0615, 121.1185
240.5437, 122.1329
241.0258, 123.9012
241.5079, 125.0715
241.9900, 125.6889
242.4721, 126.0073
242.9542, 126.0951
243.4364, 125.9610
243.9185, 125.5496
244.4006, 124.6787
244.8827, 123.8537
245.3648, 123.6489
245.8469, 123.9846
246.3290, 124.3439
246.8112, 124.6924
247.2933, 124.8925
247.7754, 124.3805
248.2575, 122.6189
248.7396, 120.9309
249.2217, 120.3734
249.7039, 120.7229
250.1860, 121.2880
250.6681, 121.9700
251.1502, 122.6191
251.6323, 122.5695
252.1144, 121.2893
252.5966, 120.1343
253.0787, 120.1176
253.5608, 120.8207
254.0429, 121.2995
254.5250, 120.9207
255.0071, 119.8975
255.4893, 118.9677
255.9714, 117.8325
256.4535, 117.3540
256.9356, 118.4678
257.4177, 120.3025
257.8998, 121.3602
258.3820, 120.5107
258.8641, 118.4350
259.3462, 117.6669
259.8283, 119.2636
260.3104, 120.4437
260.7925, 120.1141
261.2747, 118.9538
261.7568, 117.7515
262.2389, 116.7928
262.7210, 116.2163
263.2031, 116.5681
263.6852, 118.7896
264.1674, 120.3096
264.6495, 120.0263
265.1316, 119.0520
265.6137, 118.6280
266.0958, 119.3138
266.5779, 120.5825
267.0601, 121.1461
267.5422, 120.4905
268.0243, 120.0277
268.5064, 119.7915
268.9885, 119.8897
269.4706, 120.6500
269.9528, 122.1510
270.4349, 123.7749
270.9170, 124.2368
271.3991, 122.6583
271.8812, 121.6237
272.3633, 121.5597
272.8455, 121.8521
273.3276, 122.1505
273.8097, 122.3245
274.2918, 122.3085
274.7739, 121.9606
275.2560, 121.0369
275.7382, 120.2949
276.2202, 119.8950
276.7024, 119.5163
277.1845, 118.8047
277.6666, 117.7960
278.1487, 116.9612
278.6308, 116.9903
279.1129, 118.4207
279.5951, 118.8107
280.0772, 117.6478
280.5593, 116.0955
281.0414, 114.6109
281.5235, 113.2909
282.0056, 112.0866
282.4878, 110.9298
282.9699, 109.7678
283.4520, 109.0315
283.9341, 109.2738
284.4162, 109.3441
284.8983, 108.6952
285.3805, 107.4618
285.8626, 106.0967
286.3447, 104.9421
286.8268, 103.9983
287.3089, 102.9667
287.7910, 101.8315
288.2732, 100.6385
288.7553, 99.40998
289.2374, 98.13567
289.7195, 96.78503
290.2016, 95.32681
290.6837, 93.80437
291.1659, 92.42646
291.6480, 91.33508
292.1301, 90.22936
292.6122, 89.16033
293.0943, 88.02247
293.5764, 86.55275
294.0586, 84.60342
294.5407, 82.51192
295.0228, 81.18822
295.5049, 81.65627
295.9870, 81.66644
296.4691, 81.07646
296.9513, 80.01876
297.4334, 78.36914
297.9155, 76.13672
298.3976, 73.94661
298.8797, 72.87283
299.3618, 73.60019
299.8440, 74.30146
300.3261, 75.28803
300.8082, 76.05370
301.2903, 75.99916
301.7724, 75.09025
302.2545, 74.00028
302.7367, 73.48145
303.2188, 73.61338
303.7009, 74.20726
304.1830, 75.85708
304.6651, 77.44705
305.1472, 78.15028
305.6294, 78.03932
306.1115, 77.82138
306.5936, 78.09778
307.0757, 78.90188
307.5578, 79.66142
308.0399, 80.17435
308.5221, 80.84673
309.0042, 82.01752
309.4863, 83.51213
309.9684, 84.82659
310.4505, 85.59925
310.9326, 85.94524
311.4148, 86.65241
311.8969, 87.85910
312.3790, 89.20583
312.8611, 90.70640
313.3432, 92.27343
313.8253, 93.87476
314.3075, 95.51643
314.7896, 97.00225
315.2717, 97.79439
315.7538, 96.96048
316.2359, 96.78673
316.7180, 97.93746
317.2001, 99.62336
317.6823, 100.9699
318.1644, 101.7316
318.6465, 102.2634
319.1286, 103.1080
319.6107, 104.4749
320.0928, 105.6490
320.5750, 106.9686
321.0571, 107.8786
321.5392, 107.6830
322.0213, 106.4439
322.5034, 105.0784
322.9855, 104.5385
323.4677, 104.9828
323.9498, 105.0966
324.4319, 104.9195
324.9140, 104.4368
325.3961, 103.4703
325.8782, 102.1622
326.3604, 100.8982
326.8425, 99.96180
327.3246, 99.31493
327.8067, 98.49475
328.2888, 97.34378
328.7709, 96.22602
329.2531, 95.29306
329.7352, 94.44783
330.2173, 93.47087
330.6994, 92.24335
331.1815, 90.94967
331.6636, 90.08492
332.1458, 90.16203
332.6279, 90.05395
333.1100, 89.96732
333.5921, 89.56532
334.0742, 88.30830
334.5563, 86.11302
335.0385, 83.62598
335.5206, 81.81651
336.0027, 81.01678
336.4848, 80.07469
336.9669, 78.88329
337.4490, 77.64111
337.9312, 76.58128
338.4133, 75.64182
338.8954, 74.48983
339.3775, 72.78226
339.8596, 70.45618
340.3417, 68.31207
340.8239, 66.74455
341.3060, 64.93496
341.7881, 62.35883
342.2702, 59.32140
342.7523, 56.44113
343.2344, 54.09833
343.7166, 52.24685
344.1987, 50.69091
344.6808, 49.50142
345.1629, 48.56732
345.6450, 48.21626
346.1271, 47.98867
346.6093, 47.28086
347.0914, 45.89795
347.5735, 44.25875
348.0556, 43.21502
348.5377, 43.30433
349.0198, 43.01697
349.5020, 41.98908
349.9841, 40.90606
350.4662, 40.32473
350.9483, 40.24842
351.4304, 40.21941
351.9125, 39.71392
352.3947, 38.62854
352.8768, 37.76514
353.3589, 37.32788
353.8410, 36.90893
354.3231, 36.28961
354.8052, 35.57932
355.2874, 35.04418
355.7695, 34.89775
356.2516, 35.04543
356.7337, 34.91248
357.2158, 33.97142
357.6979, 33.48959
358.1800, 34.21896
358.6621, 35.27052
359.1443, 35.57692
359.6264, 34.73369
360.1085, 33.36428
360.5906, 32.57330
361.0727, 32.51905
361.5548, 32.65369
362.0370, 33.22708
362.5191, 33.72918
363.0012, 33.79595
363.4833, 33.42438
363.9654, 32.90582
364.4475, 32.50007
364.9297, 32.20932
365.4118, 31.98461
365.8939, 31.68669
366.3760, 31.63260
366.8581, 32.12626
367.3402, 32.94068
367.8224, 33.63778
368.3045, 33.99120
368.7866, 34.02486
369.2687, 33.74855
369.7508, 32.99273
370.2329, 32.30141
370.7151, 31.95851
371.1972, 31.71707
371.6793, 31.25714
372.1614, 30.45288
372.6435, 29.71146
373.1256, 29.63755
373.6078, 30.28705
374.0899, 30.79267
374.5720, 30.89264
375.0541, 30.85669
375.5362, 30.86587
376.0183, 30.92643
376.5005, 31.00262
376.9826, 31.12119
377.4647, 31.24377
377.9468, 31.22818
378.4289, 31.05231
378.9110, 30.76382
379.3932, 30.23681
379.8753, 29.63242
380.3574, 29.28695
380.8395, 29.41109
381.3216, 29.74197
381.8037, 29.96551
382.2859, 30.07956
382.7680, 30.24553
383.2501, 30.74714
383.7322, 31.17507
384.2143, 30.84280
384.6964, 29.50624
385.1786, 28.23752
385.6607, 27.60671
386.1428, 27.51735
386.6249, 27.80884
387.1070, 28.56135
387.5891, 29.35512
388.0713, 29.60379
388.5534, 29.36493
389.0355, 29.27945
389.5176, 29.75269
389.9997, 30.26595
390.4818, 30.28069
390.9640, 29.78166
391.4461, 29.04600
391.9282, 28.11145
392.4103, 27.12039
392.8924, 26.73913
393.3745, 27.41448
393.8567, 28.15178
394.3388, 28.71346
394.8209, 29.04672
395.3030, 28.91722
395.7851, 28.17996
396.2672, 27.29833
396.7494, 27.12092
397.2315, 28.02207
397.7136, 28.76212
398.1957, 29.45221
398.6778, 29.85853
399.1599, 29.62639
399.6420, 28.81832
400.1241, 27.95516
400.6063, 27.49425
401.0884, 27.44435
401.5705, 27.46275
402.0526, 27.47612
402.5347, 27.62581
403.0168, 28.24470
403.4990, 28.97113
403.9811, 29.13366
404.4632, 28.40052
404.9453, 27.20359
405.4274, 26.60743
405.9095, 27.06205
406.3917, 27.39125
406.8738, 27.60093
407.3559, 27.65669
407.8380, 27.42468
408.3201, 26.95944
408.8022, 26.55827
409.2844, 26.57734
409.7665, 27.06225
410.2486, 27.21371
410.7307, 26.39319
411.2128, 25.94056
411.6949, 26.66163
412.1771, 27.92421
412.6592, 28.66765
413.1413, 28.31549
413.6234, 27.34747
414.1055, 26.81694
414.5876, 26.90061
415.0698, 26.87627
415.5519, 26.28985
416.0340, 25.72879
416.5161, 25.69367
416.9982, 26.21230
417.4803, 26.76189
417.9625, 26.76665
418.4446, 26.34805
418.9267, 26.44627
419.4088, 27.50829
419.8909, 28.38675
420.3730, 28.22126
420.8552, 27.36156
421.3373, 26.45372
421.8194, 25.55268
422.3015, 24.86300
422.7836, 24.77537
423.2657, 25.28108
423.7479, 25.63442
424.2300, 25.37371
424.7121, 24.95868
425.1942, 25.25891
425.6763, 26.51153
426.1584, 27.26141
426.6406, 26.25679
427.1227, 24.52246
427.6048, 23.95258
428.0869, 24.92181
428.5690, 26.17835
429.0511, 26.56125
429.5333, 26.05963
430.0154, 25.87184
430.4975, 26.44517
430.9796, 26.91553
431.4617, 26.61890
431.9438, 25.82174
432.4260, 25.23964
432.9081, 25.22097
433.3902, 25.57617
433.8723, 25.88810
434.3544, 26.49980
434.8365, 26.45385
435.3187, 24.94020
435.8008, 23.27338
436.2829, 22.61096
436.7650, 23.02225
437.2471, 23.80486
437.7292, 24.33511
438.2114, 24.61132
438.6935, 24.77371
439.1756, 24.90352
439.6577, 24.82373
440.1398, 24.20554
440.6219, 23.44436
441.1040, 23.12570
441.5862, 23.49457
442.0683, 24.18009
442.5504, 24.43399
443.0325, 23.97222
443.5146, 23.95891
443.9967, 25.14940
444.4789, 26.26171
444.9610, 26.58500
445.4431, 26.19422
445.9252, 25.57984
446.4073, 24.94901
446.8894, 24.39268
447.3716, 24.32086
447.8537, 24.91060
448.3358, 25.54435
448.8179, 26.27386
449.3000, 26.76648
449.7821, 26.45627
450.2643, 25.05085
450.7464, 23.68156
451.2285, 23.44032
451.7106, 24.12416
452.1927, 24.75866
452.6748, 25.18773
453.1570, 25.44734
453.6391, 25.52854
454.1212, 25.45949
454.6033, 25.32006
455.0854, 25.02799
455.5675, 24.74786
456.0497, 24.72026
456.5318, 24.88580
457.0139, 24.83009
457.4960, 24.24955
457.9781, 23.42633
458.4602, 23.15450
458.9424, 23.58648
459.4245, 24.13103
459.9066, 24.99906
460.3887, 25.75517
460.8708, 25.81491
461.3529, 25.16383
461.8351, 24.39498
462.3172, 24.06098
462.7993, 24.17822
463.2814, 24.28981
463.7635, 24.40639
464.2456, 24.50560
464.7278, 24.54451
465.2099, 24.57576
465.6920, 24.68250
466.1741, 24.89532
466.6562, 25.15018
467.1383, 25.34927
467.6205, 25.50242
468.1026, 25.57193
468.5847, 25.64205
469.0668, 25.54730
469.5489, 25.16040
470.0310, 24.53573
470.5132, 23.78821
470.9953, 22.85913
471.4774, 21.97638
471.9595, 21.88700
472.4416, 22.89144
472.9237, 23.56318
473.4059, 22.87785
473.8880, 21.94570
474.3701, 21.79159
474.8522, 22.54206
475.3343, 23.58295
475.8164, 25.03255
476.2986, 26.42848
476.7807, 26.26118
477.2628, 24.03580
477.7449, 22.05829
478.2270, 22.50665
478.7091, 24.69775
479.1913, 25.64074
479.6734, 24.07564
480.1555, 22.47137
480.6376, 22.17641
481.1197, 22.75451
481.6018, 23.34911
482.0839, 23.69390
482.5660, 23.84390
483.0482, 23.85105
483.5303, 23.64665
484.0124, 23.55228
484.4945, 23.62338
484.9766, 23.74482
485.4587, 23.91011
485.9409, 24.07471
486.4230, 24.19658
486.9051, 24.26680
487.3872, 24.19207
487.8693, 23.62463
488.3514, 21.88975
488.8336, 20.95126
489.3157, 21.28870
489.7978, 22.06688
490.2799, 22.99451
490.7620, 23.88935
491.2441, 24.38408
491.7263, 24.01083
492.2084, 23.00175
492.6905, 22.55021
493.1726, 22.94339
493.6547, 23.20480
494.1368, 22.64055
494.6190, 21.88474
495.1011, 21.64369
495.5832, 22.09544
496.0653, 22.61348
496.5474, 22.62019
497.0295, 22.31288
497.5117, 22.36777
497.9938, 22.97879
498.4759, 23.54549
498.9580, 23.47128
499.4401, 22.89699
499.9222, 22.61402
500.4044, 22.96726
500.8865, 23.31374
501.3686, 23.11359
501.8507, 22.69331
502.3328, 22.89815
502.8149, 24.04421
503.2971, 25.28700
503.7792, 25.35209
504.2613, 23.71369
504.7434, 22.78278
505.2255, 22.85359
505.7076, 23.25642
506.1898, 23.98756
506.6719, 24.77050
507.1540, 25.10428
507.6361, 24.71411
508.1182, 23.86920
508.6003, 23.15527
509.0825, 22.52916
509.5646, 22.15039
510.0467, 22.23118
510.5288, 22.39573
511.0109, 22.51842
511.4930, 22.55587
511.9752, 22.43153
512.4573, 22.00943
512.9394, 21.44899
513.4215, 21.08091
513.9036, 20.89463
514.3857, 20.97696
514.8679, 21.54523
515.3500, 22.27330
515.8321, 22.74732
516.3142, 22.94366
516.7963, 23.02919
517.2784, 23.01124
517.7606, 22.95504
518.2427, 22.95844
518.7248, 23.02755
519.2069, 23.09462
519.6890, 23.10372
520.1711, 23.07835
520.6533, 23.13944
521.1354, 23.70208
521.6175, 23.79388
522.0996, 22.61948
522.5817, 21.26438
523.0638, 21.01915
523.5460, 21.96383
524.0281, 23.06363
524.5102, 23.32506
524.9923, 22.77156
525.4744, 22.17113
525.9565, 21.19905
526.4387, 20.63844
526.9208, 20.90686
527.4029, 21.50311
527.8850, 21.87119
528.3671, 21.88073
528.8492, 21.88668
529.3314, 22.49036
529.8135, 23.56515
530.2956, 23.70996
530.7777, 22.35299
531.2598, 21.09159
531.7419, 21.07453
532.2241, 21.77842
532.7062, 22.47237
533.1883, 23.20256
533.6704, 23.53930
534.1525, 22.76731
534.6346, 21.42392
535.1168, 20.91765
535.5989, 21.62844
536.0810, 22.51426
536.5631, 22.45872
537.0452, 21.40476
537.5273, 20.88391
538.0095, 21.24392
538.4916, 21.69475
538.9737, 21.99399
539.4558, 22.18466
539.9379, 22.41309
540.4200, 22.70894
540.9022, 22.84852
541.3843, 22.42526
541.8664, 21.24800
542.3485, 20.59364
542.8306, 20.92408
543.3127, 21.30584
543.7948, 21.42422
544.2769, 21.41430
544.7590, 21.53810
545.2411, 21.91643
545.7233, 22.27571
546.2054, 22.21570
546.6875, 21.76767
547.1696, 21.38046
547.6517, 21.07702
548.1339, 20.93077
548.6160, 21.15115
549.0981, 21.59587
549.5802, 21.85165
550.0623, 21.50617
550.5444, 21.30788
551.0266, 22.17448
551.5087, 23.51730
551.9908, 23.77685
552.4729, 22.44215
552.9550, 20.74459
553.4371, 20.23821
553.9193, 21.16278
554.4014, 21.85856
554.8835, 22.39378
555.3656, 22.66376
555.8477, 22.39693
556.3298, 21.91963
556.8120, 21.79871
557.2941, 22.21924
557.7762, 22.67910
558.2583, 22.25893
558.7404, 20.75388
559.2225, 20.14980
559.7047, 21.19738
560.1868, 22.25664
560.6689, 22.56267
561.1510, 22.36605
561.6331, 22.07314
562.1152, 21.77346
562.5974, 21.49555
563.0795, 21.22369
563.5616, 20.98955
564.0437, 20.95459
564.5258, 21.19386
565.0079, 21.43155
565.4901, 21.39443
565.9722, 21.09369
566.4543, 20.88582
566.9364, 20.77953
567.4185, 20.75467
567.9006, 20.85788
568.3828, 21.01739
568.8649, 21.15430
569.3470, 21.23991
569.8291, 21.23263
570.3112, 21.01418
570.7933, 20.54107
571.2755, 20.66345
571.7576, 22.34679
572.2397, 23.39938
572.7218, 22.83484
573.2039, 21.62332
573.6860, 20.84358
574.1682, 20.76120
574.6503, 20.93790
575.1324, 21.09865
575.6145, 21.19282
576.0966, 20.85700
576.5787, 19.88293
577.0609, 19.23570
577.5430, 19.78733
578.0251, 20.99744
578.5072, 21.56121
578.9893, 21.31052
579.4714, 20.73507
579.9536, 19.49733
580.4357, 18.31008
580.9178, 18.24808
581.3999, 19.31058
581.8820, 20.47914
582.3641, 20.98041
582.8463, 20.92725
583.3284, 21.00344
583.8105, 21.79014
584.2926, 21.82681
584.7747, 20.14527
585.2568, 18.36326
585.7390, 17.77883
586.2211, 18.36131
586.7032, 19.23322
587.1853, 19.88412
587.6674, 20.29478
588.1495, 20.32602
588.6317, 19.90460
589.1138, 19.54685
589.5959, 19.35304
590.0780, 19.36565
590.5601, 19.70187
591.0422, 20.35517
591.5244, 20.86403
592.0065, 21.19363
592.4886, 21.23554
592.9707, 20.80765
593.4528, 19.99177
593.9349, 18.92685
594.4171, 17.62427
594.8992, 16.50844
595.3813, 16.36785
595.8634, 17.58797
596.3455, 18.67054
596.8276, 20.02719
597.3098, 20.84166
597.7919, 20.29575
598.2740, 19.09700
598.7561, 18.51415
599.2382, 19.08726
599.7203, 19.96222
600.2025, 19.81763
600.6846, 18.69552
601.1667, 18.28949
601.6488, 19.14038
602.1309, 19.97201
602.6130, 19.74135
603.0952, 18.88794
603.5773, 18.25621
604.0594, 17.92333
604.5415, 17.87646
605.0236, 18.39796
605.5057, 19.08890
605.9879, 19.27562
606.4700, 18.87934
606.9521, 18.30970
607.4342, 17.84770
607.9163, 17.53227
608.3984, 17.67741
608.8806, 18.93118
609.3627, 19.75162
609.8448, 19.91712
610.3269, 19.68665
610.8090, 19.00454
611.2911, 18.05992
611.7733, 17.46709
612.2554, 17.80973
612.7375, 18.64877
613.2196, 18.90253
613.7017, 18.50740
614.1838, 18.23651
614.6660, 18.45568
615.1481, 18.72848
615.6302, 18.37646
616.1123, 17.45619
616.5944, 16.99198
617.0765, 17.48930
617.5587, 18.22433
618.0408, 18.91515
618.5229, 19.44362
619.0050, 19.55234
619.4871, 19.15798
619.9692, 18.52523
620.4514, 17.99190
620.9335, 17.55780
621.4156, 17.20427
621.8977, 16.68996
622.3798, 16.56670
622.8619, 17.40027
623.3441, 18.48330
623.8262, 18.94606
624.3083, 18.59279
624.7904, 18.05813
625.2725, 17.93215
625.7546, 18.03209
626.2367, 17.78017
626.7188, 17.10880
627.2009, 16.53689
627.6830, 16.30540
628.1652, 16.36265
628.6473, 16.69278
629.1294, 17.51038
629.6115, 17.88215
630.0936, 17.08897
630.5757, 16.30427
631.0579, 16.56356
631.5400, 17.55910
632.0221, 18.32877
632.5042, 18.37890
632.9863, 18.04505
633.4684, 17.97193
633.9506, 18.25023
634.4327, 18.33687
634.9148, 18.15530
635.3969, 17.83144
635.8790, 17.19366
636.3611, 16.52875
636.8433, 16.42457
637.3254, 17.22537
637.8075, 17.96153
638.2896, 17.80009
638.7717, 17.11994
639.2538, 16.56996
639.7360, 16.25273
640.2181, 16.24003
640.7002, 16.65165
641.1823, 17.34716
641.6644, 17.75695
642.1465, 17.63302
642.6287, 17.54944
643.1108, 17.66833
643.5929, 17.69692
644.0750, 17.21650
644.5571, 16.46843
645.0392, 16.18821
645.5214, 16.88498
646.0035, 17.91363
646.4856, 18.17533
646.9677, 17.67254
647.4498, 16.92114
647.9319, 15.74858
648.4141, 14.89241
648.8962, 15.25999
649.3783, 16.49285
649.8604, 17.21589
650.3425, 16.94684
650.8246, 16.66644
651.3068, 16.80091
651.7889, 17.11271
652.2710, 17.39837
652.7531, 17.57798
653.2352, 17.48253
653.7173, 16.92603
654.1995, 16.07935
654.6816, 15.65722
655.1637, 15.74965
655.6458, 16.05612
656.1279, 16.77250
656.6100, 17.49285
657.0922, 17.99061
657.5743, 18.29255
658.0564, 18.53019
658.5385, 18.77425
