##NAMES=Rammelsbergite
##RRUFFID=R061021
##IDEAL CHEMISTRY=NiAs_2_
##LOCALITY=Schneckenstei, Vogtland, Saxony, Germany
##OWNER=RRUFF
##SOURCE=Michael Scott
##DESCRIPTION=Tin-white metallic massive
##STATUS=The identification of this mineral has been confirmed by X-ray diffraction and chemical analysis
##URL=rruff.info/R061021
##MEASURED CHEMISTRY=(Ni_0.96_Co_0.03_Fe_0.01_)_Î£=1_As_2.00_ ; trace amounts of S
109.9513, 296.7869
110.4335, 286.7573
110.9156, 280.8927
111.3977, 282.9332
111.8798, 287.6702
112.3619, 291.5482
112.8440, 291.8943
113.3262, 293.4767
113.8083, 297.7961
114.2904, 305.2320
114.7725, 312.8509
115.2546, 319.1507
115.7367, 325.4388
116.2189, 333.5060
116.7010, 349.6830
117.1831, 363.7993
117.6652, 369.0550
118.1473, 360.0626
118.6294, 352.1221
119.1116, 353.5386
119.5937, 362.0245
120.0758, 370.9494
120.5579, 372.5973
121.0400, 374.7572
121.5221, 385.9500
122.0043, 418.2791
122.4864, 451.4174
122.9685, 468.9635
123.4506, 471.4513
123.9327, 466.9595
124.4148, 456.2388
124.8969, 442.9255
125.3791, 434.0089
125.8612, 431.9317
126.3433, 436.2108
126.8254, 447.4959
127.3075, 466.5431
127.7896, 488.6512
128.2718, 510.6516
128.7539, 532.0829
129.2360, 549.8864
129.7181, 560.2916
130.2002, 565.4538
130.6823, 573.6426
131.1645, 588.0648
131.6466, 602.7050
132.1287, 603.9839
132.6108, 591.3970
133.0929, 576.3417
133.5750, 566.4165
134.0572, 561.5671
134.5393, 561.1865
135.0214, 565.9325
135.5035, 574.9977
135.9856, 583.0862
136.4677, 588.4182
136.9499, 597.6263
137.4320, 622.2177
137.9141, 665.9392
138.3962, 704.0651
138.8783, 730.9109
139.3604, 746.6446
139.8426, 745.3447
140.3247, 722.1549
140.8068, 686.3521
141.2889, 653.2383
141.7710, 621.2506
142.2531, 595.7755
142.7353, 580.4265
143.2174, 580.5626
143.6995, 577.1486
144.1816, 567.4166
144.6637, 553.2888
145.1458, 544.7807
145.6280, 546.4977
146.1101, 548.8986
146.5922, 545.7084
147.0743, 533.1402
147.5564, 520.5176
148.0385, 507.2729
148.5207, 493.1333
149.0028, 485.6608
149.4849, 490.5785
149.9670, 499.5058
150.4491, 504.3258
150.9312, 499.7461
151.4134, 496.3734
151.8955, 496.4919
152.3776, 501.1880
152.8597, 505.7027
153.3418, 511.2815
153.8239, 516.3018
154.3061, 518.3141
154.7882, 517.8457
155.2703, 513.7092
155.7524, 505.1364
156.2345, 490.0566
156.7166, 474.0509
157.1988, 453.8449
157.6809, 432.7741
158.1630, 420.1770
158.6451, 425.8894
159.1272, 436.3787
159.6093, 443.7887
160.0915, 441.2791
160.5736, 440.6190
161.0557, 446.9341
161.5378, 459.2746
162.0199, 470.4980
162.5020, 481.7676
162.9841, 488.9510
163.4663, 488.3895
163.9484, 471.0708
164.4305, 451.9947
164.9126, 438.5746
165.3947, 431.2231
165.8768, 425.6592
166.3590, 417.4419
166.8411, 410.0013
167.3232, 408.0910
167.8053, 421.2805
168.2874, 436.1742
168.7695, 441.4672
169.2517, 434.2393
169.7338, 425.8011
170.2159, 425.3059
170.6980, 429.9120
171.1801, 432.8977
171.6622, 429.2968
172.1444, 422.8047
172.6265, 417.5716
173.1086, 414.8539
173.5907, 412.3774
174.0728, 406.6019
174.5549, 398.5247
175.0371, 392.7582
175.5192, 394.1652
176.0013, 399.5215
176.4834, 403.5730
176.9655, 403.7742
177.4476, 403.3166
177.9298, 407.9957
178.4119, 417.4426
178.8940, 424.3987
179.3761, 420.0563
179.8582, 408.5658
180.3403, 400.0922
180.8225, 399.0912
181.3046, 402.8803
181.7867, 406.8864
182.2688, 411.0519
182.7509, 415.6708
183.2330, 423.2469
183.7152, 432.3002
184.1973, 437.0072
184.6794, 430.8422
185.1615, 418.1327
185.6436, 412.6037
186.1257, 415.6270
186.6079, 421.3267
187.0900, 420.6908
187.5721, 414.4175
188.0542, 409.9780
188.5363, 414.2852
189.0184, 424.7590
189.5006, 427.4097
189.9827, 418.9317
190.4648, 406.6656
190.9469, 403.9160
191.4290, 410.9318
191.9111, 420.2142
192.3932, 428.3532
192.8754, 435.1996
193.3575, 439.0397
193.8396, 438.8787
194.3217, 436.3103
194.8038, 435.2504
195.2859, 435.7620
195.7681, 437.4004
196.2502, 440.7789
196.7323, 445.9536
197.2144, 448.6100
197.6965, 446.3680
198.1786, 441.3033
198.6608, 442.6805
199.1429, 451.6541
199.6250, 463.3922
200.1071, 473.2669
200.5892, 480.9496
201.0714, 489.7505
201.5535, 500.0902
202.0356, 512.0810
202.5177, 529.5707
202.9998, 556.4019
203.4819, 580.3224
203.9641, 582.2392
204.4462, 557.2005
204.9283, 534.7281
205.4104, 524.5896
205.8925, 527.3297
206.3746, 531.4043
206.8568, 539.0068
207.3389, 544.9227
207.8210, 539.5812
208.3031, 519.8639
208.7852, 499.7064
209.2673, 484.0919
209.7495, 473.4388
210.2316, 465.5314
210.7137, 461.8258
211.1958, 459.6439
211.6779, 452.6812
212.1600, 438.3413
212.6422, 425.7425
213.1243, 420.1224
213.6064, 424.3783
214.0885, 424.3712
214.5706, 417.3119
215.0527, 406.7191
215.5349, 403.2608
216.0170, 409.5881
216.4991, 417.6766
216.9812, 423.6779
217.4633, 427.8385
217.9454, 428.3761
218.4276, 422.3730
218.9097, 412.7001
219.3918, 412.6392
219.8739, 427.7523
220.3560, 443.6831
220.8381, 449.9885
221.3203, 440.4942
221.8024, 437.2108
222.2845, 444.4278
222.7666, 460.5627
223.2487, 473.0435
223.7308, 478.9579
224.2129, 484.9057
224.6951, 496.9934
225.1772, 520.8677
225.6593, 538.7457
226.1414, 547.6059
226.6235, 547.6000
227.1056, 544.1403
227.5878, 533.6392
228.0699, 523.5645
228.5520, 521.3812
229.0341, 533.2440
229.5162, 540.6635
229.9983, 538.2980
230.4805, 525.4359
230.9626, 518.6700
231.4447, 520.5490
231.9268, 526.3243
232.4089, 530.9927
232.8910, 534.2922
233.3732, 537.1090
233.8553, 539.4551
234.3374, 541.2256
234.8195, 543.6840
235.3016, 547.5949
235.7837, 551.6139
236.2659, 554.0491
236.7480, 554.5768
237.2301, 554.0953
237.7122, 552.8828
238.1943, 551.0374
238.6764, 548.2970
239.1586, 546.5692
239.6407, 542.6514
240.1228, 531.0193
240.6049, 505.9998
241.0870, 482.4990
241.5691, 464.8812
242.0513, 453.9655
242.5334, 445.9531
243.0155, 441.4118
243.4976, 439.4490
243.9797, 439.1077
244.4618, 442.9750
244.9440, 444.1846
245.4261, 439.2261
245.9082, 424.1987
246.3903, 415.1559
246.8724, 413.8239
247.3545, 417.6955
247.8367, 422.5452
248.3188, 431.2661
248.8009, 436.2460
249.2830, 433.9941
249.7651, 421.9586
250.2472, 409.8892
250.7294, 397.5916
251.2115, 385.3717
251.6936, 373.8430
252.1757, 362.7474
252.6578, 352.7369
253.1399, 343.7813
253.6220, 335.4419
254.1042, 329.4501
254.5863, 326.9700
255.0684, 326.4710
255.5505, 323.8676
256.0326, 317.6816
256.5147, 311.8014
256.9969, 308.0813
257.4790, 307.5520
257.9611, 306.2093
258.4432, 303.0302
258.9253, 299.2130
259.4074, 299.0504
259.8896, 305.4272
260.3717, 310.2507
260.8538, 308.9087
261.3359, 298.8047
261.8180, 290.0432
262.3001, 282.6817
262.7823, 277.0128
263.2644, 273.8219
263.7465, 273.4889
264.2286, 274.9486
264.7107, 278.5273
265.1928, 286.0242
265.6750, 288.7662
266.1571, 283.8018
266.6392, 274.6951
267.1213, 273.2629
267.6034, 282.5580
268.0855, 292.6104
268.5677, 297.8402
269.0498, 297.6264
269.5319, 295.1312
270.0140, 289.5826
270.4961, 282.3292
270.9782, 278.1051
271.4604, 278.1221
271.9425, 277.7173
272.4246, 273.3660
272.9067, 264.0916
273.3888, 256.5332
273.8709, 250.8244
274.3531, 247.4434
274.8352, 248.9350
275.3173, 256.8243
275.7994, 264.3593
276.2815, 266.7945
276.7636, 263.6223
277.2458, 260.4405
277.7279, 257.4050
278.2100, 255.0247
278.6921, 255.7044
279.1742, 260.3390
279.6563, 263.6328
280.1385, 260.2761
280.6206, 250.0699
281.1027, 245.0528
281.5848, 248.2213
282.0669, 255.7759
282.5490, 257.6472
283.0312, 253.1375
283.5133, 248.3768
283.9954, 247.8536
284.4775, 251.3952
284.9596, 254.1354
285.4417, 255.4885
285.9239, 255.8275
286.4060, 255.7916
286.8881, 255.3674
287.3702, 254.9023
287.8523, 254.4106
288.3344, 253.9725
288.8166, 254.3323
289.2987, 255.8173
289.7808, 257.7317
290.2629, 259.5779
290.7450, 261.2831
291.2271, 260.7020
291.7093, 253.4552
292.1914, 241.9418
292.6735, 236.9372
293.1556, 241.2052
293.6377, 249.6740
294.1198, 255.5042
294.6020, 258.7486
295.0841, 259.7254
295.5662, 257.7397
296.0483, 253.6269
296.5304, 249.5135
297.0125, 245.4739
297.4947, 242.0041
297.9768, 239.5055
298.4589, 238.0692
298.9410, 238.2542
299.4231, 242.9987
299.9052, 249.2019
300.3873, 250.1203
300.8694, 243.8093
301.3516, 235.6682
301.8337, 231.2256
302.3158, 229.8433
302.7979, 229.3230
303.2800, 228.1347
303.7621, 227.1367
304.2443, 227.5784
304.7264, 229.7367
305.2085, 232.8085
305.6906, 237.1891
306.1727, 242.0429
306.6548, 245.4271
307.1370, 245.2325
307.6191, 243.5750
308.1012, 242.8749
308.5833, 243.7104
309.0654, 243.8661
309.5475, 239.3363
310.0297, 233.0923
310.5118, 230.6169
310.9939, 240.4986
311.4760, 251.2932
311.9581, 253.1782
312.4402, 243.8396
312.9224, 234.4433
313.4045, 230.7897
313.8866, 231.1231
314.3687, 232.9142
314.8508, 237.2458
315.3329, 241.1320
315.8151, 242.3789
316.2972, 240.5313
316.7793, 239.2464
317.2614, 241.9299
317.7435, 245.4570
318.2256, 246.1122
318.7078, 237.4462
319.1899, 230.4079
319.6720, 231.4136
320.1541, 241.4162
320.6362, 247.3041
321.1183, 240.5797
321.6005, 229.8895
322.0826, 223.4982
322.5647, 227.8701
323.0468, 232.0423
323.5289, 232.4258
324.0110, 228.7953
324.4932, 227.0511
324.9753, 231.0530
325.4574, 235.7033
325.9395, 237.1005
326.4216, 228.4728
326.9037, 223.6042
327.3859, 227.5372
327.8680, 239.7905
328.3501, 244.8195
328.8322, 235.5100
329.3143, 223.9607
329.7964, 217.6358
330.2786, 220.9799
330.7607, 223.2897
331.2428, 223.8016
331.7249, 222.6513
332.2070, 220.4717
332.6891, 215.7885
333.1713, 211.7527
333.6534, 210.0469
334.1355, 210.7876
334.6176, 213.9078
335.0997, 221.4454
335.5818, 230.9922
336.0640, 234.0715
336.5461, 227.3076
337.0282, 220.5631
337.5103, 219.5155
337.9924, 226.1505
338.4745, 229.7319
338.9567, 229.4375
339.4388, 226.2713
339.9209, 221.2102
340.4030, 213.1980
340.8851, 207.9761
341.3672, 209.9126
341.8494, 219.3165
342.3315, 225.2263
342.8136, 226.9555
343.2957, 226.4402
343.7778, 226.7910
344.2599, 228.0514
344.7421, 228.4990
345.2242, 226.9173
345.7063, 223.7068
346.1884, 220.8421
346.6705, 218.1589
347.1526, 216.6446
347.6348, 219.2876
348.1169, 224.9884
348.5990, 227.7135
349.0811, 222.8389
349.5632, 214.0682
350.0453, 208.0428
350.5275, 204.7771
351.0096, 205.5141
351.4917, 215.4299
351.9738, 230.3263
352.4559, 240.3263
352.9380, 240.7234
353.4202, 235.8824
353.9023, 229.1801
354.3844, 220.9626
354.8665, 214.1922
355.3486, 211.3833
355.8307, 211.1244
356.3129, 211.6007
356.7950, 212.2498
357.2771, 213.6116
357.7592, 217.2927
358.2413, 222.3880
358.7234, 225.5644
359.2056, 223.7030
359.6877, 219.9895
360.1698, 216.4989
360.6519, 212.3362
361.1340, 211.1039
361.6161, 219.0885
362.0982, 231.1273
362.5804, 236.1030
363.0625, 219.7582
363.5446, 203.5970
364.0267, 199.6114
364.5088, 214.1805
364.9909, 225.7866
365.4731, 229.2130
365.9552, 227.2908
366.4373, 224.0481
366.9194, 215.6298
367.4015, 210.1841
367.8836, 212.1739
368.3658, 224.9301
368.8479, 229.4814
369.3300, 216.7048
369.8121, 200.2759
370.2942, 193.7463
370.7763, 205.7256
371.2585, 215.3324
371.7406, 218.6670
372.2227, 215.8884
372.7048, 213.5924
373.1869, 212.1165
373.6690, 210.7177
374.1512, 208.3339
374.6333, 203.5214
375.1154, 202.3186
375.5975, 207.2071
376.0796, 215.8265
376.5617, 217.9833
377.0439, 211.7769
377.5260, 205.3828
378.0081, 204.6741
378.4902, 210.0545
378.9723, 213.6572
379.4544, 215.2576
379.9366, 214.3652
380.4187, 207.6147
380.9008, 194.8665
381.3829, 186.0957
381.8650, 189.6366
382.3471, 202.1480
382.8293, 208.6269
383.3114, 207.8655
383.7935, 204.8413
384.2756, 206.6434
384.7577, 211.6512
385.2398, 213.4215
385.7220, 204.6870
386.2041, 192.9550
386.6862, 191.4676
387.1683, 200.0976
387.6504, 209.0783
388.1325, 209.3152
388.6147, 204.9362
389.0968, 202.6543
389.5789, 207.3603
390.0610, 211.9649
390.5431, 209.5841
391.0252, 201.6468
391.5074, 194.9722
391.9895, 191.9798
392.4716, 192.3710
392.9537, 196.7366
393.4358, 209.3391
393.9179, 218.2254
394.4001, 216.1466
394.8822, 207.0327
395.3643, 199.8153
395.8464, 198.5123
396.3285, 198.4827
396.8106, 196.9857
397.2928, 191.7891
397.7749, 191.1992
398.2570, 202.6783
398.7391, 217.3275
399.2212, 223.3831
399.7033, 211.0465
400.1855, 200.7219
400.6676, 197.1067
401.1497, 200.7221
401.6318, 202.3787
402.1139, 200.5228
402.5960, 198.2836
403.0782, 198.8407
403.5603, 204.8100
404.0424, 206.6992
404.5245, 201.2558
405.0066, 190.9700
405.4887, 186.7691
405.9709, 189.9945
406.4530, 195.3252
406.9351, 200.6041
407.4172, 205.9837
407.8993, 207.1694
408.3814, 202.5870
408.8636, 195.8799
409.3457, 194.1531
409.8278, 197.2039
410.3099, 199.7638
410.7920, 198.3350
411.2741, 194.3579
411.7563, 192.5603
412.2384, 193.2391
412.7205, 194.4336
413.2026, 193.0644
413.6847, 190.5466
414.1668, 190.6734
414.6490, 197.9214
415.1311, 206.1324
415.6132, 207.3045
416.0953, 202.2056
416.5774, 197.6215
417.0595, 198.5495
417.5417, 201.9139
418.0238, 204.6936
418.5059, 206.7658
418.9880, 207.0445
419.4701, 204.1800
419.9522, 199.0060
420.4344, 193.6700
420.9165, 187.0332
421.3986, 181.9702
421.8807, 180.7454
422.3628, 185.5229
422.8449, 187.6738
423.3270, 181.0685
423.8091, 172.4272
424.2913, 170.1369
424.7734, 183.8925
425.2555, 194.6053
425.7376, 198.2794
426.2197, 194.7815
426.7018, 190.3932
427.1840, 182.3486
427.6661, 176.2528
428.1482, 177.0353
428.6303, 188.6620
429.1124, 196.9171
429.5945, 200.0240
430.0767, 199.1352
430.5588, 197.2471
431.0409, 194.0555
431.5230, 191.0704
432.0051, 188.9663
432.4872, 187.7414
432.9694, 187.3273
433.4515, 187.6280
433.9336, 189.0004
434.4157, 193.4722
434.8978, 200.3323
435.3799, 204.2189
435.8621, 201.5062
436.3442, 194.9910
436.8263, 189.7797
437.3084, 185.8494
437.7905, 183.4203
438.2726, 182.9810
438.7548, 184.0884
439.2369, 186.2766
439.7190, 190.4197
440.2011, 194.0312
440.6832, 194.4347
441.1653, 192.5730
441.6475, 191.1073
442.1296, 193.0317
442.6117, 194.5932
443.0938, 192.6077
443.5759, 185.2986
444.0580, 179.6812
444.5402, 178.8627
445.0223, 180.8352
445.5044, 183.1910
445.9865, 185.0576
446.4686, 187.7357
446.9507, 192.7176
447.4329, 200.1177
447.9150, 203.6637
448.3971, 200.3496
448.8792, 195.8502
449.3613, 193.8625
449.8434, 196.6595
450.3256, 196.6399
450.8077, 191.4509
451.2898, 184.0981
451.7719, 183.7142
452.2540, 193.1008
452.7361, 199.9480
453.2183, 197.2595
453.7004, 185.2732
454.1825, 176.8121
454.6646, 172.0851
455.1467, 170.3806
455.6288, 172.3901
456.1110, 177.4449
456.5931, 181.0100
457.0752, 181.0723
457.5573, 179.3282
458.0394, 177.6950
458.5215, 176.3928
459.0037, 177.3986
459.4858, 185.5226
459.9679, 195.6381
460.4500, 199.7194
460.9321, 194.7373
461.4142, 189.1429
461.8964, 189.6162
462.3785, 193.6242
462.8606, 196.3892
463.3427, 195.7308
463.8248, 193.5815
464.3069, 190.4531
464.7891, 186.2812
465.2712, 182.7513
465.7533, 180.0535
466.2354, 178.2865
466.7175, 177.5604
467.1996, 178.8047
467.6818, 180.0095
468.1639, 181.6613
468.6460, 183.2230
469.1281, 182.4362
469.6102, 175.8447
470.0923, 172.1980
470.5745, 176.7534
471.0566, 192.4878
471.5387, 200.2598
472.0208, 198.6548
472.5029, 191.4545
472.9850, 180.4581
473.4672, 165.0131
473.9493, 158.0590
474.4314, 166.9938
474.9135, 184.6429
475.3956, 189.4899
475.8777, 181.7195
476.3599, 172.7100
476.8420, 171.8807
477.3241, 175.9880
477.8062, 177.3833
478.2883, 173.9365
478.7704, 171.2392
479.2526, 176.7583
479.7347, 187.0798
480.2168, 194.8260
480.6989, 195.9021
481.1810, 193.9596
481.6631, 190.1291
482.1453, 184.5724
482.6274, 180.8001
483.1095, 181.5680
483.5916, 183.9888
484.0737, 185.8925
484.5558, 188.8457
485.0379, 188.8157
485.5201, 181.5053
486.0022, 170.7042
486.4843, 166.6430
486.9664, 174.5056
487.4485, 182.8664
487.9306, 188.7245
488.4128, 192.1022
488.8949, 192.0974
489.3770, 187.1957
489.8591, 181.3656
490.3412, 179.2852
490.8233, 181.5986
491.3055, 181.9664
491.7876, 178.6190
492.2697, 173.2076
492.7518, 168.7187
493.2339, 165.2294
493.7160, 164.8100
494.1982, 172.3698
494.6803, 183.5821
495.1624, 186.7333
495.6445, 180.2040
496.1266, 172.7754
496.6087, 172.8895
497.0909, 177.5563
497.5730, 181.6638
498.0551, 183.4611
498.5372, 183.8937
499.0193, 183.3319
499.5014, 181.8366
499.9836, 179.6840
500.4657, 174.1691
500.9478, 170.1061
501.4299, 171.1005
501.9120, 181.4850
502.3941, 187.6252
502.8763, 184.3738
503.3584, 177.0430
503.8405, 172.5886
504.3226, 172.8828
504.8047, 173.1036
505.2868, 171.4744
505.7690, 168.6303
506.2511, 171.1708
506.7332, 182.0353
507.2153, 191.2576
507.6974, 190.8047
508.1795, 180.4517
508.6617, 173.0062
509.1438, 169.7208
509.6259, 168.5873
510.1080, 167.1958
510.5901, 165.5259
511.0722, 163.3096
511.5544, 158.0990
512.0365, 153.7245
512.5186, 158.2649
513.0007, 170.6841
513.4828, 181.4553
513.9650, 182.0202
514.4471, 178.5008
514.9292, 177.7270
515.4113, 182.5739
515.8934, 186.1864
516.3755, 183.5858
516.8576, 178.0179
517.3397, 174.6029
517.8218, 178.3907
518.3040, 180.7468
518.7861, 176.9458
519.2682, 166.6445
519.7503, 163.6615
520.2324, 174.6048
520.7145, 186.1665
521.1967, 190.3120
521.6788, 184.3913
522.1609, 178.4542
522.6430, 171.9483
523.1251, 166.4915
523.6072, 165.9110
524.0894, 170.6595
524.5715, 174.6904
525.0536, 175.6916
525.5357, 174.4669
526.0178, 173.2625
526.4999, 172.0777
526.9821, 171.3844
527.4642, 171.9893
527.9463, 173.2381
528.4284, 174.1531
528.9105, 174.8082
529.3926, 174.3065
529.8748, 169.9188
530.3569, 164.1346
530.8390, 161.3141
531.3211, 167.2078
531.8032, 172.6824
532.2853, 173.9210
532.7675, 170.9438
533.2496, 165.8999
533.7317, 154.6261
534.2138, 144.8653
534.6959, 140.9642
535.1780, 145.8064
535.6602, 150.9850
536.1423, 157.0282
536.6244, 163.0978
537.1065, 168.2438
537.5886, 172.6414
538.0707, 175.3461
538.5529, 175.9530
539.0350, 174.7159
539.5171, 171.7836
539.9992, 166.8979
540.4813, 163.9841
540.9634, 167.9757
541.4456, 176.1609
541.9277, 179.6714
542.4098, 176.8676
542.8919, 173.9183
543.3740, 180.9142
543.8561, 191.6286
544.3383, 194.9513
544.8204, 179.4165
545.3025, 161.8456
545.7846, 150.3581
546.2667, 144.7885
546.7488, 144.4321
547.2310, 157.4147
547.7131, 168.7627
548.1952, 169.8506
548.6773, 154.2200
549.1594, 145.3941
549.6415, 148.0014
550.1237, 154.7598
550.6058, 158.1244
551.0879, 155.3490
551.5700, 156.8623
552.0521, 166.6023
552.5342, 180.1837
553.0164, 184.2221
553.4985, 178.0160
553.9806, 169.0415
554.4627, 158.4526
554.9448, 147.9151
555.4269, 145.3311
555.9091, 151.0426
556.3912, 158.6430
556.8733, 164.2935
557.3554, 167.3710
557.8375, 165.9749
558.3196, 156.3785
558.8018, 148.2636
559.2839, 149.5348
559.7660, 156.9993
560.2481, 163.9850
560.7302, 169.2318
561.2123, 172.5513
561.6945, 173.7684
562.1766, 172.8317
562.6587, 170.2463
563.1408, 164.9035
563.6229, 159.0294
564.1050, 153.5371
564.5872, 147.5003
565.0693, 144.4250
565.5514, 145.0203
566.0335, 147.8023
566.5156, 150.7054
566.9977, 153.7529
567.4799, 156.2364
567.9620, 157.4154
568.4441, 158.1962
568.9262, 162.4079
569.4083, 169.5102
569.8904, 173.2443
570.3726, 162.6604
570.8547, 149.1603
571.3368, 150.9034
571.8189, 172.0852
572.3010, 189.2790
572.7831, 182.2787
573.2653, 165.3308
573.7474, 154.4091
574.2295, 159.2420
574.7116, 164.4835
575.1937, 166.7433
575.6758, 166.7157
576.1580, 166.7274
576.6401, 168.2061
577.1222, 167.9297
577.6043, 164.0834
578.0864, 156.3141
578.5685, 151.9832
579.0507, 151.8605
579.5328, 153.0352
580.0149, 152.8706
580.4970, 151.5093
580.9791, 152.1637
581.4612, 156.0213
581.9434, 159.5292
582.4255, 155.2344
582.9076, 146.0752
583.3897, 140.9344
583.8718, 147.7339
584.3539, 156.9652
584.8361, 159.6311
585.3182, 156.9377
585.8003, 155.1059
586.2824, 158.7141
586.7645, 162.8556
587.2466, 164.5325
587.7288, 162.7931
588.2109, 160.8121
588.6930, 158.1832
589.1751, 155.9424
589.6572, 155.0087
590.1393, 155.7375
590.6215, 157.0780
591.1036, 159.2094
591.5857, 161.6952
592.0678, 163.8511
592.5499, 165.8089
593.0320, 166.0014
593.5142, 162.3387
593.9963, 156.6165
594.4784, 155.1543
594.9605, 157.8030
595.4426, 160.5875
595.9247, 161.6161
596.4069, 160.5233
596.8890, 155.6395
597.3711, 145.0782
597.8532, 137.1912
598.3353, 138.4481
598.8174, 144.2980
599.2996, 149.1166
599.7817, 152.1567
600.2638, 153.2132
600.7459, 150.7161
601.2280, 145.9096
601.7101, 143.5583
602.1923, 145.2746
602.6744, 146.7493
603.1565, 146.2529
603.6386, 143.7822
604.1207, 141.3385
604.6028, 138.6200
605.0850, 137.1430
605.5671, 140.6765
606.0492, 147.2314
606.5313, 146.3998
