##NAMES=Rammelsbergite
##RRUFFID=R061021
##IDEAL CHEMISTRY=NiAs_2_
##LOCALITY=Schneckenstei, Vogtland, Saxony, Germany
##OWNER=RRUFF
##SOURCE=Michael Scott
##DESCRIPTION=Tin-white metallic massive
##STATUS=The identification of this mineral has been confirmed by X-ray diffraction and chemical analysis
##URL=rruff.info/R061021
##MEASURED CHEMISTRY=(Ni_0.96_Co_0.03_Fe_0.01_)_Î£=1_As_2.00_ ; trace amounts of S
89.22626, 367.8482
89.70837, 365.0038
90.19049, 360.1375
90.67261, 355.1009
91.15472, 350.4026
91.63684, 346.0631
92.11896, 342.3187
92.60107, 339.5467
93.08319, 336.2665
93.56531, 329.6289
94.04742, 318.4611
94.52954, 310.7450
95.01166, 314.3288
95.49377, 320.7484
95.97589, 322.5322
96.45801, 316.1957
96.94012, 305.9919
97.42224, 300.7865
97.90436, 304.0109
98.38647, 305.4940
98.86859, 300.8375
99.35071, 293.4487
99.83282, 287.4003
100.3149, 285.1799
100.7971, 285.7969
101.2792, 284.3968
101.7613, 278.0674
102.2434, 273.0320
102.7255, 271.4497
103.2076, 272.1141
103.6898, 272.9583
104.1719, 272.4921
104.6540, 270.6927
105.1361, 269.1847
105.6182, 268.5895
106.1003, 267.6987
106.5825, 266.2348
107.0646, 264.1572
107.5467, 261.2932
108.0288, 257.1084
108.5109, 250.6697
108.9930, 248.5773
109.4752, 253.2728
109.9573, 259.2266
110.4394, 263.1727
110.9215, 265.0328
111.4036, 266.9861
111.8857, 271.1692
112.3678, 277.5283
112.8500, 287.9186
113.3321, 302.2813
113.8142, 320.3527
114.2963, 342.9089
114.7784, 369.8312
115.2605, 398.9762
115.7427, 427.2127
116.2248, 454.4176
116.7069, 480.9855
117.1890, 515.3485
117.6711, 546.2474
118.1532, 557.1328
118.6354, 541.6313
119.1175, 512.1268
119.5996, 485.7933
120.0817, 460.9983
120.5638, 443.1763
121.0459, 435.2061
121.5281, 435.4500
122.0102, 440.4363
122.4923, 449.1902
122.9744, 462.5540
123.4565, 480.5044
123.9386, 501.8841
124.4208, 530.3442
124.9029, 569.1771
125.3850, 617.4667
125.8671, 668.8668
126.3492, 717.1728
126.8313, 773.4972
127.3135, 849.1842
127.7956, 947.0264
128.2777, 1056.435
128.7598, 1171.289
129.2419, 1292.550
129.7240, 1414.850
130.2061, 1537.235
130.6883, 1659.703
131.1704, 1787.401
131.6525, 1927.845
132.1346, 2052.306
132.6167, 2129.369
133.0988, 2156.658
133.5810, 2148.127
134.0631, 2093.899
134.5452, 2011.660
135.0273, 1908.248
135.5094, 1782.567
135.9915, 1647.335
136.4737, 1519.338
136.9558, 1394.547
137.4379, 1291.259
137.9200, 1217.323
138.4021, 1163.838
138.8842, 1124.931
139.3664, 1099.655
139.8485, 1084.157
140.3306, 1069.791
140.8127, 1054.767
141.2948, 1044.621
141.7769, 1036.247
142.2591, 1033.748
142.7412, 1042.288
143.2233, 1064.802
143.7054, 1098.650
144.1875, 1134.737
144.6696, 1173.652
145.1518, 1214.316
145.6339, 1257.229
146.1160, 1301.271
146.5981, 1345.552
147.0802, 1389.840
147.5623, 1433.427
148.0445, 1473.236
148.5266, 1509.556
149.0087, 1540.613
149.4908, 1570.434
149.9729, 1594.291
150.4550, 1605.033
150.9371, 1598.055
151.4193, 1574.579
151.9014, 1544.453
152.3835, 1506.031
152.8656, 1462.466
153.3477, 1408.873
153.8298, 1350.640
154.3120, 1297.121
154.7941, 1254.786
155.2762, 1222.824
155.7583, 1190.765
156.2404, 1153.932
156.7225, 1121.505
157.2047, 1099.190
157.6868, 1083.437
158.1689, 1065.599
158.6510, 1038.580
159.1331, 1002.783
159.6152, 982.6861
160.0974, 985.4303
160.5795, 993.3641
161.0616, 1006.470
161.5437, 1020.556
162.0258, 1026.289
162.5079, 1015.877
162.9901, 989.5402
163.4722, 967.0393
163.9543, 954.5530
164.4364, 939.3056
164.9185, 912.5087
165.4007, 877.2601
165.8828, 844.8023
166.3649, 823.4199
166.8470, 813.1555
167.3291, 801.7509
167.8112, 790.9360
168.2934, 777.7460
168.7755, 758.5088
169.2576, 734.7811
169.7397, 712.9193
170.2218, 697.6581
170.7039, 688.9841
171.1861, 679.5320
171.6682, 667.7454
172.1503, 656.6503
172.6324, 649.6066
173.1145, 645.6609
173.5966, 638.9976
174.0787, 624.4508
174.5609, 602.7645
175.0430, 585.7120
175.5251, 575.9124
176.0072, 568.2363
176.4893, 559.4195
176.9714, 549.6500
177.4536, 541.0596
177.9357, 535.8022
178.4178, 533.2675
178.8999, 527.9256
179.3820, 515.8428
179.8641, 504.1854
180.3463, 499.0566
180.8284, 499.8288
181.3105, 499.7650
181.7926, 494.3100
182.2747, 483.8855
182.7568, 473.7310
183.2390, 462.6454
183.7211, 452.7158
184.2032, 445.3904
184.6853, 440.6121
185.1674, 437.6951
185.6495, 436.9173
186.1317, 437.7332
186.6138, 437.4553
187.0959, 434.7605
187.5780, 431.9781
188.0601, 431.7186
188.5422, 433.6208
189.0244, 433.7560
189.5065, 429.6812
189.9886, 421.7971
190.4707, 412.8169
190.9528, 399.9146
191.4349, 388.5465
191.9171, 384.3420
192.3992, 386.6111
192.8813, 387.7859
193.3634, 382.9293
193.8455, 374.3230
194.3276, 368.3305
194.8098, 364.9659
195.2919, 364.4178
195.7740, 368.6390
196.2561, 377.0223
196.7382, 383.7780
197.2203, 386.4766
197.7024, 385.0854
198.1846, 380.5631
198.6667, 370.0526
199.1488, 360.4878
199.6309, 357.9777
200.1130, 361.6129
200.5951, 363.9309
201.0773, 360.6274
201.5594, 354.6527
202.0415, 352.2188
202.5236, 354.9582
203.0057, 358.1720
203.4878, 358.7684
203.9700, 357.0659
204.4521, 354.9606
204.9342, 352.7675
205.4163, 350.9530
205.8984, 350.5238
206.3805, 352.3970
206.8627, 353.2800
207.3448, 349.7955
207.8269, 343.1069
208.3090, 338.9903
208.7911, 341.1309
209.2732, 344.9452
209.7554, 342.7694
210.2375, 332.9122
210.7196, 324.3094
211.2017, 323.3902
211.6838, 328.0467
212.1659, 330.9339
212.6481, 329.7833
213.1302, 326.1963
213.6123, 322.1581
214.0944, 317.5133
214.5765, 313.4779
215.0586, 310.6792
215.5408, 308.9212
216.0229, 307.8851
216.5050, 307.9701
216.9871, 307.8826
217.4692, 305.6294
217.9513, 301.2235
218.4334, 297.3489
218.9156, 294.4658
219.3977, 292.9261
219.8798, 294.1438
220.3619, 299.3234
220.8440, 304.8323
221.3261, 305.6748
221.8083, 302.4217
222.2904, 300.4039
222.7725, 302.4258
223.2546, 306.4042
223.7367, 308.9252
224.2188, 309.3735
224.7010, 309.0749
225.1831, 309.2707
225.6652, 309.8575
226.1473, 310.2002
226.6294, 309.1717
227.1115, 308.2601
227.5937, 309.7569
228.0758, 314.0526
228.5579, 318.7324
229.0400, 321.8476
229.5221, 323.5940
230.0042, 325.0359
230.4864, 324.9299
230.9685, 325.4384
231.4506, 329.2744
231.9327, 336.4886
232.4148, 343.8168
232.8969, 348.6731
233.3791, 351.6397
233.8612, 355.8975
234.3433, 362.4108
234.8254, 369.5865
235.3075, 376.8745
235.7896, 384.1163
236.2718, 390.2292
236.7539, 394.9055
237.2360, 397.7060
237.7181, 398.0482
238.2002, 395.0724
238.6823, 390.6969
239.1645, 386.2390
239.6466, 381.2828
240.1287, 374.4911
240.6108, 365.1785
241.0929, 353.5739
241.5750, 339.8691
242.0571, 320.9233
242.5393, 305.2275
243.0214, 297.7878
243.5035, 295.7393
243.9856, 293.3035
244.4677, 288.3603
244.9498, 281.9173
245.4320, 275.8159
245.9141, 269.4321
246.3962, 264.6476
246.8783, 262.6703
247.3604, 262.2702
247.8425, 262.0027
248.3247, 261.4935
248.8068, 260.5428
249.2889, 258.7002
249.7710, 255.4728
250.2531, 252.8516
250.7352, 251.7571
251.2174, 250.8923
251.6995, 248.2246
252.1816, 243.6105
252.6637, 239.9833
253.1458, 241.1959
253.6279, 249.3038
254.1101, 253.0082
254.5922, 248.2339
255.0743, 242.4484
255.5564, 241.0795
256.0385, 243.9081
256.5206, 246.9430
257.0027, 246.6548
257.4849, 242.7635
257.9670, 239.9595
258.4491, 238.6762
258.9312, 237.8250
259.4133, 237.0613
259.8954, 236.3590
260.3776, 235.7856
260.8597, 235.3960
261.3418, 235.1664
261.8239, 234.8623
262.3060, 233.9096
262.7881, 233.5387
263.2703, 234.5753
263.7524, 236.2300
264.2345, 237.5220
264.7166, 237.9953
265.1987, 237.5405
265.6808, 235.7433
266.1630, 229.3535
266.6451, 225.9740
267.1272, 229.2271
267.6093, 234.0075
268.0914, 234.5209
268.5735, 229.1074
269.0557, 221.7688
269.5378, 219.7090
270.0199, 227.4162
270.5020, 231.3311
270.9841, 227.7731
271.4662, 223.5964
271.9484, 224.1810
272.4305, 229.6892
272.9126, 235.6124
273.3947, 236.7225
273.8768, 232.0680
274.3589, 227.2637
274.8411, 222.2223
275.3232, 217.1205
275.8053, 211.2022
276.2874, 205.1417
276.7695, 200.7269
277.2516, 199.7880
277.7338, 202.0187
278.2159, 203.0502
278.6980, 202.0253
279.1801, 200.8041
279.6622, 200.0743
280.1443, 199.5783
280.6265, 198.6704
281.1086, 196.5868
281.5907, 194.4099
282.0728, 195.7980
282.5549, 203.4418
283.0370, 208.1032
283.5192, 203.7346
284.0013, 196.3649
284.4834, 192.2166
284.9655, 193.5926
285.4476, 196.7107
285.9297, 196.3447
286.4119, 191.9819
286.8940, 189.0703
287.3761, 190.1998
287.8582, 192.6029
288.3403, 194.1315
288.8224, 194.5925
289.3046, 194.2663
289.7867, 192.4645
290.2688, 189.7244
290.7509, 189.2201
291.2330, 192.7340
291.7151, 196.6658
292.1973, 196.8527
292.6794, 193.9476
293.1615, 192.6068
293.6436, 196.8531
294.1257, 203.1836
294.6078, 205.0066
295.0900, 201.0945
295.5721, 196.7697
296.0542, 195.9403
296.5363, 198.1712
297.0184, 201.6009
297.5005, 208.7442
297.9826, 214.9349
298.4648, 215.6887
298.9469, 211.5509
299.4290, 206.8360
299.9111, 203.9310
300.3932, 202.1792
300.8753, 198.9960
301.3575, 190.5278
301.8396, 185.7483
302.3217, 191.1674
302.8038, 202.2101
303.2859, 210.2503
303.7680, 212.0327
304.2502, 209.9071
304.7323, 208.0825
305.2144, 206.6758
305.6965, 205.3514
306.1786, 204.2311
306.6607, 203.1018
307.1429, 201.3833
307.6250, 199.1383
308.1071, 197.5665
308.5892, 198.3272
309.0713, 202.4547
309.5534, 203.7121
310.0356, 199.0512
310.5177, 194.9020
310.9998, 195.0356
311.4819, 198.4027
311.9640, 201.5068
312.4461, 201.8081
312.9283, 199.6707
313.4104, 198.5766
313.8925, 201.1242
314.3746, 201.6509
314.8567, 197.5985
315.3388, 191.6353
315.8210, 186.9266
316.3031, 184.8155
316.7852, 184.5572
317.2673, 184.9655
317.7494, 186.8251
318.2315, 187.3881
318.7137, 184.6488
319.1958, 181.7430
319.6779, 181.4767
320.1600, 183.9500
320.6421, 186.0320
321.1242, 183.3818
321.6064, 175.9020
322.0885, 172.2789
322.5706, 176.4070
323.0527, 180.4963
323.5348, 179.0453
324.0169, 173.7887
324.4991, 169.9440
324.9812, 170.4156
325.4633, 174.1167
325.9454, 179.6702
326.4275, 188.0929
326.9096, 194.3363
327.3918, 193.9144
327.8739, 189.8925
328.3560, 186.7718
328.8381, 185.3550
329.3202, 184.9166
329.8023, 185.1609
330.2845, 185.9827
330.7666, 186.9485
331.2487, 188.3061
331.7308, 189.1971
332.2129, 187.6205
332.6950, 182.7200
333.1772, 179.5013
333.6593, 180.5691
334.1414, 183.7763
334.6235, 186.2718
335.1056, 187.5195
335.5877, 188.2058
336.0699, 188.9689
336.5520, 189.8192
337.0341, 190.7545
337.5162, 192.5390
337.9983, 193.7297
338.4804, 193.2563
338.9626, 191.4285
339.4447, 189.2832
339.9268, 187.4620
340.4089, 185.8825
340.8910, 184.0873
341.3731, 180.2265
341.8552, 178.4160
342.3373, 180.6592
342.8195, 184.5393
343.3016, 187.7345
343.7837, 189.4093
344.2658, 189.5939
344.7479, 187.8923
345.2300, 182.8408
345.7122, 179.8727
346.1943, 180.7453
346.6764, 182.2101
347.1585, 182.6007
347.6406, 181.9908
348.1227, 181.4371
348.6049, 181.8269
349.0870, 183.0311
349.5691, 184.2556
350.0512, 186.3603
350.5333, 186.9356
351.0154, 183.7065
351.4976, 178.8928
351.9797, 175.7131
352.4618, 175.7154
352.9439, 176.9346
353.4260, 176.4965
353.9081, 174.3259
354.3903, 173.3629
354.8724, 174.8752
355.3545, 177.8428
355.8366, 181.3620
356.3187, 185.6990
356.8008, 188.3741
357.2830, 186.7320
357.7651, 182.9429
358.2472, 181.3757
358.7293, 182.9587
359.2114, 184.9836
359.6935, 185.0128
360.1757, 182.9764
360.6578, 180.8330
361.1399, 178.4228
361.6220, 176.1207
362.1041, 174.1241
362.5862, 172.4304
363.0684, 170.8836
363.5505, 169.3279
364.0326, 168.0353
364.5147, 167.9443
364.9968, 169.0274
365.4789, 171.4166
365.9611, 178.2305
366.4432, 184.6581
366.9253, 184.8411
367.4074, 178.0860
367.8895, 169.7682
368.3716, 166.5882
368.8538, 169.6908
369.3359, 172.4184
369.8180, 175.6246
370.3001, 177.6000
370.7822, 175.7352
371.2643, 172.2030
371.7465, 171.8504
372.2286, 178.5570
372.7107, 189.1262
373.1928, 194.2573
373.6749, 192.2980
374.1570, 189.3160
374.6392, 187.4744
375.1213, 185.3560
375.6034, 180.3473
376.0855, 171.4880
376.5676, 165.3730
377.0497, 170.7100
377.5319, 184.5605
378.0140, 192.0876
378.4961, 188.9728
378.9782, 182.9378
379.4603, 181.6402
379.9424, 184.0515
380.4246, 185.3433
380.9067, 183.7375
381.3888, 181.0494
381.8709, 178.4305
382.3530, 176.0707
382.8351, 174.6541
383.3173, 174.6120
383.7994, 175.7458
384.2815, 177.4142
384.7636, 181.6526
385.2457, 183.5907
385.7278, 180.5948
386.2099, 175.7143
386.6920, 172.0111
387.1742, 170.3384
387.6563, 170.4276
388.1384, 172.3250
388.6205, 176.8658
389.1026, 179.0672
389.5847, 177.2652
390.0669, 174.9473
390.5490, 172.6937
391.0311, 170.9839
391.5132, 170.7706
391.9953, 172.9632
392.4774, 176.1156
392.9596, 175.6168
393.4417, 168.9985
393.9238, 165.3745
394.4059, 171.2412
394.8880, 178.3199
395.3701, 179.6281
395.8523, 174.2357
396.3344, 168.1975
396.8165, 165.9485
397.2986, 166.8473
397.7807, 168.8177
398.2628, 172.0868
398.7450, 175.1842
399.2271, 176.7531
399.7092, 177.1847
400.1913, 177.6419
400.6734, 179.9625
401.1555, 180.9136
401.6377, 176.2048
402.1198, 167.8777
402.6019, 162.6764
403.0840, 163.7457
403.5661, 168.8089
404.0482, 173.4612
404.5304, 178.6286
405.0125, 181.4419
405.4946, 179.8020
405.9767, 177.1288
406.4588, 176.5611
406.9409, 177.9543
407.4231, 178.5726
407.9052, 175.7268
408.3873, 169.7317
408.8694, 166.7434
409.3515, 169.4068
409.8336, 171.9283
410.3158, 172.8842
410.7979, 173.1712
411.2800, 173.8970
411.7621, 175.4404
412.2442, 177.2408
412.7263, 179.0750
413.2085, 181.0424
413.6906, 180.6512
414.1727, 175.0310
414.6548, 170.0798
415.1369, 170.8053
415.6190, 175.9685
416.1012, 180.4115
416.5833, 182.1879
417.0654, 182.0616
417.5475, 180.4028
418.0296, 177.3096
418.5117, 174.4433
418.9939, 172.4238
419.4760, 171.3245
419.9581, 171.5311
420.4402, 173.8459
420.9223, 175.5384
421.4044, 175.7140
421.8866, 175.0770
422.3687, 174.3695
422.8508, 173.7213
423.3329, 172.7908
423.8150, 171.0177
424.2971, 168.2730
424.7793, 167.6263
425.2614, 171.8471
425.7435, 175.0573
426.2256, 175.3990
426.7077, 174.0387
427.1898, 172.3603
427.6720, 170.9010
428.1541, 170.0347
428.6362, 170.6611
429.1183, 173.1110
429.6004, 174.8828
430.0826, 175.4315
430.5647, 175.4408
431.0468, 175.3081
431.5289, 175.0314
432.0110, 174.5499
432.4931, 173.9665
432.9752, 173.0973
433.4573, 171.0918
433.9395, 167.9687
434.4216, 166.4675
434.9037, 168.6352
435.3858, 172.5670
435.8679, 173.8350
436.3500, 171.7263
436.8322, 169.2608
437.3143, 166.0421
437.7964, 163.4771
438.2785, 164.0032
438.7606, 167.4630
439.2427, 170.3091
439.7249, 168.9995
440.2070, 163.6298
440.6891, 161.3416
441.1712, 165.8270
441.6533, 169.2110
442.1354, 169.7163
442.6176, 168.4803
443.0997, 166.3593
443.5818, 163.7131
444.0639, 161.8088
444.5460, 162.8942
445.0281, 167.2354
445.5103, 170.1133
445.9924, 170.2408
446.4745, 170.0417
446.9566, 171.6950
447.4387, 174.2321
447.9208, 174.9758
448.4030, 170.8569
448.8851, 166.6868
449.3672, 168.9190
449.8493, 176.3929
450.3314, 181.8806
450.8135, 182.6142
451.2957, 180.4540
451.7778, 178.1627
452.2599, 175.6419
452.7420, 173.3970
453.2241, 171.9653
453.7062, 170.4561
454.1884, 166.5954
454.6705, 161.7116
455.1526, 161.0271
455.6347, 168.7409
456.1168, 181.6746
456.5989, 186.1189
457.0811, 174.8681
457.5632, 167.0244
458.0453, 166.1110
458.5274, 168.1494
459.0095, 171.1029
459.4916, 174.2378
459.9738, 176.2542
460.4559, 175.0450
460.9380, 171.6219
461.4201, 170.6184
461.9022, 172.6775
462.3843, 175.1966
462.8665, 177.9924
463.3486, 179.8778
463.8307, 178.2914
464.3128, 170.9061
464.7949, 164.6982
465.2770, 164.4858
465.7592, 167.4949
466.2413, 168.8434
466.7234, 167.5456
467.2055, 165.9322
467.6876, 166.3674
468.1697, 169.0212
468.6519, 171.0095
469.1340, 172.0854
469.6161, 172.8819
470.0982, 173.6405
470.5803, 174.2010
471.0624, 174.2855
471.5446, 173.8056
472.0267, 173.0457
472.5088, 172.5096
472.9909, 172.2950
473.4730, 171.2846
473.9551, 168.2355
474.4373, 165.9174
474.9194, 165.9184
475.4015, 167.6614
475.8836, 170.0565
476.3657, 174.0333
476.8478, 176.7637
477.3299, 173.8544
477.8120, 166.7666
478.2942, 162.3123
478.7763, 162.7984
479.2584, 165.9535
479.7405, 169.3888
480.2226, 173.6551
480.7047, 175.1236
481.1869, 169.8988
481.6690, 165.4300
482.1511, 167.6520
482.6332, 173.8194
483.1153, 177.0802
483.5974, 173.8477
484.0796, 167.4496
484.5617, 165.3027
485.0438, 169.0007
485.5259, 172.3713
486.0080, 176.3754
486.4901, 178.6099
486.9723, 176.7191
487.4544, 171.7613
487.9365, 167.1272
488.4186, 163.9188
488.9007, 162.5845
489.3828, 164.9810
489.8650, 170.9155
490.3471, 175.1080
490.8292, 175.3371
491.3113, 173.3367
491.7934, 171.1712
492.2755, 168.2018
492.7577, 168.2188
493.2398, 175.1835
493.7219, 182.5964
494.2040, 185.7034
494.6861, 184.7953
495.1682, 181.7634
495.6504, 177.4990
496.1325, 172.7811
496.6146, 169.9757
497.0967, 170.2347
497.5788, 170.0183
498.0609, 167.6113
498.5431, 165.8570
499.0252, 166.9958
499.5073, 170.5486
499.9894, 174.1438
500.4715, 176.9626
500.9536, 178.5386
501.4358, 177.3121
501.9179, 173.1796
502.4000, 169.8133
502.8821, 168.8156
503.3642, 169.0774
503.8463, 168.6178
504.3285, 167.0948
504.8106, 166.7774
505.2927, 169.8047
505.7748, 172.8833
506.2569, 172.6610
506.7390, 169.8971
507.2212, 168.0026
507.7033, 169.1063
508.1854, 171.7933
508.6675, 171.5450
509.1496, 165.0127
509.6317, 162.7449
510.1139, 170.1447
510.5960, 177.9138
511.0781, 180.7361
511.5602, 178.9173
512.0423, 175.4488
512.5244, 170.5081
513.0065, 166.1417
513.4886, 167.2708
513.9708, 173.8033
514.4529, 177.4508
514.9350, 174.1669
515.4171, 168.1039
515.8992, 165.8537
516.3813, 167.9693
516.8635, 169.3971
517.3456, 167.7843
517.8277, 166.7346
518.3098, 169.8551
518.7919, 175.6867
519.2740, 180.0936
519.7562, 180.9339
520.2383, 179.3763
520.7204, 177.8059
521.2025, 175.9676
521.6846, 174.8770
522.1667, 176.3566
522.6489, 177.0249
523.1310, 174.2297
523.6131, 169.2154
524.0952, 165.5082
524.5773, 164.8603
525.0594, 165.9929
525.5416, 168.2146
526.0237, 171.1595
526.5058, 172.5133
526.9879, 171.3705
527.4700, 169.1028
527.9521, 167.1999
528.4343, 165.6772
528.9164, 164.7167
529.3985, 164.7213
529.8806, 164.8630
530.3627, 165.2563
530.8448, 165.3968
531.3270, 164.2946
531.8091, 161.6167
532.2912, 158.4234
532.7733, 156.0918
533.2554, 154.6182
533.7375, 154.1859
534.2197, 155.3705
534.7018, 156.7930
535.1839, 157.3262
535.6660, 157.6520
536.1481, 159.2311
536.6302, 163.2083
537.1124, 166.7245
537.5945, 166.8840
538.0766, 165.3035
538.5587, 165.6395
539.0408, 168.5745
539.5229, 171.7582
540.0051, 172.8475
540.4872, 171.9657
540.9693, 172.7197
541.4514, 178.6691
541.9335, 181.7924
542.4156, 179.2283
542.8978, 174.2172
543.3799, 168.8864
543.8620, 164.1383
544.3441, 161.4807
544.8262, 164.0311
545.3083, 169.9276
545.7905, 170.7252
546.2726, 165.3059
546.7547, 160.1994
547.2368, 158.0830
547.7189, 158.1355
548.2010, 158.8205
548.6832, 160.2188
549.1653, 161.8617
549.6474, 163.9728
550.1295, 166.0267
550.6116, 168.4214
551.0938, 170.4691
551.5759, 169.4368
552.0580, 163.3644
552.5401, 155.1594
553.0222, 153.1181
553.5043, 160.4543
553.9865, 165.5953
554.4686, 166.6597
554.9507, 166.0203
555.4328, 163.5230
555.9149, 160.1542
556.3970, 158.4926
556.8792, 160.2092
557.3613, 163.2676
557.8434, 166.5030
558.3255, 169.3803
558.8076, 169.0521
559.2897, 164.2519
559.7719, 159.3549
560.2540, 159.7189
560.7361, 166.1200
561.2182, 168.8713
561.7003, 164.7734
562.1824, 161.3165
562.6646, 161.1899
563.1467, 162.6243
563.6288, 163.7957
564.1109, 164.0795
564.5930, 163.1224
565.0751, 159.1214
565.5573, 153.0059
566.0394, 152.0183
566.5215, 157.8787
567.0036, 162.4657
567.4857, 160.1699
567.9678, 155.1371
568.4500, 155.8233
568.9321, 164.6862
569.4142, 170.8138
569.8963, 168.1985
570.3784, 163.6741
570.8605, 164.1750
571.3427, 168.8186
571.8248, 172.3459
572.3069, 171.6565
572.7890, 168.2577
573.2711, 165.8336
573.7532, 164.8211
574.2354, 163.3687
574.7175, 160.0314
575.1996, 157.5614
575.6817, 158.5007
576.1638, 161.4826
576.6459, 162.7130
577.1281, 159.5621
577.6102, 156.3570
578.0923, 157.9779
578.5744, 162.2792
579.0565, 163.0789
579.5386, 158.9556
580.0208, 155.4955
580.5029, 158.9161
580.9850, 168.9407
581.4671, 172.5356
581.9492, 161.0099
582.4313, 153.5586
582.9135, 154.6543
583.3956, 159.5263
583.8777, 164.7703
584.3598, 169.4427
584.8419, 172.6256
585.3240, 173.0296
585.8062, 171.7339
