##NAMES=Ramsdellite
##RRUFFID=R050552
##IDEAL CHEMISTRY=Mn^4+^O_2_
##LOCALITY=Lake Valley, Sierra County, New Mexico, USA
##OWNER=RRUFF
##SOURCE=Dave Bunk Minerals
##DESCRIPTION=Black bladed crystals
##STATUS=The identification of this mineral is confirmed by single-crystal X-ray diffraction and chemical analysis.
##URL=rruff.info/R050552
##MEASURED CHEMISTRY=(Mn^4+^_0.98_Al_0.02_)_Σ=1_(O_1.98_(OH)_0.02_)_Σ=2_
175.6961, 977.5284
176.1783, 972.5402
176.6604, 989.5250
177.1425, 1013.500
177.6246, 1028.123
178.1067, 1033.841
178.5888, 1034.462
179.0710, 1030.545
179.5531, 1023.515
180.0352, 1016.117
180.5173, 1007.718
180.9994, 1000.670
181.4815, 1000.963
181.9637, 1008.349
182.4458, 1015.007
182.9279, 1012.109
183.4100, 1002.326
183.8921, 995.8099
184.3742, 996.7224
184.8564, 1002.195
185.3385, 1004.894
185.8206, 1004.529
186.3027, 1005.200
186.7848, 1014.858
187.2669, 1031.559
187.7491, 1040.591
188.2312, 1031.021
188.7133, 1009.575
189.1954, 1002.510
189.6775, 1011.786
190.1596, 1026.979
190.6418, 1037.271
191.1239, 1042.617
191.6060, 1043.977
192.0881, 1039.604
192.5702, 1030.427
193.0524, 1025.033
193.5345, 1024.155
194.0166, 1025.177
194.4987, 1023.490
194.9808, 1018.799
195.4629, 1015.835
195.9451, 1018.247
196.4272, 1025.906
196.9093, 1029.572
197.3914, 1027.598
197.8735, 1023.763
198.3556, 1025.806
198.8378, 1034.526
199.3199, 1043.926
199.8020, 1050.727
200.2841, 1054.695
200.7662, 1059.304
201.2483, 1066.143
201.7305, 1072.463
202.2126, 1070.002
202.6947, 1056.545
203.1768, 1042.570
203.6589, 1033.727
204.1410, 1030.214
204.6232, 1031.891
205.1053, 1041.483
205.5874, 1055.080
206.0695, 1058.365
206.5516, 1048.143
207.0337, 1036.000
207.5159, 1029.581
207.9980, 1029.756
208.4801, 1032.687
208.9622, 1040.358
209.4443, 1050.390
209.9264, 1049.315
210.4086, 1032.296
210.8907, 1013.833
211.3728, 1006.243
211.8549, 1013.188
212.3370, 1018.296
212.8191, 1019.139
213.3013, 1016.077
213.7834, 1011.323
214.2655, 1002.703
214.7476, 995.8795
215.2297, 996.6039
215.7118, 1007.883
216.1940, 1018.528
216.6761, 1027.024
217.1582, 1033.390
217.6403, 1036.779
218.1224, 1036.414
218.6045, 1034.070
219.0867, 1030.051
219.5688, 1020.498
220.0509, 1019.157
220.5330, 1033.178
221.0151, 1063.384
221.4972, 1077.587
221.9794, 1070.758
222.4615, 1053.716
222.9436, 1035.972
223.4257, 1012.320
223.9078, 999.1449
224.3899, 1004.062
224.8721, 1029.374
225.3542, 1042.742
225.8363, 1039.402
226.3184, 1028.766
226.8005, 1021.552
227.2827, 1018.448
227.7648, 1017.661
228.2469, 1019.382
228.7290, 1024.104
229.2111, 1027.288
229.6932, 1027.726
230.1754, 1027.570
230.6575, 1030.277
231.1396, 1039.330
231.6217, 1044.836
232.1038, 1041.864
232.5859, 1026.942
233.0681, 1023.238
233.5502, 1037.613
234.0323, 1058.252
234.5144, 1067.508
234.9965, 1058.497
235.4786, 1049.584
235.9608, 1046.619
236.4429, 1051.293
236.9250, 1054.120
237.4071, 1054.262
237.8892, 1053.050
238.3713, 1052.649
238.8535, 1053.780
239.3356, 1054.505
239.8177, 1054.082
240.2998, 1052.096
240.7819, 1050.500
241.2640, 1049.139
241.7462, 1048.232
242.2283, 1047.944
242.7104, 1047.372
243.1925, 1048.964
243.6746, 1054.473
244.1567, 1066.426
244.6389, 1073.401
245.1210, 1073.207
245.6031, 1069.349
246.0852, 1068.148
246.5673, 1071.382
247.0494, 1074.220
247.5316, 1074.447
248.0137, 1070.363
248.4958, 1069.860
248.9779, 1075.588
249.4600, 1083.409
249.9421, 1084.459
250.4243, 1073.011
250.9064, 1065.112
251.3885, 1068.353
251.8706, 1088.501
252.3527, 1100.039
252.8348, 1099.277
253.3170, 1092.208
253.7991, 1090.411
254.2812, 1096.471
254.7633, 1102.892
255.2454, 1107.058
255.7275, 1108.685
256.2097, 1109.083
256.6918, 1108.711
257.1739, 1106.797
257.6560, 1100.664
258.1381, 1086.311
258.6202, 1076.055
259.1024, 1076.466
259.5845, 1092.011
260.0666, 1099.024
260.5487, 1093.984
261.0308, 1083.060
261.5129, 1077.015
261.9951, 1076.399
262.4772, 1079.535
262.9593, 1087.194
263.4414, 1101.500
263.9235, 1110.269
264.4056, 1112.355
264.8878, 1110.045
265.3699, 1107.557
265.8520, 1105.540
266.3341, 1101.395
266.8162, 1092.657
267.2983, 1077.849
267.7805, 1068.663
268.2626, 1066.273
268.7447, 1068.320
269.2268, 1070.693
269.7089, 1072.894
270.1910, 1077.243
270.6732, 1086.764
271.1553, 1102.759
271.6374, 1109.410
272.1195, 1103.927
272.6016, 1093.190
273.0837, 1089.319
273.5659, 1093.975
274.0480, 1096.916
274.5301, 1093.908
275.0122, 1084.774
275.4943, 1073.589
275.9764, 1058.527
276.4586, 1044.852
276.9407, 1042.195
277.4228, 1051.887
277.9049, 1061.138
278.3870, 1063.173
278.8691, 1058.581
279.3513, 1062.831
279.8334, 1078.687
280.3155, 1096.275
280.7976, 1100.854
281.2798, 1091.835
281.7619, 1082.653
282.2440, 1077.857
282.7261, 1077.135
283.2082, 1078.833
283.6903, 1083.533
284.1725, 1088.511
284.6546, 1089.797
285.1367, 1087.541
285.6188, 1085.967
286.1009, 1087.184
286.5830, 1090.350
287.0652, 1091.300
287.5473, 1089.625
288.0294, 1088.124
288.5115, 1090.695
288.9936, 1096.807
289.4757, 1101.944
289.9579, 1104.445
290.4400, 1104.955
290.9221, 1104.531
291.4042, 1102.998
291.8863, 1102.719
292.3684, 1110.202
292.8506, 1122.347
293.3327, 1125.188
293.8148, 1107.457
294.2969, 1081.693
294.7790, 1074.636
295.2611, 1086.318
295.7433, 1100.157
296.2254, 1100.360
296.7075, 1091.144
297.1896, 1084.349
297.6717, 1083.557
298.1538, 1086.636
298.6360, 1091.950
299.1181, 1099.247
299.6002, 1104.954
300.0823, 1104.624
300.5644, 1101.001
301.0465, 1099.139
301.5287, 1099.956
302.0108, 1103.562
302.4929, 1113.495
302.9750, 1128.158
303.4571, 1137.848
303.9392, 1132.114
304.4214, 1118.728
304.9035, 1108.167
305.3856, 1104.383
305.8677, 1102.068
306.3498, 1093.564
306.8319, 1081.774
307.3141, 1076.867
307.7962, 1093.961
308.2783, 1116.667
308.7604, 1128.050
309.2425, 1120.369
309.7246, 1109.963
310.2068, 1107.290
310.6889, 1110.031
311.1710, 1112.107
311.6531, 1110.667
312.1352, 1107.389
312.6173, 1102.857
313.0995, 1096.105
313.5816, 1091.383
314.0637, 1092.024
314.5458, 1095.990
315.0279, 1099.433
315.5100, 1099.023
315.9922, 1099.101
316.4743, 1102.951
316.9564, 1112.476
317.4385, 1119.422
317.9206, 1119.953
318.4027, 1116.529
318.8849, 1112.590
319.3670, 1103.927
319.8491, 1099.417
320.3312, 1105.189
320.8133, 1124.426
321.2954, 1137.049
321.7776, 1134.946
322.2597, 1126.060
322.7418, 1118.856
323.2239, 1115.985
323.7060, 1113.472
324.1881, 1110.195
324.6703, 1105.982
325.1524, 1102.780
325.6345, 1096.254
326.1166, 1093.208
326.5987, 1099.263
327.0808, 1133.256
327.5630, 1154.087
328.0451, 1151.442
328.5272, 1126.693
329.0093, 1109.609
329.4914, 1102.558
329.9735, 1101.345
330.4557, 1104.222
330.9378, 1117.519
331.4199, 1123.424
331.9020, 1116.518
332.3841, 1100.505
332.8662, 1093.992
333.3484, 1101.258
333.8305, 1111.629
334.3126, 1119.841
334.7947, 1125.884
335.2768, 1129.387
335.7589, 1129.604
336.2411, 1127.666
336.7232, 1126.177
337.2053, 1124.974
337.6874, 1124.741
338.1695, 1126.545
338.6516, 1130.894
339.1338, 1132.176
339.6159, 1129.124
340.0980, 1124.831
340.5801, 1124.955
341.0622, 1129.950
341.5443, 1135.341
342.0265, 1141.576
342.5086, 1147.745
342.9907, 1142.703
343.4728, 1123.722
343.9549, 1104.407
344.4370, 1105.884
344.9192, 1125.652
345.4013, 1139.660
345.8834, 1135.636
346.3655, 1120.737
346.8476, 1113.746
347.3297, 1114.824
347.8119, 1119.282
348.2940, 1123.258
348.7761, 1127.190
349.2582, 1132.859
349.7403, 1144.045
350.2225, 1153.990
350.7046, 1149.228
351.1867, 1131.754
351.6688, 1117.296
352.1509, 1119.172
352.6331, 1130.762
353.1152, 1143.022
353.5973, 1156.002
354.0794, 1165.298
354.5615, 1165.400
355.0436, 1158.243
355.5258, 1149.720
356.0079, 1140.032
356.4900, 1132.076
356.9721, 1129.355
357.4542, 1134.121
357.9363, 1138.302
358.4185, 1134.292
358.9006, 1126.957
359.3827, 1124.713
359.8648, 1136.974
360.3469, 1150.313
360.8290, 1157.260
361.3112, 1156.344
361.7933, 1155.246
362.2754, 1157.686
362.7575, 1160.741
363.2396, 1161.234
363.7217, 1152.867
364.2039, 1147.443
364.6860, 1150.247
365.1681, 1161.450
365.6502, 1168.498
366.1323, 1167.522
366.6144, 1163.500
367.0966, 1159.790
367.5787, 1152.943
368.0608, 1150.936
368.5429, 1157.379
369.0250, 1170.074
369.5071, 1177.100
369.9893, 1171.500
370.4714, 1168.275
370.9535, 1176.595
371.4356, 1207.951
371.9177, 1223.940
372.3998, 1219.635
372.8820, 1201.927
373.3641, 1184.680
373.8462, 1166.052
374.3283, 1152.805
374.8104, 1149.537
375.2925, 1157.393
375.7747, 1160.425
376.2568, 1156.403
376.7389, 1152.028
377.2210, 1159.363
377.7031, 1179.680
378.1852, 1193.037
378.6674, 1190.940
379.1495, 1177.167
379.6316, 1166.551
380.1137, 1159.050
380.5958, 1155.923
381.0779, 1160.354
381.5601, 1171.009
382.0422, 1181.251
382.5243, 1190.690
383.0064, 1197.863
383.4885, 1200.802
383.9706, 1199.517
384.4528, 1193.913
384.9349, 1178.698
385.4170, 1160.409
385.8991, 1150.180
386.3812, 1150.918
386.8633, 1155.443
387.3455, 1159.297
387.8276, 1161.900
388.3097, 1161.956
388.7918, 1152.883
389.2739, 1144.787
389.7560, 1148.561
390.2382, 1166.278
390.7203, 1180.750
391.2024, 1182.022
391.6845, 1175.192
392.1666, 1166.094
392.6487, 1149.624
393.1309, 1137.834
393.6130, 1137.357
394.0951, 1147.353
394.5772, 1157.827
395.0593, 1169.789
395.5414, 1179.197
396.0236, 1183.378
396.5057, 1176.390
396.9878, 1170.783
397.4699, 1167.291
397.9520, 1165.967
398.4341, 1167.120
398.9163, 1175.998
399.3984, 1181.871
399.8805, 1179.783
400.3626, 1165.175
400.8447, 1156.044
401.3268, 1152.737
401.8090, 1154.671
402.2911, 1162.904
402.7732, 1182.298
403.2553, 1194.767
403.7374, 1193.088
404.2195, 1178.317
404.7017, 1170.048
405.1838, 1169.485
405.6659, 1172.173
406.1480, 1174.765
406.6301, 1177.291
407.1122, 1178.909
407.5944, 1179.762
408.0765, 1179.307
408.5586, 1175.224
409.0407, 1167.579
409.5228, 1160.614
410.0049, 1155.810
410.4871, 1153.867
410.9692, 1158.191
411.4513, 1170.541
411.9334, 1183.501
412.4155, 1189.579
412.8976, 1189.620
413.3798, 1186.025
413.8619, 1176.602
414.3440, 1166.018
414.8261, 1157.627
415.3082, 1151.567
415.7903, 1150.930
416.2725, 1164.892
416.7546, 1182.667
417.2367, 1192.306
417.7188, 1187.122
418.2009, 1175.995
418.6830, 1155.358
419.1652, 1129.949
419.6473, 1117.970
420.1294, 1140.233
420.6115, 1166.504
421.0937, 1179.592
421.5758, 1168.856
422.0579, 1162.495
422.5400, 1170.458
423.0221, 1183.662
423.5042, 1187.240
423.9864, 1171.349
424.4685, 1156.265
424.9506, 1145.318
425.4327, 1138.537
425.9148, 1137.977
426.3969, 1146.945
426.8791, 1158.352
427.3612, 1165.999
427.8433, 1168.840
428.3254, 1171.120
428.8075, 1173.298
429.2896, 1175.335
429.7718, 1177.317
430.2539, 1179.458
430.7360, 1180.491
431.2181, 1177.608
431.7002, 1171.460
432.1823, 1173.398
432.6645, 1185.984
433.1466, 1199.999
433.6287, 1201.601
434.1108, 1192.832
434.5929, 1183.621
435.0750, 1177.249
435.5572, 1173.399
436.0393, 1173.090
436.5214, 1176.084
437.0035, 1177.354
437.4856, 1168.569
437.9677, 1156.901
438.4499, 1152.938
438.9320, 1162.528
439.4141, 1175.053
439.8962, 1185.313
440.3783, 1192.802
440.8604, 1196.521
441.3426, 1192.965
441.8247, 1187.762
442.3068, 1184.183
442.7889, 1183.029
443.2710, 1181.361
443.7531, 1175.499
444.2353, 1169.863
444.7174, 1169.241
445.1995, 1181.871
445.6816, 1191.293
446.1637, 1192.573
446.6458, 1186.762
447.1280, 1185.457
447.6101, 1191.733
448.0922, 1199.145
448.5743, 1204.559
449.0564, 1208.798
449.5385, 1207.794
450.0207, 1197.336
450.5028, 1185.337
450.9849, 1190.582
451.4670, 1217.862
451.9491, 1237.469
452.4312, 1232.776
452.9134, 1208.392
453.3955, 1203.271
453.8776, 1219.733
454.3597, 1238.845
454.8418, 1240.924
455.3239, 1229.435
455.8061, 1218.401
456.2882, 1210.490
456.7703, 1205.033
457.2524, 1202.009
457.7345, 1200.898
458.2166, 1199.495
458.6988, 1193.967
459.1809, 1188.753
459.6630, 1189.594
460.1451, 1197.797
460.6272, 1206.694
461.1093, 1212.994
461.5915, 1217.222
462.0736, 1219.878
462.5557, 1219.742
463.0378, 1219.435
463.5199, 1219.104
464.0020, 1219.039
464.4842, 1221.235
464.9663, 1230.257
465.4484, 1238.562
465.9305, 1241.566
466.4126, 1230.951
466.8947, 1230.020
467.3769, 1248.531
467.8590, 1272.449
468.3411, 1276.998
468.8232, 1249.382
469.3053, 1227.925
469.7874, 1224.294
470.2696, 1237.397
470.7517, 1247.836
471.2338, 1255.981
471.7159, 1260.306
472.1980, 1258.418
472.6801, 1250.417
473.1623, 1240.833
473.6444, 1228.607
474.1265, 1218.258
474.6086, 1218.420
475.0907, 1228.099
475.5728, 1240.847
476.0550, 1260.291
476.5371, 1278.225
477.0192, 1276.640
477.5013, 1254.685
477.9834, 1234.554
478.4655, 1238.328
478.9477, 1252.671
479.4298, 1259.768
479.9119, 1248.125
480.3940, 1235.955
480.8761, 1233.596
481.3582, 1238.334
481.8404, 1242.450
482.3225, 1240.129
482.8046, 1239.341
483.2867, 1245.323
483.7688, 1262.359
484.2509, 1272.773
484.7331, 1268.636
485.2152, 1260.512
485.6973, 1258.591
486.1794, 1269.286
486.6615, 1274.916
487.1436, 1270.702
487.6258, 1259.447
488.1079, 1254.949
488.5900, 1259.163
489.0721, 1264.839
489.5542, 1267.835
490.0363, 1268.135
490.5185, 1270.465
491.0006, 1275.871
491.4827, 1280.154
491.9648, 1274.506
492.4470, 1261.382
492.9291, 1254.678
493.4112, 1261.754
493.8933, 1275.657
494.3754, 1287.724
494.8575, 1297.776
495.3397, 1303.972
495.8218, 1301.554
496.3039, 1296.457
496.7860, 1295.875
497.2681, 1302.272
497.7502, 1307.579
498.2324, 1307.706
498.7145, 1304.135
499.1966, 1298.872
499.6787, 1284.806
500.1608, 1276.937
500.6429, 1282.616
501.1251, 1300.971
501.6072, 1316.890
502.0893, 1333.510
502.5714, 1343.982
503.0535, 1344.122
503.5356, 1327.943
504.0178, 1314.966
504.4999, 1302.429
504.9820, 1295.822
505.4641, 1307.417
505.9462, 1342.196
506.4283, 1368.565
506.9105, 1374.334
507.3926, 1365.319
507.8747, 1364.864
508.3568, 1373.358
508.8389, 1383.434
509.3210, 1392.000
509.8032, 1398.016
510.2853, 1396.331
510.7674, 1383.924
511.2495, 1374.056
511.7316, 1385.416
512.2137, 1409.160
512.6959, 1427.114
513.1780, 1425.774
513.6601, 1421.222
514.1422, 1424.063
514.6243, 1433.416
515.1064, 1442.411
515.5886, 1447.411
516.0707, 1451.918
516.5528, 1458.415
517.0349, 1469.906
517.5170, 1477.852
517.9991, 1473.233
518.4813, 1467.784
518.9634, 1478.008
519.4455, 1519.435
519.9276, 1549.249
520.4097, 1553.923
520.8918, 1538.547
521.3740, 1538.557
521.8561, 1557.537
522.3382, 1580.041
522.8203, 1598.010
523.3024, 1611.242
523.7845, 1617.257
524.2667, 1614.452
524.7488, 1610.078
525.2309, 1612.446
525.7130, 1620.652
526.1951, 1631.874
526.6772, 1649.623
527.1594, 1665.758
527.6415, 1668.938
528.1236, 1661.327
528.6057, 1652.413
529.0878, 1645.576
529.5699, 1640.884
530.0521, 1639.230
530.5342, 1641.648
531.0163, 1642.760
531.4984, 1640.566
531.9805, 1636.323
532.4626, 1631.374
532.9448, 1622.936
533.4269, 1617.392
533.9090, 1616.182
534.3911, 1618.462
534.8732, 1622.385
535.3553, 1633.656
535.8375, 1635.564
536.3196, 1615.214
536.8017, 1570.286
537.2838, 1550.578
537.7659, 1561.705
538.2480, 1578.947
538.7302, 1573.406
539.2123, 1548.508
539.6944, 1527.781
540.1765, 1515.620
540.6586, 1511.099
541.1407, 1518.775
541.6229, 1534.333
542.1050, 1542.441
542.5871, 1525.540
543.0692, 1503.614
543.5513, 1496.765
544.0334, 1505.962
544.5156, 1513.041
544.9977, 1507.654
545.4798, 1497.713
545.9619, 1489.560
546.4440, 1487.073
546.9261, 1482.406
547.4083, 1469.136
547.8904, 1454.104
548.3725, 1450.881
548.8546, 1472.186
549.3367, 1483.753
549.8188, 1472.063
550.3010, 1440.355
550.7831, 1428.893
551.2652, 1442.599
551.7473, 1460.172
552.2294, 1466.664
552.7115, 1463.037
553.1937, 1457.348
553.6758, 1449.448
554.1579, 1442.771
554.6400, 1441.879
555.1221, 1445.707
555.6042, 1451.408
556.0864, 1460.704
556.5685, 1468.723
557.0506, 1469.909
557.5327, 1465.558
558.0148, 1460.420
558.4969, 1450.876
558.9791, 1445.735
559.4612, 1452.663
559.9433, 1475.425
560.4254, 1494.313
560.9075, 1506.503
561.3896, 1512.701
561.8718, 1513.678
562.3539, 1505.553
562.8360, 1499.013
563.3181, 1496.590
563.8002, 1495.456
564.2823, 1486.073
564.7645, 1464.900
565.2466, 1452.099
565.7287, 1459.497
566.2108, 1482.130
566.6929, 1496.103
567.1750, 1501.155
567.6572, 1500.886
568.1393, 1493.996
568.6214, 1484.595
569.1035, 1482.538
569.5856, 1491.245
570.0677, 1499.510
570.5499, 1496.313
571.0320, 1486.936
571.5141, 1479.746
571.9962, 1482.087
572.4783, 1482.931
572.9604, 1473.044
573.4426, 1456.026
573.9247, 1450.379
574.4068, 1472.149
574.8889, 1494.011
575.3710, 1505.353
575.8531, 1504.139
576.3353, 1502.779
576.8174, 1502.472
577.2995, 1500.260
577.7816, 1490.243
578.2637, 1470.777
578.7458, 1463.546
579.2280, 1475.139
579.7101, 1493.960
580.1922, 1498.605
580.6743, 1491.244
581.1564, 1484.139
581.6385, 1465.521
582.1207, 1491.617
582.6028, 1506.684
583.0849, 1511.316
583.5670, 1474.255
584.0491, 1491.031
584.5313, 1486.232
585.0134, 1480.548
585.4955, 1504.901
585.9776, 1473.905
586.4597, 1497.782
586.9418, 1499.754
587.4240, 1511.752
587.9061, 1502.041
588.3882, 1499.035
588.8703, 1517.745
589.3524, 1524.430
589.8345, 1512.220
590.3167, 1524.855
590.7988, 1493.101
591.2809, 1500.298
591.7630, 1524.861
592.2451, 1533.541
592.7272, 1528.578
593.2094, 1519.948
593.6915, 1513.260
594.1736, 1509.353
594.6557, 1511.225
595.1378, 1520.903
595.6199, 1529.553
596.1021, 1527.981
596.5842, 1521.859
597.0663, 1519.267
597.5485, 1526.140
598.0306, 1533.583
598.5127, 1540.725
598.9948, 1546.620
599.4769, 1547.280
599.9590, 1536.490
600.4412, 1527.796
600.9233, 1526.086
601.4054, 1531.811
601.8875, 1536.520
602.3696, 1538.736
602.8517, 1543.521
603.3339, 1558.170
603.8160, 1581.543
604.2981, 1595.901
604.7802, 1597.852
605.2623, 1595.049
605.7444, 1597.171
606.2266, 1602.411
606.7087, 1605.957
607.1908, 1607.735
607.6729, 1605.469
608.1550, 1591.113
608.6371, 1570.112
609.1193, 1559.671
609.6014, 1577.566
610.0835, 1598.452
610.5656, 1609.457
611.0477, 1608.193
611.5298, 1609.730
612.0120, 1618.627
612.4941, 1626.435
612.9762, 1626.274
613.4583, 1614.188
613.9404, 1608.859
614.4225, 1612.436
614.9047, 1620.525
615.3868, 1627.765
615.8689, 1634.181
616.3510, 1639.275
616.8331, 1642.897
617.3152, 1645.136
617.7974, 1645.531
618.2795, 1644.496
618.7616, 1643.666
619.2437, 1640.700
619.7258, 1640.682
620.2079, 1650.719
620.6901, 1670.894
621.1722, 1685.003
621.6543, 1681.304
622.1364, 1674.008
622.6185, 1672.167
623.1006, 1677.377
623.5828, 1686.400
624.0649, 1705.063
624.5470, 1722.191
625.0291, 1720.782
625.5112, 1695.376
625.9933, 1682.074
626.4755, 1691.287
626.9576, 1710.907
627.4397, 1712.375
627.9218, 1698.651
628.4039, 1692.336
628.8860, 1713.810
629.3682, 1744.304
629.8503, 1755.571
630.3324, 1750.152
630.8145, 1747.496
631.2966, 1769.191
631.7787, 1790.557
632.2609, 1789.588
632.7430, 1754.085
633.2251, 1733.669
633.7072, 1751.230
634.1893, 1779.809
634.6714, 1797.250
635.1536, 1798.428
635.6357, 1799.563
636.1178, 1801.483
636.5999, 1804.192
637.0820, 1808.425
637.5641, 1814.296
638.0463, 1817.655
638.5284, 1813.802
639.0105, 1809.565
639.4926, 1823.385
639.9747, 1851.810
640.4568, 1874.446
640.9390, 1872.972
641.4211, 1864.151
641.9032, 1863.750
642.3853, 1872.873
642.8674, 1882.338
643.3495, 1893.197
643.8317, 1899.937
644.3138, 1897.732
644.7959, 1875.358
645.2780, 1865.170
645.7601, 1873.093
646.2422, 1887.985
646.7244, 1896.796
647.2065, 1898.176
647.6886, 1899.960
648.1707, 1903.275
648.6528, 1907.945
649.1349, 1917.575
649.6171, 1930.304
650.0992, 1933.453
650.5813, 1909.293
651.0634, 1879.659
651.5455, 1874.783
652.0276, 1890.375
652.5098, 1903.651
652.9919, 1899.080
653.4740, 1891.023
653.9561, 1887.807
654.4382, 1890.550
654.9203, 1896.553
655.4025, 1912.631
655.8846, 1926.053
656.3667, 1928.333
656.8488, 1918.013
657.3309, 1898.249
657.8130, 1863.464
658.2952, 1829.391
658.7773, 1823.562
659.2594, 1843.119
659.7415, 1853.351
660.2236, 1841.336
660.7057, 1822.287
661.1879, 1819.733
661.6700, 1828.286
662.1521, 1832.968
662.6342, 1823.837
663.1163, 1810.830
663.5984, 1798.765
664.0806, 1787.904
664.5627, 1778.695
665.0448, 1774.656
665.5269, 1769.232
666.0090, 1758.669
666.4911, 1741.786
666.9733, 1729.429
667.4554, 1722.626
667.9375, 1718.314
668.4196, 1714.432
668.9017, 1710.946
669.3839, 1709.027
669.8660, 1710.221
670.3481, 1706.321
670.8302, 1678.611
671.3123, 1639.332
671.7944, 1615.736
