##NAMES=Ramsbeckite
##RRUFFID=R050295
##IDEAL CHEMISTRY=Cu^2+^_15_(S^6+^O_4_)_4_(OH)_22_&#183;6H_2_O
##LOCALITY=79 mine, 6th level, 31 stope, Hayden, Gila County, Arizona, USA
##OWNER=RRUFF
##SOURCE=George Godas, John Callahan
##DESCRIPTION=Greenish-blue tabular
##STATUS=The identification of this mineral is confirmed by single-crystal X-ray diffraction and chemical analysis.
##URL=rruff.info/R050295
##MEASURED CHEMISTRY=(Cu_8.33_Zn_6.67_)_Σ=15_(S_1.00_O_4_)_4_(OH)_22_·6H_2_O ; = rim, gray phase. The core, light phase is sphalerite.
92.35352, 0.6092412
92.83563, 1.047675
93.31775, 1.234531
93.79987, 0.9641532
94.28198, 0.4150045
94.76410, 0.1207304
95.24622, 0.2509636
95.72833, 0.6239769
96.21045, 0.8625362
96.69257, 0.9614567
97.17468, 1.030371
97.65680, 1.201337
98.13892, 1.471321
98.62103, 1.626064
99.10315, 1.553257
99.58527, 1.302342
100.0674, 1.231272
100.5495, 1.381901
101.0316, 1.622005
101.5137, 1.772168
101.9958, 1.788882
102.4780, 1.875033
102.9601, 2.126027
103.4422, 2.583986
103.9243, 2.916870
104.4064, 3.067352
104.8885, 3.131220
105.3707, 3.289331
105.8528, 3.593382
106.3349, 3.917577
106.8170, 4.216143
107.2991, 4.488901
107.7813, 4.732943
108.2634, 4.881395
108.7455, 4.992599
109.2276, 5.254805
109.7097, 5.903937
110.1918, 6.535536
110.6740, 6.982821
111.1561, 7.147140
111.6382, 7.233142
112.1203, 7.144681
112.6024, 6.935025
113.0845, 6.933822
113.5667, 7.353871
114.0488, 7.909377
114.5309, 8.412850
115.0130, 8.769261
115.4951, 9.115759
115.9772, 9.489456
116.4594, 9.894087
116.9415, 10.31142
117.4236, 10.67483
117.9057, 11.06725
118.3878, 11.57515
118.8699, 12.40049
119.3521, 13.22939
119.8342, 13.81724
120.3163, 14.11638
120.7984, 14.53888
121.2805, 15.68671
121.7626, 17.10620
122.2448, 18.02176
122.7269, 17.58947
123.2090, 16.70967
123.6911, 16.28220
124.1732, 16.46376
124.6553, 16.83803
125.1375, 17.06450
125.6196, 17.17627
126.1017, 17.27810
126.5838, 17.50239
127.0659, 17.74720
127.5480, 17.79103
128.0302, 17.52864
128.5123, 17.21298
128.9944, 17.16781
129.4765, 17.38341
129.9586, 17.76883
130.4407, 18.46700
130.9229, 19.34213
131.4050, 19.80535
131.8871, 19.62071
132.3692, 19.06090
132.8513, 18.71331
133.3334, 18.55872
133.8156, 18.42386
134.2977, 18.19070
134.7798, 17.92825
135.2619, 17.87273
135.7440, 18.14048
136.2261, 18.64693
136.7083, 19.06442
137.1904, 19.43050
137.6725, 19.61490
138.1546, 19.33873
138.6367, 18.45319
139.1188, 17.94750
139.6010, 18.21903
140.0831, 19.26819
140.5652, 19.81318
141.0473, 19.71628
141.5294, 19.33086
142.0115, 19.12721
142.4937, 19.20742
142.9758, 19.21828
143.4579, 19.00654
143.9400, 18.47730
144.4221, 18.19680
144.9042, 18.23963
145.3864, 18.48115
145.8685, 18.71544
146.3506, 18.95967
146.8327, 19.17724
147.3148, 19.37861
147.7969, 19.65330
148.2791, 19.70283
148.7612, 19.34091
149.2433, 18.77383
149.7254, 18.47492
150.2075, 18.70695
150.6896, 18.97840
151.1718, 19.10849
151.6539, 18.97543
152.1360, 18.88258
152.6181, 18.85890
153.1002, 18.88292
153.5823, 18.89055
154.0645, 18.80861
154.5466, 18.75852
155.0287, 18.79752
155.5108, 19.02577
155.9929, 19.22965
156.4750, 19.43631
156.9572, 19.61338
157.4393, 19.61941
157.9214, 19.12800
158.4035, 18.63517
158.8856, 18.44806
159.3677, 18.99826
159.8499, 19.49491
160.3320, 19.64785
160.8141, 19.51783
161.2962, 19.46856
161.7783, 19.69016
162.2604, 20.01812
162.7426, 20.31667
163.2247, 20.65602
163.7068, 20.86244
164.1889, 20.79226
164.6710, 20.46511
165.1531, 20.15225
165.6353, 19.95481
166.1174, 19.85124
166.5995, 19.81841
167.0816, 19.92695
167.5637, 20.04456
168.0458, 20.07276
168.5280, 20.01019
169.0101, 19.95154
169.4922, 19.98018
169.9743, 20.04593
170.4564, 20.07855
170.9385, 20.02902
171.4207, 19.94641
171.9028, 19.86860
172.3849, 19.79729
172.8670, 19.73273
173.3491, 19.66717
173.8312, 19.60814
174.3134, 19.56997
174.7955, 19.54814
175.2776, 19.55561
175.7597, 19.64254
176.2418, 19.82707
176.7239, 19.96561
177.2061, 19.87418
177.6882, 19.62370
178.1703, 19.40893
178.6524, 19.34176
179.1345, 19.36403
179.6166, 19.38492
180.0988, 19.40026
180.5809, 19.40994
181.0630, 19.48433
181.5451, 19.57929
182.0272, 19.51439
182.5093, 19.01639
182.9915, 18.29549
183.4736, 17.88096
183.9557, 17.83079
184.4378, 17.98977
184.9199, 18.25188
185.4020, 18.58654
185.8842, 18.80964
186.3663, 18.68823
186.8484, 18.34597
187.3305, 18.28366
187.8126, 18.60479
188.2947, 19.03813
188.7769, 19.14259
189.2590, 18.93066
189.7411, 18.65541
190.2232, 18.42870
190.7053, 18.25171
191.1874, 18.11412
191.6696, 17.99846
192.1517, 17.95041
192.6338, 18.11699
193.1159, 18.50826
193.5980, 18.84571
194.0801, 18.91117
194.5623, 18.72816
195.0444, 18.64309
195.5265, 18.71018
196.0086, 18.85624
196.4907, 18.91857
196.9728, 18.88657
197.4550, 18.85889
197.9371, 18.91627
198.4192, 19.06095
198.9013, 19.14577
199.3834, 19.15498
199.8655, 19.10099
200.3477, 18.95402
200.8298, 18.66440
201.3119, 18.51316
201.7940, 18.77654
202.2761, 19.51478
202.7582, 19.97245
203.2404, 20.02821
203.7225, 19.80541
204.2046, 19.61849
204.6867, 19.45905
205.1688, 19.36393
205.6509, 19.35750
206.1331, 19.44239
206.6152, 19.59575
207.0973, 19.81857
207.5794, 20.10697
208.0615, 20.48419
208.5436, 21.01060
209.0258, 21.46852
209.5079, 21.69570
209.9900, 21.64073
210.4721, 21.58876
210.9542, 21.54321
211.4363, 21.52213
211.9185, 21.58748
212.4006, 21.74592
212.8827, 21.97802
213.3648, 22.29631
213.8469, 22.75717
214.3290, 23.09946
214.8112, 23.25570
215.2933, 23.28878
215.7754, 23.44294
216.2575, 23.77750
216.7396, 24.12172
217.2217, 24.37765
217.7038, 24.53635
218.1860, 24.61560
218.6681, 24.53877
219.1502, 24.39398
219.6323, 24.54398
220.1144, 25.14340
220.5965, 25.77057
221.0787, 26.16142
221.5608, 26.19715
222.0429, 26.33031
222.5250, 26.65234
223.0071, 27.08423
223.4892, 27.29047
223.9714, 27.10342
224.4535, 26.95831
224.9356, 27.11382
225.4177, 27.72009
225.8998, 28.26524
226.3819, 28.71700
226.8641, 29.09369
227.3462, 29.43978
227.8283, 29.74451
228.3104, 30.03423
228.7925, 30.33301
229.2746, 30.71184
229.7568, 30.93382
230.2389, 30.91845
230.7210, 30.75381
231.2031, 30.74450
231.6852, 31.04451
232.1673, 31.27171
232.6495, 31.20123
233.1316, 30.60124
233.6137, 30.23131
234.0958, 30.19648
234.5779, 30.38767
235.0600, 30.50010
235.5422, 30.49339
236.0243, 30.46839
236.5064, 30.47716
236.9885, 30.56978
237.4706, 30.57807
237.9527, 30.44712
238.4349, 30.24652
238.9170, 30.15601
239.3991, 30.22991
239.8812, 30.33315
240.3633, 30.43463
240.8454, 30.62012
241.3276, 30.57139
241.8097, 30.14534
242.2918, 29.53892
242.7739, 29.21051
243.2560, 29.35993
243.7381, 29.47805
244.2203, 29.34918
244.7024, 28.84277
245.1845, 28.46357
245.6666, 28.27035
246.1487, 28.17700
246.6308, 28.00414
247.1130, 27.67374
247.5951, 27.39182
248.0772, 27.25624
248.5593, 27.33575
249.0414, 27.30662
249.5235, 27.14852
250.0057, 26.89435
250.4878, 26.58764
250.9699, 26.20302
251.4520, 25.80726
251.9341, 25.40593
252.4162, 24.97156
252.8984, 24.65943
253.3805, 24.49828
253.8626, 24.43665
254.3447, 24.41614
254.8268, 24.48162
255.3089, 24.49706
255.7911, 24.42426
256.2732, 24.25911
256.7553, 24.02460
257.2374, 23.64706
257.7195, 23.27221
258.2017, 23.09983
258.6838, 23.23188
259.1659, 23.33038
259.6480, 23.30542
260.1301, 23.15259
260.6122, 23.00618
261.0944, 22.86749
261.5765, 22.73302
262.0586, 22.58684
262.5407, 22.39985
263.0228, 22.29602
263.5049, 22.38248
263.9871, 22.64002
264.4692, 22.51543
264.9513, 21.84611
265.4334, 21.05409
265.9155, 20.52409
266.3976, 20.33610
266.8798, 20.16666
267.3619, 19.93949
267.8440, 19.67519
268.3261, 19.59396
268.8082, 19.78597
269.2903, 19.97167
269.7725, 19.88703
270.2546, 19.45614
270.7367, 19.11137
271.2188, 18.92296
271.7009, 18.86605
272.1830, 18.85865
272.6652, 18.93378
273.1473, 18.96749
273.6294, 18.86952
274.1115, 18.62504
274.5936, 18.30704
275.0757, 17.85254
275.5579, 17.37429
276.0400, 17.28661
276.5221, 17.69555
277.0042, 18.06583
277.4863, 18.02692
277.9684, 17.54132
278.4506, 17.16532
278.9327, 16.94843
279.4148, 16.84407
279.8969, 16.76471
280.3790, 16.71177
280.8611, 16.67467
281.3433, 16.65642
281.8254, 16.65675
282.3075, 16.64667
282.7896, 16.63447
283.2717, 16.59211
283.7538, 16.43051
284.2360, 16.14201
284.7181, 15.93351
285.2002, 15.97165
285.6823, 16.21364
286.1644, 16.22557
286.6465, 15.95736
287.1287, 15.64055
287.6108, 15.58253
288.0929, 15.77207
288.5750, 16.01245
289.0571, 16.29605
289.5392, 16.57486
290.0214, 16.63416
290.5035, 16.46147
290.9856, 16.17914
291.4677, 15.82038
291.9498, 15.42061
292.4319, 15.22317
292.9141, 15.40342
293.3962, 15.77513
293.8783, 15.87904
294.3604, 15.71110
294.8425, 15.49759
295.3246, 15.42388
295.8068, 15.46121
296.2889, 15.51749
296.7710, 15.58053
297.2531, 15.64099
297.7352, 15.70284
298.2173, 15.76001
298.6995, 15.75985
299.1816, 15.61360
299.6637, 15.38573
300.1458, 15.20100
300.6279, 15.05875
301.1100, 15.01273
301.5922, 15.22110
302.0743, 15.61766
302.5564, 15.93424
303.0385, 15.93605
303.5206, 15.78631
304.0027, 15.73385
304.4849, 15.83289
304.9670, 15.93737
305.4491, 15.85984
305.9312, 15.67521
306.4133, 15.56314
306.8954, 15.72061
307.3776, 15.93720
307.8597, 15.96317
308.3418, 15.76550
308.8239, 15.58651
309.3060, 15.63490
309.7881, 15.81582
310.2703, 15.97748
310.7524, 16.08800
311.2345, 16.13756
311.7166, 16.06666
312.1987, 15.88266
312.6808, 15.76986
313.1630, 15.87117
313.6451, 16.08281
314.1272, 16.29507
314.6093, 16.53853
315.0914, 16.70899
315.5735, 16.70162
316.0557, 16.55068
316.5378, 16.43854
317.0199, 16.48697
317.5020, 16.57821
317.9841, 16.62703
318.4662, 16.59692
318.9484, 16.54685
319.4305, 16.46691
319.9126, 16.37859
320.3947, 16.33837
320.8768, 16.44339
321.3589, 16.53958
321.8411, 16.51997
322.3232, 16.26125
322.8053, 16.15899
323.2874, 16.50518
323.7695, 17.01442
324.2516, 17.23475
324.7338, 16.74912
325.2159, 16.28487
325.6980, 16.07769
326.1801, 16.19149
326.6622, 16.32341
327.1443, 16.56495
327.6265, 16.76752
328.1086, 16.77897
328.5907, 16.30643
329.0728, 15.97146
329.5549, 15.94919
330.0370, 16.24433
330.5192, 16.33655
331.0013, 16.01936
331.4834, 15.67511
331.9655, 15.57508
332.4476, 15.89959
332.9297, 16.15872
333.4119, 16.28576
333.8940, 16.31271
334.3761, 16.38061
334.8582, 16.51484
335.3403, 16.64691
335.8224, 16.74758
336.3046, 16.82550
336.7867, 16.83383
337.2688, 16.72709
337.7509, 16.58410
338.2330, 16.61461
338.7151, 16.92348
339.1973, 17.06861
339.6794, 16.74570
340.1615, 15.91390
340.6436, 15.64781
341.1257, 16.10920
341.6078, 16.78857
342.0899, 16.99416
342.5721, 16.68412
343.0542, 16.43446
343.5363, 16.44671
344.0184, 16.65214
344.5005, 16.75710
344.9826, 16.75550
345.4648, 16.69296
345.9469, 16.56434
346.4290, 16.38622
346.9111, 16.30171
347.3932, 16.34182
347.8753, 16.48147
348.3575, 16.76504
348.8396, 17.16793
349.3217, 17.41935
349.8038, 17.12766
350.2859, 16.55473
350.7680, 16.38443
351.2502, 16.75818
351.7323, 17.30181
352.2144, 17.63437
352.6965, 17.79300
353.1786, 17.87986
353.6607, 17.92602
354.1429, 17.93941
354.6250, 17.95181
355.1071, 17.96726
355.5892, 17.89892
356.0713, 17.55067
356.5534, 17.10311
357.0356, 16.82444
357.5177, 16.93143
357.9998, 17.14116
358.4819, 17.23438
358.9640, 17.23938
359.4461, 17.31304
359.9283, 17.63498
360.4104, 18.00845
360.8925, 18.27332
361.3746, 18.39289
361.8567, 18.40060
362.3388, 18.21075
362.8210, 17.91693
363.3031, 17.72741
363.7852, 17.77048
364.2673, 17.88198
364.7494, 17.99035
365.2315, 18.08485
365.7137, 18.18787
366.1958, 18.29334
366.6779, 18.41210
367.1600, 18.55787
367.6421, 18.82686
368.1242, 19.02509
368.6064, 19.08383
369.0885, 18.99432
369.5706, 18.94770
370.0527, 19.04239
370.5348, 19.10409
371.0169, 18.98773
371.4991, 18.33998
371.9812, 18.13585
372.4633, 18.66049
372.9454, 19.66849
373.4275, 20.26058
373.9096, 20.23262
374.3918, 20.15566
374.8739, 20.31681
375.3560, 20.80809
375.8381, 21.11811
376.3202, 21.19422
376.8023, 21.15340
377.2845, 21.16459
377.7666, 21.23319
378.2487, 21.31866
378.7308, 21.37564
379.2129, 21.42950
379.6950, 21.68922
380.1772, 22.19159
380.6593, 22.72059
381.1414, 23.06956
381.6235, 23.25365
382.1056, 23.43310
382.5877, 23.61606
383.0699, 23.84203
383.5520, 24.24666
384.0341, 24.81079
384.5162, 25.30108
384.9983, 25.52665
385.4804, 25.58141
385.9626, 25.64451
386.4447, 25.71999
386.9268, 25.87748
387.4089, 26.33076
387.8910, 26.92640
388.3731, 27.30859
388.8553, 27.10852
389.3374, 26.75573
389.8195, 26.67454
390.3016, 26.85711
390.7837, 27.06798
391.2658, 27.20988
391.7480, 27.28284
392.2301, 27.27665
392.7122, 27.09286
393.1943, 26.96215
393.6764, 27.06714
394.1585, 27.32277
394.6407, 27.48495
395.1228, 27.36705
395.6049, 27.21810
396.0870, 27.18903
396.5691, 27.37207
397.0512, 27.42903
397.5334, 27.15683
398.0155, 26.76783
398.4976, 26.53120
398.9797, 26.55506
399.4618, 26.64354
399.9439, 26.78214
400.4261, 26.97003
400.9082, 27.13668
401.3903, 27.29836
401.8724, 27.42252
402.3545, 27.48965
402.8366, 27.49932
403.3188, 27.44368
403.8009, 27.28271
404.2830, 27.07337
404.7651, 26.97384
405.2472, 27.02639
405.7293, 27.07075
406.2115, 27.02952
406.6936, 26.89964
407.1757, 26.79722
407.6578, 26.70639
408.1399, 26.68666
408.6220, 26.90655
409.1042, 27.35610
409.5863, 27.53782
410.0684, 27.18513
410.5505, 26.58721
411.0326, 26.51501
411.5147, 26.95005
411.9969, 27.32441
412.4790, 27.13812
412.9611, 26.59656
413.4432, 26.18731
413.9253, 25.97672
414.4074, 25.88174
414.8896, 25.84840
415.3717, 25.86162
415.8538, 25.88659
416.3359, 25.90353
416.8180, 25.92674
417.3001, 25.97931
417.7823, 26.06042
418.2644, 26.12417
418.7465, 26.11075
419.2286, 26.08357
419.7107, 26.10608
420.1928, 26.23298
420.6750, 26.35991
421.1571, 26.47397
421.6392, 26.56053
422.1213, 26.57835
422.6034, 26.39614
423.0855, 26.24636
423.5677, 26.23652
424.0498, 26.41665
424.5319, 26.58774
425.0140, 26.70960
425.4961, 26.82967
425.9782, 27.00143
426.4604, 27.32513
426.9425, 27.54745
427.4246, 27.55262
427.9067, 27.39829
428.3888, 27.51516
428.8709, 28.04983
429.3531, 28.59566
429.8352, 28.90358
430.3173, 28.90160
430.7994, 29.02058
431.2815, 29.31105
431.7636, 29.66100
432.2458, 29.84365
432.7279, 29.84256
433.2100, 29.94818
433.6921, 30.29842
434.1742, 30.82986
434.6563, 31.33620
435.1385, 31.82648
435.6206, 32.22374
436.1027, 32.31062
436.5848, 32.24921
437.0669, 32.52987
437.5490, 33.34364
438.0312, 34.27954
438.5133, 34.89555
438.9954, 35.26326
439.4775, 35.58059
439.9596, 35.94630
440.4417, 36.31011
440.9239, 36.64125
441.4060, 36.93832
441.8881, 37.16739
442.3702, 37.18998
442.8523, 37.18722
443.3344, 37.33792
443.8166, 37.88013
444.2987, 38.35792
444.7808, 38.55355
445.2629, 38.56744
445.7450, 38.69571
446.2271, 39.11209
446.7093, 39.54980
447.1914, 39.90076
447.6735, 40.12450
448.1556, 40.39027
448.6377, 40.83167
449.1198, 41.22291
449.6020, 41.30650
450.0841, 40.89168
450.5662, 40.57548
451.0483, 40.50364
451.5304, 40.59564
452.0125, 40.44416
452.4947, 39.94125
452.9768, 39.52402
453.4589, 39.58861
453.9410, 40.15650
454.4231, 40.07593
454.9052, 39.18347
455.3874, 38.09185
455.8695, 37.59029
456.3516, 37.61334
456.8337, 37.70213
457.3158, 37.75656
457.7979, 37.74946
458.2801, 37.66121
458.7622, 37.48418
459.2443, 37.15210
459.7264, 36.34912
460.2085, 35.47099
460.6906, 35.16251
461.1728, 35.65119
461.6549, 36.07011
462.1370, 35.63776
462.6191, 34.77113
463.1012, 34.08894
463.5833, 34.02582
464.0655, 34.00450
464.5476, 33.78901
465.0297, 33.38831
465.5118, 32.91682
465.9939, 32.32145
466.4760, 31.73160
466.9582, 31.21821
467.4403, 30.78060
467.9224, 30.42364
468.4045, 30.19148
468.8866, 30.02061
469.3687, 29.80970
469.8509, 29.50130
470.3330, 29.27195
470.8151, 29.21533
471.2972, 29.29936
471.7793, 29.16122
472.2614, 28.73913
472.7436, 28.26006
473.2257, 27.87626
473.7078, 27.58776
474.1899, 27.30618
474.6720, 27.01707
475.1541, 26.74883
475.6363, 26.50765
476.1184, 26.30793
476.6005, 26.24859
477.0826, 26.45196
477.5647, 26.76986
478.0468, 27.01694
478.5290, 27.18320
479.0111, 27.17715
479.4932, 26.69750
479.9753, 26.11111
480.4574, 25.91016
480.9395, 26.30520
481.4217, 26.67877
481.9038, 26.60329
482.3859, 26.27308
482.8680, 25.97230
483.3501, 25.95102
483.8322, 25.82254
484.3144, 25.34157
484.7965, 24.54431
485.2786, 23.93567
485.7607, 23.66606
486.2428, 23.55236
486.7249, 23.53044
487.2071, 23.76284
487.6892, 23.72272
488.1713, 23.24379
488.6534, 22.60935
489.1355, 22.26025
489.6176, 22.33618
490.0998, 22.26321
490.5819, 21.80464
491.0640, 21.09164
491.5461, 20.88858
492.0282, 21.26630
492.5103, 21.62174
492.9925, 21.44870
493.4746, 20.86189
493.9567, 20.48962
494.4388, 20.39685
494.9209, 20.38418
495.4030, 20.23665
495.8852, 19.98911
496.3673, 19.72115
496.8494, 19.41313
497.3315, 19.14675
497.8136, 19.04779
498.2957, 19.07365
498.7779, 19.05409
499.2600, 18.85589
499.7421, 18.60984
500.2242, 18.40203
500.7063, 18.24317
501.1884, 18.11447
501.6706, 18.03583
502.1527, 17.97436
502.6348, 17.89824
503.1169, 17.73991
503.5990, 17.64548
504.0811, 17.67980
504.5633, 17.79493
505.0454, 17.80757
505.5275, 17.67251
506.0096, 17.51249
506.4917, 17.37973
506.9738, 17.27800
507.4560, 17.12093
507.9381, 16.87394
508.4202, 16.66427
508.9023, 16.67245
509.3844, 16.88193
509.8665, 17.00189
510.3487, 16.96907
510.8308, 16.84048
511.3129, 16.65652
511.7950, 16.44118
512.2772, 16.30641
512.7593, 16.41164
513.2414, 16.57665
513.7235, 16.55737
514.2056, 16.35711
514.6877, 16.16311
515.1699, 16.14855
515.6520, 16.16710
516.1341, 16.06427
516.6162, 15.69462
517.0983, 15.42076
517.5804, 15.41877
518.0626, 15.57492
518.5447, 15.70278
519.0268, 15.82486
519.5089, 15.85744
519.9910, 15.74701
520.4731, 15.50539
520.9553, 15.31900
521.4374, 15.19569
521.9195, 15.11866
522.4016, 15.08442
522.8837, 15.09949
523.3658, 15.12976
523.8480, 15.18260
524.3301, 15.23496
524.8122, 15.26109
525.2943, 15.26093
525.7764, 15.22171
526.2585, 15.11277
526.7407, 14.99448
527.2228, 14.99193
527.7049, 15.08876
528.1870, 15.18818
528.6691, 15.27997
529.1512, 15.31813
529.6334, 15.19560
530.1155, 14.89682
530.5976, 14.68023
531.0797, 14.82259
531.5618, 15.06317
532.0439, 15.13348
532.5261, 14.78100
533.0082, 14.52127
533.4903, 14.55765
533.9724, 14.76731
534.4545, 14.88745
534.9366, 14.78346
535.4188, 14.71644
535.9009, 14.76400
536.3830, 14.92250
536.8651, 15.03442
537.3472, 15.11145
537.8293, 15.12007
538.3115, 14.98493
538.7936, 14.68372
539.2757, 14.58656
539.7578, 14.75279
540.2399, 15.00873
540.7220, 15.13533
541.2042, 15.14586
541.6863, 15.11985
542.1684, 15.04777
542.6505, 14.99161
543.1326, 15.10346
543.6147, 15.32744
544.0969, 15.45159
544.5790, 15.18699
545.0611, 14.87773
545.5432, 14.86353
546.0253, 15.18846
546.5074, 15.43221
546.9896, 15.37707
547.4717, 15.18786
547.9538, 14.99350
548.4359, 14.69922
548.9180, 14.56286
549.4001, 14.73349
549.8823, 15.03218
550.3644, 15.14755
550.8465, 14.97748
551.3286, 14.81871
551.8107, 14.75124
552.2928, 14.75951
552.7750, 14.72468
553.2571, 14.63717
553.7392, 14.55326
554.2213, 14.48491
554.7034, 14.44399
555.1855, 14.51982
555.6677, 14.72904
556.1498, 14.96193
556.6319, 15.13371
557.1140, 15.23892
557.5961, 15.24643
558.0782, 15.07112
558.5604, 14.92459
559.0425, 15.03058
559.5246, 15.29569
560.0067, 15.51231
560.4888, 15.57887
560.9709, 15.59134
561.4531, 15.57618
561.9352, 15.53576
562.4173, 15.50850
562.8994, 15.45546
563.3815, 15.45479
563.8636, 15.58376
564.3458, 16.00897
564.8279, 16.06677
565.3100, 15.55906
565.7921, 14.93459
566.2742, 14.82416
566.7563, 15.28461
567.2385, 15.69944
567.7206, 15.95217
568.2027, 16.06492
568.6848, 16.02731
569.1669, 15.85898
569.6490, 15.71008
570.1312, 15.68661
570.6133, 15.71791
571.0954, 15.68476
571.5775, 15.59092
572.0596, 15.53795
572.5417, 15.60742
573.0239, 15.73609
573.5060, 15.87786
573.9881, 16.04546
574.4702, 16.17107
574.9523, 16.23491
575.4344, 16.24700
575.9166, 16.21734
576.3987, 16.01306
576.8808, 15.95022
577.3629, 16.11836
577.8450, 16.44607
578.3271, 16.71173
578.8093, 16.92192
579.2914, 17.04393
579.7735, 17.00677
580.2556, 16.84873
580.7377, 16.88514
581.2198, 17.12698
581.7020, 17.44543
582.1841, 17.81510
582.6662, 18.17176
583.1483, 18.34491
583.6304, 18.28874
584.1125, 18.16000
584.5947, 18.02214
585.0768, 17.92000
