##NAMES=Rapidcreekite
##RRUFFID=R070287
##IDEAL CHEMISTRY=Ca_2_(S^6+^O_4_)(CO_3_)&#183;4H_2_O
##LOCALITY=Locality 1 (Crosscut Creek), Rapid Creek, Yukon Territory, Canada
##OWNER=RRUFF
##SOURCE=Mark Mauthner
##DESCRIPTION=Radiating aggregate of thin bladed to acicular colorless to white crystals on iron oxide stained quartz crystals.
##STATUS=The identification of this mineral has been confirmed by single-crystal X-ray diffraction.
##URL=rruff.info/R070287
155.9293, 3862.276
156.4115, 3868.804
156.8936, 3874.743
157.3757, 3881.285
157.8578, 3892.563
158.3399, 3917.584
158.8221, 3943.207
159.3042, 3961.073
159.7863, 3960.120
160.2684, 3959.978
160.7505, 3965.327
161.2326, 3976.309
161.7148, 3993.768
162.1969, 4024.984
162.6790, 4060.324
163.1611, 4090.105
163.6432, 4108.403
164.1253, 4122.857
164.6075, 4134.534
165.0896, 4143.365
165.5717, 4157.995
166.0538, 4190.382
166.5359, 4230.396
167.0180, 4263.624
167.5002, 4279.766
167.9823, 4289.899
168.4644, 4300.323
168.9465, 4310.750
169.4286, 4326.681
169.9107, 4359.620
170.3929, 4401.251
170.8750, 4434.912
171.3571, 4441.875
171.8392, 4440.570
172.3213, 4451.179
172.8034, 4477.760
173.2856, 4510.799
173.7677, 4544.196
174.2498, 4577.575
174.7319, 4609.031
175.2140, 4637.845
175.6961, 4663.987
176.1783, 4686.898
176.6604, 4705.375
177.1425, 4722.096
177.6246, 4742.144
178.1067, 4764.344
178.5888, 4782.380
179.0710, 4787.310
179.5531, 4784.459
180.0352, 4785.022
180.5173, 4790.515
180.9994, 4801.877
181.4815, 4823.113
181.9637, 4854.123
182.4458, 4885.868
182.9279, 4909.052
183.4100, 4926.248
183.8921, 4947.971
184.3742, 4980.564
184.8564, 5018.202
185.3385, 5044.567
185.8206, 5059.078
186.3027, 5072.131
186.7848, 5095.039
187.2669, 5126.692
187.7491, 5159.423
188.2312, 5192.666
188.7133, 5224.882
189.1954, 5250.317
189.6775, 5268.155
190.1596, 5282.079
190.6418, 5294.970
191.1239, 5306.884
191.6060, 5321.782
192.0881, 5345.649
192.5702, 5376.345
193.0524, 5394.810
193.5345, 5400.152
194.0166, 5395.593
194.4987, 5382.655
194.9808, 5360.643
195.4629, 5340.654
195.9451, 5327.072
196.4272, 5319.702
196.9093, 5320.110
197.3914, 5330.284
197.8735, 5345.185
198.3556, 5355.515
198.8378, 5360.794
199.3199, 5364.401
199.8020, 5364.532
200.2841, 5360.064
200.7662, 5371.349
201.2483, 5405.832
201.7305, 5450.961
202.2126, 5471.699
202.6947, 5460.995
203.1768, 5452.219
203.6589, 5471.284
204.1410, 5524.354
204.6232, 5558.114
205.1053, 5560.533
205.5874, 5543.826
206.0695, 5552.537
206.5516, 5596.333
207.0337, 5640.165
207.5159, 5657.429
207.9980, 5641.300
208.4801, 5629.713
208.9622, 5627.959
209.4443, 5634.249
209.9264, 5639.624
210.4086, 5643.065
210.8907, 5647.669
211.3728, 5658.961
211.8549, 5683.428
212.3370, 5691.122
212.8191, 5669.921
213.3013, 5625.456
213.7834, 5606.169
214.2655, 5621.898
214.7476, 5647.054
215.2297, 5660.616
215.7118, 5661.553
216.1940, 5653.492
216.6761, 5634.298
217.1582, 5604.611
217.6403, 5580.607
218.1224, 5564.185
218.6045, 5551.265
219.0867, 5538.138
219.5688, 5524.682
220.0509, 5511.600
220.5330, 5499.840
221.0151, 5489.330
221.4972, 5475.777
221.9794, 5456.154
222.4615, 5436.732
222.9436, 5424.020
223.4257, 5419.492
223.9078, 5419.022
224.3899, 5424.380
224.8721, 5436.932
225.3542, 5436.748
225.8363, 5414.696
226.3184, 5388.561
226.8005, 5381.325
227.2827, 5406.391
227.7648, 5424.622
228.2469, 5423.278
228.7290, 5398.503
229.2111, 5384.418
229.6932, 5384.452
230.1754, 5392.546
230.6575, 5402.189
231.1396, 5417.964
231.6217, 5426.715
232.1038, 5421.617
232.5859, 5397.701
233.0681, 5387.598
233.5502, 5398.189
234.0323, 5417.621
234.5144, 5429.430
234.9965, 5432.887
235.4786, 5429.585
235.9608, 5418.363
236.4429, 5396.968
236.9250, 5379.028
237.4071, 5366.337
237.8892, 5356.124
238.3713, 5343.968
238.8535, 5328.870
239.3356, 5313.497
239.8177, 5298.634
240.2998, 5284.285
240.7819, 5269.921
241.2640, 5253.070
241.7462, 5237.406
242.2283, 5230.065
242.7104, 5237.032
243.1925, 5242.492
243.6746, 5241.171
244.1567, 5231.564
244.6389, 5219.282
245.1210, 5200.066
245.6031, 5180.703
246.0852, 5174.302
246.5673, 5187.372
247.0494, 5202.339
247.5316, 5213.039
248.0137, 5217.958
248.4958, 5223.674
248.9779, 5230.011
249.4600, 5237.228
249.9421, 5246.395
250.4243, 5260.730
250.9064, 5271.348
251.3885, 5273.832
251.8706, 5264.467
252.3527, 5259.314
252.8348, 5258.849
253.3170, 5262.271
253.7991, 5268.938
254.2812, 5281.420
254.7633, 5292.055
255.2454, 5296.958
255.7275, 5293.295
256.2097, 5294.444
256.6918, 5301.750
257.1739, 5312.926
257.6560, 5324.745
258.1381, 5339.449
258.6202, 5350.171
259.1024, 5353.797
259.5845, 5348.702
260.0666, 5342.616
260.5487, 5333.747
261.0308, 5325.272
261.5129, 5323.375
261.9951, 5330.389
262.4772, 5338.445
262.9593, 5344.240
263.4414, 5347.029
263.9235, 5351.369
264.4056, 5357.609
264.8878, 5365.132
265.3699, 5371.871
265.8520, 5375.671
266.3341, 5385.125
266.8162, 5407.700
267.2983, 5447.697
267.7805, 5470.239
268.2626, 5469.273
268.7447, 5457.317
269.2268, 5456.467
269.7089, 5469.716
270.1910, 5483.296
270.6732, 5491.450
271.1553, 5493.334
271.6374, 5496.973
272.1195, 5501.215
272.6016, 5508.925
273.0837, 5526.581
273.5659, 5556.582
274.0480, 5584.619
274.5301, 5605.281
275.0122, 5618.264
275.4943, 5629.143
275.9764, 5637.666
276.4586, 5644.553
276.9407, 5651.926
277.4228, 5660.296
277.9049, 5663.923
278.3870, 5655.416
278.8691, 5635.980
279.3513, 5637.047
279.8334, 5663.939
280.3155, 5697.638
280.7976, 5710.736
281.2798, 5702.235
281.7619, 5693.874
282.2440, 5692.603
282.7261, 5698.148
283.2082, 5711.499
283.6903, 5735.301
284.1725, 5757.158
284.6546, 5756.979
285.1367, 5735.777
285.6188, 5720.216
286.1009, 5721.623
286.5830, 5736.488
287.0652, 5752.546
287.5473, 5770.777
288.0294, 5783.501
288.5115, 5775.758
288.9936, 5750.701
289.4757, 5735.085
289.9579, 5744.305
290.4400, 5767.713
290.9221, 5774.217
291.4042, 5762.756
291.8863, 5747.628
292.3684, 5744.124
292.8506, 5749.657
293.3327, 5752.873
293.8148, 5749.249
294.2969, 5741.678
294.7790, 5734.291
295.2611, 5727.068
295.7433, 5723.051
296.2254, 5729.493
296.7075, 5741.742
297.1896, 5745.569
297.6717, 5729.450
298.1538, 5709.358
298.6360, 5713.071
299.1181, 5738.830
299.6002, 5765.405
300.0823, 5779.665
300.5644, 5783.038
301.0465, 5776.469
301.5287, 5751.193
302.0108, 5727.413
302.4929, 5735.697
302.9750, 5770.480
303.4571, 5799.388
303.9392, 5792.306
304.4214, 5768.843
304.9035, 5755.973
305.3856, 5764.644
305.8677, 5778.650
306.3498, 5784.996
306.8319, 5785.036
307.3141, 5783.638
307.7962, 5779.759
308.2783, 5777.640
308.7604, 5783.130
309.2425, 5802.064
309.7246, 5818.242
310.2068, 5817.329
310.6889, 5805.084
311.1710, 5796.496
311.6531, 5800.114
312.1352, 5809.337
312.6173, 5821.048
313.0995, 5837.421
313.5816, 5847.989
314.0637, 5843.426
314.5458, 5829.922
315.0279, 5819.134
315.5100, 5816.000
315.9922, 5816.396
316.4743, 5818.726
316.9564, 5823.331
317.4385, 5827.674
317.9206, 5828.900
318.4027, 5829.819
318.8849, 5834.353
319.3670, 5851.448
319.8491, 5865.397
320.3312, 5868.725
320.8133, 5858.855
321.2954, 5850.846
321.7776, 5845.708
322.2597, 5844.517
322.7418, 5848.417
323.2239, 5865.579
323.7060, 5879.862
324.1881, 5884.835
324.6703, 5879.075
325.1524, 5880.277
325.6345, 5900.466
326.1166, 5922.328
326.5987, 5932.037
327.0808, 5917.161
327.5630, 5904.524
328.0451, 5892.935
328.5272, 5883.094
329.0093, 5891.972
329.4914, 5941.298
329.9735, 5989.423
330.4557, 6007.462
330.9378, 5972.073
331.4199, 5947.174
331.9020, 5939.270
332.3841, 5945.834
332.8662, 5955.633
333.3484, 5972.143
333.8305, 5986.470
334.3126, 5991.976
334.7947, 5982.762
335.2768, 5983.985
335.7589, 6002.284
336.2411, 6028.711
336.7232, 6038.937
337.2053, 6026.976
337.6874, 6016.068
338.1695, 6018.284
338.6516, 6035.311
339.1338, 6051.690
339.6159, 6068.839
340.0980, 6082.399
340.5801, 6082.419
341.0622, 6067.418
341.5443, 6052.256
342.0265, 6038.967
342.5086, 6028.901
342.9907, 6037.317
343.4728, 6067.409
343.9549, 6103.196
344.4370, 6126.804
344.9192, 6138.599
345.4013, 6142.146
345.8834, 6134.116
346.3655, 6119.870
346.8476, 6114.989
347.3297, 6119.749
347.8119, 6126.088
348.2940, 6124.400
348.7761, 6117.936
349.2582, 6116.584
349.7403, 6124.542
350.2225, 6137.413
350.7046, 6152.306
351.1867, 6168.401
351.6688, 6178.308
352.1509, 6166.688
352.6331, 6148.073
353.1152, 6146.346
353.5973, 6174.198
354.0794, 6206.217
354.5615, 6219.468
355.0436, 6218.169
355.5258, 6215.166
356.0079, 6214.706
356.4900, 6217.187
356.9721, 6224.266
357.4542, 6238.253
357.9363, 6249.882
358.4185, 6250.730
358.9006, 6246.043
359.3827, 6244.895
359.8648, 6255.796
360.3469, 6267.207
360.8290, 6272.868
361.3112, 6271.623
361.7933, 6269.197
362.2754, 6261.049
362.7575, 6255.012
363.2396, 6259.621
363.7217, 6295.874
364.2039, 6323.844
364.6860, 6327.761
365.1681, 6307.138
365.6502, 6295.065
366.1323, 6301.458
366.6144, 6313.736
367.0966, 6323.333
367.5787, 6331.833
368.0608, 6335.021
368.5429, 6326.620
369.0250, 6310.775
369.5071, 6309.909
369.9893, 6338.920
370.4714, 6365.566
370.9535, 6372.716
371.4356, 6347.758
371.9177, 6331.700
372.3998, 6325.708
372.8820, 6328.563
373.3641, 6339.457
373.8462, 6362.515
374.3283, 6382.802
374.8104, 6392.972
375.2925, 6391.992
375.7747, 6393.768
376.2568, 6398.180
376.7389, 6405.608
377.2210, 6418.007
377.7031, 6435.871
378.1852, 6451.899
378.6674, 6466.125
379.1495, 6476.666
379.6316, 6471.760
380.1137, 6449.653
380.5958, 6428.353
381.0779, 6426.045
381.5601, 6439.803
382.0422, 6455.348
382.5243, 6470.176
383.0064, 6484.698
383.4885, 6501.572
383.9706, 6520.114
384.4528, 6534.126
384.9349, 6537.618
385.4170, 6534.385
385.8991, 6529.897
386.3812, 6523.896
386.8633, 6520.085
387.3455, 6523.898
387.8276, 6532.613
388.3097, 6540.078
388.7918, 6535.010
389.2739, 6532.641
389.7560, 6550.123
390.2382, 6590.889
390.7203, 6625.625
391.2024, 6635.900
391.6845, 6632.312
392.1666, 6627.124
392.6487, 6614.590
393.1309, 6610.349
393.6130, 6629.498
394.0951, 6668.909
394.5772, 6692.077
395.0593, 6669.245
395.5414, 6640.220
396.0236, 6630.119
396.5057, 6659.444
396.9878, 6687.629
397.4699, 6708.623
397.9520, 6725.472
398.4341, 6747.540
398.9163, 6778.691
399.3984, 6811.112
399.8805, 6843.562
400.3626, 6880.131
400.8447, 6903.204
401.3268, 6903.035
401.8090, 6896.551
402.2911, 6908.662
402.7732, 6945.030
403.2553, 6985.021
403.7374, 7024.121
404.2195, 7062.322
404.7017, 7097.488
405.1838, 7126.778
405.6659, 7161.236
406.1480, 7216.780
406.6301, 7294.159
407.1122, 7356.459
407.5944, 7391.714
408.0765, 7413.798
408.5586, 7457.395
409.0407, 7522.259
409.5228, 7587.488
410.0049, 7634.134
410.4871, 7669.750
410.9692, 7718.356
411.4513, 7784.979
411.9334, 7854.687
412.4155, 7915.354
412.8976, 7967.000
413.3798, 8007.713
413.8619, 8048.159
414.3440, 8071.710
414.8261, 8060.250
415.3082, 8013.229
415.7903, 7943.325
416.2725, 7843.069
416.7546, 7730.160
417.2367, 7621.971
417.7188, 7519.524
418.2009, 7430.747
418.6830, 7365.651
419.1652, 7319.230
419.6473, 7275.690
420.1294, 7224.625
420.6115, 7178.325
421.0937, 7143.334
421.5758, 7125.222
422.0579, 7109.893
422.5400, 7096.927
423.0221, 7085.334
423.5042, 7073.130
423.9864, 7055.104
424.4685, 7042.439
424.9506, 7039.758
425.4327, 7048.306
425.9148, 7051.087
426.3969, 7045.730
426.8791, 7037.325
427.3612, 7029.936
427.8433, 7023.422
428.3254, 7017.586
428.8075, 7009.399
429.2896, 7003.126
429.7718, 7018.257
430.2539, 7059.792
430.7360, 7096.417
431.2181, 7107.250
431.7002, 7093.897
432.1823, 7077.315
432.6645, 7056.305
433.1466, 7039.476
433.6287, 7042.294
434.1108, 7061.340
434.5929, 7080.021
435.0750, 7094.563
435.5572, 7102.992
436.0393, 7095.162
436.5214, 7072.179
437.0035, 7057.471
437.4856, 7083.208
437.9677, 7124.636
438.4499, 7145.542
438.9320, 7126.902
439.4141, 7102.391
439.8962, 7093.254
440.3783, 7096.710
440.8604, 7105.329
441.3426, 7120.930
441.8247, 7136.832
442.3068, 7148.743
442.7889, 7155.240
443.2710, 7162.374
443.7531, 7177.622
444.2353, 7192.012
444.7174, 7195.883
445.1995, 7174.343
445.6816, 7156.906
446.1637, 7148.736
446.6458, 7149.313
447.1280, 7152.940
447.6101, 7160.379
448.0922, 7170.070
448.5743, 7181.455
449.0564, 7195.903
449.5385, 7208.604
450.0207, 7218.926
450.5028, 7227.873
450.9849, 7238.513
451.4670, 7252.113
451.9491, 7260.285
452.4312, 7257.000
452.9134, 7244.377
453.3955, 7239.923
453.8776, 7244.503
454.3597, 7251.054
454.8418, 7254.787
455.3239, 7255.159
455.8061, 7248.219
456.2882, 7228.381
456.7703, 7208.082
457.2524, 7200.753
457.7345, 7206.980
458.2166, 7229.462
458.6988, 7293.578
459.1809, 7362.787
459.6630, 7392.241
460.1451, 7373.373
460.6272, 7346.945
461.1093, 7339.837
461.5915, 7339.968
462.0736, 7332.453
462.5557, 7293.479
463.0378, 7264.515
463.5199, 7267.162
464.0020, 7297.254
464.4842, 7322.567
464.9663, 7327.701
465.4484, 7332.677
465.9305, 7349.351
466.4126, 7395.531
466.8947, 7422.470
467.3769, 7416.381
467.8590, 7397.055
468.3411, 7398.535
468.8232, 7434.055
469.3053, 7464.101
469.7874, 7477.738
470.2696, 7475.750
470.7517, 7470.434
471.2338, 7459.213
471.7159, 7452.561
472.1980, 7464.939
472.6801, 7495.681
473.1623, 7511.346
473.6444, 7502.254
474.1265, 7486.101
474.6086, 7496.679
475.0907, 7530.098
475.5728, 7561.199
476.0550, 7574.117
476.5371, 7577.174
477.0192, 7581.077
477.5013, 7586.107
477.9834, 7597.621
478.4655, 7628.727
478.9477, 7666.108
479.4298, 7691.557
479.9119, 7692.322
480.3940, 7689.653
480.8761, 7693.541
481.3582, 7702.545
481.8404, 7712.539
482.3225, 7715.943
482.8046, 7725.180
483.2867, 7750.650
483.7688, 7803.575
484.2509, 7836.635
484.7331, 7817.372
485.2152, 7791.162
485.6973, 7803.514
486.1794, 7895.000
486.6615, 7954.659
487.1436, 7957.936
487.6258, 7917.409
488.1079, 7891.802
488.5900, 7883.804
489.0721, 7883.863
489.5542, 7887.442
490.0363, 7894.536
490.5185, 7907.186
491.0006, 7927.244
491.4827, 7946.490
491.9648, 7951.571
492.4470, 7945.026
492.9291, 7940.812
493.4112, 7946.244
493.8933, 7954.417
494.3754, 7953.801
494.8575, 7945.515
495.3397, 7936.646
495.8218, 7934.890
496.3039, 7933.398
496.7860, 7923.053
497.2681, 7899.467
497.7502, 7878.590
498.2324, 7875.508
498.7145, 7878.281
499.1966, 7870.599
499.6787, 7826.796
500.1608, 7792.931
500.6429, 7788.189
501.1251, 7810.779
501.6072, 7827.836
502.0893, 7844.159
502.5714, 7848.398
503.0535, 7830.847
503.5356, 7767.698
504.0178, 7742.135
504.4999, 7769.730
504.9820, 7821.079
505.4641, 7853.722
505.9462, 7866.045
506.4283, 7867.001
506.9105, 7854.808
507.3926, 7834.076
507.8747, 7823.411
508.3568, 7823.120
508.8389, 7827.043
509.3210, 7831.704
509.8032, 7837.036
510.2853, 7843.622
510.7674, 7852.213
511.2495, 7859.134
511.7316, 7857.399
512.2137, 7851.368
512.6959, 7849.911
513.1780, 7858.592
513.6601, 7871.493
514.1422, 7890.521
514.6243, 7913.198
515.1064, 7923.434
515.5886, 7905.778
516.0707, 7880.088
516.5528, 7857.436
517.0349, 7835.647
517.5170, 7823.960
517.9991, 7827.457
518.4813, 7840.001
518.9634, 7854.643
519.4455, 7873.654
519.9276, 7890.930
520.4097, 7905.687
520.8918, 7917.646
521.3740, 7926.873
521.8561, 7933.760
522.3382, 7936.604
522.8203, 7928.726
523.3024, 7851.658
523.7845, 7893.736
524.2667, 7920.793
524.7488, 7933.630
525.2309, 7889.669
525.7130, 7919.052
526.1951, 7919.042
526.6772, 7917.825
527.1594, 7957.532
527.6415, 7921.831
528.1236, 7979.388
528.6057, 7983.832
529.0878, 7985.557
529.5699, 7986.816
530.0521, 7990.103
530.5342, 7996.951
531.0163, 8000.384
531.4984, 7991.026
531.9805, 7980.208
532.4626, 7979.923
532.9448, 8000.668
533.4269, 8021.640
533.9090, 8043.271
534.3911, 8063.747
534.8732, 8074.889
535.3553, 8074.291
535.8375, 8068.830
536.3196, 8058.729
536.8017, 8043.105
537.2838, 8041.156
537.7659, 8056.331
538.2480, 8073.750
538.7302, 8073.044
539.2123, 8057.858
539.6944, 8053.893
540.1765, 8068.531
540.6586, 8093.437
541.1407, 8124.687
541.6229, 8158.341
542.1050, 8180.861
542.5871, 8181.640
543.0692, 8170.257
543.5513, 8149.756
544.0334, 8120.750
544.5156, 8100.544
544.9977, 8100.748
545.4798, 8111.093
545.9619, 8124.455
546.4440, 8151.227
546.9261, 8163.481
547.4083, 8140.559
547.8904, 8104.041
548.3725, 8093.875
548.8546, 8126.299
549.3367, 8158.471
549.8188, 8181.161
550.3010, 8194.729
550.7831, 8202.047
551.2652, 8201.383
551.7473, 8200.241
552.2294, 8204.010
552.7115, 8212.295
553.1937, 8219.601
553.6758, 8195.689
554.1579, 8234.867
554.6400, 8259.021
555.1221, 8268.958
555.6042, 8222.097
556.0864, 8248.579
556.5685, 8245.668
557.0506, 8241.552
557.5327, 8278.356
558.0148, 8239.756
558.4969, 8275.912
558.9791, 8282.228
559.4612, 8302.199
559.9433, 8292.597
560.4254, 8292.129
560.9075, 8321.245
561.3896, 8333.980
561.8718, 8320.975
562.3539, 8341.814
562.8360, 8302.181
563.3181, 8315.614
563.8002, 8351.942
564.2823, 8340.423
564.7645, 8361.805
565.2466, 8370.654
565.7287, 8322.560
566.2108, 8373.499
566.6929, 8381.608
567.1750, 8345.742
567.6572, 8393.289
568.1393, 8363.485
568.6214, 8361.291
569.1035, 8379.874
569.5856, 8376.797
570.0677, 8407.869
570.5499, 8406.044
571.0320, 8401.278
571.5141, 8409.341
571.9962, 8381.054
572.4783, 8420.200
572.9604, 8413.285
573.4426, 8429.268
573.9247, 8450.438
574.4068, 8431.870
574.8889, 8455.373
575.3710, 8413.634
575.8531, 8426.485
576.3353, 8433.459
576.8174, 8475.324
577.2995, 8433.903
577.7816, 8454.574
578.2637, 8460.666
578.7458, 8468.545
579.2280, 8475.699
579.7101, 8485.261
580.1922, 8506.409
580.6743, 8536.687
581.1564, 8562.221
581.6385, 8573.167
582.1207, 8577.610
582.6028, 8587.473
583.0849, 8601.480
583.5670, 8610.326
584.0491, 8599.714
584.5313, 8587.351
585.0134, 8589.512
585.4955, 8615.492
585.9776, 8633.391
586.4597, 8624.152
586.9418, 8607.220
587.4240, 8605.167
587.9061, 8631.961
588.3882, 8652.895
588.8703, 8664.459
589.3524, 8667.748
589.8345, 8663.002
590.3167, 8646.088
590.7988, 8637.397
591.2809, 8650.647
591.7630, 8680.163
592.2451, 8692.241
592.7272, 8686.003
593.2094, 8683.854
593.6915, 8712.837
594.1736, 8757.471
594.6557, 8787.212
595.1378, 8794.262
595.6199, 8796.210
596.1021, 8805.223
596.5842, 8817.569
597.0663, 8827.974
597.5485, 8831.287
598.0306, 8835.812
598.5127, 8842.738
598.9948, 8852.671
599.4769, 8852.265
599.9590, 8891.907
600.4412, 8918.031
600.9233, 8931.357
601.4054, 8893.565
601.8875, 8921.782
602.3696, 8923.546
602.8517, 8924.224
603.3339, 8961.733
603.8160, 8931.375
604.2981, 8968.299
604.7802, 8978.365
605.2623, 9000.723
605.7444, 8996.463
606.2266, 9000.428
606.7087, 9031.015
607.1908, 9046.859
607.6729, 9034.905
608.1550, 9049.811
608.6371, 9055.129
609.1193, 9057.270
609.6014, 9052.226
610.0835, 9050.188
610.5656, 9058.246
611.0477, 9078.834
611.5298, 9093.381
612.0120, 9101.402
612.4941, 9103.091
612.9762, 9097.008
613.4583, 9079.688
613.9404, 9067.162
614.4225, 9060.360
614.9047, 9058.111
615.3868, 9062.094
615.8689, 9071.358
616.3510, 9071.297
616.8331, 9050.961
617.3152, 9027.895
617.7974, 9039.563
618.2795, 9075.091
618.7616, 9092.953
619.2437, 9045.229
619.7258, 8989.803
620.2079, 8974.573
620.6901, 9001.812
621.1722, 9024.407
621.6543, 9024.715
622.1364, 9015.979
622.6185, 9005.322
623.1006, 8986.930
623.5828, 8981.240
624.0649, 8994.704
624.5470, 9014.958
625.0291, 9027.529
625.5112, 9031.445
625.9933, 9031.753
626.4755, 9026.665
626.9576, 9022.085
627.4397, 9035.769
627.9218, 9064.633
628.4039, 9085.164
628.8860, 9078.225
629.3682, 9060.228
629.8503, 9052.792
630.3324, 9055.010
630.8145, 9059.573
631.2966, 9061.285
631.7787, 9064.434
632.2609, 9075.107
632.7430, 9099.390
633.2251, 9109.953
633.7072, 9083.664
634.1893, 9052.401
634.6714, 9044.527
635.1536, 9079.453
635.6357, 9092.927
636.1178, 9071.543
636.5999, 9035.803
637.0820, 9024.935
637.5641, 9040.017
638.0463, 9055.249
638.5284, 9060.985
639.0105, 9062.948
639.4926, 9073.822
639.9747, 9092.257
640.4568, 9110.049
640.9390, 9124.376
641.4211, 9134.578
641.9032, 9139.287
642.3853, 9138.415
642.8674, 9135.943
643.3495, 9131.023
643.8317, 9126.688
644.3138, 9124.283
644.7959, 9118.645
645.2780, 9126.725
645.7601, 9157.814
646.2422, 9194.398
646.7244, 9214.448
647.2065, 9213.740
647.6886, 9219.371
648.1707, 9240.908
648.6528, 9264.128
649.1349, 9251.198
649.6171, 9208.387
650.0992, 9179.604
650.5813, 9195.267
651.0634, 9229.964
