##NAMES=Rapidcreekite
##RRUFFID=R070287
##IDEAL CHEMISTRY=Ca_2_(S^6+^O_4_)(CO_3_)&#183;4H_2_O
##LOCALITY=Locality 1 (Crosscut Creek), Rapid Creek, Yukon Territory, Canada
##OWNER=RRUFF
##SOURCE=Mark Mauthner
##DESCRIPTION=Radiating aggregate of thin bladed to acicular colorless to white crystals on iron oxide stained quartz crystals.
##STATUS=The identification of this mineral has been confirmed by single-crystal X-ray diffraction.
##URL=rruff.info/R070287
164.4099, 1289.843
164.8920, 1302.029
165.3741, 1328.351
165.8563, 1352.157
166.3384, 1359.192
166.8205, 1357.074
167.3026, 1358.487
167.7847, 1370.316
168.2668, 1388.377
168.7490, 1403.800
169.2311, 1416.189
169.7132, 1426.824
170.1953, 1436.578
170.6774, 1445.226
171.1595, 1452.090
171.6417, 1455.841
172.1238, 1458.031
172.6059, 1462.650
173.0880, 1470.520
173.5701, 1479.323
174.0522, 1489.719
174.5344, 1500.047
175.0165, 1507.297
175.4986, 1508.604
175.9807, 1506.791
176.4628, 1510.234
176.9449, 1522.238
177.4271, 1533.527
177.9092, 1541.261
178.3913, 1546.084
178.8734, 1548.969
179.3555, 1550.846
179.8376, 1550.704
180.3197, 1543.856
180.8019, 1521.586
181.2840, 1508.700
181.7661, 1517.046
182.2482, 1536.318
182.7303, 1554.043
183.2124, 1564.139
183.6946, 1568.960
184.1767, 1575.153
184.6588, 1583.375
185.1409, 1591.848
185.6230, 1600.863
186.1051, 1609.521
186.5873, 1616.843
187.0694, 1622.345
187.5515, 1626.315
188.0336, 1629.087
188.5157, 1627.853
188.9978, 1630.596
189.4800, 1641.952
189.9621, 1656.207
190.4442, 1667.317
190.9263, 1672.373
191.4084, 1673.890
191.8905, 1678.608
192.3727, 1691.594
192.8548, 1698.363
193.3369, 1690.138
193.8190, 1678.582
194.3011, 1676.504
194.7832, 1689.145
195.2654, 1708.410
195.7475, 1716.112
196.2296, 1704.446
196.7117, 1695.546
197.1938, 1692.730
197.6759, 1693.155
198.1581, 1693.995
198.6402, 1694.344
199.1223, 1696.063
199.6044, 1703.985
200.0865, 1725.879
200.5686, 1737.917
201.0508, 1730.877
201.5329, 1719.528
202.0150, 1715.870
202.4971, 1722.972
202.9792, 1734.352
203.4613, 1738.934
203.9435, 1731.439
204.4256, 1729.104
204.9077, 1735.617
205.3898, 1744.662
205.8719, 1753.087
206.3540, 1759.797
206.8362, 1764.255
207.3183, 1764.493
207.8004, 1756.082
208.2825, 1755.120
208.7646, 1770.538
209.2467, 1785.707
209.7289, 1790.184
210.2110, 1783.288
210.6931, 1771.951
211.1752, 1764.176
211.6573, 1761.409
212.1395, 1757.054
212.6216, 1750.178
213.1037, 1742.672
213.5858, 1735.182
214.0679, 1727.895
214.5500, 1720.914
215.0322, 1714.679
215.5143, 1709.674
215.9964, 1702.189
216.4785, 1689.260
216.9606, 1676.596
217.4427, 1665.633
217.9249, 1656.707
218.4070, 1650.210
218.8891, 1647.479
219.3712, 1648.796
219.8533, 1643.491
220.3354, 1625.300
220.8176, 1606.159
221.2997, 1588.236
221.7818, 1571.820
222.2639, 1556.195
222.7460, 1540.353
223.2281, 1524.855
223.7103, 1517.235
224.1924, 1528.475
224.6745, 1535.937
225.1566, 1533.196
225.6387, 1524.092
226.1208, 1514.467
226.6030, 1507.643
227.0851, 1502.972
227.5672, 1497.749
228.0493, 1491.510
228.5314, 1485.270
229.0135, 1478.283
229.4957, 1471.733
229.9778, 1466.845
230.4599, 1464.160
230.9420, 1463.534
231.4241, 1465.266
231.9062, 1473.721
232.3884, 1476.611
232.8705, 1468.112
233.3526, 1456.592
233.8347, 1449.437
234.3168, 1449.063
234.7989, 1452.219
235.2811, 1453.357
235.7632, 1451.414
236.2453, 1449.944
236.7274, 1452.410
237.2095, 1453.259
237.6916, 1447.318
238.1738, 1434.239
238.6559, 1419.425
239.1380, 1409.301
239.6201, 1404.563
240.1022, 1402.047
240.5843, 1406.444
241.0665, 1409.118
241.5486, 1405.126
242.0307, 1394.799
242.5128, 1382.148
242.9949, 1369.452
243.4770, 1356.161
243.9592, 1349.473
244.4413, 1355.107
244.9234, 1362.416
245.4055, 1369.084
245.8876, 1374.347
246.3697, 1377.262
246.8519, 1377.004
247.3340, 1373.749
247.8161, 1369.033
248.2982, 1361.604
248.7803, 1354.298
249.2624, 1347.782
249.7446, 1342.049
250.2267, 1336.779
250.7088, 1331.170
251.1909, 1326.550
251.6730, 1327.740
252.1551, 1339.146
252.6373, 1347.330
253.1194, 1347.695
253.6015, 1343.182
254.0836, 1335.522
254.5657, 1324.380
255.0478, 1314.008
255.5300, 1312.369
256.0121, 1322.068
256.4942, 1330.648
256.9763, 1335.207
257.4584, 1336.868
257.9406, 1334.232
258.4227, 1326.744
258.9048, 1321.527
259.3869, 1330.080
259.8690, 1353.443
260.3511, 1365.852
260.8333, 1352.961
261.3154, 1335.728
261.7975, 1330.353
262.2796, 1336.794
262.7617, 1343.152
263.2438, 1338.746
263.7260, 1325.983
264.2081, 1319.160
264.6902, 1321.297
265.1723, 1327.468
265.6544, 1337.484
266.1365, 1349.125
266.6187, 1354.327
267.1008, 1343.067
267.5829, 1323.921
268.0650, 1316.783
268.5471, 1325.691
269.0292, 1334.922
269.5114, 1331.532
269.9935, 1321.214
270.4756, 1313.147
270.9577, 1308.813
271.4398, 1308.411
271.9219, 1314.410
272.4041, 1327.082
272.8862, 1336.915
273.3683, 1337.170
273.8504, 1332.437
274.3325, 1332.238
274.8146, 1339.954
275.2968, 1346.841
275.7789, 1344.748
276.2610, 1336.194
276.7431, 1331.936
277.2252, 1336.862
277.7073, 1346.373
278.1895, 1353.411
278.6716, 1358.337
279.1537, 1360.355
279.6358, 1355.274
280.1179, 1347.948
280.6000, 1347.756
281.0822, 1357.438
281.5643, 1370.239
282.0464, 1379.556
282.5285, 1385.555
283.0106, 1385.319
283.4927, 1374.144
283.9749, 1359.321
284.4570, 1345.535
284.9391, 1333.705
285.4212, 1326.311
285.9033, 1326.072
286.3854, 1333.051
286.8676, 1339.599
287.3497, 1349.471
287.8318, 1355.393
288.3139, 1351.269
288.7960, 1340.070
289.2781, 1329.948
289.7603, 1325.638
290.2424, 1325.443
290.7245, 1322.289
291.2066, 1312.135
291.6887, 1304.208
292.1708, 1302.080
292.6530, 1302.149
293.1351, 1299.012
293.6172, 1290.870
294.0993, 1281.722
294.5814, 1279.056
295.0635, 1289.282
295.5457, 1293.841
296.0278, 1288.626
296.5099, 1281.147
296.9920, 1276.850
297.4741, 1276.160
297.9562, 1275.953
298.4384, 1272.785
298.9205, 1265.985
299.4026, 1260.868
299.8847, 1260.079
300.3668, 1258.291
300.8489, 1251.816
301.3310, 1242.895
301.8131, 1236.489
302.2953, 1236.116
302.7774, 1240.594
303.2595, 1244.131
303.7416, 1248.246
304.2237, 1248.795
304.7058, 1242.816
305.1880, 1234.194
305.6701, 1226.512
306.1522, 1221.036
306.6343, 1218.071
307.1164, 1219.134
307.5985, 1225.979
308.0807, 1230.285
308.5628, 1228.500
309.0449, 1225.113
309.5270, 1222.724
310.0091, 1221.531
310.4912, 1219.977
310.9734, 1215.631
311.4555, 1208.978
311.9376, 1206.220
312.4197, 1211.659
312.9018, 1215.331
313.3839, 1207.704
313.8661, 1193.341
314.3482, 1184.423
314.8303, 1190.012
315.3124, 1202.816
315.7945, 1210.830
316.2766, 1213.953
316.7588, 1212.705
317.2409, 1204.503
317.7230, 1181.022
318.2051, 1194.314
318.6872, 1201.229
319.1693, 1202.109
319.6515, 1178.884
320.1336, 1186.787
320.6157, 1182.215
321.0978, 1177.132
321.5799, 1189.416
322.0620, 1169.697
322.5442, 1181.706
323.0263, 1181.049
323.5084, 1186.189
323.9905, 1178.777
324.4726, 1175.243
324.9547, 1184.263
325.4369, 1186.332
325.9190, 1177.475
326.4011, 1182.984
326.8832, 1162.826
327.3653, 1165.191
327.8474, 1177.273
328.3296, 1169.047
328.8117, 1174.785
329.2938, 1175.205
329.7759, 1151.457
330.2580, 1169.740
330.7401, 1169.845
331.2223, 1151.287
331.7044, 1168.129
332.1865, 1152.144
332.6686, 1147.876
333.1507, 1148.972
333.6328, 1150.881
334.1150, 1155.841
334.5971, 1158.966
335.0792, 1159.464
335.5613, 1160.195
336.0434, 1163.705
336.5255, 1165.217
337.0077, 1160.059
337.4898, 1150.215
337.9719, 1142.284
338.4540, 1142.362
338.9361, 1149.190
339.4182, 1150.926
339.9004, 1142.136
340.3825, 1136.314
340.8646, 1138.821
341.3467, 1145.664
341.8288, 1152.336
342.3109, 1157.468
342.7931, 1160.450
343.2752, 1159.902
343.7573, 1155.405
344.2394, 1150.319
344.7215, 1145.580
345.2036, 1140.314
345.6858, 1132.744
346.1679, 1122.951
346.6500, 1115.363
347.1321, 1112.598
347.6142, 1114.152
348.0963, 1119.953
348.5785, 1131.783
349.0606, 1142.308
349.5427, 1143.973
350.0248, 1139.461
350.5069, 1136.501
350.9890, 1137.763
351.4712, 1140.001
351.9533, 1141.212
352.4354, 1141.284
352.9175, 1139.364
353.3996, 1134.368
353.8817, 1127.920
354.3639, 1124.675
354.8460, 1126.642
355.3281, 1126.920
355.8102, 1123.227
356.2923, 1117.388
356.7744, 1109.918
357.2566, 1101.339
357.7387, 1096.110
358.2208, 1100.173
358.7029, 1116.359
359.1850, 1125.954
359.6671, 1128.432
360.1493, 1125.982
360.6314, 1114.502
361.1135, 1099.044
361.5956, 1090.341
362.0777, 1095.312
362.5598, 1109.522
363.0420, 1116.634
363.5241, 1112.093
364.0062, 1107.362
364.4883, 1104.167
364.9704, 1101.177
365.4525, 1095.997
365.9347, 1088.650
366.4168, 1083.272
366.8989, 1086.793
367.3810, 1100.171
367.8631, 1106.411
368.3452, 1099.247
368.8274, 1091.409
369.3095, 1088.955
369.7916, 1090.842
370.2737, 1094.427
370.7558, 1099.303
371.2379, 1104.494
371.7201, 1108.839
372.2022, 1112.519
372.6843, 1113.592
373.1664, 1110.750
373.6485, 1104.872
374.1306, 1096.627
374.6128, 1084.426
375.0949, 1075.660
375.5770, 1076.383
376.0591, 1082.930
376.5412, 1087.861
377.0233, 1089.494
377.5055, 1091.002
377.9876, 1096.749
378.4697, 1107.369
378.9518, 1111.576
379.4339, 1106.582
379.9160, 1097.508
380.3982, 1082.463
380.8803, 1065.427
381.3624, 1057.499
381.8445, 1065.506
382.3266, 1083.731
382.8087, 1095.023
383.2909, 1095.369
383.7730, 1093.160
384.2551, 1084.837
384.7372, 1076.518
385.2193, 1074.500
385.7014, 1078.946
386.1836, 1083.843
386.6657, 1082.375
387.1478, 1074.082
387.6299, 1068.383
388.1120, 1066.427
388.5941, 1065.944
389.0763, 1066.205
389.5584, 1067.378
390.0405, 1070.535
390.5226, 1077.099
391.0047, 1083.036
391.4868, 1079.490
391.9690, 1064.807
392.4511, 1056.927
392.9332, 1065.204
393.4153, 1078.146
393.8974, 1085.022
394.3795, 1085.712
394.8617, 1084.612
395.3438, 1081.797
395.8259, 1079.268
396.3080, 1081.821
396.7901, 1090.232
397.2722, 1096.830
397.7544, 1094.683
398.2365, 1086.141
398.7186, 1083.944
399.2007, 1091.486
399.6828, 1101.376
400.1649, 1113.986
400.6471, 1126.320
401.1292, 1132.674
401.6113, 1131.161
402.0934, 1125.861
402.5755, 1122.117
403.0576, 1118.150
403.5398, 1122.076
404.0219, 1141.369
404.5040, 1160.521
404.9861, 1170.801
405.4682, 1174.209
405.9503, 1177.022
406.4325, 1183.053
406.9146, 1191.796
407.3967, 1201.411
407.8788, 1211.863
408.3609, 1223.306
408.8430, 1234.588
409.3252, 1247.596
409.8073, 1264.536
410.2894, 1285.532
410.7715, 1307.664
411.2536, 1329.581
411.7357, 1350.842
412.2179, 1367.949
412.7000, 1379.302
413.1821, 1389.684
413.6642, 1407.486
414.1463, 1426.315
414.6284, 1431.558
415.1106, 1416.786
415.5927, 1392.325
416.0748, 1361.374
416.5569, 1326.367
417.0390, 1295.449
417.5211, 1271.942
418.0033, 1251.818
418.4854, 1229.055
418.9675, 1202.465
419.4496, 1177.440
419.9317, 1154.809
420.4138, 1133.449
420.8960, 1111.476
421.3781, 1089.832
421.8602, 1071.347
422.3423, 1057.716
422.8244, 1048.726
423.3065, 1043.720
423.7887, 1046.944
424.2708, 1047.524
424.7529, 1041.660
425.2350, 1034.743
425.7171, 1031.836
426.1992, 1033.269
426.6814, 1034.825
427.1635, 1031.549
427.6456, 1024.033
428.1277, 1020.224
428.6098, 1022.482
429.0919, 1023.910
429.5741, 1018.980
430.0562, 1011.485
430.5383, 1007.203
431.0204, 1008.185
431.5025, 1011.122
431.9846, 1015.014
432.4668, 1018.885
432.9489, 1018.100
433.4310, 1010.193
433.9131, 1001.782
434.3952, 1001.588
434.8773, 1010.708
435.3595, 1016.579
435.8416, 1019.920
436.3237, 1018.576
436.8058, 1007.569
437.2879, 990.7411
437.7701, 976.8284
438.2522, 970.2014
438.7343, 969.9724
439.2164, 974.3173
439.6985, 986.9578
440.1806, 997.6008
440.6628, 1006.952
441.1449, 1013.865
441.6270, 1017.918
442.1091, 1018.920
442.5912, 1016.443
443.0733, 1009.400
443.5555, 998.9137
444.0376, 988.3229
444.5197, 975.6821
445.0018, 968.4432
445.4839, 975.9815
445.9660, 987.0035
446.4482, 989.1395
446.9303, 979.6281
447.4124, 971.2164
447.8945, 974.3445
448.3766, 983.5824
448.8587, 986.8541
449.3409, 982.2175
449.8230, 976.9115
450.3051, 977.2434
450.7872, 982.2828
451.2693, 982.6561
451.7514, 971.3016
452.2336, 963.8357
452.7157, 968.5184
453.1978, 979.0490
453.6799, 987.2850
454.1620, 990.6876
454.6441, 990.5734
455.1263, 988.4608
455.6084, 984.2204
456.0905, 978.7400
456.5726, 967.9966
457.0547, 960.2571
457.5368, 960.1901
458.0190, 964.3145
458.5011, 966.9071
458.9832, 965.4065
459.4653, 962.2963
459.9474, 960.5283
460.4295, 960.0961
460.9117, 962.0811
461.3938, 967.8333
461.8759, 974.5526
462.3580, 981.1127
462.8401, 987.0321
463.3222, 989.1234
463.8044, 982.5591
464.2865, 974.9256
464.7686, 974.0935
465.2507, 978.4199
465.7328, 980.8106
466.2149, 977.9876
466.6971, 972.3090
467.1792, 968.1556
467.6613, 964.7177
468.1434, 965.0008
468.6255, 973.3480
469.1076, 981.5844
469.5898, 983.8580
470.0719, 981.4221
470.5540, 979.2161
471.0361, 980.5624
471.5182, 983.6855
472.0003, 982.8463
472.4825, 975.8984
472.9646, 970.8650
473.4467, 968.9052
473.9288, 969.9383
474.4109, 976.3683
474.8930, 987.2333
475.3752, 995.1085
475.8573, 992.4573
476.3394, 985.4100
476.8215, 986.1722
477.3036, 995.0909
477.7857, 1000.044
478.2679, 992.5821
478.7500, 979.3008
479.2321, 977.5114
479.7142, 993.5307
480.1963, 1003.473
480.6784, 997.3080
481.1606, 986.8236
481.6427, 982.2038
482.1248, 984.2048
482.6069, 989.2313
483.0890, 995.1461
483.5711, 1001.237
484.0533, 1003.323
484.5354, 997.4553
485.0175, 994.0809
485.4996, 996.0886
485.9817, 999.8599
486.4638, 1001.932
486.9460, 1002.280
487.4281, 1004.285
487.9102, 1011.248
488.3923, 1021.865
488.8744, 1033.351
489.3565, 1046.514
489.8387, 1055.330
490.3208, 1054.198
490.8029, 1047.947
491.2850, 1048.000
491.7671, 1058.802
492.2492, 1063.068
492.7314, 1046.630
493.2135, 1025.261
493.6956, 1019.327
494.1777, 1029.102
494.6598, 1038.508
495.1419, 1034.868
495.6241, 1020.653
496.1062, 1012.007
496.5883, 1017.140
497.0704, 1016.283
497.5525, 1000.939
498.0346, 983.6120
498.5168, 975.9833
498.9989, 978.4019
499.4810, 981.3533
499.9631, 976.1797
500.4452, 965.2911
500.9273, 958.2372
501.4095, 955.9465
501.8916, 953.4781
502.3737, 947.8716
502.8558, 941.3390
503.3379, 937.3399
503.8200, 936.3041
504.3022, 936.3098
504.7843, 941.2301
505.2664, 944.1922
505.7485, 932.7892
506.2306, 908.8375
506.7127, 890.1124
507.1949, 889.1147
507.6770, 901.7771
508.1591, 910.3926
508.6412, 913.5110
509.1233, 914.3975
509.6054, 909.9490
510.0876, 905.9669
510.5697, 907.9385
511.0518, 915.0129
511.5339, 921.4903
512.0161, 923.7441
512.4982, 922.1723
512.9803, 915.8839
513.4624, 903.2494
513.9445, 896.4250
514.4266, 902.8275
514.9088, 914.5007
515.3909, 921.4458
515.8730, 923.5455
516.3551, 923.1878
516.8372, 919.5257
517.3193, 914.8961
517.8015, 910.7905
518.2836, 907.5822
518.7657, 905.9590
519.2478, 906.3541
519.7299, 908.3024
520.2120, 911.2219
520.6942, 919.7289
521.1763, 920.0560
521.6584, 903.4088
522.1405, 887.7990
522.6226, 883.7927
523.1047, 888.8621
523.5869, 895.1795
524.0690, 899.2675
524.5511, 901.1675
525.0332, 900.1625
525.5153, 896.2758
525.9974, 893.2257
526.4796, 892.0336
526.9617, 891.7121
527.4438, 891.6978
527.9259, 891.8909
528.4080, 891.0118
528.8901, 886.1512
529.3723, 882.8690
529.8544, 886.3094
530.3365, 893.3508
530.8186, 897.8889
531.3007, 897.8599
531.7828, 895.3206
532.2650, 892.7582
532.7471, 889.8542
533.2292, 888.9053
533.7113, 892.1399
534.1934, 894.8104
534.6755, 896.1531
535.1577, 895.8314
535.6398, 893.2275
536.1219, 888.0249
536.6040, 881.7538
537.0861, 873.9182
537.5682, 866.0943
538.0504, 864.4081
538.5325, 870.2103
539.0146, 877.4852
539.4967, 882.9650
539.9788, 886.3113
540.4609, 885.9722
540.9431, 878.0035
541.4252, 872.1691
541.9073, 872.0658
542.3894, 873.9170
542.8715, 873.7811
543.3536, 871.5941
543.8358, 870.6124
544.3179, 874.3482
544.8000, 880.4868
545.2821, 877.5453
545.7642, 860.8165
546.2463, 847.8903
546.7285, 843.2727
547.2106, 844.3436
547.6926, 852.4014
548.1747, 866.2448
548.6569, 875.0438
549.1390, 870.1138
549.6211, 860.5145
550.1032, 855.5389
550.5853, 854.6763
551.0674, 854.9519
551.5496, 855.2691
552.0317, 855.6678
552.5138, 856.0055
552.9959, 855.4602
553.4780, 857.7825
553.9601, 867.6630
554.4423, 874.9999
554.9244, 875.1542
555.4065, 870.2759
555.8886, 862.7598
556.3707, 853.2996
556.8528, 845.9327
557.3350, 848.1161
557.8171, 858.1302
558.2992, 860.4128
558.7813, 850.6092
559.2634, 842.5579
559.7455, 847.6982
560.2277, 861.3479
560.7098, 867.8480
561.1919, 862.6114
561.6740, 858.0963
562.1561, 860.0650
562.6382, 863.5332
563.1204, 862.3531
563.6025, 856.7147
564.0846, 851.5631
564.5667, 850.4267
565.0488, 852.6695
565.5309, 856.2733
566.0131, 862.9429
566.4952, 866.6514
566.9773, 863.6559
567.4594, 859.5024
567.9415, 857.6081
568.4236, 857.6982
568.9058, 857.7125
569.3879, 858.1336
569.8700, 856.8818
570.3521, 850.1115
570.8342, 839.6761
571.3163, 830.8008
571.7985, 824.7450
572.2806, 824.5554
572.7627, 835.9005
573.2448, 861.3940
573.7269, 873.7740
574.2090, 861.2451
574.6912, 850.5251
575.1733, 849.2037
575.6554, 852.6490
576.1375, 855.7018
576.6196, 857.1187
577.1017, 858.3177
577.5839, 860.6062
578.0660, 863.7083
578.5481, 866.3950
579.0302, 868.4523
579.5123, 872.0874
579.9944, 879.5682
580.4766, 888.0957
580.9587, 892.7292
581.4408, 894.4230
581.9229, 890.0291
582.4050, 869.9838
582.8871, 851.9794
583.3693, 851.7627
583.8514, 862.5047
584.3335, 866.6061
584.8156, 855.9291
585.2977, 841.3217
585.7798, 842.0510
586.2620, 860.0370
586.7441, 870.2387
587.2262, 867.3176
587.7083, 863.4788
588.1904, 867.7003
588.6725, 875.0566
589.1547, 876.5482
589.6368, 867.7078
590.1189, 861.7171
590.6010, 868.6279
591.0831, 879.9480
591.5652, 883.2880
592.0474, 879.0346
592.5295, 877.5407
593.0116, 886.1771
593.4937, 900.9080
593.9758, 909.2219
594.4579, 908.6765
594.9401, 907.4274
595.4222, 903.9016
595.9043, 901.8592
596.3864, 903.8038
596.8685, 908.7584
597.3506, 914.3036
597.8328, 920.1819
598.3149, 925.0915
598.7970, 926.5087
599.2791, 926.1651
599.7612, 929.4894
600.2433, 937.5566
600.7255, 944.7404
601.2076, 945.8508
601.6897, 941.8586
602.1718, 940.7255
602.6539, 945.9812
603.1360, 949.3073
603.6182, 947.0464
604.1003, 945.0546
604.5824, 948.3447
605.0645, 956.2724
605.5466, 964.6718
606.0287, 972.3699
606.5109, 977.6497
606.9930, 975.6094
607.4751, 967.5685
607.9572, 965.2043
608.4393, 972.8291
608.9214, 981.0684
609.4036, 979.6527
609.8857, 968.5277
610.3678, 962.5547
610.8499, 969.1028
611.3320, 971.0070
611.8141, 958.5923
612.2963, 943.2177
612.7784, 937.7833
613.2605, 942.5136
613.7426, 947.2697
614.2247, 944.8075
614.7068, 936.6124
615.1890, 923.6241
615.6711, 905.2884
616.1532, 895.8336
616.6353, 902.7997
617.1174, 913.9601
617.5995, 914.9276
618.0817, 905.4462
618.5638, 899.5663
619.0459, 900.5612
619.5280, 902.0734
620.0101, 903.2196
620.4922, 902.7259
620.9744, 897.9608
621.4565, 889.1772
621.9386, 880.7742
622.4207, 876.6826
622.9028, 876.1381
623.3849, 876.6138
623.8671, 878.3805
624.3492, 879.6626
624.8313, 880.2927
625.3134, 879.7916
625.7955, 877.4655
626.2776, 873.4241
626.7598, 868.3124
627.2419, 859.8779
627.7240, 852.9359
628.2061, 852.0953
628.6882, 853.4545
629.1703, 850.6005
629.6525, 842.4987
630.1346, 833.7985
630.6167, 828.4301
631.0988, 826.4943
631.5809, 829.8386
632.0630, 840.9001
632.5452, 847.6324
633.0273, 844.7999
633.5094, 837.5734
633.9915, 831.2786
634.4736, 825.8826
634.9557, 820.6364
635.4379, 814.9111
635.9200, 809.8671
636.4021, 805.3294
636.8842, 802.2119
637.3663, 802.3063
637.8484, 805.8064
638.3306, 811.0273
638.8127, 817.4213
639.2948, 823.8740
639.7769, 822.2162
640.2590, 809.5853
640.7411, 798.9001
641.2233, 793.4333
641.7054, 791.9261
642.1875, 793.3926
642.6696, 797.6749
643.1517, 803.1051
643.6339, 813.4241
644.1160, 820.4481
644.5981, 816.6581
645.0802, 807.8650
645.5623, 802.7177
646.0444, 803.0933
646.5266, 805.7802
647.0087, 808.0658
647.4908, 810.0073
647.9729, 812.0461
648.4550, 814.4723
648.9371, 815.7347
649.4193, 815.0386
649.9014, 813.4561
650.3835, 811.5734
650.8656, 809.5409
651.3477, 808.4972
651.8298, 806.0540
652.3120, 807.5545
652.7941, 821.5384
653.2762, 838.0349
653.7583, 841.8286
654.2404, 832.0441
654.7225, 820.7379
655.2047, 817.2709
655.6868, 820.2104
656.1689, 826.3370
656.6510, 836.9126
657.1331, 842.4633
657.6152, 838.6113
658.0974, 832.6292
658.5795, 829.4233
659.0616, 829.2443
659.5437, 834.0056
