##NAMES=Raspite
##RRUFFID=R050567
##IDEAL CHEMISTRY=Pb^2+^W^6+^O_4_
##LOCALITY=Broken Hill, New South Wales, Australia
##OWNER=RRUFF
##SOURCE=University of Arizona Mineral Museum
##DESCRIPTION=Brown tabular crystal
##STATUS=The identification of this mineral is confirmed by single-crystal X-ray diffraction and chemical analysis.
##URL=rruff.info/R050567
##MEASURED CHEMISTRY=Pb_1.00_W_1.00_O_4_
91.11523, 38.51038
91.59735, 38.23493
92.07947, 38.44896
92.56158, 39.01561
93.04370, 39.50500
93.52582, 39.59296
94.00793, 39.43618
94.49006, 39.25072
94.97218, 38.91729
95.45429, 38.88882
95.93641, 40.46307
96.41853, 43.58579
96.90064, 46.03856
97.38276, 45.53482
97.86488, 42.41340
98.34699, 40.50059
98.82911, 40.66003
99.31123, 42.29972
99.79334, 43.57490
100.2755, 44.45827
100.7576, 45.03249
101.2397, 45.32278
101.7218, 45.29936
102.2039, 45.12736
102.6861, 44.75507
103.1682, 44.18456
103.6503, 43.94705
104.1324, 44.13622
104.6145, 44.55171
105.0966, 44.92819
105.5788, 45.07363
106.0609, 45.52310
106.5430, 46.56172
107.0251, 48.56545
107.5072, 49.80259
107.9893, 49.51768
108.4715, 48.65990
108.9536, 48.92927
109.4357, 51.01879
109.9178, 53.62487
110.3999, 56.41532
110.8820, 59.57047
111.3642, 62.57308
111.8463, 64.80651
112.3284, 66.80831
112.8105, 70.06602
113.2926, 75.54306
113.7747, 81.85410
114.2569, 88.26976
114.7390, 95.11285
115.2211, 101.6095
115.7032, 106.6403
116.1853, 110.7357
116.6674, 116.5620
117.1496, 124.8705
117.6317, 135.4503
118.1138, 148.0190
118.5959, 162.5252
119.0780, 179.0722
119.5602, 197.3214
120.0423, 217.4791
120.5244, 240.4514
121.0065, 268.7491
121.4886, 299.7746
121.9707, 330.2314
122.4529, 358.0491
122.9350, 384.8335
123.4171, 412.2769
123.8992, 440.6078
124.3813, 467.5490
124.8634, 491.7709
125.3456, 513.2385
125.8277, 531.9476
126.3098, 545.8828
126.7919, 557.4794
127.2740, 569.8624
127.7561, 583.1263
128.2383, 597.8165
128.7204, 614.6500
129.2025, 633.5267
129.6846, 653.9210
130.1667, 674.0099
130.6488, 694.9871
131.1310, 721.9537
131.6131, 755.9478
132.0952, 795.3256
132.5773, 837.1771
133.0594, 881.6865
133.5415, 929.6409
134.0237, 982.5338
134.5058, 1040.460
134.9879, 1099.921
135.4700, 1159.411
135.9521, 1221.015
136.4343, 1293.775
136.9164, 1379.077
137.3985, 1471.037
137.8806, 1565.825
138.3627, 1664.031
138.8448, 1767.411
139.3270, 1882.348
139.8091, 2006.284
140.2912, 2113.154
140.7733, 2208.723
141.2554, 2278.864
141.7375, 2308.157
142.2197, 2293.454
142.7018, 2245.970
143.1839, 2163.188
143.6660, 2043.635
144.1481, 1916.455
144.6302, 1775.800
145.1124, 1633.392
145.5945, 1505.596
146.0766, 1390.149
146.5587, 1290.738
147.0408, 1209.015
147.5230, 1147.049
148.0051, 1095.362
148.4872, 1052.036
148.9693, 1012.836
149.4514, 979.8651
149.9335, 955.4609
150.4157, 934.3264
150.8978, 915.3456
151.3799, 897.6329
151.8620, 883.1050
152.3441, 872.8102
152.8262, 865.4158
153.3084, 858.6888
153.7905, 848.6007
154.2726, 842.2817
154.7547, 842.2126
155.2368, 849.9337
155.7189, 861.3844
156.2011, 876.3450
156.6832, 894.6525
157.1653, 915.6519
157.6474, 934.5371
158.1295, 959.2041
158.6116, 993.1815
159.0938, 1033.576
159.5759, 1087.665
160.0580, 1157.007
160.5401, 1241.115
161.0222, 1338.814
161.5044, 1452.474
161.9865, 1577.652
162.4686, 1712.049
162.9507, 1870.454
163.4328, 2020.755
163.9149, 2152.896
164.3971, 2268.787
164.8792, 2370.632
165.3613, 2450.500
165.8434, 2521.186
166.3255, 2594.680
166.8076, 2676.830
167.2898, 2759.991
167.7719, 2836.457
168.2540, 2907.852
168.7361, 2988.592
169.2182, 3087.948
169.7003, 3201.083
170.1825, 3322.227
170.6646, 3449.782
171.1467, 3583.980
171.6288, 3723.742
172.1109, 3868.180
172.5931, 4027.892
173.0752, 4206.116
173.5573, 4404.641
174.0394, 4627.470
174.5215, 4859.072
175.0036, 5122.844
175.4858, 5434.026
175.9679, 5794.825
176.4500, 6213.539
176.9321, 6701.603
177.4142, 7258.302
177.8963, 7872.187
178.3785, 8571.302
178.8606, 9324.758
179.3427, 10109.69
179.8248, 10946.03
180.3069, 11684.04
180.7890, 12252.78
181.2712, 12615.84
181.7533, 12637.79
182.2354, 12164.57
182.7175, 11317.74
183.1996, 10308.06
183.6818, 9100.104
184.1639, 7895.634
184.6460, 6859.633
185.1281, 5996.188
185.6102, 5276.864
186.0923, 4722.182
186.5745, 4306.247
187.0566, 3976.345
187.5387, 3732.285
188.0208, 3551.308
188.5029, 3402.447
188.9850, 3285.663
189.4672, 3192.636
189.9493, 3126.014
190.4314, 3081.889
190.9135, 3038.406
191.3956, 2996.214
191.8777, 2950.862
192.3599, 2897.173
192.8420, 2835.373
193.3241, 2757.292
193.8062, 2657.035
194.2883, 2534.745
194.7704, 2400.077
195.2526, 2250.184
195.7347, 2094.176
196.2168, 1946.492
196.6989, 1806.967
197.1810, 1676.986
197.6632, 1556.109
198.1453, 1443.301
198.6274, 1347.600
199.1095, 1271.962
199.5916, 1209.792
200.0737, 1149.556
200.5559, 1090.862
201.0380, 1034.705
201.5201, 981.1199
202.0022, 929.4194
202.4843, 883.6935
202.9664, 844.8090
203.4486, 811.3263
203.9307, 780.0115
204.4128, 751.0897
204.8949, 724.5772
205.3770, 700.8892
205.8591, 680.2863
206.3413, 660.3783
206.8234, 640.6017
207.3055, 621.7379
207.7876, 606.1135
208.2697, 594.5258
208.7519, 584.0657
209.2340, 572.9956
209.7161, 560.9587
210.1982, 550.1133
210.6803, 540.7545
211.1624, 532.5488
211.6446, 524.7186
212.1267, 517.5615
212.6088, 510.2205
213.0909, 501.7577
213.5730, 491.3159
214.0551, 483.1785
214.5373, 477.9724
215.0194, 475.0482
215.5015, 472.5103
215.9836, 470.4468
216.4657, 468.5828
216.9478, 466.8013
217.4300, 465.2105
217.9121, 463.2914
218.3942, 460.8597
218.8763, 458.1420
219.3584, 455.8284
219.8405, 453.9838
220.3227, 452.4241
220.8048, 450.9988
221.2869, 449.5025
221.7690, 448.6964
222.2511, 448.7417
222.7333, 449.4555
223.2154, 450.3683
223.6975, 451.6925
224.1796, 452.8883
224.6617, 453.9115
225.1438, 455.4113
225.6260, 454.8172
226.1081, 450.6985
226.5902, 444.8270
227.0723, 442.5269
227.5544, 445.3187
228.0365, 449.2537
228.5187, 452.6957
229.0008, 455.9180
229.4829, 457.8140
229.9650, 457.4421
230.4471, 455.9981
230.9292, 456.8319
231.4114, 461.3257
231.8935, 465.9844
232.3756, 469.1461
232.8577, 470.0309
233.3398, 471.3074
233.8220, 472.7909
234.3041, 474.7185
234.7862, 477.7878
235.2683, 482.8505
235.7504, 487.7199
236.2325, 491.2328
236.7147, 491.8754
237.1968, 495.1242
237.6789, 502.2620
238.1610, 511.5183
238.6431, 518.6787
239.1252, 521.6628
239.6074, 525.9295
240.0895, 533.9173
240.5716, 547.0822
241.0537, 559.6475
241.5358, 571.9089
242.0179, 583.4373
242.5001, 593.0287
242.9822, 598.7296
243.4643, 605.6461
243.9464, 615.7245
244.4285, 629.8690
244.9106, 644.4202
245.3928, 660.0809
245.8749, 675.7958
246.3570, 689.4597
246.8391, 699.4120
247.3212, 710.1376
247.8034, 723.3268
248.2855, 739.7819
248.7676, 755.2573
249.2497, 768.3114
249.7318, 781.5509
250.2139, 799.2519
250.6961, 823.7253
251.1782, 848.5499
251.6603, 871.9883
252.1424, 893.8124
252.6245, 915.8878
253.1066, 937.1301
253.5888, 959.7706
254.0709, 987.5511
254.5530, 1022.917
255.0351, 1058.548
255.5172, 1091.788
255.9993, 1122.340
256.4815, 1155.745
256.9636, 1193.356
257.4457, 1231.922
257.9278, 1268.203
258.4099, 1302.153
258.8921, 1334.120
259.3742, 1364.711
259.8563, 1393.696
260.3384, 1419.767
260.8205, 1442.157
261.3026, 1462.302
261.7848, 1481.286
262.2669, 1497.714
262.7490, 1516.685
263.2311, 1540.545
263.7132, 1568.782
264.1953, 1590.932
264.6775, 1604.428
265.1596, 1615.712
265.6417, 1630.167
266.1238, 1648.104
266.6059, 1667.800
267.0880, 1688.296
267.5702, 1710.194
268.0523, 1736.177
268.5344, 1766.861
269.0165, 1801.125
269.4986, 1837.253
269.9807, 1873.980
270.4629, 1919.936
270.9450, 1976.633
271.4271, 2043.458
271.9092, 2114.802
272.3913, 2188.875
272.8734, 2272.516
273.3556, 2368.565
273.8377, 2476.048
274.3198, 2602.187
274.8019, 2749.682
275.2840, 2916.193
275.7661, 3097.193
276.2483, 3291.903
276.7304, 3502.309
277.2125, 3729.790
277.6946, 3976.795
278.1768, 4223.572
278.6589, 4477.160
279.1410, 4719.183
279.6231, 4928.012
280.1052, 5113.615
280.5873, 5211.234
281.0695, 5184.976
281.5516, 5035.888
282.0337, 4792.655
282.5158, 4439.572
282.9979, 4027.773
283.4800, 3619.270
283.9622, 3212.152
284.4443, 2847.695
284.9264, 2543.291
285.4085, 2299.499
285.8906, 2101.237
286.3727, 1951.175
286.8549, 1836.946
287.3370, 1747.347
287.8191, 1681.960
288.3012, 1632.234
288.7833, 1596.854
289.2654, 1575.072
289.7476, 1564.268
290.2297, 1564.588
290.7118, 1574.696
291.1939, 1593.073
291.6760, 1619.805
292.1581, 1656.609
292.6403, 1705.077
293.1224, 1763.275
293.6045, 1828.305
294.0866, 1899.612
294.5687, 1978.061
295.0508, 2067.035
295.5330, 2164.559
296.0151, 2263.338
296.4972, 2367.393
296.9793, 2467.024
297.4614, 2549.932
297.9435, 2615.624
298.4257, 2651.211
298.9078, 2646.502
299.3899, 2604.650
299.8720, 2530.352
300.3541, 2419.581
300.8362, 2285.610
301.3184, 2133.610
301.8005, 1967.572
302.2826, 1810.509
302.7647, 1672.297
303.2469, 1551.597
303.7290, 1443.768
304.2111, 1349.220
304.6932, 1267.526
305.1753, 1202.630
305.6574, 1151.718
306.1396, 1110.780
306.6217, 1079.734
307.1038, 1056.063
307.5859, 1038.339
308.0680, 1026.664
308.5501, 1016.636
309.0323, 1006.108
309.5144, 994.8069
309.9965, 982.3556
310.4786, 970.7996
310.9607, 956.3187
311.4428, 935.7035
311.9250, 909.1064
312.4071, 878.9628
312.8892, 844.5677
313.3713, 808.8757
313.8534, 774.6833
314.3355, 741.6169
314.8177, 711.8763
315.2998, 687.3784
315.7819, 667.6415
316.2640, 649.4288
316.7461, 630.7281
317.2282, 613.5660
317.7104, 599.4015
318.1925, 589.9116
318.6746, 581.4513
319.1567, 572.8466
319.6388, 564.2938
320.1209, 556.5570
320.6031, 549.5905
321.0852, 543.7082
321.5673, 539.1478
322.0494, 536.4538
322.5315, 533.8917
323.0136, 531.1344
323.4958, 528.2916
323.9779, 525.5393
324.4600, 522.6180
324.9421, 520.0562
325.4242, 517.9222
325.9064, 516.0649
326.3885, 515.2861
326.8706, 516.6709
327.3527, 518.7553
327.8348, 520.0109
328.3170, 519.6549
328.7991, 519.2399
329.2812, 518.6586
329.7633, 517.8657
330.2454, 518.4128
330.7275, 521.8952
331.2097, 525.4044
331.6918, 526.8524
332.1739, 525.1163
332.6560, 523.0460
333.1381, 520.5931
333.6202, 517.9503
334.1024, 516.0580
334.5845, 514.4844
335.0666, 514.3138
335.5487, 516.5422
336.0308, 522.5124
336.5129, 526.8129
336.9951, 528.6924
337.4772, 529.2869
337.9593, 531.1056
338.4414, 534.5942
338.9235, 538.1066
339.4056, 541.3053
339.8878, 544.2624
340.3699, 545.2403
340.8520, 543.2767
341.3341, 541.1957
341.8162, 543.1623
342.2983, 549.5485
342.7805, 555.8409
343.2626, 560.8149
343.7447, 564.5547
344.2268, 566.8969
344.7089, 567.6216
345.1910, 568.3087
345.6732, 570.2172
346.1553, 573.3315
346.6374, 577.4498
347.1195, 582.6699
347.6016, 588.7651
348.0837, 596.1993
348.5659, 604.8718
349.0480, 611.9481
349.5301, 613.7065
350.0122, 612.4161
350.4944, 613.9363
350.9765, 619.3079
351.4586, 626.5120
351.9407, 633.5543
352.4228, 640.4290
352.9049, 647.0950
353.3871, 653.5284
353.8692, 659.7480
354.3513, 665.3763
354.8334, 670.3246
355.3155, 676.1066
355.7976, 685.6356
356.2798, 696.5564
356.7619, 705.1773
357.2440, 707.3307
357.7261, 708.6998
358.2082, 714.0081
358.6903, 722.6572
359.1725, 730.5631
359.6546, 734.3738
360.1367, 737.0074
360.6188, 741.1995
361.1009, 749.2738
361.5830, 756.2905
362.0652, 758.9882
362.5473, 758.9573
363.0294, 760.1158
363.5115, 765.7993
363.9936, 771.4778
364.4757, 774.7965
364.9579, 775.0925
365.4400, 774.5096
365.9221, 771.6747
366.4042, 768.7797
366.8863, 768.6011
367.3684, 776.6466
367.8506, 782.2802
368.3327, 781.8459
368.8148, 774.6365
369.2969, 769.6265
369.7790, 767.9152
370.2611, 767.6743
370.7433, 767.7119
371.2254, 768.4830
371.7075, 768.8435
372.1896, 769.0419
372.6717, 768.7814
373.1538, 766.2715
373.6360, 758.5562
374.1181, 753.3661
374.6002, 755.5733
375.0823, 768.5905
375.5645, 776.2858
376.0466, 776.5417
376.5287, 773.7338
377.0108, 775.1947
377.4929, 781.5916
377.9750, 788.9879
378.4572, 796.4233
378.9393, 803.8243
379.4214, 809.5645
379.9035, 813.0841
380.3856, 817.1233
380.8677, 825.3224
381.3499, 837.2687
381.8320, 847.1799
382.3141, 852.9336
382.7962, 857.0465
383.2783, 865.0680
383.7604, 876.8193
384.2426, 889.7852
384.7247, 901.8738
385.2068, 913.9515
385.6889, 928.6437
386.1710, 946.2121
386.6531, 966.1035
387.1353, 988.5126
387.6174, 1012.986
388.0995, 1038.461
388.5816, 1066.524
389.0637, 1094.376
389.5458, 1119.320
390.0280, 1141.575
390.5101, 1162.872
390.9922, 1185.474
391.4743, 1207.314
391.9564, 1226.666
392.4385, 1246.219
392.9207, 1258.952
393.4028, 1260.057
393.8849, 1251.226
394.3670, 1237.250
394.8491, 1220.818
395.3312, 1199.129
395.8134, 1169.835
396.2955, 1130.420
396.7776, 1089.528
397.2597, 1046.878
397.7418, 1004.873
398.2239, 966.3486
398.7061, 932.1910
399.1882, 901.4225
399.6703, 874.0762
400.1524, 850.1312
400.6346, 828.7101
401.1167, 809.8810
401.5988, 793.7403
402.0809, 780.6845
402.5630, 772.5692
403.0451, 763.7428
403.5273, 753.0707
404.0094, 741.7184
404.4915, 733.3815
404.9736, 728.9684
405.4557, 725.3153
405.9378, 721.1388
406.4200, 716.4086
406.9021, 711.3141
407.3842, 705.6859
407.8663, 700.2180
408.3484, 695.8362
408.8305, 692.5444
409.3127, 689.7962
409.7948, 687.5463
410.2769, 685.6943
410.7590, 684.2366
411.2411, 683.1809
411.7232, 681.7021
412.2054, 678.5628
412.6875, 674.4639
413.1696, 671.4105
413.6517, 669.6378
414.1338, 668.9355
414.6159, 669.4069
415.0981, 670.7936
415.5802, 672.4132
416.0623, 673.4196
416.5444, 674.7615
417.0265, 677.2623
417.5086, 680.9520
417.9908, 685.7272
418.4729, 694.4855
418.9550, 703.0621
419.4371, 706.6972
419.9192, 699.8625
420.4013, 693.0203
420.8835, 691.8434
421.3656, 694.3459
421.8477, 694.5215
422.3298, 689.2530
422.8119, 682.3566
423.2940, 675.2650
423.7762, 667.8861
424.2583, 661.2468
424.7404, 655.5552
425.2225, 650.7294
425.7047, 646.5011
426.1868, 643.0438
426.6689, 640.0346
427.1510, 637.5454
427.6331, 635.5320
428.1152, 633.3763
428.5974, 631.0491
429.0795, 628.5787
429.5616, 625.5859
430.0437, 621.4500
430.5258, 619.6337
431.0079, 620.8983
431.4901, 623.7855
431.9722, 625.7122
432.4543, 626.5709
432.9364, 627.4809
433.4185, 628.9931
433.9006, 630.8993
434.3828, 632.2604
434.8649, 633.0704
435.3470, 633.4288
435.8291, 632.5831
436.3112, 631.2579
436.7933, 631.9221
437.2755, 635.4283
437.7576, 640.3084
438.2397, 645.2825
438.7218, 650.1786
439.2039, 654.4020
439.6860, 656.8684
440.1682, 658.9527
440.6503, 662.3552
441.1324, 667.2767
441.6145, 671.5489
442.0966, 673.1337
442.5787, 673.6547
443.0609, 674.8507
443.5430, 676.8165
444.0251, 679.9728
444.5072, 685.4051
444.9893, 692.3542
445.4714, 698.1584
445.9536, 701.0184
446.4357, 703.6660
446.9178, 706.9663
447.3999, 710.3057
447.8820, 716.3817
448.3641, 728.8671
448.8463, 742.0916
449.3284, 749.5530
449.8105, 745.7966
450.2926, 746.2900
450.7747, 755.0002
451.2569, 770.4350
451.7390, 783.0328
452.2211, 792.3048
452.7032, 800.2523
453.1853, 807.8284
453.6674, 815.0642
454.1496, 822.1074
454.6317, 828.8405
455.1138, 835.7805
455.5959, 843.4984
456.0780, 852.0433
456.5602, 861.3791
457.0423, 872.1984
457.5244, 883.3304
458.0065, 892.1013
458.4886, 898.6613
458.9707, 905.4656
459.4529, 915.2532
459.9350, 926.1519
460.4171, 934.6577
460.8992, 939.7717
461.3813, 944.7713
461.8634, 951.5858
462.3456, 960.1385
462.8277, 970.1359
463.3098, 982.3509
463.7919, 995.3386
464.2740, 1009.015
464.7561, 1023.206
465.2383, 1036.036
465.7204, 1044.173
466.2025, 1052.637
466.6846, 1064.566
467.1667, 1082.724
467.6488, 1100.353
468.1310, 1116.406
468.6131, 1131.952
469.0952, 1149.144
469.5773, 1168.634
470.0594, 1188.529
470.5415, 1207.718
471.0237, 1226.320
471.5058, 1250.554
471.9879, 1282.581
472.4700, 1315.553
472.9521, 1342.929
473.4342, 1364.373
473.9164, 1389.887
474.3985, 1421.429
474.8806, 1455.800
475.3627, 1487.813
475.8448, 1517.723
476.3270, 1548.270
476.8091, 1579.698
477.2912, 1612.623
477.7733, 1648.233
478.2554, 1686.459
478.7375, 1726.290
479.2197, 1766.808
479.7018, 1808.686
480.1839, 1852.861
480.6660, 1900.232
481.1481, 1947.420
481.6302, 1991.081
482.1124, 2033.125
482.5945, 2076.782
483.0766, 2123.665
483.5587, 2172.213
484.0408, 2223.126
484.5229, 2275.951
485.0051, 2324.719
485.4872, 2361.967
485.9693, 2399.491
486.4514, 2444.283
486.9335, 2504.194
487.4156, 2558.304
487.8978, 2605.837
488.3799, 2647.820
488.8620, 2688.439
489.3441, 2731.281
489.8262, 2763.961
490.3083, 2782.621
490.7905, 2788.436
491.2726, 2790.993
491.7547, 2791.723
492.2368, 2782.417
492.7189, 2753.880
493.2010, 2708.284
493.6832, 2664.533
494.1653, 2625.535
494.6474, 2582.306
495.1295, 2520.885
495.6116, 2444.920
496.0938, 2364.932
496.5759, 2282.191
497.0580, 2199.625
497.5401, 2121.537
498.0222, 2047.053
498.5044, 1975.680
498.9865, 1905.781
499.4686, 1838.710
499.9507, 1775.140
500.4328, 1715.016
500.9149, 1659.288
501.3971, 1607.006
501.8792, 1559.307
502.3613, 1517.382
502.8434, 1484.199
503.3255, 1453.083
503.8076, 1421.675
504.2898, 1391.024
504.7719, 1366.380
505.2540, 1349.570
505.7361, 1336.111
506.2182, 1324.172
506.7003, 1313.771
507.1825, 1304.676
507.6646, 1295.961
508.1467, 1290.534
508.6288, 1293.042
509.1109, 1303.460
509.5930, 1313.128
510.0752, 1319.973
510.5573, 1325.729
511.0394, 1332.465
511.5215, 1340.544
512.0037, 1352.206
512.4858, 1370.505
512.9679, 1392.351
513.4500, 1413.094
513.9321, 1432.607
514.4142, 1453.546
514.8964, 1477.772
515.3785, 1504.484
515.8606, 1532.740
516.3427, 1563.721
516.8248, 1594.069
517.3069, 1620.673
517.7891, 1645.966
518.2712, 1674.587
518.7533, 1714.013
519.2354, 1750.048
519.7175, 1776.461
520.1996, 1793.619
520.6818, 1814.467
521.1639, 1843.269
521.6460, 1870.601
522.1281, 1891.319
522.6102, 1905.732
523.0923, 1912.803
523.5745, 1912.155
524.0566, 1904.673
524.5387, 1891.210
525.0208, 1871.739
525.5029, 1847.972
525.9850, 1820.151
526.4672, 1788.571
526.9493, 1752.972
527.4314, 1713.123
527.9135, 1670.555
528.3956, 1625.218
528.8777, 1577.114
529.3599, 1525.605
529.8420, 1469.849
530.3241, 1416.082
530.8062, 1367.311
531.2883, 1322.297
531.7704, 1280.878
532.2526, 1243.077
532.7347, 1207.549
533.2168, 1172.928
533.6989, 1140.205
534.1810, 1110.744
534.6631, 1085.836
535.1453, 1063.440
535.6274, 1043.878
536.1095, 1026.962
536.5916, 1010.755
537.0737, 995.6599
537.5558, 980.3732
538.0380, 963.5342
538.5201, 944.4402
539.0022, 927.4214
539.4843, 912.8740
539.9664, 900.5270
540.4485, 891.7129
540.9307, 885.8804
541.4128, 877.8737
541.8949, 864.8903
542.3770, 850.0056
542.8591, 837.3638
543.3412, 827.0626
543.8234, 818.7050
544.3055, 815.0471
544.7876, 811.4496
545.2697, 802.5099
545.7518, 787.2748
546.2339, 772.8826
546.7161, 762.5790
547.1982, 754.9014
547.6803, 748.3776
548.1624, 745.8790
548.6445, 740.6345
549.1266, 729.8177
549.6088, 715.9553
550.0909, 704.0291
550.5730, 694.1088
551.0551, 686.1489
551.5372, 681.1204
552.0193, 678.5045
552.5015, 672.8149
552.9836, 663.2714
553.4657, 653.4116
553.9478, 645.5889
554.4299, 639.6401
554.9120, 633.9924
555.3942, 628.6229
555.8763, 623.4151
556.3584, 618.2646
556.8405, 613.1830
557.3226, 608.1425
557.8047, 602.7596
558.2869, 597.9386
558.7690, 594.9419
559.2511, 593.1805
559.7332, 591.2054
560.2154, 588.2369
560.6975, 585.0059
561.1796, 581.7098
561.6617, 578.3668
562.1439, 575.4695
562.6260, 574.8960
563.1081, 573.4461
563.5902, 568.8890
564.0723, 557.6567
564.5544, 551.1813
565.0366, 551.4865
565.5187, 554.4889
566.0008, 554.5438
566.4829, 551.0728
566.9650, 547.7556
567.4471, 545.2180
567.9293, 543.4615
568.4114, 543.0458
568.8935, 543.8395
569.3756, 544.0969
569.8577, 542.2264
570.3398, 539.3604
570.8220, 537.7244
571.3041, 537.2850
571.7862, 536.7472
572.2683, 534.9281
572.7504, 532.6974
573.2325, 530.8254
573.7147, 529.3810
574.1968, 528.5940
574.6789, 529.2693
575.1610, 530.4159
575.6431, 530.7579
576.1252, 529.2822
576.6074, 527.9363
577.0895, 526.4772
577.5716, 525.3119
578.0537, 526.2083
578.5358, 530.1097
579.0179, 533.8917
579.5001, 536.3541
579.9822, 537.5634
580.4643, 538.1425
580.9464, 538.0179
581.4285, 537.7507
581.9106, 537.6148
582.3928, 537.7095
582.8749, 538.3641
583.3570, 539.6395
583.8391, 541.3784
584.3212, 544.0350
584.8033, 546.9539
585.2855, 548.9940
585.7676, 547.8785
586.2497, 547.8019
586.7318, 552.5231
587.2139, 560.0948
587.6960, 564.9440
