##NAMES=Raspite
##RRUFFID=R050567
##IDEAL CHEMISTRY=Pb^2+^W^6+^O_4_
##LOCALITY=Broken Hill, New South Wales, Australia
##OWNER=RRUFF
##SOURCE=University of Arizona Mineral Museum
##DESCRIPTION=Brown tabular crystal
##STATUS=The identification of this mineral is confirmed by single-crystal X-ray diffraction and chemical analysis.
##URL=rruff.info/R050567
##MEASURED CHEMISTRY=Pb_1.00_W_1.00_O_4_
92.06543, 9868.399
92.54755, 9301.881
93.02966, 9211.551
93.51178, 9800.833
93.99390, 10504.19
94.47601, 11351.68
94.95813, 12253.66
95.44025, 13080.70
95.92236, 13752.32
96.40448, 14268.84
96.88660, 14457.84
97.36871, 14385.10
97.85082, 14048.95
98.33294, 13377.32
98.81506, 12362.76
99.29717, 11214.64
99.77929, 10160.38
100.2614, 9185.681
100.7435, 8362.874
101.2256, 7720.743
101.7078, 7232.015
102.1899, 6855.991
102.6720, 6601.221
103.1541, 6438.931
103.6362, 6326.322
104.1183, 6261.971
104.6005, 6228.749
105.0826, 6214.593
105.5647, 6218.748
106.0468, 6243.133
106.5289, 6292.233
107.0110, 6356.833
107.4931, 6430.114
107.9753, 6510.602
108.4574, 6605.965
108.9395, 6731.112
109.4216, 6887.827
109.9037, 7077.975
110.3858, 7287.372
110.8680, 7529.627
111.3501, 7815.258
111.8322, 8150.392
112.3143, 8559.286
112.7964, 8982.597
113.2785, 9531.600
113.7607, 10097.96
114.2428, 10717.00
114.7249, 11345.82
115.2070, 11901.42
115.6891, 12337.20
116.1712, 12628.56
116.6534, 12703.40
117.1355, 12511.27
117.6176, 12155.49
118.0997, 11671.80
118.5818, 11056.08
119.0639, 10415.81
119.5461, 9827.829
120.0282, 9289.603
120.5103, 8821.361
120.9924, 8437.998
121.4745, 8129.247
121.9566, 7872.736
122.4388, 7678.994
122.9209, 7527.542
123.4030, 7400.031
123.8851, 7295.018
124.3672, 7206.445
124.8493, 7130.314
125.3315, 7066.028
125.8136, 7019.460
126.2957, 6994.488
126.7778, 6986.924
127.2599, 6997.492
127.7420, 7025.734
128.2242, 7069.698
128.7063, 7126.573
129.1884, 7196.565
129.6705, 7282.356
130.1526, 7379.170
130.6347, 7490.998
131.1169, 7619.821
131.5990, 7766.476
132.0811, 7931.188
132.5632, 8114.594
133.0453, 8316.906
133.5274, 8541.606
134.0096, 8781.922
134.4917, 9046.268
134.9738, 9343.399
135.4559, 9676.885
135.9380, 10049.93
136.4201, 10468.63
136.9023, 10924.34
137.3844, 11422.83
137.8665, 11986.64
138.3486, 12602.65
138.8307, 13225.10
139.3128, 13872.91
139.7950, 14476.04
140.2771, 14914.25
140.7592, 15220.19
141.2413, 15322.01
141.7234, 15123.72
142.2055, 14602.05
142.6877, 13899.30
143.1698, 12966.52
143.6519, 11933.97
144.1340, 10931.88
144.6161, 9988.286
145.0982, 9119.107
145.5803, 8362.626
146.0625, 7738.104
146.5446, 7216.250
147.0267, 6781.001
147.5088, 6420.733
147.9909, 6118.788
148.4730, 5868.161
148.9552, 5667.436
149.4373, 5496.444
149.9194, 5365.865
150.4015, 5257.230
150.8836, 5169.547
151.3657, 5101.281
151.8479, 5049.721
152.3300, 5013.379
152.8121, 4992.692
153.2942, 4985.125
153.7763, 4987.472
154.2584, 5001.736
154.7406, 5024.650
155.2227, 5058.134
155.7048, 5110.432
156.1869, 5189.304
156.6690, 5297.076
157.1511, 5442.906
157.6333, 5622.964
158.1154, 5841.474
158.5975, 6104.519
159.0796, 6413.788
159.5617, 6758.906
160.0438, 7143.531
160.5260, 7571.266
161.0081, 7971.672
161.4902, 8338.388
161.9723, 8665.080
162.4544, 8937.105
162.9365, 9142.910
163.4187, 9302.872
163.9008, 9426.801
164.3829, 9515.800
164.8650, 9620.895
165.3471, 9762.948
165.8292, 9942.313
166.3113, 10161.17
166.7935, 10429.44
167.2756, 10735.42
167.7577, 11063.03
168.2398, 11412.65
168.7219, 11794.55
169.2040, 12220.48
169.6862, 12692.81
170.1683, 13187.54
170.6504, 13686.87
171.1325, 14215.69
171.6146, 14783.99
172.0967, 15395.08
172.5789, 16062.32
173.0610, 16798.34
173.5431, 17584.96
174.0252, 18498.47
174.5073, 19481.62
174.9894, 20605.96
175.4716, 21900.39
175.9537, 23376.01
176.4358, 25075.58
176.9179, 27079.93
177.4000, 29426.63
177.8821, 32102.62
178.3643, 35390.48
178.8464, 38861.60
179.3285, 42315.52
179.8106, 45681.70
180.2927, 48567.51
180.7748, 49813.92
181.2570, 49016.81
181.7391, 47106.52
182.2212, 43563.80
182.7033, 39053.39
183.1854, 34478.73
183.6675, 30173.33
184.1497, 26233.21
184.6318, 23031.75
185.1139, 20591.33
185.5960, 18599.55
186.0781, 17052.07
186.5602, 15894.89
187.0423, 14988.02
187.5245, 14304.82
188.0066, 13827.73
188.4887, 13462.47
188.9708, 13234.63
189.4529, 13070.05
189.9350, 12944.23
190.4172, 12853.83
190.8993, 12760.71
191.3814, 12674.30
191.8635, 12555.94
192.3456, 12358.68
192.8277, 12072.75
193.3099, 11717.92
193.7920, 11298.01
194.2741, 10805.29
194.7562, 10298.74
195.2383, 9772.644
195.7204, 9257.045
196.2026, 8778.894
196.6847, 8341.968
197.1668, 7947.135
197.6489, 7598.242
198.1310, 7303.641
198.6131, 7034.087
199.0953, 6783.069
199.5774, 6548.351
200.0595, 6332.849
200.5416, 6136.994
201.0237, 5957.468
201.5058, 5787.985
201.9880, 5625.135
202.4701, 5480.083
202.9522, 5355.486
203.4343, 5246.482
203.9164, 5149.914
204.3985, 5064.462
204.8807, 4989.117
205.3628, 4921.822
205.8449, 4870.293
206.3270, 4817.794
206.8091, 4758.810
207.2912, 4699.402
207.7733, 4645.990
208.2555, 4602.021
208.7376, 4566.234
209.2197, 4534.102
209.7018, 4509.111
210.1839, 4484.099
210.6660, 4454.897
211.1482, 4426.087
211.6303, 4405.215
212.1124, 4396.659
212.5945, 4396.776
213.0766, 4390.274
213.5587, 4371.712
214.0409, 4353.631
214.5230, 4336.762
215.0051, 4322.150
215.4872, 4312.016
215.9693, 4308.077
216.4514, 4308.458
216.9336, 4305.944
217.4157, 4297.501
217.8978, 4290.702
218.3799, 4287.889
218.8620, 4288.565
219.3441, 4292.159
219.8263, 4299.634
220.3084, 4308.492
220.7905, 4311.741
221.2726, 4305.774
221.7547, 4301.085
222.2368, 4304.581
222.7190, 4314.306
223.2011, 4321.926
223.6832, 4322.523
224.1653, 4320.164
224.6474, 4322.971
225.1295, 4332.804
225.6117, 4343.235
226.0938, 4347.963
226.5759, 4348.096
227.0580, 4353.388
227.5401, 4370.247
228.0222, 4392.241
228.5043, 4411.359
228.9865, 4426.936
229.4686, 4440.380
229.9507, 4451.778
230.4328, 4461.130
230.9149, 4471.381
231.3970, 4482.987
231.8792, 4496.276
232.3613, 4511.008
232.8434, 4527.046
233.3255, 4545.995
233.8076, 4569.639
234.2897, 4598.164
234.7719, 4629.337
235.2540, 4665.558
235.7361, 4702.674
236.2182, 4737.948
236.7003, 4771.114
237.1824, 4803.881
237.6646, 4838.833
238.1467, 4876.961
238.6288, 4912.737
239.1109, 4938.614
239.5930, 4966.920
240.0751, 5006.359
240.5573, 5057.086
241.0394, 5110.961
241.5215, 5157.397
242.0036, 5193.650
242.4857, 5234.382
242.9678, 5284.435
243.4500, 5335.766
243.9321, 5384.252
244.4142, 5429.587
244.8963, 5474.483
245.3784, 5522.326
245.8605, 5574.239
246.3427, 5624.759
246.8248, 5667.440
247.3069, 5714.048
247.7890, 5772.154
248.2711, 5841.100
248.7532, 5913.486
249.2354, 5981.833
249.7175, 6043.616
250.1996, 6112.120
250.6817, 6184.456
251.1638, 6264.581
251.6459, 6356.207
252.1281, 6458.335
252.6102, 6565.803
253.0923, 6674.391
253.5744, 6783.079
254.0565, 6896.616
254.5386, 7009.849
255.0208, 7131.377
255.5029, 7270.427
255.9850, 7423.087
256.4671, 7577.446
256.9492, 7724.703
257.4313, 7864.508
257.9135, 7995.806
258.3956, 8124.849
258.8777, 8241.756
259.3598, 8344.296
259.8419, 8431.608
260.3240, 8504.250
260.8062, 8563.762
261.2883, 8609.966
261.7704, 8624.424
262.2525, 8594.717
262.7346, 8554.373
263.2167, 8511.361
263.6989, 8468.041
264.1810, 8425.665
264.6631, 8382.076
265.1452, 8340.769
265.6273, 8333.238
266.1094, 8369.811
266.5916, 8420.740
267.0737, 8472.114
267.5558, 8529.300
268.0379, 8605.668
268.5200, 8708.535
269.0021, 8836.438
269.4843, 8985.565
269.9664, 9151.658
270.4485, 9337.694
270.9306, 9539.396
271.4127, 9761.256
271.8948, 10010.77
272.3770, 10289.69
272.8591, 10601.01
273.3412, 10962.87
273.8233, 11361.35
274.3054, 11815.56
274.7875, 12318.48
275.2697, 12880.92
275.7518, 13523.75
276.2339, 14256.33
276.7160, 15067.77
277.1981, 15963.65
277.6802, 16968.06
278.1623, 17934.10
278.6444, 18929.75
279.1266, 19843.39
279.6087, 20517.21
280.0908, 20935.01
280.5729, 21019.79
281.0550, 20554.67
281.5371, 19570.35
282.0193, 18421.24
282.5014, 17062.56
282.9835, 15634.42
283.4656, 14315.11
283.9477, 13128.12
284.4298, 12090.14
284.9120, 11264.47
285.3941, 10627.64
285.8762, 10106.00
286.3583, 9709.792
286.8404, 9410.026
287.3225, 9179.481
287.8047, 9017.479
288.2868, 8907.422
288.7689, 8847.927
289.2510, 8832.938
289.7331, 8840.666
290.2152, 8865.233
290.6974, 8913.113
291.1795, 8991.072
291.6616, 9099.345
292.1437, 9232.956
292.6258, 9389.591
293.1079, 9573.566
293.5901, 9790.747
294.0722, 10042.80
294.5543, 10327.41
295.0364, 10653.55
295.5185, 11020.32
296.0006, 11393.32
296.4828, 11791.80
296.9649, 12160.67
297.4470, 12430.98
297.9291, 12612.47
298.4112, 12666.75
298.8933, 12552.95
299.3755, 12281.52
299.8576, 11902.78
300.3397, 11392.75
300.8218, 10819.01
301.3039, 10263.95
301.7860, 9724.576
302.2682, 9232.963
302.7503, 8800.800
303.2324, 8427.879
303.7145, 8108.984
304.1966, 7846.772
304.6787, 7632.976
305.1609, 7459.820
305.6430, 7323.213
306.1251, 7211.021
306.6072, 7121.192
307.0893, 7051.575
307.5714, 6999.811
308.0536, 6968.847
308.5357, 6947.134
309.0178, 6932.261
309.4999, 6920.186
309.9820, 6897.929
310.4641, 6864.404
310.9463, 6817.165
311.4284, 6749.101
311.9105, 6657.520
312.3926, 6560.536
312.8747, 6463.486
313.3568, 6370.557
313.8390, 6290.952
314.3211, 6229.809
314.8032, 6179.180
315.2853, 6129.468
315.7674, 6080.630
316.2495, 6041.172
316.7317, 6016.814
317.2138, 6003.904
317.6959, 5996.207
318.1780, 5994.072
318.6601, 5995.156
319.1422, 5996.317
319.6243, 5998.372
320.1064, 6007.673
320.5886, 6028.956
321.0707, 6055.549
321.5528, 6078.874
322.0349, 6098.797
322.5170, 6118.672
322.9991, 6139.697
323.4813, 6161.979
323.9634, 6185.938
324.4455, 6211.104
324.9276, 6238.966
325.4097, 6269.878
325.8918, 6303.917
326.3740, 6343.177
326.8561, 6393.258
327.3382, 6447.536
327.8203, 6496.117
328.3024, 6538.139
328.7845, 6575.810
329.2667, 6608.682
329.7488, 6638.366
330.2309, 6668.922
330.7130, 6701.427
331.1951, 6734.749
331.6772, 6768.023
332.1594, 6801.229
332.6415, 6834.042
333.1236, 6867.431
333.6057, 6899.680
334.0878, 6927.921
334.5699, 6950.976
335.0521, 6971.649
335.5342, 6994.225
336.0163, 7016.675
336.4984, 7030.533
336.9805, 7031.536
337.4626, 7024.053
337.9448, 7014.814
338.4269, 7003.936
338.9090, 6991.259
339.3911, 6975.380
339.8732, 6957.898
340.3553, 6942.511
340.8375, 6930.520
341.3196, 6918.500
341.8017, 6902.721
342.2838, 6883.509
342.7659, 6862.221
343.2480, 6839.567
343.7302, 6814.654
344.2123, 6786.332
344.6944, 6754.639
345.1765, 6720.702
345.6586, 6684.442
346.1407, 6646.486
346.6229, 6610.399
347.1050, 6575.955
347.5871, 6543.914
348.0692, 6515.482
348.5513, 6490.201
349.0334, 6465.610
349.5156, 6440.873
349.9977, 6416.080
350.4798, 6391.132
350.9619, 6362.872
351.4440, 6340.442
351.9261, 6331.236
352.4083, 6328.957
352.8904, 6322.290
353.3725, 6307.407
353.8546, 6290.837
354.3367, 6282.467
354.8188, 6284.491
355.3010, 6285.514
355.7831, 6279.126
356.2652, 6274.683
356.7473, 6282.576
357.2294, 6303.229
357.7115, 6326.667
358.1937, 6344.132
358.6758, 6355.275
359.1579, 6369.663
359.6400, 6387.297
360.1221, 6407.749
360.6042, 6431.004
361.0863, 6456.922
361.5685, 6483.997
362.0506, 6510.760
362.5327, 6539.421
363.0148, 6579.779
363.4969, 6639.410
363.9790, 6700.235
364.4612, 6757.212
364.9433, 6815.172
365.4254, 6880.199
365.9075, 6954.218
366.3896, 7032.689
366.8717, 7108.033
367.3539, 7175.756
367.8360, 7250.999
368.3181, 7333.375
368.8002, 7422.581
369.2823, 7518.517
369.7644, 7620.860
370.2466, 7730.156
370.7287, 7847.835
371.2108, 7974.286
371.6929, 8102.360
372.1750, 8228.441
372.6571, 8360.171
373.1393, 8502.337
373.6214, 8651.972
374.1035, 8806.331
374.5856, 8963.493
375.0677, 9122.425
375.5498, 9281.033
376.0320, 9438.109
376.5141, 9597.175
376.9962, 9757.762
377.4783, 9920.732
377.9604, 10087.28
378.4425, 10257.84
378.9247, 10427.81
379.4068, 10589.51
379.8889, 10737.76
380.3710, 10896.01
380.8531, 11075.79
381.3352, 11255.46
381.8174, 11425.05
382.2995, 11586.12
382.7816, 11746.04
383.2637, 11909.39
383.7458, 12075.87
384.2279, 12240.88
384.7101, 12400.10
385.1922, 12565.01
385.6743, 12741.39
386.1564, 12923.52
386.6385, 13107.80
387.1206, 13292.01
387.6028, 13474.71
388.0849, 13654.86
388.5670, 13831.96
389.0491, 14006.87
389.5312, 14196.38
390.0133, 14371.75
390.4955, 14517.50
390.9776, 14631.32
391.4597, 14711.71
391.9418, 14770.24
392.4239, 14799.40
392.9060, 14750.53
393.3882, 14607.31
393.8703, 14404.71
394.3524, 14163.71
394.8345, 13886.08
395.3166, 13568.45
395.7987, 13193.76
396.2809, 12792.19
396.7630, 12402.93
397.2451, 12022.57
397.7272, 11660.47
398.2093, 11316.75
398.6914, 10996.02
399.1736, 10701.32
399.6557, 10431.46
400.1378, 10183.21
400.6199, 9956.128
401.1020, 9748.677
401.5841, 9556.995
402.0662, 9380.708
402.5483, 9219.084
403.0305, 9076.891
403.5126, 8952.591
403.9947, 8832.213
404.4768, 8714.199
404.9589, 8598.366
405.4410, 8483.709
405.9232, 8371.109
406.4053, 8264.456
406.8874, 8167.049
407.3695, 8078.151
407.8516, 7989.571
408.3337, 7898.236
408.8159, 7811.037
409.2980, 7727.346
409.7801, 7649.496
410.2622, 7582.012
410.7443, 7525.969
411.2264, 7478.061
411.7086, 7433.389
412.1907, 7395.583
412.6728, 7351.719
413.1549, 7290.468
413.6370, 7232.248
414.1191, 7191.096
414.6013, 7166.575
415.0834, 7150.583
415.5655, 7137.344
416.0476, 7126.660
416.5297, 7116.156
417.0118, 7103.734
417.4940, 7094.009
417.9761, 7092.089
418.4582, 7091.686
418.9403, 7085.023
419.4224, 7069.136
419.9045, 7047.337
420.3867, 7026.830
420.8688, 7014.156
421.3509, 6985.116
421.8330, 6930.555
422.3151, 6867.622
422.7972, 6802.413
423.2794, 6736.806
423.7615, 6671.716
424.2436, 6606.673
424.7257, 6542.700
425.2078, 6486.298
425.6899, 6440.597
426.1721, 6397.412
426.6542, 6351.518
427.1363, 6306.750
427.6184, 6267.493
428.1005, 6235.132
428.5826, 6208.393
429.0648, 6188.931
429.5469, 6176.808
430.0290, 6158.105
430.5111, 6125.183
430.9932, 6089.937
431.4753, 6062.100
431.9575, 6041.306
432.4396, 6024.311
432.9217, 6013.825
433.4038, 6004.854
433.8859, 5986.091
434.3680, 5955.702
434.8502, 5929.357
435.3323, 5919.980
435.8144, 5921.442
436.2965, 5915.510
436.7786, 5897.580
437.2607, 5878.298
437.7429, 5862.874
438.2250, 5850.397
438.7071, 5837.910
439.1892, 5823.978
439.6713, 5812.714
440.1534, 5811.081
440.6356, 5821.930
441.1177, 5829.730
441.5998, 5829.302
442.0819, 5829.034
442.5640, 5836.343
443.0461, 5849.923
443.5282, 5862.882
444.0103, 5870.503
444.4925, 5873.704
444.9746, 5877.425
445.4567, 5881.881
445.9388, 5886.625
446.4209, 5890.546
446.9030, 5895.241
447.3852, 5903.021
447.8673, 5914.149
448.3494, 5926.170
448.8315, 5936.095
449.3136, 5943.772
449.7957, 5949.950
450.2779, 5949.519
450.7600, 5952.673
451.2421, 5964.152
451.7242, 5981.702
452.2063, 6001.032
452.6884, 6019.945
453.1706, 6038.588
453.6527, 6056.680
454.1348, 6073.376
454.6169, 6091.982
455.0990, 6114.530
455.5811, 6138.607
456.0633, 6162.935
456.5454, 6187.310
457.0275, 6211.855
457.5096, 6237.032
457.9917, 6262.537
458.4738, 6287.350
458.9560, 6311.004
459.4381, 6335.318
459.9202, 6362.410
460.4023, 6390.874
460.8844, 6418.062
461.3665, 6441.903
461.8487, 6466.494
462.3308, 6494.597
462.8129, 6525.904
463.2950, 6559.446
463.7771, 6595.229
464.2592, 6632.738
464.7414, 6671.314
465.2235, 6710.592
465.7056, 6753.539
466.1877, 6800.302
466.6698, 6851.447
467.1519, 6909.318
467.6341, 6972.688
468.1162, 7035.323
468.5983, 7092.690
469.0804, 7147.072
469.5625, 7206.675
470.0446, 7272.698
470.5268, 7342.875
471.0089, 7417.467
471.4910, 7495.836
471.9731, 7577.483
472.4552, 7662.083
472.9373, 7748.643
473.4195, 7835.549
473.9016, 7922.198
474.3837, 8015.036
474.8658, 8119.741
475.3479, 8224.174
475.8300, 8321.473
476.3122, 8416.972
476.7943, 8519.784
477.2764, 8633.616
477.7585, 8754.368
478.2406, 8877.562
478.7227, 9002.798
479.2049, 9129.315
479.6870, 9255.684
480.1691, 9385.105
480.6512, 9517.771
481.1333, 9654.059
481.6154, 9796.763
482.0976, 9951.978
482.5797, 10112.42
483.0618, 10266.09
483.5439, 10412.74
484.0260, 10560.81
484.5081, 10715.12
484.9902, 10873.92
485.4724, 11033.04
485.9545, 11190.06
486.4366, 11353.53
486.9187, 11539.99
487.4008, 11729.61
487.8829, 11894.81
488.3651, 12032.02
488.8472, 12155.13
489.3293, 12277.20
489.8114, 12398.67
490.2935, 12488.51
490.7756, 12546.44
491.2578, 12579.40
491.7399, 12595.44
492.2220, 12585.21
492.7041, 12534.22
493.1862, 12438.23
493.6683, 12307.52
494.1505, 12156.14
494.6326, 11984.73
495.1147, 11792.03
495.5968, 11565.41
496.0789, 11330.39
496.5610, 11093.68
497.0432, 10855.92
497.5253, 10612.92
498.0074, 10362.65
498.4895, 10112.92
498.9716, 9877.517
499.4537, 9655.737
499.9359, 9450.971
500.4180, 9262.620
500.9001, 9092.123
501.3822, 8941.107
501.8643, 8808.375
502.3464, 8689.177
502.8286, 8577.969
503.3107, 8479.382
503.7928, 8401.613
504.2749, 8345.069
504.7570, 8297.246
505.2391, 8252.532
505.7213, 8211.688
506.2034, 8176.729
506.6855, 8145.267
507.1676, 8123.758
507.6497, 8118.031
508.1318, 8120.892
508.6140, 8124.615
509.0961, 8128.077
509.5782, 8134.162
510.0603, 8145.412
510.5424, 8161.640
511.0245, 8179.755
511.5067, 8190.794
511.9888, 8214.674
512.4709, 8260.227
512.9530, 8317.632
513.4351, 8375.827
513.9172, 8432.264
514.3994, 8492.724
514.8815, 8565.078
515.3636, 8650.451
515.8457, 8736.331
516.3278, 8818.757
516.8099, 8908.111
517.2921, 9008.931
517.7742, 9118.154
518.2563, 9232.326
518.7384, 9352.660
519.2205, 9471.554
519.7026, 9583.125
520.1848, 9686.904
520.6669, 9780.027
521.1490, 9863.111
521.6311, 9932.837
522.1132, 9985.663
522.5953, 10022.39
523.0775, 10037.52
523.5596, 10033.15
524.0417, 10004.03
524.5238, 9944.081
525.0059, 9856.240
525.4880, 9747.075
525.9702, 9619.215
526.4523, 9474.155
526.9344, 9311.531
527.4165, 9127.190
527.8986, 8936.777
528.3807, 8733.086
528.8629, 8529.755
529.3450, 8331.229
529.8271, 8139.928
530.3092, 7959.167
530.7913, 7790.974
531.2734, 7633.816
531.7556, 7483.196
532.2377, 7340.408
532.7198, 7201.679
533.2019, 7061.436
533.6840, 6929.700
534.1661, 6812.674
534.6483, 6708.934
535.1304, 6611.565
535.6125, 6517.404
536.0946, 6426.125
536.5767, 6333.966
537.0588, 6240.370
537.5410, 6157.762
538.0231, 6094.737
538.5052, 6042.288
538.9873, 5985.983
539.4694, 5924.477
539.9515, 5867.961
540.4337, 5821.678
540.9158, 5779.796
541.3979, 5736.919
541.8800, 5692.880
542.3621, 5649.224
542.8442, 5607.203
543.3264, 5566.210
543.8085, 5524.069
544.2906, 5479.208
544.7726, 5435.758
545.2548, 5395.296
545.7369, 5355.155
546.2190, 5312.866
546.7011, 5269.006
547.1832, 5226.286
547.6653, 5187.369
548.1475, 5151.225
548.6296, 5114.614
549.1117, 5077.852
549.5938, 5039.972
550.0759, 4997.405
550.5580, 4955.788
551.0402, 4919.489
551.5223, 4888.801
552.0044, 4860.304
552.4865, 4831.929
552.9686, 4804.352
553.4507, 4778.882
553.9329, 4755.574
554.4150, 4733.128
554.8971, 4710.891
555.3792, 4689.051
555.8613, 4668.475
556.3434, 4649.661
556.8256, 4630.547
557.3077, 4610.989
557.7898, 4590.665
558.2719, 4568.740
558.7540, 4545.657
559.2361, 4523.718
559.7183, 4504.500
560.2004, 4487.465
560.6825, 4469.766
561.1646, 4451.175
561.6467, 4432.502
562.1288, 4414.236
562.6110, 4395.586
563.0931, 4374.681
563.5752, 4352.379
564.0573, 4332.429
564.5394, 4318.510
565.0215, 4308.240
565.5037, 4294.749
565.9858, 4277.106
566.4679, 4262.253
566.9500, 4254.417
567.4321, 4249.304
567.9142, 4240.854
568.3964, 4228.802
568.8785, 4217.360
569.3606, 4208.441
569.8427, 4200.442
570.3248, 4192.985
570.8069, 4185.289
571.2891, 4173.625
571.7712, 4155.560
572.2533, 4133.812
572.7354, 4115.365
573.2175, 4101.999
573.6996, 4088.852
574.1818, 4077.537
574.6639, 4064.934
575.1460, 4047.668
575.6281, 4027.426
576.1102, 4009.081
576.5923, 3995.740
577.0745, 3985.059
577.5566, 3971.940
578.0387, 3956.107
578.5208, 3939.375
579.0029, 3921.023
579.4850, 3903.200
579.9672, 3887.006
580.4493, 3872.563
580.9314, 3860.344
581.4135, 3853.661
581.8956, 3846.672
582.3777, 3831.599
582.8599, 3810.886
583.3420, 3794.497
583.8241, 3786.498
584.3062, 3780.716
584.7883, 3768.920
585.2704, 3749.932
585.7526, 3729.691
586.2347, 3707.898
586.7168, 3685.180
587.1989, 3659.504
587.6810, 3633.760
588.1631, 3612.728
588.6453, 3598.085
