##NAMES=Rathite
##RRUFFID=R070691
##IDEAL CHEMISTRY=Ag^1+^_2_Pb^2+^_12-x_Tl^1+^_x/2_As^3+^_18+x/2_S^2-^_40_
##LOCALITY=Lengenbach Quarry, near Imfeld, Binnental, Valais, Switzerland
##OWNER=RRUFF
##SOURCE=James Shigley
##DESCRIPTION=Lead-gray striated metallic crystals associated with dolomite. Known as rathite I.
##STATUS=The identification of this mineral has been confirmed only by single crystal X-ray diffraction.
##URL=rruff.info/R070691
76.08789, -15.58816
76.57001, -4.237175
77.05212, 3.379647
77.53424, 7.255808
78.01636, 2.985436
78.49847, -0.3477596
78.98059, -2.010340
79.46271, -2.039028
79.94482, -0.1139659
80.42694, 4.811610
80.90906, 11.42254
81.39117, 18.23255
81.87328, 27.96897
82.35540, 35.56291
82.83752, 38.95705
83.31963, 38.26365
83.80175, 32.62395
84.28387, 15.21264
84.76598, -9.050849
85.24810, -25.11813
85.73022, -20.79617
86.21233, -6.201974
86.69445, 8.403626
87.17657, 21.49724
87.65868, 32.28078
88.14080, 42.46926
88.62292, 52.23671
89.10503, 54.45023
89.58715, 34.19844
90.06927, 0.3330398
90.55138, -24.87419
91.03350, -24.62102
91.51562, -8.598433
91.99773, 7.240018
92.47985, 22.70598
92.96196, 34.55339
93.44408, 35.01918
93.92619, 24.46789
94.40831, 13.17938
94.89043, 9.128414
95.37254, 11.78494
95.85466, 16.45886
96.33678, 24.27720
96.81889, 33.40573
97.30101, 33.39809
97.78313, 21.67639
98.26524, 7.314732
98.74736, 2.406606
99.22948, 8.378601
99.71159, 17.27014
100.1937, 28.70064
100.6758, 45.31409
101.1579, 49.84473
101.6401, 37.58911
102.1222, 14.09672
102.6043, -1.949368
103.0864, -10.19116
103.5685, -11.68895
104.0506, -5.665615
104.5328, 16.47144
105.0149, 30.73075
105.4970, 31.62283
105.9791, 17.62306
106.4612, 7.484486
106.9433, 2.757538
107.4255, 1.208728
107.9076, 0.1631171
108.3897, -4.578286
108.8718, -5.040835
109.3539, 1.749644
109.8360, 22.12001
110.3182, 37.50127
110.8003, 43.72366
111.2824, 43.74780
111.7645, 45.56058
112.2466, 50.17985
112.7287, 57.12643
113.2109, 66.11501
113.6930, 78.39514
114.1751, 91.39220
114.6572, 108.6292
115.1393, 129.4224
115.6214, 139.9736
116.1035, 119.0316
116.5857, 90.12469
117.0678, 79.30981
117.5499, 121.3603
118.0320, 167.0187
118.5141, 182.9272
118.9962, 159.4392
119.4784, 134.4546
119.9605, 130.0028
120.4426, 141.9231
120.9247, 160.9487
121.4068, 188.1834
121.8889, 217.6745
122.3711, 242.9416
122.8532, 263.1424
123.3353, 277.9420
123.8174, 283.0883
124.2995, 279.7422
124.7816, 278.5458
125.2638, 289.1399
125.7459, 308.3590
126.2280, 328.8101
126.7101, 352.3659
127.1922, 374.3823
127.6743, 381.3810
128.1565, 370.3284
128.6386, 360.9668
129.1207, 381.3442
129.6028, 428.3641
130.0849, 476.2501
130.5670, 511.5922
131.0492, 535.7707
131.5313, 558.2377
132.0134, 580.4551
132.4955, 600.5596
132.9776, 616.2800
133.4597, 627.8649
133.9418, 632.0338
134.4240, 620.0459
134.9061, 590.1445
135.3882, 573.8423
135.8703, 580.8805
136.3524, 607.9953
136.8345, 629.3558
137.3167, 643.6635
137.7988, 655.1631
138.2809, 668.8919
138.7630, 685.6998
139.2451, 702.3708
139.7272, 719.6407
140.2094, 740.0831
140.6915, 747.6634
141.1736, 737.4023
141.6557, 717.2073
142.1378, 704.7767
142.6199, 705.3153
143.1021, 704.2743
143.5842, 690.0467
144.0663, 654.6759
144.5484, 636.9299
145.0305, 644.3964
145.5126, 673.0080
145.9948, 695.3215
146.4769, 715.7537
146.9590, 726.8059
147.4411, 722.2808
147.9232, 673.4521
148.4053, 643.4851
148.8875, 649.0109
149.3696, 700.2504
149.8517, 727.4058
150.3338, 710.8022
150.8159, 677.7266
151.2980, 659.4837
151.7802, 674.7429
152.2623, 689.2483
152.7444, 691.8028
153.2265, 673.2189
153.7086, 661.7537
154.1908, 664.1915
154.6729, 675.9411
155.1550, 686.8430
155.6371, 702.0117
156.1192, 711.2521
156.6013, 708.9049
157.0834, 682.0974
157.5656, 657.4856
158.0477, 640.6215
158.5298, 631.0601
159.0119, 625.9949
159.4940, 624.0355
159.9761, 626.3980
160.4583, 634.1555
160.9404, 656.2804
161.4225, 676.4051
161.9046, 689.2360
162.3867, 694.7399
162.8688, 690.6072
163.3510, 664.8789
163.8331, 630.8052
164.3152, 607.1193
164.7973, 606.3104
165.2794, 615.5866
165.7615, 628.4219
166.2437, 645.9696
166.7258, 660.5664
167.2079, 668.6478
167.6900, 670.2454
168.1721, 665.3589
168.6542, 648.3166
169.1364, 627.2243
169.6185, 609.2991
170.1006, 593.2463
170.5827, 584.8521
171.0648, 597.1094
171.5469, 626.0519
172.0291, 647.0183
172.5112, 635.4017
172.9933, 606.3688
173.4754, 583.2123
173.9575, 575.7998
174.4396, 576.8926
174.9218, 579.2661
175.4039, 582.9460
175.8860, 587.4768
176.3681, 594.9491
176.8502, 603.3404
177.3323, 607.4688
177.8144, 601.3290
178.2966, 590.3456
178.7787, 584.5618
179.2608, 585.0459
179.7429, 587.4550
180.2250, 585.7820
180.7071, 580.9784
181.1893, 578.0186
181.6714, 581.0275
182.1535, 588.0491
182.6356, 594.8448
183.1177, 602.0057
183.5998, 606.6088
184.0820, 601.8651
184.5641, 588.1273
185.0462, 573.6080
185.5283, 560.9037
186.0104, 551.3476
186.4925, 552.5430
186.9747, 571.3688
187.4568, 598.4756
187.9389, 608.3450
188.4210, 599.8956
188.9031, 586.7986
189.3852, 584.2739
189.8674, 590.9933
190.3495, 591.7654
190.8316, 575.8691
191.3137, 549.6202
191.7958, 545.0369
192.2779, 565.8970
192.7601, 595.3503
193.2422, 613.9301
193.7243, 621.1741
194.2064, 623.1162
194.6885, 620.4412
195.1706, 613.2817
195.6528, 607.1126
196.1349, 601.7333
196.6170, 597.6724
197.0991, 597.1644
197.5812, 600.9653
198.0633, 602.8075
198.5455, 598.9344
199.0276, 589.0531
199.5097, 577.6750
199.9918, 563.9411
200.4739, 549.7881
200.9560, 540.4149
201.4381, 536.2780
201.9203, 535.4890
202.4024, 537.7263
202.8845, 543.5596
203.3666, 548.1372
203.8487, 549.4675
204.3308, 549.0720
204.8130, 555.9706
205.2951, 572.9990
205.7772, 590.8766
206.2593, 602.5472
206.7414, 608.0527
207.2235, 606.7157
207.7057, 594.5805
208.1878, 572.5334
208.6699, 565.5611
209.1520, 579.9386
209.6341, 599.9449
210.1162, 607.4862
210.5984, 598.8090
211.0805, 588.9109
211.5626, 581.5660
212.0447, 576.8934
212.5268, 573.6847
213.0089, 572.4963
213.4911, 572.1752
213.9732, 570.6639
214.4553, 567.1466
214.9374, 564.3070
215.4195, 562.4416
215.9016, 560.3801
216.3838, 564.8216
216.8659, 581.0579
217.3480, 601.0957
217.8301, 605.0576
218.3122, 584.1360
218.7943, 563.3663
219.2765, 554.9907
219.7586, 564.5828
220.2407, 572.1562
220.7228, 577.2091
221.2049, 579.7667
221.6870, 579.3184
222.1691, 573.1169
222.6513, 568.1115
223.1334, 569.2917
223.6155, 580.8491
224.0976, 589.0854
224.5797, 592.8936
225.0618, 592.3938
225.5440, 588.0842
226.0261, 577.8484
226.5082, 566.5400
226.9903, 557.7233
227.4724, 551.2397
227.9545, 547.3341
228.4367, 545.7100
228.9188, 546.3686
229.4009, 551.7047
229.8830, 564.7550
230.3651, 579.3118
230.8472, 589.6838
231.3294, 597.0243
231.8115, 597.6464
232.2936, 587.0635
232.7757, 562.8315
233.2578, 552.9999
233.7399, 566.5491
234.2221, 587.4806
234.7042, 595.6844
235.1863, 582.4670
235.6684, 571.3926
236.1505, 569.3346
236.6326, 578.4714
237.1148, 587.0420
237.5969, 595.7000
238.0790, 603.4105
238.5611, 608.7722
239.0432, 612.1508
239.5253, 612.6818
240.0075, 610.1538
240.4896, 604.6913
240.9717, 595.0961
241.4538, 577.0098
241.9359, 556.4521
242.4180, 545.9348
242.9002, 548.7592
243.3823, 556.7199
243.8644, 567.9553
244.3465, 588.2969
244.8286, 598.6575
245.3107, 596.1533
245.7928, 584.1411
246.2750, 571.9955
246.7571, 558.9233
247.2392, 546.7553
247.7213, 535.5065
248.2034, 521.7898
248.6855, 517.1621
249.1677, 524.9801
249.6498, 542.4109
250.1319, 558.1891
250.6140, 574.9850
251.0961, 586.6302
251.5782, 588.6992
252.0604, 576.1940
252.5425, 565.3412
253.0246, 557.0621
253.5067, 551.4462
253.9888, 548.8063
254.4709, 549.8762
254.9531, 552.9268
255.4352, 557.9406
255.9173, 568.6901
256.3994, 572.1174
256.8815, 564.3821
257.3636, 546.7626
257.8458, 532.4042
258.3279, 519.8066
258.8100, 512.5767
259.2921, 515.4958
259.7742, 534.2450
260.2563, 548.4423
260.7385, 553.7896
261.2206, 550.7514
261.7027, 549.1033
262.1848, 549.4351
262.6669, 550.2971
263.1490, 550.3470
263.6312, 549.3630
264.1133, 548.4421
264.5954, 549.0999
265.0775, 551.1829
265.5596, 545.4100
266.0417, 527.9941
266.5239, 508.5063
267.0060, 496.4366
267.4881, 491.7436
267.9702, 494.7364
268.4523, 508.4692
268.9344, 533.0706
269.4166, 548.9412
269.8987, 554.8412
270.3808, 554.0369
270.8629, 549.0915
271.3450, 538.7875
271.8271, 529.3967
272.3093, 521.8480
272.7914, 516.1303
273.2735, 517.2844
273.7556, 527.4940
274.2377, 540.7501
274.7198, 551.0835
275.2020, 559.7001
275.6841, 558.5698
276.1662, 539.2284
276.6483, 502.0488
277.1304, 483.3895
277.6125, 486.5456
278.0946, 501.4723
278.5768, 515.9601
279.0589, 530.3033
279.5410, 542.2800
280.0231, 552.4001
280.5052, 560.3792
280.9873, 558.6332
281.4695, 544.5134
281.9516, 526.6229
282.4337, 517.2363
282.9158, 516.4715
283.3979, 519.7071
283.8800, 528.2701
284.3622, 541.1432
284.8443, 545.2725
285.3264, 539.4064
285.8085, 528.4547
286.2906, 516.5341
286.7727, 503.9189
287.2549, 497.6187
287.7370, 505.7583
288.2191, 524.7706
288.7012, 535.0409
289.1833, 535.3557
289.6654, 528.9809
290.1476, 516.3793
290.6297, 498.6759
291.1118, 486.1127
291.5939, 487.2134
292.0760, 497.8775
292.5581, 504.7815
293.0403, 506.9811
293.5224, 506.8287
294.0045, 508.0681
294.4866, 510.1102
294.9687, 509.4692
295.4508, 503.6881
295.9330, 494.0201
296.4151, 481.7567
296.8972, 465.9670
297.3793, 452.4328
297.8614, 449.5074
298.3435, 455.2898
298.8257, 462.8330
299.3078, 472.3039
299.7899, 480.2204
300.2720, 479.5060
300.7541, 468.5673
301.2362, 454.1540
301.7184, 438.7470
302.2005, 424.7211
302.6826, 417.8859
303.1647, 427.4770
303.6468, 443.6058
304.1289, 454.6905
304.6111, 459.9106
305.0932, 459.6388
305.5753, 446.4583
306.0574, 427.3987
306.5395, 419.1216
307.0216, 445.8604
307.5038, 478.3589
307.9859, 486.3629
308.4680, 463.4845
308.9501, 434.7548
309.4322, 409.2400
309.9143, 390.4315
310.3965, 385.8324
310.8786, 414.2011
311.3607, 447.7715
311.8428, 466.8237
312.3249, 468.3889
312.8070, 460.3412
313.2892, 436.6486
313.7713, 407.3013
314.2534, 388.5866
314.7355, 396.2353
315.2176, 409.5387
315.6997, 418.2613
316.1819, 420.9911
316.6640, 420.5589
317.1461, 417.7834
317.6282, 412.5673
318.1103, 404.7381
318.5924, 384.9631
319.0746, 370.4702
319.5567, 371.5971
320.0388, 393.5409
320.5209, 409.5381
321.0030, 405.5813
321.4851, 394.4469
321.9673, 392.1633
322.4494, 415.7511
322.9315, 435.6973
323.4136, 441.9465
323.8957, 430.8084
324.3778, 420.9238
324.8599, 416.0468
325.3420, 412.7045
325.8242, 406.9214
326.3063, 388.5937
326.7884, 377.6628
327.2705, 382.2681
327.7526, 407.1323
328.2347, 419.9596
328.7169, 411.7683
329.1990, 396.2726
329.6811, 387.7253
330.1632, 391.5876
330.6453, 395.1260
331.1274, 396.2952
331.6096, 395.0365
332.0917, 391.8746
332.5738, 385.9656
333.0559, 378.9683
333.5380, 372.0024
334.0201, 363.4087
334.5023, 358.5956
334.9844, 359.1472
335.4665, 364.9096
335.9486, 372.6692
336.4307, 385.7234
336.9128, 395.4613
337.3950, 390.5494
337.8771, 365.4303
338.3592, 350.4325
338.8413, 355.8703
339.3234, 376.8736
339.8055, 382.4237
340.2877, 368.4316
340.7698, 352.3592
341.2519, 351.4632
341.7340, 366.4607
342.2161, 378.8369
342.6982, 386.1079
343.1804, 387.8087
343.6625, 379.2804
344.1446, 359.3896
344.6267, 341.3317
345.1088, 334.9904
345.5909, 339.5465
346.0731, 351.8505
346.5552, 377.1942
347.0373, 402.4535
347.5194, 398.4944
348.0015, 367.0370
348.4836, 336.0677
348.9658, 324.6540
349.4479, 328.6150
349.9300, 339.3402
350.4121, 358.7277
350.8942, 377.1702
351.3763, 380.6455
351.8585, 371.6104
352.3406, 360.9058
352.8227, 351.0890
353.3048, 344.8798
353.7869, 347.9507
354.2690, 364.7396
354.7512, 380.6482
355.2333, 380.7699
355.7154, 370.2876
356.1975, 361.9958
356.6796, 366.9435
357.1617, 374.2135
357.6439, 373.5374
358.1260, 361.1446
358.6081, 350.3471
359.0902, 349.4406
359.5723, 354.6694
360.0544, 359.7339
360.5366, 364.9212
361.0187, 367.2461
361.5008, 363.6750
361.9829, 352.2947
362.4650, 343.7194
362.9471, 344.4705
363.4293, 348.6754
363.9114, 349.1093
364.3935, 332.9515
364.8756, 323.4772
365.3577, 333.5386
365.8398, 368.6041
366.3220, 386.9384
366.8041, 370.8459
367.2862, 342.3761
367.7683, 322.2621
368.2504, 315.9150
368.7325, 311.9365
369.2146, 306.8539
369.6967, 300.5365
370.1789, 305.9513
370.6610, 337.5831
371.1431, 366.8678
371.6252, 369.0574
372.1073, 325.6022
372.5894, 294.0676
373.0716, 284.7100
373.5537, 293.6132
374.0358, 295.8205
374.5179, 288.2890
375.0000, 280.6139
375.4821, 280.2216
375.9643, 288.6380
376.4464, 295.2803
376.9285, 299.7842
377.4106, 301.3870
377.8927, 296.0160
378.3748, 282.3136
378.8570, 270.7090
379.3391, 269.6713
379.8212, 277.7733
380.3033, 280.6555
380.7854, 276.2670
381.2675, 268.3581
381.7497, 261.9455
382.2318, 256.9854
382.7139, 253.8284
383.1960, 255.9922
383.6781, 259.6635
384.1602, 253.6347
384.6424, 235.4503
385.1245, 218.2646
385.6066, 217.6417
386.0887, 229.0573
386.5708, 240.8571
387.0529, 251.9581
387.5351, 258.6708
388.0172, 253.4331
388.4993, 235.7883
388.9814, 221.0405
389.4635, 225.8148
389.9456, 237.9793
390.4278, 241.3736
390.9099, 217.2860
391.3920, 194.2123
391.8741, 190.4977
392.3562, 204.3512
392.8383, 215.4704
393.3205, 211.2358
393.8026, 203.4064
394.2847, 201.1302
394.7668, 212.0968
395.2489, 222.5711
395.7310, 231.4312
396.2132, 238.0253
396.6953, 239.5473
397.1774, 229.1638
397.6595, 218.5227
398.1416, 213.2883
398.6237, 219.3611
399.1059, 221.9217
399.5880, 218.7048
400.0701, 212.3671
400.5522, 208.8483
401.0343, 210.0507
401.5164, 211.2848
401.9986, 209.8577
402.4807, 203.6515
402.9628, 204.8079
403.4449, 215.8093
403.9270, 231.3970
404.4091, 246.3650
404.8913, 262.7844
405.3734, 268.5081
405.8555, 254.0050
406.3376, 222.3782
406.8197, 211.9476
407.3018, 226.8910
407.7840, 245.0618
408.2661, 240.6186
408.7482, 215.9032
409.2303, 196.5685
409.7124, 189.4662
410.1945, 191.8059
410.6767, 201.3540
411.1588, 217.5377
411.6409, 230.8507
412.1230, 231.6661
412.6051, 224.6586
413.0872, 219.2936
413.5693, 217.8259
414.0515, 217.8503
414.5336, 216.9412
415.0157, 215.4412
415.4978, 214.4143
415.9799, 212.4357
416.4620, 212.3319
416.9442, 218.5635
417.4263, 234.3314
417.9084, 245.8473
418.3905, 242.2530
418.8726, 230.1056
419.3547, 219.4606
419.8369, 213.6672
420.3190, 209.9574
420.8011, 207.5668
421.2832, 206.5958
421.7653, 205.6156
422.2474, 204.2753
422.7296, 202.8531
423.2117, 201.5819
423.6938, 200.6122
424.1759, 199.6862
424.6580, 199.1745
425.1401, 198.9230
425.6223, 197.3334
426.1044, 194.3724
426.5865, 190.0757
427.0686, 183.4786
427.5507, 171.5553
428.0328, 166.1365
428.5150, 170.0024
428.9971, 179.6735
429.4792, 187.1965
429.9613, 193.1673
430.4434, 194.8782
430.9255, 188.2560
431.4077, 173.6230
431.8898, 166.9833
432.3719, 170.1909
432.8540, 176.3918
433.3361, 173.9462
433.8182, 164.4182
434.3004, 160.8709
434.7825, 174.4021
435.2646, 195.1573
435.7467, 200.8586
436.2288, 191.5912
436.7109, 181.7469
437.1931, 186.2573
437.6752, 197.8914
438.1573, 204.2256
438.6394, 200.2365
439.1215, 191.8476
439.6036, 180.6042
440.0858, 167.9922
440.5679, 159.8406
441.0500, 163.4160
441.5321, 169.9282
442.0142, 172.3533
442.4963, 166.8776
442.9785, 163.5056
443.4606, 167.0057
443.9427, 174.3786
444.4248, 180.4401
444.9069, 185.3442
445.3890, 187.6958
445.8712, 186.0308
446.3533, 178.9153
446.8354, 174.7026
447.3175, 174.0372
447.7996, 175.8361
448.2817, 179.6875
448.7639, 188.7039
449.2460, 193.5161
449.7281, 191.2496
450.2102, 183.3591
450.6923, 178.3373
451.1744, 176.0679
451.6566, 176.8513
452.1387, 183.6171
452.6208, 196.9238
453.1029, 200.3136
453.5850, 188.9432
454.0671, 172.9362
454.5493, 172.7304
455.0314, 187.0391
455.5135, 198.8810
455.9956, 198.5048
456.4777, 189.6669
456.9598, 179.3833
457.4420, 167.6208
457.9240, 157.7872
458.4062, 152.2087
458.8883, 150.8329
459.3704, 153.7547
459.8525, 165.2691
460.3346, 177.5482
460.8167, 185.6311
461.2989, 189.6535
461.7810, 189.8330
462.2631, 180.5296
462.7452, 170.9583
463.2273, 168.6742
463.7094, 181.9206
464.1916, 191.0816
464.6737, 186.5603
465.1558, 174.7792
465.6379, 169.7084
466.1200, 178.7219
466.6021, 189.3421
467.0843, 199.4954
467.5664, 211.1358
468.0485, 212.9137
468.5306, 198.3961
469.0127, 179.8042
469.4948, 170.4264
469.9770, 173.3843
470.4591, 176.2309
470.9412, 175.8939
471.4233, 173.6270
471.9054, 176.6843
472.3875, 186.3208
472.8697, 194.6309
473.3518, 193.0550
473.8339, 183.6714
474.3160, 182.9186
474.7981, 195.2062
475.2802, 209.2966
475.7624, 208.1857
476.2445, 194.7399
476.7266, 180.3658
477.2087, 168.6247
477.6908, 160.1853
478.1729, 156.9042
478.6551, 158.9066
479.1372, 161.1920
479.6193, 161.5377
480.1014, 159.8381
480.5835, 155.9379
481.0656, 146.8348
481.5478, 138.5672
482.0299, 132.2498
482.5120, 128.2768
482.9941, 128.2912
483.4762, 135.4711
483.9583, 144.5655
484.4405, 153.5191
484.9226, 163.9406
485.4047, 170.3956
485.8868, 169.1001
486.3689, 165.6725
486.8510, 169.5287
487.3332, 188.7845
487.8153, 198.5097
488.2974, 187.7679
488.7795, 158.6090
489.2616, 149.2401
489.7437, 165.0344
490.2259, 183.3873
490.7080, 183.8644
491.1901, 167.3230
491.6722, 150.0855
492.1543, 132.4373
492.6364, 118.7204
493.1186, 118.8106
493.6007, 130.8277
494.0828, 143.0571
494.5649, 150.5988
495.0470, 153.8846
495.5291, 150.9128
496.0113, 140.7628
496.4934, 135.0550
496.9755, 148.1817
497.4576, 168.9033
497.9397, 183.1477
498.4218, 182.3924
498.9040, 177.5810
499.3861, 171.4722
499.8682, 164.5797
500.3503, 159.1848
500.8324, 153.6803
501.3145, 151.5757
501.7967, 155.1463
502.2788, 169.2560
502.7609, 179.8796
503.2430, 188.0824
503.7251, 192.3408
504.2072, 189.5767
504.6893, 176.2277
505.1714, 164.0268
505.6536, 156.6967
506.1357, 153.5226
506.6178, 145.4747
507.0999, 130.3695
507.5820, 119.4122
508.0641, 126.6898
508.5463, 149.3023
509.0284, 161.5690
509.5105, 157.6454
509.9926, 146.4517
510.4747, 137.1403
510.9568, 130.6165
511.4390, 130.3963
511.9211, 147.2010
512.4032, 166.4556
512.8853, 169.7336
513.3674, 155.9051
513.8495, 141.9081
514.3317, 138.6399
514.8138, 139.8822
515.2959, 139.3976
515.7780, 126.6253
516.2601, 121.6029
516.7422, 139.0906
517.2244, 170.5731
517.7065, 185.4752
518.1886, 160.0383
518.6707, 136.2769
519.1528, 130.5059
519.6349, 150.3344
520.1171, 158.2281
520.5992, 149.2437
521.0813, 133.8631
521.5634, 121.9439
522.0455, 112.4453
522.5276, 113.6023
523.0098, 131.7622
523.4919, 159.4128
523.9740, 171.5474
524.4561, 168.0416
524.9382, 160.0782
525.4203, 152.2784
525.9025, 145.9403
526.3846, 144.5939
526.8667, 149.1150
527.3488, 155.9315
527.8309, 166.3609
528.3130, 176.1916
528.7952, 177.8506
529.2773, 158.0007
529.7594, 138.0681
530.2415, 130.8754
530.7236, 135.4198
531.2057, 141.7688
531.6879, 149.4615
532.1700, 155.9462
532.6521, 159.2801
533.1342, 156.2571
533.6163, 155.8294
534.0984, 163.0457
534.5806, 170.8766
535.0627, 167.0854
535.5448, 142.8892
536.0269, 126.1509
536.5090, 126.7964
536.9911, 142.1263
537.4733, 149.6513
537.9554, 148.0778
538.4375, 144.2966
538.9196, 144.1801
539.4017, 146.8554
539.8839, 146.2573
540.3660, 140.6631
540.8481, 134.4248
541.3302, 134.4963
541.8123, 138.5798
542.2944, 140.3305
542.7766, 131.5668
543.2587, 122.7511
543.7408, 126.9957
544.2229, 143.1838
544.7050, 151.9350
545.1871, 133.7832
545.6693, 110.7373
546.1514, 99.76101
546.6335, 114.7813
547.1156, 124.4014
547.5977, 116.9310
548.0798, 102.4653
548.5620, 101.1085
549.0441, 123.9760
549.5262, 142.8360
550.0083, 150.2907
550.4904, 146.6048
550.9725, 139.9357
551.4547, 129.2459
551.9368, 118.4901
552.4189, 109.0860
552.9010, 101.3680
553.3831, 102.2496
553.8652, 114.0645
554.3474, 130.8494
554.8295, 146.6429
555.3116, 160.5736
555.7937, 169.2958
556.2758, 171.5747
556.7579, 167.5983
557.2401, 152.3986
557.7222, 127.1925
558.2043, 110.0427
558.6864, 120.4378
559.1685, 136.7814
559.6506, 141.4172
560.1328, 122.4993
560.6149, 106.6474
561.0970, 98.57359
561.5791, 96.64702
562.0612, 97.89482
562.5433, 103.8233
563.0255, 110.6161
563.5076, 117.5918
563.9897, 124.6482
564.4718, 133.1938
564.9539, 145.2491
565.4360, 153.1088
565.9182, 147.0044
566.4003, 128.4120
566.8824, 122.1260
567.3645, 133.4352
567.8466, 148.2329
568.3287, 143.8127
568.8109, 126.4498
569.2930, 115.4694
569.7750, 125.4195
570.2571, 141.2124
570.7393, 149.4996
