##NAMES=Realgar
##RRUFFID=R100026
##IDEAL CHEMISTRY=AsS
##LOCALITY=Palomo mine, Castrovirreyna Province, Huancavelica Department, Peru
##OWNER=RRUFF
##SOURCE=Rob Woodside
##DESCRIPTION=Red prismatic crystals
##STATUS=The identification of this mineral has been confirmed by single-crystal X-ray diffraction.
##URL=rruff.info/R100026
91.53320, 9793.080
92.01532, 9685.699
92.49744, 9620.942
92.97955, 9764.078
93.46167, 9960.513
93.94379, 10053.34
94.42590, 10092.86
94.90802, 10107.85
95.39014, 10107.58
95.87225, 10094.45
96.35437, 10063.26
96.83649, 10011.84
97.31860, 9954.329
97.80072, 9903.834
98.28284, 9856.001
98.76495, 9801.800
99.24707, 9746.380
99.72919, 9683.326
100.2113, 9630.935
100.6934, 9591.129
101.1755, 9562.802
101.6577, 9544.608
102.1398, 9535.419
102.6219, 9535.176
103.1040, 9541.859
103.5861, 9559.379
104.0682, 9576.893
104.5504, 9589.979
105.0325, 9597.052
105.5146, 9596.848
105.9967, 9585.465
106.4788, 9557.673
106.9609, 9528.531
107.4431, 9492.514
107.9252, 9456.530
108.4073, 9430.306
108.8894, 9417.253
109.3715, 9414.030
109.8536, 9415.922
110.3358, 9423.849
110.8179, 9431.084
111.3000, 9432.265
111.7821, 9428.215
112.2642, 9427.287
112.7463, 9434.231
113.2285, 9445.196
113.7106, 9456.271
114.1927, 9466.604
114.6748, 9477.366
115.1569, 9490.319
115.6390, 9506.444
116.1212, 9522.407
116.6033, 9536.988
117.0854, 9550.972
117.5675, 9564.681
118.0496, 9577.973
118.5317, 9591.553
119.0139, 9608.662
119.4960, 9625.465
119.9781, 9650.870
120.4602, 9688.824
120.9423, 9736.437
121.4244, 9790.402
121.9066, 9850.074
122.3887, 9917.440
122.8708, 9960.679
123.3529, 9980.002
123.8350, 9982.325
124.3171, 9963.478
124.7993, 9926.624
125.2814, 9885.698
125.7635, 9853.226
126.2456, 9830.672
126.7277, 9816.661
127.2098, 9813.616
127.6920, 9817.975
128.1741, 9825.476
128.6562, 9834.785
129.1383, 9849.338
129.6204, 9875.269
130.1025, 9911.025
130.5847, 9950.736
131.0668, 9993.170
131.5489, 10037.92
132.0310, 10083.34
132.5131, 10128.79
132.9952, 10176.12
133.4774, 10226.28
133.9595, 10279.35
134.4416, 10335.33
134.9237, 10400.00
135.4058, 10477.76
135.8879, 10535.82
136.3701, 10560.23
136.8522, 10567.72
137.3343, 10560.87
137.8164, 10541.30
138.2985, 10518.81
138.7806, 10506.71
139.2628, 10493.14
139.7449, 10517.26
140.2270, 10583.53
140.7091, 10680.98
141.1912, 10820.83
141.6733, 11007.02
142.1555, 11204.95
142.6376, 11291.56
143.1197, 11192.14
143.6018, 11054.31
144.0839, 10850.88
144.5660, 10622.42
145.0482, 10428.39
145.5303, 10304.28
146.0124, 10244.13
146.4945, 10200.34
146.9766, 10171.17
147.4587, 10155.49
147.9409, 10153.78
148.4230, 10165.55
148.9051, 10188.71
149.3872, 10222.36
149.8693, 10268.32
150.3514, 10325.14
150.8336, 10396.13
151.3157, 10475.97
151.7978, 10564.27
152.2799, 10663.26
152.7620, 10758.12
153.2441, 10849.86
153.7263, 10929.74
154.2084, 10976.79
154.6905, 10974.38
155.1726, 10935.30
155.6547, 10883.17
156.1368, 10807.63
156.6190, 10738.61
157.1011, 10684.04
157.5832, 10645.89
158.0653, 10627.95
158.5474, 10627.42
159.0295, 10646.05
159.5117, 10707.42
159.9938, 10825.22
160.4759, 10980.29
160.9580, 11175.60
161.4401, 11403.01
161.9222, 11646.42
162.4044, 11898.43
162.8865, 12169.64
163.3686, 12392.02
163.8507, 12572.67
164.3328, 12705.38
164.8149, 12777.66
165.2971, 12793.98
165.7792, 12768.98
166.2613, 12714.55
166.7434, 12607.83
167.2255, 12542.08
167.7076, 12498.19
168.1898, 12499.84
168.6719, 12568.76
169.1540, 12707.94
169.6361, 12898.48
170.1182, 13120.55
170.6003, 13396.25
171.0825, 13646.79
171.5646, 13881.67
172.0467, 14084.14
172.5288, 14232.67
173.0109, 14319.81
173.4930, 14360.25
173.9752, 14359.93
174.4573, 14311.83
174.9394, 14281.18
175.4215, 14273.18
175.9036, 14296.27
176.3857, 14365.93
176.8679, 14481.70
177.3500, 14661.25
177.8321, 14906.98
178.3142, 15212.82
178.7963, 15601.25
179.2784, 16095.46
179.7606, 16693.29
180.2427, 17363.27
180.7248, 18247.34
181.2069, 19059.51
181.6890, 19624.37
182.1711, 19934.20
182.6533, 19898.31
183.1354, 19313.54
183.6175, 18102.99
184.0996, 16953.88
184.5817, 15913.94
185.0638, 15055.29
185.5460, 14463.33
186.0281, 14152.88
186.5102, 14043.44
186.9923, 14032.48
187.4744, 14122.49
187.9565, 14316.69
188.4387, 14611.20
188.9208, 14995.06
189.4029, 15488.38
189.8850, 16093.37
190.3671, 16747.86
190.8492, 17371.13
191.3314, 18132.05
191.8135, 18532.00
192.2956, 18569.33
192.7777, 18273.41
193.2598, 17587.72
193.7419, 16502.71
194.2241, 15179.44
194.7062, 14007.22
195.1883, 12960.94
195.6704, 12125.09
196.1525, 11558.62
196.6346, 11188.13
197.1168, 10943.42
197.5989, 10796.36
198.0810, 10735.93
198.5631, 10737.94
199.0452, 10827.39
199.5273, 10940.07
200.0095, 11092.26
200.4916, 11257.87
200.9737, 11398.98
201.4558, 11501.91
201.9379, 11564.25
202.4200, 11575.37
202.9022, 11524.04
203.3843, 11456.62
203.8664, 11377.90
204.3485, 11293.75
204.8306, 11218.38
205.3127, 11152.70
205.7949, 11107.08
206.2770, 11099.37
206.7591, 11136.43
207.2412, 11190.87
207.7233, 11249.79
208.2054, 11313.66
208.6876, 11384.75
209.1697, 11468.46
209.6518, 11556.84
210.1339, 11637.38
210.6160, 11707.64
211.0981, 11774.67
211.5803, 11845.38
212.0624, 11919.66
212.5445, 11988.38
213.0266, 12038.46
213.5087, 12087.13
213.9908, 12144.25
214.4730, 12207.94
214.9551, 12296.79
215.4372, 12418.15
215.9193, 12565.43
216.4014, 12790.04
216.8836, 13132.60
217.3657, 13549.28
217.8478, 14058.34
218.3299, 14664.73
218.8120, 15262.36
219.2941, 15754.59
219.7763, 16212.85
220.2584, 16307.08
220.7405, 15798.09
221.2226, 15042.68
221.7047, 14212.50
222.1868, 13364.84
222.6690, 12558.02
223.1511, 11886.64
223.6332, 11373.43
224.1153, 10951.11
224.5974, 10615.66
225.0795, 10348.97
225.5617, 10149.21
226.0438, 10012.85
226.5259, 9922.779
227.0080, 9851.469
227.4901, 9806.417
227.9722, 9769.559
228.4544, 9744.668
228.9365, 9723.739
229.4186, 9700.802
229.9007, 9674.261
230.3828, 9646.721
230.8649, 9623.111
231.3471, 9606.989
231.8292, 9589.076
232.3113, 9568.329
232.7934, 9546.565
233.2755, 9524.194
233.7576, 9501.694
234.2398, 9480.563
234.7219, 9463.720
235.2040, 9453.871
235.6861, 9443.793
236.1682, 9438.073
236.6503, 9429.691
237.1325, 9411.137
237.6146, 9380.740
238.0967, 9343.946
238.5788, 9308.416
239.0609, 9274.313
239.5430, 9241.877
240.0252, 9210.784
240.5073, 9181.719
240.9894, 9155.193
241.4715, 9131.220
241.9536, 9110.835
242.4357, 9096.228
242.9179, 9089.145
243.4000, 9080.498
243.8821, 9067.356
244.3642, 9053.297
244.8463, 9042.640
245.3284, 9036.315
245.8106, 9031.324
246.2927, 9023.519
246.7748, 9012.656
247.2569, 9004.959
247.7390, 9003.606
248.2211, 9004.902
248.7033, 9004.513
249.1854, 9001.718
249.6675, 8997.881
250.1496, 8994.472
250.6317, 8991.287
251.1138, 8986.854
251.5960, 8981.326
252.0781, 8974.171
252.5602, 8963.065
253.0423, 8946.854
253.5244, 8932.494
254.0065, 8928.044
254.4887, 8930.668
254.9708, 8933.198
255.4529, 8934.881
255.9350, 8935.112
256.4171, 8931.775
256.8992, 8923.686
257.3813, 8917.239
257.8635, 8919.466
258.3456, 8926.315
258.8277, 8931.120
259.3098, 8929.604
259.7919, 8926.374
260.2740, 8928.842
260.7562, 8938.323
261.2383, 8947.584
261.7204, 8952.865
262.2025, 8955.291
262.6846, 8955.481
263.1667, 8952.230
263.6489, 8948.440
264.1310, 8949.381
264.6131, 8956.693
265.0952, 8961.542
265.5773, 8956.101
266.0594, 8947.763
266.5416, 8943.497
267.0237, 8945.613
267.5058, 8951.350
267.9879, 8957.407
268.4700, 8963.874
268.9521, 8970.546
269.4343, 8976.382
269.9164, 8983.064
270.3985, 8992.443
270.8806, 9005.157
271.3627, 9018.848
271.8448, 9028.854
272.3270, 9033.171
272.8091, 9044.407
273.2912, 9077.281
273.7733, 9110.619
274.2554, 9129.957
274.7375, 9133.159
275.2197, 9130.593
275.7018, 9133.995
276.1839, 9144.507
276.6660, 9153.217
277.1481, 9159.619
277.6302, 9163.103
278.1124, 9158.943
278.5945, 9148.878
279.0766, 9143.607
279.5587, 9157.282
280.0408, 9192.968
280.5229, 9220.422
281.0051, 9228.413
281.4872, 9236.228
281.9693, 9252.656
282.4514, 9276.458
282.9335, 9301.125
283.4156, 9320.087
283.8978, 9333.120
284.3799, 9351.012
284.8620, 9374.707
285.3441, 9402.994
285.8262, 9433.953
286.3083, 9468.984
286.7905, 9511.167
287.2726, 9562.785
287.7547, 9623.411
288.2368, 9688.598
288.7189, 9761.345
289.2010, 9835.599
289.6832, 9910.034
290.1653, 9984.374
290.6474, 10060.83
291.1295, 10142.00
291.6116, 10223.08
292.0938, 10285.04
292.5759, 10334.89
293.0580, 10350.38
293.5401, 10324.34
294.0222, 10267.11
294.5043, 10185.86
294.9865, 10083.09
295.4686, 9967.221
295.9507, 9856.038
296.4328, 9738.135
296.9149, 9648.493
297.3970, 9595.641
297.8792, 9565.483
298.3613, 9548.604
298.8434, 9541.353
299.3255, 9542.169
299.8076, 9548.379
300.2897, 9559.025
300.7719, 9578.113
301.2540, 9607.346
301.7361, 9642.342
302.2182, 9680.355
302.7003, 9721.016
303.1824, 9766.447
303.6646, 9819.622
304.1467, 9881.169
304.6288, 9948.029
305.1109, 10018.67
305.5930, 10095.90
306.0751, 10184.54
306.5573, 10281.98
307.0394, 10380.42
307.5215, 10473.98
308.0036, 10563.64
308.4857, 10641.24
308.9678, 10711.63
309.4500, 10764.42
309.9321, 10802.90
310.4142, 10820.94
310.8963, 10809.43
311.3784, 10763.30
311.8605, 10681.63
312.3427, 10558.54
312.8248, 10351.30
313.3069, 10147.90
313.7890, 9947.457
314.2711, 9764.810
314.7532, 9616.111
315.2354, 9510.543
315.7175, 9441.387
316.1996, 9391.713
316.6817, 9366.879
317.1638, 9355.536
317.6459, 9356.587
318.1281, 9368.454
318.6102, 9391.304
319.0923, 9424.777
319.5744, 9465.590
320.0565, 9507.268
320.5386, 9544.163
321.0208, 9595.873
321.5029, 9665.684
321.9850, 9745.783
322.4671, 9835.005
322.9492, 9931.504
323.4313, 10029.56
323.9135, 10124.73
324.3956, 10217.30
324.8777, 10304.59
325.3598, 10395.39
325.8419, 10472.89
326.3240, 10527.25
326.8062, 10562.20
327.2883, 10589.11
327.7704, 10616.17
328.2525, 10643.26
328.7346, 10668.43
329.2167, 10675.74
329.6989, 10700.83
330.1810, 10746.12
330.6631, 10815.55
331.1452, 10911.01
331.6273, 11032.15
332.1094, 11184.71
332.5916, 11386.33
333.0737, 11639.29
333.5558, 11944.93
334.0379, 12320.01
334.5200, 12730.41
335.0021, 13151.68
335.4843, 13575.79
335.9664, 13984.86
336.4485, 14349.93
336.9306, 14672.36
337.4127, 14946.78
337.8948, 15138.08
338.3770, 15310.61
338.8591, 15497.19
339.3412, 15703.34
339.8233, 15917.88
340.3055, 16138.07
340.7876, 16366.19
341.2697, 16568.47
341.7518, 16753.73
342.2339, 16898.39
342.7160, 17003.38
343.1982, 17061.68
343.6803, 17057.46
344.1624, 16968.63
344.6445, 16810.62
345.1266, 16650.42
345.6087, 16438.12
346.0909, 16313.16
346.5730, 16300.02
347.0551, 16390.14
347.5372, 16571.56
348.0193, 16840.44
348.5014, 17200.30
348.9836, 17663.10
349.4657, 18231.08
349.9478, 18889.57
350.4299, 19689.05
350.9120, 20546.87
351.3941, 21457.52
351.8763, 22411.85
352.3584, 23265.47
352.8405, 23945.03
353.3226, 24460.76
353.8047, 24513.52
354.2868, 23939.59
354.7690, 22970.30
355.2511, 21639.74
355.7332, 20026.84
356.2153, 18437.78
356.6974, 17015.49
357.1795, 15766.15
357.6617, 14721.00
358.1438, 13911.36
358.6259, 13263.63
359.1080, 12781.42
359.5901, 12416.13
360.0722, 12097.40
360.5544, 11810.49
361.0365, 11548.44
361.5186, 11295.38
362.0007, 11050.73
362.4828, 10829.37
362.9649, 10636.17
363.4471, 10472.05
363.9292, 10335.10
364.4113, 10224.54
364.8934, 10144.01
365.3755, 10104.61
365.8576, 10100.91
366.3398, 10104.97
366.8219, 10116.09
367.3040, 10124.65
367.7861, 10125.72
368.2682, 10119.18
368.7503, 10092.84
369.2325, 10037.69
369.7146, 9960.640
370.1967, 9867.354
370.6788, 9754.484
371.1609, 9647.936
371.6430, 9567.385
372.1252, 9509.972
372.6073, 9467.416
373.0894, 9449.161
373.5715, 9437.374
374.0536, 9422.269
374.5357, 9403.125
375.0179, 9374.304
375.5000, 9331.970
375.9821, 9279.270
376.4642, 9223.094
376.9463, 9161.613
377.4284, 9101.886
377.9106, 9045.654
378.3927, 8993.280
378.8748, 8944.783
379.3569, 8899.958
379.8390, 8861.009
380.3211, 8832.228
380.8033, 8815.928
381.2854, 8796.915
381.7675, 8777.119
382.2496, 8752.267
382.7317, 8717.681
383.2138, 8673.754
383.6960, 8625.480
384.1781, 8575.978
384.6602, 8525.346
385.1423, 8472.301
385.6244, 8414.552
386.1065, 8357.236
386.5887, 8300.141
387.0708, 8245.146
387.5529, 8194.965
388.0350, 8150.753
388.5171, 8111.835
388.9992, 8076.463
389.4814, 8043.035
389.9635, 8016.775
390.4456, 8003.850
390.9277, 7993.932
391.4098, 7977.534
391.8919, 7954.165
392.3741, 7930.703
392.8562, 7914.306
393.3383, 7905.532
393.8204, 7899.625
394.3025, 7901.396
394.7846, 7900.936
395.2668, 7892.580
395.7489, 7879.745
396.2310, 7869.186
396.7131, 7864.991
397.1952, 7865.193
397.6773, 7862.867
398.1595, 7856.148
398.6416, 7849.826
399.1237, 7845.668
399.6058, 7841.407
400.0879, 7834.298
400.5700, 7824.018
401.0522, 7813.711
401.5343, 7807.741
402.0164, 7807.171
402.4985, 7804.635
402.9806, 7796.747
403.4627, 7789.798
403.9449, 7787.638
404.4270, 7788.693
404.9091, 7788.737
405.3912, 7785.172
405.8733, 7778.659
406.3554, 7771.128
406.8376, 7762.110
407.3197, 7753.031
407.8018, 7744.501
408.2839, 7736.183
408.7660, 7727.776
409.2481, 7719.093
409.7303, 7710.570
410.2124, 7701.491
410.6945, 7692.163
411.1766, 7687.503
411.6587, 7692.275
412.1408, 7697.243
412.6230, 7693.095
413.1051, 7680.977
413.5872, 7668.814
414.0693, 7659.250
414.5514, 7651.946
415.0335, 7646.464
415.5157, 7642.769
415.9978, 7641.212
416.4799, 7644.248
416.9620, 7649.152
417.4441, 7647.972
417.9262, 7637.477
418.4084, 7624.718
418.8905, 7610.593
419.3726, 7597.185
419.8547, 7591.318
420.3368, 7596.572
420.8189, 7606.114
421.3011, 7609.198
421.7832, 7605.095
422.2653, 7598.306
422.7474, 7588.334
423.2295, 7576.555
423.7116, 7562.218
424.1938, 7546.305
424.6759, 7533.703
425.1580, 7528.761
425.6401, 7530.958
426.1222, 7530.416
426.6043, 7522.004
427.0865, 7517.170
427.5686, 7523.376
428.0507, 7533.351
428.5328, 7535.958
429.0149, 7527.053
429.4970, 7512.897
429.9792, 7504.539
430.4613, 7505.024
430.9434, 7504.758
431.4255, 7505.103
431.9076, 7503.698
432.3897, 7498.567
432.8719, 7490.338
433.3540, 7480.942
433.8361, 7471.244
434.3182, 7461.899
434.8003, 7458.155
435.2824, 7466.490
435.7646, 7470.492
436.2467, 7464.376
436.7288, 7453.320
437.2109, 7442.128
437.6930, 7432.268
438.1751, 7423.981
438.6573, 7418.400
439.1394, 7415.850
439.6215, 7410.812
440.1036, 7398.008
440.5857, 7387.740
441.0678, 7389.144
441.5500, 7399.174
442.0321, 7406.172
442.5142, 7402.190
442.9963, 7392.292
443.4784, 7385.420
443.9605, 7381.806
444.4427, 7379.526
444.9248, 7378.745
445.4069, 7378.193
445.8890, 7375.377
446.3711, 7369.023
446.8532, 7363.716
447.3354, 7364.118
447.8175, 7367.176
448.2996, 7365.494
448.7817, 7356.940
449.2638, 7346.716
449.7459, 7340.308
450.2281, 7337.994
450.7102, 7335.988
451.1923, 7335.435
451.6744, 7333.997
452.1565, 7329.587
452.6386, 7322.952
453.1208, 7316.380
453.6029, 7310.976
454.0850, 7306.570
454.5671, 7302.722
455.0492, 7299.203
455.5313, 7296.645
456.0135, 7297.104
456.4956, 7297.181
456.9777, 7293.409
457.4598, 7285.875
457.9419, 7277.681
458.4240, 7271.510
458.9062, 7267.399
459.3883, 7265.654
459.8704, 7270.399
460.3525, 7272.893
460.8346, 7268.708
461.3167, 7262.153
461.7989, 7259.796
462.2810, 7264.225
462.7631, 7269.599
463.2452, 7265.370
463.7273, 7249.167
464.2094, 7237.448
464.6916, 7237.258
465.1737, 7237.241
465.6558, 7228.825
466.1379, 7214.349
466.6200, 7203.040
467.1021, 7202.003
467.5843, 7206.421
468.0664, 7206.716
468.5485, 7202.461
469.0306, 7197.146
469.5127, 7192.094
469.9948, 7187.021
470.4770, 7181.470
470.9591, 7175.255
471.4412, 7169.407
471.9233, 7163.773
472.4054, 7159.069
472.8875, 7157.350
473.3697, 7159.178
473.8518, 7161.345
474.3339, 7161.480
474.8160, 7159.357
475.2981, 7154.122
475.7802, 7143.864
476.2624, 7132.594
476.7445, 7119.826
477.2266, 7107.567
477.7087, 7100.058
478.1908, 7098.945
478.6729, 7101.237
479.1551, 7101.663
479.6372, 7099.537
480.1193, 7096.836
480.6014, 7094.549
481.0835, 7090.841
481.5656, 7082.964
482.0478, 7072.674
482.5299, 7064.710
483.0120, 7062.532
483.4941, 7064.421
483.9762, 7064.201
484.4583, 7062.281
484.9405, 7057.332
485.4226, 7045.360
485.9047, 7033.103
486.3868, 7026.971
486.8689, 7027.297
487.3510, 7027.820
487.8332, 7021.758
488.3153, 7011.018
488.7974, 7005.495
489.2795, 7007.663
489.7616, 7009.811
490.2437, 7007.153
490.7259, 7001.403
491.2080, 6994.305
491.6901, 6984.468
492.1722, 6976.719
492.6543, 6976.652
493.1364, 6981.567
493.6186, 6983.325
494.1007, 6979.445
494.5828, 6973.752
495.0649, 6970.877
495.5470, 6971.227
496.0291, 6969.253
496.5113, 6961.895
496.9934, 6954.875
497.4755, 6953.527
497.9576, 6955.209
498.4397, 6952.841
498.9218, 6942.902
499.4040, 6928.634
499.8861, 6917.282
500.3682, 6909.927
500.8503, 6903.868
501.3324, 6899.064
501.8145, 6895.371
502.2967, 6893.368
502.7788, 6892.444
503.2609, 6890.836
503.7430, 6887.021
504.2251, 6881.905
504.7072, 6879.676
505.1894, 6882.874
505.6715, 6883.047
506.1536, 6875.683
506.6357, 6866.090
507.1178, 6857.521
507.5999, 6850.601
508.0821, 6846.087
508.5642, 6847.592
509.0463, 6851.913
509.5284, 6847.813
510.0105, 6832.521
510.4926, 6818.567
510.9748, 6815.408
511.4569, 6818.734
511.9390, 6817.919
512.4211, 6810.246
512.9032, 6802.385
513.3853, 6796.415
513.8674, 6792.725
514.3495, 6793.594
514.8317, 6799.477
515.3138, 6804.361
515.7959, 6801.646
516.2780, 6790.612
516.7601, 6782.081
517.2422, 6778.960
517.7244, 6774.592
518.2065, 6764.926
518.6886, 6753.234
519.1707, 6744.423
519.6528, 6740.214
520.1349, 6738.422
520.6171, 6735.793
521.0992, 6731.969
521.5813, 6728.995
522.0634, 6729.521
522.5455, 6728.290
523.0276, 6723.326
523.5098, 6715.235
523.9919, 6704.612
524.4740, 6690.583
524.9561, 6677.241
525.4382, 6670.278
525.9203, 6669.771
526.4025, 6673.779
526.8846, 6685.772
527.3667, 6696.834
527.8488, 6696.874
528.3309, 6687.581
528.8130, 6679.613
529.2952, 6678.052
529.7773, 6677.599
530.2594, 6672.338
530.7415, 6663.438
531.2236, 6656.980
531.7057, 6656.140
532.1879, 6657.727
532.6700, 6655.305
533.1521, 6645.236
533.6342, 6639.630
534.1163, 6644.063
534.5984, 6648.487
535.0806, 6645.667
535.5627, 6636.974
536.0448, 6627.844
536.5269, 6621.632
537.0090, 6617.411
537.4911, 6612.559
537.9733, 6606.917
538.4554, 6600.826
538.9375, 6592.480
539.4196, 6585.203
539.9017, 6582.071
540.3839, 6582.266
540.8660, 6581.790
541.3481, 6577.969
541.8302, 6571.838
542.3123, 6565.883
542.7944, 6560.336
543.2766, 6552.875
543.7587, 6539.709
544.2408, 6526.773
544.7229, 6523.337
545.2050, 6530.515
545.6871, 6536.739
546.1693, 6539.107
546.6514, 6537.928
547.1335, 6531.313
547.6156, 6520.439
548.0977, 6512.290
548.5798, 6511.608
549.0620, 6515.870
549.5441, 6516.618
550.0262, 6510.783
550.5083, 6505.189
550.9904, 6498.460
551.4725, 6492.943
551.9547, 6490.914
552.4368, 6491.921
552.9189, 6493.806
553.4010, 6495.254
553.8831, 6496.019
554.3652, 6495.215
554.8474, 6493.149
555.3295, 6488.837
555.8116, 6477.858
556.2937, 6467.504
556.7758, 6465.362
557.2579, 6470.961
557.7401, 6473.497
558.2222, 6462.623
558.7043, 6446.230
559.1864, 6438.792
559.6685, 6440.758
560.1506, 6443.039
560.6328, 6441.455
561.1149, 6437.255
561.5970, 6433.146
562.0791, 6429.709
562.5612, 6424.525
563.0433, 6415.118
563.5255, 6405.271
564.0076, 6397.901
564.4897, 6393.081
564.9718, 6389.548
565.4539, 6386.537
565.9360, 6384.141
566.4182, 6383.104
566.9003, 6386.929
567.3824, 6385.395
567.8645, 6372.235
568.3466, 6358.959
568.8287, 6353.778
569.3109, 6355.405
569.7930, 6357.124
570.2751, 6354.861
570.7572, 6349.971
571.2393, 6344.787
571.7214, 6339.199
572.2036, 6334.908
572.6857, 6333.237
573.1678, 6332.273
573.6499, 6329.957
574.1320, 6326.327
574.6141, 6321.590
575.0963, 6314.040
575.5784, 6306.791
576.0605, 6302.627
576.5426, 6301.141
577.0247, 6300.875
577.5068, 6301.315
577.9890, 6301.832
578.4711, 6301.461
578.9532, 6301.347
579.4353, 6297.210
579.9174, 6283.178
580.3995, 6271.509
580.8817, 6271.136
581.3638, 6277.034
581.8459, 6278.523
582.3280, 6270.195
582.8101, 6258.422
583.2922, 6254.474
583.7744, 6259.102
584.2565, 6260.232
584.7386, 6254.061
585.2207, 6247.232
585.7029, 6245.128
586.1850, 6245.993
586.6671, 6245.365
587.1492, 6241.661
587.6313, 6236.804
588.1135, 6232.485
588.5956, 6228.025
589.0777, 6221.271
589.5598, 6211.620
590.0419, 6201.775
