##NAMES=Realgar
##RRUFFID=R060106
##IDEAL CHEMISTRY=AsS
##LOCALITY=Humboldt County, Nevada, USA
##OWNER=RRUFF
##SOURCE=University of Arizona Mineral Museum
##DESCRIPTION=Red incrustation with some prismatic crystals
##STATUS=The identification of this mineral has been confirmed by X-ray diffraction and chemical analysis
##URL=rruff.info/R060106
##MEASURED CHEMISTRY=As_1.06_S_0.94_
92.02539, 3201.918
92.50751, 3184.442
92.98962, 3199.369
93.47174, 3222.549
93.95386, 3253.612
94.43597, 3267.126
94.91809, 3256.019
95.40021, 3228.808
95.88232, 3200.175
96.36444, 3167.209
96.84656, 3137.135
97.32867, 3114.099
97.81078, 3096.810
98.29290, 3082.511
98.77502, 3066.844
99.25713, 3044.341
99.73925, 3027.147
100.2214, 3010.991
100.7035, 3002.879
101.1856, 3008.959
101.6677, 3027.653
102.1498, 3050.273
102.6320, 3066.454
103.1141, 3072.939
103.5962, 3079.927
104.0783, 3093.892
104.5604, 3105.650
105.0425, 3103.582
105.5247, 3083.048
106.0068, 3051.934
106.4889, 3021.085
106.9710, 2989.018
107.4531, 2961.274
107.9352, 2940.895
108.4173, 2927.089
108.8995, 2915.148
109.3816, 2899.425
109.8637, 2888.563
110.3458, 2892.286
110.8279, 2913.687
111.3100, 2941.862
111.7922, 2962.924
112.2743, 2973.139
112.7564, 2988.112
113.2385, 3015.594
113.7206, 3047.885
114.2027, 3077.786
114.6849, 3101.374
115.1670, 3122.111
115.6491, 3151.592
116.1312, 3193.208
116.6133, 3241.667
117.0954, 3291.630
117.5776, 3348.077
118.0597, 3415.539
118.5418, 3495.496
119.0239, 3587.780
119.5060, 3728.657
119.9881, 3912.629
120.4703, 4137.550
120.9524, 4426.280
121.4345, 4765.199
121.9166, 5113.092
122.3987, 5450.847
122.8808, 5777.970
123.3630, 5945.074
123.8451, 5909.764
124.3272, 5737.102
124.8093, 5456.069
125.2914, 5055.634
125.7735, 4635.551
126.2557, 4299.389
126.7378, 4033.105
127.2199, 3829.661
127.7020, 3701.028
128.1841, 3636.638
128.6662, 3606.892
129.1483, 3615.177
129.6305, 3652.423
130.1126, 3710.800
130.5947, 3788.941
131.0768, 3875.621
131.5589, 3963.994
132.0410, 4054.791
132.5232, 4141.140
133.0053, 4217.529
133.4874, 4292.884
133.9695, 4367.687
134.4516, 4443.571
134.9337, 4526.589
135.4159, 4624.065
135.8980, 4727.373
136.3801, 4868.244
136.8622, 5023.837
137.3443, 5222.051
137.8264, 5465.403
138.3086, 5757.509
138.7907, 6130.601
139.2728, 6668.909
139.7549, 7372.679
140.2370, 8261.291
140.7191, 9598.986
141.2013, 11085.08
141.6834, 12348.23
142.1655, 13235.07
142.6476, 13670.72
143.1297, 13311.76
143.6118, 11679.70
144.0939, 9947.786
144.5761, 8460.705
145.0582, 7228.303
145.5403, 6292.794
146.0224, 5745.667
146.5045, 5532.303
146.9866, 5373.258
147.4688, 5267.785
147.9509, 5207.907
148.4330, 5184.686
148.9151, 5196.850
149.3972, 5254.458
149.8793, 5380.741
150.3615, 5554.157
150.8436, 5759.532
151.3257, 6000.368
151.8078, 6265.066
152.2899, 6526.719
152.7720, 6794.944
153.2542, 7044.931
153.7363, 7260.409
154.2184, 7456.302
154.7005, 7655.651
155.1826, 7867.124
155.6647, 8092.507
156.1469, 8346.880
156.6290, 8613.244
157.1111, 8932.056
157.5932, 9285.463
158.0753, 9698.068
158.5574, 10204.08
159.0396, 10822.52
159.5217, 11542.31
160.0038, 12499.52
160.4859, 13657.77
160.9680, 15042.24
161.4501, 16733.08
161.9323, 18689.04
162.4144, 20793.25
162.8965, 22957.18
163.3786, 25292.25
163.8607, 27119.92
164.3428, 28602.39
164.8250, 29529.66
165.3071, 29614.59
165.7892, 28843.01
166.2713, 27609.46
166.7534, 26223.12
167.2355, 24608.26
167.7177, 23518.09
168.1998, 23090.18
168.6819, 23207.20
169.1640, 23794.22
169.6461, 24889.33
170.1282, 26254.59
170.6104, 27711.94
171.0925, 29247.70
171.5746, 30628.34
172.0567, 31796.65
172.5388, 32739.95
173.0209, 33399.98
173.5031, 33689.96
173.9852, 33770.08
174.4673, 33715.95
174.9494, 33552.82
175.4315, 33534.64
175.9136, 33726.51
176.3958, 34137.84
176.8779, 35082.02
177.3600, 36556.36
177.8421, 38719.34
178.3242, 41609.27
178.8063, 45247.77
179.2885, 49614.54
179.7706, 55011.63
180.2527, 61854.63
180.7348, 67941.61
181.2169, 74708.49
181.6990, 79573.95
182.1812, 80861.64
182.6633, 78403.92
183.1454, 73300.23
183.6275, 66644.80
184.1096, 56715.48
184.5917, 49004.64
185.0738, 43439.14
185.5560, 39647.21
186.0381, 37596.56
186.5202, 37201.99
187.0023, 38157.35
187.4844, 39946.12
187.9665, 42681.65
188.4487, 46295.55
188.9308, 51087.98
189.4129, 56533.36
189.8950, 62596.66
190.3771, 69205.11
190.8592, 75507.43
191.3414, 79886.80
191.8235, 83107.86
192.3056, 82854.23
192.7877, 77497.63
193.2698, 68890.12
193.7519, 58865.97
194.2341, 47722.43
194.7162, 36610.95
195.1983, 28028.43
195.6804, 21856.52
196.1625, 17151.57
196.6446, 13970.13
197.1268, 12043.39
197.6089, 10803.44
198.0910, 10163.73
198.5731, 10023.99
199.0552, 10215.16
199.5373, 10758.07
200.0195, 11421.12
200.5016, 12196.30
200.9837, 13034.31
201.4658, 13670.65
201.9479, 13996.85
202.4300, 14097.11
202.9122, 14059.42
203.3943, 13871.58
203.8764, 13691.28
204.3585, 13620.01
204.8406, 13657.26
205.3227, 13804.70
205.8048, 14060.33
206.2870, 14446.00
206.7691, 14993.97
207.2512, 15705.31
207.7333, 16507.57
208.2154, 17348.07
208.6975, 18241.92
209.1797, 19083.36
209.6618, 19849.37
210.1439, 20560.28
210.6260, 21215.11
211.1081, 21815.39
211.5902, 22368.98
212.0724, 22861.29
212.5545, 23232.37
213.0366, 23720.84
213.5187, 24196.01
214.0008, 24877.14
214.4829, 25824.25
214.9651, 27082.12
215.4472, 28775.78
215.9293, 31080.58
216.4114, 34032.68
216.8935, 37639.30
217.3756, 42299.73
217.8578, 47204.11
218.3399, 52502.48
218.8220, 57911.69
219.3041, 62223.74
219.7862, 63540.50
220.2683, 60931.74
220.7505, 56579.38
221.2326, 49269.46
221.7147, 41162.48
222.1968, 33609.39
222.6789, 27028.07
223.1610, 21425.04
223.6432, 16830.47
224.1253, 13565.76
224.6074, 10913.80
225.0895, 9028.749
225.5716, 7651.509
226.0537, 6632.586
226.5358, 5920.630
227.0180, 5418.487
227.5001, 5009.295
227.9822, 4716.824
228.4643, 4460.942
228.9464, 4249.999
229.4285, 4068.226
229.9107, 3902.775
230.3928, 3750.889
230.8749, 3614.927
231.3570, 3502.770
231.8391, 3415.750
232.3212, 3335.039
232.8034, 3256.469
233.2855, 3183.595
233.7676, 3121.511
234.2497, 3071.579
234.7318, 3029.901
235.2139, 2995.406
235.6961, 2967.125
236.1782, 2937.101
236.6603, 2901.370
237.1424, 2863.337
237.6245, 2828.548
238.1066, 2798.331
238.5888, 2768.454
239.0709, 2732.949
239.5530, 2693.867
240.0351, 2657.525
240.5172, 2627.500
240.9993, 2601.255
241.4815, 2574.089
241.9636, 2545.062
242.4457, 2516.496
242.9278, 2490.685
243.4099, 2466.530
243.8920, 2441.874
244.3742, 2417.358
244.8563, 2391.573
245.3384, 2360.115
245.8205, 2319.979
246.3026, 2281.083
246.7847, 2250.128
247.2668, 2223.922
247.7490, 2197.486
248.2311, 2167.867
248.7132, 2137.003
249.1953, 2109.111
249.6774, 2084.944
250.1595, 2062.615
250.6417, 2042.804
251.1238, 2023.768
251.6059, 2002.782
252.0880, 1977.530
252.5701, 1950.934
253.0522, 1930.355
253.5344, 1918.354
254.0165, 1907.908
254.4986, 1895.357
254.9807, 1883.470
255.4628, 1875.720
255.9449, 1874.035
256.4271, 1875.890
256.9092, 1875.321
257.3913, 1870.877
257.8734, 1866.682
258.3555, 1863.671
258.8376, 1861.223
259.3198, 1858.473
259.8019, 1855.078
260.2840, 1851.956
260.7661, 1850.944
261.2482, 1852.050
261.7303, 1855.601
262.2125, 1864.150
262.6946, 1873.262
263.1767, 1878.304
263.6588, 1878.074
264.1409, 1876.236
264.6230, 1879.808
265.1052, 1893.433
265.5873, 1903.383
266.0694, 1906.679
266.5515, 1908.242
267.0336, 1910.883
267.5157, 1915.545
267.9979, 1922.346
268.4800, 1931.763
268.9621, 1945.398
269.4442, 1958.207
269.9263, 1970.310
270.4084, 1981.703
270.8906, 1991.268
271.3727, 1999.449
271.8548, 2008.785
272.3369, 2022.896
272.8190, 2044.317
273.3011, 2061.701
273.7833, 2071.416
274.2654, 2080.929
274.7475, 2095.341
275.2296, 2114.176
275.7117, 2132.747
276.1938, 2146.038
276.6760, 2152.628
277.1581, 2162.927
277.6402, 2178.312
278.1223, 2195.209
278.6044, 2214.179
279.0865, 2233.736
279.5686, 2249.882
280.0508, 2258.929
280.5329, 2260.654
281.0150, 2265.190
281.4971, 2271.636
281.9792, 2281.097
282.4613, 2294.029
282.9435, 2310.310
283.4256, 2329.614
283.9077, 2351.698
284.3898, 2376.697
284.8719, 2404.774
285.3540, 2439.296
285.8362, 2472.722
286.3183, 2506.287
286.8004, 2537.077
287.2825, 2559.725
287.7646, 2571.171
288.2467, 2573.535
288.7289, 2573.992
289.2110, 2575.778
289.6931, 2572.021
290.1752, 2556.670
290.6573, 2536.422
291.1394, 2521.644
291.6216, 2516.589
292.1037, 2516.029
292.5858, 2508.858
293.0679, 2490.897
293.5500, 2474.500
294.0321, 2461.219
294.5143, 2449.937
294.9964, 2439.884
295.4785, 2430.791
295.9606, 2421.917
296.4427, 2412.507
296.9248, 2403.298
297.4070, 2390.543
297.8891, 2367.779
298.3712, 2345.181
298.8533, 2331.747
299.3354, 2328.821
299.8175, 2332.060
300.2997, 2336.907
300.7818, 2343.244
301.2639, 2356.924
301.7460, 2380.617
302.2281, 2409.197
302.7102, 2438.393
303.1924, 2468.587
303.6745, 2504.643
304.1566, 2550.922
304.6387, 2607.427
305.1208, 2666.550
305.6029, 2724.871
306.0851, 2788.914
306.5672, 2861.421
307.0493, 2942.307
307.5314, 3031.859
308.0135, 3131.490
308.4956, 3238.993
308.9778, 3343.045
309.4599, 3444.743
309.9420, 3542.647
310.4241, 3637.705
310.9062, 3728.460
311.3883, 3808.333
311.8705, 3872.356
312.3526, 3930.261
312.8347, 4003.444
313.3168, 4095.070
313.7989, 4191.532
314.2810, 4279.569
314.7632, 4374.549
315.2453, 4497.125
315.7274, 4652.622
316.2095, 4834.884
316.6916, 5035.697
317.1737, 5252.623
317.6559, 5507.779
318.1380, 5804.056
318.6201, 6138.876
319.1022, 6504.530
319.5843, 6902.710
320.0664, 7347.280
320.5485, 7852.271
321.0306, 8422.758
321.5128, 9044.827
321.9949, 9729.960
322.4770, 10457.37
322.9591, 11233.51
323.4412, 12045.60
323.9233, 12865.04
324.4055, 13677.25
324.8876, 14477.09
325.3697, 15194.00
325.8518, 15874.24
326.3339, 16441.74
326.8160, 16852.59
327.2982, 17131.29
327.7803, 17318.94
328.2624, 17421.02
328.7445, 17475.38
329.2266, 17575.78
329.7087, 17648.16
330.1909, 17883.67
330.6730, 18250.50
331.1551, 18823.74
331.6372, 19674.35
332.1193, 20821.38
332.6014, 22308.00
333.0836, 24218.42
333.5657, 26622.01
334.0478, 29352.36
334.5299, 32581.24
335.0120, 36002.73
335.4941, 39504.01
335.9763, 43002.29
336.4584, 46312.05
336.9405, 49233.34
337.4226, 51742.54
337.9047, 54041.14
338.3868, 56059.92
338.8690, 57983.71
339.3511, 59957.88
339.8332, 61935.33
340.3153, 63760.46
340.7974, 65356.43
341.2795, 66705.73
341.7617, 67631.36
342.2438, 68308.92
342.7259, 68436.95
343.2080, 67817.16
343.6901, 66635.42
344.1722, 65000.73
344.6544, 62944.50
345.1365, 60833.43
345.6186, 59419.24
346.1007, 58606.05
346.5828, 58817.16
347.0649, 59986.65
347.5471, 62225.22
348.0292, 65688.52
348.5113, 70358.83
348.9934, 76127.51
349.4755, 82857.88
349.9576, 90782.44
350.4398, 98940.49
350.9219, 108134.4
351.4040, 116813.3
351.8861, 125205.5
352.3682, 132475.8
352.8503, 136858.4
353.3325, 137060.2
353.8146, 133115.0
354.2967, 125068.3
354.7788, 109658.4
355.2609, 93936.02
355.7430, 78104.13
356.2252, 63197.81
356.7073, 50361.62
357.1894, 40178.63
357.6715, 32353.01
358.1536, 26077.06
358.6357, 21956.56
359.1179, 18667.86
359.5999, 16322.21
360.0821, 14596.48
360.5642, 13328.73
361.0463, 12438.01
361.5284, 11836.78
362.0105, 11420.39
362.4926, 11198.83
362.9748, 11135.82
363.4569, 11278.48
363.9390, 11522.64
364.4211, 11860.45
364.9032, 12267.89
365.3853, 12704.04
365.8675, 13150.69
366.3496, 13598.68
366.8317, 13965.60
367.3138, 14326.07
367.7959, 14487.34
368.2780, 14404.93
368.7602, 14113.13
369.2423, 13612.55
369.7244, 12897.78
370.2065, 12086.22
370.6886, 11391.24
371.1707, 10803.63
371.6529, 10371.33
372.1350, 10174.00
372.6171, 10067.89
373.0992, 9995.390
373.5813, 9933.453
374.0634, 9833.843
374.5456, 9654.196
375.0277, 9395.024
375.5098, 9055.127
375.9919, 8583.135
376.4740, 8079.831
376.9561, 7573.999
377.4383, 7073.620
377.9204, 6596.673
378.4025, 6148.134
378.8846, 5729.810
379.3667, 5344.447
379.8488, 4993.190
380.3310, 4673.377
380.8131, 4387.060
381.2952, 4128.910
381.7773, 3897.898
382.2594, 3695.212
382.7415, 3512.516
383.2237, 3344.928
383.7058, 3192.049
384.1879, 3045.534
384.6700, 2902.195
385.1521, 2766.898
385.6342, 2640.499
386.1164, 2523.880
386.5985, 2417.756
387.0806, 2324.439
387.5627, 2242.801
388.0448, 2169.514
388.5269, 2104.415
389.0091, 2048.301
389.4912, 2006.192
389.9733, 1973.462
390.4554, 1940.411
390.9375, 1901.563
391.4196, 1864.948
391.9018, 1838.388
392.3839, 1821.167
392.8660, 1808.166
393.3481, 1798.613
393.8302, 1790.723
394.3123, 1781.496
394.7945, 1771.788
395.2766, 1758.508
395.7587, 1736.696
396.2408, 1711.458
396.7229, 1691.630
397.2050, 1679.095
397.6872, 1671.164
398.1693, 1665.820
398.6514, 1663.389
399.1335, 1659.191
399.6156, 1651.202
400.0977, 1642.800
400.5798, 1635.891
401.0620, 1630.630
401.5441, 1627.280
402.0262, 1626.535
402.5083, 1627.414
402.9904, 1624.827
403.4725, 1616.362
403.9547, 1607.990
404.4368, 1600.276
404.9189, 1593.466
405.4010, 1588.546
405.8831, 1585.711
406.3652, 1582.828
406.8474, 1576.096
407.3295, 1561.524
407.8116, 1555.453
408.2937, 1566.510
408.7758, 1577.415
409.2579, 1577.829
409.7401, 1569.093
410.2222, 1558.466
410.7043, 1551.072
411.1864, 1546.580
411.6685, 1541.769
412.1506, 1535.554
412.6328, 1530.428
413.1149, 1528.662
413.5970, 1527.309
414.0791, 1522.773
414.5612, 1513.914
415.0433, 1503.095
415.5255, 1494.013
416.0076, 1487.219
416.4897, 1480.125
416.9718, 1471.573
417.4539, 1463.590
417.9360, 1458.346
418.4182, 1454.789
418.9003, 1449.619
419.3824, 1440.567
419.8645, 1427.963
420.3466, 1412.663
420.8287, 1393.403
421.3109, 1374.202
421.7930, 1358.975
422.2751, 1343.852
422.7572, 1323.591
423.2393, 1295.893
423.7214, 1267.149
424.2036, 1244.828
424.6857, 1228.713
425.1678, 1212.017
425.6499, 1193.758
426.1320, 1173.803
426.6141, 1151.156
427.0963, 1126.306
427.5784, 1102.742
428.0605, 1081.738
428.5426, 1062.950
429.0247, 1045.876
429.5068, 1030.347
429.9890, 1017.199
430.4711, 1007.649
430.9532, 1000.939
431.4353, 993.8429
431.9174, 984.4944
432.3995, 977.5078
432.8817, 977.1279
433.3638, 980.6092
433.8459, 982.1476
434.3280, 979.8926
434.8101, 975.5494
435.2922, 970.9816
435.7744, 965.6178
436.2565, 962.8822
436.7386, 964.8309
437.2207, 967.8800
437.7028, 968.0526
438.1849, 966.5602
438.6671, 969.1294
439.1492, 980.2377
439.6313, 997.9357
440.1134, 1010.493
440.5955, 1014.904
441.0776, 1017.778
441.5598, 1019.696
442.0418, 1020.456
442.5240, 1018.364
443.0061, 1013.608
443.4882, 1010.322
443.9703, 1015.333
444.4524, 1032.392
444.9345, 1040.160
445.4167, 1031.354
445.8988, 1020.283
446.3809, 1010.329
446.8630, 1002.033
447.3451, 995.6530
447.8272, 991.7991
448.3094, 989.0112
448.7915, 983.2430
449.2736, 973.1411
449.7557, 963.9196
450.2378, 956.6469
450.7199, 950.8092
451.2021, 946.1422
451.6842, 942.6097
452.1663, 940.2972
452.6484, 940.3336
453.1305, 941.8947
453.6126, 940.9058
454.0948, 936.0341
454.5769, 931.2424
455.0590, 930.3693
455.5411, 931.3018
456.0232, 930.1530
456.5053, 924.9141
456.9875, 918.9829
457.4696, 915.8655
457.9517, 914.7601
458.4338, 911.6573
458.9159, 904.7248
459.3980, 896.2322
459.8802, 890.0878
460.3623, 886.7582
460.8444, 881.0891
461.3265, 870.3073
461.8086, 858.0833
462.2907, 847.8369
462.7729, 839.5358
463.2550, 830.8441
463.7371, 819.6730
464.2192, 807.0424
464.7013, 798.6163
465.1834, 798.2496
465.6656, 796.8617
466.1477, 793.8427
466.6298, 788.8129
467.1119, 779.8063
467.5940, 767.0726
468.0761, 755.4431
468.5583, 751.3627
469.0404, 756.5575
469.5225, 757.9252
470.0046, 750.6405
470.4867, 744.4874
470.9688, 742.8051
471.4510, 744.1826
471.9331, 746.5279
472.4152, 749.0477
472.8973, 750.7604
473.3794, 749.1642
473.8615, 743.1179
474.3437, 738.6424
474.8258, 738.3805
475.3079, 738.8129
475.7900, 737.6827
476.2721, 735.1406
476.7542, 732.7310
477.2364, 731.9564
477.7185, 731.8751
478.2006, 729.6606
478.6827, 724.7029
479.1648, 721.4071
479.6469, 723.3868
480.1291, 727.8937
480.6112, 730.1201
481.0933, 729.7988
481.5754, 727.4068
482.0575, 720.9406
482.5396, 713.0732
483.0217, 708.9276
483.5038, 709.5804
483.9860, 712.7007
484.4681, 716.7911
484.9502, 721.8521
485.4323, 724.3370
485.9144, 721.9666
486.3965, 719.6052
486.8787, 719.6593
487.3608, 721.1010
487.8429, 721.7589
488.3250, 720.7646
488.8071, 719.2495
489.2892, 719.0972
489.7714, 719.9771
490.2535, 723.2322
490.7356, 732.5498
491.2177, 740.4159
491.6998, 741.8801
492.1819, 738.6530
492.6641, 735.5316
493.1462, 735.5986
493.6283, 737.6862
494.1104, 738.3288
494.5925, 737.0070
495.0746, 735.6493
495.5568, 734.1259
496.0389, 733.1398
496.5210, 733.5328
497.0031, 735.2313
497.4852, 736.9225
497.9673, 737.7968
498.4495, 737.9501
498.9316, 737.3922
499.4137, 735.8829
499.8958, 734.7155
500.3779, 733.8126
500.8600, 734.1273
501.3422, 737.7805
501.8243, 746.7837
502.3064, 754.9694
502.7885, 759.1534
503.2706, 760.5188
503.7527, 760.4339
504.2349, 759.1462
504.7170, 759.0287
505.1991, 762.6674
505.6812, 770.3533
506.1633, 777.2903
506.6454, 783.7208
507.1276, 789.2380
507.6097, 793.6368
508.0918, 797.0524
508.5739, 799.8083
509.0560, 802.0031
509.5381, 803.1048
510.0203, 801.7247
510.5024, 796.1173
510.9845, 794.0284
511.4666, 800.8995
511.9487, 805.8976
512.4308, 802.0826
512.9130, 793.5695
513.3951, 789.0159
513.8772, 793.3358
514.3593, 802.1420
514.8414, 807.7548
515.3235, 809.9449
515.8057, 810.6849
516.2878, 809.0348
516.7699, 807.4376
517.2520, 808.3092
517.7341, 811.2997
518.2162, 813.8011
518.6984, 813.9667
519.1805, 813.4809
519.6626, 814.3527
520.1447, 816.5969
520.6268, 820.1113
521.1089, 825.5712
521.5911, 831.4363
522.0732, 833.8391
522.5553, 832.1589
523.0374, 829.7543
523.5195, 826.8917
524.0016, 823.7386
524.4838, 819.5204
524.9659, 814.8678
525.4480, 812.3761
525.9301, 814.1643
526.4122, 819.3368
526.8943, 823.4528
527.3765, 827.9901
527.8586, 828.9976
528.3407, 822.5485
528.8228, 815.1539
529.3049, 812.8315
529.7870, 815.6850
530.2692, 818.8051
530.7513, 817.6974
531.2334, 813.1253
531.7155, 809.5145
532.1976, 806.9734
532.6797, 805.1808
533.1619, 805.5211
533.6440, 805.8051
534.1261, 803.2731
534.6082, 797.1718
535.0903, 791.0975
535.5724, 787.1947
536.0546, 785.0068
536.5367, 783.7721
537.0188, 783.4594
537.5009, 783.2357
537.9830, 782.3121
538.4651, 780.9722
538.9473, 780.7529
539.4294, 783.7423
539.9115, 785.1227
540.3936, 781.1345
540.8757, 775.9330
541.3578, 775.1314
541.8400, 779.5538
542.3221, 785.5131
542.8042, 789.2984
543.2863, 790.8763
543.7684, 792.3615
544.2505, 791.5377
544.7326, 793.4388
545.2147, 802.0729
545.6968, 812.3627
546.1790, 818.3256
546.6611, 818.6140
547.1432, 817.2623
547.6253, 819.1752
548.1074, 823.8723
548.5895, 825.4245
549.0717, 822.5752
549.5538, 818.7997
550.0359, 815.6538
550.5180, 813.0321
551.0001, 810.9467
551.4822, 809.7659
551.9644, 808.2377
552.4465, 804.5611
552.9286, 800.1624
553.4107, 798.6221
553.8928, 800.7001
554.3749, 802.7799
554.8571, 801.7438
555.3392, 797.6141
555.8213, 792.2906
556.3034, 783.2939
556.7855, 776.2856
557.2676, 773.9932
557.7498, 773.8282
558.2319, 772.0623
558.7140, 768.1719
559.1961, 765.7099
559.6782, 769.6923
560.1603, 780.2445
560.6425, 784.3676
561.1246, 776.8617
561.6067, 770.3705
562.0888, 771.5819
562.5709, 774.4273
563.0530, 770.9412
563.5352, 759.0247
564.0173, 746.7427
564.4994, 742.1110
564.9815, 742.6934
565.4636, 739.7737
565.9457, 731.6722
566.4279, 724.6955
566.9100, 724.3491
567.3921, 728.2545
567.8742, 727.6154
568.3563, 718.8987
568.8384, 711.5597
569.3206, 710.7269
569.8027, 712.0496
570.2848, 709.4689
570.7669, 702.5632
571.2490, 695.9203
571.7311, 693.6599
572.2133, 695.3730
572.6954, 696.7632
573.1775, 699.7659
573.6596, 699.5769
574.1417, 692.6157
574.6238, 684.3521
575.1060, 680.0730
575.5881, 680.0005
576.0702, 679.8508
576.5523, 674.5911
577.0344, 666.5201
577.5165, 664.9363
577.9987, 671.2302
578.4808, 677.9855
578.9629, 682.6410
579.4450, 685.6213
579.9271, 687.8584
580.4092, 689.5052
580.8914, 689.4027
581.3735, 685.3788
581.8556, 680.4669
582.3377, 678.7481
582.8198, 679.8068
583.3019, 679.6296
583.7841, 675.7345
584.2662, 669.4620
584.7483, 664.5193
585.2304, 662.2681
585.7125, 659.0919
586.1946, 652.1993
586.6768, 646.8716
587.1589, 648.5161
587.6410, 654.5667
588.1231, 657.5272
588.6052, 652.4596
589.0873, 643.7051
