##NAMES=Realgar
##RRUFFID=R060107
##IDEAL CHEMISTRY=AsS
##LOCALITY=Shimen, Hunan Province, China
##OWNER=RRUFF
##SOURCE=University of Arizona Mineral Museum
##DESCRIPTION=Red prismatic crystals
##STATUS=The identification of this mineral has been confirmed by X-ray diffraction and chemical analysis
##URL=rruff.info/R060107
##MEASURED CHEMISTRY=As_0.99_S_1.01_
89.78156, 0.0000000E+00
90.26367, 1.048104
90.74579, 1.403561
91.22791, 1.230429
91.71002, 0.5912212
92.19214, 3.7081290E-02
92.67426, 0.2430556
93.15638, 0.9148940
93.63850, 1.247552
94.12061, 0.6332528
94.60273, -0.4067099
95.08485, -0.4965019
95.56696, 0.4738127
96.04908, 1.656132
96.53120, 1.944275
97.01331, 1.379565
97.49543, 0.8967074
97.97755, 1.024673
98.45966, 1.714993
98.94178, 2.041882
99.42390, 1.917758
99.90602, 1.546307
100.3881, 1.322395
100.8703, 1.290942
101.3524, 1.242779
101.8345, 1.004767
102.3166, 0.4718612
102.7987, 0.2197742
103.2808, 0.3449630
103.7630, 0.7788117
104.2451, 1.239158
104.7272, 1.819475
105.2093, 2.308398
105.6914, 2.567803
106.1735, 2.492932
106.6557, 2.358468
107.1378, 2.142197
107.6199, 1.835171
108.1020, 1.705529
108.5841, 2.005803
109.0662, 2.349923
109.5484, 2.395715
110.0305, 1.842169
110.5126, 1.290152
110.9947, 0.7600556
111.4768, 0.1693662
111.9590, -3.0843880E-02
112.4411, 2.0099960E-02
112.9232, 0.8012757
113.4053, 1.313232
113.8874, 1.570439
114.3695, 0.8098899
114.8517, 1.363597
115.3338, 1.390589
115.8159, 1.395984
116.2980, 2.134626
116.7801, 1.522107
117.2622, 2.249122
117.7444, 2.441454
118.2265, 2.878479
118.7086, 2.785571
119.1907, 2.721126
119.6728, 2.647842
120.1549, 2.752800
120.6371, 2.991362
121.1192, 3.183292
121.6013, 3.230765
122.0834, 3.172813
122.5655, 3.049124
123.0476, 2.842835
123.5298, 2.600807
124.0119, 2.238143
124.4940, 1.780319
124.9761, 1.586574
125.4582, 2.191643
125.9404, 3.263630
126.4225, 4.146816
126.9046, 4.399630
127.3867, 4.364854
127.8688, 4.650228
128.3509, 5.288957
128.8331, 5.924112
129.3152, 6.122316
129.7973, 5.952300
130.2794, 5.756634
130.7615, 5.818358
131.2436, 5.999408
131.7258, 5.507730
132.2079, 6.099761
132.6900, 6.576771
133.1721, 6.944940
133.6542, 6.878280
134.1364, 7.373173
134.6185, 7.642983
135.1006, 7.903566
135.5827, 8.477422
136.0648, 8.474005
136.5469, 8.673077
137.0291, 8.788833
137.5112, 9.075149
137.9933, 9.306336
138.4754, 9.257455
138.9575, 8.842276
139.4396, 8.715220
139.9218, 9.059253
140.4039, 9.743850
140.8860, 10.09314
141.3681, 9.968480
141.8502, 9.749531
142.3323, 9.739339
142.8145, 10.01403
143.2966, 10.30290
143.7787, 10.58024
144.2608, 10.84742
144.7429, 11.02693
145.2250, 10.97890
145.7072, 10.97140
146.1893, 11.28003
146.6714, 12.15819
147.1535, 12.97675
147.6356, 13.65633
148.1178, 14.21666
148.5999, 14.49299
149.0820, 14.32857
149.5641, 13.94383
150.0462, 13.59635
150.5283, 13.27720
151.0105, 13.00850
151.4926, 12.64234
151.9747, 12.19732
152.4568, 12.04360
152.9389, 12.38148
153.4210, 12.95971
153.9032, 13.43454
154.3853, 13.95710
154.8674, 14.21381
155.3495, 14.03415
155.8316, 13.12953
156.3137, 12.45307
156.7959, 12.27407
157.2780, 12.40527
157.7601, 12.49671
158.2422, 12.22322
158.7243, 12.07235
159.2065, 12.33683
159.6886, 13.45189
160.1707, 14.28955
160.6528, 14.42241
161.1349, 14.02584
161.6170, 13.55758
162.0992, 12.83267
162.5813, 12.29677
163.0634, 12.28109
163.5455, 13.25102
164.0276, 14.20897
164.5097, 14.76333
164.9919, 14.95338
165.4740, 14.92184
165.9561, 14.55375
166.4382, 14.08178
166.9203, 13.70773
167.4024, 13.46282
167.8846, 13.35562
168.3667, 13.36266
168.8488, 13.49306
169.3309, 13.81507
169.8130, 14.61609
170.2952, 15.56572
170.7773, 16.24468
171.2594, 16.44339
171.7415, 16.38213
172.2236, 16.18353
172.7057, 15.85582
173.1879, 15.52099
173.6700, 15.15589
174.1521, 14.85609
174.6342, 14.77954
175.1163, 15.12884
175.5984, 15.65934
176.0806, 16.09419
176.5627, 16.43522
177.0448, 16.73772
177.5269, 17.05537
178.0090, 17.37105
178.4911, 17.65284
178.9733, 17.83566
179.4554, 17.98852
179.9375, 18.26948
180.4196, 18.69531
180.9017, 19.07529
181.3838, 19.17511
181.8660, 19.05014
182.3481, 18.89861
182.8302, 18.85857
183.3123, 18.85355
183.7944, 18.67693
184.2766, 18.29855
184.7587, 17.87707
185.2408, 17.56243
185.7229, 17.35742
186.2050, 17.26482
186.6871, 17.49143
187.1693, 17.86999
187.6514, 17.38470
188.1335, 17.65315
188.6156, 17.75844
189.0977, 17.70933
189.5798, 17.04336
190.0620, 17.17391
190.5441, 16.98527
191.0262, 16.78354
191.5083, 17.66642
191.9904, 17.48852
192.4725, 16.87086
192.9547, 16.56428
193.4368, 16.57486
193.9189, 16.60922
194.4010, 16.47313
194.8831, 16.18313
195.3652, 16.02463
195.8474, 16.06126
196.3295, 16.16526
196.8116, 16.00400
197.2937, 15.53471
197.7758, 14.99866
198.2579, 15.28808
198.7401, 15.46247
199.2222, 15.52803
199.7043, 15.15875
200.1864, 15.35097
200.6685, 15.31816
201.1507, 15.27614
201.6328, 15.54738
202.1149, 15.24135
202.5970, 15.50762
203.0791, 15.54544
203.5612, 15.29010
204.0434, 15.05440
204.5255, 15.20252
205.0076, 15.84261
205.4897, 16.49384
205.9718, 16.85261
206.4539, 16.87760
206.9361, 16.85032
207.4182, 16.76348
207.9003, 16.65512
208.3824, 16.63990
208.8645, 16.71903
209.3466, 16.88855
209.8288, 17.18189
210.3109, 17.64865
210.7930, 18.01135
211.2751, 18.20035
211.7572, 18.27877
212.2393, 18.52790
212.7215, 19.05579
213.2036, 19.51223
213.6857, 19.56065
214.1678, 18.93013
214.6499, 18.85651
215.1320, 19.65185
215.6142, 21.07038
216.0963, 21.99095
216.5784, 22.21660
217.0605, 22.31548
217.5426, 22.68108
218.0247, 23.45944
218.5069, 24.04947
218.9890, 24.32738
219.4711, 24.37247
219.9532, 24.61359
220.4353, 25.25211
220.9175, 25.76120
221.3996, 25.74080
221.8817, 24.88943
222.3638, 24.31118
222.8459, 24.20457
223.3280, 24.46102
223.8102, 24.49880
224.2923, 24.11710
224.7744, 23.82377
225.2565, 23.97856
225.7386, 24.79999
226.2207, 25.54598
226.7029, 26.18884
227.1850, 26.71227
227.6671, 26.99754
228.1492, 27.00872
228.6313, 26.83396
229.1134, 26.47292
229.5956, 25.70005
230.0777, 25.25258
230.5598, 25.28852
231.0419, 25.70600
231.5240, 26.01609
232.0062, 26.23755
232.4883, 26.32784
232.9704, 26.27317
233.4525, 26.11957
233.9346, 25.69651
234.4167, 24.80108
234.8989, 23.60303
235.3810, 22.95206
235.8631, 23.21198
236.3452, 23.53014
236.8273, 23.39635
237.3094, 22.55880
237.7916, 21.81209
238.2737, 21.18688
238.7558, 20.68143
239.2379, 20.28117
239.7200, 20.01014
240.2021, 19.81097
240.6843, 19.67308
241.1664, 19.69330
241.6485, 19.55951
242.1306, 19.22238
242.6127, 18.72092
243.0948, 18.21244
243.5770, 17.70239
244.0591, 17.17643
244.5412, 16.60191
245.0233, 15.82874
245.5054, 15.35328
245.9876, 15.34538
246.4697, 15.62565
246.9518, 15.60240
247.4339, 15.09004
247.9160, 14.55011
248.3981, 14.19954
248.8803, 14.06689
249.3624, 14.06629
249.8445, 14.30482
250.3266, 14.64587
250.8087, 14.68726
251.2908, 14.25486
251.7730, 13.80237
252.2551, 13.55547
252.7372, 13.63918
253.2193, 13.59114
253.7014, 13.34059
254.1835, 12.98992
254.6657, 12.78262
255.1478, 12.78070
255.6299, 12.81345
256.1120, 12.82081
256.5941, 12.81332
257.0763, 12.74595
257.5584, 12.61220
258.0405, 12.42215
258.5226, 12.19304
259.0047, 11.60476
259.4868, 11.90599
259.9690, 12.04404
260.4511, 12.02769
260.9332, 11.39451
261.4153, 11.55785
261.8974, 11.40198
262.3795, 11.23302
262.8617, 11.50846
263.3438, 10.96498
263.8259, 11.23339
264.3080, 11.17770
264.7901, 11.27035
265.2722, 10.91304
265.7544, 11.22043
266.2365, 10.70890
266.7186, 11.00925
267.2007, 10.98551
267.6828, 11.11010
268.1649, 10.91350
268.6471, 10.81609
269.1292, 11.03998
269.6113, 11.08598
270.0934, 10.85241
270.5755, 10.98642
271.0576, 10.46367
271.5398, 10.51724
272.0219, 10.81946
272.5040, 10.60204
272.9861, 10.74192
273.4682, 10.74573
273.9503, 10.13109
274.4325, 10.59198
274.9146, 10.58774
275.3967, 10.10591
275.8788, 10.52995
276.3610, 10.11396
276.8431, 9.997806
277.3252, 10.10731
277.8073, 9.981575
278.2894, 10.22671
278.7715, 9.812093
279.2537, 10.22101
279.7358, 10.46675
280.2179, 10.55808
280.7000, 10.03257
281.1821, 10.30359
281.6642, 10.25540
282.1464, 10.19412
282.6285, 10.57725
283.1106, 10.14145
283.5927, 10.51754
284.0748, 10.56953
284.5569, 10.76985
285.0391, 10.64900
285.5212, 10.62734
286.0033, 10.92697
286.4854, 11.04870
286.9675, 10.99925
287.4496, 11.34347
287.9318, 11.64215
288.4139, 11.89734
288.8960, 12.05967
289.3781, 12.04175
289.8602, 11.88848
290.3423, 11.84116
290.8245, 11.94227
291.3066, 12.09870
291.7887, 12.15388
292.2708, 12.11890
292.7529, 12.09411
293.2350, 12.10549
293.7172, 12.05038
294.1993, 12.28183
294.6814, 12.44035
295.1635, 12.52989
295.6456, 12.34378
296.1277, 12.51361
296.6099, 12.54081
297.0920, 12.56215
297.5741, 12.78207
298.0562, 12.63606
298.5383, 12.91071
299.0204, 13.04067
299.5026, 13.13190
299.9847, 13.20030
300.4668, 13.29315
300.9489, 13.48323
301.4311, 13.67879
301.9132, 13.69382
302.3953, 13.53751
302.8774, 13.43358
303.3595, 13.61881
303.8416, 13.97181
304.3238, 14.29174
304.8059, 14.55347
305.2880, 14.70956
305.7701, 14.56156
306.2522, 14.17958
306.7343, 14.00004
307.2165, 13.94035
307.6986, 14.68781
308.1807, 15.16604
308.6628, 15.38953
309.1449, 14.59526
309.6270, 15.11521
310.1092, 15.10850
310.5913, 15.08018
311.0734, 15.78510
311.5555, 16.02939
312.0376, 16.39376
312.5197, 16.48484
313.0019, 16.60982
313.4840, 17.02727
313.9661, 17.60480
314.4482, 18.07541
314.9303, 18.25384
315.4124, 18.34174
315.8946, 18.47898
316.3767, 18.71133
316.8588, 18.84468
317.3409, 18.64225
317.8230, 18.33620
318.3051, 18.23270
318.7873, 18.64963
319.2694, 19.09031
319.7515, 19.33962
320.2336, 19.37289
320.7157, 19.39664
321.1978, 19.41085
321.6800, 19.46702
322.1621, 19.61197
322.6442, 19.93170
323.1263, 20.26170
323.6084, 20.52570
324.0905, 20.73457
324.5727, 21.06658
325.0548, 21.83641
325.5369, 22.54876
326.0190, 22.90217
326.5012, 22.36245
326.9833, 22.06025
327.4654, 22.20973
327.9475, 22.69711
328.4296, 23.06481
328.9117, 23.38112
329.3939, 23.51563
329.8760, 23.37689
330.3581, 22.60096
330.8402, 22.23245
331.3223, 22.50010
331.8044, 23.10882
332.2866, 23.44070
332.7687, 23.22943
333.2508, 23.13039
333.7329, 23.42286
334.2150, 24.26108
334.6971, 24.70880
335.1793, 24.54068
335.6614, 24.20467
336.1435, 24.31962
336.6256, 25.07410
337.1077, 25.79155
337.5898, 26.32358
338.0720, 26.67820
338.5541, 26.83488
339.0362, 26.76101
339.5183, 26.56857
340.0004, 26.29701
340.4825, 25.90318
340.9647, 25.73676
341.4468, 25.91189
341.9289, 26.32413
342.4110, 26.69102
342.8931, 27.02762
343.3752, 27.19923
343.8574, 26.99757
344.3395, 26.45512
344.8216, 26.11557
345.3037, 26.04423
345.7858, 26.17212
346.2679, 26.50171
346.7501, 27.01267
347.2322, 27.33618
347.7143, 27.07563
348.1964, 26.46042
348.6785, 26.24742
349.1607, 26.49112
349.6428, 26.57422
350.1249, 27.18408
350.6070, 27.52472
351.0891, 27.61061
351.5713, 26.67874
352.0534, 27.06109
352.5355, 26.91676
353.0176, 26.75084
353.4997, 27.31816
353.9818, 26.53433
354.4640, 26.26250
354.9461, 25.64255
355.4282, 25.14644
355.9103, 24.75491
356.3924, 24.52043
356.8745, 24.39839
357.3567, 24.21817
357.8388, 23.73643
358.3209, 23.23465
358.8030, 23.00614
359.2851, 23.23819
359.7672, 23.37945
360.2494, 22.97899
360.7315, 22.29252
361.2136, 21.79819
361.6957, 21.99285
362.1778, 22.16063
362.6599, 21.86166
363.1421, 20.98748
363.6242, 20.24115
364.1063, 19.82649
364.5884, 19.64383
365.0705, 19.59455
365.5526, 19.97342
366.0348, 20.15439
366.5169, 19.83100
366.9990, 19.04694
367.4811, 18.57117
367.9632, 18.70039
368.4453, 19.00307
368.9275, 19.23731
369.4096, 19.43811
369.8917, 19.52048
370.3738, 19.52721
370.8559, 19.41207
371.3380, 19.01033
371.8202, 17.94332
372.3023, 17.10370
372.7844, 16.97372
373.2665, 17.90072
373.7487, 18.05837
374.2308, 17.07087
374.7129, 15.69269
375.1950, 14.96304
375.6771, 15.07084
376.1592, 15.21601
376.6414, 15.13838
377.1235, 14.88826
377.6056, 14.57783
378.0877, 15.04921
378.5698, 15.25139
379.0519, 15.19881
379.5341, 14.12845
380.0162, 14.37233
380.4983, 14.08955
380.9804, 13.78515
381.4625, 14.21402
381.9446, 13.29171
382.4268, 13.70892
382.9089, 13.59143
383.3910, 13.71868
383.8731, 12.79934
384.3552, 12.97528
384.8373, 13.33405
385.3195, 13.42357
385.8016, 13.25837
386.2837, 12.07544
386.7658, 12.20672
387.2479, 11.81133
387.7300, 11.62398
388.2122, 11.70534
388.6943, 11.86520
389.1764, 11.92803
389.6585, 11.91490
390.1406, 11.84532
390.6227, 11.69681
391.1049, 11.53415
391.5870, 11.36625
392.0691, 11.21324
392.5512, 11.13587
393.0333, 11.18053
393.5154, 11.29679
393.9976, 11.51749
394.4797, 11.95373
394.9618, 12.11851
395.4439, 11.56285
395.9260, 10.72871
396.4081, 10.20577
396.8903, 10.39647
397.3724, 10.62968
397.8545, 10.72084
398.3366, 10.65862
398.8188, 10.60430
399.3009, 10.56588
399.7830, 10.54051
400.2651, 10.52896
400.7472, 10.57724
401.2293, 10.56191
401.7115, 10.38690
402.1936, 10.15195
402.6757, 10.21587
403.1578, 10.87623
403.6399, 11.31819
404.1220, 11.06289
404.6042, 9.890309
405.0863, 9.350295
405.5684, 9.623907
406.0505, 10.24638
406.5326, 10.65955
407.0147, 10.85687
407.4969, 10.87992
407.9790, 10.65838
408.4611, 10.29015
408.9432, 10.22034
409.4253, 10.47642
409.9074, 10.74952
410.3896, 10.80514
410.8717, 10.67354
411.3538, 10.46472
411.8359, 10.16502
412.3180, 9.874838
412.8001, 9.795633
413.2823, 9.871389
413.7644, 9.871338
414.2465, 9.486053
414.7286, 9.037543
415.2107, 9.028914
415.6928, 9.494825
416.1750, 9.967923
416.6571, 10.10997
417.1392, 10.03637
417.6213, 9.898480
418.1034, 9.573519
418.5855, 9.384109
419.0677, 9.658637
419.5498, 10.26801
420.0319, 10.71805
420.5140, 10.83979
420.9961, 10.72291
421.4782, 10.34544
421.9604, 9.504396
422.4425, 8.951384
422.9246, 9.006118
423.4067, 9.401350
423.8889, 9.772868
424.3710, 10.26420
424.8531, 10.52824
425.3352, 10.32315
425.8173, 9.644367
426.2994, 9.426394
426.7816, 10.03789
427.2637, 10.73893
427.7458, 11.03364
428.2279, 10.73947
428.7100, 10.50177
429.1921, 10.43680
429.6743, 10.40420
430.1564, 9.477926
430.6385, 10.05731
431.1206, 10.36748
431.6027, 10.42290
432.0848, 9.460564
432.5670, 9.812442
433.0491, 9.637645
433.5312, 9.441253
434.0133, 9.978106
434.4954, 9.163800
434.9775, 9.689027
435.4597, 9.679530
435.9418, 9.914766
436.4239, 9.620070
436.9060, 9.489052
437.3881, 9.888140
437.8702, 9.717209
438.3524, 9.983349
438.8345, 9.852219
439.3166, 9.217041
439.7987, 8.644509
440.2808, 8.699495
440.7629, 9.091013
441.2451, 9.364670
441.7272, 9.159413
442.2093, 8.953176
442.6914, 9.053440
443.1735, 9.412217
443.6556, 9.693743
444.1378, 9.759951
444.6199, 9.721120
445.1020, 9.637555
445.5841, 9.486910
446.0662, 9.353945
446.5483, 9.233524
447.0305, 9.140992
447.5126, 9.103136
447.9947, 9.162415
448.4768, 9.226008
448.9590, 9.293376
449.4411, 9.365779
449.9232, 9.342313
450.4053, 9.177403
450.8874, 8.981620
451.3695, 8.800389
451.8517, 8.585044
452.3338, 8.628377
452.8159, 9.053106
453.2980, 9.636460
453.7801, 9.921174
454.2622, 9.890421
454.7444, 9.773913
455.2265, 9.642820
455.7086, 9.506228
456.1907, 9.383608
456.6728, 9.267794
457.1549, 9.246247
457.6371, 9.527029
458.1192, 9.960624
458.6013, 10.16806
459.0834, 9.978788
459.5655, 9.673053
460.0476, 9.545452
460.5298, 9.548898
461.0119, 9.550164
461.4940, 9.514425
461.9761, 9.424596
462.4582, 9.203238
462.9403, 8.823466
463.4225, 8.603342
463.9046, 8.874470
464.3867, 9.288182
464.8688, 9.508414
465.3509, 9.221374
465.8330, 9.003271
466.3152, 9.010424
466.7973, 9.185525
467.2794, 9.319836
467.7615, 9.346254
468.2436, 9.386628
468.7257, 9.526090
469.2079, 9.844728
469.6900, 9.853618
470.1721, 9.327343
470.6542, 8.737673
471.1363, 8.678394
471.6184, 9.375570
472.1006, 9.661782
472.5827, 8.669469
473.0648, 9.341616
473.5469, 9.744548
474.0291, 9.892741
474.5112, 9.023162
474.9933, 9.467805
475.4754, 9.385772
475.9575, 9.282137
476.4396, 9.911755
476.9218, 9.190221
477.4039, 9.808207
477.8860, 9.891474
478.3681, 9.967377
478.8502, 9.718260
479.3323, 9.400297
479.8145, 9.427586
480.2966, 9.698574
480.7787, 9.839355
481.2608, 9.347829
481.7429, 8.875170
482.2250, 9.000143
482.7072, 9.930778
483.1893, 10.60642
483.6714, 10.49565
484.1535, 10.02176
484.6356, 9.614858
485.1177, 9.328208
485.5999, 9.127851
486.0820, 9.064514
486.5641, 9.095197
487.0462, 9.054044
487.5283, 8.856370
488.0104, 8.699939
488.4926, 8.658844
488.9747, 8.741324
489.4568, 8.897875
489.9389, 9.150332
490.4210, 9.435394
490.9031, 9.691357
491.3853, 9.920893
491.8674, 10.09973
492.3495, 10.22114
492.8316, 10.28873
493.3137, 10.34835
493.7958, 10.38925
494.2780, 10.27986
494.7601, 9.675447
495.2422, 8.936332
495.7243, 8.924981
496.2064, 9.710668
496.6885, 10.40002
497.1707, 10.01966
497.6528, 9.187675
498.1349, 8.778598
498.6170, 9.350767
499.0992, 9.937387
499.5813, 9.911840
500.0634, 9.496995
500.5455, 9.241555
501.0276, 9.597397
501.5097, 9.904504
501.9919, 9.816525
502.4740, 9.223840
502.9561, 8.867972
503.4382, 8.934115
503.9203, 9.158929
504.4024, 9.387555
504.8846, 9.712540
505.3667, 9.828687
505.8488, 9.613927
506.3309, 9.244630
506.8130, 9.146075
507.2951, 9.398916
507.7773, 9.560148
508.2594, 9.428572
508.7415, 9.061732
509.2236, 8.752170
509.7057, 8.496167
510.1878, 8.343496
510.6700, 8.355994
511.1521, 8.505165
511.6342, 8.724145
512.1163, 9.019709
512.5984, 9.312851
513.0806, 9.533337
513.5627, 9.688248
514.0448, 9.792322
514.5269, 9.912614
515.0090, 9.934365
515.4911, 9.695677
515.9733, 9.243453
516.4554, 8.897983
516.9375, 8.872979
517.4196, 8.923010
517.9017, 8.867834
518.3839, 8.529111
518.8660, 8.474501
519.3481, 9.137499
519.8302, 9.941233
520.3123, 10.24284
520.7944, 9.728801
521.2766, 9.280364
521.7587, 8.991825
522.2408, 8.871655
522.7229, 9.025102
523.2050, 9.565899
523.6871, 9.960730
524.1693, 9.827188
524.6514, 9.222690
525.1335, 8.843174
525.6156, 8.694180
526.0977, 8.731085
526.5798, 9.088799
527.0620, 9.610499
527.5441, 9.768462
528.0262, 9.276701
528.5083, 8.715312
528.9904, 8.774188
529.4725, 9.257318
529.9547, 9.689880
530.4368, 9.837428
530.9189, 9.856038
531.4010, 9.794849
531.8831, 9.661381
532.3652, 9.592500
532.8474, 9.792645
533.3295, 9.960608
533.8116, 9.890701
534.2937, 9.318992
534.7758, 8.922406
535.2579, 8.797526
535.7401, 8.815977
536.2222, 8.773149
536.7043, 8.547875
537.1864, 8.568243
537.6685, 9.048480
538.1506, 9.831303
538.6328, 10.14819
539.1149, 9.958588
539.5970, 9.573356
540.0791, 8.984030
540.5612, 8.310425
541.0433, 8.310316
541.5255, 9.077549
542.0076, 9.853328
542.4897, 9.732365
542.9718, 9.095966
543.4539, 8.725186
543.9360, 8.949411
544.4182, 9.301695
544.9003, 9.445775
545.3824, 9.441381
545.8645, 9.421426
546.3466, 9.508455
546.8287, 9.530228
547.3109, 9.353403
547.7930, 8.971033
548.2751, 8.691066
548.7572, 8.587657
549.2393, 8.579044
549.7214, 8.629103
550.2036, 8.778016
550.6857, 8.887059
551.1678, 8.913138
551.6499, 8.944037
552.1320, 9.139415
552.6141, 9.543172
553.0963, 9.834357
553.5784, 9.939672
554.0605, 9.884616
554.5426, 9.639007
555.0247, 9.220413
555.5068, 8.948163
555.9890, 9.194780
556.4711, 9.657260
556.9532, 9.729832
557.4353, 9.391251
557.9174, 9.085273
558.3995, 9.294949
558.8817, 9.651431
559.3638, 9.704422
559.8459, 9.107232
560.3281, 8.692123
560.8102, 9.056272
561.2923, 9.758175
561.7744, 10.10151
562.2565, 9.510436
562.7386, 9.044358
563.2208, 8.969577
563.7029, 9.227426
564.1850, 9.410695
564.6671, 9.512173
565.1492, 9.549195
565.6313, 9.524480
566.1135, 9.436406
566.5956, 9.293961
567.0777, 9.076924
567.5598, 8.880197
568.0419, 8.789885
568.5240, 8.802951
569.0062, 8.930617
569.4883, 9.227345
569.9704, 9.509080
570.4525, 9.502125
570.9346, 9.288007
571.4167, 9.078815
571.8989, 8.876049
572.3810, 8.787467
572.8631, 8.986178
573.3452, 9.415052
573.8273, 9.707392
574.3094, 9.594090
574.7916, 9.407741
575.2737, 9.348400
575.7558, 9.521358
576.2379, 9.528075
576.7200, 9.171406
577.2021, 8.801599
577.6843, 8.776459
578.1664, 9.297516
578.6485, 9.535825
579.1306, 9.315461
579.6127, 8.872952
580.0948, 8.692760
580.5770, 8.775534
581.0591, 8.862535
581.5412, 8.847888
582.0233, 8.772644
582.5054, 8.731869
582.9875, 8.719687
583.4697, 8.686406
583.9518, 8.512938
584.4339, 8.346910
584.9160, 8.399203
585.3981, 8.722005
585.8802, 8.971209
586.3624, 8.897111
