##NAMES=Reddingite
##RRUFFID=R090058
##IDEAL CHEMISTRY=Mn^2+^_3_(PO_4_)_2_&#183;3H_2_O
##LOCALITY=Palermo #1, North Groton, New Hampshire, USA
##OWNER=RRUFF
##SOURCE=Royal Ontario Museum
##DESCRIPTION=Pale brown translucent pseudo-octahedral crystals associated with blue vivianite and colorless triphylite
##STATUS=The identification of this mineral is confirmed by single-crystal X-ray diffraction and chemical analysis.
##URL=rruff.info/R090058
##MEASURED CHEMISTRY=(Mn^+2^_1.46_Fe^+2^_1.32_Mg_0.19_Ca_0.03_)_Σ=3.00_(PO_4_)_2_·3H_2_O
91.82715, 121.9557
92.30927, 122.1860
92.79138, 122.2935
93.27350, 121.1860
93.75562, 119.4011
94.23773, 117.5411
94.71985, 115.7638
95.20197, 113.6485
95.68408, 110.9152
96.16620, 107.9979
96.64832, 105.3066
97.13043, 102.8849
97.61255, 100.7663
98.09467, 99.00119
98.57678, 97.60363
99.05890, 96.26626
99.54102, 95.55733
100.0231, 94.95339
100.5052, 93.81620
100.9874, 91.74092
101.4695, 88.99754
101.9516, 87.07570
102.4337, 86.72374
102.9158, 86.45448
103.3979, 86.15878
103.8801, 85.76451
104.3622, 85.17741
104.8443, 84.28664
105.3264, 83.02503
105.8085, 82.17223
106.2906, 81.98119
106.7728, 81.87265
107.2549, 81.48972
107.7370, 80.80966
108.2191, 80.08154
108.7012, 79.56767
109.1833, 79.27499
109.6655, 79.09416
110.1476, 79.10365
110.6297, 79.19360
111.1118, 79.18098
111.5939, 78.98753
112.0760, 78.77200
112.5582, 78.58682
113.0403, 78.43466
113.5224, 78.60969
114.0045, 79.51405
114.4866, 81.10362
114.9687, 82.38799
115.4509, 83.01934
115.9330, 83.36442
116.4151, 83.59946
116.8972, 83.75341
117.3793, 83.86064
117.8614, 83.94873
118.3436, 83.97251
118.8257, 84.09441
119.3078, 84.33029
119.7899, 84.65113
120.2720, 85.06977
120.7541, 85.58779
121.2363, 86.14619
121.7184, 86.58241
122.2005, 87.20980
122.6826, 87.30656
123.1647, 86.37257
123.6468, 84.94736
124.1290, 83.81398
124.6111, 83.43690
125.0932, 83.71280
125.5753, 83.76421
126.0574, 83.24709
126.5395, 82.89503
127.0217, 83.20295
127.5038, 84.04072
127.9859, 84.71684
128.4680, 84.64108
128.9501, 83.94366
129.4323, 83.55655
129.9144, 83.70107
130.3965, 84.06992
130.8786, 84.30659
131.3607, 84.34653
131.8428, 84.50880
132.3250, 85.23656
132.8071, 86.26372
133.2892, 87.09879
133.7713, 87.44582
134.2534, 87.42545
134.7355, 87.46493
135.2176, 87.64035
135.6998, 87.76915
136.1819, 87.80228
136.6640, 87.72987
137.1461, 87.53846
137.6282, 87.25121
138.1103, 86.88541
138.5925, 86.22353
139.0746, 85.29787
139.5567, 84.03090
140.0388, 82.17150
140.5209, 79.83948
141.0030, 77.44061
141.4852, 75.47130
141.9673, 74.13719
142.4494, 72.71807
142.9315, 70.93362
143.4136, 69.27084
143.8957, 68.05897
144.3779, 67.37856
144.8600, 67.04140
145.3421, 66.76768
145.8242, 66.65034
146.3063, 66.41499
146.7884, 66.01704
147.2706, 65.50572
147.7527, 64.87785
148.2348, 64.09435
148.7169, 63.33241
149.1990, 63.02990
149.6811, 63.29192
150.1633, 63.49322
150.6454, 63.30188
151.1275, 62.84492
151.6096, 62.54263
152.0917, 62.61770
152.5738, 62.86409
153.0560, 62.93535
153.5381, 62.78390
154.0202, 62.60553
154.5023, 62.58692
154.9844, 62.73778
155.4665, 62.82534
155.9487, 62.70391
156.4308, 62.50726
156.9129, 62.31880
157.3950, 62.14947
157.8771, 62.02936
158.3592, 61.98000
158.8414, 61.95301
159.3235, 62.14263
159.8056, 62.78828
160.2877, 63.54914
160.7698, 64.11482
161.2519, 64.34143
161.7341, 64.35063
162.2162, 64.50303
162.6983, 64.98159
163.1804, 65.36192
163.6625, 65.54926
164.1446, 65.62074
164.6268, 65.65714
165.1089, 65.70049
165.5910, 65.75869
166.0731, 65.88759
166.5552, 66.30800
167.0373, 66.56054
167.5195, 66.49304
168.0016, 66.18858
168.4837, 65.81287
168.9658, 65.47332
169.4479, 65.16010
169.9300, 64.77331
170.4122, 64.35328
170.8943, 63.84261
171.3764, 63.12878
171.8585, 62.26631
172.3406, 61.49313
172.8227, 61.03492
173.3049, 60.84347
173.7870, 60.42663
174.2691, 59.65526
174.7512, 58.74831
175.2333, 57.77059
175.7154, 56.71349
176.1976, 55.89099
176.6797, 55.66434
177.1618, 55.85925
177.6439, 56.07877
178.1260, 56.32084
178.6081, 56.51317
179.0903, 56.51619
179.5724, 56.26706
180.0545, 56.01226
180.5366, 55.93312
181.0187, 55.94917
181.5008, 55.93773
181.9830, 55.83419
182.4651, 55.66426
182.9472, 55.49003
183.4293, 55.24345
183.9114, 55.11415
184.3935, 55.22078
184.8757, 55.47646
185.3578, 55.73660
185.8399, 55.91233
186.3220, 56.00977
186.8041, 56.09576
187.2862, 56.29225
187.7684, 56.33306
188.2505, 56.12517
188.7326, 55.70583
189.2147, 55.13662
189.6968, 54.43338
190.1789, 53.58084
190.6611, 52.94817
191.1432, 52.68322
191.6253, 52.48779
192.1074, 52.29333
192.5895, 52.09274
193.0716, 51.90338
193.5538, 51.74581
194.0359, 51.62807
194.5180, 51.46452
195.0001, 51.38694
195.4822, 51.16300
195.9643, 50.49633
196.4465, 49.50581
196.9286, 48.68890
197.4107, 48.57227
197.8928, 49.29432
198.3749, 49.53946
198.8570, 48.89204
199.3392, 48.13414
199.8213, 47.79275
200.3034, 47.89781
200.7855, 48.13701
201.2676, 48.27308
201.7497, 48.28901
202.2319, 48.13044
202.7140, 47.48127
203.1961, 46.83760
203.6782, 46.78033
204.1603, 47.39565
204.6424, 48.03892
205.1246, 48.00633
205.6067, 47.46259
206.0888, 47.18262
206.5709, 47.50727
207.0530, 48.10622
207.5351, 48.49681
208.0173, 48.58595
208.4994, 48.70825
208.9815, 49.30030
209.4636, 50.13626
209.9457, 50.72340
210.4278, 50.67975
210.9100, 50.28975
211.3921, 50.22257
211.8742, 50.63702
212.3563, 51.05474
212.8384, 51.07299
213.3205, 50.89780
213.8027, 50.90869
214.2848, 51.30903
214.7669, 52.04316
215.2490, 52.97406
215.7311, 54.43858
216.2132, 55.54897
216.6953, 55.79094
217.1775, 55.49540
217.6596, 55.22640
218.1417, 55.32222
218.6238, 55.72638
219.1059, 56.11013
219.5880, 56.47065
220.0702, 56.80859
220.5523, 57.04142
221.0344, 57.26163
221.5165, 57.64397
221.9986, 58.34696
222.4807, 59.31055
222.9629, 59.96290
223.4450, 59.87458
223.9271, 59.90491
224.4092, 60.22321
224.8913, 60.78523
225.3734, 61.53603
225.8556, 62.48189
226.3377, 63.57097
226.8198, 64.25605
227.3019, 63.92188
227.7840, 63.81274
228.2661, 64.41798
228.7483, 65.41980
229.2304, 66.21827
229.7125, 66.40972
230.1946, 66.06559
230.6767, 65.96545
231.1588, 66.42966
231.6410, 66.76737
232.1231, 66.72402
232.6052, 66.43250
233.0873, 66.19789
233.5694, 66.23293
234.0515, 66.45551
234.5337, 66.23909
235.0158, 65.04894
235.4979, 64.09232
235.9800, 63.82066
236.4621, 64.05254
236.9442, 64.43159
237.4264, 64.82446
237.9085, 65.14964
238.3906, 65.01881
238.8727, 64.11653
239.3548, 63.21569
239.8369, 62.61752
240.3191, 62.22277
240.8012, 61.77294
241.2833, 61.10670
241.7654, 60.34388
242.2475, 59.84896
242.7296, 59.82132
243.2118, 59.69647
243.6939, 59.17825
244.1760, 58.36303
244.6581, 57.52815
245.1402, 56.76581
245.6223, 56.07577
246.1045, 55.46464
246.5866, 54.98958
247.0687, 54.43906
247.5508, 53.61252
248.0329, 52.60196
248.5150, 51.75599
248.9972, 51.28680
249.4793, 50.90872
249.9614, 50.10275
250.4435, 48.75507
250.9256, 47.68598
251.4077, 47.55286
251.8899, 48.14543
252.3720, 48.53759
252.8541, 48.48050
253.3362, 48.14348
253.8183, 47.70567
254.3004, 47.16745
254.7826, 46.64089
255.2647, 46.14981
255.7468, 45.71354
256.2289, 45.46791
256.7110, 45.60937
257.1931, 45.71535
257.6753, 45.33637
258.1574, 44.55838
258.6395, 43.93057
259.1216, 43.96564
259.6037, 44.51454
260.0858, 44.71192
260.5680, 44.24920
261.0501, 43.73117
261.5322, 43.46978
262.0143, 43.45153
262.4964, 43.62905
262.9785, 44.12595
263.4607, 44.85109
263.9428, 45.26339
264.4249, 45.22300
264.9070, 45.03942
265.3891, 44.84670
265.8712, 44.64357
266.3534, 44.41650
266.8355, 44.11422
267.3176, 43.78587
267.7997, 43.67637
268.2818, 44.02500
268.7639, 44.22101
269.2461, 44.03836
269.7282, 43.58937
270.2103, 43.00713
270.6924, 42.31310
271.1745, 41.58763
271.6566, 41.15047
272.1388, 41.31368
272.6209, 41.22990
273.1030, 40.56126
273.5851, 39.60738
274.0672, 38.69866
274.5493, 37.97491
275.0315, 37.39060
275.5136, 36.83689
275.9957, 36.28064
276.4778, 35.82500
276.9599, 35.52636
277.4420, 35.29600
277.9242, 35.07089
278.4063, 34.82649
278.8884, 34.54488
279.3705, 34.17189
279.8526, 33.62433
280.3347, 33.16985
280.8169, 32.94262
281.2990, 32.73449
281.7811, 32.32635
282.2632, 31.69116
282.7453, 31.06080
283.2274, 30.83228
283.7096, 31.28611
284.1917, 31.43622
284.6738, 31.01415
285.1559, 30.51647
285.6380, 30.26021
286.1201, 30.26297
286.6023, 30.30486
287.0844, 30.10834
287.5665, 29.57048
288.0486, 29.21191
288.5307, 29.07377
289.0128, 29.05960
289.4950, 29.30252
289.9771, 29.67699
290.4592, 29.81015
290.9413, 29.28030
291.4234, 27.99534
291.9055, 27.28994
292.3877, 27.75972
292.8698, 28.20307
293.3519, 28.18912
293.8340, 27.84079
294.3161, 27.49802
294.7982, 27.40934
295.2804, 27.54741
295.7625, 27.56181
296.2446, 27.19231
296.7267, 26.97759
297.2088, 26.90742
297.6909, 27.16225
298.1731, 27.33018
298.6552, 27.41585
299.1373, 27.17294
299.6194, 27.35432
300.1015, 27.36566
300.5836, 27.37003
301.0658, 27.61115
301.5479, 27.41603
302.0300, 27.65337
302.5121, 27.71808
302.9942, 27.86181
303.4763, 27.83444
303.9585, 27.85993
304.4406, 28.06373
304.9227, 28.45874
305.4048, 28.87284
305.8869, 29.20354
306.3690, 29.41611
306.8512, 29.50598
307.3333, 29.45132
307.8154, 29.16684
308.2975, 28.96119
308.7796, 28.86530
309.2617, 28.80729
309.7439, 28.75217
310.2260, 28.69337
310.7081, 28.63074
311.1902, 28.55243
311.6723, 28.43649
312.1544, 28.47365
312.6366, 28.89299
313.1187, 29.21957
313.6008, 29.20475
314.0829, 28.93602
314.5650, 28.65465
315.0471, 28.53771
315.5293, 28.57014
316.0114, 28.55386
316.4935, 28.48101
316.9756, 28.36766
317.4577, 28.12586
317.9398, 27.86445
318.4220, 27.77168
318.9041, 27.95068
319.3862, 28.29031
319.8683, 28.43803
320.3504, 28.21038
320.8326, 28.00329
321.3147, 27.89415
321.7968, 27.78709
322.2789, 27.59092
322.7610, 27.27621
323.2431, 26.86248
323.7253, 26.35528
324.2074, 25.50809
324.6895, 25.08304
325.1716, 25.39484
325.6537, 25.83101
326.1358, 26.02190
326.6180, 25.90143
327.1001, 25.57099
327.5822, 25.10213
328.0643, 24.42037
328.5464, 23.99253
329.0285, 23.95520
329.5107, 24.00204
329.9928, 24.01599
330.4749, 24.00613
330.9570, 24.04404
331.4391, 24.19585
331.9212, 24.44668
332.4034, 24.57304
332.8855, 24.58057
333.3676, 24.44587
333.8497, 23.94775
334.3318, 23.35719
334.8139, 23.09329
335.2961, 23.08177
335.7782, 22.98339
336.2603, 22.80276
336.7424, 22.29355
337.2245, 22.20865
337.7066, 21.95369
338.1888, 21.69173
338.6708, 21.82813
339.1530, 21.82579
339.6351, 21.78523
340.1172, 21.91787
340.5993, 22.35696
341.0814, 22.62456
341.5635, 22.66229
342.0457, 22.60201
342.5278, 22.49776
343.0099, 22.36081
343.4920, 22.17021
343.9741, 21.85391
344.4562, 21.38514
344.9384, 21.28959
345.4205, 22.18792
345.9026, 22.86447
346.3847, 22.82055
346.8668, 22.34129
347.3489, 21.97988
347.8311, 22.09563
348.3132, 22.53421
348.7953, 22.65674
349.2774, 22.16788
349.7595, 21.81852
350.2416, 21.82922
350.7238, 21.98889
351.2059, 22.09819
351.6880, 22.08823
352.1701, 22.00803
352.6522, 21.93411
353.1343, 21.86920
353.6165, 21.80219
354.0986, 21.72505
354.5807, 21.65070
355.0628, 21.53693
355.5449, 21.40907
356.0270, 21.38926
356.5092, 21.69308
356.9913, 22.34059
357.4734, 22.67083
357.9555, 22.38968
358.4376, 22.10111
358.9197, 22.10987
359.4019, 22.29570
359.8840, 22.38194
360.3661, 22.15197
360.8482, 21.75205
361.3303, 21.64262
361.8124, 21.93443
362.2946, 22.28066
362.7767, 22.65157
363.2588, 22.97143
363.7409, 23.13804
364.2230, 23.10862
364.7051, 23.00181
365.1873, 22.98223
365.6694, 23.06576
366.1515, 23.07990
366.6336, 22.83721
367.1157, 22.63830
367.5978, 22.76241
368.0800, 23.19677
368.5621, 23.61358
369.0442, 23.80294
369.5263, 23.78131
370.0084, 23.56721
370.4905, 22.98846
370.9727, 22.54037
371.4548, 22.58960
371.9369, 23.00525
372.4190, 23.52540
372.9011, 24.09485
373.3832, 24.68535
373.8654, 25.32355
374.3475, 26.03993
374.8296, 26.51571
375.3117, 26.47186
375.7938, 26.13366
376.2759, 25.79276
376.7581, 25.39126
377.2402, 25.20739
377.7223, 25.58938
378.2044, 26.40374
378.6865, 27.09364
379.1686, 27.55234
379.6508, 27.75492
380.1329, 27.50005
380.6150, 26.79638
381.0971, 26.43198
381.5792, 26.94919
382.0613, 27.83290
382.5435, 28.33281
383.0256, 28.35337
383.5077, 28.28995
383.9898, 28.47719
384.4719, 28.86469
384.9540, 29.07614
385.4362, 28.86264
385.9183, 28.68558
386.4004, 28.88942
386.8825, 29.37882
387.3646, 29.82672
387.8467, 30.07934
388.3289, 30.19377
388.8110, 30.30264
389.2931, 30.39425
389.7752, 30.50679
390.2573, 30.64668
390.7394, 30.81236
391.2216, 31.03688
391.7037, 31.32081
392.1858, 31.55356
392.6679, 31.40262
393.1500, 31.71398
393.6321, 31.93842
394.1143, 32.08064
394.5964, 31.89425
395.0785, 32.13216
395.5606, 32.20003
396.0427, 32.26092
396.5248, 32.55855
397.0070, 32.41997
397.4891, 32.71385
397.9712, 32.83508
398.4533, 33.03534
398.9354, 33.03004
399.4175, 32.86858
399.8997, 32.50354
400.3818, 31.97735
400.8639, 31.46333
401.3460, 31.24607
401.8281, 31.47732
402.3102, 31.58607
402.7924, 31.36059
403.2745, 31.09425
403.7566, 31.24288
404.2387, 31.30458
404.7208, 31.28405
405.2029, 30.93492
405.6851, 31.01009
406.1672, 30.91523
406.6493, 30.81339
407.1314, 31.14796
407.6135, 31.44895
408.0956, 31.76468
408.5778, 32.15145
409.0599, 32.63169
409.5420, 33.01151
410.0241, 32.82278
410.5062, 32.90172
410.9883, 32.89373
411.4705, 32.80349
411.9526, 32.38467
412.4347, 32.39016
412.9168, 32.22561
413.3989, 31.92961
413.8810, 31.66290
414.3632, 31.37621
414.8453, 31.05234
415.3274, 30.70175
415.8095, 30.28708
416.2916, 29.73981
416.7737, 29.13062
417.2559, 28.52777
417.7380, 27.89727
418.2201, 27.38407
418.7022, 27.18314
419.1843, 27.26350
419.6664, 27.34058
420.1486, 27.36530
420.6307, 27.30480
421.1128, 27.08380
421.5949, 26.70177
422.0770, 26.37358
422.5591, 26.22544
423.0413, 26.15376
423.5234, 26.05477
424.0055, 25.91918
424.4876, 25.63769
424.9697, 25.06345
425.4518, 25.10603
425.9340, 25.06167
426.4161, 24.93509
426.8982, 24.47992
427.3803, 24.13225
427.8624, 24.28088
428.3445, 24.25948
428.8267, 24.23111
429.3088, 24.43946
429.7909, 24.55965
430.2730, 24.56226
430.7551, 24.55790
431.2372, 24.79027
431.7194, 24.58642
432.2015, 24.81503
432.6836, 24.87101
433.1657, 25.00600
433.6478, 24.90457
434.1299, 24.65623
434.6121, 24.83220
435.0942, 24.83813
435.5763, 24.83707
436.0584, 25.07275
436.5405, 24.87221
437.0226, 25.49364
437.5048, 25.76397
437.9869, 25.95204
438.4690, 25.81151
438.9511, 26.09529
439.4332, 26.20902
439.9153, 26.31579
440.3975, 26.65931
440.8796, 26.56658
441.3617, 26.90632
441.8438, 27.07343
442.3259, 27.31953
442.8080, 27.39457
443.2902, 27.52246
443.7723, 28.01066
444.2544, 28.49203
444.7365, 28.83617
445.2186, 29.12193
445.7007, 29.40246
446.1829, 29.68635
446.6650, 29.98801
447.1471, 30.33806
447.6292, 30.72202
448.1113, 31.05591
448.5934, 31.30193
449.0756, 31.54386
449.5577, 31.91786
450.0398, 32.35752
450.5219, 32.64599
451.0040, 32.52797
451.4861, 32.37622
451.9683, 32.63567
452.4504, 33.23868
452.9325, 33.70206
453.4146, 33.77341
453.8967, 33.62471
454.3788, 33.61619
454.8610, 33.74187
455.3431, 33.97188
455.8252, 34.54198
456.3073, 35.08132
456.7894, 35.10361
457.2715, 34.58201
457.7537, 33.94724
458.2358, 33.54481
458.7179, 33.37474
459.2000, 33.39499
459.6821, 33.86897
460.1642, 34.19848
460.6464, 34.16868
461.1285, 33.91011
461.6106, 33.59742
462.0927, 33.29883
462.5748, 32.99333
463.0569, 32.60715
463.5391, 31.98657
464.0212, 31.71903
464.5033, 32.26519
464.9854, 32.71225
465.4675, 32.56414
465.9496, 31.95155
466.4318, 31.27661
466.9139, 30.77389
467.3960, 30.41998
467.8781, 30.13846
468.3602, 29.92193
468.8423, 29.79675
469.3245, 29.88831
469.8066, 30.00039
470.2887, 29.97678
470.7708, 29.79532
471.2529, 29.54109
471.7350, 29.20196
472.2172, 28.83189
472.6993, 28.70010
473.1814, 28.93646
473.6635, 29.09551
474.1456, 28.70871
474.6277, 28.01898
475.1099, 27.57602
475.5920, 27.59886
476.0741, 27.71836
476.5562, 27.66465
477.0383, 27.50047
477.5204, 27.45126
478.0026, 27.62701
478.4847, 27.79502
478.9668, 27.56640
479.4489, 26.80155
479.9310, 26.34205
480.4131, 26.56973
480.8953, 26.83324
481.3774, 26.64847
481.8595, 26.10065
482.3416, 25.53993
482.8237, 25.16236
483.3058, 24.94602
483.7880, 24.81419
484.2701, 24.81047
484.7522, 24.83706
485.2343, 24.98068
485.7164, 25.08832
486.1985, 25.03087
486.6807, 24.80546
487.1628, 24.48926
487.6449, 24.08214
488.1270, 23.61713
488.6091, 23.60916
489.0912, 24.55082
489.5734, 25.15649
490.0555, 24.87806
490.5376, 24.18210
491.0197, 23.52972
491.5018, 23.03826
491.9839, 22.73796
492.4661, 22.80279
492.9482, 23.16769
493.4303, 23.18985
493.9124, 22.58644
494.3945, 22.00286
494.8766, 22.09427
495.3588, 22.62595
495.8409, 22.98712
496.3230, 23.02579
496.8051, 22.84781
497.2872, 22.13099
497.7693, 22.29392
498.2515, 22.36992
498.7336, 22.36368
499.2157, 22.02886
499.6978, 22.11833
500.1799, 22.03777
500.6620, 21.95023
501.1442, 22.09942
501.6263, 21.81239
502.1084, 21.95782
502.5905, 21.93063
503.0726, 21.98244
503.5547, 21.86317
504.0368, 21.79674
504.5190, 21.90145
505.0011, 21.91140
505.4832, 21.77243
505.9653, 21.82926
506.4474, 21.53625
506.9295, 21.74836
507.4117, 22.04190
507.8938, 22.31426
508.3759, 22.36069
508.8580, 22.25254
509.3401, 22.45369
509.8222, 23.17127
510.3044, 23.74262
510.7865, 23.78613
511.2686, 23.64414
511.7507, 23.64665
512.2328, 23.86013
512.7150, 24.09817
513.1971, 24.22345
513.6792, 24.26484
514.1613, 24.27448
514.6434, 23.97451
515.1255, 24.18461
515.6077, 24.30779
516.0898, 24.34871
516.5719, 24.06106
517.0540, 24.19770
517.5361, 24.16430
518.0182, 24.12394
518.5004, 24.65314
518.9825, 24.89562
519.4646, 24.91793
519.9467, 24.90129
520.4288, 25.07512
520.9109, 25.48669
521.3931, 25.77063
521.8752, 25.92762
522.3573, 25.98200
522.8394, 25.87743
523.3215, 25.69459
523.8036, 25.53149
524.2858, 25.42975
524.7679, 25.39773
525.2500, 25.49071
525.7321, 25.76446
526.2142, 25.86851
526.6964, 25.46746
527.1785, 25.23787
527.6606, 25.68811
528.1427, 26.53053
528.6248, 27.09121
529.1069, 26.95569
529.5891, 26.63941
530.0712, 26.94558
530.5533, 27.82283
531.0354, 28.33460
531.5175, 28.04605
531.9996, 27.57686
532.4818, 27.75873
532.9639, 28.53042
533.4460, 29.14506
533.9281, 29.33438
534.4102, 29.41094
534.8923, 29.61158
535.3745, 29.91221
535.8566, 30.18394
536.3387, 30.35664
536.8208, 30.51665
537.3029, 30.85765
537.7850, 31.63025
538.2672, 32.05232
538.7493, 31.67900
539.2314, 31.38389
539.7135, 31.75669
540.1956, 32.63655
540.6777, 33.53504
541.1599, 34.17858
541.6420, 34.59074
542.1241, 34.74566
542.6062, 34.45667
543.0883, 34.52048
543.5704, 35.54000
544.0526, 36.58204
544.5347, 36.96472
545.0168, 36.79795
545.4989, 36.73521
545.9810, 37.20331
546.4631, 37.93268
546.9453, 38.52095
547.4274, 38.97175
547.9095, 39.35992
548.3916, 39.67701
548.8737, 39.99110
549.3558, 40.49731
549.8380, 41.27649
550.3201, 41.73391
550.8022, 41.36749
551.2843, 40.93613
551.7664, 41.12329
552.2485, 41.83070
552.7307, 42.58814
553.2128, 43.15186
553.6949, 43.49970
554.1770, 43.54000
554.6591, 42.89971
555.1412, 42.62703
555.6234, 42.83712
556.1055, 43.28723
556.5876, 44.00483
557.0697, 44.84693
557.5518, 45.48194
558.0339, 45.68927
558.5161, 45.59442
558.9982, 45.44851
559.4803, 45.23526
559.9624, 45.07476
560.4445, 45.01657
560.9266, 45.01037
561.4088, 45.01772
561.8909, 45.03595
562.3730, 45.03740
562.8551, 45.00188
563.3372, 44.95189
563.8193, 44.98311
564.3015, 45.04822
564.7836, 44.86944
565.2657, 44.28120
565.7478, 43.52174
566.2299, 43.05344
566.7120, 43.14125
567.1942, 42.85233
567.6763, 41.87483
568.1584, 40.81586
568.6405, 39.96204
569.1226, 39.31351
569.6047, 38.80873
570.0869, 38.42796
570.5690, 38.07250
571.0511, 37.53194
571.5332, 36.75333
572.0153, 35.96986
572.4974, 35.07749
572.9796, 34.32034
573.4617, 33.91091
573.9438, 33.73456
574.4259, 33.48138
574.9080, 32.95295
575.3901, 32.40429
575.8723, 32.09213
576.3544, 32.00911
576.8365, 32.18030
577.3186, 32.70259
577.8007, 33.20640
578.2828, 33.20488
578.7650, 32.66165
579.2471, 32.37947
579.7292, 32.45508
580.2113, 32.71578
580.6934, 33.26796
581.1755, 33.89505
581.6577, 34.20451
582.1398, 34.07992
582.6219, 33.85211
583.1040, 34.00687
583.5861, 34.63026
584.0682, 34.94813
584.5504, 34.65541
585.0325, 34.41900
