##NAMES=Reddingite
##RRUFFID=R090058
##IDEAL CHEMISTRY=Mn^2+^_3_(PO_4_)_2_&#183;3H_2_O
##LOCALITY=Palermo #1, North Groton, New Hampshire, USA
##OWNER=RRUFF
##SOURCE=Royal Ontario Museum
##DESCRIPTION=Pale brown translucent pseudo-octahedral crystals associated with blue vivianite and colorless triphylite
##STATUS=The identification of this mineral is confirmed by single-crystal X-ray diffraction and chemical analysis.
##URL=rruff.info/R090058
##MEASURED CHEMISTRY=(Mn^+2^_1.46_Fe^+2^_1.32_Mg_0.19_Ca_0.03_)_Σ=3.00_(PO_4_)_2_·3H_2_O
92.07813, 21.14054
92.56024, 21.43384
93.04236, 21.27176
93.52448, 20.75016
94.00659, 20.22380
94.48871, 19.76817
94.97083, 19.45343
95.45294, 19.55293
95.93506, 20.24191
96.41718, 21.06891
96.89929, 21.13039
97.38141, 20.41544
97.86353, 19.67444
98.34564, 19.46131
98.82776, 19.75915
99.30988, 20.14093
99.79199, 20.62696
100.2741, 21.11973
100.7562, 21.18963
101.2383, 20.71719
101.7205, 20.15259
102.2026, 19.88418
102.6847, 19.95368
103.1668, 20.18593
103.6489, 20.64635
104.1310, 21.34425
104.6132, 21.63477
105.0953, 21.29607
105.5774, 20.75642
106.0595, 20.56895
106.5416, 21.00009
107.0237, 21.37261
107.5059, 21.49832
107.9880, 21.27951
108.4701, 21.11030
108.9522, 20.94881
109.4343, 20.84396
109.9164, 20.88317
110.3986, 21.20527
110.8807, 21.55506
111.3628, 21.85504
111.8449, 22.02419
112.3270, 22.26884
112.8091, 22.50251
113.2913, 22.80785
113.7734, 23.41245
114.2555, 24.43780
114.7376, 25.72721
115.2197, 27.19050
115.7018, 28.91623
116.1840, 30.70663
116.6661, 32.24947
117.1482, 33.68877
117.6303, 35.76344
118.1124, 38.86394
118.5945, 42.70260
119.0767, 46.99511
119.5588, 51.64722
120.0409, 56.77341
120.5230, 62.44504
121.0051, 68.63148
121.4872, 75.30889
121.9694, 82.18607
122.4515, 89.54200
122.9336, 97.79997
123.4157, 107.2795
123.8978, 117.5664
124.3799, 128.4190
124.8621, 139.8614
125.3442, 151.4381
125.8263, 162.5791
126.3084, 173.5275
126.7905, 184.9278
127.2726, 197.7880
127.7548, 211.0472
128.2369, 222.9478
128.7190, 233.3376
129.2011, 242.4476
129.6832, 250.1616
130.1653, 256.5867
130.6474, 262.7962
131.1296, 268.7951
131.6117, 274.9229
132.0938, 282.5903
132.5759, 291.9894
133.0580, 302.9760
133.5401, 315.1832
134.0223, 328.6617
134.5044, 343.2325
134.9865, 358.4432
135.4686, 374.4881
135.9507, 392.9092
136.4328, 415.1004
136.9150, 439.5212
137.3971, 460.8006
137.8792, 478.9217
138.3613, 494.4806
138.8434, 508.1809
139.3255, 520.1404
139.8077, 528.9527
140.2898, 534.1688
140.7719, 535.9412
141.2540, 535.8701
141.7361, 533.5729
142.2182, 530.0716
142.7004, 526.2104
143.1825, 521.8622
143.6646, 517.4897
144.1467, 513.0233
144.6288, 508.3099
145.1109, 504.8927
145.5931, 502.3662
146.0752, 501.4263
146.5573, 502.9122
147.0394, 507.2305
147.5215, 513.4105
148.0036, 521.0529
148.4858, 530.1346
148.9679, 541.2468
149.4500, 554.7860
149.9321, 570.2629
150.4142, 586.6377
150.8963, 603.9348
151.3785, 622.4121
151.8606, 641.8544
152.3427, 662.4424
152.8248, 684.2968
153.3069, 708.0935
153.7890, 733.1735
154.2712, 755.9100
154.7533, 772.8946
155.2354, 789.0167
155.7175, 804.7440
156.1996, 819.1909
156.6817, 834.4450
157.1639, 850.9814
157.6460, 868.5518
158.1281, 886.2690
158.6102, 903.4785
159.0923, 921.1278
159.5744, 939.8098
160.0566, 959.8177
160.5387, 980.1361
161.0208, 999.9951
161.5029, 1019.773
161.9850, 1040.558
162.4671, 1062.731
162.9493, 1086.054
163.4314, 1110.432
163.9135, 1136.588
164.3956, 1162.900
164.8777, 1189.602
165.3598, 1216.350
165.8420, 1241.628
166.3241, 1266.245
166.8062, 1288.420
167.2883, 1306.666
167.7704, 1321.951
168.2525, 1331.839
168.7346, 1334.993
169.2168, 1331.598
169.6989, 1322.607
170.1810, 1307.977
170.6631, 1288.329
171.1452, 1264.226
171.6273, 1234.188
172.1095, 1201.477
172.5916, 1168.344
173.0737, 1134.748
173.5558, 1100.098
174.0379, 1062.432
174.5201, 1023.780
175.0022, 986.7113
175.4843, 951.8502
175.9664, 918.9630
176.4485, 888.6709
176.9306, 860.6548
177.4128, 834.8274
177.8949, 811.7054
178.3770, 790.8226
178.8591, 770.6224
179.3412, 749.8444
179.8233, 729.5787
180.3055, 711.6483
180.7876, 695.9445
181.2697, 681.5730
181.7518, 667.1953
182.2339, 653.2478
182.7160, 640.6429
183.1982, 630.7917
183.6803, 622.5293
184.1624, 613.2045
184.6445, 602.7159
185.1266, 592.1338
185.6087, 582.4872
186.0909, 573.6820
186.5730, 565.7539
187.0551, 559.0110
187.5372, 553.1611
188.0193, 546.9401
188.5014, 540.2687
188.9836, 533.5601
189.4657, 527.3067
189.9478, 521.4901
190.4299, 515.3019
190.9120, 508.2518
191.3941, 500.5215
191.8763, 492.8373
192.3584, 485.1762
192.8405, 477.7547
193.3226, 470.8928
193.8047, 464.6260
194.2868, 457.9872
194.7690, 450.0981
195.2511, 441.1321
195.7332, 432.9718
196.2153, 425.7189
196.6974, 419.1432
197.1795, 413.2652
197.6617, 408.1049
198.1438, 403.0495
198.6259, 397.6383
199.1080, 391.8951
199.5901, 386.9370
200.0722, 382.9611
200.5544, 379.5364
201.0365, 375.9600
201.5186, 372.1801
202.0007, 368.4383
202.4828, 364.6661
202.9649, 360.7969
203.4471, 357.8193
203.9292, 355.8778
204.4113, 354.6236
204.8934, 353.1353
205.3755, 351.1193
205.8576, 350.0728
206.3398, 351.2106
206.8219, 355.0594
207.3040, 357.4508
207.7861, 357.9936
208.2682, 357.3579
208.7503, 356.7758
209.2325, 356.1700
209.7146, 355.8861
210.1967, 355.9789
210.6788, 356.3324
211.1609, 357.7266
211.6430, 360.4884
212.1252, 364.0712
212.6073, 367.1054
213.0894, 369.2400
213.5715, 371.7111
214.0536, 375.0365
214.5357, 379.2801
215.0179, 384.3113
215.5000, 390.5633
215.9821, 397.3521
216.4642, 403.0298
216.9463, 407.0082
217.4284, 411.0315
217.9105, 415.9331
218.3927, 421.9239
218.8748, 427.9280
219.3569, 433.9643
219.8390, 439.9892
220.3211, 446.0595
220.8032, 452.2707
221.2854, 458.3885
221.7675, 464.2882
222.2496, 469.5081
222.7317, 475.8270
223.2138, 483.7353
223.6959, 492.4799
224.1781, 500.5539
224.6602, 507.3534
225.1423, 514.4545
225.6244, 522.4785
226.1065, 532.1353
226.5886, 540.8944
227.0708, 548.5319
227.5529, 555.4536
228.0350, 562.5401
228.5171, 569.9949
228.9992, 577.4155
229.4813, 584.8790
229.9635, 592.9385
230.4456, 599.2355
230.9277, 603.2775
231.4098, 605.7632
231.8919, 608.1002
232.3740, 610.6868
232.8562, 612.4677
233.3383, 613.0898
233.8204, 612.5125
234.3025, 610.8368
234.7846, 607.5115
235.2667, 603.3909
235.7489, 600.3137
236.2310, 599.7895
236.7131, 597.8763
237.1952, 592.9345
237.6773, 584.1379
238.1594, 575.5598
238.6416, 567.0078
239.1237, 558.7918
239.6058, 551.5588
240.0879, 546.0062
240.5700, 540.1686
241.0521, 533.2552
241.5343, 524.9563
242.0164, 517.2513
242.4985, 510.4248
242.9806, 503.9838
243.4627, 497.1055
243.9448, 489.0800
244.4270, 481.8235
244.9091, 476.1267
245.3912, 472.4107
245.8733, 467.7558
246.3554, 461.4813
246.8375, 454.7602
247.3197, 449.1429
247.8018, 444.9749
248.2839, 441.2961
248.7660, 437.9477
249.2481, 434.9604
249.7302, 431.9592
250.2124, 428.6599
250.6945, 425.5963
251.1766, 423.3577
251.6587, 422.1638
252.1408, 421.3965
252.6229, 421.0341
253.1051, 421.1164
253.5872, 420.9641
254.0693, 420.2671
254.5514, 419.6780
255.0335, 419.8496
255.5156, 420.8393
255.9978, 422.4842
256.4799, 425.0146
256.9620, 428.4254
257.4441, 431.0231
257.9262, 432.2189
258.4083, 433.3508
258.8904, 435.6865
259.3726, 439.7762
259.8547, 443.7042
260.3368, 446.8912
260.8189, 449.5033
261.3010, 453.2114
261.7831, 458.4552
262.2653, 464.0871
262.7474, 469.1955
263.2295, 473.8135
263.7116, 477.9170
264.1937, 481.3933
264.6758, 484.3458
265.1580, 487.6288
265.6401, 491.5137
266.1222, 495.1887
266.6043, 498.1042
267.0864, 500.2253
267.5685, 501.8239
268.0507, 502.9644
268.5328, 503.6086
269.0149, 503.7130
269.4970, 503.4317
269.9791, 502.2523
270.4612, 499.7227
270.9434, 495.6385
271.4255, 491.2555
271.9076, 486.6775
272.3897, 481.7785
272.8718, 476.1400
273.3539, 469.6534
273.8361, 462.7567
274.3182, 455.5857
274.8003, 448.1223
275.2824, 440.7161
275.7645, 433.4619
276.2466, 426.2343
276.7288, 418.7718
277.2109, 411.0707
277.6930, 403.2395
278.1751, 395.3294
278.6572, 387.2740
279.1393, 379.9115
279.6215, 373.4383
280.1036, 367.2958
280.5857, 360.4655
281.0678, 352.8677
281.5499, 345.6328
282.0320, 339.5392
282.5142, 334.4555
282.9963, 328.8730
283.4784, 322.6830
283.9605, 316.3308
284.4426, 310.2789
284.9247, 304.5243
285.4069, 299.1579
285.8890, 294.2852
286.3711, 289.8531
286.8532, 285.3039
287.3353, 280.5732
287.8174, 276.0526
288.2996, 272.2658
288.7817, 269.1528
289.2638, 266.2789
289.7459, 263.6875
290.2280, 261.1847
290.7101, 257.8676
291.1923, 253.6531
291.6744, 249.8044
292.1565, 247.6395
292.6386, 246.8515
293.1207, 245.8958
293.6028, 244.4156
294.0850, 242.6278
294.5671, 240.6853
295.0492, 238.6149
295.5313, 236.8974
296.0134, 235.9133
296.4955, 235.5623
296.9777, 235.6266
297.4598, 236.1371
297.9419, 236.9004
298.4240, 237.8156
298.9061, 238.8109
299.3882, 239.5257
299.8704, 239.3752
300.3525, 238.8586
300.8346, 238.9943
301.3167, 239.9720
301.7988, 241.2619
302.2809, 242.2970
302.7631, 243.1788
303.2452, 244.2381
303.7273, 245.5309
304.2094, 247.1401
304.6915, 249.1707
305.1736, 251.6550
305.6558, 254.4601
306.1379, 257.8223
306.6200, 261.4051
307.1021, 264.5627
307.5842, 266.7196
308.0663, 268.5359
308.5485, 270.6928
309.0306, 273.1725
309.5127, 275.6143
309.9948, 277.7486
310.4769, 279.6996
310.9590, 281.6107
311.4412, 283.4234
311.9233, 285.3359
312.4054, 287.7799
312.8875, 290.5988
313.3696, 292.8635
313.8517, 293.6621
314.3339, 293.8654
314.8160, 294.2545
315.2981, 295.2591
315.7802, 296.1029
316.2623, 296.6358
316.7444, 296.7498
317.2266, 296.1421
317.7087, 294.2367
318.1908, 291.8809
318.6729, 289.5975
319.1550, 287.5694
319.6371, 285.3397
320.1193, 282.7899
320.6014, 279.9427
321.0835, 276.7927
321.5656, 273.5423
322.0477, 269.8344
322.5298, 265.3531
323.0120, 259.9156
323.4941, 254.5618
323.9762, 249.2696
324.4583, 244.2515
324.9404, 239.7382
325.4225, 236.1344
325.9047, 232.6405
326.3868, 229.2650
326.8689, 225.9898
327.3510, 222.3810
327.8331, 217.8252
328.3152, 213.2795
328.7974, 209.4100
329.2795, 206.9761
329.7616, 204.3066
330.2437, 200.9051
330.7258, 197.0480
331.2079, 194.2045
331.6901, 192.7572
332.1722, 191.9390
332.6543, 191.5343
333.1364, 192.7464
333.6185, 192.0506
334.1006, 188.3750
334.5828, 183.0765
335.0649, 179.5359
335.5470, 178.6604
336.0291, 177.8866
336.5112, 176.1440
336.9933, 173.0860
337.4755, 170.8345
337.9576, 169.6125
338.4397, 168.9697
338.9218, 168.3159
339.4039, 167.6403
339.8860, 167.0192
340.3681, 166.4970
340.8503, 166.0616
341.3324, 165.6624
341.8145, 165.3788
342.2966, 164.8965
342.7787, 163.7208
343.2608, 161.8110
343.7430, 160.2423
344.2251, 159.1498
344.7072, 158.5970
345.1893, 159.2079
345.6714, 161.1163
346.1535, 162.5805
346.6357, 162.0345
347.1178, 159.8139
347.5999, 157.9346
348.0820, 156.6173
348.5641, 155.6865
349.0462, 154.8416
349.5284, 154.1055
350.0105, 153.6196
350.4926, 153.4816
350.9747, 153.6427
351.4568, 154.1942
351.9389, 155.2085
352.4211, 155.9397
352.9032, 155.4591
353.3853, 154.0845
353.8674, 152.5732
354.3495, 150.8469
354.8316, 149.3727
355.3138, 148.8473
355.7959, 149.2040
356.2780, 149.7352
356.7601, 150.3323
357.2422, 150.6939
357.7243, 150.3234
358.2065, 148.4642
358.6886, 146.8056
359.1707, 146.8406
359.6528, 148.0908
360.1349, 149.1147
360.6170, 148.7419
361.0992, 148.1836
361.5813, 148.4374
362.0634, 149.9733
362.5455, 151.2212
363.0276, 151.0967
363.5097, 150.3798
363.9919, 150.2317
364.4740, 151.7738
364.9561, 153.2419
365.4382, 153.9229
365.9203, 153.7253
366.4024, 153.4152
366.8846, 152.8183
367.3667, 152.3405
367.8488, 152.3106
368.3309, 153.2803
368.8130, 154.1241
369.2951, 154.6157
369.7773, 154.8209
370.2594, 155.1768
370.7415, 155.6356
371.2236, 156.2939
371.7057, 157.1881
372.1878, 158.2409
372.6700, 159.7199
373.1521, 161.8925
373.6342, 164.3638
374.1163, 166.4126
374.5984, 168.1189
375.0805, 169.1914
375.5627, 169.3480
376.0448, 168.4716
376.5269, 168.0859
377.0090, 168.2070
377.4911, 168.7775
377.9732, 169.8528
378.4554, 171.5146
378.9375, 173.1113
379.4196, 174.5181
379.9017, 175.7639
380.3838, 176.9854
380.8659, 178.1665
381.3481, 179.3772
381.8302, 180.6546
382.3123, 181.9970
382.7944, 183.3940
383.2765, 184.8793
383.7586, 186.3672
384.2408, 187.8128
384.7229, 189.1875
385.2050, 190.3916
385.6871, 191.1274
386.1692, 191.7014
386.6513, 192.8027
387.1335, 194.4566
387.6156, 196.2252
388.0977, 197.8146
388.5798, 199.2023
389.0619, 200.3243
389.5440, 200.6633
390.0262, 201.2110
390.5083, 203.4700
390.9904, 206.9995
391.4725, 209.6428
391.9546, 209.4036
392.4367, 208.1368
392.9189, 207.4414
393.4010, 207.7894
393.8831, 208.3123
394.3652, 208.6861
394.8473, 208.9394
395.3294, 209.1195
395.8116, 208.9496
396.2937, 208.9659
396.7758, 209.4449
397.2579, 210.4432
397.7400, 211.4961
398.2221, 212.8907
398.7043, 214.0932
399.1864, 214.6633
399.6685, 213.7333
400.1506, 213.1293
400.6327, 213.2435
401.1148, 213.8892
401.5970, 214.1692
402.0791, 213.7893
402.5612, 213.3801
403.0433, 213.1886
403.5254, 213.1851
404.0075, 213.5446
404.4897, 214.5421
404.9718, 215.6720
405.4539, 216.0141
405.9360, 215.1830
406.4181, 214.8122
406.9002, 215.5164
407.3824, 217.1541
407.8645, 218.3853
408.3466, 219.1246
408.8287, 219.7795
409.3108, 220.6276
409.7929, 221.6698
410.2751, 223.1821
410.7572, 225.5245
411.2393, 227.8337
411.7214, 228.1463
412.2035, 226.6539
412.6856, 225.1277
413.1678, 224.6618
413.6499, 224.8679
414.1320, 224.8885
414.6141, 224.6675
415.0962, 224.4690
415.5783, 224.7014
416.0605, 225.1209
416.5426, 225.2753
417.0247, 225.0663
417.5068, 224.4711
417.9889, 223.2943
418.4710, 221.6507
418.9532, 220.0332
419.4353, 218.4100
419.9174, 217.1104
420.3995, 216.5161
420.8816, 216.9700
421.3637, 217.3664
421.8459, 217.2744
422.3280, 216.8496
422.8101, 216.3274
423.2922, 215.3852
423.7743, 214.7153
424.2564, 214.7030
424.7386, 215.4162
425.2207, 215.8315
425.7028, 215.4422
426.1849, 215.0070
426.6670, 215.0209
427.1491, 215.7027
427.6313, 216.5085
428.1134, 217.5262
428.5955, 218.6321
429.0776, 219.3816
429.5597, 219.3669
430.0418, 219.8549
430.5240, 221.6134
431.0061, 224.8030
431.4882, 226.8477
431.9703, 227.3726
432.4524, 227.5452
432.9345, 228.6506
433.4167, 230.6944
433.8988, 233.1161
434.3809, 235.8455
434.8630, 238.7630
435.3451, 241.3662
435.8272, 243.6801
436.3094, 246.4704
436.7915, 250.7861
437.2736, 255.9366
437.7557, 260.1969
438.2378, 263.4181
438.7199, 265.9045
439.2020, 267.3343
439.6841, 268.2815
440.1663, 269.9219
440.6484, 273.1225
441.1305, 276.9545
441.6126, 280.7744
442.0947, 284.5829
442.5768, 288.2882
443.0590, 291.4525
443.5411, 294.7230
444.0232, 298.6411
444.5053, 303.5184
444.9874, 308.5951
445.4695, 313.7733
445.9517, 318.9143
446.4338, 323.8505
446.9159, 328.3975
447.3980, 332.9014
447.8801, 337.2223
448.3622, 341.3383
448.8444, 346.2020
449.3265, 352.6639
449.8086, 359.1506
450.2907, 364.6000
450.7728, 368.5682
451.2549, 372.5980
451.7371, 376.7625
452.2192, 381.0046
452.7013, 385.2173
453.1834, 389.4193
453.6655, 393.4011
454.1476, 396.9948
454.6298, 400.2199
455.1119, 403.5054
455.5940, 406.8475
456.0761, 410.1150
456.5582, 413.2425
457.0403, 416.1885
457.5225, 418.6671
458.0046, 420.5536
458.4867, 421.9668
458.9688, 422.8787
459.4509, 423.3787
459.9330, 423.8088
460.4152, 424.4633
460.8973, 425.1074
461.3794, 425.5215
461.8615, 425.7041
462.3436, 425.5102
462.8257, 424.9389
463.3079, 423.9043
463.7900, 422.2776
464.2721, 419.2039
464.7542, 416.5088
465.2363, 415.2682
465.7184, 415.0069
466.2006, 414.3731
466.6827, 412.7082
467.1648, 410.8941
467.6469, 409.2564
468.1290, 407.8221
468.6111, 406.5569
469.0933, 405.4672
469.5754, 404.5300
470.0575, 403.6689
470.5396, 402.6425
471.0217, 402.2289
471.5038, 402.7939
471.9860, 403.9665
472.4681, 404.3527
472.9502, 403.6496
473.4323, 403.1778
473.9144, 403.8392
474.3965, 405.5722
474.8787, 406.3392
475.3608, 405.9969
475.8429, 405.3423
476.3250, 405.3813
476.8071, 405.9341
477.2892, 406.0895
477.7714, 405.5484
478.2535, 404.5931
478.7356, 403.7309
479.2177, 402.8487
479.6998, 401.4926
480.1819, 399.1096
480.6641, 396.2638
481.1462, 393.7039
481.6283, 391.5258
482.1104, 388.8627
482.5925, 385.0752
483.0746, 380.6104
483.5568, 375.9086
484.0389, 371.1546
484.5210, 366.1899
485.0031, 360.7743
485.4852, 355.1134
485.9673, 349.6643
486.4495, 344.7633
486.9316, 339.9007
487.4137, 334.9554
487.8958, 329.9466
488.3779, 324.6167
488.8600, 318.6117
489.3422, 312.5967
489.8243, 307.1211
490.3064, 302.3990
490.7885, 297.6276
491.2706, 292.6445
491.7527, 287.6081
492.2349, 282.7220
492.7170, 278.0174
493.1991, 273.5865
493.6812, 269.7290
494.1633, 266.2668
494.6454, 262.0126
495.1276, 256.9301
495.6097, 252.4850
496.0918, 251.0180
496.5739, 251.1128
497.0560, 249.7016
497.5381, 245.5139
498.0203, 240.8665
498.5024, 237.6672
498.9845, 235.5667
499.4666, 233.7069
499.9487, 231.6455
500.4308, 229.7789
500.9130, 228.3786
501.3951, 227.4581
501.8772, 226.6732
502.3593, 225.8114
502.8414, 225.1339
503.3235, 224.8288
503.8057, 225.6014
504.2878, 225.7452
504.7699, 224.9492
505.2520, 223.6021
505.7341, 222.2314
506.2162, 220.3549
506.6984, 219.4584
507.1805, 220.2937
507.6626, 222.6032
508.1447, 223.8642
508.6268, 223.8667
509.1089, 223.5933
509.5911, 223.6859
510.0732, 224.1208
510.5553, 224.6533
511.0374, 225.2759
511.5195, 225.9496
512.0016, 226.6147
512.4838, 227.2917
512.9659, 228.0285
513.4480, 228.8705
513.9301, 229.7759
514.4122, 230.6207
514.8943, 231.4634
515.3765, 232.5471
515.8586, 234.1958
516.3407, 236.0215
516.8228, 237.7188
517.3049, 239.2459
517.7870, 240.7330
518.2692, 242.0250
518.7513, 243.3769
519.2334, 245.0297
519.7155, 247.3886
520.1976, 249.6123
520.6797, 251.5612
521.1619, 253.3125
521.6440, 255.0247
522.1261, 256.4738
522.6082, 258.2606
523.0903, 260.6906
523.5724, 263.7805
524.0546, 266.7272
524.5367, 269.5362
525.0188, 272.1323
525.5009, 274.2644
525.9830, 276.0188
526.4651, 278.3282
526.9473, 281.4353
527.4294, 284.8777
527.9115, 287.4404
528.3936, 289.6170
528.8757, 293.1290
529.3578, 300.4239
529.8400, 308.3139
530.3221, 312.9546
530.8042, 314.7925
531.2863, 317.0386
531.7684, 322.0837
532.2505, 327.8031
532.7327, 332.3181
533.2148, 334.6787
533.6969, 338.0793
534.1790, 344.5113
534.6611, 351.9381
535.1432, 357.9547
535.6254, 360.6957
536.1075, 364.2786
536.5896, 369.4263
537.0717, 375.7093
537.5538, 381.2738
538.0359, 385.7066
538.5181, 390.5166
539.0002, 396.5913
539.4823, 403.8742
539.9644, 410.4721
540.4465, 416.2385
540.9286, 422.0654
541.4108, 428.6402
541.8929, 435.9876
542.3750, 444.0500
542.8571, 452.9520
543.3392, 462.1306
543.8214, 471.2561
544.3035, 480.1684
544.7856, 488.7959
545.2677, 496.8110
545.7498, 504.7514
546.2319, 512.9102
546.7141, 521.2646
547.1962, 529.6607
547.6783, 538.3629
548.1604, 546.7921
548.6425, 554.7387
549.1246, 561.9656
549.6068, 569.1830
550.0889, 576.3714
550.5710, 583.6332
551.0531, 591.1906
551.5352, 599.7582
552.0173, 607.0499
552.4995, 612.4009
552.9816, 616.5204
553.4637, 621.1140
553.9458, 626.2722
554.4279, 631.2860
554.9100, 635.8299
555.3922, 640.0005
555.8743, 644.0410
556.3564, 647.9205
556.8385, 652.0981
557.3206, 657.1904
557.8027, 662.7381
558.2849, 668.2214
558.7670, 673.7028
559.2491, 678.4408
559.7312, 681.3771
560.2133, 683.3204
560.6954, 685.3599
561.1776, 688.8343
561.6597, 691.4122
562.1418, 692.0986
562.6239, 691.2054
563.1060, 689.8898
563.5881, 689.5294
564.0703, 687.4888
564.5524, 682.6658
565.0345, 674.9110
565.5166, 667.0734
565.9987, 659.7409
566.4808, 651.3019
566.9630, 640.1510
567.4451, 626.1693
567.9272, 611.7333
568.4093, 596.9213
568.8914, 581.6813
569.3735, 565.4982
569.8557, 548.6243
570.3378, 531.4274
570.8199, 513.8646
571.3020, 496.4574
571.7841, 480.2088
572.2662, 464.9496
572.7484, 450.1212
573.2305, 434.7820
573.7126, 420.1056
574.1947, 406.7124
574.6768, 394.7930
575.1589, 383.6938
575.6411, 373.7142
576.1232, 364.3720
576.6053, 355.4561
577.0874, 346.4764
577.5695, 338.7098
578.0516, 332.5579
578.5338, 327.4331
579.0159, 322.3820
579.4980, 317.3546
579.9801, 312.8564
580.4622, 309.0627
580.9443, 305.8360
581.4265, 302.7682
581.9086, 299.8614
582.3907, 297.6082
582.8728, 296.6886
583.3549, 296.5159
583.8370, 295.6862
584.3192, 294.1919
584.8013, 292.8722
585.2834, 292.5642
