##NAMES=Redledgeite
##RRUFFID=R070714
##IDEAL CHEMISTRY=Ba(Ti^4+^_6_Cr^3+^_2_)O_16_
##LOCALITY=Red Ledge Mine, Washington, Washington District, Nevada County, California, USA
##OWNER=RRUFF
##SOURCE=Michael Scott
##DESCRIPTION=Black acicular crystals intermixed with pale green micro-fibers, used in the Foley et al (1997) Can Min 35, 1531-1534 study. Associated with light purple clinochlore
##STATUS=The identification of this mineral has been confirmed by single-crystal X-ray diffraction.
##URL=rruff.info/R070714
##MEASURED CHEMISTRY=Ba_1.15_(H_2_O)_0.93_(Ti^4+^_5.66_Cr^3+^_2.38_Fe^3+^_0.02_)_Î£=8.06_O_16_
150.9828, 4832.693
151.4649, 4787.615
151.9470, 4776.747
152.4291, 4764.869
152.9112, 4745.602
153.3933, 4727.464
153.8755, 4716.260
154.3576, 4723.145
154.8397, 4726.633
155.3218, 4722.711
155.8039, 4710.953
156.2860, 4692.947
156.7682, 4661.935
157.2503, 4626.830
157.7324, 4598.536
158.2145, 4592.382
158.6966, 4583.836
159.1787, 4559.078
159.6609, 4503.044
160.1430, 4461.220
160.6251, 4457.358
161.1072, 4478.735
161.5893, 4496.098
162.0714, 4507.058
162.5536, 4505.869
163.0357, 4487.689
163.5178, 4434.660
163.9999, 4383.242
164.4820, 4349.284
164.9641, 4331.412
165.4463, 4322.665
165.9284, 4334.548
166.4105, 4348.812
166.8926, 4345.765
167.3747, 4293.028
167.8568, 4238.229
168.3390, 4215.213
168.8211, 4226.718
169.3032, 4246.785
169.7853, 4268.846
170.2674, 4287.409
170.7495, 4292.897
171.2317, 4263.631
171.7138, 4227.237
172.1959, 4214.231
172.6780, 4232.849
173.1601, 4257.505
173.6422, 4268.373
174.1244, 4267.690
174.6065, 4262.450
175.0886, 4254.614
175.5707, 4245.407
176.0528, 4236.345
176.5349, 4227.242
177.0171, 4219.202
177.4992, 4215.671
177.9813, 4215.813
178.4634, 4212.581
178.9455, 4193.764
179.4276, 4167.163
179.9098, 4150.650
180.3919, 4154.138
180.8740, 4168.517
181.3561, 4179.580
181.8382, 4187.123
182.3203, 4192.741
182.8025, 4200.586
183.2846, 4208.794
183.7667, 4209.938
184.2488, 4193.231
184.7309, 4166.884
185.2130, 4158.462
185.6951, 4172.214
186.1773, 4188.901
186.6594, 4177.919
187.1415, 4142.057
187.6236, 4110.643
188.1057, 4104.064
188.5878, 4116.831
189.0700, 4120.472
189.5521, 4108.841
190.0342, 4092.729
190.5163, 4097.453
190.9984, 4123.775
191.4805, 4143.893
191.9627, 4129.438
192.4448, 4083.935
192.9269, 4053.686
193.4090, 4051.799
193.8911, 4066.932
194.3732, 4063.611
194.8554, 4039.272
195.3375, 4011.053
195.8196, 4000.494
196.3017, 4008.448
196.7838, 3998.073
197.2659, 3948.415
197.7481, 3869.560
198.2302, 3834.927
198.7123, 3854.670
199.1944, 3889.813
199.6765, 3890.167
200.1586, 3850.733
200.6408, 3815.684
201.1229, 3803.133
201.6050, 3813.582
202.0871, 3816.519
202.5692, 3811.713
203.0513, 3799.623
203.5335, 3777.424
204.0156, 3741.281
204.4977, 3710.677
204.9798, 3697.859
205.4619, 3706.565
205.9440, 3704.887
206.4262, 3687.623
206.9083, 3662.373
207.3904, 3649.823
207.8725, 3653.998
208.3546, 3659.596
208.8367, 3657.202
209.3189, 3644.662
209.8010, 3633.253
210.2831, 3625.337
210.7652, 3619.090
211.2473, 3605.471
211.7294, 3581.881
212.2116, 3527.556
212.6937, 3548.247
213.1758, 3553.921
213.6579, 3545.417
214.1400, 3478.524
214.6221, 3488.359
215.1043, 3468.257
215.5864, 3447.487
216.0685, 3469.782
216.5506, 3414.373
217.0327, 3437.156
217.5148, 3429.540
217.9970, 3436.683
218.4791, 3413.704
218.9612, 3400.790
219.4433, 3419.172
219.9254, 3421.127
220.4075, 3396.939
220.8897, 3408.471
221.3718, 3357.801
221.8539, 3362.806
222.3360, 3392.162
222.8181, 3372.424
223.3002, 3359.692
223.7824, 3355.525
224.2645, 3354.298
224.7466, 3357.702
225.2287, 3361.192
225.7108, 3363.538
226.1929, 3365.784
226.6750, 3364.088
227.1572, 3357.574
227.6393, 3347.506
228.1214, 3335.959
228.6035, 3319.196
229.0856, 3306.724
229.5677, 3303.523
230.0499, 3312.106
230.5320, 3324.991
231.0141, 3347.335
231.4962, 3373.923
231.9783, 3381.467
232.4604, 3356.290
232.9426, 3329.552
233.4247, 3321.156
233.9068, 3343.742
234.3889, 3359.030
234.8710, 3362.939
235.3531, 3356.277
235.8353, 3343.944
236.3174, 3315.039
236.7995, 3292.876
237.2816, 3299.266
237.7637, 3361.004
238.2458, 3398.814
238.7280, 3392.218
239.2101, 3342.205
239.6922, 3313.667
240.1743, 3309.061
240.6564, 3323.390
241.1385, 3356.494
241.6207, 3433.000
242.1028, 3484.147
242.5849, 3488.482
243.0670, 3440.538
243.5491, 3415.746
244.0313, 3423.975
244.5134, 3447.084
244.9955, 3464.628
245.4776, 3474.875
245.9597, 3482.508
246.4418, 3487.630
246.9240, 3489.097
247.4061, 3494.687
247.8882, 3503.894
248.3703, 3517.543
248.8524, 3538.389
249.3345, 3574.365
249.8167, 3603.854
250.2988, 3619.412
250.7809, 3617.231
251.2630, 3615.511
251.7451, 3612.061
252.2272, 3610.283
252.7094, 3617.121
253.1915, 3637.011
253.6736, 3657.940
254.1557, 3675.218
254.6378, 3687.029
255.1199, 3701.079
255.6021, 3716.966
256.0842, 3735.154
256.5663, 3757.913
257.0484, 3790.721
257.5305, 3818.735
258.0126, 3833.424
258.4948, 3826.857
258.9769, 3830.734
259.4590, 3850.697
259.9411, 3879.492
260.4232, 3895.788
260.9053, 3891.068
261.3875, 3889.634
261.8696, 3907.795
262.3517, 3956.598
262.8338, 3987.667
263.3159, 3991.825
263.7980, 3978.125
264.2802, 3978.395
264.7623, 3998.820
265.2444, 4020.715
265.7265, 4030.520
266.2086, 4021.288
266.6907, 4025.640
267.1729, 4051.625
267.6550, 4091.950
268.1371, 4118.656
268.6192, 4127.489
269.1013, 4131.431
269.5834, 4139.449
270.0656, 4152.871
270.5477, 4163.477
271.0298, 4169.484
271.5119, 4171.996
271.9940, 4176.980
272.4761, 4186.729
272.9583, 4193.200
273.4404, 4185.188
273.9225, 4156.993
274.4046, 4149.442
274.8867, 4178.309
275.3688, 4231.194
275.8510, 4246.591
276.3331, 4214.085
276.8152, 4175.218
277.2973, 4169.662
277.7794, 4202.214
278.2615, 4221.268
278.7437, 4212.516
279.2258, 4183.368
279.7079, 4168.721
280.1900, 4171.425
280.6721, 4177.639
281.1542, 4175.229
281.6364, 4163.915
282.1185, 4149.815
282.6006, 4131.360
283.0827, 4111.642
283.5648, 4106.854
284.0469, 4120.022
284.5291, 4132.548
285.0112, 4124.492
285.4933, 4096.456
285.9754, 4067.835
286.4575, 4041.463
286.9396, 4018.650
287.4217, 4004.408
287.9038, 3998.760
288.3860, 4000.877
288.8681, 4018.303
289.3502, 4047.745
289.8323, 4060.236
290.3144, 4039.765
290.7965, 3998.997
291.2787, 3973.996
291.7608, 3965.694
292.2429, 3962.082
292.7250, 3952.392
293.2071, 3937.511
293.6892, 3921.437
294.1714, 3904.407
294.6535, 3887.800
295.1356, 3873.953
295.6177, 3862.889
296.0998, 3855.225
296.5819, 3853.029
297.0641, 3855.015
297.5462, 3856.891
298.0283, 3858.552
298.5104, 3858.628
298.9925, 3854.339
299.4746, 3845.622
299.9568, 3834.822
300.4389, 3819.984
300.9210, 3804.362
301.4031, 3795.235
301.8852, 3796.935
302.3673, 3805.473
302.8495, 3819.493
303.3316, 3838.588
303.8137, 3852.637
304.2958, 3844.627
304.7779, 3826.374
305.2600, 3819.250
305.7422, 3843.061
306.2243, 3873.923
306.7064, 3886.479
307.1885, 3881.653
307.6706, 3875.577
308.1527, 3879.924
308.6349, 3890.138
309.1170, 3899.804
309.5991, 3909.167
310.0812, 3915.478
310.5633, 3915.103
311.0454, 3908.494
311.5276, 3902.607
312.0097, 3900.366
312.4918, 3901.559
312.9739, 3905.959
313.4560, 3914.733
313.9381, 3925.745
314.4203, 3936.290
314.9024, 3946.891
315.3845, 3962.849
315.8666, 3992.000
316.3487, 4025.390
316.8308, 4054.551
317.3130, 4077.616
317.7951, 4095.404
318.2772, 4105.379
318.7593, 4108.352
319.2414, 4112.578
319.7235, 4112.775
320.2057, 4119.414
320.6878, 4140.799
321.1699, 4207.574
321.6520, 4260.231
322.1341, 4274.946
322.6162, 4255.890
323.0984, 4244.964
323.5805, 4248.552
324.0626, 4263.933
324.5447, 4289.282
325.0268, 4340.030
325.5089, 4383.650
325.9911, 4412.678
326.4732, 4428.266
326.9553, 4446.171
327.4374, 4461.770
327.9195, 4483.405
328.4016, 4516.113
328.8838, 4574.425
329.3659, 4625.392
329.8480, 4667.940
330.3301, 4701.690
330.8122, 4725.324
331.2943, 4729.718
331.7765, 4733.103
332.2586, 4746.148
332.7407, 4776.375
333.2228, 4803.013
333.7049, 4825.919
334.1870, 4844.632
334.6692, 4856.774
335.1513, 4859.325
335.6334, 4860.608
336.1155, 4865.497
336.5976, 4875.753
337.0797, 4884.004
337.5619, 4888.541
338.0440, 4891.340
338.5261, 4898.990
339.0082, 4913.502
339.4903, 4926.550
339.9724, 4930.707
340.4546, 4923.856
340.9367, 4928.193
341.4188, 4948.898
341.9009, 4976.539
342.3830, 4989.359
342.8651, 4985.687
343.3473, 4983.401
343.8294, 4994.353
344.3115, 5017.431
344.7936, 5035.069
345.2757, 5045.674
345.7578, 5053.215
346.2400, 5063.057
346.7221, 5075.172
347.2042, 5090.154
347.6863, 5112.646
348.1684, 5138.625
348.6505, 5153.284
349.1327, 5154.188
349.6148, 5151.976
350.0969, 5164.306
350.5790, 5186.000
351.0611, 5197.478
351.5432, 5176.333
352.0254, 5143.170
352.5075, 5132.463
352.9896, 5146.996
353.4717, 5168.262
353.9538, 5178.188
354.4359, 5182.583
354.9181, 5192.579
355.4002, 5225.565
355.8823, 5258.810
356.3644, 5267.603
356.8465, 5251.505
357.3286, 5233.943
357.8108, 5232.229
358.2929, 5237.632
358.7750, 5238.620
359.2571, 5227.560
359.7392, 5213.917
360.2213, 5200.525
360.7035, 5187.793
361.1856, 5180.640
361.6677, 5187.688
362.1498, 5198.075
362.6319, 5202.446
363.1140, 5190.339
363.5962, 5179.854
364.0783, 5175.918
364.5604, 5178.099
365.0425, 5183.277
365.5246, 5197.362
366.0067, 5210.007
366.4889, 5214.878
366.9710, 5195.148
367.4531, 5186.496
367.9352, 5204.833
368.4173, 5240.826
368.8994, 5252.504
369.3815, 5208.785
369.8636, 5167.214
370.3458, 5154.284
370.8279, 5197.725
371.3100, 5221.600
371.7921, 5216.544
372.2742, 5194.094
372.7563, 5183.346
373.2385, 5191.537
373.7206, 5199.513
374.2027, 5197.934
374.6848, 5182.239
375.1669, 5176.032
375.6490, 5181.339
376.1312, 5194.002
376.6133, 5209.540
377.0954, 5230.299
377.5775, 5244.438
378.0596, 5244.084
378.5417, 5229.955
379.0239, 5227.838
379.5060, 5241.460
379.9881, 5256.128
380.4702, 5250.045
380.9523, 5223.993
381.4344, 5201.566
381.9166, 5189.341
382.3987, 5186.658
382.8808, 5193.938
383.3629, 5211.683
383.8450, 5229.476
384.3271, 5238.587
384.8093, 5239.708
385.2914, 5233.965
385.7735, 5216.646
386.2556, 5197.423
386.7377, 5192.677
387.2198, 5200.590
387.7020, 5207.246
388.1841, 5201.315
388.6662, 5188.667
389.1483, 5176.178
389.6304, 5162.661
390.1125, 5154.903
390.5947, 5166.635
391.0768, 5190.316
391.5589, 5201.745
392.0410, 5170.829
392.5231, 5134.407
393.0052, 5122.184
393.4874, 5151.053
393.9695, 5175.114
394.4516, 5172.094
394.9337, 5152.626
395.4158, 5136.208
395.8979, 5121.812
396.3801, 5116.655
396.8622, 5129.113
397.3443, 5169.662
397.8264, 5191.403
398.3085, 5173.628
398.7906, 5138.603
399.2728, 5113.121
399.7549, 5103.131
400.2370, 5096.974
400.7191, 5092.581
401.2012, 5089.873
401.6833, 5091.768
402.1655, 5103.959
402.6476, 5115.336
403.1297, 5115.723
403.6118, 5101.025
404.0939, 5085.282
404.5760, 5069.782
405.0582, 5054.897
405.5403, 5043.810
406.0224, 5038.108
406.5045, 5031.803
406.9866, 5016.198
407.4688, 4989.781
407.9509, 4982.427
408.4330, 5002.638
408.9151, 5035.683
409.3972, 5050.496
409.8793, 5046.929
410.3615, 5039.405
410.8436, 5039.536
411.3257, 5042.649
411.8078, 5029.646
412.2899, 4996.268
412.7720, 4960.555
413.2542, 4944.598
413.7363, 4944.316
414.2184, 4947.352
414.7005, 4948.245
415.1826, 4949.308
415.6647, 4955.711
416.1469, 4967.639
416.6290, 4974.747
417.1111, 4964.015
417.5932, 4945.270
418.0753, 4931.731
418.5574, 4930.667
419.0396, 4933.020
419.5217, 4938.330
420.0038, 4944.953
420.4859, 4942.625
420.9680, 4919.985
421.4501, 4891.414
421.9323, 4867.197
422.4144, 4848.967
422.8965, 4835.063
423.3786, 4828.170
423.8607, 4825.871
424.3428, 4820.908
424.8250, 4804.870
425.3071, 4793.385
425.7892, 4792.666
426.2713, 4807.370
426.7534, 4821.409
427.2355, 4840.832
427.7177, 4855.819
428.1998, 4849.241
428.6819, 4809.899
429.1640, 4773.477
429.6461, 4748.803
430.1282, 4735.930
430.6104, 4727.069
431.0925, 4721.209
431.5746, 4721.382
432.0567, 4733.963
432.5388, 4759.343
433.0209, 4780.661
433.5031, 4796.802
433.9852, 4804.728
434.4673, 4790.151
434.9494, 4753.851
435.4315, 4723.070
435.9136, 4726.416
436.3958, 4750.614
436.8779, 4760.641
437.3600, 4749.104
437.8421, 4729.588
438.3242, 4712.441
438.8063, 4698.801
439.2885, 4691.763
439.7706, 4696.101
440.2527, 4705.859
440.7348, 4717.586
441.2169, 4731.598
441.6990, 4741.045
442.1812, 4744.879
442.6633, 4741.029
443.1454, 4727.139
443.6275, 4686.731
444.1096, 4651.219
444.5917, 4631.984
445.0739, 4628.466
445.5560, 4630.600
446.0381, 4635.921
446.5202, 4646.488
447.0023, 4663.643
447.4844, 4715.073
447.9666, 4736.788
448.4487, 4708.172
448.9308, 4651.214
449.4129, 4627.502
449.8950, 4657.697
450.3771, 4687.860
450.8592, 4694.060
451.3413, 4669.542
451.8235, 4663.363
452.3056, 4684.102
452.7877, 4709.634
453.2698, 4705.034
453.7519, 4666.869
454.2340, 4638.603
454.7162, 4636.660
455.1983, 4653.414
455.6804, 4662.567
456.1625, 4663.908
456.6446, 4661.143
457.1267, 4652.682
457.6089, 4642.376
458.0910, 4641.870
458.5731, 4657.496
459.0552, 4676.646
459.5373, 4685.256
460.0194, 4684.902
460.5016, 4680.825
460.9837, 4671.215
461.4658, 4662.014
461.9479, 4659.952
462.4300, 4667.342
462.9121, 4673.198
463.3943, 4667.865
463.8764, 4658.852
464.3585, 4655.934
464.8406, 4672.863
465.3227, 4685.736
465.8048, 4684.708
466.2870, 4669.634
466.7691, 4656.391
467.2512, 4641.676
467.7333, 4632.713
468.2154, 4634.570
468.6975, 4660.803
469.1797, 4674.880
469.6618, 4667.040
470.1439, 4648.131
470.6260, 4649.725
471.1081, 4682.623
471.5902, 4709.642
472.0724, 4710.481
472.5545, 4682.652
473.0366, 4672.372
473.5187, 4683.163
474.0008, 4701.805
474.4829, 4713.369
474.9651, 4718.258
475.4472, 4721.049
475.9293, 4723.326
476.4114, 4724.376
476.8935, 4721.807
477.3756, 4715.988
477.8578, 4710.318
478.3399, 4706.875
478.8220, 4705.397
479.3041, 4704.691
479.7862, 4702.872
480.2683, 4706.128
480.7505, 4728.118
481.2326, 4758.458
481.7147, 4775.437
482.1968, 4749.750
482.6789, 4725.084
483.1610, 4729.599
483.6432, 4769.758
484.1253, 4797.589
484.6074, 4792.489
485.0895, 4773.991
485.5716, 4759.024
486.0537, 4748.694
486.5359, 4742.329
487.0180, 4741.880
487.5001, 4745.728
487.9822, 4747.083
488.4643, 4748.362
488.9464, 4702.680
489.4286, 4739.065
489.9107, 4753.818
490.3928, 4748.112
490.8749, 4660.053
491.3570, 4678.803
491.8391, 4655.035
492.3213, 4629.717
492.8034, 4664.083
493.2855, 4589.054
493.7676, 4622.885
494.2497, 4613.546
494.7318, 4624.263
495.2140, 4592.196
495.6961, 4573.612
496.1782, 4598.233
496.6603, 4599.248
497.1424, 4563.051
497.6245, 4576.254
498.1067, 4501.763
498.5888, 4504.609
499.0709, 4540.938
499.5530, 4507.923
500.0351, 4522.933
500.5172, 4519.935
500.9994, 4434.370
501.4815, 4492.955
501.9636, 4489.493
502.4457, 4422.316
502.9278, 4476.582
503.4099, 4418.625
503.8921, 4401.001
504.3742, 4413.782
504.8563, 4395.286
505.3384, 4426.627
505.8205, 4410.357
506.3026, 4390.018
506.7848, 4388.526
507.2669, 4334.408
507.7490, 4384.486
508.2311, 4354.007
508.7132, 4314.098
509.1953, 4312.873
509.6775, 4346.147
510.1596, 4365.627
510.6417, 4347.553
511.1238, 4310.874
511.6059, 4291.241
512.0880, 4287.681
512.5701, 4291.025
513.0522, 4296.806
513.5344, 4304.603
514.0165, 4316.109
514.4986, 4335.577
514.9807, 4346.673
515.4628, 4334.906
515.9449, 4308.550
516.4271, 4281.932
516.9092, 4246.037
517.3913, 4223.636
517.8734, 4233.396
518.3555, 4277.676
518.8376, 4300.822
519.3198, 4267.806
519.8019, 4232.589
520.2840, 4229.646
520.7661, 4284.567
521.2482, 4321.248
521.7303, 4332.694
522.2125, 4326.211
522.6946, 4314.631
523.1767, 4294.549
523.6588, 4283.500
524.1409, 4295.121
524.6230, 4324.374
525.1052, 4331.700
525.5873, 4314.917
526.0694, 4293.536
526.5515, 4284.610
527.0336, 4286.301
527.5157, 4294.512
527.9979, 4310.700
528.4800, 4328.447
528.9621, 4340.732
529.4442, 4348.784
529.9263, 4356.621
530.4084, 4365.567
530.8906, 4375.433
531.3727, 4386.743
531.8548, 4400.014
532.3369, 4410.841
532.8190, 4415.781
533.3011, 4418.485
533.7833, 4422.193
534.2654, 4423.646
534.7475, 4430.692
535.2296, 4447.792
535.7117, 4471.214
536.1938, 4487.160
536.6760, 4491.597
537.1581, 4496.802
537.6402, 4511.653
538.1223, 4538.225
538.6044, 4542.565
539.0865, 4518.262
539.5687, 4490.844
540.0508, 4496.502
540.5329, 4529.863
541.0150, 4549.710
541.4971, 4540.950
541.9792, 4519.619
542.4614, 4507.577
542.9435, 4504.365
543.4256, 4507.823
543.9077, 4524.066
544.3898, 4542.099
544.8719, 4549.746
545.3541, 4544.333
545.8362, 4539.478
546.3183, 4541.775
546.8004, 4547.977
547.2825, 4554.553
547.7646, 4561.140
548.2468, 4567.343
548.7289, 4572.565
549.2110, 4577.160
549.6931, 4582.738
550.1752, 4589.735
550.6573, 4597.110
551.1395, 4605.403
551.6216, 4615.652
552.1037, 4619.090
552.5858, 4612.816
553.0679, 4606.174
553.5500, 4611.936
554.0322, 4629.507
554.5143, 4644.599
554.9964, 4653.447
555.4785, 4658.658
555.9606, 4664.090
556.4427, 4669.812
556.9249, 4675.966
557.4070, 4680.384
557.8891, 4686.407
558.3712, 4699.663
558.8533, 4721.494
559.3354, 4740.931
559.8176, 4752.882
560.2997, 4758.949
560.7818, 4760.781
561.2639, 4743.564
561.7460, 4739.072
562.2281, 4763.391
562.7103, 4807.422
563.1924, 4836.426
563.6745, 4844.051
564.1566, 4844.410
564.6387, 4839.458
565.1208, 4827.489
565.6030, 4828.110
566.0851, 4844.030
566.5672, 4866.452
567.0493, 4888.254
567.5314, 4909.105
568.0135, 4927.867
568.4957, 4943.713
568.9778, 4958.262
569.4599, 4976.625
569.9420, 4996.839
570.4241, 5009.683
570.9063, 5002.305
571.3884, 4990.113
571.8705, 4987.574
572.3526, 4995.375
572.8347, 5009.960
573.3168, 5039.845
573.7990, 5069.956
574.2811, 5086.281
574.7632, 5065.959
575.2453, 5060.555
575.7274, 5089.338
576.2095, 5136.446
576.6917, 5170.211
577.1738, 5185.993
577.6559, 5195.665
578.1380, 5199.989
578.6201, 5199.573
579.1022, 5206.235
579.5844, 5222.148
580.0665, 5236.933
580.5486, 5239.564
581.0307, 5232.437
581.5128, 5232.725
581.9949, 5242.965
582.4771, 5258.711
582.9592, 5274.503
583.4413, 5291.518
583.9234, 5271.104
584.4055, 5325.835
584.8876, 5358.729
585.3698, 5370.959
585.8519, 5300.633
586.3340, 5336.909
586.8161, 5330.464
587.2982, 5322.268
587.7803, 5373.548
588.2625, 5315.231
588.7446, 5365.569
589.2267, 5372.532
589.7088, 5399.348
590.1909, 5383.177
590.6730, 5380.283
591.1552, 5420.390
591.6373, 5392.347
592.1194, 5415.235
592.6015, 5450.626
593.0836, 5500.133
593.5657, 5536.291
594.0479, 5538.896
594.5300, 5517.559
595.0121, 5495.511
595.4942, 5473.046
595.9763, 5454.487
596.4584, 5445.055
596.9406, 5441.121
597.4227, 5438.270
597.9048, 5437.445
598.3869, 5433.772
598.8690, 5426.723
599.3511, 5415.077
599.8333, 5396.384
600.3154, 5350.419
600.7975, 5318.386
601.2796, 5318.820
601.7617, 5350.575
602.2438, 5360.892
602.7260, 5342.431
603.2081, 5315.783
603.6902, 5291.052
604.1723, 5267.432
604.6544, 5258.415
605.1365, 5268.829
605.6187, 5281.622
606.1008, 5272.709
606.5829, 5245.998
607.0650, 5217.246
607.5471, 5188.157
608.0292, 5162.808
608.5114, 5145.957
608.9935, 5137.042
609.4756, 5133.990
609.9577, 5145.390
610.4398, 5154.879
610.9219, 5150.609
611.4041, 5129.488
611.8862, 5109.539
612.3683, 5086.846
612.8504, 5071.370
613.3325, 5071.142
613.8146, 5096.669
614.2968, 5116.986
614.7789, 5130.385
615.2610, 5138.144
615.7431, 5141.821
616.2252, 5141.168
616.7073, 5139.000
617.1895, 5137.163
617.6716, 5134.147
618.1537, 5119.427
618.6358, 5094.680
619.1179, 5083.417
619.6000, 5117.735
620.0822, 5167.971
620.5643, 5194.905
621.0464, 5189.924
621.5285, 5185.565
622.0106, 5205.683
622.4927, 5233.176
622.9749, 5249.674
623.4570, 5241.735
623.9391, 5233.784
624.4212, 5224.228
624.9033, 5217.371
625.3854, 5224.792
625.8676, 5248.657
626.3497, 5282.630
626.8318, 5331.993
627.3139, 5392.615
627.7960, 5415.503
628.2781, 5395.406
628.7603, 5380.551
629.2424, 5420.055
629.7245, 5494.717
630.2066, 5554.792
630.6887, 5592.034
631.1708, 5623.039
631.6530, 5656.850
632.1351, 5695.426
632.6172, 5741.928
633.0993, 5817.702
633.5814, 5879.954
634.0635, 5900.001
634.5457, 5891.486
635.0278, 5906.823
635.5099, 5968.032
635.9920, 6034.911
636.4741, 6095.739
636.9562, 6150.528
637.4384, 6207.943
637.9205, 6269.871
638.4026, 6331.150
638.8847, 6384.801
639.3668, 6432.218
639.8489, 6485.929
640.3311, 6548.257
640.8132, 6611.872
641.2953, 6663.332
641.7774, 6709.914
642.2595, 6769.198
