##NAMES=Redledgeite
##RRUFFID=R070714
##IDEAL CHEMISTRY=Ba(Ti^4+^_6_Cr^3+^_2_)O_16_
##LOCALITY=Red Ledge Mine, Washington, Washington District, Nevada County, California, USA
##OWNER=RRUFF
##SOURCE=Michael Scott
##DESCRIPTION=Black acicular crystals intermixed with pale green micro-fibers, used in the Foley et al (1997) Can Min 35, 1531-1534 study. Associated with light purple clinochlore
##STATUS=The identification of this mineral has been confirmed by single-crystal X-ray diffraction.
##URL=rruff.info/R070714
##MEASURED CHEMISTRY=Ba_1.15_(H_2_O)_0.93_(Ti^4+^_5.66_Cr^3+^_2.38_Fe^3+^_0.02_)_Î£=8.06_O_16_
123.8625, 47181.51
124.3446, 47325.57
124.8267, 47454.61
125.3088, 47525.43
125.7909, 47531.86
126.2731, 47567.54
126.7552, 47680.36
127.2373, 47801.98
127.7194, 47904.48
128.2015, 47981.85
128.6837, 48038.41
129.1658, 48076.04
129.6479, 48072.06
130.1300, 48094.88
130.6121, 48149.80
131.0942, 48227.70
131.5764, 48338.22
132.0585, 48484.91
132.5406, 48639.91
133.0227, 48701.87
133.5048, 48530.02
133.9869, 48412.93
134.4691, 48401.71
134.9512, 48466.93
135.4333, 48565.28
135.9154, 48676.52
136.3975, 48796.28
136.8796, 48854.22
137.3618, 48798.34
137.8439, 48742.01
138.3260, 48755.92
138.8081, 48832.84
139.2902, 48899.49
139.7723, 48890.36
140.2545, 48803.44
140.7366, 48724.28
141.2187, 48640.71
141.7008, 48574.52
142.1829, 48562.94
142.6650, 48622.68
143.1472, 48686.00
143.6293, 48670.50
144.1114, 48592.92
144.5935, 48525.19
145.0756, 48513.70
145.5577, 48537.94
146.0399, 48526.55
146.5220, 48446.95
147.0041, 48351.37
147.4862, 48283.98
147.9683, 48243.82
148.4504, 48206.44
148.9326, 48146.30
149.4147, 48059.23
149.8968, 47989.01
150.3789, 47951.83
150.8610, 47929.98
151.3431, 47924.93
151.8252, 47935.63
152.3074, 47941.21
152.7895, 47902.51
153.2716, 47783.85
153.7537, 47698.39
154.2358, 47669.68
154.7179, 47667.81
155.2001, 47673.66
155.6822, 47679.25
156.1643, 47678.34
156.6464, 47651.04
157.1285, 47548.51
157.6106, 47474.42
158.0928, 47463.20
158.5749, 47481.81
159.0570, 47483.42
159.5391, 47438.72
160.0212, 47353.02
160.5033, 47287.08
160.9855, 47253.53
161.4676, 47223.65
161.9497, 47192.41
162.4318, 47158.29
162.9139, 47117.79
163.3960, 47065.46
163.8782, 47001.27
164.3603, 46958.03
164.8424, 46945.04
165.3245, 46942.89
165.8066, 46936.76
166.2887, 46926.13
166.7709, 46926.23
167.2530, 46963.73
167.7351, 47036.72
168.2172, 47066.39
168.6993, 47015.61
169.1814, 46928.30
169.6636, 46856.60
170.1457, 46808.97
170.6278, 46772.29
171.1099, 46733.44
171.5920, 46693.12
172.0741, 46658.02
172.5563, 46631.19
173.0384, 46611.68
173.5205, 46599.60
174.0026, 46604.66
174.4847, 46602.54
174.9668, 46562.91
175.4490, 46489.45
175.9311, 46429.52
176.4132, 46430.23
176.8953, 46489.29
177.3774, 46521.73
177.8595, 46494.04
178.3417, 46448.59
178.8238, 46405.78
179.3059, 46368.55
179.7880, 46341.71
180.2701, 46330.87
180.7522, 46336.94
181.2344, 46355.29
181.7165, 46416.66
182.1986, 46469.78
182.6807, 46471.87
183.1628, 46413.06
183.6449, 46332.57
184.1271, 46298.77
184.6092, 46340.46
185.0913, 46374.07
185.5734, 46402.01
186.0555, 46414.20
186.5376, 46392.23
187.0198, 46329.00
187.5019, 46248.48
187.9840, 46213.70
188.4661, 46278.65
188.9482, 46324.84
189.4303, 46331.61
189.9125, 46318.61
190.3946, 46308.96
190.8767, 46314.54
191.3588, 46331.66
191.8409, 46343.14
192.3230, 46364.82
192.8052, 46363.30
193.2873, 46305.15
193.7694, 46221.11
194.2515, 46165.76
194.7336, 46174.14
195.2157, 46238.80
195.6979, 46288.05
196.1800, 46327.51
196.6621, 46350.32
197.1442, 46350.00
197.6263, 46329.89
198.1084, 46297.57
198.5906, 46253.13
199.0727, 46200.00
199.5548, 46172.21
200.0369, 46218.59
200.5190, 46247.31
201.0011, 46180.17
201.4833, 46026.61
201.9654, 45887.74
202.4475, 45841.57
202.9296, 45884.86
203.4117, 45923.46
203.8938, 45948.21
204.3760, 45971.84
204.8581, 46019.51
205.3402, 46095.39
205.8223, 46143.21
206.3044, 46096.33
206.7865, 45979.59
207.2687, 45881.43
207.7508, 45820.25
208.2329, 45786.27
208.7150, 45770.65
209.1971, 45776.15
209.6792, 45787.31
210.1614, 45786.71
210.6435, 45781.00
211.1256, 45788.62
211.6077, 45843.77
212.0898, 45913.60
212.5719, 45913.60
213.0541, 45802.48
213.5362, 45697.74
214.0183, 45697.27
214.5004, 45767.00
214.9825, 45824.27
215.4646, 45825.29
215.9468, 45778.14
216.4289, 45708.38
216.9110, 45579.02
217.3931, 45483.70
217.8752, 45493.21
218.3573, 45578.36
218.8395, 45654.70
219.3216, 45650.84
219.8037, 45575.27
220.2858, 45534.98
220.7679, 45558.05
221.2500, 45590.71
221.7322, 45608.70
222.2143, 45614.43
222.6964, 45619.75
223.1785, 45644.50
223.6606, 45691.38
224.1427, 45695.20
224.6249, 45597.81
225.1070, 45505.86
225.5891, 45461.04
226.0712, 45459.61
226.5533, 45475.54
227.0354, 45488.00
227.5176, 45497.15
227.9997, 45499.19
228.4818, 45465.73
228.9639, 45448.29
229.4460, 45485.16
229.9281, 45564.87
230.4103, 45639.08
230.8924, 45648.59
231.3745, 45567.36
231.8566, 45540.13
232.3387, 45630.54
232.8208, 45717.29
233.3030, 45734.14
233.7851, 45685.57
234.2672, 45624.74
234.7493, 45611.39
235.2314, 45661.88
235.7135, 45702.98
236.1957, 45740.68
236.6778, 45767.02
237.1599, 45775.46
237.6420, 45766.89
238.1241, 45746.63
238.6062, 45716.21
239.0884, 45658.94
239.5705, 45651.30
240.0526, 45746.97
240.5347, 45841.16
241.0168, 45858.43
241.4989, 45798.64
241.9811, 45724.10
242.4632, 45708.27
242.9453, 45776.50
243.4274, 45828.66
243.9095, 45860.41
244.3916, 45881.61
244.8738, 45894.65
245.3559, 45901.59
245.8380, 45909.55
246.3201, 45929.45
246.8022, 45973.85
247.2843, 45984.84
247.7665, 45913.31
248.2486, 45845.88
248.7307, 45850.21
249.2128, 45931.88
249.6949, 46046.58
250.1770, 46149.48
250.6592, 46245.51
251.1413, 46299.00
251.6234, 46272.46
252.1055, 46231.38
252.5876, 46227.82
253.0697, 46267.11
253.5519, 46316.28
254.0340, 46338.46
254.5161, 46324.18
254.9982, 46317.30
255.4803, 46293.14
255.9624, 46291.97
256.4445, 46371.22
256.9267, 46530.77
257.4088, 46682.04
257.8909, 46723.50
258.3730, 46619.90
258.8551, 46580.58
259.3372, 46663.59
259.8194, 46773.42
260.3015, 46829.52
260.7836, 46823.86
261.2657, 46803.90
261.7478, 46812.55
262.2299, 46854.80
262.7121, 46911.02
263.1942, 47014.79
263.6763, 47110.46
264.1584, 47141.16
264.6405, 47104.18
265.1227, 47054.92
265.6048, 47036.79
266.0869, 47054.11
266.5690, 47104.15
267.0511, 47246.39
267.5332, 47382.10
268.0154, 47417.05
268.4975, 47347.95
268.9796, 47253.12
269.4617, 47183.71
269.9438, 47144.78
270.4259, 47155.27
270.9081, 47273.48
271.3902, 47400.64
271.8723, 47449.00
272.3544, 47417.84
272.8365, 47379.21
273.3186, 47387.41
273.8008, 47440.02
274.2829, 47481.53
274.7650, 47507.10
275.2471, 47524.70
275.7292, 47542.74
276.2113, 47560.59
276.6935, 47566.86
277.1756, 47549.50
277.6577, 47512.25
278.1398, 47486.34
278.6219, 47476.04
279.1040, 47473.70
279.5862, 47478.53
280.0683, 47489.14
280.5504, 47493.91
281.0325, 47480.14
281.5146, 47456.10
281.9967, 47453.78
282.4789, 47484.68
282.9610, 47525.71
283.4431, 47559.66
283.9252, 47589.32
284.4073, 47635.52
284.8894, 47724.86
285.3716, 47829.20
285.8537, 47868.18
286.3358, 47803.02
286.8179, 47724.39
287.3000, 47689.04
287.7821, 47685.02
288.2643, 47663.75
288.7464, 47598.75
289.2285, 47505.05
289.7106, 47420.34
290.1927, 47337.58
290.6748, 47274.72
291.1570, 47240.88
291.6391, 47234.06
292.1212, 47252.54
292.6033, 47304.51
293.0854, 47370.11
293.5675, 47411.92
294.0497, 47435.77
294.5318, 47431.20
295.0139, 47373.95
295.4960, 47285.54
295.9781, 47211.74
296.4602, 47164.09
296.9424, 47143.93
297.4245, 47162.93
297.9066, 47227.24
298.3887, 47287.36
298.8708, 47325.73
299.3529, 47350.02
299.8351, 47378.04
300.3172, 47418.21
300.7993, 47448.34
301.2814, 47419.64
301.7635, 47322.36
302.2456, 47266.22
302.7278, 47310.82
303.2099, 47398.29
303.6920, 47445.58
304.1741, 47433.50
304.6562, 47409.54
305.1383, 47430.91
305.6205, 47500.38
306.1026, 47560.14
306.5847, 47612.80
307.0668, 47646.96
307.5489, 47637.70
308.0310, 47582.32
308.5132, 47530.71
308.9953, 47534.85
309.4774, 47597.69
309.9595, 47638.14
310.4416, 47631.73
310.9237, 47617.23
311.4059, 47630.54
311.8880, 47670.71
312.3701, 47705.05
312.8522, 47705.54
313.3343, 47674.22
313.8164, 47659.97
314.2986, 47638.40
314.7807, 47653.76
315.2628, 47764.48
315.7449, 47946.06
316.2270, 48096.32
316.7091, 48143.30
317.1913, 48108.21
317.6734, 48120.14
318.1555, 48227.10
318.6376, 48321.99
319.1197, 48357.72
319.6018, 48350.71
320.0840, 48334.67
320.5661, 48320.97
321.0482, 48318.21
321.5303, 48359.95
322.0124, 48490.14
322.4945, 48598.10
322.9767, 48642.01
323.4588, 48654.26
323.9409, 48686.02
324.4230, 48757.89
324.9051, 48847.00
325.3872, 48907.44
325.8694, 48918.64
326.3515, 48936.89
326.8336, 48975.17
327.3157, 49017.73
327.7978, 49038.05
328.2799, 49031.41
328.7621, 49033.87
329.2442, 49099.99
329.7263, 49271.63
330.2084, 49403.18
330.6905, 49471.91
331.1726, 49518.75
331.6548, 49574.93
332.1369, 49642.55
332.6190, 49701.75
333.1011, 49730.06
333.5832, 49719.67
334.0653, 49721.37
334.5475, 49725.20
335.0296, 49747.25
335.5117, 49806.40
335.9938, 49892.89
336.4759, 49978.06
336.9580, 50038.46
337.4402, 50074.71
337.9223, 50126.32
338.4044, 50237.29
338.8865, 50315.54
339.3686, 50313.72
339.8507, 50265.61
340.3329, 50229.25
340.8150, 50238.15
341.2971, 50282.85
341.7792, 50323.07
342.2613, 50371.10
342.7434, 50397.31
343.2256, 50362.48
343.7077, 50319.71
344.1898, 50330.40
344.6719, 50418.17
345.1540, 50551.61
345.6361, 50674.10
346.1183, 50805.34
346.6004, 50881.70
347.0825, 50878.22
347.5646, 50843.07
348.0467, 50798.54
348.5288, 50754.49
349.0110, 50724.59
349.4931, 50733.55
349.9752, 50796.39
350.4573, 50837.77
350.9394, 50845.73
351.4215, 50840.05
351.9037, 50812.73
352.3858, 50774.67
352.8679, 50759.09
353.3500, 50807.84
353.8321, 50917.89
354.3142, 50988.28
354.7964, 50996.70
355.2785, 50988.50
355.7606, 50990.42
356.2427, 50990.13
356.7248, 50956.04
357.2069, 50844.66
357.6891, 50703.39
358.1712, 50682.02
358.6533, 50836.27
359.1354, 50985.96
359.6175, 51066.41
360.0996, 51100.69
360.5818, 51106.88
361.0639, 51084.40
361.5460, 51051.50
362.0281, 51033.34
362.5102, 51031.57
362.9923, 51028.74
363.4745, 51021.53
363.9566, 51008.81
364.4387, 50986.86
364.9208, 50953.65
365.4029, 50924.15
365.8850, 50909.57
366.3672, 50908.64
366.8493, 50913.60
367.3314, 50922.94
367.8135, 50938.57
368.2956, 50972.93
368.7777, 51023.95
369.2599, 51049.02
369.7420, 51020.52
370.2241, 50957.86
370.7062, 50880.63
371.1883, 50783.45
371.6704, 50715.91
372.1526, 50740.58
372.6347, 50839.95
373.1168, 50910.91
373.5989, 50939.63
374.0810, 50936.21
374.5631, 50884.07
375.0453, 50792.89
375.5274, 50740.01
376.0095, 50787.12
376.4916, 50902.61
376.9737, 50948.64
377.4558, 50869.42
377.9380, 50793.41
378.4201, 50761.95
378.9022, 50766.55
379.3843, 50800.46
379.8664, 50865.26
380.3485, 50936.65
380.8307, 50961.62
381.3128, 50911.81
381.7949, 50867.72
382.2770, 50835.00
382.7591, 50809.77
383.2412, 50785.30
383.7234, 50761.62
384.2055, 50750.64
384.6876, 50769.62
385.1697, 50831.52
385.6518, 50867.62
386.1339, 50865.62
386.6161, 50854.24
387.0982, 50853.22
387.5803, 50855.93
388.0624, 50838.79
388.5445, 50780.89
389.0266, 50687.89
389.5088, 50621.79
389.9909, 50582.24
390.4730, 50574.28
390.9551, 50627.43
391.4372, 50702.83
391.9193, 50750.23
392.4015, 50747.20
392.8836, 50717.17
393.3657, 50712.82
393.8478, 50758.52
394.3299, 50768.07
394.8120, 50681.30
395.2942, 50590.16
395.7763, 50566.80
396.2584, 50617.73
396.7405, 50680.71
397.2226, 50684.69
397.7047, 50629.04
398.1869, 50609.52
398.6690, 50669.30
399.1511, 50721.94
399.6332, 50711.08
400.1153, 50653.47
400.5974, 50598.52
401.0796, 50569.84
401.5617, 50562.43
402.0438, 50572.14
402.5259, 50607.36
403.0080, 50627.64
403.4901, 50594.61
403.9723, 50537.18
404.4544, 50501.36
404.9365, 50510.58
405.4186, 50516.69
405.9007, 50457.04
406.3828, 50348.97
406.8650, 50294.43
407.3471, 50346.11
407.8292, 50446.18
408.3113, 50503.20
408.7934, 50515.61
409.2755, 50506.67
409.7577, 50471.61
410.2398, 50423.21
410.7219, 50379.13
411.2040, 50342.45
411.6861, 50304.46
412.1682, 50250.58
412.6504, 50176.27
413.1325, 50144.59
413.6146, 50203.82
414.0967, 50259.94
414.5788, 50256.06
415.0609, 50203.43
415.5431, 50142.75
416.0252, 50097.68
416.5073, 50066.79
416.9894, 50041.74
417.4715, 50021.53
417.9536, 50009.83
418.4358, 50021.65
418.9179, 50036.04
419.4000, 50031.22
419.8821, 50000.65
420.3642, 49952.51
420.8463, 49894.48
421.3285, 49814.29
421.8106, 49759.68
422.2927, 49740.10
422.7748, 49736.11
423.2569, 49749.65
423.7390, 49772.55
424.2212, 49784.92
424.7033, 49769.07
425.1854, 49729.24
425.6675, 49688.66
426.1496, 49633.76
426.6317, 49602.63
427.1139, 49613.18
427.5960, 49650.80
428.0781, 49703.04
428.5602, 49772.44
429.0423, 49835.18
429.5244, 49857.98
430.0066, 49840.24
430.4887, 49815.46
430.9708, 49794.86
431.4529, 49768.35
431.9350, 49725.43
432.4171, 49665.54
432.8993, 49601.16
433.3814, 49521.72
433.8635, 49446.12
434.3456, 49417.08
434.8277, 49445.15
435.3098, 49479.99
435.7920, 49478.87
436.2741, 49443.62
436.7562, 49414.21
437.2383, 49390.21
437.7204, 49373.88
438.2025, 49373.14
438.6847, 49381.86
439.1668, 49383.07
439.6489, 49368.48
440.1310, 49341.19
440.6131, 49309.06
441.0952, 49251.95
441.5774, 49218.69
442.0595, 49221.54
442.5416, 49243.22
443.0237, 49287.62
443.5058, 49345.38
443.9879, 49368.70
444.4701, 49288.13
444.9522, 49074.89
445.4343, 48965.81
445.9164, 49055.77
446.3985, 49156.03
446.8806, 49217.20
447.3628, 49244.42
447.8449, 49259.63
448.3270, 49277.58
448.8091, 49283.56
449.2912, 49230.79
449.7733, 49089.65
450.2555, 48972.66
450.7376, 48914.26
451.2197, 48888.11
451.7018, 48887.25
452.1839, 48910.06
452.6660, 48924.87
453.1482, 48891.33
453.6303, 48824.11
454.1124, 48798.09
454.5945, 48839.36
455.0766, 48884.09
455.5587, 48869.62
456.0409, 48814.29
456.5230, 48769.32
457.0051, 48748.41
457.4872, 48740.56
457.9693, 48741.94
458.4514, 48750.02
458.9336, 48751.74
459.4157, 48740.97
459.8978, 48719.70
460.3799, 48690.22
460.8620, 48635.55
461.3441, 48604.95
461.8262, 48619.37
462.3083, 48655.05
462.7905, 48697.81
463.2726, 48740.52
463.7547, 48761.86
464.2368, 48735.10
464.7189, 48651.82
465.2010, 48592.69
465.6832, 48542.13
466.1653, 48530.40
466.6474, 48605.34
467.1295, 48718.30
467.6116, 48789.18
468.0938, 48774.92
468.5759, 48712.01
469.0580, 48680.67
469.5401, 48689.09
470.0222, 48705.98
470.5043, 48766.90
470.9865, 48804.66
471.4686, 48745.14
471.9507, 48596.70
472.4328, 48477.13
472.9149, 48505.76
473.3970, 48637.85
473.8792, 48706.94
474.3613, 48690.55
474.8434, 48657.15
475.3255, 48653.88
475.8076, 48664.52
476.2897, 48653.82
476.7719, 48601.71
477.2540, 48546.39
477.7361, 48508.13
478.2182, 48487.43
478.7003, 48488.99
479.1824, 48517.54
479.6646, 48558.52
480.1467, 48589.15
480.6288, 48605.55
481.1109, 48624.80
481.5930, 48668.57
482.0751, 48699.21
482.5573, 48677.37
483.0394, 48612.95
483.5215, 48550.89
484.0036, 48522.90
484.4857, 48525.30
484.9678, 48533.91
485.4500, 48535.29
485.9321, 48562.17
486.4142, 48651.77
486.8963, 48749.15
487.3784, 48802.55
487.8605, 48798.64
488.3427, 48759.76
488.8248, 48704.23
489.3069, 48631.21
489.7890, 48559.75
490.2711, 48474.39
490.7532, 48414.80
491.2354, 48414.99
491.7175, 48454.00
492.1996, 48482.92
492.6817, 48485.11
493.1638, 48467.39
493.6459, 48425.33
494.1281, 48362.01
494.6102, 48326.42
495.0923, 48353.50
495.5744, 48397.84
496.0565, 48369.77
496.5386, 48126.75
497.0208, 48282.84
497.5029, 48359.18
497.9850, 48360.02
498.4671, 48059.31
498.9492, 48148.00
499.4313, 48080.63
499.9135, 48006.86
500.3956, 48150.36
500.8777, 47893.51
501.3598, 48033.56
501.8419, 48015.18
502.3240, 48069.30
502.8062, 47966.40
503.2883, 47912.01
503.7704, 48014.69
504.2525, 48030.39
504.7346, 47909.43
505.2167, 47968.16
505.6989, 47705.82
506.1810, 47725.23
506.6631, 47866.20
507.1452, 47753.13
507.6273, 47814.74
508.1094, 47809.82
508.5916, 47502.55
509.0737, 47721.09
509.5558, 47569.47
510.0379, 47592.73
510.5200, 47620.56
511.0021, 47658.26
511.4843, 47681.46
511.9664, 47636.87
512.4485, 47510.18
512.9306, 47427.57
513.4127, 47455.82
513.8948, 47520.47
514.3770, 47554.67
514.8591, 47552.95
515.3412, 47531.91
515.8233, 47500.80
516.3054, 47461.81
516.7875, 47429.89
517.2697, 47391.48
517.7518, 47377.91
518.2339, 47426.28
518.7160, 47481.59
519.1981, 47488.76
519.6802, 47438.14
520.1624, 47360.98
520.6445, 47276.91
521.1266, 47184.32
521.6087, 47156.70
522.0908, 47249.00
522.5729, 47325.30
523.0551, 47308.63
523.5372, 47243.61
524.0193, 47199.38
524.5014, 47198.43
524.9835, 47219.74
525.4656, 47261.40
525.9478, 47313.60
526.4299, 47318.09
526.9120, 47247.33
527.3941, 47156.81
527.8762, 47108.85
528.3583, 47104.20
528.8405, 47115.14
529.3226, 47141.06
529.8047, 47179.96
530.2868, 47252.04
530.7689, 47337.12
531.2510, 47380.84
531.7332, 47353.72
532.2153, 47281.14
532.6974, 47222.86
533.1795, 47170.09
533.6616, 47150.38
534.1437, 47191.95
534.6259, 47238.97
535.1080, 47255.54
535.5901, 47244.69
536.0722, 47231.54
536.5543, 47237.77
537.0364, 47252.96
537.5186, 47235.29
538.0007, 47168.89
538.4828, 47131.52
538.9649, 47181.27
539.4470, 47257.95
539.9291, 47287.69
540.4113, 47258.73
540.8934, 47232.82
541.3755, 47244.89
541.8576, 47277.09
542.3397, 47309.75
542.8218, 47339.31
543.3040, 47344.60
543.7861, 47301.68
544.2682, 47219.54
544.7503, 47177.10
545.2324, 47214.77
545.7145, 47235.95
546.1967, 47205.16
546.6788, 47157.50
547.1609, 47136.03
547.6430, 47147.63
548.1251, 47160.10
548.6072, 47131.22
549.0894, 47058.66
549.5715, 47022.56
550.0536, 47024.07
550.5357, 47064.55
551.0178, 47192.98
551.4999, 47338.38
551.9821, 47393.22
552.4642, 47309.63
552.9463, 47199.79
553.4284, 47168.42
553.9105, 47198.15
554.3926, 47219.33
554.8748, 47215.73
555.3569, 47213.07
555.8390, 47240.52
556.3211, 47296.86
556.8032, 47330.20
557.2853, 47318.66
557.7675, 47305.41
558.2496, 47319.04
558.7317, 47342.48
559.2138, 47342.88
559.6959, 47309.01
560.1780, 47260.47
560.6602, 47051.65
561.1423, 47249.41
561.6244, 47366.73
562.1065, 47407.88
562.5886, 47146.79
563.0707, 47274.42
563.5529, 47245.32
564.0350, 47209.13
564.5171, 47389.53
564.9992, 47168.90
565.4813, 47344.49
565.9634, 47360.97
566.4456, 47449.28
566.9277, 47379.89
567.4098, 47358.31
567.8919, 47493.13
568.3740, 47540.30
568.8561, 47450.11
569.3383, 47538.95
569.8204, 47306.03
570.3025, 47354.18
570.7846, 47523.21
571.2667, 47437.52
571.7488, 47525.82
572.2310, 47546.92
572.7131, 47265.00
573.1952, 47560.09
573.6773, 47651.25
574.1594, 47641.96
574.6415, 47617.68
575.1237, 47613.53
575.6058, 47622.64
576.0879, 47618.58
576.5700, 47579.30
577.0521, 47545.75
577.5342, 47604.66
578.0164, 47756.81
578.4985, 47848.41
578.9806, 47815.35
579.4627, 47753.13
579.9448, 47776.49
580.4269, 47873.37
580.9091, 47930.36
581.3912, 47886.05
581.8733, 47831.55
582.3554, 47838.36
582.8375, 47885.67
583.3196, 47912.04
583.8018, 47891.05
584.2839, 47853.39
584.7660, 47853.43
585.2481, 47905.61
585.7302, 47954.90
586.2123, 48001.31
586.6945, 48045.21
587.1766, 48098.84
587.6587, 48148.43
588.1408, 48163.97
588.6229, 48125.00
589.1050, 48068.19
589.5872, 48048.87
590.0693, 48065.41
590.5514, 48072.38
591.0335, 48050.65
591.5156, 48034.86
591.9977, 48073.48
592.4799, 48157.20
592.9620, 48213.13
593.4441, 48217.07
593.9262, 48204.72
594.4083, 48184.15
594.8904, 48164.26
595.3726, 48164.06
595.8547, 48189.82
596.3368, 48226.70
596.8189, 48255.25
597.3010, 48277.21
597.7831, 48281.52
598.2653, 48230.68
598.7474, 48201.61
599.2295, 48255.55
599.7116, 48336.16
600.1937, 48351.16
600.6758, 48260.33
601.1580, 48137.66
601.6401, 48042.15
602.1222, 47978.18
602.6043, 47983.90
603.0864, 48085.93
603.5685, 48179.50
604.0507, 48169.69
604.5328, 48065.53
605.0149, 47985.75
605.4970, 47921.32
605.9791, 47891.44
606.4612, 47942.81
606.9434, 48014.71
607.4255, 48018.54
607.9076, 47940.53
608.3897, 47850.40
608.8718, 47828.93
609.3539, 47873.70
609.8361, 47866.11
610.3182, 47751.23
610.8003, 47675.52
611.2824, 47746.01
611.7645, 47845.62
612.2466, 47831.61
612.7288, 47671.50
613.2109, 47517.30
613.6930, 47469.99
614.1751, 47495.78
614.6572, 47551.07
615.1393, 47629.90
