##NAMES=Reedmergnerite
##RRUFFID=R060096
##IDEAL CHEMISTRY=NaBSi_3_O_8_
##LOCALITY=Dara-i-Pioz, Tadjikistan
##OWNER=RRUFF
##SOURCE=University of Arizona Mineral Museum
##DESCRIPTION=Colorless fragment
##STATUS=The identification of this mineral has been confirmed by X-ray diffraction and chemical analysis
##URL=rruff.info/R060096
##MEASURED CHEMISTRY=Na_1.00_B_1.00_Si_3.00_O_8_
93.46680, 66.16538
93.94891, 64.30843
94.43103, 64.46191
94.91315, 66.09753
95.39526, 68.20962
95.87738, 70.43456
96.35950, 72.91367
96.84161, 75.91770
97.32373, 79.32120
97.80585, 83.54048
98.28796, 89.12257
98.77008, 96.37888
99.25220, 104.4271
99.73431, 112.6655
100.2164, 122.3496
100.6985, 128.7093
101.1807, 132.0233
101.6628, 132.1613
102.1449, 128.3455
102.6270, 119.8102
103.1091, 107.2830
103.5912, 95.51211
104.0734, 83.50735
104.5555, 73.09716
105.0376, 64.76917
105.5197, 58.25523
106.0018, 53.10569
106.4839, 48.98131
106.9661, 45.91829
107.4482, 43.61937
107.9303, 42.18250
108.4124, 41.22088
108.8945, 40.52485
109.3766, 40.06061
109.8588, 39.89973
110.3409, 40.16877
110.8230, 40.89425
111.3051, 41.88935
111.7872, 43.18970
112.2693, 44.73129
112.7515, 46.47844
113.2336, 48.48338
113.7157, 50.53941
114.1978, 52.67137
114.6799, 54.91896
115.1620, 56.40208
115.6442, 56.55928
116.1263, 55.41105
116.6084, 53.35288
117.0905, 49.73860
117.5726, 45.68164
118.0547, 41.73269
118.5369, 38.00592
119.0190, 34.61468
119.5011, 31.70712
119.9832, 29.36111
120.4653, 27.40388
120.9474, 25.81754
121.4296, 24.50578
121.9117, 23.41636
122.3938, 22.52676
122.8759, 21.81045
123.3580, 21.17382
123.8401, 20.57394
124.3223, 20.12587
124.8044, 19.88269
125.2865, 19.79380
125.7686, 19.79902
126.2507, 19.86973
126.7328, 19.99883
127.2150, 20.08147
127.6971, 20.03408
128.1792, 20.03026
128.6613, 20.14586
129.1434, 20.37613
129.6255, 20.66455
130.1077, 20.94847
130.5898, 21.25713
131.0719, 21.73544
131.5540, 22.40235
132.0361, 23.23877
132.5182, 24.21079
133.0004, 25.30302
133.4825, 26.59605
133.9646, 28.38780
134.4467, 30.46579
134.9288, 32.30379
135.4109, 33.89567
135.8931, 35.11102
136.3752, 35.46984
136.8573, 34.63937
137.3394, 33.25173
137.8215, 31.53382
138.3036, 29.58641
138.7858, 27.68350
139.2679, 25.96182
139.7500, 24.39263
140.2321, 23.24707
140.7142, 22.81208
141.1963, 22.58868
141.6785, 22.39295
142.1606, 22.20932
142.6427, 22.12640
143.1248, 22.28508
143.6069, 22.87183
144.0890, 23.27609
144.5712, 23.31824
145.0533, 23.32828
145.5354, 23.54314
146.0175, 24.02463
146.4996, 24.66019
146.9817, 25.25010
147.4639, 25.70159
147.9460, 26.26261
148.4281, 26.87387
148.9102, 27.62130
149.3923, 28.60562
149.8744, 29.86517
150.3566, 31.38855
150.8387, 33.18531
151.3208, 35.15897
151.8029, 37.48790
152.2850, 40.46334
152.7671, 43.90374
153.2493, 47.32804
153.7314, 51.08086
154.2135, 54.10817
154.6956, 55.04947
155.1777, 53.56512
155.6598, 50.77828
156.1420, 47.13449
156.6241, 42.58588
157.1062, 38.40493
157.5883, 35.12164
158.0704, 32.54323
158.5525, 30.63195
159.0347, 29.44290
159.5168, 28.74686
159.9989, 28.22588
160.4810, 27.91775
160.9631, 27.71185
161.4452, 27.54966
161.9274, 27.46614
162.4095, 27.48763
162.8916, 27.62147
163.3737, 27.88580
163.8558, 28.34672
164.3379, 29.16882
164.8201, 29.99233
165.3022, 30.64011
165.7843, 31.27796
166.2664, 32.14257
166.7485, 33.39710
167.2306, 34.97921
167.7128, 36.39952
168.1949, 37.47492
168.6770, 38.58675
169.1591, 39.75291
169.6412, 41.02123
170.1233, 42.46086
170.6055, 44.10683
171.0876, 45.97997
171.5697, 48.12739
172.0518, 50.65379
172.5339, 53.28935
173.0160, 55.79679
173.4982, 58.24033
173.9803, 60.95905
174.4624, 64.16212
174.9445, 67.92376
175.4266, 72.20277
175.9087, 77.25192
176.3909, 82.66778
176.8730, 88.53648
177.3551, 94.91409
177.8372, 100.4870
178.3193, 104.2934
178.8014, 106.4211
179.2836, 106.7860
179.7657, 104.3802
180.2478, 100.5284
180.7299, 96.94417
181.2120, 93.51026
181.6941, 90.90299
182.1763, 89.70626
182.6584, 89.58350
183.1405, 90.10718
183.6226, 91.11092
184.1047, 92.60760
184.5868, 94.73342
185.0690, 97.85419
185.5511, 101.0839
186.0332, 103.7297
186.5153, 106.1477
186.9974, 109.0562
187.4795, 113.0160
187.9617, 117.9670
188.4438, 122.9065
188.9259, 128.0498
189.4080, 132.9561
189.8901, 137.4267
190.3722, 141.5462
190.8544, 145.5281
191.3365, 149.5451
191.8186, 153.6371
192.3007, 157.4019
192.7828, 161.3181
193.2649, 164.5017
193.7471, 166.5883
194.2292, 167.6295
194.7113, 167.7883
195.1934, 167.0552
195.6755, 165.1037
196.1576, 164.3988
196.6398, 164.2764
197.1219, 165.6040
197.6040, 169.0589
198.0861, 174.4850
198.5682, 181.0913
199.0503, 188.0282
199.5325, 195.1936
200.0146, 204.0556
200.4967, 215.0699
200.9788, 227.2337
201.4609, 240.6077
201.9430, 254.9906
202.4252, 268.9174
202.9073, 281.7740
203.3894, 293.4554
203.8715, 299.5967
204.3536, 298.4730
204.8357, 292.5843
205.3179, 283.0440
205.8000, 269.7815
206.2821, 256.1389
206.7642, 244.7180
207.2463, 235.4395
207.7284, 228.7275
208.2106, 224.8681
208.6927, 223.5657
209.1748, 224.5954
209.6569, 228.1096
210.1390, 233.3978
210.6211, 240.1133
211.1033, 248.0838
211.5854, 257.3637
212.0675, 268.1639
212.5496, 280.2952
213.0317, 293.3810
213.5138, 307.2755
213.9960, 322.3744
214.4781, 338.9359
214.9602, 356.7091
215.4423, 375.3744
215.9244, 394.8332
216.4065, 415.0565
216.8886, 435.7886
217.3708, 458.1609
217.8529, 479.2983
218.3350, 499.5194
218.8171, 517.7575
219.2992, 532.2466
219.7813, 542.2275
220.2635, 547.6168
220.7456, 547.5566
221.2277, 541.3046
221.7098, 529.4623
222.1919, 511.6033
222.6740, 488.8794
223.1562, 462.7079
223.6383, 433.6407
224.1204, 401.9587
224.6025, 371.0439
225.0846, 340.2264
225.5667, 311.3434
226.0489, 284.6429
226.5310, 260.0934
227.0131, 237.6355
227.4952, 217.0806
227.9773, 198.5381
228.4594, 181.9595
228.9416, 168.4054
229.4237, 155.9313
229.9058, 144.1626
230.3879, 133.1916
230.8700, 123.4236
231.3521, 115.1138
231.8343, 108.1979
232.3164, 101.9498
232.7985, 96.47607
233.2806, 91.48569
233.7627, 86.90865
234.2448, 82.75247
234.7270, 79.01546
235.2091, 75.68922
235.6912, 72.78466
236.1733, 70.48461
236.6554, 68.95193
237.1375, 67.69225
237.6197, 66.71967
238.1018, 65.91457
238.5839, 64.95103
239.0660, 63.55318
239.5481, 61.91951
240.0302, 61.17066
240.5124, 61.66778
240.9945, 62.44788
241.4766, 63.46389
241.9587, 64.53731
242.4408, 65.23817
242.9229, 65.35693
243.4051, 64.90702
243.8872, 64.01047
244.3693, 62.72358
244.8514, 61.02238
245.3335, 58.76007
245.8156, 56.05383
246.2978, 53.23218
246.7799, 50.37968
247.2620, 47.56811
247.7441, 44.89726
248.2262, 42.34273
248.7083, 39.96881
249.1905, 37.75303
249.6726, 35.73560
250.1547, 34.05557
250.6368, 32.83522
251.1189, 31.90745
251.6010, 30.97023
252.0832, 29.99878
252.5653, 29.11083
253.0474, 28.38239
253.5295, 27.79534
254.0116, 27.26049
254.4937, 26.80701
254.9759, 26.33380
255.4580, 25.67866
255.9401, 24.82900
256.4222, 24.08913
256.9043, 23.71993
257.3864, 23.65137
257.8686, 23.51812
258.3507, 23.21928
258.8328, 22.87789
259.3149, 22.61263
259.7970, 22.41484
260.2791, 22.21005
260.7613, 21.93286
261.2434, 21.60087
261.7255, 21.30586
262.2076, 21.04071
262.6897, 20.84660
263.1718, 20.76379
263.6540, 20.76818
264.1361, 20.77547
264.6182, 20.72573
265.1003, 20.62979
265.5824, 20.54612
266.0645, 20.45024
266.5467, 20.41003
267.0288, 20.46922
267.5109, 20.60148
267.9930, 20.75326
268.4751, 20.91888
268.9572, 21.07895
269.4394, 21.12391
269.9215, 20.91634
270.4036, 20.80578
270.8857, 20.98965
271.3678, 21.33296
271.8499, 21.61449
272.3321, 21.68505
272.8142, 21.63461
273.2963, 21.79788
273.7784, 22.36175
274.2605, 22.82587
274.7426, 22.96412
275.2248, 22.96648
275.7069, 23.05108
276.1890, 23.31870
276.6711, 23.72690
277.1532, 24.17858
277.6353, 24.73284
278.1175, 25.21881
278.5996, 25.53010
279.0817, 25.80572
279.5638, 26.16634
280.0459, 26.65846
280.5280, 27.26386
281.0102, 27.94655
281.4923, 28.66688
281.9744, 29.56112
282.4565, 30.64182
282.9386, 31.86648
283.4207, 33.20333
283.9029, 34.64356
284.3850, 36.19339
284.8671, 37.85826
285.3492, 39.62643
285.8313, 41.55517
286.3134, 43.73847
286.7956, 45.99029
287.2777, 48.29621
287.7598, 50.59420
288.2419, 52.73444
288.7240, 54.54258
289.2061, 55.95528
289.6883, 57.20148
290.1704, 58.25405
290.6525, 59.17690
291.1346, 59.99940
291.6167, 60.71865
292.0988, 61.28567
292.5810, 61.60048
293.0631, 61.60253
293.5452, 61.99929
294.0273, 62.80622
294.5094, 63.98375
294.9915, 65.62725
295.4737, 67.64379
295.9558, 69.82513
296.4379, 71.98854
296.9200, 74.17476
297.4021, 76.90539
297.8842, 80.37672
298.3664, 84.23827
298.8485, 88.36573
299.3306, 92.85220
299.8127, 97.74712
300.2948, 103.0366
300.7769, 108.8421
301.2591, 115.6370
301.7412, 123.5078
302.2233, 132.4079
302.7054, 142.6515
303.1875, 153.7088
303.6696, 165.4075
304.1518, 177.6021
304.6339, 189.6143
305.1160, 200.2659
305.5981, 210.6254
306.0802, 217.4104
306.5623, 220.7019
307.0445, 220.6752
307.5266, 216.9745
308.0087, 209.7200
308.4908, 200.0047
308.9729, 189.1425
309.4550, 176.1264
309.9372, 164.5987
310.4193, 154.3076
310.9014, 145.3335
311.3835, 137.6978
311.8656, 131.4166
312.3477, 126.6497
312.8299, 123.7152
313.3120, 122.8646
313.7941, 122.1037
314.2762, 122.5034
314.7583, 121.9624
315.2404, 119.7378
315.7226, 115.8570
316.2047, 110.4992
316.6868, 103.6945
317.1689, 95.54018
317.6510, 87.58547
318.1331, 79.30342
318.6153, 71.75031
319.0974, 65.13842
319.5795, 59.43398
320.0616, 54.63084
320.5437, 50.74268
321.0258, 47.62063
321.5080, 44.73587
321.9901, 42.09873
322.4722, 39.76953
322.9543, 37.87777
323.4364, 36.23245
323.9185, 34.62925
324.4007, 33.01411
324.8828, 31.45950
325.3649, 30.11575
325.8470, 29.09395
326.3291, 28.08189
326.8112, 27.04919
327.2934, 26.04006
327.7755, 25.03160
328.2576, 24.04965
328.7397, 23.19502
329.2218, 22.59932
329.7039, 22.33808
330.1861, 21.96519
330.6682, 21.35670
331.1503, 20.76916
331.6324, 20.32304
332.1145, 19.99263
332.5966, 19.69212
333.0788, 19.35851
333.5609, 18.99334
334.0430, 18.62404
334.5251, 18.21935
335.0072, 17.84152
335.4893, 17.50470
335.9715, 17.20297
336.4536, 16.92697
336.9357, 16.67362
337.4178, 16.44337
337.8999, 16.24662
338.3820, 16.11120
338.8642, 15.96881
339.3463, 15.82518
339.8284, 15.66612
340.3105, 15.46064
340.7926, 15.20636
341.2747, 14.95793
341.7568, 14.80545
342.2390, 14.79892
342.7211, 14.76619
343.2032, 14.69878
343.6853, 14.61638
344.1674, 14.51694
344.6495, 14.40892
345.1317, 14.31793
345.6138, 14.28068
346.0959, 14.30514
346.5780, 14.24894
347.0601, 13.99926
347.5422, 13.77496
348.0244, 13.65892
348.5065, 13.60818
348.9886, 13.53228
349.4707, 13.36901
349.9528, 13.15325
350.4349, 13.03536
350.9171, 13.09627
351.3992, 13.13121
351.8813, 13.08210
352.3634, 13.00019
352.8455, 12.94298
353.3276, 12.92988
353.8098, 12.92521
354.2919, 12.87162
354.7740, 12.76364
355.2561, 12.62139
355.7382, 12.34278
356.2203, 12.11048
356.7025, 12.05915
357.1846, 12.18355
357.6667, 12.36006
358.1488, 12.48383
358.6309, 12.55367
359.1130, 12.59030
359.5952, 12.59549
360.0773, 12.55961
360.5594, 12.44742
361.0415, 12.29490
361.5236, 12.17376
362.0057, 12.13109
362.4879, 12.14522
362.9700, 12.14721
363.4521, 12.12295
363.9342, 12.11867
364.4163, 12.17575
364.8984, 12.24811
365.3806, 12.29429
365.8627, 12.30440
366.3448, 12.27216
366.8269, 12.16754
367.3090, 11.97762
367.7911, 11.83007
368.2733, 11.74722
368.7554, 11.72756
369.2375, 11.79683
369.7196, 11.94695
370.2017, 12.08509
370.6838, 12.13513
371.1660, 12.11358
371.6481, 12.09757
372.1302, 12.09548
372.6123, 12.09462
373.0944, 12.07015
373.5765, 12.03988
374.0587, 12.04667
374.5408, 12.12163
375.0229, 12.23236
375.5050, 12.33353
375.9871, 12.42368
376.4692, 12.51380
376.9514, 12.61334
377.4335, 12.71296
377.9156, 12.80834
378.3977, 12.91506
378.8798, 12.97422
379.3619, 12.89099
379.8441, 12.70853
380.3262, 12.61550
380.8083, 12.67040
381.2904, 12.82203
381.7725, 13.04554
382.2546, 13.33881
382.7368, 13.56142
383.2189, 13.60851
383.7010, 13.58442
384.1831, 13.63148
384.6652, 13.76678
385.1473, 13.94148
385.6295, 14.10188
386.1116, 14.27031
386.5937, 14.55739
387.0758, 15.01143
387.5579, 15.54252
388.0400, 16.17650
388.5222, 16.85770
389.0043, 17.38353
389.4864, 17.61541
389.9685, 17.70464
390.4506, 18.03856
390.9327, 18.66633
391.4149, 19.36849
391.8970, 20.18415
392.3791, 21.01437
392.8612, 21.74240
393.3433, 22.34165
393.8254, 22.86160
394.3076, 23.36502
394.7897, 23.87203
395.2718, 24.20057
395.7539, 24.28941
396.2360, 24.27482
396.7181, 24.23637
397.2003, 24.15886
397.6824, 23.95083
398.1645, 23.52794
398.6466, 22.97003
399.1287, 22.67536
399.6108, 22.80647
400.0930, 23.01762
400.5751, 23.23305
401.0572, 23.53147
401.5393, 23.99020
402.0214, 24.63505
402.5035, 25.46128
402.9857, 26.47502
403.4678, 27.72875
403.9499, 29.02534
404.4320, 30.35302
404.9141, 31.73506
405.3962, 33.39847
405.8784, 35.15531
406.3605, 36.56263
406.8426, 37.31211
407.3247, 37.41420
407.8068, 36.88169
408.2889, 35.51223
408.7711, 33.73586
409.2532, 31.38057
409.7353, 28.83868
410.2174, 26.50709
410.6995, 24.52999
411.1816, 22.79287
411.6638, 21.08477
412.1459, 19.35825
412.6280, 17.95426
413.1101, 17.04080
413.5922, 16.39193
414.0743, 15.96396
414.5565, 15.71715
415.0386, 15.53555
415.5207, 15.35652
416.0028, 15.18239
416.4849, 15.01708
416.9670, 14.85096
417.4492, 14.71858
417.9313, 14.67491
418.4134, 14.66387
418.8955, 14.59836
419.3776, 14.41863
419.8597, 14.27174
420.3419, 14.31917
420.8240, 14.54347
421.3061, 14.77825
421.7882, 14.95881
422.2703, 15.15855
422.7524, 15.46321
423.2346, 15.86986
423.7167, 16.31780
424.1988, 16.81520
424.6809, 17.32739
425.1630, 17.81777
425.6451, 18.28102
426.1273, 18.70910
426.6094, 19.08841
427.0915, 19.42229
427.5736, 19.74815
428.0557, 20.11110
428.5378, 20.41853
429.0200, 20.60662
429.5021, 20.71130
429.9842, 20.77596
430.4663, 20.80638
430.9484, 20.88338
431.4305, 21.15687
431.9127, 21.76549
432.3948, 22.23499
432.8769, 22.30980
433.3590, 22.43541
433.8411, 22.97914
434.3232, 23.90203
434.8054, 24.90005
435.2875, 25.72562
435.7696, 26.40944
436.2517, 27.29916
436.7338, 28.46317
437.2159, 29.76935
437.6981, 31.17766
438.1802, 32.72668
438.6623, 34.49479
439.1444, 36.49516
439.6265, 38.63873
440.1086, 40.82418
440.5908, 43.10858
441.0729, 45.24001
441.5550, 47.61768
442.0371, 49.48484
442.5192, 50.57231
443.0013, 50.86522
443.4835, 50.39069
443.9656, 49.13091
444.4477, 47.15139
444.9298, 44.59497
445.4119, 41.20013
445.8940, 37.86477
446.3762, 34.67189
446.8583, 31.77494
447.3404, 29.37775
447.8225, 27.52132
448.3046, 26.06491
448.7867, 24.96843
449.2689, 24.20188
449.7510, 23.61027
450.2331, 23.21697
450.7152, 22.91724
451.1973, 22.66415
451.6794, 22.44029
452.1616, 22.19635
452.6437, 21.82876
453.1258, 21.50841
453.6079, 21.41007
454.0900, 21.51461
454.5721, 21.70579
455.0543, 21.94343
455.5364, 22.22904
456.0185, 22.57028
456.5006, 22.95950
456.9827, 23.40053
457.4648, 23.90314
457.9470, 24.45252
458.4291, 25.03598
458.9112, 25.65136
459.3933, 26.28697
459.8754, 26.89670
460.3575, 27.49349
460.8397, 28.50551
461.3218, 30.16685
461.8039, 31.89583
462.2860, 33.44670
462.7681, 35.01138
463.2502, 36.85886
463.7324, 39.08027
464.2145, 41.54155
464.6966, 44.09173
465.1787, 46.88152
465.6608, 49.24713
466.1429, 51.71479
466.6251, 53.28988
467.1072, 53.48584
467.5893, 52.42081
468.0714, 50.39431
468.5535, 47.49981
469.0356, 43.91658
469.5178, 40.01371
469.9999, 35.42880
470.4820, 31.46050
470.9641, 28.64275
471.4462, 26.41791
471.9283, 24.45361
472.4105, 22.70116
472.8926, 21.23927
473.3747, 20.20485
473.8568, 19.51723
474.3389, 18.89745
474.8210, 18.32254
475.3032, 17.83196
475.7853, 17.44468
476.2674, 17.16425
476.7495, 17.02568
477.2316, 17.10657
477.7137, 17.22112
478.1959, 17.22174
478.6780, 17.15248
479.1601, 17.14335
479.6422, 17.23669
480.1243, 17.38458
480.6064, 17.50971
481.0886, 17.59343
481.5707, 17.81025
482.0528, 18.21148
482.5349, 18.71183
483.0170, 19.27390
483.4991, 19.88723
483.9813, 20.51617
484.4634, 21.13291
484.9455, 21.79743
485.4276, 22.69327
485.9097, 23.94937
486.3918, 25.26723
486.8740, 26.67609
487.3561, 28.12103
487.8382, 29.62480
488.3203, 31.14850
488.8024, 32.55478
489.2845, 33.74044
489.7667, 34.71505
490.2488, 35.54459
490.7309, 35.97890
491.2130, 36.69468
491.6951, 37.91639
492.1772, 39.44595
492.6594, 41.07689
493.1415, 42.75398
493.6236, 44.57256
494.1057, 46.60529
494.5878, 48.85723
495.0699, 51.27675
495.5521, 53.78141
496.0342, 56.60461
496.5163, 59.96022
496.9984, 63.74897
497.4805, 67.77109
497.9626, 71.80344
498.4448, 76.26714
498.9269, 81.40422
499.4090, 87.22029
499.8911, 93.78964
500.3732, 101.1505
500.8553, 109.1988
501.3375, 117.9036
501.8196, 127.3435
502.3017, 137.1347
502.7838, 148.3026
503.2659, 158.9189
503.7480, 168.5369
504.2302, 176.5742
504.7123, 182.0938
505.1944, 184.6179
505.6765, 183.9519
506.1586, 179.4258
506.6407, 168.6626
507.1228, 157.6069
507.6049, 145.2484
508.0871, 133.5604
508.5692, 123.4839
509.0513, 115.3002
509.5334, 109.1967
510.0155, 105.3863
510.4977, 103.7395
510.9798, 103.7848
511.4619, 105.7176
511.9440, 108.9327
512.4261, 113.5210
512.9083, 119.1118
513.3904, 125.7338
513.8725, 133.4045
514.3546, 141.0251
514.8367, 148.2857
515.3188, 154.8767
515.8010, 160.2925
516.2831, 164.7222
516.7652, 166.8109
517.2473, 165.4600
517.7294, 160.8699
518.2115, 154.4035
518.6937, 145.3317
519.1758, 135.5326
519.6579, 125.2693
520.1400, 114.9959
520.6221, 105.3661
521.1042, 96.50857
521.5864, 88.49482
522.0685, 81.35625
522.5506, 75.06078
523.0327, 70.00114
523.5148, 66.58321
523.9969, 63.66387
524.4791, 60.95330
524.9612, 58.50793
525.4433, 56.45414
525.9254, 54.84634
526.4075, 53.60021
526.8896, 52.64077
527.3718, 51.99108
527.8539, 51.51127
528.3360, 51.21051
528.8181, 51.08882
529.3002, 51.12280
529.7823, 51.33210
530.2645, 51.75543
530.7466, 52.41612
531.2287, 53.27330
531.7108, 54.24117
532.1929, 55.32981
532.6750, 56.71110
533.1572, 58.47421
533.6393, 60.45789
534.1214, 62.52188
534.6035, 64.65495
535.0856, 66.94099
535.5677, 69.45241
536.0499, 72.06857
536.5320, 74.92931
537.0141, 77.85188
537.4962, 80.40998
537.9783, 82.43061
538.4604, 83.89832
538.9426, 84.80458
539.4247, 85.32542
539.9068, 84.67554
540.3889, 82.38438
540.8710, 79.47612
541.3531, 76.31002
541.8353, 72.96277
542.3174, 69.41956
542.7995, 65.66588
543.2816, 61.75657
543.7637, 57.72766
544.2458, 53.36595
544.7280, 49.53609
545.2101, 46.63215
545.6922, 44.09507
546.1743, 41.59249
546.6564, 39.18435
547.1385, 37.19420
547.6207, 35.87749
548.1028, 34.96178
548.5849, 34.06709
549.0670, 33.19535
549.5491, 32.45327
550.0313, 31.89721
550.5134, 31.46650
550.9955, 31.07869
551.4776, 30.72528
551.9597, 30.46909
552.4418, 30.29159
552.9240, 30.24362
553.4061, 30.41475
553.8882, 30.75642
554.3703, 31.11142
554.8524, 31.39783
555.3345, 31.67341
555.8167, 32.06489
556.2988, 32.54013
556.7809, 33.20945
557.2630, 33.98730
557.7451, 35.00964
558.2272, 36.35310
558.7094, 38.00946
559.1915, 39.92372
559.6736, 42.06786
560.1557, 44.46505
560.6378, 47.13383
561.1199, 50.03497
561.6021, 53.41523
562.0842, 57.53891
562.5663, 61.93510
563.0484, 66.29806
563.5305, 70.59499
564.0126, 74.71233
564.4948, 78.56316
564.9769, 82.25159
565.4590, 85.85826
565.9411, 89.37638
566.4232, 92.66772
566.9053, 95.58064
567.3875, 98.57621
567.8696, 102.3775
568.3517, 107.1285
568.8338, 112.3673
569.3159, 118.0231
569.7980, 124.1856
570.2802, 130.8631
570.7623, 138.0962
571.2444, 145.9637
571.7265, 154.4578
572.2086, 163.8225
572.6907, 174.2909
573.1729, 185.8177
573.6550, 198.9941
574.1371, 213.8850
574.6192, 230.5206
575.1013, 248.7634
575.5834, 268.7825
576.0656, 291.0356
576.5477, 316.2531
577.0298, 342.4664
577.5119, 368.7892
577.9940, 394.5757
578.4761, 417.4919
578.9583, 437.9521
579.4404, 452.2628
579.9225, 457.0773
580.4046, 451.8922
580.8867, 438.3051
581.3688, 412.7811
581.8510, 382.7521
582.3331, 348.7928
582.8152, 313.2940
583.2973, 278.3209
583.7794, 244.9766
584.2615, 214.3829
584.7437, 188.1272
585.2258, 166.3088
585.7079, 147.1069
586.1900, 130.7150
586.6721, 116.7212
587.1542, 105.5739
587.6363, 96.36456
588.1184, 88.25426
588.6005, 80.99227
589.0826, 74.57823
589.5648, 69.17538
590.0469, 64.62387
590.5290, 60.32410
