##NAMES=Reedmergnerite
##RRUFFID=R060096
##IDEAL CHEMISTRY=NaBSi_3_O_8_
##LOCALITY=Dara-i-Pioz, Tadjikistan
##OWNER=RRUFF
##SOURCE=University of Arizona Mineral Museum
##DESCRIPTION=Colorless fragment
##STATUS=The identification of this mineral has been confirmed by X-ray diffraction and chemical analysis
##URL=rruff.info/R060096
##MEASURED CHEMISTRY=Na_1.00_B_1.00_Si_3.00_O_8_
93.74609, 6.417015
94.22821, 6.175023
94.71033, 6.320579
95.19244, 6.776658
95.67456, 7.264990
96.15668, 7.657406
96.63879, 7.998095
97.12091, 8.437360
97.60303, 8.982220
98.08514, 9.608503
98.56726, 10.24710
99.04938, 10.89709
99.53149, 11.68066
100.0136, 12.66580
100.4957, 13.84899
100.9778, 15.13927
101.4600, 16.54574
101.9421, 18.03537
102.4242, 19.56868
102.9063, 21.27374
103.3884, 22.70802
103.8705, 23.54322
104.3527, 23.61318
104.8348, 23.60372
105.3169, 23.54348
105.7990, 23.44442
106.2811, 23.38818
106.7632, 23.38044
107.2454, 23.41031
107.7275, 23.45738
108.2096, 23.39120
108.6917, 23.52777
109.1738, 23.89464
109.6559, 24.49361
110.1381, 25.34344
110.6202, 26.51803
111.1023, 27.92295
111.5844, 29.46543
112.0665, 30.93729
112.5486, 32.76082
113.0308, 35.07037
113.5129, 37.97133
113.9950, 41.05952
114.4771, 44.54142
114.9592, 48.11829
115.4413, 51.40826
115.9235, 54.93151
116.4056, 57.66928
116.8877, 59.09934
117.3698, 59.01496
117.8519, 58.02699
118.3340, 56.03618
118.8162, 53.26791
119.2983, 50.27347
119.7804, 46.76071
120.2625, 43.34029
120.7446, 40.52870
121.2267, 38.58339
121.7089, 37.02983
122.1910, 35.55305
122.6731, 34.20189
123.1552, 33.20430
123.6373, 32.94373
124.1194, 33.05302
124.6016, 33.07077
125.0837, 32.78394
125.5658, 32.39022
126.0479, 31.99364
126.5300, 31.60385
127.0121, 31.43704
127.4943, 31.77173
127.9764, 32.47450
128.4585, 33.24428
128.9406, 33.90690
129.4227, 34.56683
129.9048, 35.44542
130.3869, 36.56144
130.8691, 37.74654
131.3512, 38.67106
131.8333, 39.28613
132.3154, 40.01705
132.7975, 41.16044
133.2796, 42.77949
133.7618, 44.95612
134.2439, 47.74366
134.7260, 50.93765
135.2081, 54.39412
135.6902, 58.15589
136.1723, 61.55402
136.6545, 64.67467
137.1366, 67.52236
137.6187, 68.28377
138.1008, 66.50242
138.5829, 63.06203
139.0650, 59.77964
139.5472, 56.57822
140.0293, 53.73467
140.5114, 51.34336
140.9935, 49.35459
141.4756, 47.96009
141.9577, 47.21766
142.4399, 47.04480
142.9220, 47.09676
143.4041, 47.38993
143.8862, 47.86866
144.3683, 48.50272
144.8504, 49.28813
145.3326, 50.22039
145.8147, 51.26328
146.2968, 52.43299
146.7789, 53.80302
147.2610, 55.36366
147.7431, 57.13874
148.2253, 59.17105
148.7074, 61.38543
149.1895, 63.93673
149.6716, 66.66685
150.1537, 69.47710
150.6358, 73.25670
151.1180, 77.85753
151.6001, 83.46693
152.0822, 90.21361
152.5643, 98.10378
153.0464, 107.0781
153.5285, 117.8590
154.0107, 131.4463
154.4928, 142.3551
154.9749, 152.6784
155.4570, 159.6285
155.9391, 159.7661
156.4212, 148.3618
156.9034, 133.9672
157.3855, 118.4945
157.8676, 101.0363
158.3497, 86.30526
158.8318, 75.39468
159.3139, 67.61926
159.7961, 61.70877
160.2782, 57.98283
160.7603, 55.53327
161.2424, 54.07665
161.7245, 53.94717
162.2066, 53.93359
162.6888, 53.44584
163.1709, 52.77258
163.6530, 52.55314
164.1351, 53.29089
164.6172, 54.40009
165.0993, 55.51138
165.5815, 56.55527
166.0636, 57.58357
166.5457, 58.46697
167.0278, 59.32172
167.5099, 60.51286
167.9921, 62.34827
168.4742, 64.53921
168.9563, 66.82449
169.4384, 69.09448
169.9205, 71.51360
170.4026, 74.11521
170.8848, 76.93620
171.3669, 80.09956
171.8490, 83.66877
172.3311, 87.62344
172.8132, 91.91789
173.2953, 96.37629
173.7775, 101.3625
174.2596, 107.1374
174.7417, 113.7189
175.2238, 121.1436
175.7059, 129.3100
176.1880, 138.2926
176.6702, 148.2081
177.1523, 159.6951
177.6344, 171.7412
178.1165, 184.2251
178.5986, 197.1153
179.0807, 207.3650
179.5629, 212.4493
180.0450, 213.1095
180.5271, 210.9409
181.0092, 204.9211
181.4913, 197.1163
181.9734, 190.5758
182.4556, 185.2784
182.9377, 181.7420
183.4198, 180.4180
183.9019, 181.2316
184.3840, 183.9171
184.8661, 188.7720
185.3483, 195.3365
185.8304, 202.7506
186.3125, 210.9828
186.7946, 220.0351
187.2767, 229.9720
187.7588, 240.8223
188.2409, 252.1805
188.7231, 264.2470
189.2052, 276.7975
189.6873, 289.2586
190.1694, 301.7995
190.6515, 314.0424
191.1336, 325.8243
191.6158, 337.1118
192.0979, 347.2793
192.5800, 356.2117
193.0621, 363.8781
193.5442, 370.6353
194.0263, 376.8707
194.5085, 381.2422
194.9906, 381.7439
195.4727, 378.4115
195.9548, 372.5839
196.4369, 363.3174
196.9190, 350.9789
197.4012, 341.5080
197.8833, 334.7296
198.3654, 331.1983
198.8475, 331.7983
199.3296, 336.4854
199.8117, 345.4010
200.2939, 359.2201
200.7760, 377.8954
201.2581, 398.7084
201.7402, 421.9760
202.2223, 446.6223
202.7044, 471.8780
203.1866, 498.1821
203.6687, 521.4105
204.1508, 541.5030
204.6329, 559.2385
205.1150, 564.6054
205.5971, 555.5290
206.0793, 536.5426
206.5614, 514.3590
207.0435, 487.6823
207.5256, 463.6731
208.0077, 445.0985
208.4898, 431.8829
208.9720, 424.6556
209.4541, 423.8556
209.9362, 428.6190
210.4183, 437.4882
210.9004, 450.7535
211.3825, 467.0873
211.8647, 486.0077
212.3468, 507.4526
212.8289, 531.7377
213.3110, 558.9236
213.7931, 589.0254
214.2752, 621.4716
214.7574, 656.4056
215.2395, 693.9682
215.7216, 734.8537
216.2037, 779.0662
216.6858, 825.3287
217.1679, 874.5541
217.6501, 925.5018
218.1322, 974.9603
218.6143, 1024.465
219.0964, 1070.381
219.5785, 1111.321
220.0606, 1150.138
220.5428, 1177.077
221.0249, 1192.292
221.5070, 1195.352
221.9891, 1184.579
222.4712, 1158.394
222.9533, 1121.044
223.4355, 1074.173
223.9176, 1014.483
224.3997, 952.5402
224.8818, 886.2947
225.3639, 818.4924
225.8460, 753.2592
226.3282, 690.3619
226.8103, 631.1534
227.2924, 577.4957
227.7745, 528.9213
228.2566, 484.8257
228.7387, 445.5601
229.2209, 410.5042
229.7030, 379.3853
230.1851, 352.3859
230.6672, 328.4761
231.1493, 307.3477
231.6314, 289.4520
232.1136, 273.0680
232.5957, 258.0122
233.0778, 244.4982
233.5599, 233.4485
234.0420, 225.5942
234.5241, 219.0260
235.0063, 213.0222
235.4884, 207.3843
235.9705, 203.0366
236.4526, 199.9240
236.9347, 198.0916
237.4168, 197.6236
237.8990, 198.6626
238.3811, 200.8171
238.8632, 203.8632
239.3453, 207.5810
239.8274, 212.9339
240.3095, 220.2002
240.7917, 228.9793
241.2738, 238.6572
241.7559, 249.7471
242.2380, 260.9016
242.7201, 272.0614
243.2022, 284.3651
243.6844, 293.0305
244.1665, 298.5641
244.6486, 300.2703
245.1307, 296.7724
245.6128, 287.0087
246.0949, 273.7793
246.5771, 257.3152
247.0592, 236.4852
247.5413, 216.7519
248.0234, 198.0900
248.5055, 180.6570
248.9876, 165.1034
249.4697, 151.5668
249.9519, 139.4476
250.4340, 128.5873
250.9161, 118.9804
251.3982, 110.6832
251.8803, 104.0342
252.3624, 98.48277
252.8446, 93.42364
253.3267, 88.83070
253.8088, 84.71270
254.2909, 81.08411
254.7730, 77.94374
255.2551, 75.25047
255.7373, 73.17850
256.2194, 71.37576
256.7015, 69.42080
257.1836, 67.11545
257.6657, 65.06962
258.1479, 63.47637
258.6300, 62.37671
259.1121, 61.23632
259.5942, 59.98312
260.0763, 58.76952
260.5584, 57.73192
261.0406, 56.92754
261.5227, 56.17966
262.0048, 55.45111
262.4869, 54.74868
262.9690, 54.08803
263.4511, 53.47357
263.9333, 52.90368
264.4154, 52.37787
264.8975, 51.88961
265.3796, 51.45172
265.8617, 51.04759
266.3438, 50.68858
266.8260, 50.45992
267.3081, 50.38117
267.7902, 50.40217
268.2723, 50.50843
268.7544, 50.74200
269.2365, 50.89038
269.7187, 50.85309
270.2008, 50.70022
270.6829, 50.85585
271.1650, 51.40315
271.6471, 52.05716
272.1292, 52.55284
272.6114, 52.82520
273.0935, 53.31540
273.5756, 54.13336
274.0577, 55.17760
274.5398, 56.12635
275.0219, 56.96611
275.5041, 57.72948
275.9862, 58.36725
276.4683, 58.83647
276.9504, 59.55617
277.4325, 60.60281
277.9146, 61.88622
278.3968, 63.19355
278.8788, 64.51678
279.3610, 65.88251
279.8431, 67.26357
280.3252, 68.64296
280.8073, 70.22829
281.2894, 72.06294
281.7715, 74.06349
282.2537, 76.02110
282.7358, 77.91112
283.2179, 80.02026
283.7000, 82.45660
284.1821, 85.23512
284.6642, 88.37446
285.1464, 91.88925
285.6285, 95.76942
286.1106, 100.0164
286.5927, 104.6291
287.0748, 109.5487
287.5569, 114.8740
288.0391, 120.5564
288.5212, 126.1774
289.0033, 131.8230
289.4854, 137.1588
289.9675, 141.8730
290.4496, 145.9699
290.9318, 149.3058
291.4139, 152.0017
291.8960, 153.9220
292.3781, 154.4058
292.8602, 153.3881
293.3423, 151.6464
293.8245, 149.4929
294.3066, 147.1226
294.7887, 145.4435
295.2708, 144.7581
295.7529, 144.9410
296.2350, 145.6228
296.7172, 146.8095
297.1993, 149.0024
297.6814, 152.6108
298.1635, 157.5865
298.6456, 163.6494
299.1277, 170.6076
299.6099, 178.9003
300.0920, 188.8896
300.5741, 200.6771
301.0562, 214.0676
301.5383, 228.8497
302.0204, 245.3366
302.5026, 263.8706
302.9847, 284.7933
303.4668, 307.5821
303.9489, 332.9825
304.4310, 360.0591
304.9131, 387.2349
305.3953, 415.0941
305.8774, 441.6715
306.3595, 464.9066
306.8416, 485.2978
307.3237, 499.0986
307.8058, 502.8398
308.2880, 497.2796
308.7701, 484.1945
309.2522, 459.9887
309.7343, 431.0801
310.2164, 402.4081
310.6985, 373.9086
311.1807, 347.7048
311.6628, 324.6165
312.1449, 304.6274
312.6270, 288.4160
313.1091, 277.1193
313.5912, 268.7726
314.0734, 262.7492
314.5555, 259.0241
315.0376, 255.6035
315.5197, 253.3410
316.0018, 250.1062
316.4839, 243.7568
316.9661, 232.6034
317.4482, 219.0957
317.9303, 203.0075
318.4124, 184.9172
318.8945, 167.8699
319.3766, 152.8421
319.8588, 139.5056
320.3409, 127.7949
320.8230, 117.7854
321.3051, 109.1067
321.7872, 101.9773
322.2693, 96.15953
322.7515, 90.92565
323.2336, 86.10568
323.7157, 81.82678
324.1978, 78.19852
324.6799, 75.61014
325.1620, 73.00871
325.6442, 70.05937
326.1263, 67.03643
326.6084, 64.42593
327.0905, 62.67214
327.5726, 60.97545
328.0547, 59.04860
328.5369, 56.75489
329.0190, 54.71083
329.5011, 53.01019
329.9832, 51.53624
330.4653, 50.17030
330.9474, 48.96815
331.4296, 47.80412
331.9117, 46.62428
332.3938, 45.42604
332.8759, 44.39996
333.3580, 43.62617
333.8401, 42.93663
334.3223, 42.20324
334.8044, 41.37413
335.2865, 40.59426
335.7686, 39.90181
336.2507, 39.27525
336.7328, 38.63664
337.2150, 37.97608
337.6971, 37.30955
338.1792, 36.60843
338.6613, 35.82823
339.1434, 35.23028
339.6255, 34.88464
340.1077, 34.68519
340.5898, 34.36633
341.0719, 33.90027
341.5540, 33.45456
342.0361, 33.12313
342.5182, 32.90911
343.0004, 32.68408
343.4825, 32.44538
343.9646, 32.20808
344.4467, 32.03452
344.9288, 31.92910
345.4109, 31.70907
345.8931, 31.24148
346.3752, 30.60802
346.8573, 30.17381
347.3394, 29.94660
347.8215, 29.81885
348.3036, 29.70952
348.7858, 29.61440
349.2679, 29.51956
349.7500, 29.44047
350.2321, 29.33906
350.7142, 29.10373
351.1964, 28.75192
351.6785, 28.44401
352.1606, 28.34415
352.6427, 28.36742
353.1248, 28.35143
353.6069, 28.27241
354.0891, 28.14287
354.5712, 27.95570
355.0533, 27.72672
355.5354, 27.49625
356.0175, 27.23740
356.4996, 27.01670
356.9818, 26.92663
357.4639, 26.98759
357.9460, 27.05578
358.4281, 27.04843
358.9102, 26.97985
359.3923, 26.87065
359.8745, 26.69967
360.3566, 26.51294
360.8387, 26.30556
361.3208, 26.08512
361.8029, 25.95462
362.2850, 26.08688
362.7672, 26.26439
363.2493, 26.30396
363.7314, 26.03803
364.2135, 25.77496
364.6956, 25.62136
365.1777, 25.54802
365.6599, 25.46704
366.1420, 25.29766
366.6241, 25.16115
367.1062, 25.13667
367.5883, 25.32813
368.0704, 25.41414
368.5526, 25.23161
369.0347, 24.95207
369.5168, 24.83879
369.9989, 25.16000
370.4810, 25.37869
370.9631, 25.33097
371.4453, 24.96590
371.9274, 24.73175
372.4095, 24.68161
372.8916, 24.71950
373.3737, 24.77417
373.8558, 24.88393
374.3380, 24.92794
374.8201, 24.85531
375.3022, 24.69888
375.7843, 24.65265
376.2664, 24.75446
376.7485, 24.88627
377.2307, 24.96908
377.7128, 24.98692
378.1949, 25.05258
378.6770, 25.15998
379.1591, 25.33356
379.6412, 25.68264
380.1234, 26.24338
380.6055, 26.66509
381.0876, 26.72077
381.5697, 26.47703
382.0518, 26.37691
382.5339, 26.42662
383.0161, 26.58854
383.4982, 26.88519
383.9803, 27.28468
384.4624, 27.59027
384.9445, 27.68577
385.4266, 27.71080
385.9088, 27.88277
386.3909, 28.20154
386.8730, 28.66496
387.3551, 29.31838
387.8372, 30.10898
388.3193, 30.94884
388.8015, 31.81863
389.2836, 32.74736
389.7657, 33.76283
390.2478, 34.86249
390.7299, 36.01667
391.2120, 37.21014
391.6942, 38.45650
392.1763, 39.76354
392.6584, 41.12191
393.1405, 42.51752
393.6226, 44.01748
394.1047, 45.52372
394.5869, 46.91142
395.0690, 48.22809
395.5511, 49.33764
396.0332, 50.22175
396.5153, 50.86985
396.9974, 51.22581
397.4796, 51.01113
397.9617, 50.69242
398.4438, 50.49720
398.9259, 50.34929
399.4080, 50.50496
399.8901, 50.95488
400.3723, 51.73488
400.8544, 52.88360
401.3365, 54.36000
401.8186, 56.25854
402.3007, 58.63446
402.7828, 61.51330
403.2649, 64.64248
403.7470, 67.97673
404.2292, 71.62724
404.7113, 75.69485
405.1934, 80.33625
405.6755, 85.08150
406.1576, 90.05614
406.6397, 94.99476
407.1219, 99.09861
407.6040, 102.5766
408.0861, 104.3986
408.5682, 103.9232
409.0503, 101.1716
409.5324, 96.45142
410.0146, 89.44595
410.4967, 81.41226
410.9788, 73.69309
411.4609, 66.40447
411.9430, 60.00922
412.4251, 54.70807
412.9073, 50.45872
413.3894, 47.04382
413.8715, 44.44569
414.3536, 42.37262
414.8357, 40.63580
415.3178, 39.21460
415.8000, 38.10738
416.2821, 37.33990
416.7642, 36.80371
417.2463, 36.47660
417.7284, 36.30312
418.2105, 36.14547
418.6927, 35.90619
419.1748, 35.67125
419.6569, 35.44463
420.1390, 35.20190
420.6211, 35.20672
421.1032, 35.69268
421.5854, 36.44497
422.0675, 37.22851
422.5496, 37.82955
423.0317, 38.61702
423.5138, 39.76351
423.9959, 41.21764
424.4781, 42.71932
424.9602, 44.09272
425.4423, 45.57330
425.9244, 47.30341
426.4065, 49.43685
426.8886, 51.51432
427.3708, 53.66497
427.8529, 55.71916
428.3350, 57.46770
428.8171, 59.08479
429.2992, 60.06561
429.7813, 60.19841
430.2635, 59.50460
430.7456, 58.53537
431.2277, 57.14800
431.7098, 55.81059
432.1919, 54.87030
432.6740, 54.33147
433.1562, 54.12774
433.6383, 54.23442
434.1204, 54.69579
434.6025, 55.65635
435.0846, 57.10993
435.5667, 58.80339
436.0489, 60.49642
436.5310, 62.34438
437.0131, 64.81827
437.4952, 67.94491
437.9773, 71.54314
438.4594, 75.55356
438.9416, 79.89953
439.4237, 84.40604
439.9058, 88.94449
440.3879, 93.72340
440.8700, 99.31065
441.3521, 105.4449
441.8343, 111.2012
442.3164, 116.8463
442.7985, 121.4278
443.2806, 124.3305
443.7627, 125.5098
444.2448, 124.6843
444.7270, 121.3830
445.2091, 116.1320
445.6912, 109.5557
446.1733, 100.4551
446.6554, 91.39983
447.1375, 82.79863
447.6197, 74.69062
448.1018, 67.77364
448.5839, 62.37022
449.0660, 57.99049
449.5481, 54.50171
450.0302, 52.05736
450.5124, 50.15412
450.9945, 48.94917
451.4766, 48.19601
451.9587, 47.51440
452.4408, 46.87084
452.9229, 46.38678
453.4051, 46.08323
453.8872, 45.96177
454.3693, 46.03887
454.8514, 46.33844
455.3335, 46.73771
455.8156, 47.08307
456.2978, 47.40453
456.7799, 48.01057
457.2620, 48.97898
457.7441, 50.16026
458.2262, 51.35629
458.7083, 52.57691
459.1905, 53.92519
459.6726, 55.25443
460.1547, 56.81690
460.6368, 58.97367
461.1189, 61.73912
461.6010, 64.90546
462.0832, 68.40668
462.5653, 72.20521
463.0474, 76.18444
463.5295, 80.29619
464.0116, 84.72530
464.4937, 89.62784
464.9759, 94.91370
465.4580, 100.2551
465.9401, 106.0855
466.4222, 111.4883
466.9043, 116.4794
467.3864, 121.3164
467.8686, 123.7109
468.3507, 123.5008
468.8328, 120.6617
469.3149, 115.0613
469.7970, 104.8911
470.2791, 94.88315
470.7613, 84.97075
471.2434, 75.55428
471.7255, 67.76751
472.2076, 61.81798
472.6897, 56.97129
473.1718, 52.94756
473.6540, 49.76695
474.1361, 47.15849
474.6182, 45.16874
475.1003, 43.58291
475.5824, 42.21378
476.0645, 41.05822
476.5467, 40.14410
477.0288, 39.49444
477.5109, 39.04108
477.9930, 38.69119
478.4751, 38.44532
478.9572, 38.30582
479.4394, 38.33222
479.9215, 38.43826
480.4036, 38.50090
480.8857, 38.51199
481.3678, 38.56804
481.8499, 38.72154
482.3321, 38.96090
482.8142, 39.26630
483.2963, 39.57302
483.7784, 40.02582
484.2605, 40.74738
484.7426, 41.65768
485.2248, 42.55650
485.7069, 43.24488
486.1890, 44.04158
486.6711, 45.05037
487.1532, 46.28677
487.6353, 47.70549
488.1175, 49.12645
488.5996, 50.84719
489.0817, 53.17143
489.5638, 56.38531
490.0459, 59.44593
490.5280, 62.27246
491.0102, 64.87231
491.4923, 67.23734
491.9744, 69.29897
492.4565, 71.56345
492.9386, 74.34303
493.4207, 77.58082
493.9029, 80.67575
494.3850, 83.60357
494.8671, 86.87807
495.3492, 90.95882
495.8313, 95.80153
496.3134, 101.3366
496.7956, 107.5589
497.2777, 114.4088
497.7598, 121.3631
498.2419, 128.8256
498.7240, 137.6021
499.2061, 148.2498
499.6883, 160.3654
500.1704, 173.7068
500.6525, 188.2644
501.1346, 204.0383
501.6167, 221.6901
502.0988, 240.3262
502.5810, 259.2966
503.0631, 278.9236
503.5452, 298.6437
504.0273, 319.6064
504.5094, 340.3137
504.9915, 357.9152
505.4737, 374.9500
505.9558, 385.0728
506.4379, 386.4004
506.9200, 379.0949
507.4021, 365.4014
507.8842, 343.2241
508.3664, 319.0830
508.8485, 295.7390
509.3306, 273.0941
509.8127, 256.1953
510.2948, 245.5572
510.7769, 240.2762
511.2591, 239.8777
511.7412, 244.1215
512.2233, 251.5823
512.7054, 262.2772
513.1875, 275.4956
513.6696, 290.8374
514.1517, 308.0451
514.6339, 325.7051
515.1160, 344.2478
515.5981, 362.0325
516.0802, 378.4611
516.5623, 394.0246
517.0444, 405.0406
517.5266, 411.0543
518.0087, 411.1378
518.4908, 404.2774
518.9729, 387.2337
519.4550, 366.5284
519.9371, 341.7661
520.4193, 313.8701
520.9014, 287.6514
521.3835, 262.3899
521.8656, 239.4811
522.3477, 219.4543
522.8298, 202.3885
523.3120, 187.4707
523.7941, 175.0518
524.2762, 164.6407
524.7583, 156.0889
525.2404, 149.3961
525.7225, 143.8006
526.2047, 139.1715
526.6868, 135.5115
527.1689, 132.9661
527.6510, 131.4750
528.1331, 130.5723
528.6152, 130.0169
529.0974, 129.9124
529.5795, 130.4786
530.0616, 131.6925
530.5437, 133.2221
531.0258, 134.6182
531.5079, 136.3554
531.9901, 138.8877
532.4722, 142.2973
532.9543, 146.5390
533.4364, 151.9287
533.9185, 158.0529
534.4006, 164.4552
534.8828, 170.9059
535.3649, 177.7542
535.8470, 185.0444
536.3291, 192.7867
536.8112, 200.6107
537.2933, 208.8190
537.7755, 216.6333
538.2576, 223.8655
538.7397, 230.7582
539.2218, 235.6370
539.7039, 238.4797
540.1860, 239.2513
540.6682, 237.9867
541.1503, 234.6645
541.6324, 228.5712
542.1145, 219.1534
542.5966, 207.7434
543.0787, 195.9318
543.5609, 183.8056
544.0430, 171.6839
544.5251, 159.1007
545.0072, 146.9810
545.4893, 136.4393
545.9714, 127.4545
546.4536, 119.4090
546.9357, 112.0133
547.4178, 105.3988
547.8999, 99.70219
548.3820, 95.10658
548.8641, 91.05045
549.3463, 87.39648
549.8284, 84.23844
550.3105, 81.70621
550.7926, 80.18594
551.2747, 78.69895
551.7568, 77.02082
552.2390, 75.25545
552.7211, 73.79884
553.2032, 72.65118
553.6853, 71.81639
554.1674, 71.41517
554.6495, 71.40929
555.1317, 71.10528
555.6138, 70.45641
556.0959, 69.91952
556.5780, 69.96179
557.0601, 70.46342
557.5422, 71.06327
558.0244, 71.61882
558.5065, 72.45741
558.9886, 73.86826
559.4707, 75.80694
559.9528, 78.14808
560.4349, 80.97893
560.9171, 84.09116
561.3992, 87.11584
561.8813, 90.20547
562.3634, 94.26563
562.8455, 99.78115
563.3276, 106.1452
563.8098, 113.1417
564.2919, 120.6211
564.7740, 128.9715
565.2561, 138.6145
565.7382, 148.7043
566.2203, 158.4768
566.7025, 167.7975
567.1846, 177.5974
567.6667, 188.1071
568.1488, 199.2619
568.6309, 210.5508
569.1130, 222.1037
569.5952, 234.6491
570.0773, 248.3205
570.5594, 263.3445
571.0415, 280.6086
571.5236, 300.1886
572.0057, 321.8602
572.4879, 345.0581
572.9700, 370.7963
573.4521, 399.9030
573.9342, 432.6516
574.4163, 469.4234
574.8984, 511.2568
575.3806, 556.6721
575.8627, 604.7120
576.3448, 655.4335
576.8269, 707.8030
577.3090, 763.0421
577.7911, 819.7282
578.2733, 877.2523
578.7554, 938.4991
579.2375, 993.3997
579.7196, 1041.552
580.2017, 1081.865
580.6838, 1101.402
581.1660, 1100.323
581.6481, 1078.013
582.1302, 1029.374
582.6123, 958.0182
583.0944, 877.6812
583.5765, 788.3184
584.0587, 698.6208
584.5408, 614.8320
585.0229, 538.2470
585.5050, 471.2542
585.9871, 415.5576
586.4692, 367.9097
586.9514, 327.0682
587.4335, 292.1192
587.9156, 262.0858
588.3977, 238.3717
588.8798, 217.7634
589.3619, 199.5068
589.8441, 183.5961
590.3262, 169.4837
590.8083, 157.6844
