##NAMES=Refikite
##RRUFFID=R180004
##IDEAL CHEMISTRY=C_20_H_34_O_2_
##LOCALITY=Moors in Bad Feilnbach, Bavaria, Germany
##OWNER=RRUFF
##SOURCE=Stefan Schorn
##DESCRIPTION=Colorless single crystals and radial groups on wood
##STATUS=The identification of this mineral has been confirmed by single-crystal X-ray diffraction.
##URL=rruff.info/R180004
8.758203e+001, 3.227145e+003
8.806415e+001, 3.156908e+003
8.854626e+001, 3.144579e+003
8.902838e+001, 3.215615e+003
8.951050e+001, 3.304789e+003
8.999261e+001, 3.392282e+003
9.047473e+001, 3.475498e+003
9.095685e+001, 3.553253e+003
9.143896e+001, 3.624308e+003
9.192108e+001, 3.688160e+003
9.240320e+001, 3.746073e+003
9.288531e+001, 3.752135e+003
9.336743e+001, 3.685253e+003
9.384955e+001, 3.567950e+003
9.433167e+001, 3.456739e+003
9.481378e+001, 3.340662e+003
9.529590e+001, 3.235974e+003
9.577802e+001, 3.141685e+003
9.626013e+001, 3.053427e+003
9.674225e+001, 2.965853e+003
9.722437e+001, 2.878340e+003
9.770648e+001, 2.800555e+003
9.818860e+001, 2.734579e+003
9.867072e+001, 2.675463e+003
9.915283e+001, 2.621208e+003
9.963495e+001, 2.570880e+003
1.001171e+002, 2.523802e+003
1.005992e+002, 2.479891e+003
1.010813e+002, 2.439209e+003
1.015634e+002, 2.399444e+003
1.020455e+002, 2.358286e+003
1.025277e+002, 2.317180e+003
1.030098e+002, 2.276341e+003
1.034919e+002, 2.235727e+003
1.039740e+002, 2.196366e+003
1.044561e+002, 2.162495e+003
1.049382e+002, 2.140873e+003
1.054204e+002, 2.116624e+003
1.059025e+002, 2.087844e+003
1.063846e+002, 2.055220e+003
1.068667e+002, 2.020097e+003
1.073488e+002, 1.982918e+003
1.078309e+002, 1.943849e+003
1.083131e+002, 1.905100e+003
1.087952e+002, 1.865491e+003
1.092773e+002, 1.826877e+003
1.097594e+002, 1.790959e+003
1.102415e+002, 1.757569e+003
1.107236e+002, 1.725031e+003
1.112058e+002, 1.691753e+003
1.116879e+002, 1.658272e+003
1.121700e+002, 1.626464e+003
1.126521e+002, 1.596528e+003
1.131342e+002, 1.568595e+003
1.136163e+002, 1.543017e+003
1.140985e+002, 1.520063e+003
1.145806e+002, 1.499457e+003
1.150627e+002, 1.481027e+003
1.155448e+002, 1.464480e+003
1.160269e+002, 1.449036e+003
1.165090e+002, 1.434917e+003
1.169912e+002, 1.422100e+003
1.174733e+002, 1.408094e+003
1.179554e+002, 1.389291e+003
1.184375e+002, 1.372301e+003
1.189196e+002, 1.360209e+003
1.194017e+002, 1.352765e+003
1.198839e+002, 1.347639e+003
1.203660e+002, 1.342016e+003
1.208481e+002, 1.334789e+003
1.213302e+002, 1.329987e+003
1.218123e+002, 1.327972e+003
1.222944e+002, 1.327461e+003
1.227766e+002, 1.328145e+003
1.232587e+002, 1.329752e+003
1.237408e+002, 1.331505e+003
1.242229e+002, 1.331947e+003
1.247050e+002, 1.330000e+003
1.251871e+002, 1.327946e+003
1.256693e+002, 1.326275e+003
1.261514e+002, 1.324384e+003
1.266335e+002, 1.321959e+003
1.271156e+002, 1.319113e+003
1.275977e+002, 1.314908e+003
1.280798e+002, 1.306084e+003
1.285620e+002, 1.291101e+003
1.290441e+002, 1.275277e+003
1.295262e+002, 1.260787e+003
1.300083e+002, 1.247240e+003
1.304904e+002, 1.233284e+003
1.309725e+002, 1.218502e+003
1.314547e+002, 1.202579e+003
1.319368e+002, 1.185402e+003
1.324189e+002, 1.166524e+003
1.329010e+002, 1.146930e+003
1.333831e+002, 1.127513e+003
1.338652e+002, 1.108341e+003
1.343474e+002, 1.089180e+003
1.348295e+002, 1.069509e+003
1.353116e+002, 1.049985e+003
1.357937e+002, 1.031180e+003
1.362758e+002, 1.013146e+003
1.367579e+002, 9.960983e+002
1.372401e+002, 9.807640e+002
1.377222e+002, 9.681238e+002
1.382043e+002, 9.558080e+002
1.386864e+002, 9.431317e+002
1.391685e+002, 9.301553e+002
1.396507e+002, 9.169169e+002
1.401328e+002, 9.034188e+002
1.406149e+002, 8.896318e+002
1.410970e+002, 8.764326e+002
1.415791e+002, 8.636839e+002
1.420612e+002, 8.517150e+002
1.425434e+002, 8.404767e+002
1.430255e+002, 8.301049e+002
1.435076e+002, 8.207824e+002
1.439897e+002, 8.126553e+002
1.444718e+002, 8.057256e+002
1.449539e+002, 8.003759e+002
1.454361e+002, 7.970135e+002
1.459182e+002, 7.944835e+002
1.464003e+002, 7.923490e+002
1.468824e+002, 7.904781e+002
1.473645e+002, 7.887656e+002
1.478466e+002, 7.871703e+002
1.483288e+002, 7.858277e+002
1.488109e+002, 7.838655e+002
1.492930e+002, 7.803546e+002
1.497751e+002, 7.766100e+002
1.502572e+002, 7.741066e+002
1.507393e+002, 7.732277e+002
1.512215e+002, 7.731520e+002
1.517036e+002, 7.728979e+002
1.521857e+002, 7.724819e+002
1.526678e+002, 7.720121e+002
1.531499e+002, 7.722099e+002
1.536320e+002, 7.724140e+002
1.541142e+002, 7.708088e+002
1.545963e+002, 7.663873e+002
1.550784e+002, 7.607527e+002
1.555605e+002, 7.558232e+002
1.560426e+002, 7.516242e+002
1.565247e+002, 7.470534e+002
1.570069e+002, 7.417371e+002
1.574890e+002, 7.356608e+002
1.579711e+002, 7.277820e+002
1.584532e+002, 7.154747e+002
1.589353e+002, 7.030262e+002
1.594174e+002, 6.932756e+002
1.598996e+002, 6.865728e+002
1.603817e+002, 6.815051e+002
1.608638e+002, 6.766774e+002
1.613459e+002, 6.723856e+002
1.618280e+002, 6.672970e+002
1.623102e+002, 6.600333e+002
1.627923e+002, 6.527341e+002
1.632744e+002, 6.469580e+002
1.637565e+002, 6.431036e+002
1.642386e+002, 6.403976e+002
1.647207e+002, 6.374384e+002
1.652029e+002, 6.347198e+002
1.656850e+002, 6.308074e+002
1.661671e+002, 6.238715e+002
1.666492e+002, 6.166790e+002
1.671313e+002, 6.118018e+002
1.676134e+002, 6.103853e+002
1.680956e+002, 6.114521e+002
1.685777e+002, 6.121847e+002
1.690598e+002, 6.121257e+002
1.695419e+002, 6.122414e+002
1.700240e+002, 6.124122e+002
1.705061e+002, 6.128397e+002
1.709883e+002, 6.140475e+002
1.714704e+002, 6.164364e+002
1.719525e+002, 6.194557e+002
1.724346e+002, 6.206171e+002
1.729167e+002, 6.191662e+002
1.733988e+002, 6.172018e+002
1.738810e+002, 6.148551e+002
1.743631e+002, 6.124000e+002
1.748452e+002, 6.105377e+002
1.753273e+002, 6.096436e+002
1.758094e+002, 6.097136e+002
1.762915e+002, 6.104575e+002
1.767737e+002, 6.129296e+002
1.772558e+002, 6.148825e+002
1.777379e+002, 6.145651e+002
1.782200e+002, 6.121613e+002
1.787021e+002, 6.096850e+002
1.791842e+002, 6.080201e+002
1.796664e+002, 6.071442e+002
1.801485e+002, 6.070120e+002
1.806306e+002, 6.084033e+002
1.811127e+002, 6.096908e+002
1.815948e+002, 6.088989e+002
1.820769e+002, 6.057239e+002
1.825591e+002, 6.021681e+002
1.830412e+002, 5.979580e+002
1.835233e+002, 5.943423e+002
1.840054e+002, 5.931146e+002
1.844875e+002, 5.956565e+002
1.849696e+002, 5.999796e+002
1.854518e+002, 6.022328e+002
1.859339e+002, 6.012970e+002
1.864160e+002, 6.007928e+002
1.868981e+002, 6.021545e+002
1.873802e+002, 6.045906e+002
1.878623e+002, 6.070474e+002
1.883445e+002, 6.087131e+002
1.888266e+002, 6.104035e+002
1.893087e+002, 6.151163e+002
1.897908e+002, 6.260577e+002
1.902729e+002, 6.356705e+002
1.907550e+002, 6.411949e+002
1.912372e+002, 6.446321e+002
1.917193e+002, 6.484321e+002
1.922014e+002, 6.539345e+002
1.926835e+002, 6.611269e+002
1.931656e+002, 6.699030e+002
1.936477e+002, 6.816772e+002
1.941299e+002, 6.937646e+002
1.946120e+002, 7.057946e+002
1.950941e+002, 7.178521e+002
1.955762e+002, 7.299605e+002
1.960583e+002, 7.420861e+002
1.965404e+002, 7.542897e+002
1.970226e+002, 7.677679e+002
1.975047e+002, 7.842216e+002
1.979868e+002, 8.000147e+002
1.984689e+002, 8.142657e+002
1.989510e+002, 8.270335e+002
1.994331e+002, 8.385856e+002
1.999153e+002, 8.491758e+002
2.003974e+002, 8.587653e+002
2.008795e+002, 8.668765e+002
2.013616e+002, 8.752218e+002
2.018437e+002, 8.808843e+002
2.023258e+002, 8.823343e+002
2.028080e+002, 8.798996e+002
2.032901e+002, 8.750101e+002
2.037722e+002, 8.684668e+002
2.042543e+002, 8.601213e+002
2.047364e+002, 8.501769e+002
2.052185e+002, 8.377189e+002
2.057007e+002, 8.245858e+002
2.061828e+002, 8.116216e+002
2.066649e+002, 7.989327e+002
2.071470e+002, 7.868600e+002
2.076291e+002, 7.752337e+002
2.081112e+002, 7.646210e+002
2.085934e+002, 7.564568e+002
2.090755e+002, 7.519769e+002
2.095576e+002, 7.492374e+002
2.100397e+002, 7.465895e+002
2.105218e+002, 7.439825e+002
2.110039e+002, 7.422163e+002
2.114861e+002, 7.420692e+002
2.119682e+002, 7.431682e+002
2.124503e+002, 7.447033e+002
2.129324e+002, 7.456730e+002
2.134145e+002, 7.476058e+002
2.138967e+002, 7.532599e+002
2.143788e+002, 7.635828e+002
2.148609e+002, 7.731708e+002
2.153430e+002, 7.773574e+002
2.158251e+002, 7.792639e+002
2.163072e+002, 7.827734e+002
2.167894e+002, 7.898834e+002
2.172715e+002, 7.985275e+002
2.177536e+002, 8.050814e+002
2.182357e+002, 8.088930e+002
2.187178e+002, 8.123500e+002
2.191999e+002, 8.164501e+002
2.196821e+002, 8.208402e+002
2.201642e+002, 8.252394e+002
2.206463e+002, 8.297506e+002
2.211284e+002, 8.339175e+002
2.216105e+002, 8.369093e+002
2.220926e+002, 8.391205e+002
2.225748e+002, 8.391306e+002
2.230569e+002, 8.377794e+002
2.235390e+002, 8.340377e+002
2.240211e+002, 8.263732e+002
2.245032e+002, 8.137737e+002
2.249853e+002, 7.976138e+002
2.254675e+002, 7.812952e+002
2.259496e+002, 7.650553e+002
2.264317e+002, 7.484221e+002
2.269138e+002, 7.308116e+002
2.273959e+002, 7.130575e+002
2.278780e+002, 6.960399e+002
2.283602e+002, 6.801447e+002
2.288423e+002, 6.652948e+002
2.293244e+002, 6.511348e+002
2.298065e+002, 6.375680e+002
2.302886e+002, 6.250225e+002
2.307707e+002, 6.136332e+002
2.312529e+002, 6.030815e+002
2.317350e+002, 5.928253e+002
2.322171e+002, 5.825897e+002
2.326992e+002, 5.727444e+002
2.331813e+002, 5.645209e+002
2.336634e+002, 5.594893e+002
2.341456e+002, 5.543079e+002
2.346277e+002, 5.482764e+002
2.351098e+002, 5.421030e+002
2.355919e+002, 5.366136e+002
2.360740e+002, 5.321877e+002
2.365561e+002, 5.286183e+002
2.370383e+002, 5.252961e+002
2.375204e+002, 5.232000e+002
2.380025e+002, 5.202077e+002
2.384846e+002, 5.151106e+002
2.389667e+002, 5.094048e+002
2.394488e+002, 5.051074e+002
2.399310e+002, 5.030714e+002
2.404131e+002, 5.023625e+002
2.408952e+002, 5.005904e+002
2.413773e+002, 4.964171e+002
2.418594e+002, 4.930162e+002
2.423415e+002, 4.914998e+002
2.428237e+002, 4.906718e+002
2.433058e+002, 4.889021e+002
2.437879e+002, 4.855302e+002
2.442700e+002, 4.813297e+002
2.447521e+002, 4.779573e+002
2.452342e+002, 4.760575e+002
2.457164e+002, 4.736343e+002
2.461985e+002, 4.698415e+002
2.466806e+002, 4.655016e+002
2.471627e+002, 4.618596e+002
2.476448e+002, 4.593646e+002
2.481269e+002, 4.572829e+002
2.486091e+002, 4.540630e+002
2.490912e+002, 4.490661e+002
2.495733e+002, 4.452564e+002
2.500554e+002, 4.445449e+002
2.505375e+002, 4.449877e+002
2.510196e+002, 4.433146e+002
2.515018e+002, 4.383734e+002
2.519839e+002, 4.325637e+002
2.524660e+002, 4.299333e+002
2.529481e+002, 4.307184e+002
2.534302e+002, 4.302197e+002
2.539123e+002, 4.256234e+002
2.543945e+002, 4.195071e+002
2.548766e+002, 4.161031e+002
2.553587e+002, 4.166754e+002
2.558408e+002, 4.184892e+002
2.563229e+002, 4.183666e+002
2.568051e+002, 4.165867e+002
2.572872e+002, 4.145267e+002
2.577693e+002, 4.125923e+002
2.582514e+002, 4.105968e+002
2.587335e+002, 4.079051e+002
2.592156e+002, 4.041071e+002
2.596978e+002, 4.008233e+002
2.601799e+002, 3.999551e+002
2.606620e+002, 4.009400e+002
2.611441e+002, 4.024653e+002
2.616262e+002, 4.049130e+002
2.621083e+002, 4.074079e+002
2.625905e+002, 4.081926e+002
2.630726e+002, 4.066613e+002
2.635547e+002, 4.052119e+002
2.640368e+002, 4.068069e+002
2.645189e+002, 4.099173e+002
2.650010e+002, 4.113068e+002
2.654832e+002, 4.085217e+002
2.659653e+002, 4.039795e+002
2.664474e+002, 4.016357e+002
2.669295e+002, 4.019946e+002
2.674116e+002, 4.027381e+002
2.678937e+002, 4.023177e+002
2.683759e+002, 4.014001e+002
2.688580e+002, 4.009006e+002
2.693401e+002, 4.011829e+002
2.698222e+002, 4.019432e+002
2.703043e+002, 4.027943e+002
2.707864e+002, 4.037591e+002
2.712686e+002, 4.047176e+002
2.717507e+002, 4.057290e+002
2.722328e+002, 4.066651e+002
2.727149e+002, 4.072410e+002
2.731970e+002, 4.071443e+002
2.736791e+002, 4.071641e+002
2.741613e+002, 4.086268e+002
2.746434e+002, 4.119031e+002
2.751255e+002, 4.147562e+002
2.756076e+002, 4.157112e+002
2.760897e+002, 4.161890e+002
2.765718e+002, 4.171949e+002
2.770540e+002, 4.189326e+002
2.775361e+002, 4.213654e+002
2.780182e+002, 4.249435e+002
2.785003e+002, 4.299897e+002
2.789824e+002, 4.338552e+002
2.794645e+002, 4.338214e+002
2.799467e+002, 4.336844e+002
2.804288e+002, 4.363381e+002
2.809109e+002, 4.421785e+002
2.813930e+002, 4.487564e+002
2.818751e+002, 4.533149e+002
2.823572e+002, 4.556046e+002
2.828394e+002, 4.588889e+002
2.833215e+002, 4.648718e+002
2.838036e+002, 4.710239e+002
2.842857e+002, 4.758436e+002
2.847678e+002, 4.793156e+002
2.852499e+002, 4.824658e+002
2.857321e+002, 4.861143e+002
2.862142e+002, 4.902533e+002
2.866963e+002, 4.945168e+002
2.871784e+002, 4.990069e+002
2.876605e+002, 5.034652e+002
2.881426e+002, 5.081661e+002
2.886248e+002, 5.128185e+002
2.891069e+002, 5.165760e+002
2.895890e+002, 5.186036e+002
2.900711e+002, 5.190281e+002
2.905532e+002, 5.193907e+002
2.910353e+002, 5.195934e+002
2.915175e+002, 5.198528e+002
2.919996e+002, 5.211140e+002
2.924817e+002, 5.224508e+002
2.929638e+002, 5.220263e+002
2.934459e+002, 5.182962e+002
2.939280e+002, 5.120800e+002
2.944102e+002, 5.071964e+002
2.948923e+002, 5.044015e+002
2.953744e+002, 5.018305e+002
2.958565e+002, 4.990178e+002
2.963386e+002, 4.960257e+002
2.968207e+002, 4.929272e+002
2.973029e+002, 4.897493e+002
2.977850e+002, 4.865583e+002
2.982671e+002, 4.833149e+002
2.987492e+002, 4.791588e+002
2.992313e+002, 4.768416e+002
2.997134e+002, 4.779713e+002
3.001956e+002, 4.804235e+002
3.006777e+002, 4.822722e+002
3.011598e+002, 4.828613e+002
3.016419e+002, 4.829023e+002
3.021240e+002, 4.833895e+002
3.026061e+002, 4.840163e+002
3.030883e+002, 4.860284e+002
3.035704e+002, 4.908337e+002
3.040525e+002, 4.961651e+002
3.045346e+002, 5.002630e+002
3.050167e+002, 5.028951e+002
3.054988e+002, 5.054603e+002
3.059810e+002, 5.100137e+002
3.064631e+002, 5.172491e+002
3.069452e+002, 5.231993e+002
3.074273e+002, 5.267631e+002
3.079094e+002, 5.296102e+002
3.083915e+002, 5.323149e+002
3.088737e+002, 5.349722e+002
3.093558e+002, 5.375487e+002
3.098379e+002, 5.398995e+002
3.103200e+002, 5.420046e+002
3.108021e+002, 5.444393e+002
3.112842e+002, 5.471998e+002
3.117664e+002, 5.503553e+002
3.122485e+002, 5.543077e+002
3.127306e+002, 5.586688e+002
3.132127e+002, 5.626573e+002
3.136948e+002, 5.656071e+002
3.141769e+002, 5.677281e+002
3.146591e+002, 5.703549e+002
3.151412e+002, 5.737605e+002
3.156233e+002, 5.773571e+002
3.161054e+002, 5.804670e+002
3.165875e+002, 5.837806e+002
3.170696e+002, 5.884749e+002
3.175518e+002, 5.953177e+002
3.180339e+002, 6.031929e+002
3.185160e+002, 6.091834e+002
3.189981e+002, 6.126888e+002
3.194802e+002, 6.154286e+002
3.199623e+002, 6.177994e+002
3.204445e+002, 6.197125e+002
3.209266e+002, 6.213837e+002
3.214087e+002, 6.228704e+002
3.218908e+002, 6.232238e+002
3.223729e+002, 6.206851e+002
3.228550e+002, 6.144137e+002
3.233372e+002, 6.081870e+002
3.238193e+002, 6.035302e+002
3.243014e+002, 5.982878e+002
3.247835e+002, 5.910047e+002
3.252656e+002, 5.816307e+002
3.257477e+002, 5.711876e+002
3.262299e+002, 5.603810e+002
3.267120e+002, 5.491360e+002
3.271941e+002, 5.385401e+002
3.276762e+002, 5.293164e+002
3.281583e+002, 5.200542e+002
3.286404e+002, 5.096410e+002
3.291226e+002, 4.985776e+002
3.296047e+002, 4.882359e+002
3.300868e+002, 4.796697e+002
3.305689e+002, 4.726874e+002
3.310510e+002, 4.659633e+002
3.315331e+002, 4.591255e+002
3.320153e+002, 4.532129e+002
3.324974e+002, 4.490615e+002
3.329795e+002, 4.458294e+002
3.334616e+002, 4.421659e+002
3.339437e+002, 4.372018e+002
3.344258e+002, 4.318841e+002
3.349080e+002, 4.285386e+002
3.353901e+002, 4.278777e+002
3.358722e+002, 4.273579e+002
3.363543e+002, 4.264282e+002
3.368365e+002, 4.252005e+002
3.373186e+002, 4.236055e+002
3.378007e+002, 4.216016e+002
3.382828e+002, 4.196831e+002
3.387649e+002, 4.182862e+002
3.392470e+002, 4.173495e+002
3.397292e+002, 4.174379e+002
3.402113e+002, 4.192577e+002
3.406934e+002, 4.217525e+002
3.411755e+002, 4.244898e+002
3.416576e+002, 4.273600e+002
3.421397e+002, 4.300780e+002
3.426219e+002, 4.325347e+002
3.431040e+002, 4.346892e+002
3.435861e+002, 4.361019e+002
3.440682e+002, 4.363611e+002
3.445503e+002, 4.363354e+002
3.450324e+002, 4.363724e+002
3.455146e+002, 4.365414e+002
3.459967e+002, 4.370524e+002
3.464788e+002, 4.384102e+002
3.469609e+002, 4.400557e+002
3.474430e+002, 4.404930e+002
3.479251e+002, 4.393395e+002
3.484073e+002, 4.380349e+002
3.488894e+002, 4.369709e+002
3.493715e+002, 4.362795e+002
3.498536e+002, 4.361409e+002
3.503357e+002, 4.365546e+002
3.508178e+002, 4.376574e+002
3.513000e+002, 4.397851e+002
3.517821e+002, 4.429837e+002
3.522642e+002, 4.463509e+002
3.527463e+002, 4.496699e+002
3.532284e+002, 4.530036e+002
3.537105e+002, 4.565627e+002
3.541927e+002, 4.604199e+002
3.546748e+002, 4.638747e+002
3.551569e+002, 4.660146e+002
3.556390e+002, 4.672280e+002
3.561211e+002, 4.693724e+002
3.566032e+002, 4.731564e+002
3.570854e+002, 4.773042e+002
3.575675e+002, 4.806045e+002
3.580496e+002, 4.832343e+002
3.585317e+002, 4.859005e+002
3.590138e+002, 4.888140e+002
3.594959e+002, 4.919600e+002
3.599781e+002, 4.946273e+002
3.604602e+002, 4.963242e+002
3.609423e+002, 5.004308e+002
3.614244e+002, 5.099423e+002
3.619065e+002, 5.236912e+002
3.623886e+002, 5.386756e+002
3.628708e+002, 5.529025e+002
3.633529e+002, 5.698752e+002
3.638350e+002, 5.923082e+002
3.643171e+002, 6.199335e+002
3.647992e+002, 6.514108e+002
3.652813e+002, 6.860460e+002
3.657635e+002, 7.243602e+002
3.662456e+002, 7.671429e+002
3.667277e+002, 8.139774e+002
3.672098e+002, 8.646823e+002
3.676919e+002, 9.207916e+002
3.681740e+002, 9.804266e+002
3.686562e+002, 1.041452e+003
3.691383e+002, 1.104162e+003
3.696204e+002, 1.164152e+003
3.701025e+002, 1.217916e+003
3.705846e+002, 1.265988e+003
3.710667e+002, 1.298490e+003
3.715489e+002, 1.313753e+003
3.720310e+002, 1.313146e+003
3.725131e+002, 1.296563e+003
3.729952e+002, 1.264432e+003
3.734773e+002, 1.219190e+003
3.739594e+002, 1.160354e+003
3.744416e+002, 1.088804e+003
3.749237e+002, 1.021528e+003
3.754058e+002, 9.563964e+002
3.758879e+002, 8.971932e+002
3.763700e+002, 8.455036e+002
3.768521e+002, 8.007409e+002
3.773343e+002, 7.626268e+002
3.778164e+002, 7.312284e+002
3.782985e+002, 7.053053e+002
3.787806e+002, 6.821808e+002
3.792627e+002, 6.620470e+002
3.797448e+002, 6.445121e+002
3.802270e+002, 6.291798e+002
3.807091e+002, 6.167504e+002
3.811912e+002, 6.086102e+002
3.816733e+002, 6.046813e+002
3.821554e+002, 6.025934e+002
3.826375e+002, 5.997746e+002
3.831197e+002, 5.961542e+002
3.836018e+002, 5.920380e+002
3.840839e+002, 5.873132e+002
3.845660e+002, 5.823139e+002
3.850481e+002, 5.774123e+002
3.855302e+002, 5.723646e+002
3.860124e+002, 5.663882e+002
3.864945e+002, 5.588018e+002
3.869766e+002, 5.501848e+002
3.874587e+002, 5.435513e+002
3.879408e+002, 5.398616e+002
3.884229e+002, 5.372489e+002
3.889051e+002, 5.348454e+002
3.893872e+002, 5.337344e+002
3.898693e+002, 5.353347e+002
3.903514e+002, 5.400255e+002
3.908335e+002, 5.465734e+002
3.913156e+002, 5.532305e+002
3.917978e+002, 5.604390e+002
3.922799e+002, 5.665436e+002
3.927620e+002, 5.713848e+002
3.932441e+002, 5.753636e+002
3.937262e+002, 5.789973e+002
3.942083e+002, 5.820429e+002
3.946905e+002, 5.836264e+002
3.951726e+002, 5.828901e+002
3.956547e+002, 5.800094e+002
3.961368e+002, 5.769023e+002
3.966189e+002, 5.746594e+002
3.971010e+002, 5.704476e+002
3.975832e+002, 5.627610e+002
3.980653e+002, 5.530572e+002
3.985474e+002, 5.430531e+002
3.990295e+002, 5.332677e+002
3.995116e+002, 5.239312e+002
3.999937e+002, 5.153268e+002
4.004759e+002, 5.074403e+002
4.009580e+002, 5.004111e+002
4.014401e+002, 4.941651e+002
4.019222e+002, 4.890070e+002
4.024043e+002, 4.848384e+002
4.028864e+002, 4.817616e+002
4.033686e+002, 4.807260e+002
4.038507e+002, 4.834855e+002
4.043328e+002, 4.891213e+002
4.048149e+002, 4.934486e+002
4.052970e+002, 4.955610e+002
4.057791e+002, 4.976164e+002
4.062613e+002, 5.002548e+002
4.067434e+002, 5.039122e+002
4.072255e+002, 5.098959e+002
4.077076e+002, 5.194277e+002
4.081897e+002, 5.306500e+002
4.086718e+002, 5.413615e+002
4.091540e+002, 5.516266e+002
4.096361e+002, 5.627098e+002
4.101182e+002, 5.749073e+002
4.106003e+002, 5.884741e+002
4.110824e+002, 6.040035e+002
4.115645e+002, 6.222709e+002
4.120467e+002, 6.396038e+002
4.125288e+002, 6.545043e+002
4.130109e+002, 6.674075e+002
4.134930e+002, 6.789771e+002
