##NAMES=Reinerite
##RRUFFID=R080132
##IDEAL CHEMISTRY=Zn^2+^_3_(As^3+^O_3_)_2_
##LOCALITY=4400 ft. level, Tsumeb, Namibia
##OWNER=RRUFF
##SOURCE=William W. Pinch
##DESCRIPTION=Colorless fragment
##STATUS=The identification of this mineral has been confirmed by single-crystal X-ray diffraction.
##URL=rruff.info/R080132
90.52570, 0.0000000E+00
91.00781, 43.73330
91.48993, 42.05014
91.97205, 41.37846
92.45416, 41.96061
92.93628, 43.53638
93.41840, 45.56547
93.90051, 47.97492
94.38263, 50.76371
94.86475, 54.00031
95.34686, 57.68340
95.82898, 61.69895
96.31110, 65.86654
96.79321, 70.22252
97.27533, 75.01823
97.75745, 80.18722
98.23956, 85.78995
98.72168, 91.84351
99.20380, 98.19584
99.68591, 105.2800
100.1680, 113.4801
100.6501, 122.6751
101.1323, 133.2386
101.6144, 145.2769
102.0965, 158.8285
102.5786, 173.3671
103.0607, 189.1460
103.5428, 205.7948
104.0250, 223.0147
104.5071, 240.3450
104.9892, 258.7695
105.4713, 278.3922
105.9534, 298.7104
106.4355, 321.2631
106.9177, 346.8595
107.3998, 374.7036
107.8819, 403.2101
108.3640, 431.1048
108.8461, 460.3493
109.3282, 492.2974
109.8104, 525.4415
110.2925, 562.2283
110.7746, 600.7383
111.2567, 641.5565
111.7388, 691.1268
112.2209, 749.6006
112.7031, 816.7599
113.1852, 893.2084
113.6673, 984.3867
114.1494, 1079.202
114.6315, 1178.212
115.1136, 1282.536
115.5958, 1380.036
116.0779, 1474.930
116.5600, 1558.714
117.0421, 1621.598
117.5242, 1638.504
118.0063, 1650.422
118.4885, 1675.904
118.9706, 1715.629
119.4527, 1774.758
119.9348, 1863.033
120.4169, 1972.117
120.8990, 2088.370
121.3812, 2216.313
121.8633, 2342.461
122.3454, 2451.786
122.8275, 2540.370
123.3096, 2618.339
123.7917, 2684.102
124.2739, 2743.129
124.7560, 2815.482
125.2381, 2910.482
125.7202, 3028.396
126.2023, 3168.100
126.6844, 3331.136
127.1666, 3514.990
127.6487, 3722.035
128.1308, 3952.247
128.6129, 4187.944
129.0950, 4415.979
129.5771, 4639.448
130.0593, 4867.115
130.5414, 5079.682
131.0235, 5304.484
131.5056, 5595.653
131.9877, 5926.459
132.4698, 6307.399
132.9520, 6818.625
133.4341, 7451.727
133.9162, 8061.940
134.3983, 8688.975
134.8804, 9291.137
135.3625, 9500.364
135.8447, 9287.598
136.3268, 8787.044
136.8089, 8096.278
137.2910, 7164.171
137.7731, 6328.528
138.2552, 5700.385
138.7374, 5284.703
139.2195, 5048.740
139.7016, 5040.042
140.1837, 5157.654
140.6658, 5218.455
141.1479, 5258.462
141.6301, 5166.794
142.1122, 4861.544
142.5943, 4229.865
143.0764, 3686.280
143.5585, 3229.582
144.0406, 2863.274
144.5228, 2591.091
145.0049, 2436.447
145.4870, 2346.889
145.9691, 2297.281
146.4512, 2298.537
146.9333, 2320.495
147.4155, 2363.759
147.8976, 2427.570
148.3797, 2501.400
148.8618, 2588.104
149.3439, 2683.462
149.8260, 2784.583
150.3082, 2915.624
150.7903, 3026.710
151.2724, 3125.493
151.7545, 3212.495
152.2366, 3247.125
152.7188, 3222.008
153.2009, 3147.881
153.6830, 3033.360
154.1651, 2852.835
154.6472, 2657.723
155.1293, 2454.192
155.6115, 2238.460
156.0936, 2042.343
156.5757, 1870.844
157.0578, 1720.859
157.5399, 1591.530
158.0220, 1487.323
158.5042, 1398.830
158.9863, 1324.556
159.4684, 1264.746
159.9505, 1214.730
160.4326, 1175.797
160.9147, 1145.691
161.3969, 1121.078
161.8790, 1101.175
162.3611, 1086.113
162.8432, 1075.933
163.3253, 1070.770
163.8074, 1070.281
164.2896, 1074.638
164.7717, 1083.520
165.2538, 1096.319
165.7359, 1112.285
166.2180, 1132.261
166.7001, 1157.029
167.1823, 1186.657
167.6644, 1220.509
168.1465, 1257.994
168.6286, 1299.270
169.1107, 1344.827
169.5928, 1394.779
170.0750, 1449.060
170.5571, 1508.701
171.0392, 1574.046
171.5213, 1643.281
172.0034, 1715.765
172.4855, 1791.410
172.9677, 1867.765
173.4498, 1949.316
173.9319, 2029.977
174.4140, 2102.338
174.8961, 2170.867
175.3782, 2223.072
175.8604, 2247.247
176.3425, 2244.091
176.8246, 2219.031
177.3067, 2165.250
177.7888, 2092.702
178.2709, 2021.657
178.7531, 1951.452
179.2352, 1889.955
179.7173, 1847.599
180.1994, 1823.961
180.6815, 1817.448
181.1636, 1828.788
181.6458, 1856.575
182.1279, 1896.476
182.6100, 1950.048
183.0921, 2013.650
183.5742, 2084.372
184.0563, 2161.361
184.5385, 2238.172
185.0206, 2311.427
185.5027, 2379.937
185.9848, 2434.594
186.4669, 2475.597
186.9490, 2500.441
187.4312, 2502.025
187.9133, 2479.885
188.3954, 2437.821
188.8775, 2376.617
189.3596, 2297.676
189.8417, 2210.125
190.3239, 2115.182
190.8060, 2013.866
191.2881, 1914.482
191.7702, 1817.442
192.2523, 1724.816
192.7344, 1637.777
193.2166, 1556.730
193.6987, 1483.341
194.1808, 1418.088
194.6629, 1361.026
195.1450, 1309.518
195.6271, 1263.777
196.1093, 1222.960
196.5914, 1186.044
197.0735, 1153.034
197.5556, 1123.641
198.0377, 1098.235
198.5198, 1076.598
199.0020, 1057.145
199.4841, 1040.094
199.9662, 1024.750
200.4483, 1009.402
200.9304, 993.7545
201.4125, 979.8470
201.8947, 968.8582
202.3768, 960.9622
202.8589, 953.6701
203.3410, 946.8116
203.8231, 940.7434
204.3052, 936.0296
204.7874, 932.4984
205.2695, 930.8909
205.7516, 931.5167
206.2337, 934.3932
206.7158, 939.3954
207.1979, 946.5971
207.6801, 955.8876
208.1622, 966.9863
208.6443, 980.0884
209.1264, 994.5492
209.6085, 1010.083
210.0906, 1026.656
210.5728, 1044.397
211.0549, 1062.744
211.5370, 1082.567
212.0191, 1105.519
212.5012, 1132.364
212.9833, 1160.904
213.4655, 1189.794
213.9476, 1218.911
214.4297, 1249.689
214.9118, 1283.242
215.3939, 1317.873
215.8760, 1350.704
216.3581, 1382.104
216.8403, 1410.383
217.3224, 1435.537
217.8045, 1460.445
218.2866, 1473.730
218.7687, 1473.848
219.2508, 1462.559
219.7330, 1444.164
220.2151, 1417.681
220.6972, 1385.948
221.1793, 1349.673
221.6614, 1305.611
222.1435, 1264.727
222.6257, 1226.479
223.1078, 1191.624
223.5899, 1161.234
224.0720, 1135.343
224.5541, 1113.806
225.0362, 1095.977
225.5184, 1081.488
226.0005, 1072.118
226.4826, 1068.525
226.9647, 1069.865
227.4468, 1073.719
227.9289, 1079.742
228.4111, 1088.831
228.8932, 1101.514
229.3753, 1118.309
229.8574, 1137.280
230.3395, 1157.648
230.8216, 1180.160
231.3038, 1207.590
231.7859, 1241.193
232.2680, 1277.612
232.7501, 1315.514
233.2322, 1355.214
233.7143, 1395.668
234.1965, 1438.282
234.6786, 1481.589
235.1607, 1522.340
235.6428, 1561.691
236.1249, 1596.762
236.6070, 1626.589
237.0892, 1652.273
237.5713, 1670.161
238.0534, 1679.724
238.5355, 1681.607
239.0176, 1677.370
239.4997, 1666.381
239.9819, 1649.971
240.4640, 1628.409
240.9461, 1599.663
241.4282, 1570.393
241.9103, 1541.231
242.3924, 1511.372
242.8746, 1478.832
243.3567, 1443.117
243.8388, 1405.515
244.3209, 1366.089
244.8030, 1324.310
245.2851, 1283.177
245.7673, 1242.470
246.2494, 1202.511
246.7315, 1163.917
247.2136, 1126.417
247.6957, 1090.702
248.1778, 1056.925
248.6600, 1025.385
249.1421, 995.5284
249.6242, 966.8407
250.1063, 939.8840
250.5884, 915.7834
251.0705, 894.8488
251.5527, 876.1458
252.0348, 859.5505
252.5169, 844.9409
252.9990, 832.3512
253.4811, 821.7560
253.9632, 813.0502
254.4454, 806.3561
254.9275, 802.3231
255.4096, 798.9501
255.8917, 795.4619
256.3738, 791.5955
256.8560, 788.9061
257.3381, 787.3318
257.8202, 786.9614
258.3023, 788.0186
258.7844, 790.8344
259.2665, 794.3377
259.7487, 798.2621
260.2308, 802.5948
260.7129, 807.3347
261.1950, 812.4764
261.6771, 817.9980
262.1592, 823.9491
262.6414, 830.4739
263.1235, 836.9384
263.6056, 843.1501
264.0877, 849.1725
264.5698, 854.8083
265.0519, 860.0790
265.5341, 864.9177
266.0162, 869.1780
266.4983, 872.5746
266.9804, 876.1668
267.4625, 880.1480
267.9446, 884.4895
268.4268, 889.7049
268.9089, 895.8860
269.3910, 902.5937
269.8731, 909.1454
270.3552, 915.0478
270.8373, 922.6547
271.3195, 932.7711
271.8016, 945.1885
272.2837, 958.1088
272.7658, 971.6564
273.2479, 985.7929
273.7300, 1000.932
274.2122, 1017.219
274.6943, 1033.444
275.1764, 1049.917
275.6585, 1066.061
276.1406, 1078.828
276.6227, 1088.093
277.1049, 1094.445
277.5870, 1098.216
278.0691, 1099.380
278.5512, 1098.323
279.0333, 1094.918
279.5154, 1089.435
279.9976, 1082.269
280.4797, 1073.054
280.9618, 1063.931
281.4439, 1055.915
281.9260, 1049.038
282.4081, 1043.672
282.8903, 1039.775
283.3724, 1037.498
283.8545, 1037.398
284.3366, 1039.552
284.8187, 1043.063
285.3008, 1047.604
285.7830, 1053.152
286.2651, 1058.902
286.7472, 1064.767
287.2293, 1070.905
287.7114, 1077.740
288.1935, 1085.260
288.6757, 1092.877
289.1578, 1100.264
289.6399, 1107.465
290.1220, 1114.216
290.6041, 1120.392
291.0862, 1126.586
291.5684, 1133.910
292.0505, 1142.255
292.5326, 1150.274
293.0147, 1158.345
293.4968, 1165.654
293.9789, 1170.569
294.4611, 1173.279
294.9432, 1172.005
295.4253, 1165.335
295.9074, 1153.054
296.3895, 1134.569
296.8716, 1108.236
297.3538, 1075.706
297.8359, 1039.470
298.3180, 999.1342
298.8001, 957.1659
299.2822, 913.9313
299.7643, 870.1578
300.2465, 828.3262
300.7286, 788.5344
301.2107, 751.7354
301.6928, 718.8983
302.1749, 690.2336
302.6570, 664.5075
303.1392, 641.8609
303.6213, 621.5402
304.1034, 602.7621
304.5855, 584.9406
305.0676, 568.7057
305.5497, 554.4216
306.0319, 542.0486
306.5140, 530.6444
306.9961, 519.5247
307.4782, 509.2276
307.9603, 500.3441
308.4424, 493.3799
308.9246, 487.3112
309.4067, 481.6418
309.8888, 476.2970
310.3709, 470.9579
310.8530, 464.8077
311.3351, 459.0035
311.8173, 454.6147
312.2994, 451.9660
312.7815, 450.0974
313.2636, 448.4803
313.7457, 447.2553
314.2278, 446.6769
314.7100, 446.7984
315.1921, 447.6626
315.6742, 449.3958
316.1563, 452.0768
316.6384, 455.1765
317.1205, 458.2659
317.6027, 461.6585
318.0848, 465.7384
318.5669, 472.0401
319.0490, 477.7892
319.5311, 482.1251
320.0132, 485.0027
320.4954, 486.1712
320.9775, 485.7597
321.4596, 483.5047
321.9417, 479.1637
322.4238, 472.3673
322.9059, 463.8135
323.3881, 453.1911
323.8702, 440.7119
324.3523, 427.7502
324.8344, 413.6207
325.3165, 399.6705
325.7986, 386.5660
326.2808, 373.6274
326.7629, 362.4065
327.2450, 353.3198
327.7271, 346.1166
328.2092, 339.7715
328.6913, 334.4371
329.1735, 329.8290
329.6556, 325.7813
330.1377, 322.4327
330.6198, 319.3813
331.1019, 316.6763
331.5840, 314.2569
332.0662, 311.9510
332.5483, 309.6782
333.0304, 307.6033
333.5125, 305.7413
333.9946, 303.9756
334.4767, 302.9189
334.9589, 302.7313
335.4410, 303.1025
335.9231, 303.8091
336.4052, 305.2071
336.8873, 305.9511
337.3694, 305.4454
337.8515, 303.8027
338.3336, 303.0063
338.8158, 303.2895
339.2979, 303.9365
339.7800, 304.3697
340.2621, 304.5866
340.7442, 304.6603
341.2263, 304.7362
341.7085, 304.6165
342.1906, 303.6437
342.6727, 301.7887
343.1548, 299.2178
343.6369, 295.8027
344.1190, 291.6190
344.6012, 287.4775
345.0833, 283.5700
345.5654, 279.5779
346.0475, 274.7579
346.5296, 269.1840
347.0117, 263.6899
347.4939, 258.8763
347.9760, 254.5620
348.4581, 249.9539
348.9402, 244.9328
349.4223, 240.1709
349.9044, 236.4680
350.3866, 233.6067
350.8687, 230.7914
351.3508, 227.4702
351.8329, 224.0741
352.3150, 221.3252
352.7971, 219.1992
353.2793, 217.2430
353.7614, 215.0941
354.2435, 212.8367
354.7256, 210.5695
355.2077, 208.1835
355.6898, 205.9788
356.1720, 204.3433
356.6541, 203.1526
357.1362, 201.8831
357.6183, 200.0602
358.1004, 198.0993
358.5826, 196.3474
359.0647, 194.8437
359.5468, 193.6196
360.0289, 192.7921
360.5110, 192.2498
360.9931, 191.7791
361.4753, 191.5027
361.9574, 191.1189
362.4395, 190.4520
362.9216, 189.4551
363.4037, 188.3799
363.8858, 187.0627
364.3680, 185.7999
364.8501, 184.9006
365.3322, 184.6635
365.8143, 184.5727
366.2964, 184.5855
366.7785, 184.6944
367.2607, 184.6849
367.7428, 184.4772
368.2249, 184.1893
368.7070, 183.8892
369.1891, 183.5369
369.6712, 183.2309
370.1534, 182.9659
370.6355, 182.7449
371.1176, 182.5906
371.5997, 182.5945
372.0818, 182.5369
372.5639, 182.3047
373.0461, 181.8074
373.5282, 181.4063
374.0103, 181.0935
374.4924, 180.8691
374.9745, 180.7417
375.4566, 180.7184
375.9388, 180.7718
376.4209, 180.9314
376.9030, 181.1877
377.3851, 181.3350
377.8672, 181.3790
378.3493, 181.3214
378.8315, 181.0914
379.3136, 180.6842
379.7957, 180.4802
380.2778, 180.6194
380.7599, 180.9367
381.2420, 180.9792
381.7242, 180.7463
382.2063, 180.5739
382.6884, 180.8328
383.1705, 181.3493
383.6526, 181.4305
384.1347, 180.9151
384.6169, 180.3307
385.0990, 180.4157
385.5811, 181.0064
386.0632, 181.5782
386.5453, 181.8552
387.0274, 181.9860
387.5096, 182.1889
387.9917, 182.4649
388.4738, 182.6553
388.9559, 182.5663
389.4380, 182.3379
389.9201, 182.1462
390.4023, 181.9979
390.8844, 181.9676
391.3665, 182.1742
391.8486, 182.5627
392.3307, 182.9210
392.8128, 183.0238
393.2950, 183.1410
393.7771, 183.5170
394.2592, 184.3676
394.7413, 184.9873
395.2234, 185.0045
395.7055, 184.6701
396.1877, 184.3735
396.6698, 184.1613
397.1519, 184.0353
397.6340, 184.0305
398.1161, 184.1682
398.5982, 184.2436
399.0804, 184.2562
399.5625, 184.1986
400.0446, 184.0706
400.5267, 183.9489
401.0088, 183.6354
401.4909, 182.9180
401.9731, 181.9831
402.4552, 181.6751
402.9373, 182.4637
403.4194, 183.1152
403.9015, 182.9599
404.3836, 181.7242
404.8658, 180.7388
405.3479, 179.9897
405.8300, 179.5180
406.3121, 179.4984
406.7942, 180.0143
407.2763, 180.3820
407.7585, 180.4025
408.2406, 180.0896
408.7227, 179.3946
409.2048, 178.2561
409.6869, 177.2499
410.1690, 177.0094
410.6512, 177.3934
411.1333, 177.7169
411.6154, 177.8612
412.0975, 177.8747
412.5796, 177.8000
413.0617, 177.6496
413.5439, 177.4810
414.0260, 177.3338
414.5081, 177.1857
414.9902, 177.0269
415.4723, 176.8634
415.9544, 176.6219
416.4366, 176.1863
416.9187, 175.6491
417.4008, 175.1496
417.8829, 174.7952
418.3650, 174.4421
418.8471, 173.9882
419.3293, 173.4516
419.8114, 172.9185
420.2935, 172.5208
420.7756, 172.0800
421.2577, 171.4891
421.7398, 170.7030
422.2220, 169.8068
422.7041, 168.6748
423.1862, 167.4599
423.6683, 166.4324
424.1504, 165.6941
424.6325, 165.0633
425.1147, 164.5334
425.5968, 164.1157
426.0789, 163.6241
426.5610, 162.9574
427.0431, 162.3087
427.5252, 161.8832
428.0074, 161.8984
428.4895, 161.6114
428.9716, 160.8528
429.4537, 159.7717
429.9358, 158.8266
430.4179, 158.0218
430.9001, 157.3398
431.3822, 156.7806
431.8643, 156.3444
432.3464, 156.0955
432.8285, 156.1139
433.3106, 156.0608
433.7928, 155.4257
434.2749, 154.2722
434.7570, 153.1219
435.2391, 152.0857
435.7212, 151.1908
436.2033, 150.5538
436.6855, 150.1582
437.1676, 149.7753
437.6497, 149.1502
438.1318, 148.4630
438.6139, 148.0449
439.0960, 148.0291
439.5782, 147.9880
440.0603, 147.3420
440.5424, 146.4361
441.0245, 145.9235
441.5066, 146.7075
441.9887, 147.4441
442.4709, 147.2208
442.9530, 146.0466
443.4351, 144.9044
443.9172, 144.1209
444.3993, 143.5426
444.8814, 143.0690
445.3636, 142.6435
445.8457, 142.3634
446.3278, 142.3966
446.8099, 142.5860
447.2920, 142.5364
447.7741, 141.9260
448.2563, 141.4279
448.7384, 141.2726
449.2205, 141.5067
449.7026, 141.7182
450.1847, 141.9662
450.6668, 142.1192
451.1490, 142.0235
451.6311, 141.6071
452.1132, 141.2147
452.5953, 140.8706
453.0774, 140.5990
453.5595, 140.4509
454.0417, 140.4289
454.5238, 140.4984
455.0059, 140.7158
455.4880, 141.0286
455.9701, 141.1269
456.4522, 140.9681
456.9344, 140.8072
457.4165, 141.0075
457.8986, 141.4353
458.3807, 141.6971
458.8628, 141.5559
459.3449, 141.3223
459.8271, 141.4395
460.3092, 141.8105
460.7913, 142.0202
461.2734, 141.5560
461.7555, 140.9891
462.2376, 140.8621
462.7198, 141.3513
463.2019, 141.8032
463.6840, 141.8094
464.1661, 141.6390
464.6482, 141.6175
465.1303, 142.0426
465.6125, 142.4000
466.0946, 142.5876
466.5767, 142.6026
467.0588, 142.4277
467.5409, 141.6576
468.0230, 141.0553
468.5052, 141.0054
468.9873, 141.8459
469.4694, 142.4077
469.9515, 142.6614
470.4336, 142.6657
470.9157, 142.4632
471.3979, 141.9905
471.8800, 141.5211
472.3621, 141.0536
472.8442, 140.6527
473.3263, 140.6898
473.8084, 141.2151
474.2906, 141.7851
474.7727, 142.1125
475.2548, 142.2156
475.7369, 142.1559
476.2190, 141.9103
476.7011, 141.6111
477.1833, 141.4368
477.6654, 141.3383
478.1475, 141.1792
478.6296, 140.6970
479.1117, 140.2705
479.5938, 140.4104
480.0760, 141.0328
480.5581, 141.5684
481.0402, 141.5998
481.5223, 141.4687
482.0044, 141.4718
482.4865, 141.7456
482.9687, 141.9294
483.4508, 141.8260
483.9329, 141.5795
484.4150, 141.3968
484.8971, 141.4169
485.3792, 141.3941
485.8614, 141.2580
486.3435, 141.0160
486.8256, 140.7676
487.3077, 140.4510
487.7898, 140.2034
488.2719, 140.1032
488.7541, 140.1815
489.2362, 140.3359
489.7183, 140.6308
490.2004, 140.9155
490.6825, 140.9238
491.1646, 140.6234
491.6468, 140.3789
492.1289, 140.3562
492.6110, 140.4328
493.0931, 140.1636
493.5752, 139.5525
494.0573, 139.0200
494.5395, 138.9806
495.0216, 139.2146
495.5037, 139.2174
495.9858, 138.8856
496.4679, 138.5774
496.9500, 138.7790
497.4322, 139.2025
497.9143, 139.3660
498.3964, 138.8273
498.8785, 138.2050
499.3606, 137.8611
499.8427, 137.7409
500.3249, 137.6047
500.8070, 137.2834
501.2891, 136.9892
501.7712, 136.8478
502.2533, 136.9305
502.7354, 136.9979
503.2176, 137.0254
503.6997, 137.0317
504.1818, 137.0116
504.6639, 136.7996
505.1460, 136.8940
505.6281, 137.5379
506.1103, 138.5158
506.5924, 138.8984
507.0745, 138.5251
507.5566, 138.1179
508.0387, 138.0495
508.5208, 138.3036
509.0030, 138.6077
509.4851, 138.9832
509.9672, 139.2859
510.4493, 139.2788
510.9314, 139.0588
511.4135, 138.9368
511.8957, 138.9561
512.3778, 139.1730
512.8599, 139.8283
513.3420, 140.7671
513.8242, 141.5292
514.3063, 141.6777
514.7884, 141.7104
515.2705, 142.1086
515.7526, 142.9061
516.2347, 143.4576
516.7169, 143.1312
517.1990, 142.6753
517.6811, 142.6661
518.1632, 143.6274
518.6453, 144.4493
519.1274, 144.9161
519.6096, 145.1930
520.0917, 145.5720
520.5738, 146.0853
521.0559, 146.6454
521.5380, 147.2660
522.0201, 147.9366
522.5023, 148.4571
522.9844, 148.8001
523.4665, 149.0788
523.9486, 149.2879
524.4307, 149.4447
524.9128, 149.9362
525.3950, 150.8304
525.8771, 151.9112
526.3592, 153.0024
526.8413, 154.0534
527.3234, 154.9127
527.8055, 155.4163
528.2877, 155.7888
528.7698, 156.3197
529.2519, 156.9592
529.7340, 157.5187
530.2161, 157.8788
530.6982, 158.1259
531.1804, 158.2874
531.6625, 158.3326
532.1446, 158.4920
532.6267, 158.9853
533.1088, 159.5590
533.5909, 159.9719
534.0731, 160.0739
534.5552, 160.1670
535.0373, 160.2219
535.5194, 160.2912
536.0015, 160.5089
536.4836, 160.8765
536.9658, 161.3864
537.4479, 162.0465
537.9300, 162.8484
538.4121, 163.7488
538.8942, 164.7721
539.3763, 165.7614
539.8585, 166.6172
540.3406, 167.3323
540.8227, 167.8247
541.3048, 168.0389
541.7869, 168.2084
542.2690, 168.6599
542.7512, 169.2984
543.2333, 169.8871
543.7154, 170.3708
544.1975, 170.7292
544.6796, 170.9226
545.1617, 170.9703
545.6439, 170.9462
546.1260, 170.6754
546.6081, 170.5045
547.0902, 170.6789
547.5723, 171.3118
548.0544, 171.9149
548.5366, 172.6951
549.0187, 173.2609
549.5008, 173.2497
549.9829, 172.2688
550.4650, 171.4271
550.9471, 170.8463
551.4293, 170.4433
551.9114, 170.0832
552.3935, 169.8364
552.8756, 169.2863
553.3577, 168.1709
553.8398, 166.6246
554.3220, 165.2917
554.8041, 164.1747
555.2862, 163.0405
555.7683, 161.6431
556.2504, 160.1008
556.7325, 158.5773
557.2147, 157.0645
557.6968, 155.7381
558.1789, 154.8466
558.6610, 154.2074
559.1431, 153.5596
559.6252, 152.7404
560.1074, 151.9651
560.5895, 151.2800
561.0716, 150.6970
561.5537, 150.2688
562.0358, 150.1263
562.5179, 150.0186
563.0001, 149.8708
563.4822, 149.6841
563.9643, 149.4344
564.4464, 149.0210
564.9285, 148.6879
565.4106, 148.6654
565.8928, 149.0222
566.3749, 149.2115
566.8570, 149.1325
567.3391, 149.0101
567.8212, 149.1862
568.3033, 149.6384
568.7855, 150.2190
569.2676, 151.0755
569.7497, 151.8372
570.2318, 151.7640
570.7139, 151.0407
571.1960, 150.4711
571.6782, 150.6291
572.1603, 151.0720
572.6424, 151.4395
573.1245, 151.6929
573.6066, 152.0389
574.0887, 152.7253
574.5709, 153.4394
575.0530, 153.9415
575.5351, 154.0111
576.0172, 154.1496
576.4993, 154.4006
576.9814, 154.7150
577.4636, 154.9914
577.9457, 155.1653
578.4278, 155.4800
578.9099, 156.0228
579.3920, 156.7324
579.8741, 157.3671
580.3563, 157.9143
580.8384, 158.5169
581.3205, 159.4031
581.8026, 160.4088
582.2847, 160.9208
582.7668, 160.9145
583.2490, 160.9301
583.7311, 161.4090
584.2131, 162.1816
584.6953, 163.0373
585.1774, 163.9066
585.6595, 164.8902
586.1416, 166.2648
586.6237, 167.7291
587.1058, 168.8500
587.5880, 169.2858
588.0701, 169.6302
588.5522, 169.8201
589.0343, 169.9728
