##NAMES=Reinerite
##RRUFFID=R080132
##IDEAL CHEMISTRY=Zn^2+^_3_(As^3+^O_3_)_2_
##LOCALITY=4400 ft. level, Tsumeb, Namibia
##OWNER=RRUFF
##SOURCE=William W. Pinch
##DESCRIPTION=Colorless fragment
##STATUS=The identification of this mineral has been confirmed by single-crystal X-ray diffraction.
##URL=rruff.info/R080132
93.30109, 0.0000000E+00
93.78320, 148.5229
94.26532, 149.5778
94.74744, 149.6910
95.22955, 148.4839
95.71167, 147.6142
96.19379, 149.0386
96.67590, 153.4800
97.15802, 158.3698
97.64014, 163.0984
98.12225, 168.0096
98.60437, 173.7659
99.08649, 180.5677
99.56860, 188.4896
100.0507, 197.1349
100.5328, 205.8906
101.0150, 215.8940
101.4971, 226.9166
101.9792, 238.8012
102.4613, 255.0651
102.9434, 283.3909
103.4255, 313.8018
103.9077, 341.0537
104.3898, 365.1001
104.8719, 381.6555
105.3540, 380.2716
105.8361, 349.6132
106.3182, 319.4999
106.8004, 293.9823
107.2825, 273.3409
107.7646, 257.9145
108.2467, 248.0964
108.7288, 243.5797
109.2109, 240.8797
109.6931, 239.1880
110.1752, 239.9897
110.6573, 243.4020
111.1394, 249.6234
111.6215, 259.0697
112.1036, 272.1153
112.5858, 289.3376
113.0679, 308.7631
113.5500, 334.1895
114.0321, 358.9609
114.5142, 378.6961
114.9964, 392.6968
115.4785, 402.2180
115.9606, 409.0670
116.4427, 413.4951
116.9248, 410.2669
117.4069, 393.9893
117.8891, 369.4477
118.3712, 345.2329
118.8533, 320.6335
119.3354, 301.1547
119.8175, 291.0838
120.2996, 289.8120
120.7818, 293.3043
121.2639, 300.2095
121.7460, 310.6938
122.2281, 319.9809
122.7102, 328.1988
123.1923, 334.1246
123.6745, 335.6970
124.1566, 332.8885
124.6387, 328.9420
125.1208, 327.8116
125.6029, 327.8666
126.0850, 335.2091
126.5672, 349.1921
127.0493, 369.4092
127.5314, 396.3943
128.0135, 430.3604
128.4956, 469.3456
128.9777, 508.7691
129.4599, 553.6278
129.9420, 592.6907
130.4241, 620.0511
130.9062, 641.9728
131.3883, 665.2584
131.8704, 692.1513
132.3526, 725.7488
132.8347, 783.7767
133.3168, 865.4447
133.7989, 965.2668
134.2810, 1099.250
134.7632, 1258.502
135.2453, 1400.565
135.7274, 1508.420
136.2095, 1570.788
136.6916, 1576.166
137.1737, 1491.133
137.6559, 1368.438
138.1380, 1252.057
138.6201, 1138.453
139.1022, 1047.893
139.5843, 1002.655
140.0664, 986.6158
140.5486, 983.4461
141.0307, 999.3734
141.5128, 1021.694
141.9949, 1011.858
142.4770, 958.9086
142.9591, 885.6642
143.4413, 791.7171
143.9234, 688.2377
144.4055, 593.7744
144.8876, 521.3486
145.3697, 471.0760
145.8518, 434.7277
146.3340, 419.7654
146.8161, 413.6269
147.2982, 415.1014
147.7803, 422.8716
148.2624, 435.1772
148.7445, 450.6283
149.2267, 469.5556
149.7088, 490.2294
150.1909, 514.4610
150.6730, 538.5964
151.1551, 562.4033
151.6372, 585.0676
152.1194, 603.7239
152.6015, 615.3778
153.0836, 619.4648
153.5657, 613.5887
154.0478, 594.9134
154.5299, 567.7007
155.0121, 534.4770
155.4942, 495.5683
155.9763, 454.5987
156.4584, 416.4774
156.9405, 380.7911
157.4226, 348.3569
157.9048, 319.3004
158.3869, 293.6672
158.8690, 271.7664
159.3511, 253.9924
159.8332, 239.6825
160.3153, 227.5947
160.7975, 217.6448
161.2796, 209.3538
161.7617, 202.5648
162.2438, 197.2234
162.7259, 193.1572
163.2081, 190.8623
163.6902, 189.5216
164.1723, 188.3885
164.6544, 187.3922
165.1365, 187.1150
165.6186, 188.2508
166.1008, 190.9705
166.5829, 194.3604
167.0650, 198.1696
167.5471, 202.6373
168.0292, 207.8904
168.5113, 213.9744
168.9935, 220.9102
169.4756, 228.6975
169.9577, 237.2888
170.4398, 247.0844
170.9219, 258.3975
171.4040, 270.4929
171.8862, 282.8991
172.3683, 295.4166
172.8504, 307.9464
173.3325, 320.4074
173.8146, 333.9738
174.2967, 345.7421
174.7789, 356.8086
175.2610, 365.7106
175.7431, 370.8820
176.2252, 371.6947
176.7073, 368.1941
177.1894, 360.1259
177.6716, 345.4456
178.1537, 329.3525
178.6358, 311.1371
179.1179, 292.1695
179.6000, 274.5386
180.0821, 259.0371
180.5643, 246.1486
181.0464, 236.9737
181.5285, 231.1985
182.0106, 228.4766
182.4927, 229.0390
182.9748, 232.6615
183.4570, 238.4510
183.9391, 246.4249
184.4212, 256.2936
184.9033, 266.8987
185.3854, 278.7524
185.8675, 290.4774
186.3497, 301.6339
186.8318, 312.2771
187.3139, 320.4632
187.7960, 325.1412
188.2781, 326.6848
188.7602, 325.2287
189.2424, 320.5445
189.7245, 313.4011
190.2066, 304.5141
190.6887, 293.6065
191.1708, 281.8194
191.6530, 268.6324
192.1351, 255.1989
192.6172, 242.4420
193.0993, 230.7243
193.5814, 219.9061
194.0635, 209.8112
194.5457, 200.3621
195.0278, 191.9578
195.5099, 184.6348
195.9920, 178.1948
196.4741, 172.4707
196.9562, 167.3916
197.4384, 162.9626
197.9205, 159.1929
198.4026, 156.5542
198.8847, 154.0286
199.3668, 151.4121
199.8489, 148.8499
200.3311, 146.5049
200.8132, 144.4597
201.2953, 142.6872
201.7774, 141.1038
202.2595, 139.6534
202.7416, 138.4787
203.2238, 137.6048
203.7059, 137.0098
204.1880, 136.6201
204.6701, 136.3879
205.1522, 136.3764
205.6343, 136.9102
206.1165, 138.1162
206.5986, 139.6529
207.0807, 141.3825
207.5628, 143.3998
208.0449, 145.9107
208.5270, 149.0445
209.0092, 152.7210
209.4913, 156.5678
209.9734, 160.2562
210.4555, 164.4305
210.9376, 169.4665
211.4197, 175.1787
211.9019, 181.0866
212.3840, 186.8258
212.8661, 192.6709
213.3482, 199.2983
213.8303, 206.9323
214.3124, 214.8435
214.7946, 222.7917
215.2767, 230.7340
215.7588, 238.3012
216.2409, 245.6452
216.7230, 252.1930
217.2052, 257.5758
217.6873, 262.0014
218.1694, 264.7011
218.6515, 264.8548
219.1336, 262.5114
219.6157, 258.9518
220.0979, 254.6218
220.5800, 249.1284
221.0621, 241.9479
221.5442, 232.7861
222.0263, 222.8777
222.5084, 213.1601
222.9906, 203.5505
223.4727, 194.5770
223.9548, 186.3245
224.4369, 178.9391
224.9190, 172.6903
225.4011, 167.6089
225.8833, 163.3795
226.3654, 159.4996
226.8475, 155.8543
227.3296, 153.2126
227.8117, 152.1157
228.2938, 151.8542
228.7760, 152.0880
229.2581, 152.7428
229.7402, 153.9530
230.2223, 155.8747
230.7044, 158.5058
231.1865, 161.9346
231.6687, 166.4384
232.1508, 171.4727
232.6329, 176.6607
233.1150, 181.9792
233.5971, 187.7023
234.0792, 194.3456
234.5614, 202.4275
235.0435, 210.1623
235.5256, 217.3138
236.0077, 224.3173
236.4898, 231.6682
236.9719, 239.2981
237.4541, 246.5642
237.9362, 252.6299
238.4183, 257.4485
238.9004, 260.8758
239.3825, 263.0880
239.8646, 264.0730
240.3468, 263.6056
240.8289, 261.7618
241.3110, 259.0226
241.7931, 255.9682
242.2752, 252.8080
242.7573, 248.5614
243.2395, 242.8603
243.7216, 236.5429
244.2037, 229.9995
244.6858, 223.3528
245.1679, 216.6352
245.6501, 209.8919
246.1322, 203.1523
246.6143, 196.2403
247.0964, 188.7901
247.5785, 181.4316
248.0606, 174.5551
248.5428, 168.2181
249.0249, 162.1919
249.5070, 156.2708
249.9891, 150.4184
250.4712, 144.9637
250.9533, 139.7540
251.4355, 135.0117
251.9176, 130.8999
252.3997, 127.4086
252.8818, 124.3567
253.3639, 121.6198
253.8460, 119.2386
254.3282, 117.2438
254.8103, 115.9374
255.2924, 114.7665
255.7745, 113.2417
256.2566, 111.4089
256.7387, 109.8542
257.2209, 109.0524
257.7030, 108.9433
258.1851, 108.7525
258.6672, 108.3689
259.1493, 107.9935
259.6314, 107.7386
260.1136, 107.6054
260.5957, 107.5829
261.0778, 107.6318
261.5599, 107.8224
262.0420, 108.2823
262.5241, 109.2392
263.0063, 110.1974
263.4884, 110.7622
263.9705, 110.9768
264.4526, 111.2274
264.9347, 111.7264
265.4168, 112.3488
265.8990, 112.8403
266.3811, 113.1648
266.8632, 113.4408
267.3453, 113.7584
267.8274, 114.1086
268.3095, 114.4113
268.7917, 114.5799
269.2738, 114.7419
269.7559, 115.0443
270.2380, 115.4963
270.7201, 116.0536
271.2022, 116.6327
271.6844, 117.2610
272.1665, 118.1453
272.6486, 119.3668
273.1307, 120.8633
273.6128, 122.5536
274.0949, 124.4459
274.5771, 126.4147
275.0592, 128.4526
275.5413, 130.5358
276.0234, 132.5062
276.5055, 134.3795
276.9876, 136.0705
277.4698, 137.7370
277.9519, 139.2855
278.4340, 140.2680
278.9161, 140.1992
279.3982, 139.2832
279.8803, 138.4181
280.3625, 137.6471
280.8446, 136.9488
281.3267, 136.2597
281.8088, 135.6191
282.2909, 135.1164
282.7730, 134.7715
283.2552, 134.6046
283.7373, 134.7151
284.2194, 135.2232
284.7015, 135.7937
285.1836, 136.1457
285.6658, 136.4721
286.1479, 137.0960
286.6300, 138.2405
287.1121, 139.6897
287.5942, 140.9503
288.0764, 141.9551
288.5585, 142.9255
289.0406, 143.7864
289.5227, 144.7173
290.0048, 145.9495
290.4869, 147.6190
290.9691, 149.4766
291.4512, 151.0913
291.9333, 152.3753
292.4154, 153.6915
292.8975, 155.0034
293.3796, 156.4568
293.8618, 158.3822
294.3439, 160.8606
294.8260, 163.1584
295.3081, 164.3752
295.7902, 164.4532
296.2723, 163.7172
296.7545, 162.0225
297.2366, 159.6132
297.7187, 156.5706
298.2008, 152.9096
298.6829, 148.5879
299.1650, 143.4690
299.6472, 137.4627
300.1293, 131.3875
300.6114, 124.9430
301.0935, 118.7905
301.5756, 113.1952
302.0577, 108.1715
302.5399, 103.5743
303.0220, 99.30773
303.5041, 95.38432
303.9862, 91.93233
304.4683, 89.15276
304.9504, 86.66711
305.4326, 84.35267
305.9147, 82.21113
306.3968, 80.27381
306.8789, 78.59291
307.3610, 77.11015
307.8431, 75.58914
308.3253, 73.89314
308.8074, 72.39308
309.2895, 71.23277
309.7716, 70.27513
310.2537, 69.36372
310.7358, 68.41865
311.2180, 67.50957
311.7001, 66.81036
312.1822, 66.38816
312.6643, 66.02389
313.1464, 65.67550
313.6285, 65.35551
314.1107, 64.99786
314.5928, 64.59818
315.0749, 64.36633
315.5570, 64.65723
316.0391, 65.61486
316.5212, 66.57244
317.0034, 67.44628
317.4855, 68.32057
317.9676, 69.19384
318.4497, 70.09055
318.9318, 71.09539
319.4139, 72.31413
319.8961, 73.76253
320.3782, 75.25785
320.8603, 77.29186
321.3424, 78.86810
321.8245, 79.58681
322.3066, 79.53709
322.7888, 78.99644
323.2709, 78.13744
323.7530, 76.95583
324.2351, 75.44462
324.7172, 73.54215
325.1993, 71.34403
325.6815, 68.55508
326.1636, 65.60192
326.6457, 63.05740
327.1278, 61.24355
327.6099, 59.92304
328.0920, 58.47871
328.5742, 56.70052
329.0563, 55.26866
329.5384, 54.50739
330.0205, 54.01994
330.5026, 53.47496
330.9847, 52.77454
331.4669, 52.05546
331.9490, 51.52608
332.4311, 51.23714
332.9132, 50.91571
333.3953, 50.40150
333.8774, 49.93459
334.3596, 49.67333
334.8417, 49.61420
335.3238, 49.62746
335.8059, 49.55657
336.2880, 49.39726
336.7701, 49.44967
337.2523, 49.95868
337.7344, 50.41630
338.2165, 50.56176
338.6986, 50.47840
339.1807, 50.37990
339.6628, 50.40768
340.1450, 50.51685
340.6271, 50.54205
341.1092, 50.47520
341.5913, 50.33247
342.0735, 50.14422
342.5556, 49.88709
343.0377, 49.51982
343.5198, 49.01631
344.0019, 48.42871
344.4840, 47.86953
344.9662, 47.37403
345.4483, 46.73671
345.9304, 45.73626
346.4125, 44.65570
346.8946, 43.69284
347.3767, 42.87299
347.8589, 42.10939
348.3410, 41.34269
348.8231, 40.56915
349.3052, 39.75368
349.7873, 38.82572
350.2694, 37.92642
350.7516, 37.11449
351.2337, 36.39858
351.7158, 35.82094
352.1979, 35.48556
352.6800, 35.31042
353.1621, 35.01601
353.6443, 34.54903
354.1264, 34.07456
354.6085, 33.67971
355.0906, 33.34164
355.5727, 33.03819
356.0548, 32.77929
356.5370, 32.53107
357.0191, 32.24617
357.5012, 31.92387
357.9833, 31.58975
358.4654, 31.21001
358.9475, 30.85477
359.4297, 30.64171
359.9118, 30.62002
360.3939, 30.55190
360.8760, 30.15946
361.3581, 29.53143
361.8402, 29.13266
362.3224, 29.14216
362.8045, 29.30490
363.2866, 29.36786
363.7687, 29.34016
364.2508, 29.28954
364.7329, 29.26393
365.2151, 29.22532
365.6972, 29.05795
366.1793, 28.71541
366.6614, 28.47264
367.1435, 28.67783
367.6256, 29.15443
368.1078, 29.35048
368.5899, 28.97137
369.0720, 28.47421
369.5541, 28.21967
370.0362, 28.18175
370.5183, 28.19293
371.0005, 28.17368
371.4826, 28.16089
371.9647, 28.25388
372.4468, 28.52656
372.9289, 28.70957
373.4110, 28.63829
373.8932, 28.41736
374.3753, 28.23508
374.8574, 28.14142
375.3395, 28.08763
375.8216, 28.02320
376.3037, 27.95031
376.7859, 27.84247
377.2680, 27.57672
377.7501, 27.35670
378.2322, 27.41257
378.7143, 27.72677
379.1964, 28.04890
379.6786, 28.20190
380.1607, 28.19274
380.6428, 28.14683
381.1249, 28.02207
381.6070, 27.91299
382.0891, 27.87106
382.5713, 27.86601
383.0534, 27.84050
383.5355, 27.76956
384.0176, 27.66661
384.4997, 27.55650
384.9818, 27.38717
385.4640, 27.30248
385.9461, 27.35762
386.4282, 27.46676
386.9103, 27.57651
387.3924, 27.66898
387.8745, 27.72860
388.3567, 27.73629
388.8388, 27.68763
389.3209, 27.61598
389.8030, 27.48690
390.2851, 27.37313
390.7672, 27.29384
391.2494, 27.25168
391.7315, 27.24152
392.2136, 27.25838
392.6957, 27.31241
393.1778, 27.45134
393.6599, 27.84183
394.1421, 28.07355
394.6242, 28.02549
395.1063, 27.86374
395.5884, 27.71378
396.0706, 27.61575
396.5527, 27.56738
397.0348, 27.57863
397.5169, 27.67413
397.9990, 27.73013
398.4811, 27.69515
398.9633, 27.66604
399.4454, 27.70523
399.9275, 27.78439
400.4096, 27.82106
400.8917, 27.73782
401.3738, 27.57883
401.8560, 27.55378
402.3381, 27.77527
402.8202, 27.91488
403.3023, 27.79319
403.7844, 27.58861
404.2665, 27.50118
404.7487, 27.59687
405.2308, 27.72813
405.7129, 27.71536
406.1950, 27.55276
406.6771, 27.34686
407.1592, 27.01300
407.6414, 26.75427
408.1235, 26.75163
408.6056, 26.96725
409.0877, 27.18443
409.5698, 27.30966
410.0519, 27.34406
410.5341, 27.26566
411.0162, 27.04483
411.4983, 26.82321
411.9804, 26.66418
412.4625, 26.56851
412.9446, 26.55339
413.4268, 26.65920
413.9089, 26.78227
414.3910, 26.84813
414.8731, 26.86183
415.3552, 26.84972
415.8373, 26.82461
416.3195, 26.76912
416.8016, 26.62038
417.2837, 26.36495
417.7658, 26.20842
418.2479, 26.31200
418.7300, 26.48649
419.2122, 26.48709
419.6943, 26.29535
420.1764, 26.10307
420.6585, 26.06969
421.1406, 26.17843
421.6227, 26.21609
422.1049, 26.17628
422.5870, 26.08168
423.0691, 25.92614
423.5512, 25.72488
424.0333, 25.47117
424.5154, 25.15738
424.9976, 24.87505
425.4797, 24.81060
425.9618, 25.16183
426.4439, 25.33560
426.9260, 25.26999
427.4081, 25.08402
427.8903, 24.77208
428.3724, 24.39489
428.8545, 24.13613
429.3366, 24.16858
429.8187, 24.47360
430.3008, 24.62965
430.7830, 24.48613
431.2651, 24.35121
431.7472, 24.31341
432.2293, 24.29404
432.7114, 24.17113
433.1935, 23.90361
433.6757, 23.60309
434.1578, 23.46716
434.6399, 23.54971
435.1220, 23.60569
435.6041, 23.62149
436.0862, 23.60211
436.5684, 23.54552
437.0505, 23.45379
437.5326, 23.32703
438.0147, 23.13696
438.4968, 22.92042
438.9789, 22.82263
439.4611, 22.89117
439.9432, 22.95880
440.4253, 22.99778
440.9074, 22.98153
441.3895, 22.84732
441.8716, 22.55964
442.3538, 22.28332
442.8359, 22.16708
443.3180, 22.19326
443.8001, 22.28034
444.2822, 22.45901
444.7643, 22.61051
445.2465, 22.58172
445.7286, 22.41352
446.2107, 22.28118
446.6928, 22.28161
447.1749, 22.30634
447.6570, 22.22702
448.1392, 22.05405
448.6213, 21.90671
449.1034, 21.85749
449.5855, 21.86772
450.0677, 21.82524
450.5498, 21.69964
451.0319, 21.59556
451.5140, 21.52494
451.9961, 21.49682
452.4782, 21.55691
452.9604, 21.70310
453.4425, 21.82005
453.9246, 21.77440
454.4067, 21.54055
454.8888, 21.41849
455.3709, 21.43806
455.8531, 21.51487
456.3352, 21.70770
456.8173, 21.91846
457.2994, 21.95808
457.7815, 21.73699
458.2636, 21.41223
458.7458, 21.33252
459.2279, 21.67747
459.7100, 21.89379
460.1921, 21.90559
460.6742, 21.85311
461.1563, 21.79868
461.6385, 21.75302
462.1206, 21.70938
462.6027, 21.65703
463.0848, 21.60327
463.5669, 21.59249
464.0490, 21.65267
464.5312, 21.69852
465.0133, 21.69768
465.4954, 21.67087
465.9775, 21.62477
466.4596, 21.55712
466.9417, 21.51671
467.4239, 21.60840
467.9060, 21.79465
468.3881, 21.78792
468.8702, 21.44137
469.3523, 21.10213
469.8344, 21.12690
470.3166, 21.40266
470.7987, 21.61458
471.2808, 21.67358
471.7629, 21.64578
472.2450, 21.54589
472.7271, 21.39458
473.2093, 21.30496
473.6914, 21.33947
474.1735, 21.43251
474.6556, 21.44514
475.1377, 21.33541
475.6198, 21.29831
476.1020, 21.49432
476.5841, 21.68567
477.0662, 21.60690
477.5483, 21.27950
478.0304, 20.95851
478.5125, 20.83626
478.9947, 20.89524
479.4768, 20.98682
479.9589, 21.22585
480.4410, 21.35621
480.9231, 21.26658
481.4052, 21.09295
481.8874, 20.95603
482.3695, 20.89293
482.8516, 20.89858
483.3337, 20.99528
483.8158, 21.20854
484.2979, 21.28948
484.7801, 21.05902
485.2622, 20.89832
485.7443, 21.03759
486.2264, 21.30837
486.7085, 21.42759
487.1906, 21.25953
487.6728, 20.96007
488.1549, 20.72443
488.6370, 20.55163
489.1191, 20.47287
489.6012, 20.52788
490.0833, 20.64742
490.5655, 20.78572
491.0476, 20.93658
491.5297, 21.05455
492.0118, 21.13539
492.4939, 21.16611
492.9760, 21.10328
493.4582, 20.95224
493.9403, 20.82106
494.4224, 20.77112
494.9045, 20.77040
495.3866, 20.73829
495.8687, 20.66754
496.3509, 20.59067
496.8330, 20.46715
497.3151, 20.36824
497.7972, 20.40948
498.2793, 20.58193
498.7614, 20.73471
499.2436, 20.73346
499.7257, 20.58752
500.2078, 20.46770
500.6899, 20.37959
501.1720, 20.31099
501.6541, 20.29249
502.1363, 20.27669
502.6184, 20.18401
503.1005, 20.00626
503.5826, 19.85068
504.0647, 19.89124
504.5468, 20.16448
505.0290, 20.25777
505.5111, 19.99494
505.9932, 19.76804
506.4753, 19.75434
506.9575, 19.86848
507.4396, 19.98506
507.9217, 20.07248
508.4038, 20.10080
508.8859, 19.97774
509.3680, 19.71732
509.8502, 19.58552
510.3323, 19.67643
510.8144, 19.85366
511.2965, 20.02228
511.7786, 20.17402
512.2607, 20.24485
512.7429, 20.11440
513.2250, 19.97930
513.7071, 20.03833
514.1892, 20.25167
514.6713, 20.44627
515.1534, 20.55311
515.6356, 20.58081
516.1177, 20.54189
516.5998, 20.40438
517.0819, 20.26696
517.5640, 20.05447
518.0461, 19.90653
518.5283, 19.98860
519.0104, 20.23297
519.4925, 20.40072
519.9746, 20.32094
520.4567, 20.08483
520.9388, 20.04535
521.4210, 20.35237
521.9031, 20.57724
522.3852, 20.56707
522.8673, 20.54592
523.3494, 20.70478
523.8315, 21.02858
524.3137, 21.33588
524.7958, 21.47051
525.2779, 21.47980
525.7600, 21.51628
526.2421, 21.57271
526.7242, 21.68395
527.2064, 21.90439
527.6885, 22.16896
528.1706, 22.41420
528.6527, 22.64640
529.1348, 22.79521
529.6169, 22.75962
530.0991, 22.64124
530.5812, 22.61633
531.0633, 22.70529
531.5454, 22.80867
532.0275, 22.85654
532.5096, 22.85596
532.9918, 22.85424
533.4739, 22.83341
533.9560, 22.83423
534.4381, 22.91888
534.9202, 23.00073
535.4023, 22.94987
535.8845, 22.76317
536.3666, 22.58715
536.8487, 22.57969
537.3308, 22.74003
537.8129, 22.84458
538.2950, 22.79971
538.7772, 22.82410
539.2593, 23.02690
539.7414, 23.28907
540.2235, 23.49182
540.7056, 23.60296
541.1877, 23.65324
541.6699, 23.65020
542.1520, 23.60415
542.6341, 23.60174
543.1162, 23.68441
543.5983, 23.72212
544.0804, 23.54206
544.5626, 23.27650
545.0447, 23.18599
545.5268, 23.37745
546.0089, 23.60906
546.4910, 23.76660
546.9731, 23.86142
547.4553, 23.90369
547.9374, 23.89581
548.4195, 23.87137
548.9016, 23.86303
549.3837, 23.87140
549.8658, 23.86503
550.3480, 23.85293
550.8301, 23.81849
551.3122, 23.74819
551.7943, 23.65710
552.2764, 23.55622
552.7585, 23.45182
553.2407, 23.35828
553.7228, 23.30284
554.2049, 23.29003
554.6870, 23.23352
555.1691, 23.14247
555.6512, 22.98939
556.1334, 22.67174
556.6155, 22.33209
557.0976, 22.19135
557.5797, 22.33439
558.0618, 22.47398
558.5439, 22.30726
559.0261, 21.91629
559.5082, 21.61189
559.9903, 21.45206
560.4724, 21.30752
560.9545, 21.04784
561.4366, 20.71911
561.9188, 20.53613
562.4009, 20.58306
562.8830, 20.67362
563.3651, 20.75882
563.8472, 20.83849
564.3293, 20.92148
564.8115, 21.00603
565.2936, 21.06461
565.7757, 21.06875
566.2578, 21.01833
566.7399, 20.94702
567.2220, 20.79762
567.7042, 20.69800
568.1863, 20.70359
568.6684, 20.75015
569.1505, 20.75751
569.6326, 20.71517
570.1147, 20.70310
570.5969, 20.84693
571.0790, 21.10735
571.5611, 21.22319
572.0432, 21.15678
572.5253, 21.04190
573.0074, 20.88463
573.4896, 20.74838
573.9717, 20.74789
574.4538, 20.93950
574.9359, 21.09616
575.4180, 21.06787
575.9001, 20.96054
576.3823, 20.92425
576.8644, 20.97274
577.3465, 21.03114
577.8286, 21.03837
578.3107, 21.01800
578.7928, 21.08637
579.2750, 21.38146
579.7571, 21.58453
580.2392, 21.65444
580.7213, 21.64451
581.2034, 21.54313
581.6855, 21.39041
582.1677, 21.30566
582.6498, 21.39559
583.1319, 21.60422
583.6140, 21.73260
584.0961, 21.75677
584.5782, 21.78271
585.0604, 21.81042
585.5425, 21.87645
586.0246, 22.01673
586.5067, 22.22917
586.9889, 22.46997
587.4710, 22.80349
587.9531, 23.10125
588.4352, 23.16739
588.9174, 23.03834
589.3995, 22.93087
589.8816, 22.93304
590.3637, 23.02135
590.8458, 23.17179
591.3279, 23.45161
591.8101, 23.58949
