##NAMES=Renierite
##RRUFFID=R050433
##IDEAL CHEMISTRY=(Cu^1+^,Cu^2+^Zn^2+^)_11_(Fe^2+^,Fe^3+^)_4_(Ge^4+^,As^5+^)_2_S^2-^_16_
##LOCALITY=Tsumeb mine, Tsumeb, Otavi District, Oshikoto, Namibia
##OWNER=RRUFF
##SOURCE=University of Arizona Mineral Museum
##DESCRIPTION=Bronze metallic massive
##STATUS=The identification of this mineral has been confirmed by X-ray diffraction and chemical analysis
##URL=rruff.info/R050433
##MEASURED CHEMISTRY=(Cu_10.51_Zn_0.49_)_Σ=11_Fe_4.00_(Ge_1.67_As_0.33_)_Σ=2_S_16_
91.00781, 6.128906
91.48993, 6.065822
91.97205, 6.040786
92.45416, 6.145511
92.93628, 6.284827
93.41840, 6.216308
93.90051, 5.834345
94.38263, 5.348396
94.86475, 5.076019
95.34686, 5.016401
95.82898, 5.089948
96.31110, 5.175544
96.79321, 5.295265
97.27533, 5.752469
97.75745, 6.823041
98.23956, 8.252545
98.72168, 8.845085
99.20380, 8.451066
99.68591, 7.672526
100.1680, 6.969387
100.6501, 6.232977
101.1323, 6.162312
101.6144, 7.233727
102.0965, 9.603522
102.5786, 11.15748
103.0607, 11.65974
103.5428, 11.56768
104.0250, 11.62131
104.5071, 11.84663
104.9892, 12.17300
105.4713, 12.55474
105.9534, 12.89478
106.4355, 13.50462
106.9177, 14.47978
107.3998, 15.72730
107.8819, 16.99979
108.3640, 18.47925
108.8461, 19.82343
109.3282, 20.88758
109.8104, 21.33958
110.2925, 21.86969
110.7746, 22.54638
111.2567, 23.34507
111.7388, 24.10035
112.2209, 24.55287
112.7031, 25.07814
113.1852, 25.94256
113.6673, 27.71903
114.1494, 29.33550
114.6315, 30.38983
115.1136, 30.85888
115.5958, 31.48449
116.0779, 32.58120
116.5600, 33.93410
117.0421, 35.29630
117.5242, 36.74526
118.0063, 38.07758
118.4885, 39.08362
118.9706, 39.64709
119.4527, 40.43242
119.9348, 41.73374
120.4169, 43.50386
120.8990, 45.68507
121.3812, 49.00356
121.8633, 52.35964
122.3454, 54.65112
122.8275, 55.60317
123.3096, 55.80235
123.7917, 55.51174
124.2739, 54.81770
124.7560, 54.03723
125.2381, 53.02382
125.7202, 52.10844
126.2023, 51.91432
126.6844, 52.76950
127.1666, 54.14414
127.6487, 55.43943
128.1308, 56.65467
128.6129, 57.69489
129.0950, 58.37569
129.5771, 58.79752
130.0593, 59.34571
130.5414, 60.26986
131.0235, 61.33422
131.5056, 61.64492
131.9877, 60.87712
132.4698, 59.99675
132.9520, 60.57924
133.4341, 62.53356
133.9162, 64.30310
134.3983, 65.30173
134.8804, 65.63462
135.3625, 65.98408
135.8447, 66.27985
136.3268, 66.76044
136.8089, 67.91238
137.2910, 69.87599
137.7731, 71.69124
138.2552, 73.04466
138.7374, 73.92924
139.2195, 74.41660
139.7016, 74.49959
140.1837, 74.21336
140.6658, 73.50838
141.1479, 72.09272
141.6301, 70.90814
142.1122, 70.43622
142.5943, 70.96667
143.0764, 71.39492
143.5585, 71.66522
144.0406, 71.81731
144.5228, 72.00741
145.0049, 72.28378
145.4870, 72.53578
145.9691, 72.71928
146.4512, 72.98579
146.9333, 72.92923
147.4155, 72.28564
147.8976, 71.16028
148.3797, 70.60879
148.8618, 70.89253
149.3439, 71.54964
149.8260, 72.28011
150.3082, 73.51595
150.7903, 74.35368
151.2724, 74.54642
151.7545, 74.07101
152.2366, 73.85223
152.7188, 74.19132
153.2009, 74.66331
153.6830, 74.92329
154.1651, 75.01753
154.6472, 74.82224
155.1293, 74.13879
155.6115, 72.86591
156.0936, 71.94258
156.5757, 71.74121
157.0578, 71.89059
157.5399, 71.98924
158.0220, 71.91817
158.5042, 71.80845
158.9863, 71.65636
159.4684, 71.41370
159.9505, 71.37022
160.4326, 71.93793
160.9147, 72.70918
161.3969, 73.07632
161.8790, 72.60103
162.3611, 71.83744
162.8432, 70.95647
163.3253, 69.81602
163.8074, 69.10545
164.2896, 69.69833
164.7717, 70.94740
165.2538, 71.56046
165.7359, 70.14388
166.2180, 68.33479
166.7001, 67.46719
167.1823, 68.17764
167.6644, 68.97121
168.1465, 68.77879
168.6286, 67.89331
169.1107, 67.13867
169.5928, 67.35744
170.0750, 67.77588
170.5571, 67.51599
171.0392, 66.04396
171.5213, 64.41969
172.0034, 63.60090
172.4855, 63.43638
172.9677, 63.27552
173.4498, 62.62714
173.9319, 61.73927
174.4140, 60.95655
174.8961, 60.34997
175.3782, 59.90540
175.8604, 59.64129
176.3425, 59.54041
176.8246, 59.46968
177.3067, 59.47013
177.7888, 59.42194
178.2709, 59.05172
178.7531, 58.02966
179.2352, 56.83575
179.7173, 56.26694
180.1994, 56.29771
180.6815, 56.39163
181.1636, 55.96483
181.6458, 55.19910
182.1279, 54.66074
182.6100, 54.67034
183.0921, 54.95939
183.5742, 54.92741
184.0563, 54.55950
184.5385, 54.18056
185.0206, 54.18539
185.5027, 54.49311
185.9848, 54.72100
186.4669, 54.78804
186.9490, 54.67283
187.4312, 54.16285
187.9133, 53.19617
188.3954, 52.30511
188.8775, 52.38662
189.3596, 53.31076
189.8417, 53.82289
190.3239, 53.13583
190.8060, 51.55324
191.2881, 50.65985
191.7702, 50.52809
192.2523, 50.82687
192.7344, 51.22500
193.2166, 51.72118
193.6987, 52.23356
194.1808, 52.95092
194.6629, 53.79339
195.1450, 53.61480
195.6271, 52.10065
196.1093, 50.36705
196.5914, 50.32009
197.0735, 52.11346
197.5556, 53.67678
198.0377, 53.91919
198.5198, 52.83059
199.0020, 52.36831
199.4841, 52.75690
199.9662, 53.37313
200.4483, 53.01516
200.9304, 51.47703
201.4125, 50.21577
201.8947, 50.05072
202.3768, 51.09846
202.8589, 51.75438
203.3410, 51.97112
203.8231, 51.84768
204.3052, 51.44088
204.7874, 50.62268
205.2695, 50.04709
205.7516, 50.17388
206.2337, 51.18165
206.7158, 51.63180
207.1979, 51.35871
207.6801, 50.67126
208.1622, 50.20055
208.6443, 49.98666
209.1264, 49.85391
209.6085, 49.70094
210.0906, 49.48434
210.5728, 49.49697
211.0549, 49.90721
211.5370, 50.43038
212.0191, 50.30088
212.5012, 49.20119
212.9833, 48.22988
213.4655, 48.00710
213.9476, 48.82102
214.4297, 49.27813
214.9118, 49.20887
215.3939, 48.84274
215.8760, 48.74377
216.3581, 48.96416
216.8403, 49.34562
217.3224, 49.89610
217.8045, 50.82523
218.2866, 51.24557
218.7687, 50.92522
219.2508, 50.16262
219.7330, 49.78249
220.2151, 49.92838
220.6972, 50.18828
221.1793, 50.37085
221.6614, 50.45114
222.1435, 50.52222
222.6257, 50.58802
223.1078, 50.64470
223.5899, 50.66862
224.0720, 50.59502
224.5541, 50.59414
225.0362, 50.77703
225.5184, 51.28530
226.0005, 51.62755
226.4826, 51.79063
226.9647, 51.78735
227.4468, 51.59246
227.9289, 50.92571
228.4111, 50.50336
228.8932, 50.76567
229.3753, 52.27770
229.8574, 53.09276
230.3395, 52.85542
230.8216, 51.97705
231.3038, 51.62925
231.7859, 52.20890
232.2680, 52.73861
232.7501, 52.71473
233.2322, 51.69242
233.7143, 51.11623
234.1965, 51.04055
234.6786, 51.40247
235.1607, 52.08848
235.6428, 53.43113
236.1249, 54.61253
236.6070, 55.23201
237.0892, 54.96854
237.5713, 54.86176
238.0534, 55.03191
238.5355, 55.32678
239.0176, 55.31156
239.4997, 54.66862
239.9819, 54.17227
240.4640, 54.20766
240.9461, 55.11750
241.4282, 55.74178
241.9103, 55.99836
242.3924, 55.99625
242.8746, 55.96399
243.3567, 55.77236
243.8388, 55.74886
244.3209, 56.08272
244.8030, 57.01060
245.2851, 57.63861
245.7673, 57.80645
246.2494, 57.74097
246.7315, 57.92858
247.2136, 58.43592
247.6957, 59.09389
248.1778, 59.91309
248.6600, 61.08273
249.1421, 61.79420
249.6242, 61.85487
250.1063, 61.56602
250.5884, 61.49284
251.0705, 61.64426
251.5527, 61.99955
252.0348, 62.59120
252.5169, 63.52302
252.9990, 64.33805
253.4811, 65.05510
253.9632, 65.65115
254.4454, 66.02989
254.9275, 65.99944
255.4096, 66.11978
255.8917, 66.57870
256.3738, 67.40776
256.8560, 68.49946
257.3381, 70.19842
257.8202, 71.88007
258.3023, 72.41907
258.7844, 71.03452
259.2665, 70.21138
259.7487, 70.92309
260.2308, 73.47765
260.7129, 75.40344
261.1950, 76.55373
261.6771, 77.23339
262.1592, 77.78392
262.6414, 78.09682
263.1235, 78.54863
263.6056, 79.29155
264.0877, 80.36170
264.5698, 81.26039
265.0519, 81.92039
265.5341, 82.49812
266.0162, 83.13313
266.4983, 83.74454
266.9804, 84.68599
267.4625, 86.27869
267.9446, 88.48827
268.4268, 89.73778
268.9089, 89.67773
269.3910, 89.23390
269.8731, 89.35627
270.3552, 90.16324
270.8373, 91.06339
271.3195, 91.96110
271.8016, 92.85052
272.2837, 93.74066
272.7658, 94.69225
273.2479, 95.52992
273.7300, 96.02165
274.2122, 96.07938
274.6943, 96.35703
275.1764, 97.09474
275.6585, 98.15385
276.1406, 98.77876
276.6227, 98.90537
277.1049, 98.81415
277.5870, 98.70549
278.0691, 98.58067
278.5512, 98.39345
279.0333, 98.03062
279.5154, 97.65428
279.9976, 97.94505
280.4797, 99.03665
280.9618, 100.1101
281.4439, 100.5890
281.9260, 100.4647
282.4081, 100.2012
282.8903, 99.82768
283.3724, 99.37849
283.8545, 98.93590
284.3366, 98.50222
284.8187, 98.04714
285.3008, 97.54652
285.7830, 97.00069
286.2651, 96.48911
286.7472, 96.05043
287.2293, 95.58174
287.7114, 94.85028
288.1935, 93.85779
288.6757, 92.84879
289.1578, 91.96959
289.6399, 91.19377
290.1220, 90.44760
290.6041, 89.73457
291.0862, 89.00870
291.5684, 88.16391
292.0505, 87.21404
292.5326, 86.32947
293.0147, 85.68455
293.4968, 85.17004
293.9789, 84.40562
294.4611, 83.36539
294.9432, 82.22197
295.4253, 81.05144
295.9074, 79.90562
296.3895, 79.03264
296.8716, 78.75604
297.3538, 78.76495
297.8359, 78.36889
298.3180, 77.54865
298.8001, 76.68297
299.2822, 76.13690
299.7643, 75.81792
300.2465, 75.48991
300.7286, 75.01662
301.2107, 74.52502
301.6928, 74.18434
302.1749, 73.99284
302.6570, 73.87706
303.1392, 73.80092
303.6213, 73.75985
304.1034, 73.74800
304.5855, 73.76569
305.0676, 73.80952
305.5497, 73.88951
306.0319, 73.99856
306.5140, 74.10382
306.9961, 74.13886
307.4782, 74.17246
307.9603, 74.31742
308.4424, 74.69782
308.9246, 75.00465
309.4067, 74.94029
309.8888, 74.59733
310.3709, 74.23800
310.8530, 73.82996
311.3351, 73.56549
311.8173, 73.68519
312.2994, 74.37186
312.7815, 74.99492
313.2636, 75.02455
313.7457, 74.73944
314.2278, 74.64046
314.7100, 75.08116
315.1921, 75.67362
315.6742, 76.25190
316.1563, 76.82989
316.6384, 77.19075
317.1205, 76.92811
317.6027, 76.47352
318.0848, 76.37566
318.5669, 77.24597
319.0490, 78.11227
319.5311, 78.52632
320.0132, 78.44765
320.4954, 78.44312
320.9775, 78.75270
321.4596, 79.16423
321.9417, 79.49346
322.4238, 79.38750
322.9059, 79.52238
323.3881, 80.13850
323.8702, 81.19653
324.3523, 82.25471
324.8344, 83.65517
325.3165, 84.77171
325.7986, 85.24928
326.2808, 83.77821
326.7629, 83.17879
327.2450, 83.92943
327.7271, 85.76507
328.2092, 87.64063
328.6913, 89.81754
329.1735, 91.79147
329.6556, 93.33467
330.1377, 93.90864
330.6198, 95.09029
331.1019, 97.24052
331.5840, 99.88435
332.0662, 102.1653
332.5483, 103.9012
333.0304, 105.5337
333.5125, 107.0266
333.9946, 108.2078
334.4767, 110.2987
334.9589, 113.7169
335.4410, 117.6062
335.9231, 120.7880
336.4052, 122.8046
336.8873, 125.2674
337.3694, 128.6926
337.8516, 132.9949
338.3336, 136.9141
338.8158, 140.3419
339.2979, 143.6389
339.7800, 147.1878
340.2621, 150.9890
340.7442, 154.8496
341.2263, 158.6235
341.7085, 162.4361
342.1906, 166.6627
342.6727, 171.4478
343.1548, 175.9768
343.6369, 179.6839
344.1190, 182.5787
344.6012, 185.3065
345.0833, 187.8515
345.5654, 190.3719
346.0475, 193.4285
346.5296, 196.9412
347.0117, 199.8490
347.4939, 201.4326
347.9760, 201.9235
348.4581, 202.1163
348.9402, 202.0813
349.4223, 201.5049
349.9044, 199.9536
350.3866, 197.5396
350.8687, 194.6471
351.3508, 191.3429
351.8329, 187.6671
352.3150, 183.7225
352.7971, 179.4841
353.2793, 174.7963
353.7614, 168.9696
354.2435, 162.6353
354.7256, 156.8140
355.2077, 152.1089
355.6898, 147.6531
356.1720, 142.4542
356.6541, 136.7183
357.1362, 131.3677
357.6183, 126.9900
358.1004, 123.1434
358.5826, 119.3640
359.0647, 115.3730
359.5468, 111.9398
360.0289, 109.8630
360.5110, 108.6126
360.9931, 107.1729
361.4753, 104.8531
361.9574, 102.4987
362.4395, 100.5488
362.9216, 99.08627
363.4037, 97.75548
363.8858, 96.49544
364.3680, 95.29736
364.8501, 94.14734
365.3322, 92.71185
365.8143, 91.67958
366.2964, 91.55350
366.7785, 92.29791
367.2607, 92.36090
367.7428, 90.99239
368.2249, 89.30587
368.7070, 87.96705
369.1891, 87.22316
369.6712, 86.51904
370.1534, 85.72398
370.6355, 84.94859
371.1176, 84.58775
371.5997, 85.12987
372.0818, 85.45050
372.5639, 85.01694
373.0461, 83.47395
373.5282, 82.36158
374.0103, 81.91719
374.4924, 81.65714
374.9745, 80.73781
375.4566, 78.82584
375.9388, 77.31136
376.4209, 76.81377
376.9030, 77.22740
377.3851, 76.79591
377.8672, 75.29012
378.3493, 73.65882
378.8315, 72.89108
379.3136, 72.99767
379.7957, 73.08241
380.2778, 73.02610
380.7599, 72.80460
381.2420, 72.29765
381.7242, 71.51390
382.2063, 70.66249
382.6884, 69.80354
383.1705, 68.97854
383.6526, 68.38696
384.1347, 68.07375
384.6169, 67.88425
385.0990, 67.85358
385.5811, 67.84122
386.0632, 67.38907
386.5453, 65.92813
387.0274, 64.06387
387.5096, 62.58345
387.9917, 61.50344
388.4738, 60.63400
388.9559, 60.12716
389.4380, 59.68226
389.9201, 58.87358
390.4023, 57.29970
390.8844, 55.64310
391.3665, 54.33514
391.8486, 53.31326
392.3307, 52.39489
392.8128, 51.51489
393.2950, 50.69125
393.7771, 49.94345
394.2592, 49.32052
394.7413, 48.65363
395.2234, 47.81830
395.7055, 46.92320
396.1877, 46.13670
396.6698, 45.72413
397.1519, 45.20755
397.6340, 44.32482
398.1161, 42.99337
398.5982, 41.99749
399.0804, 41.75159
399.5625, 41.64046
400.0446, 41.21716
400.5267, 40.22501
401.0088, 39.29322
401.4909, 38.48964
401.9731, 37.79037
402.4552, 37.11926
402.9373, 36.49763
403.4194, 35.86876
403.9015, 35.12748
404.3836, 34.11558
404.8658, 33.70165
405.3479, 34.13455
405.8300, 34.83244
406.3121, 34.83927
406.7942, 34.03557
407.2763, 33.37701
407.7585, 33.21566
408.2406, 33.45871
408.7227, 33.66280
409.2048, 33.84832
409.6869, 33.82573
410.1690, 33.16570
410.6512, 32.06448
411.1333, 31.50327
411.6154, 31.80162
412.0975, 32.46991
412.5796, 32.82050
413.0617, 32.89323
413.5439, 32.89629
414.0260, 33.04519
414.5081, 33.16061
414.9902, 32.90803
415.4723, 32.22834
415.9544, 31.56250
416.4366, 31.26473
416.9187, 31.21637
417.4008, 31.23945
417.8829, 31.42797
418.3650, 31.52966
418.8471, 31.27429
419.3293, 30.74177
419.8114, 30.39473
420.2935, 30.60799
420.7756, 30.96455
421.2577, 31.17821
421.7398, 31.13760
422.2220, 31.08652
422.7041, 31.16423
423.1862, 31.25294
423.6683, 31.14284
424.1504, 30.48445
424.6325, 29.94584
425.1147, 29.77293
425.5968, 30.02501
426.0789, 30.07903
426.5610, 29.82759
427.0431, 29.47606
427.5252, 29.17287
428.0074, 28.87166
428.4895, 28.74685
428.9716, 28.91511
429.4537, 29.24092
429.9358, 29.22400
430.4179, 28.73391
430.9001, 28.36069
431.3822, 28.46616
431.8643, 29.05860
432.3464, 29.61319
432.8285, 30.17824
433.3106, 30.54522
433.7928, 30.27447
434.2749, 29.45732
434.7570, 28.87436
435.2391, 28.84702
435.7212, 29.13660
436.2033, 29.34327
436.6855, 29.46302
437.1676, 29.47127
437.6497, 29.28393
438.1318, 28.99310
438.6139, 28.74798
439.0960, 28.58823
439.5782, 28.41698
440.0603, 27.99340
440.5424, 27.51345
441.0245, 27.34763
441.5066, 28.08924
441.9887, 28.82902
442.4709, 28.93380
442.9530, 28.41250
443.4351, 27.99221
443.9172, 28.03701
444.3993, 28.23731
444.8814, 28.37021
445.3636, 28.37530
445.8457, 28.34211
446.3278, 28.30102
446.8099, 28.23015
447.2920, 28.07312
447.7741, 27.76769
448.2563, 27.43993
448.7384, 27.07195
449.2205, 26.61245
449.7026, 26.53366
450.1847, 27.10173
450.6668, 27.71769
451.1490, 27.74209
451.6311, 26.94951
452.1132, 26.44632
452.5953, 26.42704
453.0774, 26.76806
453.5595, 27.27798
454.0417, 28.01076
454.5238, 28.41263
455.0059, 27.81290
455.4880, 26.51363
455.9701, 26.26245
456.4522, 27.24226
456.9344, 28.39893
457.4165, 28.53264
457.8986, 27.92445
458.3807, 27.34241
458.8628, 26.97841
459.3449, 26.80533
459.8271, 26.95812
460.3092, 27.33167
460.7913, 27.47944
461.2734, 26.71665
461.7555, 25.87122
462.2376, 25.74640
462.7198, 26.61798
463.2019, 27.43127
463.6840, 27.62941
464.1661, 27.51176
464.6482, 27.44052
465.1303, 27.76322
465.6125, 27.87752
466.0946, 27.47110
466.5767, 26.61493
467.0588, 26.01334
467.5409, 25.64163
468.0230, 25.60290
468.5052, 26.04231
468.9873, 27.42677
469.4694, 28.08327
469.9515, 27.67306
470.4336, 26.83037
470.9157, 26.48827
471.3979, 26.83177
471.8800, 27.04104
472.3621, 26.85385
472.8442, 26.37362
473.3263, 26.09598
473.8084, 26.03936
474.2906, 26.04119
474.7727, 25.98220
475.2548, 25.87922
475.7369, 25.77934
476.2190, 25.65603
476.7011, 25.66167
477.1833, 26.21378
477.6654, 27.06930
478.1475, 27.55815
478.6296, 27.15428
479.1117, 26.42203
479.5938, 25.83632
480.0760, 25.40034
480.5581, 25.14937
481.0402, 25.17262
481.5223, 25.34242
482.0044, 25.59881
482.4865, 26.02460
482.9687, 26.27452
483.4508, 26.05660
483.9329, 25.63782
484.4150, 25.40161
484.8971, 25.64203
485.3792, 25.83081
485.8614, 25.78756
486.3435, 25.53634
486.8256, 25.44560
487.3077, 25.58891
487.7898, 25.80644
488.2719, 26.04049
488.7541, 26.34031
489.2362, 26.47612
489.7183, 26.41089
490.2004, 26.22855
490.6825, 26.03003
491.1646, 25.80869
491.6468, 25.63761
492.1289, 25.56507
492.6110, 25.54286
493.0931, 25.32277
493.5752, 24.91012
494.0573, 24.72173
494.5395, 25.48183
495.0216, 26.60986
495.5037, 26.72219
495.9858, 25.49069
496.4679, 24.18783
496.9500, 24.08749
497.4322, 24.68925
497.9143, 25.16604
498.3964, 25.04546
498.8785, 24.84074
499.3606, 24.84084
499.8427, 25.00830
500.3249, 25.16260
500.8070, 25.29899
501.2891, 25.36241
501.7712, 25.29462
502.2533, 25.00524
502.7354, 24.82903
503.2176, 24.90160
503.6997, 25.04242
504.1818, 25.05374
504.6639, 24.77581
505.1460, 24.68233
505.6281, 24.94944
506.1103, 25.43585
506.5924, 25.54099
507.0745, 25.16702
507.5566, 24.75615
508.0387, 24.48436
508.5208, 24.35449
509.0030, 24.50573
509.4851, 24.99035
509.9672, 25.46036
510.4493, 25.53036
510.9314, 25.27551
511.4135, 24.91680
511.8957, 24.42507
512.3778, 24.00772
512.8599, 23.95922
513.3420, 24.19541
513.8242, 24.46870
514.3063, 24.65654
514.7884, 24.83182
515.2705, 25.10044
515.7526, 25.46973
516.2347, 25.68925
516.7169, 25.63871
517.1990, 25.41055
517.6811, 25.06325
518.1632, 24.28980
518.6453, 23.82886
519.1274, 23.90182
519.6096, 24.30779
520.0917, 24.70194
520.5738, 25.15523
521.0559, 25.47894
521.5380, 25.62932
522.0201, 25.60781
522.5023, 25.37743
522.9844, 24.83394
523.4665, 24.37718
523.9486, 24.41022
524.4307, 24.89798
524.9128, 25.03544
525.3950, 24.67926
525.8771, 24.24612
526.3592, 24.37863
526.8413, 24.92583
527.3234, 25.33808
527.8055, 25.32592
528.2877, 25.16097
528.7698, 25.12001
529.2519, 25.19158
529.7340, 25.32514
530.2161, 25.59777
530.6982, 25.85007
531.1804, 25.98502
531.6625, 25.99552
532.1446, 25.84135
532.6267, 25.23520
533.1088, 24.59314
533.5909, 24.30792
534.0731, 24.90844
534.5552, 25.26695
535.0373, 25.13568
535.5194, 24.73536
536.0015, 24.62809
536.4836, 24.92112
536.9658, 25.30180
537.4479, 25.74606
537.9300, 26.23495
538.4121, 26.30407
538.8942, 25.89207
539.3763, 25.30970
539.8585, 24.68265
540.3406, 24.06680
540.8227, 23.84156
541.3048, 24.11935
541.7869, 24.55181
542.2690, 24.71677
542.7512, 24.69532
543.2333, 24.69143
543.7154, 24.84351
544.1975, 25.00263
544.6796, 25.04923
545.1617, 24.99765
545.6439, 24.90817
546.1260, 24.70984
546.6081, 24.55759
547.0902, 24.59334
547.5723, 24.91917
548.0544, 25.06021
548.5366, 24.58100
549.0187, 24.10256
549.5008, 24.21542
549.9829, 25.56415
550.4650, 26.30635
550.9471, 26.08951
551.4293, 25.28675
551.9114, 24.70533
552.3935, 24.33043
552.8756, 24.27069
553.3577, 24.76939
553.8398, 25.61646
554.3220, 25.68561
554.8041, 24.94955
555.2862, 24.24421
555.7683, 24.34273
556.2504, 24.91437
556.7325, 25.32548
557.2147, 25.49943
557.6968, 25.47258
558.1789, 25.09484
558.6610, 24.57874
559.1431, 24.24156
559.6252, 24.36253
560.1074, 24.51284
560.5895, 24.45630
561.0716, 24.28186
561.5537, 24.28761
562.0358, 24.80751
562.5179, 25.25076
563.0001, 25.37011
563.4822, 25.12625
563.9643, 24.98585
564.4464, 24.97926
564.9285, 25.03373
565.4106, 25.10967
565.8928, 25.21646
566.3749, 25.28554
566.8570, 25.31279
567.3391, 25.30027
567.8212, 25.22328
568.3033, 25.09451
568.7855, 25.01825
569.2676, 25.06921
569.7497, 25.15083
570.2318, 25.02495
570.7139, 24.76853
571.1960, 24.70840
571.6782, 25.55450
572.1603, 26.32850
572.6424, 25.94688
573.1245, 24.21896
573.6066, 23.01426
574.0887, 23.56204
574.5709, 24.60383
575.0530, 25.15573
575.5351, 24.71347
576.0172, 24.31539
576.4993, 23.83323
576.9814, 23.48320
577.4636, 23.70999
577.9457, 24.83526
578.4278, 25.67734
578.9099, 25.90625
579.3920, 25.64954
579.8741, 25.31165
580.3563, 24.88314
580.8384, 24.52340
581.3205, 24.28788
581.8026, 24.19515
582.2847, 24.37228
582.7668, 24.82744
583.2490, 25.28602
583.7311, 25.53865
584.2132, 25.64869
584.6953, 25.68192
585.1774, 25.60522
