##NAMES=Renierite
##RRUFFID=R050428
##IDEAL CHEMISTRY=(Cu^1+^,Cu^2+^Zn^2+^)_11_(Fe^2+^,Fe^3+^)_4_(Ge^4+^,As^5+^)_2_S^2-^_16_
##LOCALITY=Tsumeb mine, Tsumeb, Otavi District, Oshikoto, Namibia
##OWNER=RRUFF
##SOURCE=University of Arizona Mineral Museum
##DESCRIPTION=Reddish bronze metallic massive, associated with siderite.
##STATUS=The identification of this mineral has been confirmed by X-ray diffraction and chemical analysis
##URL=rruff.info/R050428
##MEASURED CHEMISTRY=(Cu_10.73_Zn_0.28_)_Σ=11_Fe_4.00_(Ge_1.35_As_0.65_)_Σ=2_S_16.00_
91.00781, 10.40002
91.48993, 10.54850
91.97205, 10.60819
92.45416, 10.48781
92.93628, 10.28259
93.41840, 10.20249
93.90051, 10.29064
94.38263, 10.49745
94.86475, 10.83033
95.34686, 11.28679
95.82898, 11.62869
96.31110, 11.57283
96.79321, 11.16156
97.27533, 10.83287
97.75745, 10.65584
98.23956, 10.63990
98.72168, 10.90019
99.20380, 11.49761
99.68591, 12.17191
100.1680, 12.64757
100.6501, 12.89681
101.1323, 13.05465
101.6144, 13.08554
102.0965, 12.95468
102.5786, 13.13316
103.0607, 13.68758
103.5428, 14.49295
104.0250, 15.37986
104.5071, 16.39815
104.9892, 17.40164
105.4713, 18.33370
105.9534, 19.19665
106.4355, 19.97689
106.9177, 20.64323
107.3998, 21.22548
107.8819, 21.83980
108.3640, 22.46798
108.8461, 23.13561
109.3282, 23.86480
109.8104, 24.72789
110.2925, 25.55291
110.7746, 26.23196
111.2567, 26.80334
111.7388, 27.59994
112.2209, 28.68844
112.7031, 29.98652
113.1852, 31.45157
113.6673, 33.31121
114.1494, 35.10170
114.6315, 36.60904
115.1136, 37.82697
115.5958, 39.24690
116.0779, 41.44524
116.5600, 43.80290
117.0421, 45.61827
117.5242, 46.14834
118.0063, 46.46772
118.4885, 47.13918
118.9706, 48.24373
119.4527, 49.53302
119.9348, 50.65468
120.4169, 51.86312
120.8990, 53.65073
121.3812, 57.51991
121.8633, 61.48756
122.3454, 63.53846
122.8275, 63.06795
123.3096, 61.46916
123.7917, 59.25354
124.2739, 56.69991
124.7560, 54.83132
125.2381, 54.52062
125.7202, 55.29977
126.2023, 56.40316
126.6844, 57.74177
127.1666, 59.24103
127.6487, 60.92906
128.1308, 62.79103
128.6129, 64.46959
129.0950, 65.61375
129.5771, 66.32925
130.0593, 67.01326
130.5414, 67.87315
131.0235, 68.73454
131.5056, 68.87350
131.9877, 67.95540
132.4698, 66.82648
132.9520, 66.81706
133.4341, 67.86698
133.9162, 69.06743
134.3983, 70.12553
134.8804, 71.06551
135.3625, 72.11303
135.8447, 73.30463
136.3268, 74.52496
136.8089, 75.67631
137.2910, 76.78897
137.7731, 77.71107
138.2552, 78.60486
138.7374, 79.61613
139.2195, 79.27443
139.7016, 77.11503
140.1837, 74.06219
140.6658, 72.04465
141.1479, 71.21914
141.6301, 70.96629
142.1122, 71.08055
142.5943, 71.76879
143.0764, 72.22961
143.5585, 72.30839
144.0406, 72.16068
144.5228, 72.38696
145.0049, 73.30457
145.4870, 74.19529
145.9691, 74.66853
146.4512, 74.65627
146.9333, 74.33987
147.4155, 73.49949
147.8976, 72.23057
148.3797, 71.50941
148.8618, 71.45090
149.3439, 71.84107
149.8260, 72.53811
150.3082, 74.30174
150.7903, 75.53484
151.2724, 75.80786
151.7545, 75.08238
152.2366, 74.92561
152.7188, 76.03758
153.2009, 77.41710
153.6830, 78.24817
154.1651, 78.33939
154.6472, 77.99587
155.1293, 77.08656
155.6115, 75.50771
156.0936, 74.25849
156.5757, 73.53913
157.0578, 73.21403
157.5399, 73.14788
158.0220, 73.69260
158.5042, 74.16463
158.9863, 74.23420
159.4684, 73.77206
159.9505, 73.44283
160.4326, 73.40689
160.9147, 73.63758
161.3969, 74.09557
161.8790, 75.38580
162.3611, 76.45695
162.8432, 76.64938
163.3253, 75.63953
163.8074, 74.49122
164.2896, 73.41114
164.7717, 72.53011
165.2538, 72.11251
165.7359, 72.73980
166.2180, 73.60653
166.7001, 74.04702
167.1823, 73.72281
167.6644, 73.44177
168.1465, 73.75290
168.6286, 74.51933
169.1107, 75.35863
169.5928, 76.30450
170.0750, 77.11452
170.5571, 77.53643
171.0392, 77.43316
171.5213, 77.05849
172.0034, 76.49731
172.4855, 75.79493
172.9677, 75.16496
173.4498, 74.75024
173.9319, 74.48466
174.4140, 74.25080
174.8961, 73.89011
175.3782, 73.69639
175.8604, 74.19540
176.3425, 75.29964
176.8246, 76.25633
177.3067, 76.39780
177.7888, 75.99782
178.2709, 75.61130
178.7531, 75.41039
179.2352, 75.29469
179.7173, 75.10944
180.1994, 74.85665
180.6815, 74.60631
181.1636, 74.44919
181.6458, 74.34988
182.1279, 74.19509
182.6100, 73.80473
183.0921, 73.39567
183.5742, 73.50358
184.0563, 74.14768
184.5385, 74.87654
185.0206, 75.22372
185.5027, 75.25314
185.9848, 75.25945
186.4669, 75.40740
186.9490, 75.60202
187.4312, 75.49009
187.9133, 75.03141
188.3954, 74.54590
188.8775, 74.41140
189.3596, 74.60294
189.8417, 74.89651
190.3239, 75.29574
190.8060, 75.75047
191.2881, 75.95752
191.7702, 75.88366
192.2523, 75.69029
192.7344, 75.57545
193.2166, 75.54018
193.6987, 75.48966
194.1808, 75.29178
194.6629, 74.98508
195.1450, 75.10702
195.6271, 75.78840
196.1093, 76.56551
196.5914, 76.65370
197.0735, 75.99117
197.5556, 75.40477
198.0377, 75.30979
198.5198, 75.70901
199.0020, 75.94980
199.4841, 75.99192
199.9662, 75.94516
200.4483, 75.97363
200.9304, 76.07803
201.4125, 76.24931
201.8947, 76.58366
202.3768, 77.12360
202.8589, 77.24281
203.3410, 76.82706
203.8231, 76.13613
204.3052, 75.61026
204.7874, 75.23202
205.2695, 75.07389
205.7516, 75.26118
206.2337, 75.87825
206.7158, 76.24531
207.1979, 76.28188
207.6801, 76.13934
208.1622, 76.13062
208.6443, 76.28753
209.1264, 76.47842
209.6085, 76.69569
210.0906, 77.00483
210.5728, 77.00320
211.0549, 76.55726
211.5370, 75.89018
212.0191, 75.53929
212.5012, 75.60501
212.9833, 75.73277
213.4655, 75.72534
213.9476, 75.49160
214.4297, 75.48884
214.9118, 75.84231
215.3939, 76.37177
215.8760, 76.59781
216.3581, 76.35904
216.8403, 76.14485
217.3224, 76.21547
217.8045, 76.68982
218.2866, 77.07930
218.7687, 77.35165
219.2508, 77.53863
219.7330, 77.72964
220.2151, 77.96602
220.6972, 78.12549
221.1793, 78.10674
221.6614, 77.76363
222.1435, 77.64087
222.6257, 77.80903
223.1078, 78.18269
223.5899, 78.56182
224.0720, 79.05118
224.5541, 79.37952
225.0362, 79.38642
225.5184, 78.87948
226.0005, 78.52905
226.4826, 78.35725
226.9647, 78.34686
227.4468, 78.46397
227.9289, 78.78796
228.4111, 79.12014
228.8932, 79.38009
229.3753, 79.58215
229.8574, 79.67593
230.3395, 79.62109
230.8216, 79.46726
231.3038, 79.34288
231.7859, 79.23953
232.2680, 79.17840
232.7501, 79.16892
233.2322, 79.21478
233.7143, 79.29974
234.1965, 79.41447
234.6786, 79.56975
235.1607, 79.83519
235.6428, 80.41930
236.1249, 80.80761
236.6070, 80.71159
237.0892, 79.75000
237.5713, 79.14185
238.0534, 78.93306
238.5355, 79.06467
239.0176, 79.43709
239.4997, 80.33138
239.9819, 81.06827
240.4640, 81.30754
240.9461, 80.74919
241.4282, 80.40950
241.9103, 80.33287
242.3924, 80.46122
242.8746, 80.67558
243.3567, 81.06261
243.8388, 81.40571
244.3209, 81.61333
244.8030, 81.63778
245.2851, 81.64716
245.7673, 81.61660
246.2494, 81.58243
246.7315, 81.62638
247.2136, 81.78167
247.6957, 81.96346
248.1778, 82.14291
248.6600, 82.31943
249.1421, 82.50304
249.6242, 82.75153
250.1063, 82.97803
250.5884, 82.98032
251.0705, 82.57800
251.5527, 82.25930
252.0348, 82.25209
252.5169, 82.70773
252.9990, 82.88967
253.4811, 82.60580
253.9632, 82.17372
254.4454, 82.20435
254.9275, 82.97946
255.4096, 83.67799
255.8917, 84.01379
256.3738, 83.91171
256.8560, 83.75819
257.3381, 83.46964
257.8202, 83.19865
258.3023, 83.20234
258.7844, 83.60477
259.2665, 84.01512
259.7487, 84.34409
260.2308, 84.60349
260.7129, 84.63902
261.1950, 84.28757
261.6771, 83.88870
262.1592, 83.97034
262.6414, 84.76768
263.1235, 85.44409
263.6056, 85.71345
264.0877, 85.54245
264.5698, 85.51799
265.0519, 85.71472
265.5341, 85.95593
266.0162, 85.99141
266.4983, 85.70365
266.9804, 85.58251
267.4625, 85.81809
267.9446, 86.40034
268.4268, 86.76413
268.9089, 86.83877
269.3910, 86.80795
269.8731, 86.87978
270.3552, 87.10474
270.8373, 87.21278
271.3195, 87.07980
271.8016, 86.74670
272.2837, 86.64596
272.7658, 86.80463
273.2479, 87.13367
273.7300, 87.67167
274.2122, 88.51144
274.6943, 88.94118
275.1764, 88.65491
275.6585, 87.84547
276.1406, 87.57780
276.6227, 87.96688
277.1049, 88.51973
277.5870, 88.86427
278.0691, 88.99104
278.5512, 89.01950
279.0333, 88.95065
279.5154, 88.80606
279.9976, 88.61923
280.4797, 88.36407
280.9618, 88.19920
281.4439, 88.26511
281.9260, 88.56371
282.4081, 88.88492
282.8903, 89.23750
283.3724, 89.55804
283.8545, 89.65116
284.3366, 89.49596
284.8187, 89.33362
285.3008, 89.37423
285.7830, 89.59031
286.2651, 89.61610
286.7472, 89.35593
287.2293, 89.01406
287.7114, 88.98743
288.1935, 89.27351
288.6757, 89.61445
289.1578, 89.90136
289.6399, 90.12996
290.1220, 90.25170
290.6041, 90.24946
291.0862, 90.18996
291.5684, 90.17009
292.0505, 90.18376
292.5326, 90.17673
293.0147, 90.05014
293.4968, 89.87965
293.9789, 89.96719
294.4611, 90.36722
294.9432, 90.73836
295.4253, 90.57516
295.9074, 89.99794
296.3895, 89.52996
296.8716, 89.50700
297.3538, 89.71308
297.8359, 89.63984
298.3180, 89.27121
298.8001, 88.96866
299.2822, 89.16109
299.7643, 89.69417
300.2465, 90.16375
300.7286, 90.42444
301.2107, 90.54650
301.6928, 90.62160
302.1749, 90.64818
302.6570, 90.60918
303.1392, 90.38251
303.6213, 90.09658
304.1034, 89.98705
304.5855, 90.19930
305.0676, 90.52049
305.5497, 90.79961
306.0319, 91.02271
306.5140, 91.13087
306.9961, 90.97811
307.4782, 90.72545
307.9603, 90.56052
308.4424, 90.53535
308.9246, 90.59083
309.4067, 90.68855
309.8888, 90.82930
310.3709, 91.02013
310.8530, 91.31223
311.3351, 91.62745
311.8173, 91.91315
312.2994, 92.18310
312.7815, 92.36378
313.2636, 92.37090
313.7457, 92.26207
314.2278, 92.13924
314.7100, 91.98988
315.1921, 91.88297
315.6742, 91.87231
316.1563, 91.97545
316.6384, 92.10159
317.1205, 92.19772
317.6027, 92.29768
318.0848, 92.44378
318.5669, 92.86156
319.0490, 93.13851
319.5311, 92.99344
320.0132, 92.39354
320.4954, 91.98355
320.9775, 92.06821
321.4596, 92.36181
321.9417, 92.62228
322.4238, 92.78133
322.9059, 92.92171
323.3881, 93.06606
323.8702, 93.21116
324.3523, 93.32912
324.8344, 93.45752
325.3165, 93.53122
325.7986, 93.51344
326.2808, 93.23096
326.7629, 93.05942
327.2450, 93.13616
327.7271, 93.37215
328.2092, 93.41128
328.6913, 92.86116
329.1735, 92.45830
329.6556, 92.51910
330.1377, 93.41602
330.6198, 94.06887
331.1019, 94.41282
331.5840, 94.52921
332.0662, 94.55975
332.5483, 94.38713
333.0304, 94.29818
333.5125, 94.43375
333.9946, 94.88268
334.4767, 95.07880
334.9589, 94.93223
335.4410, 94.61855
335.9231, 94.32412
336.4052, 93.99635
336.8873, 93.84109
337.3694, 93.95681
337.8516, 94.32471
338.3336, 94.62777
338.8158, 94.87196
339.2979, 95.04366
339.7800, 95.09155
340.2621, 94.98282
340.7442, 94.99477
341.2263, 95.20644
341.7085, 95.55710
342.1906, 95.83518
342.6727, 96.03614
343.1548, 96.20961
343.6369, 96.40379
344.1190, 96.61208
344.6012, 96.75353
345.0833, 96.80446
345.5654, 96.80893
346.0475, 96.81907
346.5296, 96.83706
347.0117, 96.91525
347.4939, 97.09270
347.9760, 97.35113
348.4581, 97.67592
348.9402, 98.08724
349.4223, 98.44030
349.9044, 98.59595
350.3866, 98.56662
350.8687, 98.39629
351.3508, 97.88120
351.8329, 97.33305
352.3150, 97.37149
352.7971, 97.97808
353.2793, 98.51067
353.7614, 98.31784
354.2435, 97.75120
354.7256, 97.38638
355.2077, 97.47205
355.6898, 97.71401
356.1720, 97.84782
356.6541, 97.91090
357.1362, 98.06100
357.6183, 98.70113
358.1004, 99.30529
358.5826, 99.32036
359.0647, 98.41225
359.5468, 97.50608
360.0289, 97.06921
360.5110, 96.98559
360.9931, 97.03468
361.4753, 97.38189
361.9574, 97.63955
362.4395, 97.49960
362.9216, 96.83369
363.4037, 96.43481
363.8858, 96.90744
364.3680, 97.62271
364.8501, 97.91953
365.3322, 97.18526
365.8143, 96.50413
366.2964, 96.11897
366.7785, 96.03293
367.2607, 96.08455
367.7428, 96.46097
368.2249, 96.83682
368.7070, 97.01785
369.1891, 97.07408
369.6712, 96.82875
370.1534, 95.99703
370.6355, 94.84829
371.1176, 94.24474
371.5997, 94.49669
372.0818, 94.89266
372.5639, 95.17098
373.0461, 95.31882
373.5282, 95.37605
374.0103, 95.31285
374.4924, 95.18489
374.9745, 95.05771
375.4566, 94.89893
375.9388, 94.84898
376.4209, 95.01250
376.9030, 95.36642
377.3851, 95.45628
377.8672, 95.22598
378.3493, 94.92377
378.8315, 94.82656
379.3136, 94.94097
379.7957, 94.92603
380.2778, 94.68701
380.7599, 94.31547
381.2420, 93.98581
381.7242, 93.70316
382.2063, 93.52215
382.6884, 93.56660
383.1705, 93.75426
383.6526, 93.76975
384.1347, 93.54647
384.6169, 93.28932
385.0990, 93.31437
385.5811, 93.53568
386.0632, 93.67718
386.5453, 93.52833
387.0274, 93.26204
387.5096, 93.10166
387.9917, 93.05101
388.4738, 93.05217
388.9559, 93.02843
389.4380, 93.04099
389.9201, 93.18056
390.4023, 93.58057
390.8844, 93.99647
391.3665, 94.30412
391.8486, 94.50427
392.3307, 94.58578
392.8128, 94.60090
393.2950, 94.45696
393.7771, 93.98992
394.2592, 92.90882
394.7413, 92.21866
395.2234, 92.65185
395.7055, 93.59997
396.1877, 94.12305
396.6698, 93.58424
397.1519, 92.99971
397.6340, 92.66736
398.1161, 92.62181
398.5982, 92.63209
399.0804, 92.75295
399.5625, 92.88466
400.0446, 92.95500
400.5267, 92.92182
401.0088, 92.89501
401.4909, 92.89982
401.9731, 92.92174
402.4552, 92.89345
402.9373, 92.78692
403.4194, 92.67754
403.9015, 92.60593
404.3836, 92.58813
404.8658, 92.53231
405.3479, 92.41117
405.8300, 92.28716
406.3121, 92.27139
406.7942, 92.38159
407.2763, 92.46838
407.7585, 92.50069
408.2406, 92.46946
408.7227, 92.27070
409.2048, 91.87629
409.6869, 91.54449
410.1690, 91.59605
410.6512, 91.94221
411.1333, 92.14896
411.6154, 92.11361
412.0975, 91.94408
412.5796, 91.72680
413.0617, 91.49104
413.5439, 91.37373
414.0260, 91.67140
414.5081, 92.05162
414.9902, 91.94817
415.4723, 91.27637
415.9544, 90.61186
416.4366, 90.45747
416.9187, 90.60806
417.4008, 90.75558
417.8829, 90.75481
418.3650, 90.74282
418.8471, 90.80837
419.3293, 90.93870
419.8114, 91.06044
420.2935, 91.18885
420.7756, 91.26704
421.2577, 91.24202
421.7398, 91.03017
422.2220, 90.86388
422.7041, 90.77596
423.1862, 90.76743
423.6683, 90.83793
424.1504, 91.30367
424.6325, 91.53198
425.1147, 91.24448
425.5968, 90.34731
426.0789, 89.76293
426.5610, 89.62509
427.0431, 89.67761
427.5252, 89.71133
428.0074, 89.66305
428.4895, 89.75776
428.9716, 90.09465
429.4537, 90.56290
429.9358, 90.80410
430.4179, 90.78567
430.9001, 90.65342
431.3822, 90.44507
431.8643, 90.15865
432.3464, 89.93128
432.8285, 89.77225
433.3106, 89.64367
433.7928, 89.44660
434.2749, 89.20544
434.7570, 89.14942
435.2391, 89.47846
435.7212, 89.93377
436.2033, 89.98624
436.6855, 89.66269
437.1676, 89.23207
437.6497, 88.66115
438.1318, 88.17282
438.6139, 88.21876
439.0960, 89.02165
439.5782, 89.80419
440.0603, 89.81455
440.5424, 89.35817
441.0245, 89.00793
441.5066, 89.10973
441.9887, 89.30246
442.4709, 89.41556
442.9530, 89.43950
443.4351, 89.35423
443.9172, 88.94307
444.3993, 88.54222
444.8814, 88.41016
445.3636, 88.91077
445.8457, 89.24511
446.3278, 89.24560
446.8099, 89.00296
447.2920, 88.74023
447.7741, 88.38145
448.2563, 88.09551
448.7384, 87.95224
449.2205, 87.97037
449.7026, 87.97907
450.1847, 87.99971
450.6668, 87.98668
451.1490, 87.87985
451.6311, 87.64194
452.1132, 87.45586
452.5953, 87.34624
453.0774, 87.30573
453.5595, 87.34492
454.0417, 87.47913
454.5238, 87.54610
455.0059, 87.33047
455.4880, 86.93274
455.9701, 86.96550
456.4522, 87.50512
456.9344, 88.08033
457.4165, 88.13365
457.8986, 87.80978
458.3807, 87.52024
458.8628, 87.46856
459.3449, 87.42573
459.8271, 86.98571
460.3092, 86.27036
460.7913, 85.79290
461.2734, 86.11098
461.7555, 86.64198
462.2376, 86.87158
462.7198, 86.66708
463.2019, 86.44408
463.6840, 86.37153
464.1661, 86.39645
464.6482, 86.45477
465.1303, 86.54401
465.6125, 86.64798
466.0946, 86.87144
466.5767, 87.17201
467.0588, 87.14429
467.5409, 86.33083
468.0230, 85.56108
468.5052, 85.20861
468.9873, 85.43922
469.4694, 85.68835
469.9515, 85.99162
470.4336, 86.28349
470.9157, 86.47714
471.3979, 86.56699
471.8800, 86.57176
472.3621, 86.47356
472.8442, 86.29710
473.3263, 86.15850
473.8084, 86.06297
474.2906, 85.96378
474.7727, 85.72137
475.2548, 85.41402
475.7369, 85.54046
476.2190, 86.26758
476.7011, 86.96200
477.1833, 86.61756
477.6654, 85.59891
478.1475, 84.91129
478.6296, 85.30950
479.1117, 86.00599
479.5938, 86.16492
480.0760, 85.85965
480.5581, 85.57850
481.0402, 85.75613
481.5223, 85.98145
482.0044, 85.86349
482.4865, 85.14719
482.9687, 84.59711
483.4508, 84.63430
483.9329, 84.95024
484.4150, 85.10423
484.8971, 84.89300
485.3792, 84.64465
485.8614, 84.38238
486.3435, 84.11486
486.8256, 83.99075
487.3077, 84.09034
487.7898, 84.23984
488.2719, 84.37374
488.7541, 84.54324
489.2362, 84.49784
489.7183, 84.14371
490.2004, 83.69657
490.6825, 83.50506
491.1646, 83.59756
491.6468, 83.64350
492.1289, 83.50827
492.6110, 83.27718
493.0931, 83.21511
493.5752, 83.31985
494.0573, 83.43449
494.5395, 83.45844
495.0216, 83.40928
495.5037, 83.30805
495.9858, 83.14883
496.4679, 82.99648
496.9500, 82.89058
497.4322, 82.83670
497.9143, 82.84612
498.3964, 82.98131
498.8785, 83.12953
499.3606, 83.26651
499.8427, 83.37666
500.3249, 83.37961
500.8070, 83.10836
501.2891, 82.83348
501.7712, 82.71085
502.2533, 82.82226
502.7354, 82.89651
503.2176, 82.91677
503.6997, 82.88773
504.1818, 82.80909
504.6639, 82.65246
505.1460, 82.48690
505.6281, 82.27300
506.1103, 82.06172
506.5924, 82.09820
507.0745, 82.45031
507.5566, 82.80688
508.0387, 83.04336
508.5208, 83.15752
509.0030, 83.06238
509.4851, 82.72713
509.9672, 82.35800
510.4493, 82.23794
510.9314, 82.27827
511.4135, 82.14330
511.8957, 81.64422
512.3778, 81.12573
512.8599, 81.05725
513.3420, 81.31480
513.8242, 81.53284
514.3063, 81.48238
514.7884, 81.35029
515.2705, 81.24727
515.7526, 81.18106
516.2347, 81.21384
516.7169, 81.54380
517.1990, 81.87951
517.6811, 81.99171
518.1632, 81.54961
518.6453, 81.27956
519.1274, 81.35528
519.6096, 81.62854
520.0917, 81.84327
520.5738, 82.04299
521.0559, 82.11142
521.5380, 82.01854
522.0201, 81.76637
522.5023, 81.30853
522.9844, 80.51026
523.4665, 79.88954
523.9486, 79.92392
524.4307, 80.57700
524.9128, 81.11943
525.3950, 81.49986
525.8771, 81.72410
526.3592, 81.74418
526.8413, 81.59886
527.3234, 81.42863
527.8055, 81.27682
528.2877, 81.13348
528.7698, 80.93417
529.2519, 80.71471
529.7340, 80.62070
530.2161, 80.92159
530.6982, 81.25314
531.1804, 81.32563
531.6625, 81.06712
532.1446, 80.77263
532.6267, 80.34483
533.1088, 80.02354
533.5909, 80.03612
534.0731, 81.01100
534.5552, 81.57264
535.0373, 81.43233
535.5194, 80.84830
536.0015, 80.48250
536.4836, 80.49504
536.9658, 80.39087
537.4479, 79.87402
537.9300, 78.98560
538.4121, 78.72099
538.8942, 79.17538
539.3763, 79.86189
539.8585, 80.50704
540.3406, 81.07030
540.8227, 81.27070
541.3048, 81.01587
541.7869, 80.60545
542.2690, 80.31920
542.7512, 80.16660
543.2333, 80.17558
543.7154, 80.60021
544.1975, 80.98869
544.6796, 80.85210
545.1617, 80.31436
545.6439, 79.92525
546.1260, 80.12312
546.6081, 80.40210
547.0902, 80.46303
547.5723, 80.22957
548.0544, 79.96257
548.5366, 79.61667
549.0187, 79.29810
549.5008, 79.08034
549.9829, 78.83288
550.4650, 78.96443
550.9471, 79.74768
551.4293, 80.80093
551.9114, 81.22380
552.3935, 80.93766
552.8756, 80.38036
553.3577, 79.52195
553.8398, 78.52789
554.3220, 78.28509
554.8041, 78.81507
555.2862, 79.46028
555.7683, 79.67208
556.2504, 79.63856
556.7325, 79.82210
557.2147, 80.35481
557.6968, 80.70650
558.1789, 80.17577
558.6610, 79.23738
559.1431, 78.59758
559.6252, 78.72317
560.1074, 78.97329
560.5895, 79.13144
561.0716, 79.21925
561.5537, 79.30849
562.0358, 79.53396
562.5179, 79.64430
563.0001, 79.47807
563.4822, 78.98613
563.9643, 78.79276
564.4464, 79.12093
564.9285, 79.43444
565.4106, 79.23616
565.8928, 78.39075
566.3749, 77.96194
566.8570, 78.10238
567.3391, 78.51577
567.8212, 78.78965
568.3033, 78.93791
568.7855, 79.04511
569.2676, 79.15118
569.7497, 79.22234
570.2318, 79.21138
570.7139, 79.12222
571.1960, 78.97164
571.6782, 78.54355
572.1603, 78.21105
572.6424, 78.38318
573.1245, 79.13087
573.6066, 79.76665
574.0887, 80.09163
574.5709, 80.16561
575.0530, 80.03637
575.5351, 79.48467
576.0172, 79.04440
576.4993, 78.63686
576.9814, 78.38936
577.4636, 78.59469
577.9457, 79.53159
578.4278, 80.16917
578.9099, 80.18864
579.3920, 79.74356
579.8741, 79.35149
580.3563, 79.00916
580.8384, 78.79256
581.3205, 78.78880
581.8026, 78.94346
582.2847, 79.15774
582.7668, 79.43246
583.2490, 79.58231
583.7311, 79.31741
584.2132, 78.88622
