##NAMES=Retgersite
##RRUFFID=R070665
##IDEAL CHEMISTRY=Ni^2+^S^6+^O_4_&#183;6H_2_O
##LOCALITY=Lovelock mine, Bolivia, Cottonwood Canyon, Table Mountain District, Churchill County, Nevada, USA
##OWNER=RRUFF
##SOURCE=Michael Scott
##DESCRIPTION=Blue-green crystalline coating on rock
##STATUS=The identification of this mineral has been confirmed by single-crystal X-ray diffraction.
##URL=rruff.info/R070665
146.2884, 6160.682
146.7705, 6152.896
147.2527, 6148.863
147.7348, 6144.457
148.2169, 6138.999
148.6990, 6133.698
149.1811, 6129.720
149.6632, 6127.952
150.1454, 6126.470
150.6275, 6124.677
151.1096, 6121.917
151.5917, 6120.854
152.0738, 6118.144
152.5559, 6117.585
153.0381, 6124.922
153.5202, 6156.037
154.0023, 6181.853
154.4844, 6191.173
154.9665, 6167.043
155.4486, 6152.789
155.9308, 6164.115
156.4129, 6190.927
156.8950, 6202.351
157.3771, 6175.741
157.8592, 6143.018
158.3413, 6122.554
158.8235, 6134.007
159.3056, 6142.242
159.7877, 6131.886
160.2698, 6105.086
160.7519, 6091.340
161.2340, 6110.896
161.7162, 6143.435
162.1983, 6169.095
162.6804, 6184.529
163.1625, 6189.556
163.6446, 6180.575
164.1267, 6155.528
164.6089, 6131.145
165.0910, 6110.221
165.5731, 6095.259
166.0552, 6090.359
166.5373, 6112.126
167.0194, 6135.617
167.5016, 6139.705
167.9837, 6111.994
168.4658, 6087.771
168.9479, 6092.136
169.4300, 6118.397
169.9121, 6147.158
170.3943, 6179.690
170.8764, 6204.468
171.3585, 6206.257
171.8406, 6160.146
172.3227, 6114.087
172.8048, 6116.764
173.2870, 6162.701
173.7691, 6207.855
174.2512, 6220.618
174.7333, 6212.003
175.2154, 6199.886
175.6975, 6181.434
176.1797, 6167.352
176.6618, 6174.390
177.1439, 6203.745
177.6260, 6235.231
178.1081, 6249.104
178.5902, 6250.460
179.0724, 6253.048
179.5545, 6263.266
180.0366, 6278.884
180.5187, 6294.039
181.0008, 6306.634
181.4829, 6325.699
181.9651, 6374.275
182.4472, 6445.602
182.9293, 6501.011
183.4114, 6505.375
183.8935, 6475.734
184.3756, 6457.999
184.8578, 6459.473
185.3399, 6474.855
185.8220, 6498.321
186.3041, 6529.931
186.7862, 6564.298
187.2683, 6601.251
187.7504, 6638.950
188.2326, 6669.017
188.7147, 6684.342
189.1968, 6693.236
189.6789, 6714.933
190.1610, 6749.300
190.6431, 6794.980
191.1253, 6857.610
191.6074, 6934.821
192.0895, 7002.326
192.5716, 7047.060
193.0537, 7074.108
193.5358, 7106.831
194.0180, 7145.708
194.5001, 7188.059
194.9822, 7229.652
195.4643, 7270.799
195.9464, 7315.800
196.4285, 7367.272
196.9107, 7424.524
197.3928, 7487.228
197.8749, 7558.566
198.3570, 7629.649
198.8391, 7677.430
199.3212, 7696.940
199.8034, 7727.648
200.2855, 7800.526
200.7676, 7917.925
201.2497, 8014.680
201.7318, 8081.598
202.2139, 8128.140
202.6961, 8182.286
203.1782, 8247.843
203.6603, 8305.803
204.1424, 8337.811
204.6245, 8338.523
205.1066, 8350.813
205.5888, 8385.289
206.0709, 8435.639
206.5530, 8471.725
207.0351, 8493.658
207.5172, 8501.957
207.9993, 8498.113
208.4815, 8483.591
208.9636, 8451.303
209.4457, 8397.095
209.9278, 8321.952
210.4099, 8245.107
210.8920, 8169.420
211.3742, 8087.327
211.8563, 7983.094
212.3384, 7842.983
212.8205, 7721.172
213.3026, 7634.002
213.7847, 7584.868
214.2669, 7538.438
214.7490, 7495.252
215.2311, 7454.057
215.7132, 7413.704
216.1953, 7376.610
216.6774, 7335.272
217.1596, 7281.208
217.6417, 7203.563
218.1238, 7163.515
218.6059, 7177.176
219.0880, 7219.011
219.5701, 7233.177
220.0523, 7204.538
220.5344, 7176.381
221.0165, 7169.773
221.4986, 7194.980
221.9807, 7212.340
222.4628, 7215.756
222.9450, 7211.531
223.4271, 7222.234
223.9092, 7255.513
224.3913, 7291.356
224.8734, 7315.982
225.3555, 7318.495
225.8377, 7335.882
226.3198, 7375.075
226.8019, 7432.087
227.2840, 7486.870
227.7661, 7541.586
228.2482, 7590.622
228.7303, 7628.204
229.2125, 7647.179
229.6946, 7669.936
230.1767, 7702.260
230.6588, 7743.461
231.1409, 7771.023
231.6230, 7771.595
232.1052, 7773.214
232.5873, 7804.056
233.0694, 7885.524
233.5515, 7953.782
234.0336, 7996.994
234.5157, 8014.627
234.9979, 8016.247
235.4800, 7985.833
235.9621, 7953.413
236.4442, 7954.618
236.9263, 8009.462
237.4084, 8062.658
237.8906, 8101.799
238.3727, 8124.493
238.8548, 8148.514
239.3369, 8179.825
239.8190, 8208.326
240.3011, 8217.677
240.7833, 8191.033
241.2654, 8173.002
241.7475, 8180.626
242.2296, 8225.733
242.7117, 8249.978
243.1938, 8246.511
243.6760, 8225.638
244.1581, 8204.030
244.6402, 8176.273
245.1223, 8156.023
245.6044, 8151.327
246.0865, 8173.474
246.5687, 8176.819
247.0508, 8149.859
247.5329, 8108.135
248.0150, 8088.060
248.4971, 8104.079
248.9792, 8119.849
249.4614, 8119.166
249.9435, 8094.328
250.4256, 8070.823
250.9077, 8045.098
251.3898, 8021.639
251.8719, 8015.574
252.3541, 8038.730
252.8362, 8061.912
253.3183, 8070.574
253.8004, 8060.019
254.2825, 8046.719
254.7646, 8029.698
255.2468, 8010.856
255.7289, 7998.152
256.2110, 7996.223
256.6931, 7993.758
257.1752, 7984.010
257.6573, 7964.955
258.1395, 7943.851
258.6216, 7920.064
259.1037, 7894.305
259.5858, 7871.939
260.0679, 7856.063
260.5500, 7838.045
261.0322, 7809.916
261.5143, 7764.603
261.9964, 7729.097
262.4785, 7709.116
262.9606, 7701.931
263.4427, 7685.591
263.9249, 7647.598
264.4070, 7574.603
264.8891, 7577.263
265.3712, 7555.777
265.8533, 7511.438
266.3354, 7375.820
266.8176, 7358.062
267.2997, 7293.076
267.7818, 7226.155
268.2639, 7225.000
268.7460, 7102.656
269.2281, 7100.458
269.7103, 7050.288
270.1924, 7022.077
270.6745, 6946.340
271.1566, 6885.283
271.6387, 6871.768
272.1208, 6831.930
272.6030, 6750.708
273.0851, 6723.893
273.5672, 6599.890
274.0493, 6561.173
274.5314, 6559.250
275.0135, 6480.431
275.4957, 6506.938
275.9778, 6556.202
276.4599, 6552.413
276.9420, 6486.255
277.4241, 6427.260
277.9063, 6393.405
278.3884, 6382.360
278.8705, 6378.910
279.3526, 6384.204
279.8347, 6393.812
280.3168, 6404.725
280.7990, 6417.445
281.2811, 6426.037
281.7632, 6429.348
282.2453, 6427.312
282.7274, 6416.395
283.2095, 6394.324
283.6917, 6371.591
284.1738, 6363.029
284.6559, 6368.887
285.1380, 6370.201
285.6201, 6356.880
286.1022, 6333.192
286.5844, 6274.600
287.0665, 6329.900
287.5486, 6360.669
288.0307, 6368.205
288.5128, 6284.073
288.9949, 6317.430
289.4771, 6303.164
289.9592, 6286.577
290.4413, 6335.371
290.9234, 6262.593
291.4055, 6309.575
291.8876, 6308.213
292.3697, 6328.417
292.8518, 6300.706
293.3340, 6287.289
293.8161, 6321.035
294.2982, 6328.070
294.7803, 6293.349
295.2624, 6270.181
295.7445, 6275.073
296.2267, 6283.490
296.7088, 6282.604
297.1909, 6258.303
297.6730, 6222.717
298.1551, 6204.518
298.6372, 6204.471
299.1194, 6209.671
299.6015, 6207.029
300.0836, 6199.146
300.5657, 6193.284
301.0478, 6181.252
301.5299, 6130.070
302.0121, 6187.276
302.4942, 6219.849
302.9763, 6229.087
303.4584, 6146.556
303.9405, 6181.412
304.4226, 6168.543
304.9048, 6153.252
305.3869, 6203.239
305.8690, 6131.554
306.3511, 6179.526
306.8332, 6179.054
307.3153, 6200.044
307.7975, 6173.018
308.2796, 6160.187
308.7617, 6194.414
309.2438, 6201.830
309.7259, 6164.729
310.2080, 6180.174
310.6902, 6190.428
311.1723, 6188.883
311.6544, 6179.527
312.1365, 6167.730
312.6186, 6144.533
313.1007, 6127.993
313.5829, 6137.019
314.0650, 6172.126
314.5471, 6199.560
315.0292, 6191.585
315.5113, 6170.022
315.9934, 6159.764
316.4756, 6184.620
316.9577, 6209.419
317.4398, 6215.762
317.9219, 6203.188
318.4040, 6190.556
318.8861, 6178.334
319.3683, 6172.213
319.8504, 6177.625
320.3325, 6217.834
320.8146, 6249.032
321.2967, 6249.581
321.7788, 6219.919
322.2610, 6201.667
322.7431, 6218.680
323.2252, 6243.958
323.7073, 6255.987
324.1894, 6235.154
324.6715, 6217.470
325.1537, 6210.627
325.6358, 6214.473
326.1179, 6219.960
326.6000, 6228.566
327.0821, 6236.930
327.5642, 6242.732
328.0464, 6245.141
328.5285, 6245.553
329.0106, 6241.179
329.4927, 6232.802
329.9748, 6231.875
330.4569, 6247.594
330.9391, 6263.420
331.4212, 6268.368
331.9033, 6250.820
332.3854, 6240.943
332.8675, 6244.677
333.3496, 6259.458
333.8318, 6268.229
334.3139, 6269.495
334.7960, 6266.733
335.2781, 6260.755
335.7602, 6247.621
336.2423, 6242.184
336.7245, 6250.326
337.2066, 6266.387
337.6887, 6266.034
338.1708, 6239.904
338.6529, 6217.631
339.1350, 6219.701
339.6172, 6252.146
340.0993, 6276.558
340.5814, 6289.163
341.0635, 6292.859
341.5456, 6292.688
342.0277, 6286.762
342.5099, 6285.994
342.9920, 6300.472
343.4741, 6330.341
343.9562, 6352.202
344.4383, 6365.002
344.9204, 6368.827
345.4026, 6356.597
345.8847, 6327.722
346.3668, 6310.720
346.8489, 6333.266
347.3310, 6383.923
347.8131, 6401.736
348.2953, 6373.253
348.7774, 6342.597
349.2595, 6384.302
349.7416, 6486.348
350.2237, 6573.495
350.7058, 6599.813
351.1880, 6588.141
351.6701, 6582.460
352.1522, 6584.173
352.6343, 6595.838
353.1164, 6626.850
353.5985, 6670.905
354.0807, 6710.782
354.5628, 6741.222
355.0449, 6763.304
355.5270, 6773.397
356.0091, 6770.759
356.4912, 6774.446
356.9734, 6807.940
357.4555, 6855.781
357.9376, 6893.055
358.4197, 6898.547
358.9018, 6899.193
359.3839, 6912.385
359.8661, 6938.215
360.3482, 6969.234
360.8303, 7003.493
361.3124, 7040.030
361.7945, 7078.015
362.2766, 7114.676
362.7588, 7154.316
363.2409, 7198.706
363.7230, 7247.531
364.2051, 7298.629
364.6872, 7324.802
365.1693, 7368.280
365.6515, 7458.814
366.1336, 7644.569
366.6157, 7829.998
367.0978, 8016.573
367.5799, 8196.599
368.0620, 8327.253
368.5442, 8433.745
369.0263, 8469.086
369.5084, 8407.615
369.9905, 8157.450
370.4726, 7939.798
370.9547, 7755.836
371.4369, 7603.332
371.9190, 7478.136
372.4011, 7401.799
372.8832, 7326.536
373.3653, 7228.724
373.8474, 7084.740
374.3295, 6982.538
374.8116, 6930.489
375.2938, 6911.856
375.7759, 6898.167
376.2580, 6890.205
376.7401, 6884.319
377.2222, 6879.733
377.7043, 6876.438
378.1865, 6872.051
378.6686, 6866.642
379.1507, 6859.555
379.6328, 6849.537
380.1149, 6836.351
380.5970, 6821.953
381.0792, 6806.540
381.5613, 6790.324
382.0434, 6772.417
382.5255, 6752.534
383.0076, 6735.149
383.4897, 6726.636
383.9719, 6725.388
384.4540, 6724.616
384.9361, 6724.957
385.4182, 6722.715
385.9003, 6706.580
386.3824, 6677.836
386.8646, 6654.573
387.3467, 6659.540
387.8288, 6677.964
388.3109, 6683.206
388.7930, 6663.111
389.2751, 6637.604
389.7573, 6627.194
390.2394, 6628.312
390.7215, 6628.212
391.2036, 6612.747
391.6857, 6596.569
392.1678, 6593.652
392.6500, 6609.759
393.1321, 6630.522
393.6142, 6657.001
394.0963, 6682.210
394.5784, 6692.824
395.0605, 6659.302
395.5427, 6629.485
396.0248, 6631.080
396.5069, 6677.604
396.9890, 6713.413
397.4711, 6719.525
397.9532, 6709.922
398.4354, 6702.640
398.9175, 6687.884
399.3996, 6687.738
399.8817, 6715.616
400.3638, 6776.417
400.8459, 6817.094
401.3281, 6829.787
401.8102, 6828.167
402.2923, 6821.010
402.7744, 6793.135
403.2565, 6789.570
403.7386, 6832.265
404.2208, 6909.520
404.7029, 6929.587
405.1850, 6860.236
405.6671, 6795.142
406.1492, 6814.163
406.6313, 6937.668
407.1135, 7008.704
407.5956, 6997.852
408.0777, 6941.304
408.5598, 6926.276
409.0419, 6956.318
409.5240, 6991.068
410.0062, 7002.143
410.4883, 6995.626
410.9704, 7012.128
411.4525, 7058.307
411.9346, 7110.659
412.4167, 7136.696
412.8989, 7140.626
413.3810, 7143.099
413.8631, 7150.763
414.3452, 7163.543
414.8273, 7184.869
415.3094, 7215.188
415.7916, 7241.769
416.2737, 7248.334
416.7558, 7245.617
417.2379, 7250.704
417.7200, 7273.507
418.2021, 7303.080
418.6843, 7335.998
419.1664, 7370.939
419.6485, 7401.023
420.1306, 7426.681
420.6127, 7443.861
421.0948, 7446.972
421.5770, 7413.350
422.0591, 7397.435
422.5412, 7424.356
423.0233, 7481.490
423.5054, 7533.749
423.9875, 7576.277
424.4697, 7611.277
424.9518, 7638.570
425.4339, 7651.942
425.9160, 7670.542
426.3981, 7695.491
426.8802, 7725.360
427.3624, 7758.412
427.8445, 7796.165
428.3266, 7835.919
428.8087, 7882.639
429.2908, 7937.370
429.7729, 7959.805
430.2551, 7934.050
430.7372, 7902.967
431.2193, 7907.714
431.7014, 7952.969
432.1835, 8005.966
432.6656, 8063.878
433.1478, 8123.813
433.6299, 8177.381
434.1120, 8224.162
434.5941, 8264.420
435.0762, 8295.339
435.5583, 8319.078
436.0405, 8349.193
436.5226, 8391.899
437.0047, 8428.650
437.4868, 8433.270
437.9689, 8409.947
438.4510, 8373.522
438.9332, 8327.023
439.4153, 8273.946
439.8974, 8213.137
440.3795, 8143.141
440.8616, 8085.239
441.3438, 8057.226
441.8259, 8050.068
442.3080, 8050.998
442.7901, 8075.863
443.2722, 8089.319
443.7543, 8055.262
444.2365, 7981.894
444.7186, 7944.544
445.2007, 7996.091
445.6828, 8073.607
446.1649, 8137.053
446.6470, 8184.653
447.1292, 8212.449
447.6113, 8201.964
448.0934, 8170.788
448.5755, 8166.400
449.0576, 8202.716
449.5397, 8250.119
450.0219, 8299.892
450.5040, 8353.875
450.9861, 8405.737
451.4682, 8457.886
451.9503, 8506.201
452.4324, 8539.029
452.9146, 8548.273
453.3967, 8579.094
453.8788, 8648.104
454.3609, 8748.229
454.8430, 8842.009
455.3251, 8930.408
455.8072, 9008.955
456.2893, 9062.410
456.7715, 9098.362
457.2536, 9157.638
457.7357, 9255.293
458.2178, 9363.125
458.6999, 9443.933
459.1820, 9500.108
459.6642, 9545.695
460.1463, 9575.471
460.6284, 9604.634
461.1105, 9657.777
461.5926, 9741.648
462.0747, 9816.499
462.5569, 9847.077
463.0390, 9853.832
463.5211, 9864.715
464.0032, 9904.496
464.4853, 9937.145
464.9674, 9942.628
465.4496, 9922.452
465.9317, 9902.972
466.4138, 9903.774
466.8959, 9899.315
467.3780, 9873.643
467.8601, 9806.279
468.3423, 9741.338
468.8244, 9680.770
469.3065, 9623.054
469.7886, 9568.138
470.2707, 9524.237
470.7528, 9469.642
471.2350, 9395.233
471.7171, 9299.259
472.1992, 9197.202
472.6813, 9086.563
473.1634, 8974.437
473.6455, 8870.384
474.1277, 8773.945
474.6098, 8682.390
475.0919, 8595.005
475.5740, 8511.960
476.0561, 8434.951
476.5382, 8363.995
477.0204, 8294.645
477.5025, 8223.866
477.9846, 8152.957
478.4667, 8084.275
478.9488, 8017.129
479.4309, 7956.130
479.9131, 7911.368
480.3952, 7876.529
480.8773, 7836.773
481.3594, 7772.862
481.8415, 7710.811
482.3236, 7670.699
482.8058, 7654.705
483.2879, 7641.559
483.7700, 7630.692
484.2521, 7614.682
484.7342, 7586.792
485.2163, 7531.119
485.6985, 7479.761
486.1806, 7434.246
486.6627, 7396.017
487.1448, 7370.850
487.6269, 7366.382
488.1090, 7366.878
488.5912, 7368.717
489.0733, 7377.688
489.5554, 7366.233
490.0375, 7325.196
490.5196, 7275.080
491.0017, 7248.454
491.4839, 7249.374
491.9660, 7244.991
492.4481, 7221.245
492.9302, 7185.631
493.4123, 7174.086
493.8944, 7187.541
494.3766, 7198.489
494.8587, 7179.542
495.3408, 7141.049
495.8229, 7110.304
496.3050, 7093.381
496.7871, 7081.820
497.2693, 7067.327
497.7514, 7050.756
498.2335, 7034.670
498.7156, 7018.988
499.1977, 7005.104
499.6798, 6995.328
500.1620, 6990.218
500.6441, 6982.383
501.1262, 6963.709
501.6083, 6943.625
502.0904, 6930.250
502.5725, 6935.545
503.0547, 6936.146
503.5368, 6922.839
504.0189, 6900.836
504.5010, 6891.606
504.9831, 6908.147
505.4652, 6921.098
505.9474, 6915.461
506.4295, 6883.316
506.9116, 6869.992
507.3937, 6879.427
507.8758, 6901.504
508.3579, 6929.701
508.8401, 6966.036
509.3222, 6981.583
509.8043, 6959.763
510.2864, 6917.471
510.7685, 6905.437
511.2506, 6922.761
511.7328, 6941.987
512.2148, 6946.621
512.6970, 6938.509
513.1791, 6915.188
513.6612, 6869.763
514.1433, 6835.946
514.6254, 6858.807
515.1075, 6911.957
515.5897, 6947.761
516.0718, 6932.364
516.5539, 6906.684
517.0360, 6892.147
517.5181, 6888.882
518.0002, 6883.846
518.4824, 6868.611
518.9645, 6853.846
519.4466, 6846.334
519.9287, 6851.357
520.4108, 6857.966
520.8929, 6870.592
521.3751, 6883.197
521.8572, 6883.060
522.3393, 6865.429
522.8214, 6844.917
523.3035, 6822.584
523.7856, 6799.168
524.2678, 6793.608
524.7499, 6809.200
525.2320, 6829.773
525.7141, 6841.577
526.1962, 6845.249
526.6783, 6843.678
527.1605, 6835.398
527.6426, 6825.952
528.1247, 6824.943
528.6068, 6830.184
529.0889, 6833.528
529.5710, 6825.468
530.0532, 6816.344
530.5353, 6818.924
531.0174, 6834.555
531.4995, 6845.882
531.9816, 6839.354
532.4637, 6826.231
532.9459, 6816.967
533.4280, 6809.800
533.9101, 6811.813
534.3922, 6833.208
534.8743, 6866.390
535.3564, 6885.236
535.8386, 6882.562
536.3207, 6873.901
536.8028, 6864.645
537.2849, 6855.611
537.7670, 6839.305
538.2491, 6811.084
538.7313, 6783.735
539.2134, 6769.247
539.6955, 6767.899
540.1776, 6778.747
540.6597, 6807.163
541.1418, 6840.645
541.6240, 6848.029
542.1061, 6832.626
542.5882, 6822.962
543.0703, 6843.801
543.5524, 6877.902
544.0345, 6899.075
544.5167, 6904.918
544.9988, 6907.834
545.4809, 6916.356
545.9630, 6926.809
546.4451, 6935.053
546.9272, 6940.642
547.4094, 6942.660
547.8915, 6937.688
548.3736, 6928.257
548.8557, 6923.005
549.3378, 6921.479
549.8199, 6926.169
550.3021, 6940.839
550.7842, 6970.565
551.2663, 6983.801
551.7484, 6964.932
552.2305, 6949.205
552.7126, 6983.885
553.1948, 7082.451
553.6769, 7140.109
554.1590, 7126.610
554.6411, 7075.143
555.1232, 7063.941
555.6053, 7091.300
556.0875, 7122.892
556.5696, 7134.545
557.0517, 7138.731
557.5338, 7162.727
558.0159, 7208.847
558.4980, 7248.430
558.9802, 7257.720
559.4623, 7248.084
559.9444, 7233.792
560.4265, 7218.764
560.9086, 7200.005
561.3907, 7176.552
561.8729, 7148.437
562.3550, 7116.205
562.8371, 7065.317
563.3192, 7024.033
563.8013, 7004.201
564.2834, 7008.349
564.7656, 7012.103
565.2477, 7017.641
565.7298, 7019.619
566.2119, 7010.061
566.6940, 6984.783
567.1761, 6972.130
567.6583, 6977.362
568.1404, 6993.818
568.6225, 7014.069
569.1046, 7037.141
569.5867, 7050.354
570.0688, 7039.632
570.5510, 7018.342
571.0331, 7009.586
571.5152, 7013.531
571.9973, 7020.880
572.4794, 7022.595
572.9615, 7025.763
573.4437, 7039.209
573.9258, 7072.952
574.4079, 7101.579
574.8900, 7110.850
575.3721, 7109.533
575.8542, 7112.700
576.3364, 7124.468
576.8185, 7138.970
577.3006, 7155.933
577.7827, 7175.211
578.2648, 7191.044
578.7469, 7201.444
579.2291, 7211.806
579.7112, 7227.314
580.1933, 7248.901
580.6754, 7261.086
581.1575, 7261.296
581.6396, 7257.331
582.1218, 7255.756
582.6039, 7258.188
583.0860, 7272.996
583.5681, 7312.438
584.0502, 7357.118
584.5323, 7380.743
585.0145, 7387.078
585.4966, 7393.819
585.9787, 7406.954
586.4608, 7426.841
586.9429, 7456.730
587.4250, 7500.490
587.9072, 7537.071
588.3893, 7559.587
588.8714, 7573.028
589.3535, 7582.220
589.8356, 7584.646
590.3177, 7587.032
590.7999, 7587.063
591.2820, 7588.296
591.7641, 7602.624
592.2462, 7632.638
592.7283, 7666.466
593.2104, 7702.230
593.6926, 7738.461
594.1747, 7760.768
594.6568, 7767.827
595.1389, 7776.046
595.6210, 7803.815
596.1031, 7843.150
596.5853, 7877.125
597.0674, 7899.804
597.5495, 7922.593
598.0316, 7960.264
598.5137, 8004.037
598.9958, 8036.734
599.4780, 8038.170
599.9601, 8041.350
600.4422, 8064.852
600.9243, 8107.802
601.4064, 8134.734
601.8885, 8128.434
602.3707, 8119.758
602.8528, 8123.292
603.3349, 8141.207
603.8170, 8164.366
604.2991, 8196.309
604.7813, 8227.228
605.2634, 8241.756
605.7455, 8240.151
606.2276, 8245.452
606.7097, 8269.030
607.1918, 8295.682
607.6740, 8295.917
608.1561, 8274.570
608.6382, 8253.787
609.1203, 8238.779
609.6024, 8235.616
610.0845, 8261.564
610.5667, 8319.059
611.0488, 8353.937
611.5309, 8322.119
612.0130, 8270.102
612.4951, 8234.960
612.9772, 8241.277
613.4594, 8236.581
613.9415, 8207.094
614.4236, 8169.593
614.9057, 8156.902
615.3878, 8183.090
615.8699, 8193.361
616.3521, 8167.677
616.8342, 8114.992
617.3163, 8080.543
617.7984, 8065.367
618.2805, 8048.182
618.7626, 8009.869
619.2448, 7959.778
619.7269, 7920.398
620.2090, 7894.768
620.6911, 7868.668
621.1732, 7828.003
621.6553, 7780.964
622.1375, 7737.887
622.6196, 7707.517
623.1017, 7675.361
623.5838, 7629.507
624.0659, 7578.453
624.5480, 7544.071
625.0302, 7544.987
625.5123, 7542.977
625.9944, 7529.357
626.4765, 7504.288
626.9586, 7466.036
627.4407, 7405.262
627.9229, 7356.311
628.4050, 7357.988
628.8871, 7403.262
629.3692, 7406.933
629.8513, 7355.320
630.3334, 7293.392
630.8156, 7274.898
631.2977, 7283.447
631.7798, 7282.882
632.2619, 7253.623
632.7440, 7220.505
633.2261, 7202.695
633.7083, 7195.182
634.1904, 7183.871
634.6725, 7158.851
635.1546, 7134.086
635.6367, 7112.381
636.1188, 7092.975
636.6010, 7090.282
637.0831, 7121.405
637.5652, 7147.219
638.0473, 7134.449
638.5294, 7074.544
639.0115, 7039.085
639.4937, 7035.757
639.9758, 7047.210
640.4579, 7053.280
640.9400, 7054.038
641.4221, 7049.208
641.9042, 7033.316
642.3864, 7018.474
642.8685, 7026.933
