##NAMES=Retgersite
##RRUFFID=R070665
##IDEAL CHEMISTRY=Ni^2+^S^6+^O_4_&#183;6H_2_O
##LOCALITY=Lovelock mine, Bolivia, Cottonwood Canyon, Table Mountain District, Churchill County, Nevada, USA
##OWNER=RRUFF
##SOURCE=Michael Scott
##DESCRIPTION=Blue-green crystalline coating on rock
##STATUS=The identification of this mineral has been confirmed by single-crystal X-ray diffraction.
##URL=rruff.info/R070665
117.3850, 4005.738
117.8671, 3980.397
118.3492, 3943.662
118.8313, 3914.568
119.3134, 3897.567
119.7955, 3891.442
120.2777, 3893.522
120.7598, 3904.433
121.2419, 3918.283
121.7240, 3933.312
122.2061, 3949.904
122.6882, 3960.013
123.1704, 3959.937
123.6525, 3951.866
124.1346, 3932.434
124.6167, 3897.118
125.0988, 3859.999
125.5809, 3850.625
126.0631, 3888.422
126.5452, 3919.314
127.0273, 3927.492
127.5094, 3922.125
127.9915, 3913.143
128.4736, 3905.542
128.9558, 3899.653
129.4379, 3899.061
129.9200, 3906.036
130.4021, 3916.841
130.8842, 3936.259
131.3663, 3960.006
131.8485, 3977.454
132.3306, 3975.804
132.8127, 3867.705
133.2948, 3956.450
133.7769, 4003.496
134.2590, 4011.083
134.7412, 3861.026
135.2233, 3914.533
135.7054, 3886.462
136.1875, 3855.045
136.6696, 3937.203
137.1517, 3810.076
137.6339, 3890.431
138.1160, 3887.964
138.5981, 3891.680
139.0802, 3875.584
139.5623, 3839.527
140.0444, 3816.448
140.5266, 3810.994
141.0087, 3803.913
141.4908, 3782.634
141.9729, 3751.238
142.4550, 3727.653
142.9371, 3725.095
143.4193, 3732.857
143.9014, 3729.753
144.3835, 3710.853
144.8656, 3685.957
145.3477, 3661.469
145.8298, 3636.006
146.3120, 3619.287
146.7941, 3623.929
147.2762, 3638.773
147.7583, 3652.120
148.2404, 3660.208
148.7225, 3663.751
149.2047, 3663.998
149.6868, 3659.000
150.1689, 3653.676
150.6510, 3651.395
151.1331, 3650.332
151.6152, 3646.948
152.0974, 3637.425
152.5795, 3621.807
153.0616, 3610.670
153.5437, 3605.693
154.0258, 3604.252
154.5080, 3608.295
154.9901, 3616.077
155.4722, 3622.890
155.9543, 3623.778
156.4364, 3617.438
156.9185, 3608.708
157.4007, 3594.225
157.8828, 3580.243
158.3649, 3570.796
158.8470, 3566.462
159.3291, 3564.521
159.8112, 3560.333
160.2934, 3547.527
160.7755, 3543.284
161.2576, 3557.727
161.7397, 3575.806
162.2218, 3581.843
162.7039, 3569.670
163.1861, 3546.201
163.6682, 3528.746
164.1503, 3518.637
164.6324, 3512.027
165.1145, 3510.829
165.5966, 3512.596
166.0788, 3512.471
166.5609, 3507.519
167.0430, 3499.498
167.5251, 3495.353
168.0072, 3490.314
168.4893, 3492.819
168.9715, 3515.782
169.4536, 3554.263
169.9357, 3581.830
170.4178, 3579.087
170.8999, 3551.469
171.3820, 3525.537
171.8642, 3497.654
172.3463, 3474.736
172.8284, 3466.315
173.3105, 3474.145
173.7926, 3483.307
174.2747, 3482.019
174.7569, 3474.667
175.2390, 3468.761
175.7211, 3466.840
176.2032, 3467.797
176.6853, 3470.365
177.1674, 3476.488
177.6496, 3479.983
178.1317, 3471.198
178.6138, 3456.339
179.0959, 3450.288
179.5780, 3466.356
180.0602, 3500.888
180.5423, 3530.328
181.0244, 3556.398
181.5065, 3573.691
181.9886, 3575.699
182.4707, 3565.907
182.9529, 3556.131
183.4350, 3555.160
183.9171, 3563.230
184.3992, 3577.812
184.8813, 3608.957
185.3634, 3639.260
185.8456, 3662.301
186.3277, 3677.341
186.8098, 3686.452
187.2919, 3690.080
187.7740, 3683.471
188.2561, 3685.489
188.7383, 3701.469
189.2204, 3721.574
189.7025, 3737.850
190.1846, 3749.396
190.6667, 3763.133
191.1488, 3791.561
191.6310, 3847.104
192.1131, 3896.752
192.5952, 3941.357
193.0773, 3979.492
193.5594, 4007.504
194.0415, 4024.388
194.5237, 4036.143
195.0058, 4056.432
195.4879, 4090.750
195.9700, 4128.372
196.4521, 4174.655
196.9342, 4222.492
197.4164, 4262.329
197.8985, 4289.446
198.3806, 4308.486
198.8627, 4335.409
199.3448, 4376.154
199.8270, 4417.240
200.3091, 4459.896
200.7912, 4500.969
201.2733, 4534.900
201.7554, 4558.188
202.2375, 4572.518
202.7197, 4586.877
203.2018, 4597.379
203.6839, 4611.709
204.1660, 4637.104
204.6481, 4669.773
205.1302, 4698.673
205.6124, 4719.466
206.0945, 4729.767
206.5766, 4724.478
207.0587, 4696.127
207.5408, 4660.313
208.0229, 4625.418
208.5051, 4591.252
208.9872, 4553.590
209.4693, 4508.261
209.9514, 4457.003
210.4335, 4408.523
210.9156, 4362.440
211.3978, 4319.420
211.8799, 4281.755
212.3620, 4249.753
212.8441, 4216.251
213.3262, 4172.112
213.8083, 4122.492
214.2905, 4082.873
214.7726, 4061.744
215.2547, 4049.289
215.7368, 4034.523
216.2189, 4017.469
216.7010, 3997.127
217.1832, 3966.846
217.6653, 3932.508
218.1474, 3906.522
218.6295, 3897.148
219.1116, 3897.857
219.5937, 3895.429
220.0759, 3886.592
220.5580, 3882.371
221.0401, 3893.939
221.5222, 3915.154
222.0043, 3933.718
222.4864, 3944.719
222.9686, 3948.765
223.4507, 3944.849
223.9328, 3922.746
224.4149, 3910.626
224.8970, 3928.611
225.3791, 3967.660
225.8613, 4007.154
226.3434, 4036.269
226.8255, 4055.851
227.3076, 4068.919
227.7897, 4066.999
228.2718, 4069.755
228.7540, 4087.914
229.2361, 4118.106
229.7182, 4151.535
230.2003, 4186.000
230.6824, 4220.847
231.1645, 4241.829
231.6467, 4234.701
232.1288, 4227.764
232.6109, 4234.552
233.0930, 4252.238
233.5751, 4270.823
234.0572, 4280.458
234.5394, 4280.608
235.0215, 4288.845
235.5036, 4313.521
235.9857, 4339.362
236.4678, 4362.026
236.9500, 4381.011
237.4321, 4396.629
237.9142, 4408.663
238.3963, 4416.750
238.8784, 4424.867
239.3605, 4433.726
239.8427, 4442.061
240.3248, 4452.771
240.8069, 4463.546
241.2890, 4467.286
241.7711, 4454.308
242.2532, 4419.927
242.7354, 4396.953
243.2175, 4395.053
243.6996, 4396.061
244.1817, 4392.210
244.6638, 4383.946
245.1459, 4376.910
245.6281, 4378.121
246.1102, 4390.869
246.5923, 4395.383
247.0744, 4393.902
247.5565, 4383.054
248.0386, 4356.749
248.5208, 4317.635
249.0029, 4275.090
249.4850, 4237.090
249.9671, 4201.034
250.4492, 4182.128
250.9313, 4196.906
251.4135, 4212.537
251.8956, 4213.148
252.3777, 4198.542
252.8598, 4178.163
253.3419, 4161.403
253.8240, 4148.234
254.3062, 4139.426
254.7883, 4148.064
255.2704, 4149.519
255.7525, 4125.554
256.2346, 4079.132
256.7167, 4029.806
257.1989, 3999.094
257.6810, 3993.793
258.1631, 3978.232
258.6452, 3935.878
259.1273, 3899.143
259.6094, 3895.204
260.0916, 3918.424
260.5737, 3935.796
261.0558, 3909.561
261.5379, 3822.540
262.0200, 3768.287
262.5021, 3771.836
262.9843, 3779.168
263.4664, 3755.580
263.9485, 3704.553
264.4306, 3656.943
264.9127, 3645.874
265.3948, 3682.097
265.8770, 3700.664
266.3591, 3703.144
266.8412, 3690.914
267.3233, 3659.552
267.8054, 3612.337
268.2875, 3559.219
268.7697, 3508.655
269.2518, 3460.230
269.7339, 3418.767
270.2160, 3381.047
270.6981, 3351.335
271.1802, 3338.184
271.6624, 3337.207
272.1445, 3331.628
272.6266, 3304.160
273.1087, 3249.409
273.5908, 3218.709
274.0729, 3229.427
274.5551, 3242.327
275.0372, 3239.876
275.5193, 3222.811
276.0014, 3199.745
276.4835, 3177.044
276.9656, 3154.167
277.4478, 3137.686
277.9299, 3129.774
278.4120, 3124.512
278.8941, 3119.581
279.3762, 3115.113
279.8583, 3112.970
280.3405, 3115.463
280.8226, 3122.843
281.3047, 3120.608
281.7868, 3098.902
282.2689, 3079.406
282.7510, 3073.157
283.2332, 3076.140
283.7153, 3076.110
284.1974, 3063.190
284.6795, 3038.653
285.1616, 3030.947
285.6437, 3057.532
286.1259, 3079.964
286.6080, 3086.386
287.0901, 3079.646
287.5722, 3065.373
288.0543, 3045.547
288.5364, 3022.302
289.0186, 3013.880
289.5007, 3041.264
289.9828, 3059.061
290.4649, 3049.731
290.9470, 3024.052
291.4291, 2999.580
291.9113, 2985.386
292.3934, 2981.528
292.8755, 2989.218
293.3576, 3029.492
293.8397, 3056.864
294.3218, 3059.773
294.8040, 3046.432
295.2861, 3026.291
295.7682, 3003.245
296.2503, 2980.422
296.7325, 2967.920
297.2146, 2976.833
297.6967, 2983.660
298.1788, 2988.540
298.6609, 2989.834
299.1430, 2983.822
299.6252, 2968.942
300.1073, 2950.400
300.5894, 2940.318
301.0715, 2951.854
301.5536, 2955.165
302.0357, 2944.792
302.5179, 2928.563
303.0000, 2912.536
303.4821, 2899.020
303.9642, 2888.833
304.4463, 2884.173
304.9284, 2891.875
305.4106, 2894.052
305.8927, 2883.818
306.3748, 2872.886
306.8569, 2871.255
307.3390, 2880.825
307.8211, 2895.645
308.3033, 2908.194
308.7854, 2921.704
309.2675, 2924.092
309.7496, 2909.353
310.2317, 2890.025
310.7138, 2870.971
311.1960, 2854.432
311.6781, 2843.125
312.1602, 2840.838
312.6423, 2850.143
313.1244, 2858.655
313.6065, 2869.512
314.0887, 2876.953
314.5708, 2873.902
315.0529, 2863.491
315.5350, 2857.062
316.0171, 2867.189
316.4992, 2896.542
316.9814, 2911.731
317.4635, 2899.382
317.9456, 2885.909
318.4277, 2880.547
318.9098, 2881.163
319.3919, 2880.167
319.8741, 2870.456
320.3562, 2853.356
320.8383, 2850.292
321.3204, 2882.857
321.8025, 2906.519
322.2846, 2908.122
322.7668, 2894.787
323.2489, 2876.689
323.7310, 2858.421
324.2131, 2842.148
324.6952, 2838.081
325.1773, 2858.494
325.6595, 2873.036
326.1416, 2872.195
326.6237, 2863.664
327.1058, 2855.048
327.5879, 2849.289
328.0700, 2847.338
328.5522, 2853.011
329.0343, 2873.031
329.5164, 2885.576
329.9985, 2882.446
330.4806, 2873.244
330.9627, 2864.204
331.4449, 2857.165
331.9270, 2853.770
332.4091, 2859.365
332.8912, 2878.377
333.3733, 2887.453
333.8554, 2872.049
334.3376, 2852.180
334.8197, 2838.537
335.3018, 2832.822
335.7839, 2832.157
336.2660, 2836.024
336.7481, 2844.727
337.2303, 2848.592
337.7124, 2839.056
338.1945, 2831.989
338.6766, 2842.800
339.1587, 2867.783
339.6408, 2884.884
340.1230, 2870.074
340.6051, 2831.048
341.0872, 2810.341
341.5693, 2816.976
342.0514, 2831.846
342.5335, 2847.808
343.0157, 2862.318
343.4978, 2867.996
343.9799, 2853.786
344.4620, 2829.845
344.9441, 2817.048
345.4262, 2816.033
345.9084, 2824.121
346.3905, 2853.062
346.8726, 2888.642
347.3547, 2905.458
347.8368, 2883.778
348.3189, 2852.659
348.8011, 2847.865
349.2832, 2869.975
349.7653, 2889.237
350.2474, 2887.518
350.7295, 2875.162
351.2116, 2873.359
351.6938, 2889.189
352.1759, 2905.160
352.6580, 2908.626
353.1401, 2902.000
353.6222, 2894.354
354.1043, 2886.566
354.5865, 2882.730
355.0686, 2892.295
355.5507, 2920.024
356.0328, 2942.532
356.5149, 2947.121
356.9970, 2941.917
357.4792, 2940.369
357.9613, 2945.810
358.4434, 2956.068
358.9255, 2969.581
359.4076, 2987.443
359.8897, 3002.466
360.3719, 3013.749
360.8540, 3022.050
361.3361, 3026.990
361.8182, 3028.880
362.3003, 3030.445
362.7824, 3033.881
363.2646, 3039.355
363.7467, 3047.526
364.2288, 3058.515
364.7109, 3071.831
365.1930, 3086.057
365.6751, 3102.122
366.1573, 3123.591
366.6394, 3153.623
367.1215, 3190.870
367.6036, 3222.800
368.0857, 3269.730
368.5678, 3288.850
369.0500, 3249.194
369.5321, 3181.011
370.0142, 3128.466
370.4963, 3112.158
370.9784, 3118.148
371.4605, 3110.896
371.9427, 3072.795
372.4248, 3047.577
372.9069, 3049.418
373.3890, 3056.643
373.8711, 3049.411
374.3532, 3023.782
374.8354, 2992.308
375.3175, 2970.837
375.7996, 2960.199
376.2817, 2957.738
376.7638, 2975.447
377.2459, 2990.808
377.7281, 2992.231
378.2102, 2980.632
378.6923, 2963.825
379.1744, 2947.132
379.6566, 2930.660
380.1387, 2916.645
380.6208, 2905.107
381.1029, 2896.416
381.5850, 2893.064
382.0671, 2892.055
382.5493, 2887.989
383.0314, 2877.073
383.5135, 2862.754
383.9956, 2852.095
384.4777, 2845.201
384.9598, 2841.596
385.4420, 2846.490
385.9241, 2852.252
386.4062, 2850.319
386.8883, 2837.273
387.3704, 2821.819
387.8525, 2813.003
388.3347, 2810.399
388.8168, 2805.279
389.2989, 2790.563
389.7810, 2777.889
390.2631, 2783.659
390.7452, 2809.399
391.2274, 2829.253
391.7095, 2826.497
392.1916, 2810.338
392.6737, 2797.065
393.1558, 2788.355
393.6379, 2786.988
394.1201, 2800.365
394.6022, 2826.911
395.0843, 2845.115
395.5664, 2847.361
396.0485, 2843.723
396.5306, 2840.699
397.0128, 2838.990
397.4949, 2839.834
397.9770, 2844.751
398.4591, 2852.869
398.9412, 2858.067
399.4233, 2854.115
399.9055, 2854.719
400.3876, 2869.269
400.8697, 2890.250
401.3518, 2904.861
401.8339, 2907.769
402.3160, 2903.173
402.7982, 2899.714
403.2803, 2897.504
403.7624, 2896.476
404.2445, 2894.176
404.7266, 2894.632
405.2087, 2903.681
405.6909, 2920.619
406.1730, 2937.403
406.6551, 2944.890
407.1372, 2941.966
407.6193, 2936.952
408.1014, 2922.318
408.5836, 2913.011
409.0657, 2916.004
409.5478, 2928.537
410.0299, 2944.402
410.5120, 2960.145
410.9941, 2975.746
411.4763, 2991.485
411.9584, 3009.279
412.4405, 3023.162
412.9226, 3031.247
413.4047, 3035.180
413.8868, 3035.540
414.3690, 3032.115
414.8511, 3028.140
415.3332, 3026.439
415.8153, 3026.896
416.2974, 3032.966
416.7795, 3051.600
417.2617, 3070.007
417.7438, 3074.407
418.2259, 3065.523
418.7080, 3060.382
419.1901, 3070.472
419.6722, 3090.304
420.1544, 3108.993
420.6365, 3125.695
421.1186, 3140.062
421.6007, 3152.127
422.0828, 3161.530
422.5649, 3166.940
423.0471, 3163.064
423.5292, 3159.440
424.0113, 3162.320
424.4934, 3171.264
424.9755, 3184.965
425.4576, 3204.442
425.9398, 3226.054
426.4219, 3238.165
426.9040, 3233.307
427.3861, 3232.269
427.8682, 3242.000
428.3503, 3255.804
428.8325, 3262.578
429.3146, 3260.655
429.7967, 3263.456
430.2788, 3290.363
430.7609, 3353.111
431.2430, 3397.323
431.7252, 3411.440
432.2073, 3421.809
432.6894, 3439.647
433.1715, 3464.419
433.6536, 3492.555
434.1357, 3523.094
434.6179, 3553.352
435.1000, 3568.379
435.5821, 3556.752
436.0642, 3546.769
436.5463, 3546.206
437.0284, 3549.359
437.5106, 3551.948
437.9927, 3552.807
438.4748, 3548.492
438.9569, 3531.696
439.4390, 3501.250
439.9211, 3476.201
440.4033, 3463.188
440.8854, 3452.899
441.3675, 3438.628
441.8496, 3420.666
442.3317, 3401.839
442.8138, 3378.749
443.2960, 3356.982
443.7781, 3348.778
444.2602, 3356.184
444.7423, 3367.357
445.2244, 3376.402
445.7065, 3383.100
446.1887, 3386.921
446.6708, 3380.744
447.1529, 3379.450
447.6350, 3395.528
448.1171, 3422.878
448.5992, 3446.646
449.0814, 3460.998
449.5635, 3469.784
450.0456, 3479.094
450.5277, 3485.039
451.0098, 3500.742
451.4919, 3533.632
451.9741, 3571.574
452.4562, 3604.743
452.9383, 3632.702
453.4204, 3661.999
453.9025, 3699.622
454.3846, 3745.604
454.8668, 3781.074
455.3489, 3793.228
455.8310, 3808.380
456.3131, 3831.319
456.7952, 3860.605
457.2773, 3895.546
457.7595, 3936.412
458.2416, 3977.624
458.7237, 4008.067
459.2058, 4024.052
459.6879, 4044.205
460.1700, 4074.054
460.6522, 4107.332
461.1343, 4145.821
461.6164, 4187.147
462.0985, 4216.974
462.5807, 4217.336
463.0628, 4199.521
463.5449, 4197.898
464.0270, 4219.472
464.5091, 4236.317
464.9912, 4228.404
465.4734, 4202.149
465.9555, 4173.097
466.4376, 4135.970
466.9197, 4104.565
467.4018, 4097.152
467.8839, 4103.229
468.3661, 4091.747
468.8482, 4049.838
469.3303, 3992.958
469.8124, 3947.670
470.2945, 3921.975
470.7766, 3886.445
471.2588, 3833.264
471.7409, 3774.867
472.2230, 3714.408
472.7051, 3656.177
473.1872, 3612.997
473.6693, 3598.402
474.1515, 3608.306
474.6336, 3592.891
475.1157, 3524.563
475.5978, 3463.366
476.0799, 3426.010
476.5620, 3397.885
477.0442, 3358.464
477.5263, 3301.213
478.0084, 3245.252
478.4905, 3221.364
478.9726, 3234.039
479.4547, 3233.754
479.9369, 3208.020
480.4190, 3174.882
480.9011, 3143.794
481.3832, 3115.254
481.8653, 3089.862
482.3474, 3068.069
482.8296, 3049.529
483.3117, 3034.909
483.7938, 3024.364
484.2759, 3012.779
484.7580, 2998.024
485.2401, 2980.198
485.7223, 2959.413
486.2044, 2931.941
486.6865, 2909.343
487.1686, 2897.603
487.6507, 2892.268
488.1328, 2889.055
488.6150, 2886.695
489.0971, 2881.724
489.5792, 2869.673
490.0613, 2849.089
490.5434, 2832.179
491.0255, 2820.145
491.5077, 2809.927
491.9898, 2801.420
492.4719, 2793.797
492.9540, 2785.196
493.4361, 2774.571
493.9182, 2764.230
494.4004, 2761.188
494.8825, 2771.578
495.3646, 2771.683
495.8467, 2743.863
496.3288, 2715.672
496.8109, 2705.997
497.2931, 2713.785
497.7752, 2722.198
498.2573, 2719.513
498.7394, 2708.905
499.2215, 2697.360
499.7036, 2683.793
500.1858, 2675.622
500.6679, 2684.355
501.1500, 2699.405
501.6321, 2695.622
502.1142, 2657.816
502.5963, 2624.778
503.0785, 2619.514
503.5606, 2631.425
504.0427, 2642.067
504.5248, 2646.631
505.0069, 2646.146
505.4890, 2641.141
505.9712, 2630.131
506.4533, 2621.677
506.9354, 2617.718
507.4175, 2614.084
507.8996, 2607.551
508.3817, 2600.044
508.8639, 2596.051
509.3460, 2598.160
509.8281, 2603.629
510.3102, 2605.134
510.7923, 2599.601
511.2744, 2598.125
511.7566, 2609.161
512.2387, 2619.321
512.7208, 2619.105
513.2029, 2608.998
513.6851, 2597.517
514.1672, 2590.500
514.6493, 2586.409
515.1314, 2580.636
515.6135, 2572.536
516.0956, 2539.545
516.5778, 2570.282
517.0599, 2587.120
517.5420, 2590.804
518.0241, 2541.941
518.5062, 2560.932
518.9883, 2552.730
519.4705, 2543.413
519.9526, 2571.954
520.4347, 2530.734
520.9168, 2558.675
521.3989, 2559.008
521.8810, 2571.976
522.3632, 2557.583
522.8453, 2551.642
523.3274, 2573.070
523.8095, 2579.344
524.2916, 2561.801
524.7737, 2575.573
525.2559, 2533.396
525.7380, 2540.315
526.2201, 2568.416
526.7022, 2552.250
527.1843, 2566.521
527.6664, 2569.201
528.1486, 2555.208
528.6307, 2554.025
529.1128, 2540.798
529.5949, 2527.420
530.0770, 2517.907
530.5591, 2512.455
531.0413, 2513.231
531.5234, 2519.943
532.0055, 2525.012
532.4876, 2525.047
532.9697, 2521.659
533.4518, 2517.340
533.9340, 2510.174
534.4161, 2507.662
534.8982, 2517.113
535.3803, 2528.041
535.8624, 2529.660
536.3445, 2522.116
536.8267, 2513.122
537.3088, 2508.403
537.7909, 2507.628
538.2730, 2507.903
538.7551, 2513.731
539.2372, 2514.069
539.7194, 2500.384
540.2015, 2484.828
540.6836, 2480.870
541.1657, 2490.507
541.6478, 2501.188
542.1299, 2499.243
542.6121, 2486.696
543.0942, 2478.280
543.5763, 2475.288
544.0584, 2474.943
544.5405, 2477.365
545.0226, 2480.964
545.5048, 2482.048
545.9869, 2475.801
546.4690, 2473.431
546.9511, 2487.111
547.4332, 2508.557
547.9153, 2519.567
548.3975, 2515.207
548.8796, 2505.070
549.3617, 2500.225
549.8438, 2501.871
550.3259, 2501.698
550.8080, 2494.871
551.2902, 2491.697
551.7723, 2501.222
552.2544, 2515.535
552.7365, 2521.214
553.2186, 2512.363
553.7007, 2497.360
554.1829, 2488.162
554.6650, 2484.472
555.1471, 2489.402
555.6292, 2511.148
556.1113, 2532.764
556.5934, 2541.707
557.0756, 2541.327
557.5577, 2543.117
558.0398, 2554.277
558.5219, 2566.880
559.0040, 2572.581
559.4861, 2572.386
559.9683, 2571.926
560.4504, 2574.067
560.9325, 2574.540
561.4146, 2565.316
561.8967, 2539.758
562.3788, 2523.149
562.8610, 2523.680
563.3431, 2526.131
563.8252, 2520.008
564.3073, 2508.093
564.7894, 2498.999
565.2715, 2497.811
565.7537, 2501.963
566.2358, 2505.284
566.7179, 2507.421
567.2000, 2509.756
567.6821, 2513.278
568.1642, 2516.410
568.6464, 2517.688
569.1285, 2517.456
569.6106, 2517.792
570.0927, 2519.325
570.5748, 2522.279
571.0569, 2528.857
571.5391, 2538.593
572.0212, 2543.630
572.5033, 2539.627
572.9854, 2530.293
573.4675, 2522.224
573.9496, 2513.088
574.4318, 2511.038
574.9139, 2526.433
575.3960, 2541.553
575.8781, 2539.023
576.3602, 2523.488
576.8423, 2513.945
577.3245, 2523.601
577.8066, 2545.651
578.2887, 2557.795
578.7708, 2555.820
579.2529, 2554.382
579.7350, 2553.527
580.2172, 2556.032
580.6993, 2565.824
581.1814, 2581.941
581.6635, 2596.960
582.1456, 2607.806
582.6277, 2614.516
583.1099, 2616.149
583.5920, 2612.904
584.0741, 2607.502
584.5562, 2599.564
585.0383, 2592.408
585.5204, 2594.081
586.0026, 2608.973
586.4847, 2621.540
586.9668, 2624.874
587.4489, 2629.937
587.9310, 2649.780
588.4131, 2679.326
588.8953, 2700.808
589.3774, 2702.090
589.8595, 2690.135
590.3416, 2685.453
590.8237, 2689.615
591.3058, 2696.488
591.7880, 2704.498
592.2701, 2715.527
592.7522, 2732.451
593.2343, 2754.466
593.7164, 2775.394
594.1985, 2794.988
594.6807, 2810.523
595.1628, 2814.527
595.6449, 2809.211
596.1270, 2811.567
596.6091, 2830.594
597.0912, 2856.771
597.5734, 2871.114
598.0555, 2863.660
598.5376, 2867.220
599.0197, 2889.653
599.5018, 2915.813
599.9839, 2938.415
600.4661, 2957.218
600.9482, 2975.152
601.4303, 2994.453
601.9124, 3010.223
602.3945, 3008.730
602.8766, 2985.504
603.3588, 2973.310
603.8409, 2983.138
604.3230, 2999.342
604.8051, 3008.594
605.2872, 3012.938
605.7693, 3021.727
606.2515, 3046.489
606.7336, 3069.195
607.2157, 3073.014
607.6978, 3062.810
608.1799, 3050.773
608.6620, 3040.704
609.1442, 3035.711
609.6263, 3042.212
610.1084, 3067.053
610.5905, 3074.548
611.0726, 3042.931
611.5547, 3018.960
612.0369, 3025.883
612.5190, 3049.090
613.0011, 3067.393
613.4832, 3073.403
613.9653, 3066.776
