##NAMES=Reyerite
##RRUFFID=R060749
##IDEAL CHEMISTRY=Na_2_Ca_14_Al_2_Si_22_O_58_(OH)_8_&#183;6H_2_O
##LOCALITY=Drynoch, Island of Skye, Scotland
##OWNER=RRUFF
##SOURCE=Michael Scott
##DESCRIPTION=Radiating aggregates of colorless thin hexagonal plates.
##STATUS=The identification of this mineral has been confirmed by single-crystal X-ray diffraction.
##URL=rruff.info/R060749
144.6643, 35701.60
145.1465, 35735.58
145.6286, 35752.01
146.1107, 35801.77
146.5928, 35908.20
147.0749, 36043.02
147.5570, 36132.85
148.0392, 36143.51
148.5213, 36142.46
149.0034, 36157.36
149.4855, 36203.01
149.9676, 36246.14
150.4497, 36273.94
150.9319, 36293.45
151.4140, 36350.57
151.8961, 36520.77
152.3782, 36687.69
152.8603, 36780.87
153.3424, 36684.04
153.8246, 36635.96
154.3067, 36704.71
154.7888, 36901.56
155.2709, 37055.95
155.7530, 37082.75
156.2351, 37076.60
156.7173, 37132.99
157.1994, 37325.88
157.6815, 37535.45
158.1636, 37716.23
158.6457, 37851.45
159.1278, 37996.84
159.6100, 38180.21
160.0921, 38377.65
160.5742, 38552.05
161.0563, 38675.28
161.5384, 38776.16
162.0205, 38869.62
162.5027, 38958.15
162.9848, 39035.91
163.4669, 39100.28
163.9490, 39150.88
164.4311, 39189.66
164.9132, 39207.41
165.3954, 39219.20
165.8775, 39238.64
166.3596, 39284.83
166.8417, 39327.86
167.3238, 39350.52
167.8059, 39355.09
168.2881, 39354.10
168.7702, 39352.48
169.2523, 39351.92
169.7344, 39354.16
170.2165, 39351.03
170.6986, 39357.79
171.1808, 39399.23
171.6629, 39478.57
172.1450, 39546.00
172.6271, 39546.95
173.1092, 39507.27
173.5913, 39478.11
174.0734, 39492.11
174.5556, 39526.66
175.0377, 39547.38
175.5198, 39543.80
176.0019, 39554.50
176.4840, 39630.85
176.9661, 39757.55
177.4483, 39882.95
177.9304, 39978.48
178.4125, 40051.21
178.8946, 40113.07
179.3767, 40161.35
179.8588, 40207.65
180.3410, 40277.63
180.8231, 40366.69
181.3052, 40443.61
181.7873, 40459.41
182.2694, 40441.68
182.7515, 40473.33
183.2337, 40599.81
183.7158, 40765.07
184.1979, 40845.19
184.6800, 40838.25
185.1621, 40832.47
185.6442, 40954.14
186.1264, 41165.34
186.6085, 41281.25
187.0906, 41167.65
187.5727, 40921.09
188.0548, 40862.73
188.5369, 41012.33
189.0191, 41229.57
189.5012, 41353.62
189.9833, 41391.45
190.4654, 41420.24
190.9475, 41478.59
191.4296, 41559.66
191.9118, 41608.51
192.3939, 41619.17
192.8760, 41613.70
193.3581, 41627.71
193.8402, 41662.39
194.3223, 41691.44
194.8045, 41699.84
195.2866, 41688.78
195.7687, 41677.80
196.2508, 41666.54
196.7329, 41659.47
197.2150, 41658.54
197.6972, 41660.77
198.1793, 41692.92
198.6614, 41796.37
199.1435, 41976.18
199.6256, 42095.30
200.1077, 42121.96
200.5899, 42086.12
201.0720, 42077.06
201.5541, 42095.51
202.0362, 42135.46
202.5183, 42193.55
203.0004, 42269.50
203.4826, 42358.60
203.9647, 42466.74
204.4468, 42586.57
204.9289, 42674.80
205.4110, 42726.03
205.8931, 42756.19
206.3753, 42778.97
206.8574, 42794.32
207.3395, 42801.02
207.8216, 42801.98
208.3037, 42796.96
208.7858, 42765.04
209.2679, 42696.29
209.7501, 42620.56
210.2322, 42575.32
210.7143, 42569.62
211.1964, 42570.37
211.6785, 42569.48
212.1606, 42567.38
212.6428, 42574.54
213.1249, 42595.72
213.6070, 42622.25
214.0891, 42634.26
214.5712, 42613.82
215.0533, 42622.11
215.5355, 42696.56
216.0176, 42866.95
216.4997, 42950.07
216.9818, 42898.96
217.4639, 42788.79
217.9460, 42776.94
218.4282, 42910.61
218.9103, 43043.57
219.3924, 43113.16
219.8745, 43096.21
220.3566, 43076.90
220.8387, 43045.59
221.3209, 43016.88
221.8030, 43039.50
222.2851, 43153.90
222.7672, 43254.34
223.2493, 43279.71
223.7314, 43186.27
224.2136, 43132.30
224.6957, 43137.87
225.1778, 43188.15
225.6599, 43227.48
226.1420, 43254.09
226.6241, 43271.53
227.1063, 43275.60
227.5884, 43242.05
228.0705, 43247.74
228.5526, 43311.47
229.0347, 43422.05
229.5168, 43513.07
229.9990, 43580.70
230.4811, 43633.15
230.9632, 43675.85
231.4453, 43708.31
231.9274, 43731.04
232.4095, 43733.04
232.8917, 43718.38
233.3738, 43750.19
233.8559, 43866.25
234.3380, 43987.40
234.8201, 44048.30
235.3022, 44019.73
235.7844, 43985.18
236.2665, 43949.27
236.7486, 43912.27
237.2307, 43912.68
237.7128, 43971.08
238.1949, 44047.64
238.6771, 44103.89
239.1592, 44126.30
239.6413, 44154.49
240.1234, 44197.97
240.6055, 44259.13
241.0876, 44313.63
241.5698, 44348.33
242.0519, 44388.18
242.5340, 44465.09
243.0161, 44608.07
243.4982, 44734.79
243.9803, 44821.34
244.4624, 44860.20
244.9446, 44903.23
245.4267, 44946.58
245.9088, 44993.38
246.3909, 45047.79
246.8730, 45110.32
247.3551, 45176.37
247.8373, 45249.44
248.3194, 45334.75
248.8015, 45390.60
249.2836, 45404.20
249.7657, 45398.77
250.2478, 45410.57
250.7300, 45461.70
251.2121, 45495.41
251.6942, 45493.36
252.1763, 45450.23
252.6584, 45404.88
253.1405, 45347.84
253.6227, 45298.61
254.1048, 45291.32
254.5869, 45346.71
255.0690, 45407.47
255.5511, 45452.40
256.0333, 45472.31
256.5154, 45512.20
256.9975, 45579.15
257.4796, 45659.94
257.9617, 45731.48
258.4438, 45781.94
258.9260, 45842.51
259.4081, 45926.68
259.8902, 46041.71
260.3723, 46150.09
260.8544, 46251.30
261.3365, 46344.42
261.8186, 46429.61
262.3008, 46496.90
262.7829, 46574.14
263.2650, 46683.98
263.7471, 46854.27
264.2292, 46947.30
264.7113, 46932.39
265.1935, 46862.06
265.6756, 46849.46
266.1577, 46910.39
266.6398, 46990.35
267.1219, 47069.09
267.6040, 47150.47
268.0862, 47221.01
268.5683, 47280.46
269.0504, 47331.16
269.5325, 47377.67
270.0146, 47425.64
270.4967, 47458.27
270.9789, 47450.14
271.4610, 47381.01
271.9431, 47399.92
272.4252, 47543.81
272.9073, 47747.85
273.3894, 47862.26
273.8716, 47858.79
274.3537, 47862.23
274.8358, 47946.58
275.3179, 48125.49
275.8000, 48267.24
276.2821, 48358.53
276.7643, 48417.20
277.2464, 48482.94
277.7285, 48558.80
278.2106, 48622.80
278.6927, 48659.54
279.1748, 48667.22
279.6570, 48666.17
280.1391, 48645.08
280.6212, 48630.81
281.1033, 48694.32
281.5854, 48844.39
282.0675, 48989.20
282.5497, 49084.90
283.0318, 49131.94
283.5139, 49137.69
283.9960, 49096.02
284.4781, 49025.99
284.9602, 48957.41
285.4424, 48890.18
285.9245, 48831.26
286.4066, 48798.48
286.8887, 48785.49
287.3708, 48723.64
287.8529, 48590.66
288.3351, 48445.66
288.8172, 48405.85
289.2993, 48469.42
289.7814, 48527.52
290.2635, 48520.04
290.7456, 48456.36
291.2278, 48369.84
291.7099, 48251.97
292.1920, 48139.63
292.6741, 48101.79
293.1562, 48131.16
293.6383, 48164.27
294.1205, 48153.42
294.6026, 48118.88
295.0847, 48127.50
295.5668, 48197.11
296.0489, 48273.18
296.5310, 48276.52
297.0132, 48220.32
297.4953, 48168.38
297.9774, 48156.66
298.4595, 48174.27
298.9416, 48196.18
299.4237, 48218.21
299.9059, 48255.31
300.3880, 48340.65
300.8701, 48458.97
301.3522, 48558.33
301.8343, 48590.71
302.3164, 48591.34
302.7986, 48607.57
303.2807, 48640.27
303.7628, 48692.11
304.2449, 48789.95
304.7270, 48909.82
305.2091, 48993.25
305.6913, 48984.11
306.1734, 48936.41
306.6555, 48908.18
307.1376, 48905.43
307.6197, 48908.20
308.1018, 48908.30
308.5840, 48904.37
309.0661, 48893.02
309.5482, 48866.13
310.0303, 48837.80
310.5124, 48826.23
310.9945, 48835.25
311.4767, 48830.22
311.9588, 48764.34
312.4409, 48676.39
312.9230, 48620.45
313.4051, 48645.82
313.8872, 48689.75
314.3694, 48720.24
314.8515, 48735.99
315.3336, 48737.75
315.8157, 48712.36
316.2978, 48677.96
316.7799, 48655.27
317.2621, 48662.50
317.7442, 48673.50
318.2263, 48680.25
318.7084, 48682.90
319.1905, 48678.18
319.6726, 48632.91
320.1548, 48594.60
320.6369, 48606.58
321.1190, 48758.70
321.6011, 48883.37
322.0832, 48914.13
322.5653, 48853.18
323.0475, 48809.26
323.5296, 48795.96
324.0117, 48809.51
324.4938, 48847.09
324.9759, 48911.53
325.4580, 48995.80
325.9402, 49118.32
326.4223, 49273.07
326.9044, 49384.20
327.3865, 49418.62
327.8686, 49426.66
328.3507, 49437.25
328.8329, 49452.62
329.3150, 49468.28
329.7971, 49479.77
330.2792, 49490.45
330.7613, 49518.77
331.2434, 49592.86
331.7255, 49656.48
332.2076, 49677.64
332.6898, 49620.53
333.1719, 49588.12
333.6540, 49585.73
334.1361, 49610.84
334.6182, 49658.61
335.1003, 49743.81
335.5825, 49827.06
336.0646, 49884.55
336.5467, 49899.30
337.0288, 49944.34
337.5109, 50036.43
337.9930, 50146.17
338.4752, 50209.77
338.9573, 50210.43
339.4394, 50213.28
339.9215, 50247.80
340.4036, 50316.48
340.8857, 50393.05
341.3679, 50483.88
341.8500, 50571.32
342.3321, 50623.28
342.8142, 50639.77
343.2963, 50641.27
343.7784, 50622.87
344.2606, 50591.91
344.7427, 50611.09
345.2248, 50689.91
345.7069, 50789.29
346.1890, 50853.90
346.6711, 50889.63
347.1533, 50946.82
347.6354, 51056.58
348.1175, 51196.84
348.5996, 51312.64
349.0817, 51400.88
349.5638, 51476.63
350.0460, 51543.19
350.5281, 51605.53
351.0102, 51681.27
351.4923, 51803.57
351.9744, 51918.89
352.4565, 51924.77
352.9387, 51830.08
353.4208, 51741.02
353.9029, 51764.77
354.3850, 51841.65
354.8671, 51881.70
355.3492, 51857.46
355.8314, 51797.68
356.3135, 51716.65
356.7956, 51620.08
357.2777, 51523.88
357.7598, 51413.57
358.2419, 51322.87
358.7241, 51288.36
359.2062, 51339.70
359.6883, 51403.04
360.1704, 51452.94
360.6525, 51485.24
361.1346, 51490.64
361.6168, 51408.56
362.0989, 51338.01
362.5810, 51352.51
363.0631, 51506.53
363.5452, 51606.20
364.0273, 51530.96
364.5095, 51377.78
364.9916, 51297.61
365.4737, 51427.66
365.9558, 51543.03
366.4379, 51551.73
366.9200, 51416.57
367.4022, 51331.23
367.8843, 51349.31
368.3664, 51411.55
368.8485, 51454.17
369.3306, 51433.51
369.8127, 51443.48
370.2949, 51512.26
370.7770, 51642.08
371.2591, 51743.76
371.7412, 51800.02
372.2233, 51842.12
372.7054, 51892.56
373.1876, 51948.07
373.6697, 52017.08
374.1518, 52113.70
374.6339, 52224.52
375.1160, 52269.34
375.5981, 52220.91
376.0803, 52165.02
376.5624, 52168.28
377.0445, 52248.38
377.5266, 52270.43
378.0087, 52203.76
378.4908, 52097.54
378.9730, 52061.02
379.4551, 52100.97
379.9372, 52161.84
380.4193, 52221.93
380.9014, 52281.45
381.3835, 52337.82
381.8657, 52391.80
382.3478, 52444.02
382.8299, 52494.64
383.3120, 52543.73
383.7941, 52591.79
384.2762, 52636.42
384.7584, 52679.16
385.2405, 52717.03
385.7226, 52747.43
386.2047, 52789.98
386.6868, 52874.60
387.1689, 52981.60
387.6511, 53070.54
388.1332, 53112.68
388.6153, 53139.86
389.0974, 53181.20
389.5795, 53235.19
390.0616, 53293.11
390.5438, 53361.09
391.0259, 53427.55
391.5080, 53483.17
391.9901, 53536.53
392.4722, 53566.19
392.9543, 53545.46
393.4365, 53491.82
393.9186, 53452.58
394.4007, 53463.58
394.8828, 53482.22
395.3649, 53482.82
395.8470, 53450.13
396.3292, 53430.89
396.8113, 53448.18
397.2934, 53481.77
397.7755, 53499.83
398.2576, 53443.11
398.7397, 53421.22
399.2219, 53482.60
399.7040, 53650.91
400.1861, 53760.49
400.6682, 53791.66
401.1503, 53776.86
401.6324, 53739.84
402.1145, 53644.08
402.5966, 53595.77
403.0788, 53628.72
403.5609, 53731.69
404.0430, 53803.89
404.5251, 53844.12
405.0072, 53857.13
405.4893, 53832.68
405.9715, 53758.73
406.4536, 53726.86
406.9357, 53752.70
407.4178, 53817.60
407.8999, 53885.82
408.3820, 53957.66
408.8642, 54018.86
409.3463, 54057.71
409.8284, 54077.47
410.3105, 54093.23
410.7926, 54102.85
411.2747, 54122.42
411.7569, 54181.27
412.2390, 54270.38
412.7211, 54354.08
413.2032, 54410.78
413.6853, 54454.96
414.1674, 54505.00
414.6496, 54561.10
415.1317, 54634.22
415.6138, 54758.57
416.0959, 54897.80
416.5780, 55002.10
417.0602, 55046.11
417.5423, 55061.23
418.0244, 55046.17
418.5065, 55014.01
418.9886, 55011.79
419.4707, 55108.46
419.9529, 55213.05
420.4350, 55255.03
420.9171, 55188.58
421.3992, 55150.44
421.8813, 55216.74
422.3634, 55333.24
422.8456, 55411.71
423.3277, 55390.36
423.8098, 55375.31
424.2919, 55412.55
424.7740, 55523.67
425.2561, 55574.43
425.7383, 55491.74
426.2204, 55397.16
426.7025, 55399.02
427.1846, 55558.53
427.6667, 55702.56
428.1488, 55808.39
428.6310, 55878.60
429.1131, 55928.66
429.5952, 55949.84
430.0773, 55966.05
430.5594, 55993.13
431.0415, 56032.68
431.5237, 56061.65
432.0058, 56073.31
432.4879, 56082.37
432.9700, 56119.76
433.4521, 56186.15
433.9342, 56249.41
434.4164, 56296.33
434.8985, 56330.24
435.3806, 56358.95
435.8627, 56382.04
436.3448, 56411.91
436.8269, 56482.95
437.3091, 56571.50
437.7912, 56614.02
438.2733, 56562.36
438.7554, 56486.05
439.2375, 56425.99
439.7196, 56393.51
440.2018, 56445.57
440.6839, 56757.88
441.1660, 57096.47
441.6481, 57222.26
442.1302, 57021.33
442.6123, 56789.69
443.0945, 56636.93
443.5766, 56550.70
444.0587, 56512.05
444.5408, 56567.70
445.0229, 56623.68
445.5050, 56646.60
445.9872, 56633.41
446.4693, 56603.32
446.9514, 56539.92
447.4335, 56472.28
447.9156, 56424.95
448.3977, 56422.74
448.8799, 56403.84
449.3620, 56339.07
449.8441, 56249.48
450.3262, 56241.76
450.8083, 56353.81
451.2904, 56473.31
451.7726, 56532.38
452.2547, 56515.63
452.7368, 56538.46
453.2189, 56618.51
453.7010, 56709.58
454.1831, 56731.92
454.6653, 56685.18
455.1474, 56643.43
455.6295, 56632.25
456.1116, 56647.86
456.5937, 56689.25
457.0758, 56758.00
457.5580, 56818.80
458.0401, 56838.74
458.5222, 56829.24
459.0043, 56810.10
459.4864, 56776.83
459.9685, 56753.46
460.4507, 56774.43
460.9328, 56827.33
461.4149, 56874.95
461.8970, 56903.45
462.3791, 56915.68
462.8612, 56901.61
463.3434, 56851.09
463.8255, 56831.64
464.3076, 56891.56
464.7897, 56989.30
465.2718, 57078.82
465.7539, 57141.21
466.2361, 57202.90
466.7182, 57265.27
467.2003, 57329.02
467.6824, 57409.05
468.1645, 57540.09
468.6466, 57653.18
469.1288, 57712.56
469.6109, 57689.95
470.0930, 57668.83
470.5751, 57646.43
471.0572, 57626.03
471.5393, 57613.25
472.0214, 57607.41
472.5035, 57609.72
472.9857, 57623.18
473.4678, 57646.00
473.9499, 57670.28
474.4320, 57699.41
474.9141, 57713.58
475.3962, 57676.17
475.8784, 57604.30
476.3605, 57573.98
476.8426, 57615.75
477.3247, 57683.63
477.8068, 57715.63
478.2889, 57720.86
478.7711, 57729.45
479.2532, 57772.59
479.7353, 57820.64
480.2174, 57833.45
480.6995, 57802.10
481.1816, 57786.17
481.6638, 57819.73
482.1459, 57885.06
482.6280, 57962.20
483.1101, 58062.46
483.5922, 58150.46
484.0743, 58203.29
484.5565, 58226.76
485.0386, 58260.79
485.5207, 58286.24
486.0028, 58342.57
486.4849, 58458.76
486.9670, 58694.95
487.4492, 58840.70
487.9313, 58861.23
488.4134, 58819.51
488.8955, 58801.82
489.3776, 58817.84
489.8597, 58839.07
490.3419, 58864.70
490.8240, 58892.77
491.3061, 58898.86
491.7882, 58880.62
492.2703, 58862.21
492.7524, 58853.09
493.2346, 58856.78
493.7167, 58902.83
494.1988, 59007.63
494.6809, 59113.18
495.1630, 59122.43
495.6451, 59065.27
496.1273, 59037.71
496.6094, 59126.96
497.0915, 59242.31
497.5736, 59290.40
498.0557, 59272.88
498.5378, 59242.36
499.0200, 59214.78
499.5021, 59196.72
499.9842, 59193.75
500.4663, 59206.25
500.9484, 59237.28
501.4305, 59322.79
501.9127, 59427.10
502.3948, 59471.58
502.8769, 59364.24
503.3590, 59276.90
503.8411, 59263.98
504.3232, 59334.43
504.8054, 59390.89
505.2875, 59428.35
505.7696, 59453.25
506.2517, 59467.07
506.7338, 59464.23
507.2159, 59472.55
507.6981, 59501.24
508.1802, 59537.53
508.6623, 59545.44
509.1444, 59524.82
509.6265, 59512.27
510.1086, 59552.96
510.5908, 59617.74
511.0729, 59601.31
511.5550, 59498.78
512.0371, 59388.30
512.5192, 59339.76
513.0013, 59334.36
513.4835, 59338.70
513.9656, 59331.24
514.4477, 59348.05
514.9298, 59445.70
515.4119, 59590.94
515.8940, 59694.16
516.3762, 59662.83
516.8583, 59622.19
517.3404, 59642.56
517.8225, 59743.05
518.3046, 59829.83
518.7867, 59884.63
519.2689, 59920.36
519.7510, 59948.21
520.2331, 59955.91
520.7152, 59976.38
521.1973, 60023.99
521.6794, 60084.75
522.1616, 60105.74
522.6437, 60068.54
523.1258, 60048.07
523.6079, 60100.36
524.0900, 60221.44
524.5721, 60244.60
525.0543, 60151.66
525.5364, 60050.33
526.0185, 60076.11
526.5006, 60194.85
526.9827, 60274.50
527.4648, 60265.86
527.9470, 60229.35
528.4291, 60254.23
528.9112, 60318.41
529.3933, 60349.27
529.8754, 60249.28
530.3575, 60141.02
530.8397, 60141.26
531.3218, 60271.16
531.8039, 60362.73
532.2860, 60303.41
532.7681, 60200.54
533.2502, 60146.12
533.7324, 60201.59
534.2145, 60255.28
534.6966, 60296.44
535.1787, 60329.11
535.6608, 60362.14
536.1429, 60403.29
536.6251, 60434.50
537.1072, 60447.99
537.5893, 60443.45
538.0714, 60438.66
538.5535, 60429.77
539.0356, 60431.02
539.5178, 60453.13
539.9999, 60495.98
540.4820, 60565.21
540.9641, 60671.23
541.4462, 60780.58
541.9283, 60829.81
542.4105, 60834.51
542.8926, 60858.60
543.3747, 60948.05
543.8568, 61064.56
544.3389, 61176.77
544.8210, 61282.70
545.3032, 61364.86
545.7853, 61400.25
546.2674, 61416.62
546.7495, 61436.04
547.2316, 61457.69
547.7137, 61493.45
548.1959, 61546.95
548.6780, 61617.30
549.1601, 61703.94
549.6422, 61854.55
550.1243, 61956.39
550.6064, 61956.14
551.0886, 61864.82
551.5707, 61876.06
552.0528, 62020.38
552.5349, 62189.72
553.0170, 62308.28
553.4991, 62376.63
553.9813, 62454.47
554.4634, 62546.54
554.9455, 62646.65
555.4276, 62736.54
555.9097, 62824.38
556.3918, 62943.09
556.8740, 63135.80
557.3561, 63337.74
557.8382, 63458.58
558.3203, 63517.48
558.8024, 63601.15
559.2845, 63780.61
559.7667, 63985.98
560.2488, 64162.95
560.7309, 64292.00
561.2130, 64451.33
561.6951, 64681.71
562.1772, 64942.52
562.6594, 65193.63
563.1415, 65420.37
563.6236, 65650.86
564.1057, 65898.21
564.5878, 66147.22
565.0699, 66333.69
565.5521, 66432.91
566.0342, 66544.80
566.5163, 66717.49
566.9984, 66946.96
567.4805, 67170.16
567.9626, 67386.63
568.4448, 67601.30
568.9269, 67852.21
569.4090, 68108.72
569.8911, 68273.80
570.3732, 68316.36
570.8553, 68302.58
571.3375, 68296.80
571.8196, 68284.03
572.3017, 68232.96
572.7838, 68110.27
573.2659, 67963.57
573.7480, 67818.52
574.2302, 67674.80
574.7123, 67504.52
575.1944, 67302.65
575.6765, 67073.38
576.1586, 66810.41
576.6407, 66478.44
577.1228, 66213.13
577.6049, 66041.31
578.0870, 65915.55
578.5692, 65777.10
579.0513, 65622.72
579.5334, 65474.81
580.0155, 65330.77
580.4976, 65201.06
580.9797, 65125.17
581.4619, 65100.21
581.9440, 65080.69
582.4261, 65034.59
582.9082, 64977.06
583.3903, 64947.29
583.8724, 64945.31
584.3546, 64916.04
584.8367, 64751.42
585.3188, 64570.59
585.8009, 64505.99
586.2830, 64672.50
586.7651, 64809.54
587.2473, 64790.13
587.7294, 64690.01
588.2115, 64639.89
588.6936, 64724.59
589.1757, 64779.92
589.6578, 64751.66
590.1400, 64656.34
590.6221, 64655.83
591.1042, 64793.29
591.5863, 64925.76
592.0684, 64962.55
592.5505, 64905.31
593.0327, 64868.77
593.5148, 64854.63
593.9969, 64866.48
594.4790, 64932.93
594.9611, 65029.89
595.4432, 65083.98
595.9254, 65049.13
596.4075, 65012.33
596.8896, 65072.11
597.3717, 65196.05
597.8538, 65306.33
598.3359, 65353.34
598.8181, 65391.94
599.3002, 65453.98
599.7823, 65540.91
600.2644, 65610.61
600.7465, 65638.71
601.2286, 65660.92
601.7108, 65689.44
602.1929, 65701.72
602.6750, 65786.77
603.1571, 65974.09
603.6392, 66193.98
604.1213, 66358.26
604.6035, 66467.23
605.0856, 66526.35
605.5677, 66517.21
606.0498, 66484.54
606.5319, 66518.45
607.0140, 66611.51
607.4962, 66723.21
607.9783, 66853.18
608.4604, 66977.33
608.9425, 67071.29
609.4246, 67133.42
609.9067, 67177.57
610.3889, 67177.88
610.8710, 67182.79
611.3531, 67233.48
611.8352, 67373.64
612.3173, 67485.69
612.7994, 67544.64
613.2816, 67575.12
613.7637, 67608.56
614.2458, 67665.23
614.7279, 67677.65
615.2100, 67616.80
615.6921, 67515.09
616.1743, 67482.13
616.6564, 67524.03
617.1385, 67550.59
617.6206, 67497.51
618.1027, 67395.48
618.5848, 67323.17
619.0670, 67280.28
619.5491, 67256.70
620.0312, 67274.04
620.5133, 67291.53
620.9954, 67248.27
621.4775, 67100.54
621.9597, 66986.93
622.4418, 66997.84
622.9239, 67067.28
623.4060, 67115.20
623.8881, 67131.61
624.3702, 67119.43
624.8524, 67067.10
625.3345, 66987.38
625.8166, 66921.83
626.2987, 66877.92
626.7808, 66830.23
627.2629, 66761.66
627.7451, 66678.98
628.2272, 66639.13
628.7093, 66645.54
629.1914, 66652.31
629.6735, 66600.86
630.1556, 66529.07
630.6378, 66526.27
631.1199, 66617.02
631.6020, 66697.34
632.0841, 66681.22
632.5662, 66610.64
633.0483, 66537.79
633.5305, 66441.05
634.0126, 66389.09
634.4947, 66436.38
634.9768, 66540.90
635.4589, 66592.05
635.9410, 66572.98
636.4232, 66516.96
636.9053, 66410.55
637.3874, 66262.56
637.8695, 66195.44
638.3516, 66223.15
638.8337, 66263.33
639.3159, 66264.92
639.7980, 66233.33
640.2801, 66186.77
640.7622, 66125.41
641.2443, 66067.98
641.7264, 66021.02
