##NAMES=Reyerite
##RRUFFID=R060749
##IDEAL CHEMISTRY=Na_2_Ca_14_Al_2_Si_22_O_58_(OH)_8_&#183;6H_2_O
##LOCALITY=Drynoch, Island of Skye, Scotland
##OWNER=RRUFF
##SOURCE=Michael Scott
##DESCRIPTION=Radiating aggregates of colorless thin hexagonal plates.
##STATUS=The identification of this mineral has been confirmed by single-crystal X-ray diffraction.
##URL=rruff.info/R060749
165.400, 9610.996
165.883, 9584.050
166.365, 9611.342
166.847, 9689.609
167.329, 9768.568
167.811, 9872.538
168.293, 9954.611
168.775, 9980.105
169.257, 9960.063
169.739, 9938.849
170.221, 9948.759
170.704, 9983.347
171.186, 9987.480
171.668, 9938.282
172.150, 9883.269
172.632, 9848.592
173.114, 9831.511
173.596, 9815.104
174.078, 9788.987
174.561, 9754.040
175.043, 9719.055
175.525, 9672.059
176.007, 9635.475
176.489, 9629.375
176.971, 9649.550
177.453, 9669.192
177.935, 9671.733
178.417, 9659.485
178.900, 9649.574
179.382, 9639.890
179.864, 9633.896
180.346, 9631.124
180.828, 9632.402
181.310, 9644.727
181.792, 9675.256
182.274, 9720.603
182.757, 9762.567
183.239, 9798.417
183.721, 9833.114
184.203, 9872.584
184.685, 9915.541
185.167, 9951.042
185.649, 9969.306
186.131, 9975.856
186.613, 9989.400
187.096, 10011.750
187.578, 10039.390
188.060, 10075.680
188.542, 10118.940
189.024, 10150.180
189.506, 10153.820
189.988, 10140.730
190.470, 10140.770
190.952, 10168.660
191.435, 10191.930
191.917, 10168.390
192.399, 10105.890
192.881, 10082.890
193.363, 10155.130
193.845, 10283.400
194.327, 10380.950
194.809, 10440.950
195.292, 10478.850
195.774, 10497.230
196.256, 10498.360
196.738, 10501.880
197.220, 10516.770
197.702, 10538.770
198.184, 10559.030
198.666, 10576.880
199.148, 10594.330
199.631, 10614.990
200.113, 10637.760
200.595, 10653.430
201.077, 10653.860
201.559, 10648.950
202.041, 10654.950
202.523, 10674.940
203.005, 10696.710
203.488, 10719.210
203.970, 10739.530
204.452, 10739.430
204.934, 10703.040
205.416, 10652.120
205.898, 10619.610
206.380, 10609.240
206.862, 10598.150
207.344, 10567.620
207.827, 10523.000
208.309, 10489.360
208.791, 10478.890
209.273, 10475.550
209.755, 10454.850
210.237, 10413.810
210.719, 10383.140
211.201, 10390.350
211.684, 10422.940
212.166, 10438.000
212.648, 10419.970
213.130, 10389.980
213.612, 10371.430
214.094, 10364.120
214.576, 10358.740
215.058, 10357.780
215.540, 10355.800
216.023, 10332.810
216.505, 10273.080
216.987, 10216.880
217.469, 10214.360
217.951, 10258.700
218.433, 10296.200
218.915, 10300.640
219.397, 10285.030
219.880, 10274.730
220.362, 10273.820
220.844, 10276.240
221.326, 10275.890
221.808, 10273.710
222.290, 10274.210
222.772, 10285.600
223.254, 10298.310
223.736, 10294.500
224.219, 10269.590
224.701, 10242.290
225.183, 10227.990
225.665, 10223.840
226.147, 10223.140
226.629, 10224.820
227.111, 10228.810
227.593, 10237.130
228.076, 10250.520
228.558, 10259.820
229.040, 10251.070
229.522, 10232.820
230.004, 10230.362
230.486, 10245.829
230.968, 10256.945
231.450, 10263.943
231.932, 10254.492
232.415, 10266.283
232.897, 10269.561
233.379, 10272.489
233.861, 10287.270
234.343, 10280.211
234.825, 10294.803
235.307, 10299.170
235.789, 10327.130
236.271, 10332.068
236.754, 10353.703
237.236, 10371.286
237.718, 10385.033
238.200, 10383.460
238.682, 10401.670
239.164, 10411.951
239.646, 10421.907
240.128, 10442.902
240.611, 10443.556
241.093, 10464.378
241.575, 10477.147
242.057, 10493.603
242.539, 10502.078
243.021, 10513.019
243.503, 10531.941
243.985, 10546.443
244.467, 10554.001
244.950, 10570.689
245.432, 10571.064
245.914, 10587.080
246.396, 10596.176
246.878, 10620.609
247.360, 10641.318
247.842, 10658.505
248.324, 10661.612
248.807, 10682.899
249.289, 10696.903
249.771, 10710.606
250.253, 10734.451
250.735, 10739.606
251.217, 10763.291
251.699, 10779.579
252.181, 10799.255
252.663, 10811.599
253.146, 10826.205
253.628, 10841.940
254.110, 10866.830
254.592, 10911.590
255.074, 10954.700
255.556, 10977.950
256.038, 10984.950
256.520, 10996.080
257.003, 11027.550
257.485, 11078.120
257.967, 11118.050
258.449, 11136.500
258.931, 11157.740
259.413, 11191.190
259.895, 11234.400
260.377, 11283.160
260.859, 11336.570
261.342, 11391.170
261.824, 11429.670
262.306, 11435.390
262.788, 11446.100
263.270, 11457.260
263.752, 11448.770
264.234, 11506.792
264.716, 11548.668
265.198, 11575.267
265.681, 11540.832
266.163, 11585.215
266.645, 11598.007
267.127, 11609.506
267.609, 11664.977
268.091, 11639.417
268.573, 11694.191
269.056, 11711.030
269.538, 11750.250
270.020, 11844.590
270.502, 11919.350
270.984, 11970.430
271.466, 12010.060
271.948, 12038.800
272.430, 12060.890
272.912, 12087.090
273.395, 12129.170
273.877, 12190.010
274.359, 12243.850
274.841, 12292.430
275.323, 12331.880
275.805, 12347.400
276.287, 12352.110
276.769, 12374.390
277.251, 12438.260
277.734, 12535.240
278.216, 12608.450
278.698, 12645.310
279.180, 12673.020
279.662, 12693.650
280.144, 12711.440
280.626, 12732.700
281.108, 12761.290
281.591, 12791.030
282.073, 12812.770
282.555, 12835.340
283.037, 12825.250
283.519, 12753.680
284.001, 12660.170
284.483, 12572.840
284.965, 12498.610
285.447, 12434.130
285.930, 12384.550
286.412, 12354.030
286.894, 12292.330
287.376, 12163.330
287.858, 12022.410
288.340, 11902.760
288.822, 11806.590
289.304, 11725.940
289.786, 11651.310
290.269, 11586.090
290.751, 11552.420
291.233, 11567.100
291.715, 11588.500
292.197, 11587.950
292.679, 11569.870
293.161, 11545.390
293.643, 11511.620
294.125, 11476.760
294.608, 11456.020
295.090, 11451.640
295.572, 11448.530
296.054, 11432.750
296.536, 11412.180
297.018, 11405.380
297.500, 11424.150
297.983, 11447.110
298.465, 11457.470
298.947, 11456.690
299.429, 11454.020
299.911, 11453.420
300.393, 11453.080
300.875, 11448.790
301.357, 11438.440
301.839, 11429.050
302.322, 11420.880
302.804, 11415.740
303.286, 11419.320
303.768, 11434.370
304.250, 11451.090
304.732, 11455.210
305.214, 11443.630
305.696, 11429.920
306.178, 11411.170
306.661, 11393.190
307.143, 11384.570
307.625, 11384.450
308.107, 11380.590
308.589, 11361.970
309.071, 11327.790
309.553, 11287.200
310.035, 11230.350
310.517, 11178.470
311.000, 11139.710
311.482, 11112.730
311.964, 11093.790
312.446, 11081.420
312.928, 11073.990
313.410, 11064.320
313.892, 11053.180
314.374, 11038.520
314.857, 11015.080
315.339, 10990.610
315.821, 10976.430
316.303, 10975.580
316.785, 10976.030
317.267, 10954.400
317.749, 10894.710
318.231, 10855.720
318.714, 10855.420
319.196, 10862.610
319.678, 10858.960
320.160, 10844.640
320.642, 10832.770
321.124, 10838.710
321.606, 10861.600
322.088, 10870.070
322.570, 10846.030
323.052, 10830.840
323.535, 10848.800
324.017, 10886.280
324.499, 10916.490
324.981, 10920.880
325.463, 10915.810
325.945, 10940.560
326.427, 11006.460
326.909, 11052.070
327.392, 11023.750
327.874, 10973.990
328.356, 10965.090
328.838, 11017.160
329.320, 11073.160
329.802, 11082.920
330.284, 11055.360
330.766, 11035.290
331.249, 11032.660
331.731, 11044.620
332.213, 11070.730
332.695, 11110.770
333.177, 11152.040
333.659, 11207.980
334.141, 11255.390
334.623, 11250.580
335.105, 11188.930
335.588, 11135.490
336.070, 11151.140
336.552, 11234.340
337.034, 11281.550
337.516, 11262.580
337.998, 11238.900
338.480, 11242.920
338.962, 11266.980
339.444, 11287.290
339.927, 11290.460
340.409, 11285.770
340.891, 11301.810
341.373, 11362.590
341.855, 11414.380
342.337, 11447.490
342.819, 11474.540
343.301, 11506.160
343.784, 11545.150
344.266, 11590.470
344.748, 11641.190
345.230, 11699.220
345.712, 11755.280
346.194, 11818.390
346.676, 11871.600
347.158, 11894.140
347.641, 11899.880
348.123, 11924.110
348.605, 11996.720
349.087, 12103.130
349.569, 12175.000
350.051, 12199.540
350.533, 12211.070
351.015, 12209.220
351.497, 12206.150
351.979, 12218.590
352.462, 12253.770
352.944, 12289.540
353.426, 12304.520
353.908, 12298.820
354.390, 12264.960
354.872, 12185.630
355.354, 12093.180
355.836, 12009.910
356.319, 11936.690
356.801, 11885.980
357.283, 11816.780
357.765, 11789.682
358.247, 11752.359
358.729, 11705.361
359.211, 11619.737
359.693, 11584.002
360.176, 11528.271
360.658, 11482.440
361.140, 11418.800
361.622, 11378.150
362.104, 11323.980
362.586, 11262.590
363.068, 11210.600
363.550, 11174.710
364.032, 11152.850
364.515, 11140.900
364.997, 11143.690
365.479, 11148.360
365.961, 11151.070
366.443, 11157.520
366.925, 11159.308
367.407, 11161.095
367.889, 11162.883
368.371, 11164.670
368.854, 11166.458
369.336, 11168.245
369.818, 11170.033
370.300, 11171.820
370.782, 11171.016
371.264, 11170.211
371.746, 11169.407
372.228, 11168.603
372.711, 11167.799
373.193, 11166.994
373.675, 11166.189
374.157, 11165.386
374.639, 11164.581
375.121, 11163.776
375.603, 11162.973
376.085, 11162.168
376.568, 11161.363
377.050, 11160.560
377.532, 11167.390
378.014, 11170.020
378.496, 11167.010
378.978, 11158.880
379.460, 11140.010
379.942, 11116.130
380.424, 11100.530
380.906, 11103.470
381.389, 11109.780
381.871, 11110.770
382.353, 11105.310
382.835, 11083.270
383.317, 11032.980
383.799, 10974.600
384.281, 10955.060
384.763, 10985.540
385.246, 11018.950
385.728, 11052.080
386.210, 11082.100
386.692, 11106.140
387.174, 11123.900
387.656, 11137.060
388.138, 11147.690
388.620, 11156.180
389.103, 11155.580
389.585, 11121.920
390.067, 11105.940
390.549, 11133.540
391.031, 11185.530
391.513, 11233.620
391.995, 11265.270
392.477, 11283.680
392.959, 11294.330
393.442, 11294.550
393.924, 11294.520
394.406, 11291.760
394.888, 11291.980
395.370, 11300.550
395.852, 11316.530
396.334, 11332.450
396.816, 11345.940
397.298, 11355.310
397.781, 11350.650
398.263, 11325.500
398.745, 11306.160
399.227, 11316.590
399.709, 11341.770
400.191, 11355.590
400.673, 11353.000
401.155, 11340.290
401.638, 11314.280
402.120, 11280.860
402.602, 11258.500
403.084, 11253.680
403.566, 11258.780
404.048, 11267.440
404.530, 11286.800
405.012, 11278.480
405.495, 11211.420
405.977, 11140.060
406.459, 11104.450
406.941, 11100.550
407.423, 11100.110
407.905, 11083.320
408.387, 11055.420
408.869, 11045.080
409.351, 11081.070
409.833, 11095.880
410.316, 11061.450
410.798, 11015.750
411.280, 10994.600
411.762, 11005.210
412.244, 11027.750
412.726, 11039.440
413.208, 11039.540
413.690, 11047.000
414.173, 11070.250
414.655, 11089.320
415.137, 11091.030
415.619, 11081.400
416.101, 11072.100
416.583, 11062.840
417.065, 11060.990
417.547, 11084.200
418.030, 11129.280
418.512, 11157.100
418.994, 11149.640
419.476, 11123.060
419.958, 11100.710
420.440, 11081.620
420.922, 11069.920
421.404, 11069.220
421.886, 11074.850
422.369, 11082.620
422.851, 11092.160
423.333, 11105.470
423.815, 11125.340
424.297, 11150.440
424.779, 11166.160
425.261, 11162.180
425.743, 11161.570
426.225, 11164.220
426.708, 11173.690
427.190, 11200.100
427.672, 11243.990
428.154, 11284.580
428.636, 11291.660
429.118, 11260.160
429.600, 11234.570
430.082, 11217.290
430.565, 11204.150
431.047, 11198.250
431.529, 11194.420
432.011, 11180.300
432.493, 11141.890
432.975, 11103.160
433.457, 11106.320
433.939, 11149.190
434.422, 11169.460
434.904, 11136.830
435.386, 11084.220
435.868, 11057.700
436.350, 11057.290
436.832, 11068.920
437.314, 11031.277
437.796, 11069.908
438.278, 11090.024
438.760, 11092.621
439.243, 11025.225
439.725, 11048.209
440.207, 11034.974
440.689, 11020.253
441.171, 11055.958
441.653, 10998.742
442.135, 11033.648
442.617, 11031.780
443.100, 11021.390
443.582, 11011.850
444.064, 11018.340
444.546, 11036.820
445.028, 11067.530
445.510, 11086.930
445.992, 11085.410
446.474, 11086.400
446.957, 11110.600
447.439, 11140.630
447.921, 11147.530
448.403, 11116.000
448.885, 11075.310
449.367, 11051.740
449.849, 11043.760
450.331, 11045.960
450.813, 11060.470
451.296, 11076.530
451.778, 11083.330
452.260, 11081.210
452.742, 11068.330
453.224, 11026.310
453.706, 10989.860
454.188, 10985.500
454.670, 11005.930
455.152, 11030.640
455.635, 11049.790
456.117, 11063.700
456.599, 11072.090
457.081, 11064.870
457.563, 11070.730
458.045, 11101.160
458.527, 11133.450
459.009, 11151.160
459.492, 11156.890
459.974, 11166.680
460.456, 11196.830
460.938, 11236.420
461.420, 11249.730
461.902, 11230.310
462.384, 11207.960
462.866, 11189.490
463.349, 11176.670
463.831, 11172.710
464.313, 11179.180
464.795, 11186.100
465.277, 11187.190
465.759, 11186.310
466.241, 11190.710
466.723, 11201.050
467.205, 11209.940
467.688, 11211.350
468.170, 11206.360
468.652, 11204.320
469.134, 11202.860
469.616, 11206.880
470.098, 11225.560
470.580, 11245.940
471.062, 11253.020
471.544, 11243.990
472.027, 11227.380
472.509, 11210.600
472.991, 11193.380
473.473, 11167.922
473.955, 11175.396
474.437, 11174.878
474.919, 11166.795
475.401, 11128.493
475.884, 11129.213
476.366, 11114.293
476.848, 11098.733
477.330, 11104.946
477.812, 11071.039
478.294, 11076.906
478.776, 11066.896
479.258, 11064.150
479.741, 11045.672
480.223, 11032.054
480.705, 11034.175
481.187, 11027.582
481.669, 11007.292
482.151, 10988.510
482.633, 10976.140
483.115, 10988.830
483.597, 11033.250
484.079, 11085.600
484.562, 11107.630
485.044, 11088.860
485.526, 11078.040
486.008, 11083.510
486.490, 11088.930
486.972, 11077.460
487.454, 11063.220
487.936, 11076.670
488.419, 11138.860
488.901, 11213.770
489.383, 11251.180
489.865, 11252.970
490.347, 11250.330
490.829, 11244.240
491.311, 11246.780
491.793, 11246.019
492.276, 11251.692
492.758, 11255.804
493.240, 11258.437
493.722, 11255.164
494.204, 11259.518
494.686, 11261.520
495.168, 11268.660
495.650, 11271.350
496.132, 11271.060
496.615, 11269.800
497.097, 11265.000
497.579, 11266.150
498.061, 11280.950
498.543, 11294.030
499.025, 11296.810
499.507, 11292.470
499.989, 11289.820
500.471, 11294.950
500.954, 11299.910
501.436, 11288.340
501.918, 11260.150
502.400, 11240.880
502.882, 11241.490
503.364, 11246.430
503.846, 11239.310
504.328, 11221.200
504.810, 11196.670
505.293, 11161.500
505.775, 11124.800
506.257, 11082.650
506.739, 11044.280
507.221, 11038.910
507.703, 11080.750
508.185, 11138.290
508.668, 11151.660
509.150, 11101.470
509.632, 11056.290
510.114, 11006.840
510.596, 10971.120
511.078, 10967.130
511.560, 10982.240
512.042, 10989.880
512.524, 10975.930
513.006, 10952.690
513.489, 10938.080
513.971, 10931.720
514.453, 10922.030
514.935, 10903.470
515.417, 10885.850
515.899, 10883.020
516.381, 10893.170
516.864, 10895.400
517.346, 10874.500
517.828, 10857.040
518.310, 10867.380
518.792, 10891.540
519.274, 10899.100
519.756, 10878.530
520.238, 10843.820
520.720, 10813.240
521.203, 10782.170
521.685, 10773.830
522.167, 10820.570
522.649, 10857.190
523.131, 10854.990
523.613, 10829.420
524.095, 10807.130
524.577, 10798.290
525.059, 10793.250
525.542, 10778.770
526.024, 10758.130
526.506, 10748.430
526.988, 10754.710
527.470, 10765.870
527.952, 10774.420
528.434, 10779.820
528.916, 10777.940
529.398, 10754.710
529.881, 10740.710
530.363, 10760.000
530.845, 10789.590
531.327, 10800.070
531.809, 10783.840
532.291, 10749.460
532.773, 10698.650
533.255, 10631.140
533.737, 10608.210
534.220, 10660.910
534.702, 10708.130
535.184, 10710.250
535.666, 10696.830
536.148, 10703.160
536.630, 10737.710
537.112, 10775.130
537.594, 10798.700
538.077, 10813.290
538.559, 10826.180
539.041, 10838.160
539.523, 10854.940
540.005, 10884.510
540.487, 10919.250
540.969, 10924.850
541.451, 10868.480
541.933, 10827.280
542.416, 10810.160
542.898, 10806.910
543.380, 10810.750
543.862, 10820.840
544.344, 10839.640
544.826, 10871.080
545.308, 10910.430
545.791, 10948.860
546.273, 10990.250
546.755, 11006.050
547.237, 10966.700
547.719, 10918.710
548.201, 10919.710
548.683, 10968.970
549.165, 11008.700
549.647, 11009.940
550.130, 11007.200
550.612, 11033.760
551.094, 11079.760
551.576, 11111.340
552.058, 11113.630
552.540, 11108.490
553.022, 11135.140
553.504, 11203.590
553.987, 11269.500
554.469, 11334.620
554.951, 11395.560
555.433, 11443.170
555.915, 11487.490
556.397, 11549.000
556.879, 11640.310
557.361, 11728.860
557.843, 11770.380
558.326, 11781.620
558.808, 11823.110
559.290, 11906.330
559.772, 12002.130
560.254, 12084.750
560.736, 12157.780
561.218, 12255.450
561.700, 12396.650
562.182, 12534.360
562.665, 12653.640
563.147, 12769.050
563.629, 12904.020
564.111, 13054.670
564.593, 13188.180
565.075, 13269.290
565.557, 13315.360
566.039, 13399.250
566.521, 13531.040
567.004, 13656.690
567.486, 13763.150
567.968, 13851.160
568.450, 13924.250
568.932, 13982.540
569.414, 14025.870
569.896, 14048.930
570.378, 14061.690
570.860, 14082.550
571.343, 14099.990
571.825, 14082.220
572.307, 14016.020
572.789, 13914.620
573.271, 13797.700
573.753, 13659.930
574.235, 13527.380
574.718, 13400.130
575.200, 13277.840
575.682, 13166.870
576.164, 13058.920
576.646, 12937.680
577.128, 12793.230
577.610, 12660.210
578.092, 12548.830
578.574, 12472.790
579.057, 12411.331
579.539, 12379.742
580.021, 12340.886
580.503, 12295.181
580.985, 12222.074
581.467, 12184.354
581.949, 12132.448
582.431, 12079.969
582.914, 12047.217
583.396, 11978.090
583.878, 11945.043
584.360, 11894.950
584.842, 11850.650
585.324, 11804.300
585.806, 11756.010
586.288, 11698.940
586.770, 11634.160
587.253, 11599.300
587.735, 11612.450
588.217, 11640.190
588.699, 11650.790
589.181, 11643.500
589.663, 11626.480
590.145, 11569.700
590.627, 11537.500
591.109, 11583.450
591.592, 11655.680
592.074, 11679.340
592.556, 11641.670
593.038, 11596.050
593.520, 11598.740
594.002, 11642.430
594.484, 11673.170
594.966, 11683.570
595.448, 11705.360
595.931, 11768.110
596.413, 11835.340
596.895, 11855.660
597.377, 11823.670
597.859, 11800.780
598.341, 11801.210
598.823, 11820.480
599.305, 11866.070
599.787, 11927.080
600.270, 11974.820
600.752, 11997.340
601.234, 12014.360
601.716, 12038.918
602.198, 12070.851
602.680, 12100.989
603.162, 12129.445
603.644, 12153.580
604.127, 12169.410
604.609, 12208.930
605.091, 12243.370
605.573, 12266.020
606.055, 12292.440
606.537, 12339.500
607.019, 12391.320
607.501, 12419.860
607.984, 12427.880
608.466, 12448.610
608.948, 12503.580
609.430, 12577.470
609.912, 12629.930
610.394, 12650.170
610.876, 12672.950
611.358, 12693.510
611.841, 12722.380
612.323, 12780.610
612.805, 12848.410
613.287, 12885.330
613.769, 12874.080
614.251, 12837.390
614.733, 12781.950
615.215, 12718.250
615.697, 12673.500
616.180, 12651.450
616.662, 12625.680
617.144, 12575.330
617.626, 12505.510
618.108, 12442.000
618.590, 12397.630
619.072, 12339.030
619.554, 12248.370
620.036, 12157.960
620.519, 12090.550
621.001, 12042.100
621.483, 11993.710
621.965, 11934.200
622.447, 11873.920
622.929, 11825.550
623.411, 11786.710
623.893, 11748.620
624.375, 11709.040
624.858, 11673.810
625.340, 11649.330
625.822, 11634.500
626.304, 11617.040
626.786, 11589.950
627.268, 11569.590
627.750, 11573.750
628.232, 11573.090
628.714, 11536.270
629.197, 11469.310
629.679, 11408.280
630.161, 11369.250
630.643, 11353.420
631.125, 11373.850
631.607, 11423.880
632.089, 11462.910
632.571, 11481.680
633.054, 11480.310
633.536, 11453.840
634.018, 11402.240
634.500, 11367.730
634.982, 11361.790
635.464, 11357.140
635.946, 11353.250
636.428, 11345.820
636.911, 11326.030
637.393, 11296.820
637.875, 11276.700
638.357, 11290.030
638.839, 11308.760
639.321, 11278.430
639.803, 11204.560
640.285, 11138.010
640.768, 11094.680
641.250, 11053.530
641.732, 10985.960
642.214, 10888.880
642.696, 10835.570
643.178, 10857.970
643.660, 10880.320
644.142, 10895.380
644.624, 10898.700
645.107, 10880.380
645.589, 10843.850
646.071, 10811.000
646.553, 10801.250
647.035, 10801.310
647.517, 10786.880
647.999, 10760.310
648.481, 10737.310
648.963, 10721.220
649.446, 10717.320
649.928, 10736.620
650.410, 10781.160
650.892, 10797.820
651.374, 10749.550
651.856, 10721.160
652.338, 10748.080
652.820, 10788.080
653.302, 10799.100
653.785, 10779.760
654.267, 10762.250
654.749, 10766.660
655.231, 10784.720
655.713, 10803.540
656.195, 10824.630
656.677, 10861.860
657.159, 10922.270
657.641, 10973.850
658.124, 10978.780
658.606, 10936.680
659.088, 10912.160
659.570, 10918.590
660.052, 10925.930
660.534, 10943.530
661.016, 10950.680
661.498, 10919.920
661.981, 10857.630
662.463, 10806.600
662.945, 10799.200
663.427, 10805.310
663.909, 10788.200
