##NAMES=Rhodonite
##RRUFFID=R060363
##IDEAL CHEMISTRY=CaMn^2+^_3_Mn^2+^Si_5_O_15_
##LOCALITY=2600' level, Broken Hill mine, New South Wales, Australia
##OWNER=RRUFF
##SOURCE=Herb Obodda
##DESCRIPTION=Reddish brown cleavage fragment
##STATUS=The identification of this mineral has been confirmed by X-ray diffraction and chemical analysis
##URL=rruff.info/R060363
##MEASURED CHEMISTRY=(Mn_0.75_Fe_0.18_Ca_0.09_)Si_0.99_O_3_
91.53320, 266.6357
92.01532, 263.4039
92.49744, 261.6623
92.97955, 266.7215
93.46167, 273.0571
93.94379, 274.4583
94.42590, 271.9165
94.90802, 267.3068
95.39014, 261.7099
95.87225, 254.8809
96.35437, 248.2547
96.83649, 242.4437
97.31860, 237.2770
97.80072, 232.6154
98.28284, 228.1539
98.76495, 223.7019
99.24707, 219.4856
99.72919, 214.3477
100.2113, 210.8548
100.6934, 209.6379
101.1755, 210.4066
101.6577, 212.5926
102.1398, 215.8147
102.6219, 220.1822
103.1040, 224.8996
103.5861, 229.6946
104.0682, 234.8935
104.5504, 240.1952
105.0325, 245.7128
105.5146, 252.4333
105.9967, 261.8072
106.4788, 274.8021
106.9609, 288.2140
107.4431, 303.3156
107.9252, 318.4317
108.4073, 331.4311
108.8894, 341.7893
109.3715, 349.2832
109.8536, 353.4708
110.3358, 354.3889
110.8179, 353.5977
111.3000, 351.4136
111.7821, 347.9494
112.2642, 344.2727
112.7463, 340.5012
113.2285, 336.8798
113.7106, 333.8294
114.1927, 331.6606
114.6748, 329.4356
115.1569, 325.7428
115.6390, 319.9457
116.1212, 314.1732
116.6033, 308.9673
117.0854, 304.0944
117.5675, 299.2758
118.0496, 294.3088
118.5317, 289.3396
119.0139, 285.1248
119.4960, 281.8499
119.9781, 279.2828
120.4602, 277.6960
120.9423, 276.7616
121.4244, 275.9791
121.9066, 274.9704
122.3887, 273.7152
122.8708, 272.4730
123.3529, 271.4763
123.8350, 270.2895
124.3171, 268.6846
124.7993, 266.6634
125.2814, 264.4265
125.7635, 262.1996
126.2456, 260.0226
126.7277, 257.3444
127.2098, 253.6484
127.6920, 249.6751
128.1741, 246.2115
128.6562, 243.4753
129.1383, 241.0201
129.6204, 238.5061
130.1025, 235.9515
130.5847, 232.8638
131.0668, 228.9526
131.5489, 224.3309
132.0310, 219.3883
132.5131, 214.0583
132.9952, 208.4763
133.4774, 202.7078
133.9595, 196.7624
134.4416, 190.8675
134.9237, 185.3199
135.4058, 180.1765
135.8879, 174.8197
136.3701, 168.9157
136.8522, 162.9227
137.3343, 156.9590
137.8164, 151.0441
138.2985, 145.4728
138.7806, 140.8319
139.2628, 138.1143
139.7449, 134.4755
140.2270, 128.8491
140.7091, 122.6979
141.1912, 117.1879
141.6733, 112.8717
142.1555, 109.6349
142.6376, 107.1828
143.1197, 106.1103
143.6018, 105.2271
144.0839, 104.2544
144.5660, 103.4125
145.0482, 103.1040
145.5303, 103.6082
146.0124, 104.8130
146.4945, 105.8810
146.9766, 106.9308
147.4587, 107.7667
147.9409, 108.1030
148.4230, 108.0644
148.9051, 108.2420
149.3872, 109.2125
149.8693, 110.7677
150.3514, 111.6829
150.8336, 111.6309
151.3157, 111.1214
151.7978, 110.4351
152.2799, 109.5143
152.7620, 108.8589
153.2441, 108.8866
153.7263, 109.4395
154.2084, 110.3866
154.6905, 111.6480
155.1726, 113.2753
155.6547, 115.4014
156.1368, 118.0481
156.6190, 121.2129
157.1011, 124.9729
157.5832, 129.1587
158.0653, 133.5017
158.5474, 137.8090
159.0295, 142.0946
159.5117, 146.5608
159.9938, 151.6787
160.4759, 156.5309
160.9580, 160.9477
161.4401, 164.8466
161.9222, 168.1169
162.4044, 170.7348
162.8865, 172.8149
163.3686, 173.5147
163.8507, 172.6286
164.3328, 170.6882
164.8149, 167.6883
165.2971, 163.7323
165.7792, 159.1243
166.2613, 154.1006
166.7434, 148.3670
167.2255, 143.1668
167.7076, 138.6068
168.1898, 134.3933
168.6719, 130.2524
169.1540, 126.1383
169.6361, 122.3752
170.1182, 119.4396
170.6003, 117.6181
171.0825, 116.0457
171.5646, 114.6672
172.0467, 113.5363
172.5288, 112.8056
173.0109, 112.5580
173.4930, 112.4829
173.9752, 112.0567
174.4573, 111.2690
174.9394, 110.4221
175.4215, 109.7265
175.9036, 109.0299
176.3857, 108.0310
176.8679, 106.6842
177.3500, 104.8767
177.8321, 102.5140
178.3142, 99.58919
178.7963, 96.36874
179.2784, 92.69111
179.7606, 88.64990
180.2427, 85.27975
180.7248, 83.12193
181.2069, 81.57132
181.6890, 80.07994
182.1711, 78.59935
182.6533, 77.28593
183.1354, 76.31270
183.6175, 75.70772
184.0996, 75.22218
184.5817, 74.89397
185.0638, 74.61824
185.5460, 74.32378
186.0281, 73.99776
186.5102, 73.71033
186.9923, 73.55888
187.4744, 73.56215
187.9565, 73.66468
188.4387, 73.88951
188.9208, 74.17647
189.4029, 74.39718
189.8850, 74.53382
190.3671, 74.79585
190.8492, 75.70539
191.3314, 78.30565
191.8135, 79.76814
192.2956, 79.43030
192.7777, 78.27846
193.2598, 77.06544
193.7419, 76.10349
194.2241, 75.35802
194.7062, 74.74668
195.1883, 74.26863
195.6704, 73.95303
196.1525, 73.93227
196.6346, 74.03311
197.1168, 74.05188
197.5989, 73.89854
198.0810, 73.63233
198.5631, 73.42101
199.0452, 73.20867
199.5273, 73.11562
200.0095, 73.06254
200.4916, 73.15453
200.9737, 73.59518
201.4558, 74.51276
201.9379, 75.77041
202.4200, 77.03342
202.9022, 78.45325
203.3843, 79.63577
203.8664, 80.26641
204.3485, 80.52773
204.8306, 80.93443
205.3127, 81.75433
205.7949, 82.80125
206.2770, 83.66673
206.7591, 84.36684
207.2412, 84.89456
207.7233, 85.16641
208.2054, 85.22285
208.6876, 85.28751
209.1697, 85.35588
209.6518, 85.57130
210.1339, 86.16656
210.6160, 87.29461
211.0981, 88.37940
211.5803, 88.95014
212.0624, 89.00605
212.5445, 88.85069
213.0266, 88.23567
213.5087, 87.68505
213.9908, 87.85925
214.4730, 88.98558
214.9551, 90.11320
215.4372, 89.97614
215.9193, 88.30711
216.4014, 87.03921
216.8836, 86.97196
217.3657, 87.38379
217.8478, 87.93495
218.3299, 88.54839
218.8120, 89.10207
219.2941, 89.33560
219.7763, 89.05494
220.2584, 89.10537
220.7405, 89.69057
221.2226, 90.60094
221.7047, 91.72439
222.1868, 93.02821
222.6690, 94.53191
223.1511, 96.31547
223.6332, 98.58718
224.1153, 100.6835
224.5974, 102.2733
225.0795, 103.8523
225.5617, 105.8587
226.0438, 108.3887
226.5259, 111.1082
227.0080, 113.4211
227.4901, 115.0099
227.9722, 116.7379
228.4544, 118.4926
228.9365, 120.4533
229.4186, 122.7895
229.9007, 125.5278
230.3828, 128.5193
230.8649, 131.4598
231.3471, 134.0753
231.8292, 137.1534
232.3113, 141.2083
232.7934, 145.3783
233.2755, 148.8636
233.7576, 151.4615
234.2398, 153.7449
234.7219, 156.6440
235.2040, 160.8744
235.6861, 164.4407
236.1682, 167.0000
236.6503, 169.1015
237.1325, 171.1214
237.6146, 173.1701
238.0967, 175.3369
238.5788, 177.8036
239.0609, 180.8820
239.5430, 183.4641
240.0252, 184.9295
240.5073, 186.1554
240.9894, 188.0915
241.4715, 190.9707
241.9536, 194.1544
242.4357, 196.7803
242.9179, 198.6593
243.4000, 200.7904
243.8821, 203.3875
244.3642, 206.2185
244.8463, 209.2089
245.3284, 212.3860
245.8106, 215.2337
246.2927, 216.9907
246.7748, 217.6236
247.2569, 218.2741
247.7390, 219.1616
248.2211, 220.1316
248.7033, 221.0095
249.1854, 221.7692
249.6675, 222.4491
250.1496, 223.0868
250.6317, 223.6853
251.1138, 224.2008
251.5960, 224.5872
252.0781, 224.9026
252.5602, 225.1566
253.0423, 225.3089
253.5244, 225.6240
254.0065, 226.3498
254.4887, 227.4184
254.9708, 228.7369
255.4529, 230.6026
255.9350, 232.5770
256.4171, 233.8475
256.8992, 234.1893
257.3813, 234.7544
257.8635, 236.9106
258.3456, 239.8252
258.8277, 242.1040
259.3098, 243.1532
259.7919, 243.4553
260.2740, 243.6076
260.7562, 243.5778
261.2383, 243.5299
261.7204, 244.1359
262.2025, 244.6308
262.6846, 243.8924
263.1667, 241.2578
263.6489, 237.6691
264.1310, 234.4701
264.6131, 231.8196
265.0952, 228.8612
265.5773, 224.9478
266.0594, 220.6482
266.5416, 216.4096
267.0237, 212.3118
267.5058, 208.4143
267.9879, 204.7424
268.4700, 201.2920
268.9521, 198.1414
269.4343, 195.6627
269.9164, 193.3189
270.3985, 190.7058
270.8806, 187.7141
271.3627, 184.5620
271.8448, 181.4697
272.3270, 178.3990
272.8091, 175.5165
273.2912, 173.5791
273.7733, 171.3748
274.2554, 167.8628
274.7375, 162.8924
275.2197, 157.6336
275.7018, 153.4363
276.1839, 150.5110
276.6660, 147.3747
277.1481, 143.6057
277.6302, 139.7389
278.1124, 135.9371
278.5945, 132.2589
279.0766, 128.8976
279.5587, 126.2063
280.0408, 124.2928
280.5229, 122.0150
281.0051, 118.8475
281.4872, 115.7160
281.9693, 112.9682
282.4514, 110.6067
282.9335, 108.4721
283.4156, 106.4155
283.8978, 104.4310
284.3799, 102.8071
284.8620, 101.8367
285.3441, 100.9647
285.8262, 99.94523
286.3083, 98.87084
286.7905, 97.97630
287.2726, 97.47607
287.7547, 97.31784
288.2368, 96.98277
288.7189, 95.94772
289.2010, 95.39245
289.6832, 95.86398
290.1653, 96.95298
290.6474, 98.04549
291.1295, 98.77904
291.6116, 99.26402
292.0938, 99.92933
292.5759, 100.7306
293.0580, 101.8170
293.5401, 103.6441
294.0222, 105.5831
294.5043, 106.8529
294.9865, 107.0904
295.4686, 106.7101
295.9507, 106.7950
296.4328, 108.0631
296.9149, 108.4604
297.3970, 107.1446
297.8792, 105.3239
298.3613, 104.1178
298.8434, 103.8408
299.3255, 103.8913
299.8076, 103.2775
300.2897, 101.7926
300.7719, 100.0562
301.2540, 97.73402
301.7361, 95.47244
302.2182, 93.60686
302.7003, 92.22733
303.1824, 91.26248
303.6646, 90.71065
304.1467, 90.76599
304.6288, 90.53096
305.1109, 89.67314
305.5930, 88.83054
306.0751, 88.15970
306.5573, 87.75191
307.0394, 87.74775
307.5215, 88.33578
308.0036, 89.56824
308.4857, 90.68578
308.9678, 91.58974
309.4500, 92.47334
309.9321, 93.40462
310.4142, 94.36130
310.8963, 95.26714
311.3784, 96.05389
311.8605, 96.76081
312.3427, 97.68086
312.8248, 99.01994
313.3069, 100.3611
313.7890, 101.2073
314.2711, 102.1334
314.7532, 103.9870
315.2354, 107.2063
315.7175, 111.3381
316.1996, 115.0264
316.6817, 117.8996
317.1638, 120.9313
317.6459, 124.0797
318.1281, 127.4928
318.6102, 131.3094
319.0923, 135.5674
319.5744, 140.1531
320.0565, 144.9437
320.5386, 150.1591
321.0208, 155.0414
321.5029, 159.3013
321.9850, 163.4551
322.4671, 167.8870
322.9492, 172.6191
323.4313, 177.3523
323.9135, 181.8896
324.3956, 186.3077
324.8777, 190.0773
325.3598, 193.0661
325.8419, 195.5360
326.3240, 197.5202
326.8062, 199.0612
327.2883, 200.2501
327.7704, 201.1570
328.2525, 201.7794
328.7346, 202.1041
329.2167, 201.8902
329.6989, 201.6289
330.1810, 201.6588
330.6631, 201.6747
331.1452, 201.2279
331.6273, 200.0707
332.1094, 198.3217
332.5916, 196.3043
333.0737, 193.7930
333.5558, 191.3965
334.0379, 189.4949
334.5200, 187.5950
335.0021, 185.1528
335.4843, 182.0006
335.9664, 178.6146
336.4485, 175.8528
336.9306, 174.0254
337.4127, 171.8695
337.8948, 168.5091
338.3770, 165.3626
338.8591, 163.4695
339.3412, 162.7951
339.8233, 162.3996
340.3055, 161.3553
340.7876, 159.6133
341.2697, 157.7297
341.7518, 154.8562
342.2339, 152.7401
342.7160, 152.4135
343.1982, 153.4024
343.6803, 154.5386
344.1624, 155.0830
344.6445, 155.1315
345.1266, 155.1636
345.6087, 155.2399
346.0909, 155.1900
346.5730, 155.1496
347.0551, 154.9162
347.5372, 154.1951
348.0193, 152.8147
348.5014, 151.0509
348.9836, 149.4588
349.4657, 148.2335
349.9478, 146.5417
350.4299, 143.7438
350.9120, 140.6485
351.3941, 137.7525
351.8763, 135.1628
352.3584, 132.8617
352.8405, 130.9623
353.3226, 129.4717
353.8047, 127.8288
354.2868, 125.7408
354.7690, 123.7179
355.2511, 122.0793
355.7332, 120.7819
356.2153, 119.6303
356.6974, 118.5775
357.1795, 117.5806
357.6617, 116.4254
358.1438, 114.9792
358.6259, 113.6669
359.1080, 112.8460
359.5901, 112.2922
360.0722, 111.6497
360.5544, 110.7853
361.0365, 109.7875
361.5186, 108.7205
362.0007, 107.5690
362.4828, 106.5167
362.9649, 105.7602
363.4471, 105.0689
363.9292, 104.1585
364.4113, 102.9616
364.8934, 101.7111
365.3755, 100.5925
365.8576, 99.57936
366.3398, 98.49677
366.8219, 97.19582
367.3040, 95.97623
367.7861, 95.23199
368.2682, 94.91253
368.7503, 94.50217
369.2325, 93.90676
369.7146, 93.05404
370.1967, 91.69240
370.6788, 89.71017
371.1609, 87.76965
371.6430, 86.48000
372.1252, 85.65630
372.6073, 84.70182
373.0894, 83.56784
373.5715, 82.25925
374.0536, 80.63735
374.5357, 78.78233
375.0179, 77.16148
375.5000, 76.09930
375.9821, 75.34769
376.4642, 74.25683
376.9463, 72.59673
377.4284, 71.17558
377.9106, 70.36172
378.3927, 69.97031
378.8748, 69.75155
379.3569, 69.66253
379.8390, 69.54729
380.3211, 69.11911
380.8033, 68.25731
381.2854, 67.85314
381.7675, 68.48682
382.2496, 69.23244
382.7317, 69.37483
383.2138, 68.88516
383.6960, 68.03922
384.1781, 66.89606
384.6602, 65.53955
385.1423, 65.13364
385.6244, 66.58475
386.1065, 67.78478
386.5887, 67.95348
387.0708, 67.42018
387.5529, 66.72375
388.0350, 66.08865
388.5171, 65.51476
388.9992, 65.00240
389.4814, 64.64172
389.9635, 64.20477
390.4456, 63.68689
390.9277, 63.09797
391.4098, 62.34371
391.8919, 61.47175
392.3741, 60.74053
392.8562, 60.45814
393.3383, 60.70876
393.8204, 60.75599
394.3025, 60.53273
394.7846, 60.19323
395.2668, 59.82648
395.7489, 59.37591
396.2310, 58.66338
396.7131, 57.54522
397.1952, 56.23299
397.6773, 55.45119
398.1595, 55.31495
398.6416, 55.57703
399.1237, 56.46642
399.6058, 57.52439
400.0879, 58.42271
400.5700, 59.06393
401.0522, 59.46157
401.5343, 59.47303
402.0164, 58.93470
402.4985, 59.00095
402.9806, 60.18941
403.4627, 61.57385
403.9449, 62.82692
404.4270, 63.95461
404.9091, 65.04538
405.3912, 66.13798
405.8733, 67.24287
406.3554, 68.40959
406.8376, 69.72304
407.3197, 70.90474
407.8018, 71.63856
408.2839, 72.27961
408.7660, 73.24210
409.2481, 74.68804
409.7303, 76.15769
410.2124, 77.16364
410.6945, 77.73232
411.1766, 78.24870
411.6587, 78.52959
412.1408, 79.15565
412.6230, 80.79243
413.1051, 83.30859
413.5872, 85.76434
414.0693, 87.66078
414.5514, 89.29598
415.0335, 91.28356
415.5157, 93.72644
415.9978, 95.75224
416.4799, 96.70440
416.9620, 96.78056
417.4441, 96.77928
417.9262, 96.97365
418.4084, 96.76567
418.8905, 95.74039
419.3726, 94.04996
419.8547, 92.06723
420.3368, 89.90573
420.8189, 87.54236
421.3011, 84.94878
421.7832, 82.14567
422.2653, 79.06128
422.7474, 75.34795
423.2295, 71.58076
423.7116, 68.18003
424.1938, 65.19981
424.6759, 62.53947
425.1580, 60.12051
425.6401, 57.94432
426.1222, 55.96859
426.6043, 54.08805
427.0865, 52.49361
427.5686, 51.39121
428.0507, 50.54879
428.5328, 49.61615
429.0149, 48.46131
429.4970, 47.27356
429.9792, 46.39767
430.4613, 46.03706
430.9434, 45.54010
431.4255, 44.79797
431.9076, 44.03894
432.3897, 43.38457
432.8719, 42.83033
433.3540, 42.30042
433.8361, 41.72399
434.3182, 41.12572
434.8003, 40.69965
435.2824, 40.66510
435.7646, 40.46307
436.2467, 39.88723
436.7288, 39.13064
437.2109, 38.32175
437.6930, 37.49621
438.1751, 36.85300
438.6573, 36.72176
439.1394, 37.14455
439.6215, 37.52114
440.1036, 37.95461
440.5857, 38.09894
441.0678, 37.48800
441.5500, 36.35774
442.0321, 35.58988
442.5142, 35.92140
442.9963, 36.77825
443.4784, 37.02188
443.9605, 36.55420
444.4427, 36.25051
444.9248, 36.70662
445.4069, 37.51988
445.8890, 37.93807
446.3711, 37.76824
446.8532, 37.66261
447.3354, 38.18385
447.8175, 39.00521
448.2996, 39.29714
448.7817, 38.80061
449.2638, 38.25330
449.7459, 38.55547
450.2281, 39.77390
450.7102, 40.52706
451.1923, 40.29747
451.6744, 40.00442
452.1565, 40.30674
452.6386, 41.04474
453.1208, 41.65826
453.6029, 41.85057
454.0850, 41.75672
454.5671, 41.75097
455.0492, 42.01662
455.5313, 42.11573
456.0135, 41.79547
456.4956, 41.47329
456.9777, 41.52549
457.4598, 41.96901
457.9419, 42.53184
458.4240, 42.96054
458.9062, 43.25190
459.3883, 43.58469
459.8704, 43.90571
460.3525, 44.34130
460.8346, 45.08295
461.3167, 45.89393
461.7989, 46.39860
462.2810, 46.44876
462.7631, 46.43209
463.2452, 47.00930
463.7273, 48.29618
464.2094, 49.49189
464.6916, 50.50527
465.1737, 51.38498
465.6558, 52.10630
466.1379, 52.70740
466.6200, 53.32913
467.1021, 54.15245
467.5843, 54.99921
468.0664, 55.50427
468.5485, 55.64972
469.0306, 55.59496
469.5127, 55.40246
469.9948, 55.03811
470.4770, 54.41098
470.9591, 53.40426
471.4412, 52.56773
471.9233, 52.48775
472.4054, 52.68822
472.8875, 52.22423
473.3697, 50.90316
473.8518, 49.31028
474.3339, 47.86641
474.8160, 46.60380
475.2981, 45.74963
475.7802, 45.78135
476.2624, 45.71138
476.7445, 45.09088
477.2266, 44.05225
477.7087, 42.81653
478.1908, 41.45794
478.6729, 40.09346
479.1551, 38.94732
479.6372, 38.13896
480.1193, 37.26693
480.6014, 36.01330
481.0835, 34.98225
481.5656, 34.63035
482.0478, 34.80595
482.5299, 35.07096
483.0120, 35.16331
483.4941, 35.07791
483.9762, 34.74109
484.4583, 33.89949
484.9405, 33.33317
485.4226, 33.33597
485.9047, 33.54995
486.3868, 33.73712
486.8689, 33.85537
487.3510, 33.94924
487.8332, 34.01370
488.3153, 34.07405
488.7974, 34.28092
489.2795, 34.69659
489.7616, 35.11780
490.2437, 35.42036
490.7259, 35.64830
491.2080, 35.85415
491.6901, 36.00616
492.1722, 36.21476
492.6543, 36.56265
493.1364, 37.02985
493.6186, 37.57885
494.1007, 38.22237
494.5828, 38.87306
495.0649, 39.45540
495.5470, 39.96846
496.0291, 40.33152
496.5113, 40.34277
496.9934, 40.39059
497.4755, 40.80742
497.9576, 41.44279
498.4397, 41.79859
498.9218, 41.59968
499.4040, 41.31360
499.8861, 42.03865
500.3682, 44.63006
500.8503, 46.66784
501.3324, 47.77941
501.8145, 48.73118
502.2967, 49.97741
502.7788, 51.50126
503.2609, 53.05586
503.7430, 54.46013
504.2251, 55.78666
504.7072, 57.31560
505.1894, 59.13653
505.6715, 60.97221
506.1536, 62.90290
506.6357, 64.72543
507.1178, 66.36079
507.5999, 67.77405
508.0821, 68.71904
508.5642, 68.85061
509.0463, 68.37827
509.5284, 67.95280
510.0105, 67.67136
510.4926, 67.16518
510.9748, 66.16862
511.4569, 64.78294
511.9390, 63.26157
512.4211, 61.53996
512.9032, 59.84157
513.3853, 58.38391
513.8674, 56.99754
514.3495, 55.41119
514.8317, 53.54982
515.3138, 51.49028
515.7959, 49.22770
516.2780, 46.71014
516.7601, 44.75493
517.2422, 43.76082
517.7244, 42.77616
518.2065, 41.41818
518.6886, 39.88997
519.1707, 38.51034
519.6528, 37.39280
520.1349, 36.39969
520.6171, 35.30245
521.0992, 34.01587
521.5813, 32.97499
522.0634, 32.44152
522.5455, 31.90470
523.0276, 31.14855
523.5098, 30.26017
523.9919, 29.40241
524.4740, 28.61651
524.9561, 27.96625
525.4382, 27.58388
525.9203, 27.47654
526.4025, 27.35165
526.8846, 27.12369
527.3667, 26.88461
527.8488, 26.80730
528.3309, 26.84307
528.8130, 26.63519
529.2952, 25.65919
529.7773, 24.71656
530.2594, 24.76181
530.7415, 25.57501
531.2236, 26.05461
531.7057, 25.65311
532.1879, 24.83804
532.6700, 24.49783
533.1521, 24.79889
533.6342, 25.24585
534.1163, 26.21066
534.5984, 26.99466
535.0806, 26.89186
535.5627, 26.18576
536.0448, 25.77814
536.5269, 26.25914
537.0090, 27.28257
537.4911, 27.75342
537.9733, 27.31936
538.4554, 27.11601
538.9375, 27.45005
539.4196, 27.89883
539.9017, 28.33715
540.3839, 28.68235
540.8660, 28.72392
541.3481, 28.12832
541.8302, 27.24889
542.3123, 26.92767
542.7944, 27.22518
543.2766, 27.55561
543.7587, 27.72197
544.2408, 27.77806
544.7229, 27.74504
545.2050, 27.58437
545.6871, 27.65833
546.1693, 28.36286
546.6514, 29.19537
547.1335, 29.50664
547.6156, 29.34208
548.0977, 29.29488
548.5798, 29.73905
549.0620, 30.53969
549.5441, 31.23730
550.0262, 31.98147
550.5083, 32.39610
550.9904, 31.87494
551.4725, 31.48161
551.9547, 32.18553
552.4368, 33.84096
552.9189, 35.60409
553.4010, 36.89145
553.8831, 37.73751
554.3652, 38.20041
554.8474, 38.10180
555.3295, 38.06581
555.8116, 38.36564
556.2937, 38.70582
556.7758, 38.82811
557.2579, 38.73802
557.7401, 38.72078
558.2222, 39.16628
558.7043, 39.70426
559.1864, 39.56210
559.6685, 38.71787
560.1506, 37.98259
560.6328, 37.75454
561.1149, 37.87384
561.5970, 38.01344
562.0791, 38.16034
562.5612, 38.35640
563.0433, 38.46551
563.5255, 38.73140
564.0076, 39.40553
564.4897, 40.44855
564.9718, 41.67411
565.4539, 42.98789
565.9360, 44.31867
566.4182, 45.40053
566.9003, 46.08954
567.3824, 46.81079
567.8645, 47.55181
568.3466, 48.36790
568.8287, 49.40958
569.3109, 50.58187
569.7930, 51.56936
570.2751, 52.24603
570.7572, 52.55435
571.2393, 52.26612
571.7214, 51.33613
572.2036, 50.39988
572.6857, 49.76032
573.1678, 49.08796
573.6499, 47.92476
574.1320, 46.29133
574.6141, 44.73138
575.0963, 43.46360
575.5784, 42.27849
576.0605, 40.93589
576.5426, 39.51044
577.0247, 38.32113
577.5068, 37.54766
577.9890, 36.88318
578.4711, 35.70191
578.9532, 33.55509
579.4353, 32.05375
579.9174, 31.64141
580.3995, 31.34377
580.8817, 30.57196
581.3638, 29.58848
581.8459, 29.05159
582.3280, 29.31828
582.8101, 29.77087
583.2922, 29.21359
583.7744, 27.53792
584.2565, 26.50937
584.7386, 26.68672
585.2207, 27.08036
585.7029, 27.04441
586.1850, 26.67551
586.6671, 26.17584
587.1492, 25.35011
587.6313, 24.73303
