##NAMES=Rhodonite
##RRUFFID=R060363
##IDEAL CHEMISTRY=CaMn^2+^_3_Mn^2+^Si_5_O_15_
##LOCALITY=2600' level, Broken Hill mine, New South Wales, Australia
##OWNER=RRUFF
##SOURCE=Herb Obodda
##DESCRIPTION=Reddish brown cleavage fragment
##STATUS=The identification of this mineral has been confirmed by X-ray diffraction and chemical analysis
##URL=rruff.info/R060363
##MEASURED CHEMISTRY=(Mn_0.75_Fe_0.18_Ca_0.09_)Si_0.99_O_3_
90.49219, 19.59671
90.97430, 19.18931
91.45642, 19.04509
91.93854, 19.56711
92.42065, 20.23334
92.90277, 20.12715
93.38489, 19.05099
93.86700, 17.83991
94.34912, 17.58685
94.83124, 18.16128
95.31335, 18.82697
95.79547, 19.30832
96.27759, 19.55509
96.75970, 19.30159
97.24182, 18.35663
97.72394, 17.08558
98.20605, 16.24821
98.68817, 15.86637
99.17029, 15.72978
99.65240, 15.76692
100.1345, 15.99950
100.6166, 16.05892
101.0988, 15.78525
101.5809, 15.24598
102.0630, 15.04759
102.5451, 15.31177
103.0272, 15.69720
103.5093, 15.79114
103.9915, 15.44215
104.4736, 15.19993
104.9557, 15.29603
105.4378, 15.86171
105.9199, 15.97874
106.4020, 15.27013
106.8842, 14.29756
107.3663, 14.08397
107.8484, 15.43295
108.3305, 16.61258
108.8126, 17.00064
109.2947, 16.02842
109.7769, 15.20925
110.2590, 14.61241
110.7411, 14.17816
111.2232, 13.73717
111.7053, 13.12244
112.1874, 12.61487
112.6696, 12.34620
113.1517, 12.97902
113.6338, 13.15133
114.1159, 12.29297
114.5980, 10.59859
115.0801, 9.439427
115.5623, 9.594305
116.0444, 10.19551
116.5265, 10.57070
117.0086, 10.31204
117.4907, 10.00620
117.9728, 9.792223
118.4550, 9.673112
118.9371, 9.825174
119.4192, 10.68322
119.9013, 11.78096
120.3834, 12.50999
120.8655, 12.40032
121.3477, 11.97515
121.8298, 11.56641
122.3119, 11.19448
122.7940, 10.87428
123.2761, 10.65815
123.7582, 10.50543
124.2404, 10.32558
124.7225, 10.03326
125.2046, 9.698581
125.6867, 9.389604
126.1688, 9.083563
126.6509, 8.878995
127.1331, 8.899154
127.6152, 9.124585
128.0973, 9.458511
128.5794, 10.00148
129.0615, 10.60867
129.5436, 10.90357
130.0258, 10.69685
130.5079, 10.25835
130.9900, 9.998124
131.4721, 9.918375
131.9542, 10.04279
132.4363, 10.49113
132.9185, 11.21625
133.4006, 11.90824
133.8827, 12.56398
134.3648, 13.10663
134.8469, 13.13163
135.3290, 12.50584
135.8112, 11.94655
136.2933, 12.40159
136.7754, 13.93613
137.2575, 15.48307
137.7396, 16.80889
138.2217, 17.88583
138.7039, 18.36005
139.1860, 17.99855
139.6681, 17.40189
140.1502, 17.52472
140.6323, 18.53011
141.1144, 19.70718
141.5966, 20.83869
142.0787, 21.94634
142.5608, 22.82635
143.0429, 23.27043
143.5250, 23.60079
144.0071, 24.62708
144.4893, 26.73985
144.9714, 28.90028
145.4535, 30.62628
145.9356, 31.80449
146.4177, 32.76337
146.8998, 33.14671
147.3820, 33.26772
147.8641, 34.51536
148.3462, 37.80033
148.8283, 41.33862
149.3104, 44.20248
149.7925, 45.54391
150.2747, 47.29390
150.7568, 49.62897
151.2389, 52.50832
151.7210, 55.47716
152.2031, 58.43296
152.6852, 61.50757
153.1674, 64.81735
153.6495, 68.60828
154.1316, 72.35405
154.6137, 76.08346
155.0958, 79.80019
155.5779, 83.13758
156.0601, 85.95312
156.5422, 88.42434
157.0243, 90.66804
157.5064, 92.33889
157.9885, 94.12605
158.4706, 96.25251
158.9528, 98.76022
159.4349, 101.3351
159.9170, 104.1500
160.3991, 106.9149
160.8812, 109.2942
161.3633, 110.7413
161.8455, 112.1429
162.3276, 114.0587
162.8097, 116.7107
163.2918, 118.8927
163.7739, 120.1445
164.2560, 120.4682
164.7382, 119.3391
165.2203, 117.3549
165.7024, 114.9736
166.1845, 112.3376
166.6666, 109.5088
167.1487, 106.2897
167.6309, 102.0986
168.1130, 97.38735
168.5951, 93.18919
169.0772, 89.78655
169.5593, 87.13615
170.0414, 85.36864
170.5236, 84.86602
171.0057, 84.35879
171.4878, 82.47627
171.9699, 79.71217
172.4520, 77.61065
172.9341, 77.60787
173.4163, 78.50639
173.8984, 78.84822
174.3805, 78.03981
174.8626, 77.05795
175.3447, 77.04433
175.8268, 77.77297
176.3090, 78.19263
176.7911, 77.39090
177.2732, 75.85165
177.7553, 74.33913
178.2374, 73.01079
178.7195, 71.82269
179.2017, 70.62577
179.6838, 69.43645
180.1659, 68.54836
180.6480, 68.43491
181.1301, 68.79090
181.6122, 68.84527
182.0944, 68.00935
182.5765, 67.02274
183.0586, 67.33276
183.5407, 68.91706
184.0228, 70.70835
184.5049, 71.62643
184.9871, 71.91634
185.4692, 72.40987
185.9513, 73.31654
186.4334, 74.61420
186.9155, 76.57360
187.3976, 79.26648
187.8798, 81.69292
188.3619, 82.41884
188.8440, 81.74353
189.3261, 81.56958
189.8082, 82.94429
190.2903, 85.30700
190.7725, 86.61966
191.2546, 86.81567
191.7367, 86.41019
192.2188, 85.84940
192.7009, 85.14030
193.1830, 84.52772
193.6652, 84.29610
194.1473, 84.30474
194.6294, 83.56530
195.1115, 81.94386
195.5936, 80.02693
196.0757, 78.56177
196.5579, 77.55778
197.0400, 76.69031
197.5221, 75.87423
198.0042, 75.10760
198.4863, 74.19714
198.9684, 73.01000
199.4506, 71.98481
199.9327, 71.85986
200.4148, 72.70028
200.8969, 73.79140
201.3790, 74.93225
201.8611, 76.12334
202.3433, 77.15967
202.8254, 77.98000
203.3075, 78.74500
203.7896, 79.71509
204.2717, 80.91502
204.7538, 82.20621
205.2360, 83.76814
205.7181, 85.74454
206.2002, 86.52822
206.6823, 85.74180
207.1644, 84.22010
207.6465, 83.57713
208.1287, 84.06099
208.6108, 84.56944
209.0929, 84.66373
209.5750, 84.32470
210.0571, 83.67484
210.5392, 82.69564
211.0214, 81.42857
211.5035, 79.77266
211.9856, 77.41935
212.4677, 75.57014
212.9498, 75.10351
213.4319, 76.66438
213.9140, 76.78003
214.3962, 74.87696
214.8783, 71.85780
215.3604, 69.84346
215.8425, 69.05807
216.3246, 68.72088
216.8067, 68.57385
217.2889, 68.77249
217.7710, 68.57899
218.2531, 67.75787
218.7352, 66.65287
219.2173, 66.16273
219.6994, 66.67326
220.1816, 67.05641
220.6637, 66.64552
221.1458, 64.84574
221.6279, 64.02129
222.1100, 64.54520
222.5921, 65.92269
223.0743, 66.91359
223.5564, 67.47585
224.0385, 67.71754
224.5206, 67.62208
225.0027, 66.99461
225.4848, 66.55791
225.9670, 66.35848
226.4491, 66.34790
226.9312, 66.39127
227.4133, 66.43736
227.8954, 66.62070
228.3775, 67.00945
228.8597, 67.67334
229.3418, 68.37217
229.8239, 69.03706
230.3060, 69.75172
230.7881, 70.79095
231.2702, 72.51169
231.7524, 74.03154
232.2345, 74.85561
232.7166, 74.49901
233.1987, 74.62218
233.6808, 75.39993
234.1629, 76.61297
234.6451, 77.69859
235.1272, 78.57487
235.6093, 79.43705
236.0914, 80.39486
236.5735, 81.58521
237.0556, 82.55244
237.5378, 83.19357
238.0199, 83.64586
238.5020, 84.23763
238.9841, 84.95883
239.4662, 85.84802
239.9483, 86.98040
240.4305, 88.58608
240.9126, 89.82161
241.3947, 90.35826
241.8768, 90.62519
242.3589, 91.75916
242.8410, 94.32019
243.3232, 96.88060
243.8053, 98.79757
244.2874, 99.77083
244.7695, 100.8446
245.2516, 102.1386
245.7337, 103.4927
246.2159, 104.5586
246.6980, 105.3266
247.1801, 105.8242
247.6622, 106.0373
248.1443, 105.8681
248.6264, 105.6727
249.1086, 105.3561
249.5907, 105.0586
250.0728, 105.1380
250.5549, 105.9567
251.0370, 106.5388
251.5191, 106.4171
252.0013, 105.2593
252.4834, 104.5235
252.9655, 104.3673
253.4476, 104.5410
253.9297, 104.6060
254.4118, 104.5587
254.8940, 104.3999
255.3761, 104.0391
255.8582, 103.2984
256.3403, 103.1417
256.8224, 103.9236
257.3046, 105.0185
257.7867, 105.3286
258.2688, 104.5503
258.7509, 103.6288
259.2330, 102.7716
259.7151, 101.8849
260.1973, 101.7004
260.6794, 102.6702
261.1615, 103.9082
261.6436, 103.9406
262.1257, 102.1314
262.6078, 100.6964
263.0900, 100.6087
263.5721, 102.1355
264.0542, 102.2372
264.5363, 100.3774
265.0184, 97.73403
265.5005, 95.77527
265.9827, 94.75040
266.4648, 93.72938
266.9469, 92.45534
267.4290, 90.92745
267.9111, 89.43559
268.3932, 87.99506
268.8754, 86.58260
269.3575, 85.09212
269.8396, 83.37257
270.3217, 82.11406
270.8038, 81.68253
271.2859, 82.00565
271.7681, 81.63797
272.2502, 80.36357
272.7323, 78.84895
273.2144, 77.84985
273.6965, 77.47572
274.1786, 76.99673
274.6608, 76.24154
275.1429, 75.24302
275.6250, 74.15250
276.1071, 72.89343
276.5892, 71.76419
277.0714, 71.11671
277.5535, 70.99593
278.0356, 70.94318
278.5177, 71.00741
278.9998, 71.04450
279.4819, 70.32204
279.9641, 68.67552
280.4462, 66.92950
280.9283, 65.80685
281.4104, 65.34218
281.8925, 64.68202
282.3746, 63.61934
282.8568, 62.33791
283.3389, 61.40626
283.8210, 60.86652
284.3031, 60.34542
284.7852, 59.43144
285.2673, 58.17522
285.7495, 57.44595
286.2316, 57.51820
286.7137, 57.92362
287.1958, 57.48027
287.6779, 56.15031
288.1600, 55.12367
288.6422, 55.41725
289.1243, 56.81933
289.6064, 57.73896
290.0885, 57.98290
290.5706, 57.89725
291.0527, 57.91202
291.5349, 58.03767
292.0170, 58.42656
292.4991, 59.48775
292.9812, 60.93416
293.4633, 61.54026
293.9454, 61.10648
294.4276, 60.43502
294.9097, 60.70683
295.3918, 61.74726
295.8739, 62.63490
296.3560, 62.77556
296.8381, 62.45664
297.3203, 62.36782
297.8024, 62.54498
298.2845, 62.74728
298.7666, 62.69684
299.2487, 62.45827
299.7308, 62.22875
300.2130, 62.08000
300.6951, 61.99315
301.1772, 61.96438
301.6593, 61.99401
302.1414, 61.99782
302.6235, 61.87881
303.1057, 61.68235
303.5878, 61.49978
304.0699, 61.34003
304.5520, 61.22519
305.0341, 61.03027
305.5162, 60.80510
305.9984, 60.98393
306.4805, 62.26467
306.9626, 64.04478
307.4447, 65.44974
307.9268, 66.13120
308.4089, 66.53758
308.8911, 66.83953
309.3732, 67.12778
309.8553, 67.77808
310.3374, 69.23695
310.8195, 71.06396
311.3016, 72.80809
311.7838, 74.33994
312.2659, 75.84499
312.7480, 77.20340
313.2301, 78.58681
313.7122, 80.44404
314.1943, 83.53915
314.6765, 86.84924
315.1586, 89.57080
315.6407, 91.37822
316.1228, 93.32518
316.6049, 95.92338
317.0870, 98.98386
317.5692, 102.1518
318.0513, 105.2633
318.5334, 108.5111
319.0155, 112.1190
319.4976, 116.2344
319.9797, 119.9726
320.4619, 122.6515
320.9440, 124.9495
321.4261, 127.5908
321.9082, 130.8868
322.3903, 134.4396
322.8724, 138.3731
323.3546, 142.6967
323.8367, 146.4353
324.3188, 149.1215
324.8009, 151.3228
325.2830, 153.4446
325.7651, 156.0938
326.2473, 158.0838
326.7294, 158.7244
327.2115, 158.2685
327.6936, 158.7011
328.1757, 160.9628
328.6578, 163.5313
329.1400, 165.6676
329.6221, 167.2143
330.1042, 168.5145
330.5863, 169.7057
331.0684, 170.6552
331.5505, 170.9378
332.0327, 170.1219
332.5148, 169.1461
332.9969, 168.3882
333.4790, 168.0416
333.9611, 167.4575
334.4432, 166.8728
334.9254, 165.9041
335.4075, 163.8326
335.8896, 160.1911
336.3717, 156.3431
336.8538, 152.6344
337.3359, 149.0024
337.8180, 145.9052
338.3001, 143.5009
338.7823, 141.3968
339.2644, 139.1642
339.7465, 136.7142
340.2286, 134.4471
340.7107, 132.4001
341.1928, 130.5966
341.6750, 129.4421
342.1571, 128.9980
342.6392, 128.8989
343.1213, 128.9467
343.6034, 129.1449
344.0855, 129.1406
344.5677, 128.8133
345.0498, 128.3127
345.5319, 128.0885
346.0140, 128.1557
346.4961, 128.0831
346.9782, 127.5526
347.4604, 126.6293
347.9425, 125.6816
348.4246, 124.7765
348.9067, 123.7318
349.3888, 122.2954
349.8709, 120.4861
350.3531, 118.3993
350.8352, 116.2030
351.3173, 113.7493
351.7994, 110.5372
352.2815, 106.5087
352.7636, 102.3931
353.2458, 98.82188
353.7279, 95.68684
354.2100, 92.75813
354.6921, 90.03564
355.1742, 87.42662
355.6563, 84.63488
356.1385, 81.72692
356.6206, 79.26017
357.1027, 77.95948
357.5848, 77.19379
358.0669, 76.18271
358.5490, 74.54630
359.0312, 72.88464
359.5133, 71.55381
359.9954, 70.49694
360.4775, 69.51721
360.9596, 68.49787
361.4417, 67.53932
361.9239, 66.72250
362.4060, 66.11569
362.8881, 65.48700
363.3702, 64.63924
363.8523, 63.73574
364.3344, 63.02693
364.8166, 62.83522
365.2987, 62.62228
365.7808, 62.08680
366.2629, 61.13523
366.7450, 60.52129
367.2271, 60.65941
367.7093, 61.04086
368.1914, 61.21852
368.6735, 61.22264
369.1556, 60.94082
369.6377, 60.20548
370.1198, 59.08247
370.6020, 58.17860
371.0841, 57.46607
371.5662, 56.99647
372.0483, 56.82422
372.5304, 57.14718
373.0125, 57.39291
373.4947, 57.53320
373.9768, 57.59331
374.4589, 57.62561
374.9410, 57.60979
375.4231, 57.60737
375.9052, 57.63884
376.3874, 57.70459
376.8695, 57.75871
377.3516, 57.69897
377.8337, 57.80122
378.3158, 58.49623
378.7979, 59.86594
379.2801, 61.24838
379.7622, 62.50490
380.2443, 63.63237
380.7264, 64.61279
381.2085, 65.41190
381.6906, 66.27354
382.1728, 67.67822
382.6549, 69.46327
383.1370, 70.34738
383.6191, 69.78015
384.1012, 68.83401
384.5833, 69.62845
385.0655, 71.92212
385.5476, 73.87666
386.0297, 74.17999
386.5118, 73.50745
386.9939, 73.11717
387.4760, 73.15343
387.9582, 73.17223
388.4403, 72.73441
388.9224, 71.96654
389.4045, 71.14013
389.8866, 70.13383
390.3687, 69.26946
390.8509, 68.91065
391.3330, 69.02360
391.8151, 69.20958
392.2972, 69.20763
392.7793, 69.17673
393.2614, 69.29716
393.7436, 69.87976
394.2257, 70.23994
394.7078, 69.85100
395.1899, 68.99387
395.6720, 68.40600
396.1541, 68.35725
396.6363, 68.60230
397.1184, 69.01785
397.6005, 69.55468
398.0826, 70.37771
398.5647, 71.70126
399.0468, 73.26003
399.5290, 74.73241
400.0111, 75.73258
400.4932, 77.04301
400.9753, 78.87421
401.4574, 81.23344
401.9395, 83.55051
402.4217, 85.65747
402.9038, 87.91677
403.3859, 90.59253
403.8680, 93.84256
404.3501, 97.14926
404.8322, 100.4508
405.3144, 103.7862
405.7965, 107.1678
406.2786, 110.6267
406.7607, 114.0858
407.2428, 117.4409
407.7249, 120.6941
408.2071, 124.2822
408.6892, 128.2616
409.1713, 132.4630
409.6534, 136.7515
410.1355, 141.1036
410.6176, 145.3532
411.0998, 149.2944
411.5819, 153.2378
412.0640, 158.0526
412.5461, 163.6749
413.0282, 169.5519
413.5103, 175.1143
413.9925, 180.5645
414.4746, 186.5837
414.9567, 193.5906
415.4388, 200.3009
415.9209, 205.7109
416.4030, 209.8452
416.8852, 212.9150
417.3673, 215.0360
417.8494, 216.0771
418.3315, 216.1002
418.8136, 215.1123
419.2957, 212.5187
419.7779, 207.5733
420.2600, 201.0351
420.7421, 193.7504
421.2242, 185.7031
421.7063, 177.1518
422.1884, 167.6369
422.6706, 157.5240
423.1527, 147.8150
423.6348, 138.6555
424.1169, 130.1485
424.5990, 122.2986
425.0811, 115.3557
425.5633, 108.6296
426.0454, 101.6861
426.5275, 95.12395
427.0096, 89.66570
427.4917, 85.97099
427.9738, 82.43574
428.4560, 78.68019
428.9381, 74.70457
429.4202, 71.27686
429.9023, 68.59166
430.3844, 66.16548
430.8665, 63.62481
431.3487, 60.87402
431.8308, 58.63177
432.3129, 57.06708
432.7950, 55.89939
433.2771, 54.57754
433.7592, 53.10257
434.2414, 51.71975
434.7235, 50.53826
435.2056, 49.54228
435.6877, 48.70152
436.1698, 48.02729
436.6519, 47.40100
437.1341, 46.57657
437.6162, 45.71235
438.0983, 45.23051
438.5804, 45.38301
439.0625, 45.76922
439.5446, 46.08759
440.0268, 46.29062
440.5089, 46.20339
440.9910, 45.23964
441.4731, 44.22597
441.9552, 43.93612
442.4373, 44.54859
442.9195, 45.40265
443.4016, 46.29586
443.8837, 47.19847
444.3658, 48.07424
444.8479, 49.19346
445.3300, 50.00159
445.8122, 50.10618
446.2943, 49.61124
446.7764, 49.45592
447.2585, 50.08913
447.7406, 50.85404
448.2227, 51.41340
448.7049, 51.54395
449.1870, 51.89569
449.6691, 52.68586
450.1512, 53.58754
450.6333, 53.99432
451.1154, 53.51400
451.5976, 53.41434
452.0797, 54.21882
452.5618, 55.82934
453.0439, 56.73836
453.5260, 56.84320
454.0081, 56.52119
454.4903, 55.95947
454.9724, 55.16677
455.4545, 54.41552
455.9366, 53.73742
456.4187, 53.13018
456.9008, 52.66545
457.3830, 52.31134
457.8651, 51.87592
458.3472, 51.21578
458.8293, 50.42417
459.3114, 49.64738
459.7935, 48.89330
460.2757, 48.12920
460.7578, 47.36180
461.2399, 46.56693
461.7220, 45.66979
462.2041, 44.43334
462.6862, 43.44591
463.1684, 43.40257
463.6505, 43.90568
464.1326, 44.03606
464.6147, 43.21044
465.0968, 42.09367
465.5789, 40.91059
466.0611, 39.62795
466.5432, 38.70390
467.0253, 38.64696
467.5074, 38.77149
467.9895, 38.50322
468.4716, 37.34934
468.9538, 36.38559
469.4359, 35.78012
469.9180, 35.41510
470.4001, 34.88914
470.8822, 34.06214
471.3643, 33.33432
471.8465, 32.92664
472.3286, 32.89145
472.8107, 32.59330
473.2928, 31.96259
473.7749, 31.25207
474.2570, 30.73560
474.7392, 30.41249
475.2213, 30.20367
475.7034, 30.13227
476.1855, 30.11646
476.6676, 29.96279
477.1497, 29.68606
477.6319, 29.43531
478.1140, 29.40465
478.5961, 29.42276
479.0782, 29.14992
479.5603, 28.54412
480.0424, 27.92565
480.5246, 27.46013
481.0067, 27.17114
481.4888, 27.08675
481.9709, 27.19973
482.4530, 27.53416
482.9352, 28.33965
483.4173, 29.42010
483.8994, 30.15580
484.3815, 29.95492
484.8636, 29.67551
485.3457, 29.71666
485.8279, 30.15503
486.3100, 30.73824
486.7921, 31.63449
487.2742, 32.56208
487.7563, 33.25650
488.2384, 33.41206
488.7206, 33.88577
489.2027, 34.91588
489.6848, 36.30920
490.1669, 37.33596
490.6490, 37.87835
491.1311, 38.38848
491.6133, 39.12129
492.0954, 40.07355
492.5775, 40.74495
493.0596, 41.06215
493.5417, 41.39674
494.0238, 42.28138
494.5060, 43.58118
494.9881, 44.63659
495.4702, 45.20201
495.9523, 45.56263
496.4344, 46.06654
496.9165, 46.69525
497.3987, 47.37652
497.8808, 48.09801
498.3629, 48.84358
498.8450, 49.50085
499.3271, 50.05085
499.8092, 50.92185
500.2914, 52.58004
500.7735, 54.55513
501.2556, 56.44519
501.7377, 58.00299
502.2198, 59.61330
502.7019, 61.38507
503.1841, 63.27772
503.6662, 65.19115
504.1483, 67.11910
504.6304, 69.11072
505.1125, 71.30689
505.5946, 73.78385
506.0768, 75.50578
506.5589, 76.19654
507.0410, 76.52360
507.5231, 77.22005
508.0052, 78.51196
508.4873, 78.56577
508.9695, 76.89037
509.4516, 74.34728
509.9337, 72.62416
510.4158, 71.66720
510.8979, 70.46920
511.3800, 68.51514
511.8622, 66.02842
512.3443, 63.39609
512.8264, 60.64778
513.3085, 57.92802
513.7906, 55.26962
514.2728, 52.74232
514.7549, 50.48157
515.2370, 48.59924
515.7191, 46.72001
516.2012, 44.41874
516.6833, 42.01648
517.1655, 39.96720
517.6476, 38.71087
518.1297, 37.54345
518.6118, 36.16470
519.0939, 34.60538
519.5760, 33.27465
520.0582, 32.41352
520.5403, 31.63857
521.0224, 30.80609
521.5045, 29.89109
521.9866, 28.94809
522.4688, 27.84185
522.9509, 26.85632
523.4330, 26.45593
523.9151, 26.80723
524.3972, 26.78547
524.8793, 26.01981
525.3615, 24.84458
525.8436, 24.12110
526.3257, 23.84317
526.8078, 23.71523
527.2899, 23.60533
527.7720, 23.51085
528.2542, 23.42859
528.7363, 23.35893
529.2184, 23.29717
529.7005, 23.13589
530.1826, 23.01351
530.6647, 23.17837
531.1469, 24.03813
531.6290, 24.62816
532.1111, 23.81038
532.5932, 22.37214
533.0753, 21.91957
533.5574, 24.30155
534.0396, 26.41046
534.5217, 27.00460
535.0038, 25.93774
535.4859, 25.11959
535.9680, 24.47238
536.4501, 24.21152
536.9323, 24.55777
537.4144, 25.91234
537.8965, 26.70159
538.3786, 26.67673
538.8607, 26.37942
539.3428, 26.69969
539.8250, 27.69727
540.3071, 28.53719
540.7892, 28.95877
541.2713, 29.08371
541.7534, 29.13955
542.2355, 29.13264
542.7177, 29.12857
543.1998, 29.12412
543.6819, 29.16635
544.1640, 29.34310
544.6461, 29.66416
545.1282, 30.03024
545.6104, 30.16571
546.0925, 30.38891
546.5746, 31.09178
547.0567, 32.90335
547.5388, 34.47717
548.0209, 35.06112
548.5031, 35.08939
548.9852, 35.53228
549.4673, 36.86646
549.9494, 38.28389
550.4315, 39.62105
550.9136, 40.87794
551.3958, 41.99541
551.8779, 42.79237
552.3600, 43.75891
552.8421, 45.35271
553.3242, 47.68573
553.8063, 49.56162
554.2885, 50.88352
554.7706, 51.87606
555.2527, 53.04643
555.7348, 54.25694
556.2169, 54.57948
556.6990, 53.44264
557.1812, 51.66183
557.6633, 50.34745
558.1454, 49.38564
558.6275, 48.34345
559.1096, 46.99616
559.5917, 45.46003
560.0739, 43.75189
560.5560, 41.86174
561.0381, 40.16016
561.5202, 38.95285
562.0023, 37.91524
562.4844, 36.80708
562.9666, 35.42096
563.4487, 34.21998
563.9308, 33.21069
564.4129, 32.40086
564.8950, 31.78876
565.3771, 31.29883
565.8593, 31.22695
566.3414, 31.84042
566.8235, 32.89757
567.3056, 33.29044
567.7877, 32.95785
568.2698, 32.38131
568.7520, 31.64237
569.2341, 30.87140
569.7162, 30.68747
570.1983, 31.14915
570.6804, 31.57441
571.1625, 31.24218
571.6447, 30.46861
572.1268, 29.75036
572.6089, 29.18572
573.0910, 28.73306
573.5731, 28.49395
574.0552, 28.32471
574.5374, 27.96819
575.0195, 27.09549
575.5016, 26.27452
575.9837, 25.73105
576.4658, 25.44742
576.9479, 25.09719
577.4301, 24.58785
577.9122, 24.11729
578.3943, 23.79031
578.8764, 23.65409
579.3585, 23.37223
579.8406, 22.86784
580.3228, 22.38848
580.8049, 22.29349
581.2870, 22.55001
581.7691, 22.48310
582.2512, 21.84854
582.7333, 21.15413
583.2155, 21.41413
583.6975, 22.29462
584.1796, 22.75628
584.6617, 21.73359
585.1439, 20.49802
585.6260, 20.35649
586.1081, 21.10069
586.5902, 21.66586
