##NAMES=Rhodonite
##RRUFFID=R040041
##IDEAL CHEMISTRY=CaMn^2+^_3_Mn^2+^Si_5_O_15_
##LOCALITY=Franklin, Sussex County, New Jersey, USA
##OWNER=RRUFF
##SOURCE=University of Arizona Mineral Museum
##DESCRIPTION=Pink prismatic crystals
##STATUS=The identification of this mineral has been confirmed by X-ray diffraction and chemical analysis
##URL=rruff.info/R040041
##MEASURED CHEMISTRY=(Mn_0.63_Ca_0.21_Zn_0.12_Mg_0.02_Fe_0.02_)_Î£=1_Si_1.00_O_3_
120.0758, 1549.778
120.5579, 1681.959
121.0400, 1834.645
121.5221, 2026.493
122.0042, 2245.071
122.4864, 2449.201
122.9685, 2629.617
123.4506, 2777.417
123.9327, 2879.747
124.4148, 2921.086
124.8969, 2927.263
125.3791, 2917.460
125.8612, 2892.561
126.3433, 2867.456
126.8254, 2851.592
127.3075, 2844.886
127.7896, 2847.104
128.2718, 2862.290
128.7539, 2885.890
129.2360, 2912.734
129.7181, 2945.282
130.2002, 2968.423
130.6823, 2961.402
131.1645, 2925.902
131.6466, 2878.558
132.1287, 2815.103
132.6108, 2741.199
133.0929, 2695.690
133.5750, 2682.662
134.0572, 2697.386
134.5393, 2732.767
135.0214, 2789.580
135.5035, 2858.708
135.9856, 2932.889
136.4677, 3012.023
136.9498, 3106.525
137.4320, 3231.951
137.9141, 3377.778
138.3962, 3470.187
138.8783, 3509.118
139.3604, 3499.279
139.8425, 3439.480
140.3247, 3318.972
140.8068, 3181.430
141.2889, 3030.116
141.7710, 2859.332
142.2531, 2712.676
142.7352, 2588.525
143.2174, 2487.144
143.6995, 2407.356
144.1816, 2353.193
144.6637, 2315.141
145.1458, 2291.502
145.6279, 2287.179
146.1101, 2285.751
146.5922, 2283.511
147.0743, 2283.888
147.5564, 2298.583
148.0385, 2332.667
148.5206, 2376.366
149.0028, 2424.642
149.4849, 2478.867
149.9670, 2536.230
150.4491, 2600.397
150.9312, 2670.419
151.4133, 2729.677
151.8955, 2779.965
152.3776, 2818.268
152.8597, 2843.039
153.3418, 2857.246
153.8239, 2854.888
154.3060, 2832.633
154.7882, 2789.152
155.2703, 2737.550
155.7524, 2669.677
156.2345, 2597.304
156.7166, 2534.803
157.1987, 2485.079
157.6808, 2445.400
158.1630, 2416.292
158.6451, 2401.065
159.1272, 2386.883
159.6093, 2370.386
160.0914, 2352.547
160.5735, 2335.340
161.0557, 2308.555
161.5378, 2289.483
162.0199, 2289.648
162.5020, 2320.895
162.9841, 2355.508
163.4662, 2382.460
163.9484, 2403.648
164.4305, 2425.518
164.9126, 2450.033
165.3947, 2477.054
165.8768, 2506.817
166.3589, 2548.099
166.8411, 2584.159
167.3232, 2600.433
167.8053, 2599.181
168.2874, 2601.988
168.7695, 2629.909
169.2516, 2667.672
169.7338, 2695.526
170.2159, 2708.936
170.6980, 2707.455
171.1801, 2686.178
171.6622, 2644.293
172.1443, 2599.340
172.6265, 2562.266
173.1086, 2531.634
173.5907, 2505.107
174.0728, 2477.382
174.5549, 2454.372
175.0370, 2445.271
175.5192, 2452.507
176.0013, 2465.586
176.4834, 2478.300
176.9655, 2489.476
177.4476, 2494.996
177.9297, 2499.159
178.4118, 2495.039
178.8940, 2468.202
179.3761, 2411.975
179.8582, 2341.925
180.3403, 2272.798
180.8224, 2205.174
181.3046, 2147.842
181.7867, 2110.952
182.2688, 2088.909
182.7509, 2065.054
183.2330, 2029.388
183.7151, 1996.550
184.1973, 1999.141
184.6794, 2036.877
185.1615, 2075.369
185.6436, 2077.169
186.1257, 2050.637
186.6078, 2035.833
187.0900, 2048.578
187.5721, 2079.066
188.0542, 2104.134
188.5363, 2124.460
189.0184, 2135.731
189.5005, 2132.152
189.9827, 2114.334
190.4648, 2089.958
190.9469, 2061.979
191.4290, 2029.861
191.9111, 1985.874
192.3932, 1926.583
192.8754, 1866.004
193.3575, 1824.613
193.8396, 1802.399
194.3217, 1781.991
194.8038, 1756.508
195.2859, 1726.159
195.7681, 1692.640
196.2502, 1653.544
196.7323, 1615.929
197.2144, 1593.160
197.6965, 1586.412
198.1786, 1584.593
198.6607, 1582.200
199.1429, 1579.087
199.6250, 1579.054
200.1071, 1582.417
200.5892, 1588.793
201.0713, 1596.292
201.5534, 1603.850
202.0356, 1616.800
202.5177, 1641.718
202.9998, 1681.068
203.4819, 1711.811
203.9640, 1728.188
204.4461, 1735.144
204.9283, 1749.493
205.4104, 1771.241
205.8925, 1800.251
206.3746, 1838.256
206.8567, 1887.388
207.3388, 1935.623
207.8210, 1979.892
208.3031, 2021.304
208.7852, 2064.673
209.2673, 2111.329
209.7494, 2157.512
210.2315, 2200.918
210.7137, 2242.845
211.1958, 2278.567
211.6779, 2308.591
212.1600, 2332.813
212.6421, 2338.504
213.1242, 2319.545
213.6064, 2290.855
214.0885, 2268.607
214.5706, 2254.631
215.0527, 2241.297
215.5348, 2225.846
216.0169, 2208.115
216.4991, 2195.119
216.9812, 2188.522
217.4633, 2184.708
217.9454, 2179.041
218.4275, 2171.069
218.9096, 2162.056
219.3917, 2151.741
219.8739, 2139.625
220.3560, 2130.004
220.8381, 2123.865
221.3202, 2119.456
221.8023, 2113.253
222.2844, 2102.367
222.7666, 2095.474
223.2487, 2097.844
223.7308, 2115.283
224.2129, 2118.900
224.6950, 2099.050
225.1771, 2070.765
225.6593, 2065.572
226.1414, 2096.014
226.6235, 2128.362
227.1056, 2148.941
227.5877, 2150.540
228.0698, 2158.477
228.5520, 2172.729
229.0341, 2193.239
229.5162, 2221.426
229.9983, 2261.936
230.4804, 2302.700
230.9625, 2338.219
231.4447, 2364.197
231.9268, 2393.435
232.4089, 2424.049
232.8910, 2458.593
233.3731, 2506.576
233.8552, 2573.383
234.3374, 2645.990
234.8195, 2717.222
235.3016, 2784.892
235.7837, 2856.065
236.2658, 2932.519
236.7479, 3012.886
237.2301, 3091.466
237.7122, 3168.873
238.1943, 3243.491
238.6764, 3317.215
239.1585, 3400.131
239.6406, 3460.347
240.1227, 3487.998
240.6049, 3489.091
241.0870, 3495.895
241.5691, 3509.912
242.0512, 3527.734
242.5333, 3547.045
243.0154, 3566.754
243.4976, 3589.858
243.9797, 3616.713
244.4618, 3646.938
244.9439, 3680.369
245.4260, 3718.180
245.9081, 3757.487
246.3903, 3797.952
246.8724, 3847.326
247.3545, 3880.839
247.8366, 3887.102
248.3187, 3870.002
248.8008, 3874.377
249.2830, 3903.628
249.7651, 3950.743
250.2472, 4010.417
250.7293, 4084.714
251.2114, 4168.404
251.6935, 4262.185
252.1757, 4365.155
252.6578, 4473.990
253.1399, 4586.557
253.6220, 4706.333
254.1041, 4837.168
254.5862, 4985.339
255.0684, 5132.007
255.5505, 5273.891
256.0326, 5412.426
256.5147, 5555.631
256.9968, 5709.331
257.4789, 5863.477
257.9611, 6011.450
258.4432, 6166.278
258.9253, 6285.376
259.4074, 6355.406
259.8895, 6377.473
260.3716, 6389.049
260.8538, 6400.381
261.3359, 6387.032
261.8180, 6323.559
262.3001, 6199.185
262.7822, 6050.521
263.2643, 5878.363
263.7465, 5684.827
264.2286, 5487.692
264.7107, 5285.086
265.1928, 5087.837
265.6749, 4911.524
266.1570, 4758.081
266.6392, 4615.219
267.1213, 4477.862
267.6034, 4347.018
268.0855, 4232.621
268.5676, 4137.189
269.0497, 4054.333
269.5318, 3974.512
270.0139, 3894.378
270.4961, 3832.856
270.9782, 3797.011
271.4603, 3785.698
271.9424, 3777.598
272.4245, 3775.710
272.9066, 3770.980
273.3888, 3751.121
273.8709, 3712.575
274.3530, 3678.561
274.8351, 3657.370
275.3172, 3647.092
275.7993, 3629.407
276.2815, 3605.205
276.7636, 3571.128
277.2457, 3522.650
277.7278, 3458.894
278.2099, 3386.061
278.6920, 3299.240
279.1742, 3202.980
279.6563, 3132.956
280.1384, 3093.780
280.6205, 3063.609
281.1026, 3018.104
281.5847, 2956.355
282.0669, 2897.579
282.5490, 2845.403
283.0311, 2800.192
283.5132, 2763.935
283.9953, 2736.948
284.4774, 2717.559
284.9596, 2706.392
285.4417, 2703.164
285.9238, 2699.602
286.4059, 2688.427
286.8880, 2676.448
287.3701, 2692.756
287.8523, 2739.903
288.3344, 2794.585
288.8165, 2829.396
289.2986, 2848.047
289.7807, 2880.036
290.2628, 2937.251
290.7450, 3011.040
291.2271, 3075.981
291.7092, 3131.842
292.1913, 3189.625
292.6734, 3260.963
293.1555, 3343.410
293.6377, 3425.790
294.1198, 3502.352
294.6019, 3580.688
295.0840, 3677.454
295.5661, 3792.780
296.0482, 3912.431
296.5304, 4028.863
297.0125, 4139.689
297.4946, 4244.412
297.9767, 4339.935
298.4588, 4430.667
298.9409, 4528.072
299.4231, 4629.718
299.9052, 4719.122
300.3873, 4773.252
300.8694, 4805.200
301.3515, 4840.187
301.8336, 4888.003
302.3158, 4935.525
302.7979, 4965.042
303.2800, 4978.354
303.7621, 4985.490
304.2442, 4987.937
304.7263, 4989.935
305.2085, 4998.809
305.6906, 5019.685
306.1727, 5042.008
306.6548, 5058.118
307.1369, 5068.079
307.6190, 5072.510
308.1012, 5070.281
308.5833, 5063.489
309.0654, 5053.410
309.5475, 5038.011
310.0296, 5024.367
310.5117, 5018.769
310.9938, 5019.195
311.4760, 5019.568
311.9581, 5002.288
312.4402, 4991.601
312.9223, 5009.853
313.4044, 5067.288
313.8865, 5136.912
314.3687, 5207.353
314.8508, 5279.152
315.3329, 5353.475
315.8150, 5422.302
316.2971, 5500.130
316.7792, 5596.945
317.2614, 5720.656
317.7435, 5845.551
318.2256, 5964.335
318.7077, 6077.854
319.1898, 6187.028
319.6719, 6310.517
320.1541, 6416.781
320.6362, 6490.546
321.1183, 6528.628
321.6004, 6542.607
322.0825, 6532.470
322.5646, 6500.199
323.0468, 6448.582
323.5289, 6367.473
324.0110, 6276.627
324.4931, 6182.258
324.9752, 6087.087
325.4573, 5981.178
325.9395, 5844.523
326.4216, 5704.046
326.9037, 5587.398
327.3858, 5518.754
327.8679, 5451.056
328.3500, 5372.644
328.8322, 5281.871
329.3143, 5201.579
329.7964, 5134.606
330.2785, 5077.140
330.7606, 5026.000
331.2427, 4978.436
331.7249, 4941.340
332.2070, 4918.597
332.6891, 4909.756
333.1712, 4900.906
333.6533, 4893.555
334.1354, 4884.576
334.6176, 4869.810
335.0997, 4842.106
335.5818, 4825.911
336.0639, 4829.158
336.5460, 4847.059
337.0281, 4851.214
337.5103, 4838.871
337.9924, 4818.465
338.4745, 4793.240
338.9566, 4760.378
339.4387, 4736.251
339.9208, 4725.470
340.4030, 4722.177
340.8851, 4708.293
341.3672, 4681.453
341.8493, 4654.953
342.3314, 4636.081
342.8135, 4625.097
343.2957, 4618.241
343.7778, 4616.276
344.2599, 4617.103
344.7420, 4619.718
345.2241, 4624.182
345.7062, 4621.332
346.1884, 4608.336
346.6705, 4584.309
347.1526, 4542.859
347.6347, 4481.282
348.1168, 4412.017
348.5989, 4348.003
349.0811, 4290.376
349.5632, 4240.747
350.0453, 4205.862
350.5274, 4178.825
351.0095, 4142.318
351.4916, 4095.054
351.9737, 4053.233
352.4558, 4030.857
352.9380, 4025.655
353.4201, 4032.649
353.9022, 4056.942
354.3843, 4088.405
354.8664, 4114.689
355.3485, 4136.420
355.8307, 4162.789
356.3128, 4205.021
356.7949, 4254.088
357.2770, 4298.479
357.7591, 4325.951
358.2412, 4357.056
358.7234, 4411.748
359.2055, 4484.473
359.6876, 4549.309
360.1697, 4592.971
360.6518, 4623.426
361.1339, 4647.085
361.6161, 4661.307
362.0982, 4674.636
362.5803, 4696.173
363.0624, 4719.694
363.5445, 4728.962
364.0266, 4706.035
364.5088, 4677.608
364.9909, 4657.371
365.4730, 4650.927
365.9551, 4643.059
366.4372, 4638.469
366.9193, 4629.965
367.4015, 4605.528
367.8836, 4550.951
368.3657, 4492.679
368.8478, 4441.187
369.3299, 4402.280
369.8120, 4344.902
370.2942, 4259.652
370.7763, 4161.784
371.2584, 4067.985
371.7405, 3981.047
372.2226, 3893.194
372.7047, 3800.058
373.1869, 3702.549
373.6690, 3612.579
374.1511, 3531.637
374.6332, 3457.399
375.1153, 3390.342
375.5974, 3335.131
376.0796, 3270.747
376.5617, 3185.981
377.0438, 3092.711
377.5259, 3034.154
378.0080, 3017.489
378.4901, 3008.333
378.9723, 2984.553
379.4544, 2946.244
379.9365, 2907.969
380.4186, 2869.661
380.9007, 2835.128
381.3828, 2813.201
381.8650, 2803.368
382.3471, 2800.170
382.8292, 2803.089
383.3113, 2810.463
383.7934, 2817.270
384.2755, 2823.428
384.7577, 2828.202
385.2398, 2828.466
385.7219, 2826.154
386.2040, 2827.307
386.6861, 2837.537
387.1682, 2851.134
387.6504, 2863.606
388.1325, 2874.799
388.6146, 2876.995
389.0967, 2862.256
389.5788, 2835.799
390.0609, 2805.018
390.5431, 2774.640
391.0252, 2738.420
391.5073, 2689.549
391.9894, 2630.239
392.4715, 2569.215
392.9536, 2505.310
393.4357, 2445.579
393.9178, 2395.617
394.4000, 2362.862
394.8821, 2328.921
395.3642, 2284.484
395.8463, 2234.836
396.3284, 2190.866
396.8105, 2157.504
397.2927, 2128.609
397.7748, 2102.678
398.2569, 2080.782
398.7390, 2058.053
399.2211, 2030.407
399.7032, 2003.341
400.1854, 1983.250
400.6675, 1971.901
401.1496, 1965.284
401.6317, 1962.411
402.1138, 1963.308
402.5959, 1971.291
403.0781, 1992.857
403.5602, 2013.247
404.0423, 2019.556
404.5244, 2006.643
405.0065, 1996.250
405.4886, 1991.387
405.9708, 1990.544
406.4529, 1987.216
406.9350, 1979.579
407.4171, 1977.705
407.8992, 1991.059
408.3813, 2019.135
408.8635, 2040.986
409.3456, 2055.104
409.8277, 2063.612
410.3098, 2068.910
410.7919, 2071.067
411.2740, 2070.646
411.7562, 2060.436
412.2383, 2048.815
412.7204, 2060.414
413.2025, 2096.006
413.6846, 2133.578
414.1667, 2150.054
414.6489, 2154.013
415.1310, 2161.885
415.6131, 2181.460
416.0952, 2204.598
416.5773, 2223.340
417.0594, 2238.606
417.5416, 2253.535
418.0237, 2268.292
418.5058, 2284.607
418.9879, 2305.420
419.4700, 2336.987
419.9521, 2360.926
420.4343, 2366.331
420.9164, 2359.022
421.3985, 2350.630
421.8806, 2339.333
422.3627, 2332.071
422.8448, 2332.719
423.3270, 2343.336
423.8091, 2353.003
424.2912, 2353.463
424.7733, 2355.643
425.2554, 2370.592
425.7375, 2411.568
426.2197, 2447.470
426.7018, 2470.975
427.1839, 2483.964
427.6660, 2506.511
428.1481, 2540.837
428.6302, 2581.969
429.1124, 2628.684
429.5945, 2682.953
430.0766, 2733.445
430.5587, 2776.672
431.0408, 2818.193
431.5229, 2869.771
432.0051, 2932.094
432.4872, 2999.371
432.9693, 3072.349
433.4514, 3149.447
433.9335, 3219.994
434.4156, 3284.443
434.8977, 3340.014
435.3799, 3387.884
435.8620, 3425.442
436.3441, 3441.049
436.8262, 3421.874
437.3083, 3387.194
437.7904, 3369.522
438.2726, 3364.773
438.7547, 3346.212
439.2368, 3289.762
439.7189, 3211.792
440.2010, 3128.865
440.6831, 3041.063
441.1653, 2959.202
441.6474, 2892.911
442.1295, 2837.396
442.6116, 2783.479
443.0937, 2721.762
443.5758, 2665.620
444.0580, 2621.693
444.5401, 2591.316
445.0222, 2568.266
445.5043, 2557.194
445.9864, 2549.556
446.4685, 2538.010
446.9507, 2517.213
447.4328, 2497.752
447.9149, 2477.919
448.3970, 2459.496
448.8791, 2451.090
449.3612, 2458.987
449.8434, 2468.627
450.3255, 2472.323
450.8076, 2466.232
451.2897, 2467.515
451.7718, 2479.276
452.2539, 2494.755
452.7361, 2502.414
453.2182, 2500.993
453.7003, 2500.833
454.1824, 2505.753
454.6645, 2514.710
455.1466, 2525.088
455.6288, 2537.630
456.1109, 2544.764
456.5930, 2540.064
457.0751, 2524.588
457.5572, 2499.452
458.0393, 2460.920
458.5215, 2421.132
459.0036, 2398.291
459.4857, 2388.406
459.9678, 2378.143
460.4499, 2357.009
460.9320, 2333.651
461.4142, 2315.798
461.8963, 2303.888
462.3784, 2298.356
462.8605, 2301.625
463.3426, 2310.596
463.8247, 2321.634
464.3069, 2337.284
464.7890, 2351.117
465.2711, 2360.176
465.7532, 2365.069
466.2353, 2370.425
466.7174, 2374.299
467.1996, 2380.826
467.6817, 2392.093
468.1638, 2409.822
468.6459, 2429.881
469.1280, 2458.894
469.6101, 2486.756
470.0923, 2494.701
470.5744, 2470.625
471.0565, 2453.804
471.5386, 2456.390
472.0207, 2477.213
472.5028, 2499.618
472.9850, 2525.473
473.4671, 2546.734
473.9492, 2553.318
474.4313, 2546.499
474.9134, 2544.524
475.3955, 2551.842
475.8776, 2562.451
476.3597, 2567.978
476.8419, 2568.403
477.3240, 2562.944
477.8061, 2545.918
478.2882, 2524.888
478.7703, 2512.672
479.2524, 2510.309
479.7346, 2506.169
480.2167, 2491.788
480.6988, 2470.375
481.1809, 2445.555
481.6630, 2407.146
482.1451, 2377.692
482.6273, 2371.771
483.1094, 2384.217
483.5915, 2396.890
484.0736, 2405.021
484.5557, 2411.467
485.0378, 2415.751
485.5200, 2412.558
486.0021, 2421.838
486.4842, 2456.323
486.9663, 2497.122
487.4484, 2522.016
487.9305, 2520.656
488.4127, 2521.862
488.8948, 2527.755
489.3769, 2539.881
489.8590, 2572.332
490.3411, 2632.882
490.8232, 2690.711
491.3054, 2722.268
491.7875, 2728.106
492.2696, 2747.919
492.7517, 2788.465
493.2338, 2830.870
493.7159, 2851.052
494.1981, 2850.628
494.6802, 2838.369
495.1623, 2812.174
495.6444, 2779.478
496.1265, 2754.047
496.6086, 2734.182
497.0908, 2706.945
497.5729, 2653.617
498.0550, 2592.996
498.5371, 2544.787
499.0192, 2517.668
499.5013, 2493.352
499.9835, 2462.737
500.4656, 2429.673
500.9477, 2400.231
501.4298, 2374.732
501.9119, 2354.833
502.3940, 2341.782
502.8762, 2336.001
503.3583, 2332.054
503.8404, 2328.860
504.3225, 2328.069
504.8046, 2330.855
505.2867, 2338.204
505.7689, 2346.739
506.2510, 2356.675
506.7331, 2367.346
507.2152, 2376.567
507.6973, 2383.513
508.1794, 2393.807
508.6616, 2409.304
509.1437, 2429.948
509.6258, 2458.575
510.1079, 2496.093
510.5900, 2529.914
511.0721, 2545.296
511.5543, 2548.341
512.0364, 2554.835
512.5185, 2569.222
513.0006, 2585.105
513.4827, 2595.919
513.9648, 2603.049
514.4470, 2609.862
514.9291, 2625.379
515.4112, 2635.254
515.8933, 2626.486
516.3754, 2598.324
516.8575, 2572.957
517.3397, 2563.417
517.8218, 2556.438
518.3039, 2542.159
518.7860, 2513.099
519.2681, 2484.217
519.7502, 2458.450
520.2324, 2433.055
520.7145, 2401.840
521.1966, 2360.281
521.6787, 2321.029
522.1608, 2288.655
522.6429, 2263.062
523.1251, 2231.957
523.6072, 2192.310
524.0893, 2157.472
524.5714, 2143.284
525.0535, 2147.534
525.5356, 2143.382
526.0178, 2125.367
526.4999, 2101.369
526.9820, 2080.744
527.4641, 2063.935
527.9462, 2051.185
528.4283, 2042.569
528.9105, 2038.214
529.3926, 2040.221
529.8747, 2048.122
530.3568, 2054.557
530.8389, 2054.362
531.3210, 2051.323
531.8032, 2048.486
532.2853, 2045.743
532.7674, 2044.711
533.2495, 2045.152
533.7316, 2047.734
534.2137, 2053.662
534.6959, 2065.955
535.1780, 2078.331
535.6601, 2088.617
536.1422, 2096.986
536.6243, 2110.937
537.1064, 2132.014
537.5885, 2156.051
538.0706, 2182.235
538.5527, 2211.165
539.0349, 2232.809
539.5170, 2244.495
539.9991, 2253.453
540.4812, 2270.724
540.9633, 2295.408
541.4454, 2320.722
541.9276, 2344.895
542.4097, 2367.601
542.8918, 2388.541
543.3739, 2407.632
543.8560, 2424.499
544.3381, 2438.742
544.8203, 2450.756
545.3024, 2462.194
545.7845, 2475.356
546.2666, 2479.709
546.7487, 2465.357
547.2308, 2441.885
547.7130, 2420.322
548.1951, 2402.270
548.6772, 2387.180
549.1593, 2375.762
549.6414, 2367.430
550.1235, 2359.354
550.6057, 2350.217
551.0878, 2343.434
551.5699, 2340.848
552.0520, 2342.879
552.5341, 2344.805
553.0162, 2346.236
553.4984, 2348.608
553.9805, 2353.769
554.4626, 2361.525
554.9447, 2370.484
555.4268, 2381.302
555.9089, 2391.415
556.3911, 2395.329
556.8732, 2394.659
557.3553, 2395.504
557.8374, 2413.224
558.3195, 2426.244
558.8016, 2409.439
559.2838, 2362.036
559.7659, 2315.012
560.2480, 2282.778
560.7301, 2257.786
561.2122, 2234.287
561.6943, 2209.647
562.1765, 2188.662
562.6586, 2172.402
563.1407, 2159.992
563.6228, 2150.636
564.1049, 2146.403
564.5870, 2141.509
565.0692, 2133.150
565.5513, 2122.410
566.0334, 2119.018
566.5155, 2124.325
566.9976, 2131.839
567.4797, 2139.698
567.9619, 2146.885
568.4440, 2146.062
568.9261, 2135.863
569.4082, 2122.267
569.8903, 2107.904
570.3724, 2095.552
570.8546, 2091.356
571.3367, 2103.985
571.8188, 2118.022
572.3009, 2123.254
572.7830, 2120.182
573.2651, 2110.146
573.7473, 2083.798
574.2294, 2058.878
574.7115, 2047.184
575.1936, 2052.350
575.6757, 2051.021
576.1578, 2038.359
576.6400, 2020.610
577.1221, 2000.071
577.6042, 1967.792
578.0863, 1956.931
578.5684, 1978.972
579.0505, 2014.079
579.5327, 2024.444
580.0148, 2008.319
580.4969, 1987.017
580.9790, 1965.150
581.4611, 1944.786
581.9432, 1933.257
582.4254, 1930.216
582.9075, 1929.760
583.3896, 1928.650
583.8717, 1927.229
584.3538, 1925.161
584.8359, 1921.804
585.3181, 1921.494
585.8002, 1936.014
586.2823, 1951.393
586.7644, 1951.963
587.2465, 1909.766
587.7286, 1879.538
588.2108, 1879.356
588.6929, 1900.434
589.1750, 1914.299
589.6571, 1918.797
590.1392, 1919.006
590.6213, 1914.188
591.1035, 1904.468
591.5856, 1904.563
592.0677, 1916.201
592.5498, 1931.729
593.0319, 1947.817
593.5140, 1963.453
593.9962, 1970.273
594.4783, 1966.072
594.9604, 1957.947
595.4425, 1954.288
595.9246, 1953.163
596.4067, 1949.966
596.8889, 1938.914
597.3710, 1929.134
597.8531, 1928.640
598.3352, 1935.239
598.8173, 1941.382
599.2994, 1940.085
599.7816, 1941.389
600.2637, 1952.576
600.7458, 1977.804
601.2279, 1992.031
601.7100, 1989.146
602.1921, 1980.786
602.6743, 1974.216
603.1564, 1968.540
603.6385, 1968.295
604.1206, 1974.010
604.6027, 1984.950
605.0848, 2004.442
605.5670, 2031.349
606.0491, 2048.533
606.5312, 2045.621
607.0133, 2033.798
607.4954, 2030.811
607.9775, 2035.617
608.4597, 2042.836
608.9418, 2053.306
609.4239, 2061.993
609.9060, 2062.029
610.3881, 2051.711
610.8702, 2047.186
611.3524, 2057.655
611.8345, 2074.332
612.3166, 2090.305
612.7987, 2106.954
613.2808, 2120.010
613.7629, 2126.273
614.2451, 2130.835
614.7272, 2143.735
615.2093, 2168.832
615.6914, 2186.662
