##NAMES=Rhodochrosite
##RRUFFID=R050116
##IDEAL CHEMISTRY=Mn^2+^CO_3_
##LOCALITY=Wudong mine, Liubao, Guangxi Autonomous Region, China
##OWNER=RRUFF
##SOURCE=He Xin Jian
##DESCRIPTION=Pink crystal associated with colorless quartz
##STATUS=The identification of this mineral has been confirmed by X-ray diffraction and chemical analysis
##URL=rruff.info/R050116
##MEASURED CHEMISTRY=(Mn_0.81_Fe_0.17_Mg_0.01_Ca_0.01_)CO_3_
125.4375, 58.03254
125.9196, 58.26553
126.4017, 58.39734
126.8838, 58.30745
127.3659, 57.83519
127.8481, 57.66579
128.3302, 57.94880
128.8123, 58.48390
129.2944, 59.10342
129.7765, 59.78875
130.2586, 60.44427
130.7408, 60.96270
131.2229, 61.39274
131.7050, 61.54507
132.1871, 61.07431
132.6692, 60.18994
133.1513, 59.70248
133.6335, 60.04173
134.1156, 60.69442
134.5977, 61.08392
135.0798, 61.16808
135.5619, 61.20771
136.0440, 61.39717
136.5262, 61.72629
137.0083, 62.27691
137.4904, 63.50820
137.9725, 64.72658
138.4546, 65.41371
138.9367, 65.40311
139.4189, 65.00737
139.9010, 64.76495
140.3831, 64.59274
140.8652, 64.77905
141.3473, 65.65533
141.8294, 66.73176
142.3116, 67.47916
142.7937, 67.63010
143.2758, 67.36102
143.7579, 67.44292
144.2400, 68.23434
144.7221, 69.01797
145.2043, 69.63474
145.6864, 70.18176
146.1685, 70.84952
146.6506, 71.78728
147.1327, 72.96236
147.6148, 73.91180
148.0969, 74.19322
148.5791, 74.70937
149.0612, 75.93950
149.5433, 77.81518
150.0254, 79.92300
150.5075, 82.02312
150.9896, 84.08853
151.4718, 85.96111
151.9539, 87.32195
152.4360, 88.67882
152.9181, 90.67782
153.4002, 93.43980
153.8823, 96.13268
154.3645, 97.56186
154.8466, 98.35430
155.3287, 99.85995
155.8108, 102.9258
156.2929, 106.9842
156.7750, 110.6850
157.2572, 113.6817
157.7393, 116.9123
158.2214, 120.9932
158.7035, 125.6938
159.1856, 130.5103
159.6677, 135.1039
160.1499, 139.4843
160.6320, 143.9948
161.1141, 148.3097
161.5962, 153.1137
162.0783, 158.9897
162.5604, 165.6744
163.0426, 172.3538
163.5247, 178.4051
164.0068, 183.8858
164.4889, 188.2372
164.9710, 190.0154
165.4531, 191.9609
165.9353, 195.6160
166.4174, 200.9108
166.8995, 206.5842
167.3816, 210.9527
167.8637, 213.0446
168.3458, 216.4953
168.8279, 221.8344
169.3101, 227.9546
169.7922, 233.9662
170.2743, 239.7025
170.7564, 245.6888
171.2385, 252.8136
171.7206, 261.4531
172.2028, 270.4817
172.6849, 279.5488
173.1670, 289.0925
173.6491, 299.3891
174.1312, 310.4853
174.6133, 322.8513
175.0955, 337.7422
175.5776, 355.2970
176.0597, 373.3017
176.5418, 390.4122
177.0239, 407.5206
177.5060, 427.0965
177.9882, 450.4412
178.4703, 475.8063
178.9524, 501.2118
179.4345, 526.7751
179.9166, 551.6061
180.3987, 575.3803
180.8809, 598.1099
181.3630, 619.4021
181.8451, 641.6964
182.3272, 659.6346
182.8093, 670.3707
183.2914, 673.6727
183.7736, 667.8445
184.2557, 649.9213
184.7378, 619.0429
185.2199, 583.3229
185.7020, 540.2446
186.1841, 495.3412
186.6663, 450.7956
187.1484, 407.2115
187.6305, 365.6864
188.1126, 327.2147
188.5947, 291.8051
189.0768, 260.6935
189.5589, 234.1911
190.0411, 211.2454
190.5232, 191.2792
191.0053, 174.1064
191.4874, 159.3859
191.9695, 146.4098
192.4516, 136.0604
192.9338, 126.3619
193.4159, 116.5069
193.8980, 107.4189
194.3801, 100.0802
194.8622, 94.78941
195.3443, 90.90157
195.8265, 86.90519
196.3086, 82.56710
196.7907, 78.36454
197.2728, 73.95384
197.7549, 69.80186
198.2370, 66.52537
198.7192, 64.40086
199.2013, 63.07446
199.6834, 61.64845
200.1655, 60.00766
200.6476, 58.43371
201.1297, 56.95374
201.6119, 55.57285
202.0940, 54.34310
202.5761, 53.31570
203.0582, 52.39988
203.5403, 51.32969
204.0224, 49.93893
204.5046, 48.73858
204.9867, 48.08708
205.4688, 47.79035
205.9509, 47.31999
206.4330, 46.43063
206.9151, 45.28891
207.3972, 44.15135
207.8794, 42.84258
208.3615, 41.96686
208.8436, 42.20104
209.3257, 43.33143
209.8078, 44.11585
210.2899, 44.00084
210.7721, 43.35920
211.2542, 42.73770
211.7363, 42.15851
212.2184, 41.57658
212.7005, 40.92330
213.1826, 40.19677
213.6648, 39.56467
214.1469, 39.06338
214.6290, 38.70031
215.1111, 38.50529
215.5932, 38.49124
216.0753, 38.55185
216.5575, 38.59779
217.0396, 38.63505
217.5217, 38.61569
218.0038, 38.45729
218.4859, 38.27883
218.9680, 38.14968
219.4502, 38.08434
219.9323, 38.05676
220.4144, 38.05134
220.8965, 38.09592
221.3786, 38.06528
221.8607, 37.81850
222.3429, 37.57868
222.8250, 37.52608
223.3071, 37.68666
223.7892, 37.90242
224.2713, 37.94536
224.7534, 37.78127
225.2356, 37.50636
225.7177, 36.82958
226.1998, 36.25733
226.6819, 36.25984
227.1640, 36.88891
227.6461, 37.70646
228.1283, 37.99450
228.6104, 37.30014
229.0925, 36.93333
229.5746, 37.13449
230.0567, 37.44777
230.5388, 37.55608
231.0210, 37.38437
231.5031, 37.05803
231.9852, 36.74210
232.4673, 36.33200
232.9494, 36.18240
233.4315, 36.37239
233.9137, 36.74370
234.3958, 37.27350
234.8779, 37.92243
235.3600, 38.50803
235.8421, 38.76235
236.3242, 38.49300
236.8064, 38.30369
237.2885, 38.25504
237.7706, 38.24753
238.2527, 38.12970
238.7348, 37.88587
239.2169, 37.73941
239.6991, 38.01196
240.1812, 38.88923
240.6633, 39.56130
241.1454, 39.98117
241.6275, 40.20094
242.1096, 40.06890
242.5918, 39.57069
243.0739, 39.32053
243.5560, 40.25338
244.0381, 42.53333
244.5202, 44.03023
245.0023, 43.98446
245.4845, 43.36300
245.9666, 43.12548
246.4487, 43.41089
246.9308, 43.95506
247.4129, 44.57904
247.8950, 45.27378
248.3771, 45.91792
248.8593, 46.55429
249.3414, 47.10185
249.8235, 47.31739
250.3056, 47.12034
250.7877, 47.13926
251.2698, 48.13360
251.7520, 49.81020
252.2341, 51.28203
252.7162, 52.31585
253.1983, 53.07383
253.6804, 53.55509
254.1625, 53.65012
254.6447, 54.13113
255.1268, 55.99584
255.6089, 58.58044
256.0910, 60.73626
256.5731, 61.93983
257.0552, 62.74548
257.5374, 63.89233
258.0195, 65.43024
258.5016, 67.05186
258.9837, 68.39357
259.4658, 69.78416
259.9479, 71.67921
260.4301, 74.29929
260.9122, 77.33089
261.3943, 80.27123
261.8764, 83.01796
262.3585, 86.22711
262.8406, 90.29439
263.3228, 94.93149
263.8049, 100.0666
264.2870, 105.8012
264.7691, 111.6554
265.2512, 116.8155
265.7333, 121.0850
266.2155, 125.7141
266.6976, 131.0265
267.1797, 136.9395
267.6618, 143.6020
268.1439, 151.0577
268.6260, 158.8562
269.1082, 166.6511
269.5903, 174.6201
270.0724, 181.7648
270.5545, 187.1042
271.0366, 192.0049
271.5187, 197.2388
272.0009, 202.9296
272.4830, 208.7121
272.9651, 214.1276
273.4472, 219.0485
273.9293, 224.3142
274.4114, 230.5621
274.8936, 236.7892
275.3757, 242.2917
275.8578, 247.1429
276.3399, 252.2497
276.8220, 258.7501
277.3041, 266.8836
277.7863, 274.4466
278.2684, 280.2173
278.7505, 286.4290
279.2326, 293.8330
279.7147, 302.4183
280.1968, 311.9476
280.6789, 322.3962
281.1610, 333.8504
281.6432, 344.6873
282.1253, 353.8293
282.6074, 363.4451
283.0895, 374.5836
283.5716, 386.7421
284.0537, 398.7424
284.5359, 409.8005
285.0180, 419.9510
285.5001, 429.6659
285.9822, 440.3946
286.4643, 448.7441
286.9464, 454.2595
287.4286, 456.8507
287.9107, 456.4661
288.3928, 453.0813
288.8749, 446.7336
289.3570, 437.5739
289.8391, 425.0706
290.3213, 409.9305
290.8034, 390.8069
291.2855, 369.8084
291.7676, 349.0888
292.2497, 329.6864
292.7318, 311.3031
293.2140, 293.2646
293.6961, 275.9248
294.1782, 258.2531
294.6603, 238.6633
295.1424, 219.5896
295.6245, 203.3800
296.1067, 190.7024
296.5888, 180.2458
297.0709, 169.6953
297.5530, 158.5880
298.0351, 148.4232
298.5172, 138.8751
298.9994, 130.3520
299.4815, 123.2722
299.9636, 117.5981
300.4457, 112.6945
300.9278, 107.7066
301.4099, 102.3713
301.8921, 97.85716
302.3742, 94.72601
302.8563, 91.73656
303.3384, 88.00181
303.8205, 83.69197
304.3026, 79.75230
304.7848, 77.12099
305.2669, 75.92004
305.7490, 74.55870
306.2311, 73.19942
306.7132, 71.53144
307.1953, 69.17837
307.6775, 66.41739
308.1596, 63.83494
308.6417, 61.84056
309.1238, 60.39216
309.6059, 59.04884
310.0880, 57.66757
310.5702, 56.56160
311.0523, 56.02358
311.5344, 55.74852
312.0165, 55.29295
312.4986, 54.42443
312.9807, 53.27925
313.4629, 52.25715
313.9450, 51.21125
314.4271, 50.53507
314.9092, 50.62911
315.3913, 50.91486
315.8734, 50.80611
316.3556, 50.10892
316.8377, 49.08443
317.3198, 48.20259
317.8019, 47.60223
318.2840, 46.89722
318.7661, 45.84059
319.2483, 44.86353
319.7304, 44.28514
320.2125, 44.14027
320.6946, 44.25104
321.1767, 44.45536
321.6588, 44.86156
322.1409, 44.91114
322.6230, 44.37926
323.1052, 43.75947
323.5873, 43.17389
324.0694, 42.68792
324.5515, 42.44199
325.0336, 42.62417
325.5157, 43.23448
325.9979, 43.17043
326.4800, 41.60798
326.9621, 40.24208
327.4442, 39.62540
327.9263, 39.47737
328.4084, 39.25137
328.8906, 38.61453
329.3727, 37.75043
329.8548, 37.42167
330.3369, 38.14690
330.8190, 38.78779
331.3011, 39.50512
331.7833, 39.96571
332.2654, 39.65442
332.7475, 38.42023
333.2296, 36.85014
333.7117, 36.08380
334.1938, 36.66458
334.6760, 37.04207
335.1581, 37.11044
335.6402, 37.04790
336.1223, 37.00454
336.6044, 36.98371
337.0865, 36.84947
337.5687, 36.39308
338.0508, 35.49158
338.5329, 34.87438
339.0150, 34.71867
339.4971, 34.66885
339.9792, 34.71291
340.4614, 34.75710
340.9435, 34.60942
341.4256, 34.08136
341.9077, 33.21983
342.3898, 32.60482
342.8719, 32.30167
343.3541, 32.20006
343.8362, 32.42731
344.3183, 32.79535
344.8004, 33.06728
345.2825, 33.12754
345.7646, 33.02561
346.2468, 32.86116
346.7289, 32.49442
347.2110, 32.34153
347.6931, 32.77911
348.1752, 33.21866
348.6573, 33.02065
349.1395, 32.08551
349.6216, 31.07020
350.1037, 30.96172
350.5858, 32.09019
351.0679, 32.82474
351.5500, 32.85298
352.0322, 32.65623
352.5143, 32.33290
352.9964, 31.95507
353.4785, 31.65404
353.9606, 31.57989
354.4427, 31.71635
354.9249, 31.70457
355.4070, 31.38387
355.8891, 31.11851
356.3712, 31.03400
356.8533, 31.08304
357.3354, 31.23103
357.8176, 31.52552
358.2997, 31.79008
358.7818, 31.43821
359.2639, 29.96604
359.7460, 29.14024
360.2281, 30.03765
360.7103, 31.43313
361.1924, 32.31115
361.6745, 32.41042
362.1566, 32.13747
362.6387, 31.93514
363.1208, 31.81237
363.6029, 31.64342
364.0851, 31.36374
364.5672, 31.06985
365.0493, 30.80470
365.5314, 30.57624
366.0135, 30.40084
366.4956, 30.31846
366.9778, 30.30690
367.4599, 30.26105
367.9420, 30.16476
368.4241, 30.05881
368.9062, 29.97897
369.3883, 29.90530
369.8705, 29.80585
370.3526, 29.69188
370.8347, 29.52263
371.3168, 29.17400
371.7989, 28.60711
372.2810, 28.17579
372.7632, 28.07116
373.2453, 28.16812
373.7274, 28.35618
374.2095, 28.66194
374.6916, 28.89742
375.1737, 28.79440
375.6559, 28.45587
376.1380, 28.43822
376.6201, 29.02269
377.1022, 29.70792
377.5843, 30.02603
378.0664, 30.00404
378.5486, 29.68679
379.0307, 28.71177
379.5128, 27.59648
379.9949, 27.18952
380.4770, 27.60724
380.9591, 28.22128
381.4413, 28.67821
381.9234, 28.96341
382.4055, 29.06481
382.8876, 28.88243
383.3697, 28.61184
383.8518, 28.32768
384.3340, 28.05122
384.8161, 27.88688
385.2982, 27.92357
385.7803, 28.03561
386.2624, 27.89053
386.7445, 27.33706
387.2267, 27.01631
387.7088, 27.30484
388.1909, 27.84266
388.6730, 28.15133
389.1551, 28.12864
389.6372, 27.93567
390.1194, 27.70409
390.6015, 27.41188
391.0836, 27.32107
391.5657, 27.55582
392.0478, 27.87990
392.5299, 28.28381
393.0121, 28.67709
393.4942, 28.75741
393.9763, 28.26520
394.4584, 27.37987
394.9405, 27.06729
395.4226, 28.03811
395.9048, 28.65907
396.3869, 28.33477
396.8690, 27.66931
397.3511, 27.46895
397.8332, 27.96952
398.3153, 28.68641
398.7975, 28.86073
399.2796, 28.23088
399.7617, 27.70653
400.2438, 27.15664
400.7259, 26.80413
401.2080, 26.89796
401.6902, 27.33381
402.1723, 27.75775
402.6544, 27.87464
403.1365, 27.71992
403.6186, 27.74240
404.1007, 28.30006
404.5828, 28.60094
405.0649, 28.38224
405.5471, 27.88231
406.0292, 27.31376
406.5113, 26.76175
406.9934, 26.34978
407.4755, 26.34348
407.9576, 26.92170
408.4398, 27.36478
408.9219, 27.62037
409.4040, 27.71218
409.8861, 27.56023
410.3682, 27.21798
410.8503, 26.89804
411.3325, 26.83574
411.8146, 26.97207
412.2967, 26.79731
412.7788, 25.96799
413.2609, 25.42730
413.7430, 25.77210
414.2252, 26.56008
414.7073, 27.19950
415.1894, 27.49508
415.6715, 27.56088
416.1536, 27.47314
416.6357, 27.21869
417.1179, 27.07301
417.6000, 27.09422
418.0821, 27.28882
418.5642, 27.77485
419.0463, 28.54728
419.5284, 29.05328
420.0106, 28.69861
420.4927, 27.91558
420.9748, 27.77253
421.4569, 28.51267
421.9390, 29.19764
422.4211, 28.95724
422.9033, 28.08765
423.3854, 27.56182
423.8675, 27.77891
424.3496, 28.09417
424.8317, 27.99555
425.3138, 27.60495
425.7960, 27.38887
426.2781, 27.57952
426.7602, 27.95424
427.2423, 28.05084
427.7244, 27.76912
428.2065, 27.60610
428.6887, 27.72160
429.1708, 27.95317
429.6529, 28.18971
430.1350, 28.39598
430.6171, 28.47994
431.0992, 28.32283
431.5814, 27.92060
432.0635, 27.76037
432.5456, 28.15689
433.0277, 28.39372
433.5098, 28.09310
433.9919, 27.51868
434.4741, 27.08193
434.9562, 26.95587
435.4383, 27.06259
435.9204, 27.26195
436.4025, 27.66837
436.8846, 27.95147
437.3668, 28.02625
437.8489, 28.06719
438.3310, 28.21105
438.8131, 28.43345
439.2952, 28.59377
439.7773, 28.55857
440.2595, 28.35371
440.7416, 28.24294
441.2237, 28.29125
441.7058, 28.34312
442.1879, 28.33337
442.6700, 28.31602
443.1522, 28.36611
443.6343, 28.51034
444.1164, 28.67068
444.5985, 28.77698
445.0806, 28.83538
445.5627, 28.72739
446.0448, 28.21018
446.5269, 27.77596
447.0091, 27.85259
447.4912, 28.30861
447.9733, 28.62365
448.4554, 28.41890
448.9375, 27.95787
449.4196, 27.64228
449.9018, 27.45047
450.3839, 27.61951
450.8660, 28.63585
451.3481, 29.88714
451.8302, 30.24035
452.3123, 29.34847
452.7945, 28.48631
453.2766, 28.43805
453.7587, 28.87061
454.2408, 29.14892
454.7229, 29.14757
455.2050, 28.90945
455.6872, 28.35902
456.1693, 27.47374
456.6514, 27.04747
457.1335, 27.35254
457.6156, 27.87081
458.0977, 28.45710
458.5799, 29.02279
459.0620, 29.36013
459.5441, 29.35454
460.0262, 29.14132
460.5083, 29.05077
460.9904, 29.27493
461.4726, 29.32003
461.9547, 28.80062
462.4368, 28.38864
462.9189, 28.78936
463.4010, 29.88726
463.8831, 30.88070
464.3653, 31.03598
464.8474, 30.41917
465.3295, 30.12082
465.8116, 30.59381
466.2937, 30.79780
466.7758, 30.17996
467.2580, 29.36154
467.7401, 29.06481
468.2222, 29.51348
468.7043, 30.24106
469.1864, 30.64289
469.6685, 30.69033
470.1507, 30.78059
470.6328, 30.92381
471.1149, 31.15105
471.5970, 31.63344
472.0791, 32.21420
472.5612, 32.47199
473.0434, 32.02679
473.5255, 31.34289
474.0076, 31.18900
474.4897, 31.58279
474.9718, 31.81701
475.4539, 31.50241
475.9361, 31.00204
476.4182, 30.88379
476.9003, 31.19912
477.3824, 31.49071
477.8645, 31.52273
478.3466, 31.46053
478.8288, 31.58094
479.3109, 31.90557
479.7930, 32.13488
480.2751, 31.99425
480.7572, 31.55438
481.2393, 31.38468
481.7215, 31.59687
482.2036, 31.90540
482.6857, 32.38423
483.1678, 32.85567
483.6499, 33.07071
484.1320, 32.96206
484.6142, 32.66230
485.0963, 32.30144
485.5784, 31.79219
486.0605, 31.64767
486.5426, 32.12098
487.0247, 32.66074
487.5068, 33.26426
487.9890, 33.75470
488.4711, 33.79938
488.9532, 33.20640
489.4353, 32.32011
489.9174, 31.83852
490.3995, 31.81392
490.8817, 32.01963
491.3638, 32.77613
491.8459, 33.47723
492.3280, 33.71188
492.8101, 33.54853
493.2922, 33.40104
493.7744, 33.55855
494.2565, 33.89116
494.7386, 34.07081
495.2207, 34.05500
495.7028, 34.17769
496.1849, 34.81997
496.6671, 35.54395
497.1492, 35.58679
497.6313, 34.71453
498.1134, 34.05167
498.5955, 34.35104
499.0776, 35.11544
499.5598, 35.59549
500.0419, 35.67778
500.5240, 35.47044
501.0061, 34.97095
501.4882, 34.22480
501.9703, 33.82493
502.4525, 33.90580
502.9346, 34.13160
503.4167, 34.58223
503.8988, 35.05011
504.3809, 35.25086
504.8630, 35.10407
505.3452, 34.73053
505.8273, 34.21412
506.3094, 33.40937
506.7915, 33.23659
507.2736, 34.46831
507.7557, 35.50877
508.2379, 35.82050
508.7200, 35.59461
509.2021, 35.11478
509.6842, 34.47880
510.1663, 33.88003
510.6484, 33.64309
511.1306, 33.79277
511.6127, 34.17039
512.0948, 35.16267
512.5769, 35.93513
513.0590, 35.76834
513.5411, 34.89458
514.0233, 34.15469
514.5054, 33.96700
514.9875, 34.08214
515.4696, 34.19769
515.9517, 34.31495
516.4338, 34.51017
516.9160, 34.94389
517.3981, 35.30758
517.8802, 34.91859
518.3623, 33.62009
518.8444, 32.69651
519.3265, 32.69962
519.8087, 33.00830
520.2908, 33.03763
520.7729, 32.80152
521.2550, 32.67416
521.7371, 32.92039
522.2192, 33.41928
522.7014, 33.68797
523.1835, 33.39394
523.6656, 33.30541
524.1477, 33.75251
524.6298, 34.19397
525.1119, 34.10069
525.5941, 33.51254
526.0762, 32.93588
526.5583, 32.81007
527.0404, 33.07108
527.5225, 33.28652
528.0046, 33.47481
528.4868, 33.57923
528.9689, 33.61292
529.4510, 33.54398
529.9331, 33.29922
530.4152, 32.86945
530.8973, 32.42548
531.3795, 32.01533
531.8616, 31.69583
532.3437, 31.72009
532.8258, 32.18707
533.3079, 32.57674
533.7900, 32.50925
534.2722, 32.10764
534.7543, 31.78862
535.2364, 31.52760
535.7185, 31.39911
536.2006, 31.59137
536.6827, 31.87534
537.1649, 31.88155
537.6470, 31.54892
538.1291, 31.12314
538.6112, 30.83063
539.0933, 30.67283
539.5754, 30.53178
540.0576, 30.38638
540.5397, 30.28313
541.0218, 30.23849
541.5039, 30.23790
541.9860, 30.28420
542.4681, 30.36987
542.9503, 30.44286
543.4324, 30.42205
543.9145, 30.30135
544.3966, 30.28225
544.8787, 30.56001
545.3608, 30.63212
545.8430, 30.07127
546.3251, 29.27768
546.8071, 28.82001
547.2892, 28.89197
547.7714, 29.11255
548.2535, 29.20168
548.7356, 29.17489
549.2177, 29.08132
549.6998, 28.92544
550.1819, 28.70963
550.6641, 28.34398
551.1462, 27.89275
551.6283, 27.79132
552.1104, 28.52086
552.5925, 29.06277
553.0746, 28.97202
553.5568, 28.45107
554.0389, 27.61993
554.5210, 26.56474
555.0031, 25.77413
555.4852, 25.87424
555.9673, 26.96507
556.4495, 27.76439
556.9316, 28.31278
557.4137, 28.50500
557.8958, 27.99573
558.3779, 27.25378
558.8600, 26.86419
559.3422, 26.99068
559.8243, 27.26715
560.3064, 27.32157
560.7885, 27.15902
561.2706, 26.79646
561.7527, 26.04988
562.2349, 25.47950
562.7170, 25.75428
563.1991, 26.35508
563.6812, 26.38932
564.1633, 25.43344
564.6454, 24.55308
565.1276, 24.51935
565.6097, 25.00075
566.0918, 25.42756
566.5739, 25.69169
567.0560, 25.70424
567.5381, 25.29723
568.0203, 24.50661
568.5024, 24.18136
568.9845, 24.81570
569.4666, 25.22566
569.9487, 24.94994
570.4308, 24.44186
570.9130, 24.21210
571.3951, 24.34541
571.8772, 24.57913
572.3593, 24.69187
572.8414, 24.67709
573.3235, 24.37203
573.8057, 23.44573
574.2878, 22.83578
574.7699, 22.99636
575.2520, 23.50878
575.7341, 24.09275
576.2162, 24.70126
576.6984, 25.03146
577.1805, 24.72948
577.6626, 24.03872
578.1447, 23.36694
578.6268, 22.73200
579.1089, 22.48690
579.5911, 23.07583
580.0732, 24.06144
580.5553, 24.06049
581.0374, 22.47927
581.5195, 21.32492
582.0016, 21.18929
582.4838, 21.49375
582.9659, 21.85638
583.4480, 22.17711
583.9301, 22.38286
584.4122, 22.42157
584.8943, 22.31496
585.3765, 22.10266
585.8586, 21.56767
586.3407, 21.39123
586.8228, 22.02664
587.3049, 22.71243
587.7870, 22.96386
588.2692, 22.82322
588.7513, 22.61952
589.2334, 22.49587
589.7155, 22.45681
590.1976, 22.63726
590.6797, 23.02605
591.1619, 22.96118
591.6440, 21.97931
592.1261, 20.86773
592.6082, 20.82418
593.0903, 21.84328
593.5724, 22.50714
594.0546, 22.46672
594.5367, 22.17490
595.0188, 21.81610
595.5009, 21.43508
595.9830, 21.03909
596.4651, 20.63271
596.9473, 20.37348
597.4294, 20.55145
597.9115, 21.30622
598.3936, 21.81349
598.8757, 21.89727
599.3578, 21.90043
599.8400, 21.98045
600.3221, 22.01822
600.8042, 21.79445
601.2863, 21.22617
601.7684, 20.61272
602.2505, 20.24411
602.7327, 20.09100
603.2148, 20.03681
603.6969, 20.07935
604.1790, 20.18197
604.6611, 20.32394
605.1432, 20.51082
605.6254, 20.77034
606.1075, 21.26407
606.5896, 21.53242
607.0717, 21.32254
607.5538, 20.88000
608.0359, 20.38044
608.5181, 19.89723
609.0002, 19.56816
609.4823, 19.50888
609.9644, 19.66187
610.4465, 19.78217
610.9286, 19.87389
611.4108, 19.92239
611.8929, 19.82126
612.3750, 19.76736
612.8571, 19.99482
613.3392, 20.40359
613.8214, 20.61572
614.3035, 20.33097
614.7856, 19.84641
615.2677, 19.63677
615.7498, 19.67728
616.2319, 19.64874
616.7141, 19.42587
617.1962, 19.18373
617.6783, 19.14990
618.1604, 19.33037
618.6425, 19.42688
619.1246, 19.40860
619.6068, 19.32376
620.0889, 19.15333
620.5710, 18.94497
621.0531, 18.76922
621.5352, 18.64477
