##NAMES=Rhodonite
##RRUFFID=R040041
##IDEAL CHEMISTRY=CaMn^2+^_3_Mn^2+^Si_5_O_15_
##LOCALITY=Franklin, Sussex County, New Jersey, USA
##OWNER=RRUFF
##SOURCE=University of Arizona Mineral Museum
##DESCRIPTION=Pink prismatic crystals
##STATUS=The identification of this mineral has been confirmed by X-ray diffraction and chemical analysis
##URL=rruff.info/R040041
##MEASURED CHEMISTRY=(Mn_0.63_Ca_0.21_Zn_0.12_Mg_0.02_Fe_0.02_)_Î£=1_Si_1.00_O_3_
120.0818, 242.6527
120.5639, 260.9307
121.0460, 285.1832
121.5281, 318.2670
122.0102, 358.3179
122.4924, 396.1614
122.9745, 431.7281
123.4566, 464.2295
123.9387, 492.1413
124.4208, 517.0698
124.9029, 541.7017
125.3851, 568.0016
125.8672, 596.0137
126.3493, 623.3841
126.8314, 647.5330
127.3135, 673.5729
127.7956, 703.6926
128.2778, 737.1619
128.7599, 773.0548
129.2420, 812.1048
129.7241, 856.7684
130.2062, 885.4008
130.6884, 892.6218
131.1705, 890.7483
131.6526, 879.8461
132.1347, 863.0388
132.6168, 847.4862
133.0989, 841.2820
133.5811, 847.8010
134.0632, 852.0316
134.5453, 843.5964
135.0274, 840.9191
135.5095, 855.8769
135.9916, 889.3474
136.4738, 934.1946
136.9559, 982.4554
137.4380, 1037.462
137.9201, 1086.048
138.4022, 1133.252
138.8843, 1171.650
139.3665, 1193.434
139.8486, 1197.286
140.3307, 1190.600
140.8128, 1183.667
141.2949, 1177.750
141.7770, 1168.248
142.2592, 1150.568
142.7413, 1131.314
143.2234, 1114.935
143.7055, 1102.617
144.1876, 1097.901
144.6697, 1108.240
145.1518, 1137.879
145.6340, 1171.408
146.1161, 1209.333
146.5982, 1249.373
147.0803, 1288.570
147.5624, 1326.212
148.0445, 1362.571
148.5267, 1398.016
149.0088, 1432.023
149.4909, 1466.451
149.9730, 1504.366
150.4551, 1542.980
150.9372, 1577.766
151.4194, 1608.290
151.9015, 1632.280
152.3836, 1645.102
152.8657, 1646.890
153.3478, 1641.716
153.8299, 1633.373
154.3121, 1619.522
154.7942, 1591.335
155.2763, 1540.345
155.7584, 1479.953
156.2405, 1435.980
156.7226, 1411.774
157.2048, 1392.436
157.6869, 1370.514
158.1690, 1347.160
158.6511, 1326.209
159.1332, 1307.815
159.6153, 1294.704
160.0975, 1289.874
160.5796, 1294.253
161.0617, 1303.974
161.5438, 1316.955
162.0259, 1333.193
162.5080, 1353.323
162.9902, 1378.567
163.4723, 1407.563
163.9544, 1437.692
164.4365, 1469.089
164.9186, 1500.844
165.4007, 1533.114
165.8829, 1565.791
166.3650, 1595.554
166.8471, 1620.116
167.3292, 1641.247
167.8113, 1662.516
168.2934, 1685.810
168.7756, 1705.176
169.2577, 1714.450
169.7398, 1713.558
170.2219, 1709.189
170.7040, 1705.148
171.1861, 1697.694
171.6683, 1681.250
172.1504, 1652.059
172.6325, 1621.594
173.1146, 1601.231
173.5967, 1591.450
174.0788, 1585.635
174.5610, 1584.447
175.0431, 1584.610
175.5252, 1581.983
176.0073, 1574.375
176.4894, 1568.022
176.9715, 1575.389
177.4537, 1600.182
177.9358, 1609.865
178.4179, 1582.333
178.9000, 1538.159
179.3821, 1492.373
179.8642, 1446.857
180.3464, 1404.044
180.8285, 1365.037
181.3106, 1328.793
181.7927, 1302.688
182.2748, 1298.826
182.7569, 1302.086
183.2391, 1299.718
183.7212, 1287.195
184.2033, 1274.667
184.6854, 1276.501
185.1675, 1295.597
185.6496, 1313.763
186.1318, 1321.682
186.6139, 1327.872
187.0960, 1340.436
187.5781, 1362.574
188.0602, 1385.175
188.5423, 1398.354
189.0245, 1402.170
189.5066, 1395.688
189.9887, 1367.109
190.4708, 1334.037
190.9529, 1309.749
191.4350, 1298.367
191.9172, 1291.068
192.3993, 1276.564
192.8814, 1253.505
193.3635, 1229.981
193.8456, 1205.714
194.3277, 1183.070
194.8099, 1164.312
195.2920, 1150.107
195.7741, 1138.081
196.2562, 1124.558
196.7383, 1108.375
197.2204, 1096.370
197.7026, 1093.963
198.1847, 1094.305
198.6668, 1092.632
199.1489, 1087.854
199.6310, 1083.421
200.1131, 1083.499
200.5953, 1088.605
201.0774, 1095.148
201.5595, 1104.945
202.0416, 1114.336
202.5237, 1119.805
203.0058, 1120.810
203.4880, 1122.023
203.9701, 1129.060
204.4522, 1142.693
204.9343, 1156.386
205.4164, 1163.754
205.8985, 1174.583
206.3807, 1197.386
206.8628, 1232.914
207.3449, 1270.433
207.8270, 1296.628
208.3091, 1309.769
208.7912, 1331.198
209.2734, 1374.996
209.7555, 1419.996
210.2376, 1453.569
210.7197, 1474.852
211.2018, 1490.028
211.6839, 1505.404
212.1661, 1521.241
212.6482, 1529.663
213.1303, 1525.286
213.6124, 1516.469
214.0945, 1508.264
214.5766, 1500.727
215.0588, 1491.189
215.5409, 1476.932
216.0230, 1458.143
216.5051, 1438.857
216.9872, 1417.696
217.4693, 1398.200
217.9515, 1384.327
218.4336, 1374.736
218.9157, 1362.743
219.3978, 1338.875
219.8799, 1305.540
220.3620, 1285.219
220.8442, 1286.138
221.3263, 1292.085
221.8084, 1294.409
222.2905, 1293.468
222.7726, 1291.005
223.2547, 1286.557
223.7369, 1280.998
224.2190, 1279.306
224.7011, 1284.642
225.1832, 1288.943
225.6653, 1285.504
226.1474, 1277.437
226.6296, 1272.235
227.1117, 1275.524
227.5938, 1284.506
228.0759, 1291.370
228.5580, 1295.780
229.0401, 1298.565
229.5223, 1296.856
230.0044, 1294.136
230.4865, 1297.053
230.9686, 1308.950
231.4507, 1327.844
231.9328, 1350.465
232.4150, 1377.082
232.8971, 1406.645
233.3792, 1439.622
233.8613, 1474.997
234.3434, 1512.102
234.8255, 1551.276
235.3077, 1591.360
235.7898, 1630.117
236.2719, 1666.875
236.7540, 1706.863
237.2361, 1756.665
237.7182, 1810.270
238.2004, 1861.393
238.6825, 1911.530
239.1646, 1954.266
239.6467, 1979.222
240.1288, 1986.295
240.6109, 1993.674
241.0931, 2007.596
241.5752, 2027.026
242.0573, 2050.980
242.5394, 2082.176
243.0215, 2111.444
243.5036, 2130.671
243.9858, 2141.097
244.4679, 2151.266
244.9500, 2163.720
245.4321, 2177.631
245.9142, 2192.247
246.3963, 2208.357
246.8785, 2221.826
247.3606, 2228.326
247.8427, 2230.140
248.3248, 2233.506
248.8069, 2238.894
249.2890, 2248.617
249.7712, 2266.440
250.2533, 2291.985
250.7354, 2321.235
251.2175, 2349.255
251.6996, 2380.531
252.1817, 2422.840
252.6639, 2477.624
253.1460, 2543.445
253.6281, 2620.082
254.1102, 2706.688
254.5923, 2804.260
255.0744, 2919.573
255.5566, 3043.255
256.0387, 3166.280
256.5208, 3286.987
257.0029, 3404.597
257.4850, 3520.476
257.9671, 3633.883
258.4492, 3730.851
258.9314, 3811.438
259.4135, 3874.645
259.8956, 3920.936
260.3777, 3950.046
260.8598, 3960.751
261.3419, 3953.880
261.8241, 3927.123
262.3062, 3868.263
262.7883, 3764.477
263.2704, 3646.033
263.7525, 3519.899
264.2346, 3389.069
264.7168, 3257.221
265.1989, 3125.749
265.6810, 2995.618
266.1631, 2875.587
266.6452, 2762.015
267.1273, 2659.979
267.6095, 2571.317
268.0916, 2494.740
268.5737, 2428.335
269.0558, 2371.371
269.5379, 2323.930
270.0201, 2287.208
270.5022, 2274.864
270.9843, 2256.995
271.4664, 2225.863
271.9485, 2192.919
272.4306, 2169.932
272.9128, 2159.997
273.3949, 2156.722
273.8770, 2151.005
274.3591, 2143.933
274.8412, 2131.203
275.3233, 2110.453
275.8055, 2086.708
276.2876, 2062.487
276.7697, 2038.309
277.2518, 2014.403
277.7339, 1991.717
278.2160, 1971.757
278.6982, 1943.900
279.1803, 1896.718
279.6624, 1852.631
280.1445, 1823.605
280.6266, 1805.026
281.1087, 1783.534
281.5909, 1748.127
282.0730, 1700.512
282.5551, 1659.142
283.0372, 1621.174
283.5193, 1593.904
284.0014, 1585.538
284.4836, 1586.900
284.9657, 1584.671
285.4478, 1571.479
285.9299, 1552.617
286.4120, 1541.330
286.8941, 1539.140
287.3763, 1541.350
287.8584, 1548.697
288.3405, 1558.449
288.8226, 1566.664
289.3047, 1571.560
289.7868, 1580.512
290.2690, 1605.363
290.7511, 1647.920
291.2332, 1687.955
291.7153, 1717.749
292.1974, 1745.702
292.6795, 1777.919
293.1617, 1814.802
293.6438, 1854.059
294.1259, 1893.286
294.6080, 1932.998
295.0901, 1976.795
295.5722, 2025.935
296.0544, 2078.099
296.5365, 2134.790
297.0186, 2194.442
297.5007, 2248.220
297.9828, 2289.005
298.4649, 2323.270
298.9471, 2362.451
299.4292, 2408.571
299.9113, 2452.738
300.3934, 2489.855
300.8755, 2519.604
301.3576, 2541.427
301.8398, 2555.361
302.3219, 2561.073
302.8040, 2552.440
303.2861, 2532.632
303.7682, 2519.943
304.2503, 2526.142
304.7325, 2544.686
305.2146, 2553.464
305.6967, 2548.473
306.1788, 2541.215
306.6609, 2532.870
307.1430, 2525.109
307.6252, 2523.779
308.1073, 2531.891
308.5894, 2538.771
309.0715, 2524.213
309.5536, 2466.999
310.0357, 2430.209
310.5179, 2430.803
311.0000, 2442.690
311.4821, 2441.467
311.9642, 2425.062
312.4463, 2410.071
312.9284, 2414.642
313.4106, 2441.905
313.8927, 2471.617
314.3748, 2508.794
314.8569, 2543.463
315.3390, 2562.079
315.8211, 2574.215
316.3033, 2603.916
316.7854, 2670.519
317.2675, 2766.176
317.7496, 2839.937
318.2317, 2868.531
318.7138, 2904.038
319.1960, 2964.982
319.6781, 3033.869
320.1602, 3091.394
320.6423, 3129.901
321.1244, 3153.454
321.6065, 3169.271
322.0887, 3178.412
322.5708, 3175.855
323.0529, 3156.267
323.5350, 3127.389
324.0171, 3093.145
324.4992, 3054.109
324.9814, 3009.189
325.4635, 2949.333
325.9456, 2877.131
326.4277, 2830.415
326.9098, 2827.658
327.3919, 2829.262
327.8741, 2805.970
328.3562, 2764.438
328.8383, 2725.159
329.3204, 2697.232
329.8025, 2676.752
330.2846, 2656.954
330.7668, 2637.445
331.2489, 2622.468
331.7310, 2615.359
332.2131, 2614.951
332.6952, 2617.179
333.1773, 2620.195
333.6595, 2627.946
334.1416, 2646.320
334.6237, 2672.091
335.1058, 2694.882
335.5879, 2711.008
336.0700, 2721.916
336.5522, 2730.553
337.0343, 2739.721
337.5164, 2740.089
337.9985, 2724.521
338.4806, 2702.234
338.9627, 2681.042
339.4449, 2662.908
339.9270, 2648.305
340.4091, 2636.430
340.8912, 2625.085
341.3733, 2632.653
341.8554, 2681.078
342.3376, 2724.058
342.8197, 2739.893
343.3018, 2732.957
343.7839, 2715.609
344.2660, 2694.182
344.7481, 2671.253
345.2303, 2660.103
345.7124, 2676.430
346.1945, 2682.877
346.6766, 2674.348
347.1587, 2654.412
347.6408, 2625.450
348.1230, 2588.329
348.6051, 2545.926
349.0872, 2500.230
349.5693, 2449.011
350.0514, 2404.942
350.5335, 2373.024
351.0157, 2345.917
351.4978, 2317.194
351.9799, 2288.660
352.4620, 2269.669
352.9441, 2270.573
353.4262, 2286.318
353.9084, 2299.421
354.3905, 2308.793
354.8726, 2318.131
355.3547, 2322.905
355.8368, 2330.153
356.3189, 2354.435
356.8011, 2411.401
357.2832, 2470.672
357.7653, 2501.836
358.2474, 2509.275
358.7295, 2520.483
359.2116, 2546.528
359.6938, 2581.033
360.1759, 2613.085
360.6580, 2642.911
361.1401, 2670.197
361.6222, 2699.314
362.1043, 2723.693
362.5865, 2732.681
363.0686, 2725.103
363.5507, 2712.761
364.0328, 2707.601
364.5149, 2710.794
364.9970, 2711.215
365.4792, 2709.451
365.9613, 2704.775
366.4434, 2697.824
366.9255, 2687.633
367.4076, 2672.229
367.8897, 2650.330
368.3719, 2622.999
368.8540, 2594.201
369.3361, 2569.164
369.8182, 2533.454
370.3003, 2481.327
370.7824, 2422.199
371.2646, 2361.004
371.7467, 2299.948
372.2288, 2242.842
372.7109, 2199.094
373.1930, 2170.299
373.6751, 2122.120
374.1573, 2032.442
374.6394, 1948.552
375.1215, 1899.017
375.6036, 1874.266
376.0857, 1849.879
376.5678, 1816.871
377.0500, 1776.286
377.5321, 1723.103
378.0142, 1654.709
378.4963, 1605.185
378.9784, 1601.551
379.4605, 1620.560
379.9427, 1616.306
380.4248, 1578.164
380.9069, 1542.755
381.3890, 1530.901
381.8711, 1532.894
382.3532, 1529.399
382.8354, 1515.454
383.3175, 1500.049
383.7996, 1493.452
384.2817, 1497.731
384.7638, 1501.764
385.2459, 1507.397
385.7281, 1511.163
386.2102, 1510.072
386.6923, 1505.312
387.1744, 1500.116
387.6565, 1496.345
388.1386, 1493.942
388.6208, 1493.083
389.1029, 1501.397
389.5850, 1499.868
390.0671, 1483.292
390.5492, 1458.830
391.0313, 1430.765
391.5135, 1400.938
391.9956, 1371.812
392.4777, 1347.805
392.9598, 1329.659
393.4419, 1305.441
393.9240, 1268.638
394.4062, 1233.365
394.8883, 1208.677
395.3704, 1190.895
395.8525, 1171.217
396.3346, 1143.650
396.8167, 1114.245
397.2989, 1092.774
397.7810, 1079.460
398.2631, 1066.980
398.7452, 1051.668
399.2273, 1036.339
399.7094, 1025.559
400.1916, 1020.201
400.6737, 1016.037
401.1558, 1010.993
401.6379, 1006.321
402.1200, 1004.008
402.6021, 1004.364
403.0843, 1006.200
403.5664, 1008.634
404.0485, 1011.771
404.5306, 1014.029
405.0127, 1015.541
405.4948, 1016.227
405.9770, 1015.770
406.4591, 1014.530
406.9412, 1011.918
407.4233, 1007.555
407.9054, 1004.649
408.3875, 1012.184
408.8697, 1040.455
409.3518, 1056.008
409.8339, 1045.437
410.3160, 1031.734
410.7981, 1029.422
411.2802, 1038.064
411.7624, 1047.498
412.2445, 1047.223
412.7266, 1041.144
413.2087, 1048.350
413.6908, 1075.357
414.1729, 1098.924
414.6551, 1102.298
415.1372, 1096.572
415.6193, 1095.625
416.1014, 1102.286
416.5835, 1112.952
417.0656, 1128.193
417.5478, 1145.570
418.0299, 1156.753
418.5120, 1158.561
418.9941, 1158.618
419.4762, 1168.109
419.9583, 1190.196
420.4405, 1199.715
420.9226, 1186.615
421.4047, 1168.846
421.8868, 1154.903
422.3689, 1145.774
422.8510, 1142.013
423.3332, 1144.396
423.8153, 1150.727
424.2974, 1153.486
424.7795, 1149.151
425.2616, 1146.789
425.7437, 1145.668
426.2259, 1147.478
426.7080, 1154.464
427.1901, 1166.323
427.6722, 1179.667
428.1543, 1190.336
428.6364, 1199.052
429.1186, 1214.202
429.6007, 1239.137
430.0828, 1264.240
430.5649, 1281.761
431.0470, 1297.181
431.5291, 1318.718
432.0113, 1348.731
432.4934, 1384.248
432.9755, 1427.740
433.4576, 1475.598
433.9397, 1514.300
434.4218, 1539.766
434.9040, 1557.097
435.3861, 1572.543
435.8682, 1586.677
436.3503, 1593.905
436.8324, 1588.661
437.3145, 1580.959
437.7967, 1580.685
438.2788, 1583.788
438.7609, 1577.755
439.2430, 1554.963
439.7251, 1519.988
440.2072, 1486.658
440.6894, 1454.749
441.1715, 1424.831
441.6536, 1395.653
442.1357, 1368.983
442.6178, 1346.630
443.0999, 1328.330
443.5821, 1311.747
444.0642, 1294.097
444.5463, 1276.324
445.0284, 1264.136
445.5105, 1258.847
445.9926, 1255.781
446.4748, 1254.365
446.9569, 1253.245
447.4390, 1249.745
447.9211, 1241.302
448.4032, 1236.203
448.8853, 1243.013
449.3675, 1256.598
449.8496, 1264.567
450.3317, 1263.669
450.8138, 1262.373
451.2959, 1269.955
451.7780, 1287.550
452.2602, 1302.019
452.7423, 1312.901
453.2244, 1321.296
453.7065, 1329.288
454.1886, 1334.769
454.6707, 1332.523
455.1528, 1320.230
455.6349, 1304.350
456.1171, 1298.614
456.5992, 1309.720
457.0813, 1310.562
457.5634, 1291.840
458.0455, 1268.934
458.5276, 1246.340
459.0098, 1225.364
459.4919, 1208.115
459.9740, 1197.152
460.4561, 1189.421
460.9382, 1178.812
461.4203, 1165.021
461.9025, 1154.074
462.3846, 1148.585
462.8667, 1146.896
463.3488, 1146.137
463.8309, 1146.033
464.3130, 1147.897
464.7952, 1151.906
465.2773, 1158.194
465.7594, 1168.731
466.2415, 1182.566
466.7236, 1193.994
467.2057, 1198.488
467.6879, 1197.464
468.1700, 1199.602
468.6521, 1209.816
469.1342, 1216.878
469.6163, 1215.989
470.0984, 1214.015
470.5806, 1219.207
471.0627, 1231.682
471.5448, 1241.927
472.0269, 1237.650
472.5090, 1221.074
472.9911, 1213.649
473.4733, 1217.708
473.9554, 1225.755
474.4375, 1236.603
474.9196, 1248.302
475.4017, 1258.895
475.8839, 1270.181
476.3660, 1275.257
476.8481, 1266.081
477.3302, 1248.245
477.8123, 1233.978
478.2944, 1225.973
478.7766, 1217.727
479.2587, 1202.147
479.7408, 1178.552
480.2229, 1160.687
480.7050, 1153.309
481.1871, 1145.339
481.6693, 1131.963
482.1514, 1116.394
482.6335, 1101.901
483.1156, 1089.956
483.5977, 1082.867
484.0798, 1084.722
484.5620, 1096.451
485.0441, 1110.633
485.5262, 1131.757
486.0083, 1149.059
486.4904, 1152.891
486.9725, 1149.605
487.4547, 1152.250
487.9368, 1165.127
488.4189, 1185.148
488.9010, 1213.813
489.3831, 1248.048
489.8652, 1274.135
490.3474, 1286.931
490.8295, 1295.586
491.3116, 1311.579
491.7937, 1336.916
492.2758, 1358.686
492.7579, 1376.248
493.2401, 1390.907
493.7222, 1406.618
494.2043, 1419.416
494.6864, 1421.719
495.1685, 1410.072
495.6506, 1389.046
496.1328, 1366.181
496.6149, 1340.920
497.0970, 1315.278
497.5791, 1289.482
498.0612, 1263.177
498.5433, 1236.500
499.0255, 1209.244
499.5076, 1180.903
499.9897, 1149.194
500.4718, 1118.798
500.9539, 1094.073
501.4360, 1075.153
501.9182, 1063.671
502.4003, 1061.658
502.8824, 1063.376
503.3645, 1060.547
503.8466, 1051.189
504.3287, 1047.595
504.8109, 1052.732
505.2930, 1061.163
505.7751, 1073.705
506.2572, 1086.729
506.7393, 1092.274
507.2214, 1086.233
507.7036, 1076.493
508.1857, 1079.559
508.6678, 1099.804
509.1499, 1115.232
509.6320, 1118.526
510.1141, 1122.332
510.5963, 1133.630
511.0784, 1150.787
511.5605, 1169.187
512.0426, 1190.438
512.5247, 1208.199
513.0068, 1212.356
513.4890, 1205.820
513.9711, 1203.727
514.4532, 1211.800
514.9353, 1222.137
515.4174, 1223.853
515.8995, 1214.273
516.3817, 1208.183
516.8638, 1211.796
517.3459, 1212.577
517.8280, 1204.236
518.3101, 1188.797
518.7922, 1169.573
519.2744, 1147.878
519.7565, 1125.932
520.2386, 1107.523
520.7207, 1093.346
521.2028, 1078.447
521.6849, 1063.448
522.1671, 1046.436
522.6492, 1024.310
523.1313, 999.6030
523.6134, 978.3161
524.0955, 963.6266
524.5776, 950.7959
525.0598, 934.5722
525.5419, 917.1197
526.0240, 905.0676
526.5061, 900.3183
526.9882, 898.2333
527.4703, 893.6887
527.9525, 886.2190
528.4346, 880.6449
528.9167, 879.8283
529.3988, 877.3981
529.8809, 869.8797
530.3630, 860.3394
530.8452, 852.8190
531.3273, 848.5424
531.8094, 845.3901
532.2915, 840.7836
532.7736, 834.8433
533.2557, 829.0837
533.7379, 821.7495
534.2200, 818.8111
534.7021, 826.0640
535.1842, 839.7804
535.6663, 852.9812
536.1484, 865.1482
536.6306, 876.4719
537.1127, 886.8182
537.5948, 896.4182
538.0769, 905.3713
538.5590, 913.7584
539.0411, 921.7001
539.5233, 929.1619
540.0054, 936.3082
540.4875, 945.2085
540.9696, 957.3051
541.4517, 968.9898
541.9338, 980.1231
542.4160, 990.3440
542.8981, 1000.455
543.3802, 1010.000
543.8623, 1015.990
544.3444, 1013.800
544.8265, 1007.233
545.3087, 1006.181
545.7908, 1011.021
546.2729, 1010.725
546.7550, 997.6810
547.2371, 979.6411
547.7192, 973.3106
548.2014, 983.9083
548.6835, 988.2986
549.1656, 978.6389
549.6477, 966.4403
550.1298, 959.7255
550.6119, 957.3378
551.0941, 954.0593
551.5762, 946.9171
552.0583, 938.3325
552.5404, 932.7888
553.0225, 929.8449
553.5046, 932.4636
553.9868, 944.1714
554.4689, 958.0939
554.9510, 971.3957
555.4331, 983.2616
555.9152, 991.4370
556.3973, 996.5562
556.8795, 996.1966
557.3616, 985.9421
557.8437, 969.0886
558.3258, 952.6898
558.8079, 938.5477
559.2900, 926.2665
559.7722, 915.6568
560.2543, 906.9306
560.7364, 896.3347
561.2185, 877.9146
561.7006, 864.6267
562.1827, 863.5144
562.6649, 866.4785
563.1470, 864.3265
563.6291, 855.2434
564.1112, 845.3542
564.5933, 841.0676
565.0754, 839.9852
565.5576, 833.2275
566.0397, 819.5602
566.5218, 811.3436
567.0039, 817.8484
567.4860, 831.9373
567.9681, 835.0727
568.4503, 821.2952
568.9324, 813.0111
569.4145, 818.3755
569.8966, 825.9626
570.3787, 828.1791
570.8608, 825.1857
571.3430, 819.7946
571.8251, 813.4944
572.3072, 806.5173
572.7893, 798.5141
573.2714, 788.7968
573.7535, 783.3855
574.2357, 785.9592
574.7178, 789.5029
575.1999, 787.9346
575.6820, 782.9689
576.1641, 780.1487
576.6462, 786.1455
577.1284, 788.3834
577.6105, 776.0353
578.0926, 755.7684
578.5747, 737.6891
579.0568, 724.4583
579.5389, 716.9642
580.0211, 717.3609
580.5032, 725.1146
580.9853, 725.4042
581.4674, 711.7304
581.9495, 700.5685
582.4316, 696.8309
582.9138, 695.9384
583.3959, 694.3863
583.8780, 691.6004
584.3601, 687.5791
584.8422, 681.1650
585.3243, 674.1117
585.8065, 669.2559
586.2886, 666.3942
586.7707, 662.9901
587.2528, 657.3902
587.7349, 652.6937
588.2170, 655.2016
588.6992, 670.0876
589.1813, 676.3724
589.6634, 666.6362
590.1455, 657.0616
590.6276, 653.6333
591.1097, 655.2106
591.5919, 659.9548
592.0740, 667.3580
592.5561, 675.0085
593.0382, 681.8589
593.5203, 686.9748
594.0024, 684.1196
594.4846, 670.8434
594.9667, 660.0330
595.4488, 660.1340
595.9309, 668.7556
596.4130, 677.8772
596.8951, 690.8656
597.3773, 698.6179
597.8594, 698.4675
598.3415, 693.6171
598.8236, 683.3299
599.3057, 670.3837
599.7878, 661.6925
600.2700, 661.7073
600.7521, 667.3606
601.2342, 673.4724
601.7163, 680.2347
602.1984, 684.1049
602.6805, 682.7007
603.1627, 681.1578
603.6448, 684.3751
604.1269, 691.3009
604.6090, 697.6912
605.0911, 704.8041
605.5732, 709.3478
606.0554, 707.3066
606.5375, 703.2292
607.0196, 703.3206
607.5017, 708.2258
607.9838, 713.6501
608.4659, 715.5228
608.9481, 715.0860
609.4302, 719.5010
609.9123, 731.6973
610.3944, 739.3323
610.8765, 735.3563
611.3586, 728.9788
611.8408, 728.9017
612.3229, 734.6381
612.8050, 739.8792
613.2871, 742.4595
613.7692, 744.2916
614.2513, 745.6756
614.7335, 747.5370
615.2156, 753.2885
615.6977, 763.4813
