##NAMES=Rhodochrosite
##RRUFFID=R100162
##IDEAL CHEMISTRY=Mn^2+^CO_3_
##LOCALITY=N'Chwaning mine, Kuruman, Kalahari manganese field, Cape Province, South Africa
##OWNER=RRUFF
##SOURCE=William W. Pinch
##DESCRIPTION=Reddish-purple cut gemstone
##STATUS=The identification of this mineral has been confirmed by single-crystal X-ray diffraction.
##URL=rruff.info/R100162
148.4594, 83.00260
148.9415, 83.03503
149.4237, 83.16642
149.9058, 83.25108
150.3879, 83.35391
150.8700, 83.70936
151.3521, 84.58410
151.8342, 85.39661
152.3164, 85.68755
152.7985, 85.49613
153.2806, 85.12456
153.7627, 84.67284
154.2448, 84.13216
154.7269, 83.88168
155.2091, 84.12112
155.6912, 84.58487
156.1733, 85.18375
156.6554, 85.89838
157.1375, 86.70384
157.6196, 87.55880
158.1018, 88.42614
158.5839, 89.46658
159.0660, 90.68220
159.5481, 92.04922
160.0302, 93.53592
160.5123, 95.14145
160.9945, 96.91114
161.4766, 98.89844
161.9587, 101.0728
162.4408, 103.6080
162.9229, 106.8016
163.4050, 110.1765
163.8871, 113.2964
164.3693, 116.0076
164.8514, 118.4054
165.3335, 120.7089
165.8156, 122.9630
166.2977, 125.0491
166.7798, 126.7594
167.2620, 128.3363
167.7441, 130.1619
168.2262, 132.4266
168.7083, 134.9819
169.1904, 137.3083
169.6725, 138.8761
170.1547, 141.1242
170.6368, 144.8212
171.1189, 149.7065
171.6010, 154.9074
172.0831, 160.0857
172.5652, 165.3311
173.0474, 170.7984
173.5295, 176.3314
174.0116, 182.3435
174.4937, 189.1190
174.9758, 196.6686
175.4579, 204.7345
175.9401, 212.6315
176.4222, 221.4134
176.9043, 231.8981
177.3864, 244.0099
177.8685, 258.5446
178.3506, 276.3348
178.8328, 297.2052
179.3149, 322.4169
179.7970, 353.0216
180.2791, 387.6618
180.7612, 426.1053
181.2433, 468.9287
181.7255, 513.8353
182.2076, 557.6745
182.6897, 606.9441
183.1718, 641.4730
183.6539, 661.8647
184.1360, 666.9617
184.6181, 653.8408
185.1003, 620.6615
185.5824, 571.0115
186.0645, 517.5983
186.5466, 452.3911
187.0287, 393.1671
187.5108, 342.1172
187.9930, 298.5233
188.4751, 261.7874
188.9572, 231.8833
189.4393, 208.1633
189.9214, 187.6753
190.4035, 171.0405
190.8857, 156.9795
191.3678, 146.1931
191.8499, 137.8602
192.3320, 130.6239
192.8141, 123.6764
193.2962, 117.1481
193.7784, 112.1072
194.2605, 109.0560
194.7426, 106.5353
195.2247, 104.2654
195.7068, 102.1589
196.1889, 99.99927
196.6711, 97.60564
197.1532, 95.07893
197.6353, 92.89445
198.1174, 90.93679
198.5995, 89.36476
199.0816, 88.54366
199.5638, 88.33957
200.0459, 87.82871
200.5280, 86.20357
201.0101, 83.95044
201.4922, 82.54750
201.9743, 82.62881
202.4565, 82.97733
202.9386, 82.53199
203.4207, 81.27333
203.9028, 79.90756
204.3849, 78.58229
204.8670, 77.48027
205.3492, 76.95674
205.8313, 77.38383
206.3134, 78.01331
206.7955, 77.76024
207.2776, 76.37578
207.7597, 75.27060
208.2419, 75.48469
208.7240, 76.16171
209.2061, 76.52090
209.6882, 76.30859
210.1703, 75.68427
210.6524, 74.80016
211.1346, 73.42046
211.6167, 72.42388
212.0988, 72.21192
212.5809, 72.41640
213.0630, 72.73653
213.5451, 73.06554
214.0273, 73.39512
214.5094, 73.71044
214.9915, 74.03442
215.4736, 74.29532
215.9557, 74.55899
216.4378, 74.73524
216.9200, 74.72879
217.4021, 74.49559
217.8842, 74.07890
218.3663, 73.55434
218.8484, 72.43908
219.3305, 71.97575
219.8127, 72.74093
220.2948, 73.99352
220.7769, 75.02662
221.2590, 75.51905
221.7411, 75.53367
222.2232, 75.23884
222.7054, 73.85335
223.1875, 73.12167
223.6696, 73.58094
224.1517, 74.58633
224.6338, 75.45171
225.1159, 75.87624
225.5980, 75.92814
226.0802, 75.79404
226.5623, 75.25010
227.0444, 74.78172
227.5265, 74.34356
228.0086, 74.02275
228.4907, 73.97378
228.9729, 74.26978
229.4550, 74.78725
229.9371, 75.20783
230.4192, 75.45264
230.9013, 75.73069
231.3834, 75.98056
231.8656, 76.30235
232.3477, 76.94067
232.8298, 78.04457
233.3119, 79.28149
233.7940, 79.89095
234.2761, 79.79771
234.7583, 79.46478
235.2404, 78.59699
235.7225, 77.62279
236.2046, 77.37950
236.6867, 78.26221
237.1688, 79.67529
237.6510, 80.56035
238.1331, 80.83606
238.6152, 81.21960
239.0973, 82.04089
239.5794, 83.13477
240.0615, 84.17802
240.5437, 85.13525
241.0258, 85.91637
241.5079, 86.30471
241.9900, 86.30253
242.4721, 86.42640
242.9542, 86.98721
243.4364, 87.83780
243.9185, 88.58132
244.4006, 89.08061
244.8827, 89.57312
245.3648, 90.38023
245.8469, 91.45051
246.3290, 92.36800
246.8112, 92.73415
247.2933, 92.77009
247.7754, 93.14725
248.2575, 93.94202
248.7396, 95.13595
249.2217, 96.86929
249.7039, 98.98789
250.1860, 100.9556
250.6681, 102.4391
251.1502, 103.5303
251.6323, 104.5579
252.1144, 105.4056
252.5966, 106.4049
253.0787, 107.9383
253.5608, 109.7565
254.0429, 111.2871
254.5250, 111.8110
255.0071, 111.7658
255.4893, 112.9915
255.9714, 116.2571
256.4535, 119.6069
256.9356, 121.8964
257.4177, 123.6914
257.8998, 125.9249
258.3820, 129.1003
258.8641, 133.0708
259.3462, 137.3421
259.8283, 141.9704
260.3104, 146.8446
260.7925, 151.8287
261.2747, 157.0455
261.7568, 162.5957
262.2389, 168.5229
262.7210, 174.8868
263.2031, 181.8456
263.6852, 188.9087
264.1674, 197.6235
264.6495, 208.2688
265.1316, 220.4338
265.6137, 233.5840
266.0958, 247.4534
266.5779, 262.3170
267.0601, 278.8117
267.5422, 297.0839
268.0243, 316.8893
268.5064, 338.4387
268.9885, 361.0655
269.4706, 384.2033
269.9528, 407.6475
270.4349, 431.3050
270.9170, 454.9341
271.3991, 477.7536
271.8812, 501.9184
272.3633, 527.2351
272.8455, 553.8376
273.3276, 581.4533
273.8097, 610.1836
274.2918, 640.5410
274.7739, 672.9170
275.2560, 705.6052
275.7382, 744.7208
276.2202, 790.4731
276.7024, 840.9991
277.1845, 894.3983
277.6666, 951.0361
278.1487, 1013.385
278.6308, 1084.463
279.1129, 1164.435
279.5951, 1253.052
280.0772, 1344.775
280.5593, 1447.996
281.0414, 1566.388
281.5235, 1700.521
282.0056, 1849.409
282.4878, 2011.338
282.9699, 2186.466
283.4520, 2382.959
283.9341, 2607.640
284.4162, 2844.208
284.8983, 3094.951
285.3805, 3353.264
285.8626, 3608.186
286.3447, 3854.094
286.8268, 4089.696
287.3089, 4287.591
287.7910, 4472.725
288.2732, 4597.940
288.7553, 4649.233
289.2374, 4628.996
289.7195, 4539.273
290.2016, 4379.192
290.6837, 4156.271
291.1659, 3903.086
291.6480, 3594.946
292.1301, 3287.383
292.6122, 2978.623
293.0943, 2678.401
293.5764, 2398.533
294.0586, 2143.000
294.5407, 1911.915
295.0228, 1704.671
295.5049, 1527.385
295.9870, 1368.704
296.4691, 1231.835
296.9513, 1111.915
297.4334, 1004.289
297.9155, 907.8248
298.3976, 822.4034
298.8797, 748.4561
299.3618, 690.4544
299.8440, 637.7260
300.3261, 590.6888
300.8082, 548.8643
301.2903, 512.0314
301.7724, 480.1356
302.2545, 451.8910
302.7367, 425.6684
303.2188, 401.5868
303.7009, 380.3497
304.1830, 362.7973
304.6651, 346.9904
305.1472, 331.6128
305.6294, 316.7041
306.1115, 303.2853
306.5936, 292.4622
307.0757, 284.3837
307.5578, 275.5121
308.0399, 264.6568
308.5221, 254.3125
309.0042, 245.8469
309.4863, 238.8209
309.9684, 232.0723
310.4505, 224.8680
310.9326, 217.3245
311.4148, 210.5103
311.8969, 204.2537
312.3790, 198.7486
312.8611, 194.5397
313.3432, 191.0378
313.8253, 187.2631
314.3075, 182.7787
314.7896, 177.8423
315.2717, 173.0697
315.7538, 168.3476
316.2359, 163.9417
316.7180, 159.6834
317.2001, 155.8352
317.6823, 152.8069
318.1644, 150.6855
318.6465, 149.0495
319.1286, 147.2647
319.6107, 145.2095
320.0928, 143.3298
320.5750, 141.9132
321.0571, 140.4612
321.5392, 138.5274
322.0213, 136.1022
322.5034, 133.5032
322.9855, 131.0251
323.4677, 128.6278
323.9498, 126.6302
324.4319, 125.2861
324.9140, 124.0335
325.3961, 122.4797
325.8782, 120.7491
326.3604, 119.2955
326.8425, 118.4962
327.3246, 118.2598
327.8067, 117.5067
328.2888, 115.8036
328.7709, 114.1571
329.2531, 112.9993
329.7352, 112.0401
330.2173, 110.7033
330.6994, 108.6905
331.1815, 106.3581
331.6636, 104.6605
332.1458, 104.3922
332.6279, 103.8034
333.1100, 102.5794
333.5921, 101.1470
334.0742, 99.95669
334.5563, 99.13038
335.0385, 98.39424
335.5206, 97.33784
336.0027, 95.71823
336.4848, 94.40128
336.9669, 93.47090
337.4490, 92.72700
337.9312, 92.22409
338.4133, 91.84545
338.8954, 91.20482
339.3775, 89.89703
339.8596, 87.84286
340.3417, 86.07687
340.8239, 84.43084
341.3060, 83.19638
341.7881, 82.91465
342.2702, 83.10842
342.7523, 82.73846
343.2344, 81.09435
343.7166, 78.56918
344.1987, 77.09736
344.6808, 77.97449
345.1629, 78.49096
345.6450, 78.24336
346.1271, 77.58157
346.6093, 76.91538
347.0914, 76.39835
347.5735, 75.87498
348.0556, 75.01847
348.5377, 73.36640
349.0198, 72.23426
349.5020, 71.69151
349.9841, 71.53140
350.4662, 71.78642
350.9483, 72.35918
351.4304, 72.94641
351.9125, 73.23946
352.3947, 73.23405
352.8768, 72.95383
353.3589, 72.12361
353.8410, 71.29589
354.3231, 70.70472
354.8052, 70.26759
355.2874, 69.76091
355.7695, 69.01613
356.2516, 68.09963
356.7337, 67.39388
357.2158, 67.23429
357.6979, 66.82034
358.1800, 65.48521
358.6621, 64.05717
359.1443, 63.59092
359.6264, 64.48301
360.1085, 65.97702
360.5906, 66.69505
361.0727, 66.33207
361.5548, 65.97214
362.0370, 65.70696
362.5191, 65.49278
363.0012, 65.39896
363.4833, 65.37886
363.9654, 65.20796
364.4475, 64.53472
364.9297, 63.30567
365.4118, 62.47659
365.8939, 62.26642
366.3760, 62.25426
366.8581, 62.42170
367.3402, 62.64704
367.8224, 62.69181
368.3045, 62.34807
368.7866, 61.78451
369.2687, 61.54819
369.7508, 61.85268
370.2329, 62.00973
370.7151, 61.69799
371.1972, 61.18104
371.6793, 60.66033
372.1614, 60.18166
372.6435, 59.82473
373.1256, 59.79555
373.6078, 60.13434
374.0899, 60.20007
374.5720, 59.45451
375.0541, 58.76402
375.5362, 58.87828
376.0183, 59.73650
376.5005, 60.58681
376.9826, 60.89551
377.4647, 60.79510
377.9468, 60.83834
378.4289, 61.22521
378.9110, 61.37406
379.3932, 60.45378
379.8753, 59.05213
380.3574, 58.36852
380.8395, 59.27642
381.3216, 60.60330
381.8037, 60.76210
382.2859, 59.72602
382.7680, 58.88379
383.2501, 58.96418
383.7322, 59.51625
384.2143, 59.81798
384.6964, 59.84720
385.1786, 59.65365
385.6607, 59.00895
386.1428, 58.15710
386.6249, 57.87266
387.1070, 58.51385
387.5891, 59.25170
388.0713, 58.92857
388.5534, 57.65733
389.0355, 56.68938
389.5176, 56.32427
389.9997, 56.34729
390.4818, 56.78614
390.9640, 57.57949
391.4461, 57.99706
391.9282, 57.40973
392.4103, 56.03423
392.8924, 55.12843
393.3745, 54.76184
393.8567, 54.73745
394.3388, 55.22003
394.8209, 55.96574
395.3030, 56.46429
395.7851, 56.51126
396.2672, 56.35170
396.7494, 56.43325
397.2315, 56.92553
397.7136, 57.25055
398.1957, 57.33076
398.6778, 57.27232
399.1599, 57.05794
399.6420, 56.74450
400.1241, 56.61982
400.6063, 57.03529
401.0884, 58.03352
401.5705, 58.10600
402.0526, 56.26033
402.5347, 54.72440
403.0168, 54.34914
403.4990, 54.69960
403.9811, 55.06336
404.4632, 55.10030
404.9453, 54.90844
405.4274, 54.70738
405.9095, 54.40013
406.3917, 54.26366
406.8738, 54.65686
407.3559, 54.95473
407.8380, 54.47617
408.3201, 53.29683
408.8022, 52.26243
409.2844, 52.35788
409.7665, 53.69793
410.2486, 54.30208
410.7307, 53.48956
411.2128, 52.63378
411.6949, 51.89473
412.1771, 51.42966
412.6592, 51.55016
413.1413, 52.51281
413.6234, 53.79141
414.1055, 54.20210
414.5876, 53.48568
415.0698, 52.68879
415.5519, 51.75049
416.0340, 51.02768
416.5161, 50.92580
416.9982, 51.44648
417.4803, 51.98882
417.9625, 51.93404
418.4446, 51.39811
418.9267, 51.22570
419.4088, 51.66959
419.8909, 52.12712
420.3730, 52.21487
420.8552, 52.03620
421.3373, 51.76683
421.8194, 51.37566
422.3015, 51.01235
422.7836, 50.89805
423.2657, 51.02973
423.7479, 51.13792
424.2300, 51.07800
424.7121, 50.97431
425.1942, 51.07573
425.6763, 51.46082
426.1584, 51.65170
426.6406, 51.30363
427.1227, 50.66800
427.6048, 50.15334
428.0869, 49.82428
428.5690, 49.61203
429.0511, 49.48108
429.5333, 49.43202
430.0154, 49.35011
430.4975, 49.02489
430.9796, 48.86457
431.4617, 49.23530
431.9438, 49.96064
432.4260, 50.60467
432.9081, 50.96856
433.3902, 51.09669
433.8723, 51.08394
434.3544, 50.89136
434.8365, 50.60789
435.3187, 49.99018
435.8008, 49.44506
436.2829, 49.45393
436.7650, 49.97609
437.2471, 50.46026
437.7292, 50.35929
438.2114, 49.65163
438.6935, 49.20219
439.1756, 49.28559
439.6577, 49.32526
440.1398, 49.10759
440.6219, 48.79686
441.1040, 48.66115
441.5862, 48.81262
442.0683, 49.05595
442.5504, 48.99257
443.0325, 48.45965
443.5146, 48.12190
443.9967, 48.10616
444.4789, 48.24274
444.9610, 48.53825
445.4431, 48.93142
445.9252, 49.26501
446.4073, 49.42513
446.8894, 49.43379
447.3716, 49.37284
447.8537, 49.24129
448.3358, 49.04079
448.8179, 48.74699
449.3000, 48.39391
449.7821, 47.96973
450.2643, 47.43333
450.7464, 47.00946
451.2285, 46.93618
451.7106, 47.15902
452.1927, 47.44011
452.6748, 47.78835
453.1570, 48.06684
453.6391, 48.09861
454.1212, 47.92907
454.6033, 47.72076
455.0854, 47.37528
455.5675, 47.10741
456.0497, 47.20679
456.5318, 47.60891
457.0139, 47.94640
457.4960, 48.08232
457.9781, 47.97156
458.4602, 47.39872
458.9424, 45.96665
459.4245, 44.97137
459.9066, 44.97258
460.3887, 45.33517
460.8708, 45.36000
461.3529, 44.97417
461.8351, 44.64600
462.3172, 44.87813
462.7993, 45.70450
463.2814, 45.96552
463.7635, 45.22157
464.2456, 44.45997
464.7278, 43.97350
465.2099, 43.59703
465.6920, 42.98959
466.1741, 42.03106
466.6562, 41.09546
467.1383, 40.88956
467.6205, 41.73073
468.1026, 42.30991
468.5847, 42.45887
469.0668, 42.44751
469.5489, 42.29929
470.0310, 42.08055
470.5132, 41.93237
470.9953, 41.97638
471.4774, 42.11504
471.9595, 42.09062
472.4416, 41.87154
472.9237, 41.60681
473.4059, 41.27491
473.8880, 40.96723
474.3701, 40.75584
474.8522, 40.64894
475.3343, 40.65420
475.8164, 40.92418
476.2986, 41.29716
476.7807, 41.29668
477.2628, 40.79730
477.7449, 40.31221
478.2270, 40.18114
478.7091, 40.39568
479.1913, 40.83981
479.6734, 41.79556
480.1555, 42.65918
480.6376, 43.23449
481.1197, 43.47919
481.6018, 43.17806
482.0839, 42.22705
482.5660, 41.12974
483.0482, 40.60954
483.5303, 40.89435
484.0124, 40.96343
484.4945, 40.46299
484.9766, 40.09118
485.4587, 40.31037
485.9409, 40.96538
486.4230, 41.73841
486.9051, 42.49271
487.3872, 43.00452
487.8693, 42.49855
488.3514, 39.85985
488.8336, 38.31797
489.3157, 38.68414
489.7978, 39.58365
490.2799, 40.26018
490.7620, 40.59974
491.2441, 40.73481
491.7263, 40.72346
492.2084, 40.59712
492.6905, 40.51144
493.1726, 40.49031
493.6547, 40.45322
494.1368, 40.39715
494.6190, 40.29431
495.1011, 40.10698
495.5832, 39.82566
496.0653, 39.48674
496.5474, 38.98481
497.0295, 38.44350
497.5117, 38.32441
497.9938, 38.78856
498.4759, 39.27618
498.9580, 39.24580
499.4401, 38.82060
499.9222, 38.68221
500.4044, 39.19556
500.8865, 39.66928
501.3686, 39.79705
501.8507, 39.62257
502.3328, 39.20327
502.8149, 38.55328
503.2971, 37.76905
503.7792, 36.94888
504.2613, 35.97017
504.7434, 35.42768
505.2255, 35.68866
505.7076, 35.97387
506.1898, 35.85144
506.6719, 35.47367
507.1540, 35.20898
507.6361, 35.25384
508.1182, 35.48196
508.6003, 35.60822
509.0825, 35.61422
509.5646, 35.56720
510.0467, 35.28645
510.5288, 35.11420
511.0109, 35.37043
511.4930, 35.93520
511.9752, 36.36532
512.4573, 36.40563
512.9394, 36.11293
513.4215, 35.48532
513.9036, 34.41748
514.3857, 33.69403
514.8679, 33.91690
515.3500, 34.41390
515.8321, 34.16770
516.3142, 33.03333
516.7963, 32.31960
517.2784, 33.06939
517.7606, 34.34597
518.2427, 34.73892
518.7248, 34.16189
519.2069, 33.55221
519.6890, 33.55150
520.1711, 34.01574
520.6533, 34.22567
521.1354, 33.94644
521.6175, 33.76945
522.0996, 33.86141
522.5817, 34.06015
523.0638, 34.24251
523.5460, 34.36671
524.0281, 34.40081
524.5102, 34.31178
524.9923, 34.10193
525.4744, 33.80730
525.9565, 33.29614
526.4387, 32.87810
526.9208, 32.43707
527.4029, 32.20423
527.8850, 32.64605
528.3671, 33.82240
528.8492, 34.83475
529.3314, 34.57108
529.8135, 33.17589
530.2956, 32.06328
530.7777, 31.37803
531.2598, 30.84425
531.7419, 30.17710
532.2241, 29.57333
532.7062, 29.39971
533.1883, 29.83815
533.6704, 30.48468
534.1525, 31.31100
534.6346, 32.11745
535.1168, 32.33299
535.5989, 31.78721
536.0810, 31.07957
536.5631, 30.79589
537.0452, 30.95963
537.5273, 31.17365
538.0095, 31.54481
538.4916, 31.84337
538.9737, 31.87902
539.4558, 31.82472
539.9379, 32.01496
540.4200, 32.53414
540.9022, 33.04264
541.3843, 33.00930
541.8664, 32.28719
542.3485, 31.85540
542.8306, 31.90751
543.3127, 32.06115
543.7948, 32.29519
544.2769, 32.52602
544.7590, 32.61751
545.2411, 32.50574
545.7233, 32.34813
546.2054, 32.35384
546.6875, 32.51060
547.1696, 32.61061
547.6517, 32.54243
548.1339, 32.56348
548.6160, 33.08109
549.0981, 33.88406
549.5802, 34.35167
550.0623, 34.08390
550.5444, 33.75176
551.0266, 33.91435
551.5087, 34.32793
551.9908, 34.39948
552.4729, 33.94248
552.9550, 33.25322
553.4371, 32.66372
553.9193, 32.15152
554.4014, 31.89456
554.8835, 32.20072
555.3656, 32.38428
555.8477, 31.92140
556.3298, 31.26805
556.8120, 31.24264
557.2941, 32.11324
557.7762, 33.16016
558.2583, 33.29049
558.7404, 32.37553
559.2225, 31.60700
559.7047, 30.96069
560.1868, 30.56011
560.6689, 30.33862
561.1510, 30.39501
561.6331, 30.99600
562.1152, 32.42316
562.5974, 33.83583
563.0795, 34.49998
563.5616, 34.50837
564.0437, 34.09987
564.5258, 33.23668
565.0079, 32.34500
565.4901, 31.79133
565.9722, 31.58362
566.4543, 31.48782
566.9364, 31.40501
567.4185, 31.54403
567.9006, 32.30050
568.3828, 33.20685
568.8649, 33.57911
569.3470, 33.25567
569.8291, 32.57908
570.3112, 31.87240
570.7933, 31.10521
571.2755, 30.83393
571.7576, 31.66378
572.2397, 32.23302
572.7218, 32.04584
573.2039, 31.52338
573.6860, 30.97995
574.1682, 30.51460
574.6503, 30.53953
575.1324, 31.98672
575.6145, 34.36206
576.0966, 35.27494
576.5787, 34.25939
577.0609, 33.02829
577.5430, 32.47830
578.0251, 32.49408
578.5072, 32.76639
578.9893, 33.46529
579.4714, 34.02360
579.9536, 34.25732
580.4357, 34.21535
580.9178, 33.84426
581.3999, 33.20070
581.8820, 32.60976
582.3641, 32.32731
582.8463, 32.30175
583.3284, 32.23932
583.8105, 32.36940
584.2926, 32.10485
584.7747, 30.67663
585.2568, 29.40358
585.7390, 29.48240
586.2211, 30.78868
586.7032, 32.24612
587.1853, 33.22468
587.6674, 33.70825
588.1495, 33.47882
588.6317, 32.38907
589.1138, 31.50625
589.5959, 31.27358
590.0780, 31.30388
590.5601, 31.05568
591.0422, 30.53512
591.5244, 30.33061
592.0065, 30.99225
592.4886, 31.75605
592.9707, 31.97449
593.4528, 31.69046
593.9349, 31.04628
594.4171, 30.06138
594.8992, 29.08650
595.3813, 28.78011
595.8634, 29.49549
596.3455, 29.83531
596.8276, 29.35641
597.3098, 29.02017
597.7919, 29.38183
598.2740, 30.12392
598.7561, 30.70914
599.2382, 30.92183
599.7203, 30.87170
600.2025, 30.60117
600.6846, 30.12109
601.1667, 29.93215
601.6488, 30.28666
602.1309, 30.52958
602.6130, 30.02259
603.0952, 29.10670
603.5773, 28.46582
604.0594, 28.21877
604.5415, 28.19018
605.0236, 28.36280
605.5057, 28.66788
605.9879, 29.08826
606.4700, 29.58621
606.9521, 29.89124
607.4342, 29.74623
607.9163, 29.22010
608.3984, 28.82537
608.8806, 28.36056
609.3627, 28.33952
609.8448, 29.31654
610.3269, 30.35605
610.8090, 30.71921
611.2911, 30.40389
611.7733, 29.83877
612.2554, 29.18540
612.7375, 28.60432
613.2196, 28.54537
613.7017, 29.06187
614.1838, 29.54917
614.6660, 29.87192
615.1481, 30.03877
615.6302, 30.01148
616.1123, 29.80560
616.5944, 29.63760
617.0765, 29.58724
617.5587, 29.55486
618.0408, 29.39243
618.5229, 29.20703
619.0050, 29.29203
619.4871, 29.74293
619.9692, 30.25637
620.4514, 30.38111
620.9335, 30.02155
621.4156, 30.01296
621.8977, 30.85268
622.3798, 31.45602
622.8619, 31.53756
623.3441, 31.24475
623.8262, 30.60260
624.3083, 29.64177
624.7904, 28.87567
625.2725, 28.86583
625.7546, 29.37409
626.2367, 29.76179
626.7188, 29.99255
627.2009, 30.18210
627.6830, 30.42185
628.1652, 30.63524
628.6473, 30.59187
629.1294, 30.15323
629.6115, 29.94401
630.0936, 30.12535
630.5757, 30.50476
631.0579, 31.11679
631.5400, 31.80341
632.0221, 32.12490
632.5042, 31.83916
632.9863, 31.44332
633.4684, 32.13777
633.9506, 34.41803
634.4327, 35.27380
634.9148, 33.52361
635.3969, 31.61002
635.8790, 30.64665
636.3611, 30.37242
636.8433, 30.38449
637.3254, 30.66553
637.8075, 30.95322
638.2896, 31.06602
638.7717, 31.04988
639.2538, 30.93588
639.7360, 30.73832
640.2181, 30.70675
640.7002, 31.12427
641.1823, 31.75389
641.6644, 31.61958
642.1465, 29.28099
642.6287, 28.19088
643.1108, 29.51470
643.5929, 31.12586
644.0750, 31.62475
644.5571, 31.15281
645.0392, 30.49968
645.5214, 30.05190
646.0035, 29.81769
