##NAMES=Rhodochrosite
##RRUFFID=R100002
##IDEAL CHEMISTRY=Mn^2+^CO_3_
##LOCALITY=Wudong mine, Liubao, Guangxi  Autonomous Region, China
##OWNER=RRUFF
##SOURCE=Marcus Origlieri
##DESCRIPTION=Red cleavage fragment
##STATUS=The identification of this mineral has been confirmed by X-ray diffraction.
##URL=rruff.info/R100002
89.60352, 42.82914
90.08563, 42.72633
90.56775, 42.48586
91.04987, 40.93438
91.53198, 40.34101
92.01410, 44.93908
92.49622, 54.46003
92.97833, 63.67714
93.46045, 68.01881
93.94257, 68.21101
94.42468, 66.59891
94.90680, 63.84751
95.38892, 59.92921
95.87103, 52.71373
96.35315, 40.82963
96.83527, 31.41800
97.31738, 38.08486
97.79950, 61.49099
98.28162, 79.84698
98.76373, 79.26020
99.24585, 58.97392
99.72797, 48.81665
100.2101, 52.32943
100.6922, 63.54871
101.1743, 67.93127
101.6564, 63.16130
102.1385, 57.95418
102.6207, 58.04770
103.1028, 66.01507
103.5849, 71.30135
104.0670, 73.00281
104.5491, 71.21577
105.0313, 66.28736
105.5134, 55.77076
105.9955, 44.60459
106.4776, 36.38604
106.9597, 31.75675
107.4418, 29.29694
107.9240, 29.20425
108.4061, 31.72092
108.8882, 34.73330
109.3703, 39.55030
109.8524, 44.37484
110.3345, 47.26046
110.8167, 45.42683
111.2988, 44.17107
111.7809, 44.71184
112.2630, 47.30903
112.7451, 51.14316
113.2272, 59.73658
113.7094, 69.07986
114.1915, 72.63210
114.6736, 61.34215
115.1557, 49.17970
115.6378, 43.41816
116.1199, 49.25986
116.6021, 54.48540
117.0842, 53.55532
117.5663, 48.38981
118.0484, 44.75658
118.5305, 45.57552
119.0126, 48.73019
119.4948, 52.72424
119.9769, 59.96010
120.4590, 65.08433
120.9411, 63.41941
121.4232, 55.70898
121.9053, 47.45655
122.3875, 39.97640
122.8696, 34.53305
123.3517, 32.88218
123.8338, 38.99556
124.3159, 47.56487
124.7980, 52.26982
125.2802, 52.97020
125.7623, 53.82823
126.2444, 59.63332
126.7265, 68.72987
127.2086, 76.70479
127.6907, 79.68181
128.1729, 80.38718
128.6550, 85.12993
129.1371, 95.12063
129.6192, 105.6623
130.1013, 110.9225
130.5834, 111.2015
131.0656, 109.3020
131.5477, 103.1362
132.0298, 94.79433
132.5119, 96.65580
132.9940, 113.3693
133.4761, 135.5106
133.9583, 143.8443
134.4404, 137.3756
134.9225, 128.1672
135.4046, 123.5732
135.8867, 123.5736
136.3688, 127.3209
136.8510, 135.6243
137.3331, 147.2679
137.8152, 159.0266
138.2973, 171.7719
138.7794, 182.2766
139.2615, 187.4346
139.7437, 186.1263
140.2258, 183.7634
140.7079, 180.0274
141.1900, 175.2287
141.6721, 176.6608
142.1542, 186.6579
142.6364, 199.7985
143.1185, 210.0951
143.6006, 215.4734
144.0827, 222.0815
144.5648, 232.2918
145.0469, 247.7171
145.5291, 258.0518
146.0112, 262.3187
146.4933, 262.2120
146.9754, 259.6531
147.4575, 249.1475
147.9396, 242.8907
148.4218, 245.2913
148.9039, 261.4978
149.3860, 273.8180
149.8681, 278.5991
150.3502, 279.6692
150.8323, 284.7334
151.3145, 297.0910
151.7966, 310.5873
152.2787, 323.4395
152.7608, 335.6519
153.2429, 346.9708
153.7250, 358.9862
154.2072, 370.3190
154.6893, 377.1043
155.1714, 366.4644
155.6535, 356.9131
156.1356, 359.9707
156.6177, 389.4339
157.0999, 416.0069
157.5820, 433.3821
158.0641, 443.3857
158.5462, 453.2879
159.0283, 464.2028
159.5104, 476.1009
159.9926, 488.9584
160.4747, 501.1003
160.9568, 515.7675
161.4389, 533.9127
161.9210, 555.2031
162.4031, 579.4982
162.8853, 602.4163
163.3674, 629.8058
163.8495, 667.0154
164.3316, 722.2247
164.8137, 782.0416
165.2958, 840.8071
165.7780, 898.6616
166.2601, 955.2629
166.7422, 1012.377
167.2243, 1068.455
167.7064, 1120.752
168.1885, 1165.479
168.6707, 1208.588
169.1528, 1254.167
169.6349, 1302.665
170.1170, 1352.164
170.5991, 1395.234
171.0812, 1439.440
171.5634, 1497.129
172.0455, 1583.073
172.5276, 1680.622
173.0097, 1771.156
173.4918, 1852.266
173.9739, 1937.910
174.4561, 2038.930
174.9382, 2154.862
175.4203, 2285.341
175.9024, 2424.409
176.3845, 2578.368
176.8666, 2752.672
177.3488, 2946.540
177.8309, 3168.628
178.3130, 3424.798
178.7951, 3717.609
179.2772, 4046.620
179.7593, 4423.991
180.2415, 4836.702
180.7236, 5276.952
181.2057, 5757.827
181.6878, 6233.017
182.1699, 6697.587
182.6520, 7129.267
183.1342, 7432.584
183.6163, 7566.393
184.0984, 7523.346
184.5805, 7257.587
185.0626, 6722.497
185.5447, 6028.635
186.0269, 5299.335
186.5090, 4541.175
186.9911, 3839.093
187.4732, 3255.895
187.9553, 2777.987
188.4374, 2372.584
188.9196, 2034.887
189.4017, 1758.423
189.8838, 1533.460
190.3659, 1358.131
190.8480, 1215.424
191.3301, 1096.197
191.8123, 998.0628
192.2944, 907.6263
192.7765, 820.2787
193.2586, 739.7352
193.7407, 683.2043
194.2228, 652.8138
194.7050, 630.5011
195.1871, 600.4791
195.6692, 562.8550
196.1513, 529.6567
196.6334, 504.3671
197.1155, 485.1942
197.5977, 464.1949
198.0798, 440.7393
198.5619, 418.3128
199.0440, 400.2446
199.5261, 386.4986
200.0082, 376.0840
200.4904, 369.7883
200.9725, 366.7699
201.4546, 361.2404
201.9367, 352.7693
202.4188, 342.9685
202.9009, 333.3460
203.3831, 323.8260
203.8652, 314.7017
204.3473, 306.3083
204.8294, 298.5085
205.3115, 288.8784
205.7936, 275.8722
206.2758, 264.2932
206.7579, 260.6456
207.2400, 267.1593
207.7221, 271.6968
208.2042, 270.4051
208.6863, 263.4470
209.1685, 259.3963
209.6506, 259.3297
210.1327, 260.2687
210.6148, 258.6848
211.0969, 253.9628
211.5790, 248.8001
212.0612, 243.1963
212.5433, 237.1169
213.0254, 234.7006
213.5075, 237.5451
213.9896, 241.8870
214.4717, 242.6838
214.9538, 238.1778
215.4360, 235.0528
215.9181, 235.9011
216.4002, 241.1875
216.8823, 243.1106
217.3644, 241.3373
217.8465, 236.5793
218.3287, 228.3665
218.8108, 212.8000
219.2929, 202.8076
219.7750, 203.0182
220.2571, 214.8687
220.7392, 224.1649
221.2214, 230.5061
221.7035, 234.8009
222.1856, 238.4470
222.6677, 242.0909
223.1498, 243.5837
223.6319, 241.5640
224.1141, 235.2645
224.5962, 231.4528
225.0783, 231.0419
225.5604, 232.3427
226.0425, 233.2935
226.5246, 234.1422
227.0068, 234.1201
227.4889, 232.7986
227.9710, 229.8870
228.4531, 227.2369
228.9352, 223.7161
229.4173, 221.3879
229.8995, 223.7916
230.3816, 235.0987
230.8637, 243.5697
231.3458, 245.0239
231.8279, 237.9377
232.3100, 233.8711
232.7922, 233.6325
233.2743, 235.7351
233.7564, 238.3455
234.2385, 241.3642
234.7206, 245.0397
235.2027, 249.4304
235.6849, 254.5390
236.1670, 260.7590
236.6491, 270.4568
237.1312, 279.3727
237.6133, 281.1753
238.0954, 269.9518
238.5776, 262.0509
239.0597, 262.8431
239.5418, 274.0922
240.0239, 281.2587
240.5060, 282.1775
240.9881, 280.8038
241.4703, 282.0128
241.9524, 286.5715
242.4345, 292.4008
242.9166, 299.9355
243.3987, 310.0003
243.8808, 315.0318
244.3630, 311.1668
244.8451, 305.6625
245.3272, 307.7372
245.8093, 322.1890
246.2914, 335.5365
246.7735, 344.9637
247.2557, 350.3297
247.7378, 352.8022
248.2199, 349.4644
248.7020, 346.0748
249.1841, 349.5466
249.6662, 363.7175
250.1484, 377.1641
250.6305, 386.6314
251.1126, 391.6175
251.5947, 400.7286
252.0768, 416.5981
252.5589, 433.6396
253.0411, 445.3425
253.5232, 447.9044
254.0053, 453.1431
254.4874, 464.1267
254.9695, 481.0281
255.4516, 496.7108
255.9338, 510.8322
256.4159, 524.1605
256.8980, 536.4346
257.3801, 545.3603
257.8622, 559.2950
258.3444, 581.5393
258.8265, 611.6989
259.3086, 636.1804
259.7907, 650.8052
260.2728, 665.1605
260.7549, 686.9830
261.2371, 717.0479
261.7192, 752.9973
262.2013, 795.1227
262.6834, 843.2867
263.1655, 891.1464
263.6476, 936.8459
264.1298, 986.2029
264.6119, 1045.375
265.0940, 1115.164
265.5761, 1189.654
266.0582, 1264.605
266.5403, 1342.409
267.0225, 1439.740
267.5046, 1556.652
267.9867, 1691.870
268.4688, 1844.406
268.9509, 2016.393
269.4330, 2202.359
269.9152, 2399.323
270.3973, 2610.917
270.8794, 2846.578
271.3615, 3109.706
271.8436, 3386.431
272.3257, 3664.505
272.8079, 3946.318
273.2900, 4221.572
273.7721, 4491.587
274.2542, 4755.812
274.7363, 5016.836
275.2184, 5274.692
275.7006, 5527.607
276.1827, 5764.721
276.6648, 5984.969
277.1469, 6216.691
277.6290, 6460.791
278.1111, 6718.743
278.5933, 6988.359
279.0754, 7269.181
279.5575, 7579.448
280.0396, 7932.483
280.5217, 8325.275
281.0038, 8742.594
281.4860, 9179.619
281.9681, 9647.860
282.4502, 10167.74
282.9323, 10739.69
283.4144, 11354.35
283.8965, 12027.36
284.3787, 12747.13
284.8608, 13453.90
285.3429, 14152.15
285.8250, 14821.55
286.3071, 15465.19
286.7892, 16080.99
287.2714, 16563.29
287.7535, 16887.06
288.2356, 17045.64
288.7177, 16995.95
289.1998, 16738.67
289.6819, 16284.60
290.1641, 15604.06
290.6462, 14713.58
291.1283, 13737.34
291.6104, 12693.65
292.0925, 11604.73
292.5746, 10555.59
293.0568, 9539.231
293.5389, 8578.741
294.0210, 7705.314
294.5031, 6913.677
294.9852, 6197.750
295.4673, 5566.554
295.9495, 5008.423
296.4316, 4521.573
296.9137, 4107.011
297.3958, 3742.370
297.8779, 3415.699
298.3600, 3127.504
298.8422, 2871.919
299.3243, 2651.405
299.8064, 2457.945
300.2885, 2279.868
300.7706, 2118.132
301.2527, 1973.537
301.7349, 1852.719
302.2170, 1749.519
302.6991, 1657.208
303.1812, 1575.508
303.6633, 1499.706
304.1454, 1422.708
304.6276, 1346.725
305.1097, 1278.017
305.5918, 1224.763
306.0739, 1179.816
306.5560, 1135.780
307.0381, 1090.808
307.5203, 1047.157
308.0024, 1005.867
308.4845, 967.1516
308.9666, 931.5176
309.4487, 901.7991
309.9308, 873.7010
310.4130, 842.8705
310.8951, 808.0594
311.3772, 775.9460
311.8593, 751.1014
312.3414, 732.0873
312.8235, 716.2302
313.3057, 707.1837
313.7878, 697.2140
314.2699, 680.1132
314.7520, 655.2489
315.2341, 631.6072
315.7162, 612.6256
316.1984, 597.5548
316.6805, 585.7655
317.1626, 580.0668
317.6447, 574.6459
318.1268, 568.1774
318.6089, 560.4371
319.0911, 549.6888
319.5732, 530.5683
320.0553, 510.6984
320.5374, 496.1468
321.0195, 494.3310
321.5016, 491.2285
321.9838, 481.4451
322.4659, 466.8868
322.9480, 456.8760
323.4301, 458.0223
323.9122, 460.7755
324.3943, 460.0742
324.8765, 453.4884
325.3586, 446.2017
325.8407, 438.3874
326.3228, 430.1644
326.8049, 421.8061
327.2870, 413.0335
327.7692, 404.4774
328.2513, 396.1126
328.7334, 387.1794
329.2155, 380.4489
329.6976, 377.8926
330.1797, 376.8660
330.6619, 373.1736
331.1440, 364.1259
331.6261, 355.9717
332.1082, 350.4914
332.5903, 348.1726
333.0724, 345.8444
333.5546, 344.0160
334.0367, 341.6982
334.5188, 337.8720
335.0009, 332.3348
335.4830, 325.4471
335.9651, 315.9522
336.4473, 304.3833
336.9294, 299.0471
337.4115, 301.7418
337.8936, 307.1053
338.3757, 312.0036
338.8578, 317.3294
339.3399, 317.2342
339.8221, 308.8494
340.3042, 295.6299
340.7863, 290.3707
341.2684, 294.8624
341.7505, 298.0510
342.2326, 291.1111
342.7148, 274.2181
343.1969, 262.9108
343.6790, 259.5112
344.1611, 259.8166
344.6432, 256.3015
345.1253, 249.0186
345.6075, 242.5713
346.0896, 239.3811
346.5717, 238.8923
347.0538, 239.4245
347.5359, 241.2326
348.0180, 242.4555
348.5002, 240.2789
348.9823, 235.4393
349.4644, 230.9665
349.9465, 227.7357
350.4286, 225.6890
350.9107, 225.7577
351.3929, 227.8287
351.8750, 228.4686
352.3571, 222.0777
352.8392, 212.6817
353.3213, 208.1210
353.8034, 213.0142
354.2856, 219.7865
354.7677, 220.5356
355.2498, 216.4218
355.7319, 212.2083
356.2140, 210.9098
356.6961, 210.8775
357.1783, 210.5438
357.6604, 209.7313
358.1425, 208.3134
358.6246, 205.4184
359.1067, 201.8813
359.5888, 199.3014
360.0710, 198.9237
360.5531, 199.2822
361.0352, 199.8037
361.5173, 200.5332
361.9994, 200.5284
362.4815, 198.1785
362.9637, 195.3851
363.4458, 194.1874
363.9279, 199.1826
364.4100, 201.8131
364.8921, 197.4787
365.3742, 186.8373
365.8564, 179.5530
366.3385, 178.0000
366.8206, 179.7508
367.3027, 183.3428
367.7848, 191.8239
368.2669, 198.3802
368.7491, 203.1641
369.2312, 205.8147
369.7133, 204.8356
370.1954, 196.5655
370.6775, 188.6081
371.1596, 183.8099
371.6418, 182.8210
372.1239, 183.1646
372.6060, 185.7357
373.0881, 188.9969
373.5702, 190.8683
374.0523, 191.3727
374.5345, 190.3758
375.0166, 187.4911
375.4987, 182.7303
375.9808, 178.2679
376.4629, 173.9240
376.9450, 170.1556
377.4272, 166.6528
377.9093, 163.0866
378.3914, 163.2797
378.8735, 169.1583
379.3556, 178.2450
379.8377, 184.1616
380.3199, 186.8261
380.8020, 186.7785
381.2841, 183.3568
381.7662, 177.1585
382.2483, 170.9230
382.7304, 164.2048
383.2126, 159.5646
383.6947, 162.6643
384.1768, 171.8739
384.6589, 178.9376
385.1410, 179.2466
385.6231, 175.3480
386.1053, 170.5221
386.5874, 164.7883
387.0695, 160.4961
387.5516, 160.6159
388.0337, 163.3536
388.5158, 165.5714
388.9980, 165.8148
389.4801, 165.7050
389.9622, 166.3407
390.4443, 167.6941
390.9264, 169.6895
391.4085, 174.5719
391.8907, 178.7434
392.3728, 178.6971
392.8549, 172.0382
393.3370, 165.7999
393.8191, 162.6068
394.3012, 161.8870
394.7834, 162.6766
395.2655, 166.9253
395.7476, 170.6322
396.2297, 172.2283
396.7118, 171.4680
397.1939, 169.7919
397.6761, 167.3381
398.1582, 164.1068
398.6403, 160.0985
399.1224, 153.1952
399.6045, 147.9498
400.0866, 143.5854
400.5688, 140.7679
401.0509, 144.0014
401.5330, 159.5001
402.0151, 173.5075
402.4972, 178.9335
402.9793, 171.8343
403.4615, 166.3101
403.9436, 162.8137
404.4257, 160.5415
404.9078, 157.7233
405.3899, 153.5241
405.8720, 152.0349
406.3542, 156.0698
406.8363, 164.9244
407.3184, 168.4165
407.8005, 165.7686
408.2826, 161.1088
408.7647, 159.0491
409.2469, 159.2186
409.7290, 155.9411
410.2111, 146.0995
410.6932, 134.8501
411.1753, 134.2348
411.6574, 143.1878
412.1396, 151.2275
412.6217, 149.3526
413.1038, 142.3908
413.5859, 139.6706
414.0680, 142.4034
414.5501, 147.1687
415.0323, 153.3202
415.5144, 158.9867
415.9965, 160.6409
416.4786, 152.4793
416.9607, 142.8428
417.4428, 137.2374
417.9250, 135.7281
418.4071, 137.7609
418.8892, 148.6517
419.3713, 159.9733
419.8534, 163.9642
420.3355, 153.7029
420.8177, 144.6393
421.2998, 142.3804
421.7819, 144.8211
422.2640, 147.3229
422.7461, 148.4740
423.2282, 149.8394
423.7104, 152.5678
424.1925, 157.6804
424.6746, 160.0074
425.1567, 157.3069
425.6388, 153.0361
426.1209, 150.1557
426.6031, 149.0900
427.0852, 148.7956
427.5673, 149.3452
428.0494, 150.5980
428.5315, 152.0441
429.0136, 154.3919
429.4958, 155.4135
429.9779, 153.1310
430.4600, 146.7372
430.9421, 142.5735
431.4242, 140.9058
431.9063, 141.2863
432.3885, 144.6490
432.8706, 151.0408
433.3527, 153.7226
433.8348, 148.0835
434.3169, 137.6352
434.7990, 133.8741
435.2812, 136.8381
435.7633, 140.3459
436.2454, 137.4221
436.7275, 131.1818
437.2096, 129.5158
437.6917, 135.4860
438.1739, 142.6294
438.6560, 143.0998
439.1381, 139.0864
439.6202, 136.3705
440.1023, 140.5312
440.5844, 145.4875
441.0666, 145.5782
441.5487, 140.2591
442.0308, 135.2184
442.5129, 132.5900
442.9950, 131.9490
443.4771, 132.8900
443.9593, 137.6874
444.4414, 141.4870
444.9235, 142.9027
445.4056, 142.3043
445.8877, 141.0814
446.3698, 136.1076
446.8520, 133.4075
447.3341, 136.7507
447.8162, 150.3998
448.2983, 156.7018
448.7804, 150.9687
449.2625, 141.1158
449.7447, 136.5967
450.2268, 140.2309
450.7089, 142.4819
451.1910, 140.8223
451.6731, 136.3099
452.1552, 134.7101
452.6374, 136.5781
453.1195, 139.4010
453.6016, 143.0298
454.0837, 147.2777
454.5658, 145.1609
455.0479, 134.6057
455.5301, 122.6989
456.0122, 120.4268
456.4943, 126.4493
456.9764, 132.8292
457.4585, 136.5555
457.9406, 138.8807
458.4228, 142.7037
458.9049, 147.6810
459.3870, 150.7582
459.8691, 147.3968
460.3512, 141.7064
460.8333, 139.4602
461.3155, 143.3809
461.7976, 146.2567
462.2797, 141.2276
462.7618, 132.2426
463.2439, 126.2838
463.7260, 129.8874
464.2082, 133.5436
464.6903, 130.7146
465.1724, 121.2668
465.6545, 118.3230
466.1366, 134.0520
466.6187, 151.0531
467.1009, 157.9109
467.5830, 141.1972
468.0651, 131.8578
468.5472, 134.5124
469.0293, 143.3111
469.5114, 145.8931
469.9936, 138.1913
470.4757, 132.2031
470.9578, 132.8018
471.4399, 139.8849
471.9220, 141.9530
472.4041, 137.9738
472.8863, 132.0405
473.3684, 127.0652
473.8505, 123.0758
474.3326, 121.4551
474.8147, 122.8062
475.2968, 125.8417
475.7790, 129.2012
476.2611, 132.6455
476.7432, 134.5185
477.2253, 131.7059
477.7074, 127.6770
478.1895, 129.4395
478.6717, 137.0360
479.1538, 143.0529
479.6359, 139.4499
480.1180, 131.8736
480.6001, 127.4818
481.0822, 129.6363
481.5644, 132.7089
482.0465, 134.2769
482.5286, 134.6251
483.0107, 134.3688
483.4928, 132.5814
483.9749, 131.2277
484.4571, 131.5181
484.9392, 133.8598
485.4213, 135.0614
485.9034, 132.2379
486.3855, 129.9127
486.8676, 131.3955
487.3498, 140.1893
487.8319, 146.5401
488.3140, 149.7263
488.7961, 150.1979
489.2782, 148.1833
489.7603, 142.4403
490.2425, 138.5141
490.7246, 139.7408
491.2067, 145.3898
491.6888, 146.7502
492.1709, 143.2437
492.6530, 138.7532
493.1352, 136.5952
493.6173, 136.4422
494.0994, 136.9267
494.5815, 137.6372
495.0636, 139.2769
495.5457, 144.3373
496.0279, 151.3450
496.5100, 155.8976
496.9921, 154.0924
497.4742, 150.0399
497.9563, 146.8561
498.4384, 144.6547
498.9206, 143.7560
499.4027, 146.0404
499.8848, 148.6955
500.3669, 149.3970
500.8490, 146.6348
501.3311, 143.5892
501.8133, 139.7980
502.2954, 136.3130
502.7775, 135.0995
503.2596, 137.8666
503.7417, 141.2046
504.2238, 144.9335
504.7060, 149.0213
505.1881, 151.1676
505.6702, 151.5575
506.1523, 149.6503
506.6344, 144.0553
507.1165, 133.8759
507.5987, 126.5414
508.0808, 122.6055
508.5629, 121.6492
509.0450, 124.5127
509.5271, 130.8163
510.0092, 135.4432
510.4914, 136.2775
510.9735, 134.4991
511.4556, 131.4277
511.9377, 127.3794
512.4199, 124.8058
512.9020, 126.6246
513.3841, 130.3478
513.8662, 132.9462
514.3483, 133.8457
514.8304, 134.3556
515.3126, 135.9799
515.7947, 137.4647
516.2768, 137.2412
516.7589, 133.1396
517.2410, 129.0323
517.7231, 125.8297
518.2053, 123.5297
518.6874, 122.0199
519.1695, 121.1600
519.6516, 121.2660
520.1337, 122.7146
520.6158, 125.9946
521.0980, 128.5979
521.5801, 131.0592
522.0622, 132.1591
522.5443, 129.6410
523.0264, 122.3393
523.5085, 118.7566
523.9907, 121.2665
524.4728, 127.0092
524.9549, 129.8403
525.4370, 129.8607
525.9191, 129.3846
526.4012, 128.5806
526.8834, 128.3398
527.3655, 132.3245
527.8476, 140.3615
528.3297, 145.7425
528.8118, 140.8516
529.2939, 131.1065
529.7761, 123.0996
530.2582, 118.6453
530.7403, 115.4851
531.2224, 112.7651
531.7045, 110.4928
532.1866, 108.6876
532.6688, 106.1305
533.1509, 105.2549
533.6330, 108.0275
534.1151, 114.1983
534.5972, 117.7644
535.0793, 117.2425
535.5615, 115.5045
536.0436, 113.4524
536.5257, 110.1286
537.0078, 110.3676
537.4899, 115.7464
537.9720, 122.1875
538.4542, 124.2817
538.9363, 121.8222
539.4184, 118.4770
539.9005, 114.1148
540.3826, 110.5389
540.8647, 114.5777
541.3469, 124.8299
541.8290, 130.5419
542.3111, 119.9319
542.7932, 103.4074
543.2753, 98.20565
543.7574, 104.7669
544.2396, 110.2120
544.7217, 101.6369
545.2038, 89.48657
545.6859, 85.05379
546.1680, 96.45314
546.6501, 105.5790
547.1323, 102.9943
547.6144, 94.69584
548.0965, 91.09432
548.5786, 99.28165
549.0607, 106.0859
549.5428, 107.9032
550.0250, 105.4068
550.5071, 106.4135
550.9892, 114.1454
551.4713, 119.5554
551.9534, 115.7325
552.4355, 101.0691
552.9177, 94.96024
553.3998, 99.17348
553.8819, 106.6736
554.3640, 109.2972
554.8461, 107.7836
555.3282, 106.2419
555.8104, 105.7143
556.2925, 105.5837
556.7746, 105.5182
557.2567, 105.2531
557.7388, 103.9540
558.2209, 98.71697
558.7031, 94.08881
559.1852, 94.25368
559.6673, 99.14304
560.1494, 104.3748
560.6315, 109.9868
561.1136, 114.0664
561.5958, 115.0865
562.0779, 110.7071
562.5600, 107.3586
563.0421, 105.8416
563.5242, 105.2766
564.0063, 104.6497
564.4885, 104.0442
564.9706, 103.0587
565.4527, 101.0349
565.9348, 98.81224
566.4169, 99.97585
566.8990, 105.0249
567.3812, 109.1590
567.8633, 109.0777
568.3454, 105.9973
568.8275, 104.6225
569.3096, 105.0312
569.7917, 105.3469
570.2739, 103.4762
570.7560, 100.6114
571.2381, 98.50182
571.7202, 97.44673
572.2023, 97.30090
572.6844, 98.26837
573.1666, 100.0010
573.6487, 101.9950
574.1308, 106.7127
574.6129, 108.8993
575.0950, 104.1128
575.5771, 94.21458
576.0593, 91.03669
576.5414, 101.7052
577.0235, 110.4820
577.5056, 110.6337
577.9877, 100.9784
578.4698, 94.06523
578.9520, 90.07691
579.4341, 88.37140
579.9162, 89.03592
580.3983, 91.89516
580.8804, 94.59136
581.3625, 96.99495
581.8447, 98.52596
582.3268, 98.04603
582.8089, 96.00838
583.2910, 93.59230
583.7731, 89.57394
584.2552, 86.95247
584.7373, 90.96902
585.2194, 99.36396
585.7015, 103.6606
586.1837, 98.24451
586.6658, 89.21513
587.1479, 77.14590
587.6300, 60.42011
588.1121, 53.07008
