##NAMES=Rhodonite
##RRUFFID=X080001
##IDEAL CHEMISTRY=CaMn^2+^_3_Mn^2+^Si_5_O_15_
##LOCALITY=Brazil
##OWNER=Michael Scott
##SOURCE=Michael Scott
##DESCRIPTION=Red polished gemstone
##STATUS=The identification of this mineral has been determined only by Raman spectroscopy
##URL=rruff.info/X080001
92.96582, 214.0815
93.44794, 211.6562
93.93005, 211.9746
94.41217, 215.7854
94.89429, 217.7141
95.37640, 218.3673
95.85852, 217.8813
96.34064, 215.9264
96.82275, 212.2006
97.30487, 207.2424
97.78699, 203.1315
98.26910, 200.1822
98.75122, 197.6622
99.23334, 195.0878
99.71545, 192.3562
100.1976, 189.6204
100.6797, 187.3623
101.1618, 185.7683
101.6439, 185.1571
102.1260, 185.9995
102.6081, 187.6776
103.0903, 188.8859
103.5724, 189.1985
104.0545, 189.8109
104.5366, 191.3365
105.0187, 193.4924
105.5008, 195.7342
105.9830, 197.5487
106.4651, 198.8652
106.9472, 200.9174
107.4293, 204.4510
107.9114, 208.0480
108.3935, 211.2377
108.8757, 213.9864
109.3578, 216.4690
109.8399, 218.8810
110.3220, 221.0823
110.8041, 223.5377
111.2862, 226.7831
111.7684, 229.9553
112.2505, 232.1968
112.7326, 233.2570
113.2147, 233.7121
113.6968, 234.8709
114.1789, 237.7700
114.6611, 239.4454
115.1432, 239.5306
115.6253, 238.0116
116.1074, 234.6814
116.5895, 229.1318
117.0716, 221.9188
117.5538, 214.7193
118.0359, 207.4200
118.5180, 200.3144
119.0001, 193.5196
119.4822, 187.0362
119.9643, 181.1752
120.4465, 176.3638
120.9286, 172.2235
121.4107, 168.4131
121.8928, 164.8301
122.3749, 161.5469
122.8570, 158.6976
123.3392, 156.3813
123.8213, 154.3931
124.3034, 152.6134
124.7855, 151.0516
125.2676, 149.6912
125.7497, 148.5220
126.2319, 147.5485
126.7140, 146.8665
127.1961, 146.6369
127.6782, 146.5848
128.1603, 146.6279
128.6424, 146.7959
129.1246, 147.1738
129.6067, 147.8507
130.0888, 148.8643
130.5709, 150.0241
131.0530, 151.2239
131.5351, 152.6194
132.0173, 154.3978
132.4994, 156.5527
132.9815, 158.8226
133.4636, 160.9381
133.9457, 162.9800
134.4278, 164.4788
134.9100, 165.2288
135.3921, 165.4864
135.8742, 165.7073
136.3563, 166.1334
136.8384, 166.0848
137.3205, 164.4373
137.8027, 161.3110
138.2848, 157.3698
138.7669, 152.6014
139.2490, 147.1531
139.7311, 141.5371
140.2132, 135.5685
140.6954, 129.8342
141.1775, 124.9218
141.6596, 120.8841
142.1417, 117.2889
142.6238, 113.6086
143.1059, 109.6894
143.5881, 106.6338
144.0702, 105.3146
144.5523, 104.6585
145.0344, 104.0052
145.5165, 103.1532
145.9986, 102.4039
146.4807, 102.3657
146.9629, 103.4848
147.4450, 104.5367
147.9271, 105.2189
148.4092, 105.8005
148.8913, 106.5798
149.3734, 107.7103
149.8556, 109.0667
150.3377, 110.1467
150.8198, 110.6426
151.3019, 111.1656
151.7840, 111.6710
152.2661, 112.2636
152.7483, 113.1195
153.2304, 114.3750
153.7125, 115.9976
154.1946, 117.4042
154.6767, 118.3121
155.1588, 119.3374
155.6410, 120.8041
156.1231, 122.6263
156.6052, 124.4675
157.0873, 126.1196
157.5694, 127.5400
158.0515, 128.7084
158.5337, 129.4844
159.0158, 130.1095
159.4979, 130.9144
159.9800, 131.9367
160.4621, 132.5735
160.9442, 132.0671
161.4264, 130.7314
161.9085, 129.4628
162.3906, 128.6530
162.8727, 127.9837
163.3548, 126.8946
163.8369, 125.2653
164.3191, 123.4342
164.8012, 121.6441
165.2833, 119.8559
165.7654, 117.9967
166.2475, 115.9533
166.7296, 113.7818
167.2118, 111.7450
167.6939, 110.1290
168.1760, 108.3097
168.6581, 105.9741
169.1402, 103.2269
169.6223, 100.3038
170.1045, 97.30154
170.5866, 94.16941
171.0687, 91.54234
171.5508, 89.55790
172.0329, 88.00101
172.5150, 87.00851
172.9972, 86.45626
173.4793, 85.97491
173.9614, 85.10267
174.4435, 83.54530
174.9256, 82.65966
175.4077, 82.92052
175.8899, 83.33199
176.3720, 83.36971
176.8541, 82.94943
177.3362, 82.27757
177.8183, 81.62599
178.3004, 81.03589
178.7826, 80.33727
179.2647, 79.58823
179.7468, 78.70815
180.2289, 77.54138
180.7110, 76.06697
181.1931, 74.52668
181.6752, 73.32935
182.1574, 72.66120
182.6395, 71.78813
183.1216, 70.44353
183.6037, 68.90540
184.0858, 67.57848
184.5679, 66.60135
185.0501, 65.77834
185.5322, 64.71065
186.0143, 63.32585
186.4964, 62.24051
186.9785, 61.95267
187.4606, 62.14376
187.9428, 61.97358
188.4249, 61.08868
188.9070, 59.92632
189.3891, 59.02694
189.8712, 58.39302
190.3533, 57.86894
190.8355, 57.28196
191.3176, 56.67004
191.7997, 56.40502
192.2818, 56.86232
192.7639, 57.46009
193.2460, 57.71714
193.7282, 57.60134
194.2103, 57.32423
194.6924, 56.95087
195.1745, 56.43004
195.6566, 56.28707
196.1387, 57.07660
196.6209, 58.00581
197.1030, 58.66426
197.5851, 58.98320
198.0672, 59.11309
198.5493, 59.21260
199.0314, 59.25155
199.5136, 59.36193
199.9957, 59.50489
200.4778, 59.75039
200.9599, 60.16585
201.4420, 60.76244
201.9241, 61.47469
202.4063, 62.23100
202.8884, 63.16365
203.3705, 63.86911
203.8526, 64.18405
204.3347, 64.40103
204.8168, 64.70585
205.2990, 65.16322
205.7811, 65.76688
206.2632, 66.52369
206.7453, 67.72308
207.2274, 68.64156
207.7095, 69.03951
208.1917, 69.29773
208.6738, 69.75615
209.1559, 70.53199
209.6380, 71.52317
210.1201, 72.53910
210.6022, 73.82546
211.0844, 74.74619
211.5665, 74.96260
212.0486, 74.90694
212.5307, 75.12479
213.0128, 75.82150
213.4949, 76.72178
213.9771, 77.25347
214.4592, 77.31810
214.9413, 77.27791
215.4234, 77.15938
215.9055, 76.98152
216.3876, 76.71523
216.8698, 76.30293
217.3519, 75.93858
217.8340, 76.11030
218.3161, 76.95965
218.7982, 77.61424
219.2803, 77.67875
219.7625, 77.34293
220.2446, 77.01741
220.7267, 76.80579
221.2088, 76.69314
221.6909, 76.57623
222.1730, 76.39369
222.6552, 76.53450
223.1373, 77.43083
223.6194, 78.85801
224.1015, 79.99532
224.5836, 80.49232
225.0657, 80.79654
225.5479, 81.34055
226.0300, 82.11800
226.5121, 83.17737
226.9942, 84.71123
227.4763, 86.63212
227.9584, 88.37784
228.4406, 89.65285
228.9227, 90.90500
229.4048, 92.56900
229.8869, 94.62582
230.3690, 96.62831
230.8511, 98.13096
231.3333, 99.14742
231.8154, 100.3854
232.2975, 102.0283
232.7796, 103.8518
233.2617, 105.7527
233.7438, 107.7123
234.2260, 109.7060
234.7081, 111.7117
235.1902, 113.7278
235.6723, 115.7713
236.1544, 117.8550
236.6365, 119.9756
237.1187, 122.2076
237.6008, 124.5021
238.0829, 126.6663
238.5650, 128.3550
239.0471, 129.4177
239.5292, 131.1258
240.0114, 134.4036
240.4935, 137.5726
240.9756, 139.9458
241.4577, 141.6009
241.9398, 143.0188
242.4219, 144.6155
242.9041, 146.3796
243.3862, 148.3730
243.8683, 150.7960
244.3504, 153.2613
244.8325, 155.7846
245.3146, 158.2447
245.7968, 160.4026
246.2789, 161.9913
246.7610, 162.9510
247.2431, 163.9424
247.7252, 164.9398
248.2073, 165.9946
248.6895, 167.1766
249.1716, 168.4433
249.6537, 169.6473
250.1358, 170.6347
250.6179, 171.3718
251.1000, 172.4761
251.5822, 174.4870
252.0643, 176.2853
252.5464, 177.3220
253.0285, 177.7794
253.5106, 178.1983
253.9927, 178.9996
254.4748, 180.1762
254.9570, 181.1502
255.4391, 181.6874
255.9212, 182.3013
256.4033, 183.2940
256.8854, 184.5209
257.3676, 185.6013
257.8497, 186.2488
258.3318, 186.5185
258.8139, 187.1139
259.2960, 188.5759
259.7781, 189.7179
260.2603, 190.1458
260.7424, 189.9501
261.2245, 189.3667
261.7066, 188.5166
262.1887, 187.4043
262.6708, 186.0242
263.1530, 184.6894
263.6351, 182.8243
264.1172, 180.0373
264.5993, 176.5869
265.0814, 172.9745
265.5635, 169.4200
266.0457, 165.8936
266.5278, 162.3332
267.0099, 158.7610
267.4920, 155.1087
267.9741, 151.1448
268.4562, 147.0921
268.9384, 143.4656
269.4204, 140.5463
269.9026, 138.0284
270.3847, 135.2235
270.8668, 132.0239
271.3489, 128.9401
271.8310, 126.1079
272.3131, 123.5278
272.7953, 121.2231
273.2774, 119.2540
273.7595, 117.4324
274.2416, 115.4176
274.7237, 113.1871
275.2058, 111.0305
275.6880, 108.9508
276.1701, 107.0077
276.6522, 105.4018
277.1343, 104.2452
277.6164, 103.1617
278.0985, 101.5932
278.5807, 99.60233
279.0628, 97.62508
279.5449, 95.58688
280.0270, 93.69778
280.5091, 92.39455
280.9912, 91.86187
281.4734, 91.40241
281.9555, 90.07119
282.4376, 88.12325
282.9197, 86.73614
283.4018, 86.52793
283.8839, 86.90339
284.3661, 87.06165
284.8482, 86.91189
285.3303, 86.80769
285.8124, 87.12605
286.2945, 87.70207
286.7766, 88.13150
287.2588, 88.13606
287.7409, 88.06206
288.2230, 88.30387
288.7051, 88.87538
289.1872, 89.60050
289.6693, 90.36104
290.1515, 91.22373
290.6336, 92.30257
291.1157, 93.71090
291.5978, 95.23070
292.0799, 96.69396
292.5620, 98.10451
293.0442, 99.39814
293.5263, 100.4267
294.0084, 101.3832
294.4905, 102.5347
294.9726, 103.9429
295.4547, 105.4452
295.9369, 106.9369
296.4190, 108.4156
296.9011, 109.8633
297.3832, 111.3357
297.8653, 112.6899
298.3474, 113.7449
298.8296, 114.4625
299.3117, 115.1870
299.7938, 116.3116
300.2759, 117.7086
300.7580, 118.6403
301.2401, 118.7672
301.7223, 118.6189
302.2044, 118.6567
302.6865, 118.8699
303.1686, 119.1886
303.6507, 119.5775
304.1328, 120.0442
304.6150, 120.6753
305.0971, 121.6494
305.5792, 122.4414
306.0613, 122.4682
306.5434, 121.9887
307.0255, 121.6905
307.5077, 122.1045
307.9898, 122.8494
308.4719, 123.0077
308.9540, 122.3031
309.4361, 121.8417
309.9182, 122.6215
310.4004, 124.0411
310.8825, 125.2361
311.3646, 125.8815
311.8467, 126.2488
312.3288, 126.5780
312.8109, 126.8099
313.2931, 127.4072
313.7752, 128.8962
314.2573, 130.7455
314.7394, 132.3545
315.2215, 133.5675
315.7036, 134.6503
316.1858, 135.6856
316.6679, 136.6738
317.1500, 138.1912
317.6321, 140.7560
318.1142, 143.6931
318.5963, 146.2825
319.0785, 148.4616
319.5606, 150.6353
320.0427, 153.2317
320.5248, 156.1442
321.0069, 158.6548
321.4890, 160.5195
321.9712, 162.0772
322.4533, 163.6529
322.9354, 165.2385
323.4175, 166.7043
323.8996, 168.1251
324.3817, 169.3830
324.8639, 170.1258
325.3460, 170.2550
325.8281, 170.0394
326.3102, 169.5600
326.7923, 168.8987
327.2744, 168.2025
327.7566, 167.3184
328.2387, 166.5325
328.7208, 166.4552
329.2029, 167.2463
329.6850, 167.8270
330.1671, 167.4696
330.6493, 166.5535
331.1314, 165.6104
331.6135, 164.7793
332.0956, 163.8654
332.5777, 162.6679
333.0598, 161.1959
333.5420, 159.5970
334.0241, 157.8236
334.5062, 156.0384
334.9883, 154.4898
335.4704, 153.2482
335.9525, 151.9118
336.4347, 150.2993
336.9168, 148.4025
337.3989, 146.1687
337.8810, 143.4456
338.3631, 140.6059
338.8452, 137.9547
339.3274, 135.4949
339.8094, 133.2276
340.2916, 131.1987
340.7737, 129.3641
341.2558, 127.6257
341.7379, 125.9582
342.2200, 124.4504
342.7021, 123.3008
343.1843, 122.3882
343.6664, 121.3448
344.1485, 119.8031
344.6306, 118.2896
345.1127, 117.4445
345.5948, 117.2539
346.0770, 117.0485
346.5591, 116.5852
347.0412, 115.7587
347.5233, 114.4176
348.0054, 112.1107
348.4875, 109.9963
348.9697, 108.9933
349.4518, 108.7907
349.9339, 108.3644
350.4160, 107.3471
350.8981, 105.9356
351.3802, 104.3821
351.8624, 102.6499
352.3445, 101.0287
352.8266, 99.65145
353.3087, 98.42869
353.7908, 97.18308
354.2729, 95.86510
354.7551, 94.66862
355.2372, 93.85052
355.7193, 93.42136
356.2014, 92.94931
356.6835, 92.34060
357.1656, 91.71644
357.6478, 91.23624
358.1299, 90.87773
358.6120, 90.37373
359.0941, 89.47916
359.5762, 88.27763
360.0583, 87.33702
360.5405, 86.70927
361.0226, 86.24623
361.5047, 86.03551
361.9868, 85.93898
362.4689, 85.64371
362.9510, 85.00428
363.4332, 84.12762
363.9153, 83.27482
364.3974, 82.47725
364.8795, 81.63044
365.3616, 80.61589
365.8438, 79.59431
366.3259, 78.74437
366.8080, 78.10235
367.2901, 77.61635
367.7722, 77.26249
368.2543, 77.13464
368.7365, 76.69055
369.2186, 75.85576
369.7007, 74.80179
370.1828, 73.43222
370.6649, 71.88818
371.1470, 70.57173
371.6292, 69.79598
372.1113, 69.51604
372.5934, 69.18644
373.0755, 68.89040
373.5576, 68.45479
374.0397, 67.77392
374.5219, 66.95043
375.0040, 66.08430
375.4861, 65.21454
375.9682, 64.42706
376.4503, 63.91544
376.9324, 63.93827
377.4146, 63.83687
377.8967, 63.26261
378.3788, 62.81196
378.8609, 63.06342
379.3430, 64.00497
379.8251, 65.06131
380.3073, 65.60098
380.7894, 65.54698
381.2715, 65.51491
381.7536, 65.31528
382.2357, 65.32699
382.7178, 65.76241
383.2000, 66.50280
383.6821, 67.35355
384.1642, 68.23289
384.6463, 69.06209
385.1284, 69.49306
385.6105, 69.19059
386.0927, 69.03767
386.5748, 69.41164
387.0569, 69.87866
387.5390, 69.98975
388.0211, 69.62131
388.5032, 69.07143
388.9854, 68.77441
389.4675, 68.80481
389.9496, 68.68303
390.4317, 68.38535
390.9138, 67.88358
391.3959, 67.07921
391.8781, 66.03144
392.3602, 64.94372
392.8423, 64.01026
393.3244, 63.17045
393.8065, 62.10246
394.2886, 60.70545
394.7708, 59.28896
395.2529, 58.02719
395.7350, 56.82300
396.2171, 55.50616
396.6992, 53.92615
397.1813, 52.40681
397.6635, 51.41386
398.1456, 50.97015
398.6277, 50.50142
399.1098, 49.73822
399.5919, 48.96148
400.0740, 48.51138
400.5562, 48.40973
401.0383, 48.29445
401.5204, 47.86233
402.0025, 47.26796
402.4846, 46.88115
402.9667, 46.74275
403.4489, 46.84452
403.9310, 47.38322
404.4131, 48.20422
404.8952, 48.73166
405.3773, 48.65374
405.8594, 48.39817
406.3416, 48.28616
406.8237, 48.31759
407.3058, 48.46443
407.7879, 48.72979
408.2700, 49.08690
408.7521, 49.48264
409.2343, 49.97596
409.7164, 50.37474
410.1985, 50.54725
410.6806, 50.61257
411.1627, 50.74651
411.6448, 50.99226
412.1269, 51.26580
412.6090, 51.46254
413.0912, 51.55833
413.5733, 51.70327
414.0554, 51.92566
414.5375, 52.16909
415.0196, 52.37935
415.5017, 52.57874
415.9839, 52.85638
416.4660, 53.28222
416.9481, 53.80601
417.4302, 54.18676
417.9123, 54.32234
418.3944, 54.43356
418.8766, 54.55304
419.3587, 54.64949
419.8408, 54.72923
420.3229, 54.77804
420.8050, 54.70198
421.2871, 54.33448
421.7693, 53.53886
422.2514, 52.95982
422.7335, 52.73025
423.2156, 52.57245
423.6977, 52.37156
424.1798, 52.14905
424.6620, 51.98936
425.1441, 51.95927
425.6262, 52.01555
426.1083, 51.96957
426.5904, 51.67639
427.0725, 51.56771
427.5547, 51.75694
428.0368, 52.13939
428.5189, 52.63090
429.0010, 53.21062
429.4831, 53.90067
429.9652, 54.78417
430.4474, 55.86303
430.9295, 56.82903
431.4116, 57.75232
431.8937, 58.40704
432.3758, 58.53291
432.8579, 58.30275
433.3401, 58.19967
433.8222, 58.48924
434.3043, 58.99604
434.7864, 59.53319
435.2685, 60.13198
435.7506, 60.46107
436.2328, 60.41927
436.7149, 59.95479
437.1970, 58.97911
437.6791, 57.31959
438.1612, 55.73692
438.6433, 54.70982
439.1255, 54.03339
439.6076, 53.31477
440.0897, 52.49072
440.5718, 51.52580
441.0539, 50.29218
441.5360, 48.79974
442.0182, 47.61926
442.5003, 46.95004
442.9824, 46.44651
443.4645, 45.95652
443.9466, 45.45754
444.4287, 44.91776
444.9109, 44.31040
445.3930, 43.67274
445.8751, 43.08919
446.3572, 42.46290
446.8393, 42.05209
447.3214, 41.93947
447.8036, 42.00109
448.2857, 42.14182
448.7678, 42.34181
449.2499, 42.63274
449.7320, 43.06926
450.2141, 43.66658
450.6963, 44.09518
451.1784, 44.26339
451.6605, 44.35921
452.1426, 44.44897
452.6247, 44.48436
453.1068, 44.32685
453.5890, 43.91467
454.0711, 43.48725
454.5532, 43.59212
455.0353, 44.50879
455.5174, 44.97784
455.9995, 44.37754
456.4817, 43.66216
456.9638, 43.31870
457.4459, 43.31114
457.9280, 43.33430
458.4101, 43.20050
458.8922, 42.94044
459.3744, 42.61867
459.8565, 42.18541
460.3386, 41.85182
460.8207, 41.78979
461.3028, 41.85586
461.7849, 41.94733
462.2671, 42.11277
462.7492, 42.05549
463.2313, 41.32686
463.7134, 40.18816
464.1955, 39.48478
464.6776, 39.46804
465.1598, 39.65551
465.6419, 39.56602
466.1240, 39.22896
466.6061, 38.94977
467.0882, 38.76137
467.5703, 38.64411
468.0525, 38.55707
468.5346, 38.52407
469.0167, 38.70299
469.4988, 39.23933
469.9809, 39.82653
470.4630, 39.71326
470.9452, 38.26624
471.4273, 37.23900
471.9094, 36.99654
472.3915, 36.98347
472.8736, 36.77477
473.3557, 36.33818
473.8379, 35.86722
474.3200, 35.52610
474.8021, 35.30378
475.2842, 35.04630
475.7663, 34.66416
476.2484, 34.36250
476.7306, 34.30477
477.2127, 34.27838
477.6948, 34.02587
478.1769, 33.48271
478.6590, 32.84756
479.1411, 32.35751
479.6233, 32.01639
480.1054, 31.77108
480.5875, 31.71616
481.0696, 31.64188
481.5517, 31.37764
482.0338, 31.02290
482.5159, 30.79052
482.9980, 30.79758
483.4802, 30.93198
483.9623, 31.05915
484.4444, 31.17918
484.9265, 31.26235
485.4086, 31.23743
485.8907, 31.24244
486.3729, 31.44263
486.8550, 31.83532
487.3371, 32.33799
487.8192, 33.00905
488.3013, 33.72968
488.7834, 34.39095
489.2656, 34.97948
489.7477, 35.44548
490.2298, 35.71900
490.7119, 35.86336
491.1940, 36.18752
491.6761, 36.78826
492.1583, 37.40440
492.6404, 38.18034
493.1225, 38.85298
493.6046, 39.02911
494.0867, 38.68119
494.5688, 38.22760
495.0510, 38.15096
495.5331, 38.50531
496.0152, 38.50243
496.4973, 37.83502
496.9794, 37.13631
497.4615, 36.46445
497.9437, 35.87954
498.4258, 35.51290
498.9079, 35.41199
499.3900, 35.32928
499.8721, 34.83280
500.3542, 33.85017
500.8364, 33.03527
501.3185, 32.44862
501.8006, 32.06472
502.2827, 31.90420
502.7648, 31.91906
503.2469, 31.99231
503.7291, 32.11188
504.2112, 32.22503
504.6933, 32.20852
505.1754, 32.07018
505.6575, 32.07350
506.1396, 32.38682
506.6218, 32.79797
507.1039, 33.00955
507.5860, 33.02588
508.0681, 32.93095
508.5502, 32.67517
509.0323, 32.36409
509.5145, 32.10237
509.9966, 31.89155
510.4787, 31.69818
510.9608, 31.51617
511.4429, 31.31781
511.9250, 30.99120
512.4072, 30.56933
512.8893, 29.97389
513.3714, 28.98308
513.8535, 27.95790
514.3356, 27.21565
514.8177, 26.78585
515.2999, 26.50120
515.7820, 26.24429
516.2641, 26.00352
516.7462, 25.57647
517.2283, 24.72954
517.7104, 24.05622
518.1926, 23.84247
518.6747, 23.77322
519.1568, 23.49879
519.6389, 22.94147
520.1210, 22.37897
520.6031, 22.07810
521.0853, 22.01191
521.5674, 22.03176
522.0495, 22.18225
522.5316, 22.28493
523.0137, 22.12300
523.4958, 21.83847
523.9780, 21.72385
524.4601, 21.93316
524.9422, 22.14302
525.4243, 22.06236
525.9064, 21.82957
526.3885, 21.78737
526.8707, 22.03254
527.3528, 22.38888
527.8349, 22.67639
528.3170, 22.89295
528.7991, 23.02452
529.2813, 22.97033
529.7634, 22.94556
530.2455, 23.01318
530.7276, 23.17752
531.2097, 23.44947
531.6918, 23.83117
532.1740, 24.27844
532.6561, 24.73143
533.1382, 25.19827
533.6203, 25.63224
534.1024, 26.01416
534.5845, 26.37981
535.0667, 26.72305
535.5488, 27.06258
536.0309, 27.41952
536.5130, 27.78496
536.9951, 28.22810
537.4772, 28.92032
537.9594, 29.87098
538.4415, 30.68037
538.9236, 31.18559
539.4057, 31.62938
539.8878, 32.29619
540.3699, 33.13267
540.8521, 33.84493
541.3342, 34.31433
541.8163, 34.65602
542.2984, 35.01428
542.7805, 35.34294
543.2626, 35.41727
543.7448, 35.10662
544.2269, 34.65949
544.7090, 34.53425
545.1911, 35.00267
545.6732, 35.04870
546.1553, 34.21610
546.6375, 33.39292
547.1196, 33.07164
547.6017, 33.17043
548.0838, 33.43364
548.5659, 33.73270
549.0480, 34.03325
549.5302, 34.24281
550.0123, 34.30159
550.4944, 34.44464
550.9765, 34.71083
551.4586, 35.06065
551.9407, 35.49653
552.4229, 36.00432
552.9050, 36.54526
553.3871, 37.08234
553.8692, 37.65810
554.3513, 38.42062
554.8334, 39.36195
555.3156, 40.08625
555.7977, 40.45746
556.2798, 40.57582
556.7619, 40.49671
557.2440, 40.22306
557.7261, 40.03445
558.2083, 40.16608
558.6904, 40.24898
559.1725, 39.93756
559.6546, 39.32733
560.1367, 38.71154
560.6188, 38.22546
561.1010, 37.86143
561.5831, 37.61408
562.0652, 37.49151
562.5473, 37.47670
563.0294, 37.70679
563.5115, 37.89639
563.9937, 37.81035
564.4758, 37.57915
564.9579, 37.49763
565.4400, 37.72557
565.9221, 38.15117
566.4042, 38.59271
566.8864, 39.05211
567.3685, 39.50048
567.8506, 39.90960
568.3327, 40.33385
568.8148, 40.89198
569.2969, 41.51851
569.7791, 41.96748
570.2612, 42.04938
570.7433, 42.01686
571.2254, 42.22938
571.7075, 42.54260
572.1896, 42.41742
572.6718, 41.65218
573.1539, 40.49581
573.6360, 39.23174
574.1181, 37.79491
574.6002, 36.54560
575.0823, 35.61383
575.5645, 34.72192
576.0466, 33.80377
576.5287, 32.82433
577.0108, 31.71936
577.4929, 30.46885
577.9750, 29.18347
578.4572, 27.95753
578.9393, 26.74317
579.4214, 25.98889
579.9035, 26.19264
580.3856, 26.22757
580.8677, 25.39682
581.3499, 24.14435
581.8320, 23.19136
582.3141, 22.78814
582.7962, 22.59245
583.2783, 22.36784
583.7604, 22.11074
584.2426, 21.78943
584.7247, 21.38655
585.2068, 21.00364
585.6889, 20.71147
586.1710, 20.51714
586.6531, 20.43071
587.1352, 20.65909
587.6173, 20.73609
588.0994, 20.36511
588.5815, 19.85984
589.0637, 19.58433
589.5458, 19.59922
590.0279, 19.73847
590.5100, 19.87263
590.9921, 19.98889
591.4742, 19.90692
591.9564, 19.40555
592.4385, 19.08289
