##NAMES=Rhodonite
##RRUFFID=R060196
##IDEAL CHEMISTRY=CaMn^2+^_3_Mn^2+^Si_5_O_15_
##LOCALITY=Morro da Mina, Minas Gerais, Brazil
##OWNER=RRUFF
##SOURCE=Marcus Origlieri
##DESCRIPTION=Pink transparent cleavage fragment
##STATUS=The identification of this mineral has been confirmed by X-ray diffraction and chemical analysis
##URL=rruff.info/R060196
##MEASURED CHEMISTRY=(Mn_0.82_Fe_0.06_Mg_0.05_Ca_0.10_)Si_0.99_O_3_
91.82715, 358.5691
92.30927, 344.5125
92.79138, 346.9066
93.27350, 363.1926
93.75562, 380.3055
94.23773, 395.5910
94.71985, 409.2593
95.20197, 417.5040
95.68408, 419.8695
96.16620, 416.0378
96.64832, 405.6003
97.13043, 387.9827
97.61255, 367.0005
98.09467, 346.8086
98.57678, 326.4192
99.05890, 308.5319
99.54102, 293.9755
100.0231, 282.4771
100.5052, 273.8420
100.9874, 267.8135
101.4695, 264.3476
101.9516, 263.8017
102.4337, 266.9098
102.9158, 272.5031
103.3979, 280.4556
103.8801, 290.7535
104.3622, 303.3350
104.8443, 318.0576
105.3264, 335.0855
105.8085, 355.2729
106.2906, 378.1713
106.7728, 403.6666
107.2549, 432.9631
107.7370, 465.7264
108.2191, 499.2022
108.7012, 531.6150
109.1833, 563.2844
109.6655, 586.7862
110.1476, 600.2327
110.6297, 605.1752
111.1118, 603.0807
111.5939, 592.9525
112.0760, 578.1283
112.5582, 561.7535
113.0403, 544.0682
113.5224, 526.0438
114.0045, 508.0399
114.4866, 490.0287
114.9688, 473.1301
115.4509, 457.7587
115.9330, 443.5367
116.4151, 430.0472
116.8972, 417.3185
117.3793, 405.5464
117.8615, 394.9497
118.3436, 385.7051
118.8257, 377.4576
119.3078, 370.4854
119.7899, 364.0587
120.2720, 357.5663
120.7542, 350.7670
121.2363, 343.9183
121.7184, 337.7029
122.2005, 333.0583
122.6826, 328.1064
123.1647, 322.4652
123.6468, 316.4730
124.1290, 310.6490
124.6111, 305.2313
125.0932, 300.1981
125.5753, 295.3738
126.0574, 290.9759
126.5395, 286.5077
127.0217, 281.4222
127.5038, 275.9120
127.9859, 270.9899
128.4680, 267.4597
128.9501, 265.2405
129.4323, 263.1330
129.9144, 261.6396
130.3965, 259.9353
130.8786, 256.9411
131.3607, 252.3858
131.8428, 247.6528
132.3250, 244.1628
132.8071, 241.2442
133.2892, 237.7042
133.7713, 232.6650
134.2534, 226.5614
134.7355, 220.8598
135.2177, 215.9719
135.6998, 210.9319
136.1819, 205.1529
136.6640, 198.8455
137.1461, 192.5947
137.6282, 186.8739
138.1104, 181.7415
138.5925, 176.4904
139.0746, 170.7255
139.5567, 165.1655
140.0388, 160.0088
140.5209, 155.3128
141.0031, 151.0049
141.4852, 146.9665
141.9673, 142.9723
142.4494, 139.9908
142.9315, 138.6640
143.4136, 137.7123
143.8958, 136.0401
144.3779, 133.4719
144.8600, 130.9111
145.3421, 129.8564
145.8242, 131.2189
146.3063, 132.5406
146.7885, 133.8474
147.2706, 135.0360
147.7527, 135.8731
148.2348, 136.2094
148.7169, 136.4211
149.1990, 137.3985
149.6812, 139.3238
150.1633, 141.1479
150.6454, 142.4460
151.1275, 143.3288
151.6096, 144.0553
152.0917, 144.4889
152.5739, 145.0784
153.0560, 146.3421
153.5381, 148.3028
154.0202, 150.8406
154.5023, 154.1472
154.9844, 158.2587
155.4665, 162.0236
155.9487, 164.4450
156.4308, 166.5850
156.9129, 169.2082
157.3950, 172.4795
157.8771, 176.3216
158.3592, 180.8060
158.8414, 186.3046
159.3235, 191.4651
159.8056, 196.5263
160.2877, 200.9112
160.7698, 203.9826
161.2519, 205.4111
161.7341, 205.6228
162.2162, 205.8569
162.6983, 206.4163
163.1804, 206.5482
163.6625, 206.2637
164.1446, 205.4976
164.6268, 204.2656
165.1089, 202.5955
165.5910, 200.3947
166.0731, 196.9389
166.5552, 191.0007
167.0373, 185.1485
167.5195, 180.0145
168.0016, 175.3276
168.4837, 170.4735
168.9658, 165.0603
169.4479, 159.0831
169.9300, 153.1828
170.4122, 145.9313
170.8943, 140.0407
171.3764, 137.3198
171.8585, 137.3117
172.3406, 137.8652
172.8227, 137.5585
173.3049, 136.4377
173.7870, 135.4537
174.2691, 134.5434
174.7512, 133.8041
175.2333, 133.4662
175.7154, 133.5521
176.1976, 133.4820
176.6797, 132.5697
177.1618, 131.1745
177.6439, 130.1960
178.1260, 130.2014
178.6081, 130.5860
179.0903, 130.3944
179.5724, 129.4420
180.0545, 128.4538
180.5366, 128.0367
181.0187, 127.8784
181.5008, 127.4613
181.9830, 126.3298
182.4651, 124.7970
182.9472, 123.8538
183.4293, 123.7684
183.9114, 123.9217
184.3935, 124.0378
184.8757, 124.1616
185.3578, 124.3755
185.8399, 124.7376
186.3220, 125.2412
186.8041, 125.7914
187.2862, 126.2854
187.7684, 126.9589
188.2505, 127.8530
188.7326, 128.9731
189.2147, 130.3449
189.6968, 132.0267
190.1789, 134.0445
190.6611, 135.8311
191.1432, 137.4055
191.6253, 138.7472
192.1074, 139.7511
192.5895, 140.4883
193.0716, 141.1134
193.5538, 141.7312
194.0359, 142.3163
194.5180, 143.1518
195.0001, 144.8295
195.4822, 146.1788
195.9643, 146.5934
196.4465, 146.1240
196.9286, 145.1925
197.4107, 144.1324
197.8928, 142.9161
198.3749, 141.8403
198.8570, 140.5873
199.3392, 139.6913
199.8213, 139.7955
200.3034, 140.8497
200.7855, 141.8536
201.2676, 141.8004
201.7497, 140.6149
202.2319, 139.8239
202.7140, 139.2757
203.1961, 139.2632
203.6782, 140.3631
204.1603, 142.6934
204.6424, 145.0370
205.1246, 146.2100
205.6067, 146.4318
206.0888, 146.6496
206.5709, 147.0282
207.0530, 147.5101
207.5351, 148.0398
208.0173, 148.6361
208.4994, 149.2075
208.9815, 149.9319
209.4636, 150.6088
209.9457, 150.6963
210.4278, 149.5377
210.9100, 147.7082
211.3921, 146.5517
211.8742, 146.3847
212.3563, 146.2689
212.8384, 145.5069
213.3205, 144.4040
213.8027, 143.5254
214.2848, 143.2942
214.7669, 143.5034
215.2490, 143.3809
215.7311, 142.6712
216.2132, 142.0170
216.6954, 141.7899
217.1775, 141.7890
217.6596, 141.6332
218.1417, 140.9755
218.6238, 139.9729
219.1059, 139.5788
219.5881, 140.1065
220.0702, 140.9398
220.5523, 142.0180
221.0344, 143.2330
221.5165, 144.5005
221.9986, 145.8349
222.4808, 147.1640
222.9629, 147.7881
223.4450, 146.8502
223.9271, 146.0558
224.4092, 145.8958
224.8913, 146.1098
225.3735, 146.2118
225.8556, 145.8625
226.3377, 145.1150
226.8198, 144.5525
227.3019, 144.4302
227.7840, 144.2338
228.2662, 143.8819
228.7483, 143.3764
229.2304, 142.6438
229.7125, 141.5716
230.1946, 140.2654
230.6767, 139.9427
231.1589, 141.3467
231.6410, 142.8262
232.1231, 143.9077
232.6052, 144.7767
233.0873, 145.9021
233.5694, 147.6165
234.0516, 149.7822
234.5337, 151.3643
235.0158, 151.7798
235.4979, 152.3837
235.9800, 153.6416
236.4621, 155.3877
236.9443, 157.2786
237.4264, 159.1547
237.9085, 161.0009
238.3906, 162.7515
238.8727, 164.3172
239.3548, 165.9017
239.8370, 167.5817
240.3191, 169.3295
240.8012, 171.0009
241.2833, 172.4202
241.7654, 173.8551
242.2475, 176.1143
242.7297, 179.6100
243.2118, 183.0978
243.6939, 186.1201
244.1760, 188.7115
244.6581, 190.9115
245.1402, 192.5978
245.6224, 194.0544
246.1045, 195.9352
246.5866, 198.4541
247.0687, 200.7597
247.5508, 202.5765
248.0329, 203.8625
248.5151, 204.4173
248.9972, 203.9348
249.4793, 202.9382
249.9614, 202.2312
250.4435, 201.8482
250.9256, 201.4811
251.4078, 201.1096
251.8899, 200.6567
252.3720, 199.6803
252.8541, 197.7060
253.3362, 195.6348
253.8183, 194.5157
254.3005, 194.3347
254.7826, 194.1986
255.2647, 193.4207
255.7468, 192.1676
256.2289, 191.3140
256.7110, 191.1729
257.1931, 191.2735
257.6753, 191.2145
258.1574, 191.0184
258.6395, 190.8284
259.1216, 190.6895
259.6037, 190.6168
260.0858, 190.7617
260.5680, 191.5031
261.0501, 191.9400
261.5322, 191.3469
262.0143, 190.0020
262.4964, 188.7519
262.9785, 188.3707
263.4607, 188.6399
263.9428, 188.2639
264.4249, 187.1550
264.9070, 185.4369
265.3891, 182.8598
265.8712, 179.8161
266.3534, 177.1331
266.8355, 175.5144
267.3176, 174.6216
267.7997, 172.8739
268.2818, 169.4255
268.7639, 166.4136
269.2461, 164.8219
269.7282, 164.0478
270.2103, 163.2297
270.6924, 161.9337
271.1745, 160.2665
271.6566, 158.5425
272.1388, 156.5509
272.6209, 154.9066
273.1030, 153.7672
273.5851, 152.9941
274.0672, 152.5135
274.5493, 152.3208
275.0315, 152.2472
275.5136, 151.8592
275.9957, 150.9642
276.4778, 150.1025
276.9599, 149.4099
277.4420, 148.7714
277.9242, 148.0752
278.4063, 147.2793
278.8884, 146.4427
279.3705, 145.7292
279.8526, 145.4395
280.3347, 144.5995
280.8169, 142.5555
281.2990, 140.3825
281.7811, 138.9984
282.2632, 138.5772
282.7453, 138.4734
283.2274, 137.6618
283.7096, 135.6476
284.1917, 134.1714
284.6738, 133.5855
285.1559, 133.2229
285.6380, 132.7463
286.1201, 132.0936
286.6023, 131.3477
287.0844, 130.5442
287.5665, 129.5750
288.0486, 129.0214
288.5307, 128.9062
289.0128, 129.1390
289.4950, 129.8853
289.9771, 131.0034
290.4592, 132.0711
290.9413, 132.6360
291.4234, 132.6115
291.9055, 133.2214
292.3877, 135.3374
292.8698, 137.2112
293.3519, 137.9985
293.8340, 138.0883
294.3161, 138.4436
294.7982, 139.8169
295.2804, 142.0807
295.7625, 143.5014
296.2446, 142.8670
296.7267, 142.6641
297.2088, 143.8918
297.6909, 145.7412
298.1731, 146.9704
298.6552, 146.8821
299.1373, 145.7762
299.6194, 144.7822
300.1015, 144.1438
300.5836, 143.3228
301.0658, 142.2515
301.5479, 140.9968
302.0300, 139.4837
302.5121, 137.7075
302.9942, 135.9926
303.4763, 135.0403
303.9585, 135.7487
304.4406, 135.8915
304.9227, 135.0620
305.4048, 133.9438
305.8869, 133.0147
306.3690, 132.4131
306.8512, 132.0515
307.3333, 131.8050
307.8154, 131.6302
308.2975, 131.7227
308.7796, 132.0663
309.2617, 132.6366
309.7439, 133.4891
310.2260, 134.5807
310.7081, 135.7597
311.1902, 136.8652
311.6723, 137.8851
312.1544, 138.9893
312.6366, 139.9684
313.1187, 141.2210
313.6008, 142.8101
314.0829, 144.8022
314.5650, 147.3222
315.0471, 150.4733
315.5293, 154.2265
316.0114, 158.2048
316.4935, 162.4538
316.9756, 166.9077
317.4577, 171.5742
317.9398, 176.4255
318.4220, 181.4642
318.9041, 186.6997
319.3862, 192.0369
319.8683, 197.2304
320.3504, 201.8654
320.8326, 206.8322
321.3147, 212.6082
321.7968, 218.5054
322.2789, 223.8115
322.7610, 228.2778
323.2431, 232.3788
323.7253, 236.9319
324.2074, 242.6389
324.6895, 247.3873
325.1716, 250.9696
325.6537, 253.9316
326.1358, 256.4969
326.6180, 258.7843
327.1001, 260.9964
327.5822, 263.3693
328.0643, 265.9561
328.5464, 268.4513
329.0285, 270.5770
329.5107, 272.8874
329.9928, 275.8862
330.4749, 279.3033
330.9570, 282.4911
331.4391, 285.0277
331.9212, 286.8935
332.4034, 287.7687
332.8855, 286.9555
333.3676, 285.8479
333.8497, 284.9007
334.3318, 283.7661
334.8139, 281.8736
335.2961, 278.9438
335.7782, 275.2347
336.2603, 271.5909
336.7424, 268.2987
337.2245, 264.5900
337.7066, 259.9895
338.1888, 255.2072
338.6709, 250.8257
339.1530, 247.0041
339.6351, 243.6457
340.1172, 240.5767
340.5993, 237.7113
341.0815, 235.4156
341.5636, 233.0441
342.0457, 231.6844
342.5278, 232.4004
343.0099, 234.8883
343.4920, 237.7884
343.9742, 239.8265
344.4563, 240.9406
344.9384, 242.3490
345.4205, 244.3976
345.9026, 246.4228
346.3847, 248.5736
346.8669, 250.5419
347.3490, 251.8946
347.8311, 252.3981
348.3132, 252.0258
348.7953, 250.6994
349.2774, 248.5882
349.7596, 245.0370
350.2417, 239.4905
350.7238, 232.8710
351.2059, 226.0296
351.6880, 219.2466
352.1701, 212.4377
352.6523, 205.4117
353.1344, 197.9438
353.6165, 190.9652
354.0986, 184.8253
354.5807, 178.9799
355.0628, 173.1611
355.5450, 167.3497
356.0271, 161.6936
356.5092, 156.1716
356.9913, 150.7880
357.4734, 146.2769
357.9555, 143.0575
358.4377, 140.3527
358.9198, 138.1556
359.4019, 136.2009
359.8840, 134.0000
360.3661, 131.2025
360.8482, 128.0124
361.3304, 124.8615
361.8125, 121.3704
362.2946, 118.8452
362.7767, 118.5250
363.2588, 118.9587
363.7409, 118.6725
364.2231, 117.1960
364.7052, 115.1052
365.1873, 112.8724
365.6694, 110.3904
366.1515, 108.7021
366.6336, 108.5927
367.1158, 108.9566
367.5979, 109.2025
368.0800, 109.2498
368.5621, 108.8375
369.0442, 107.3615
369.5263, 105.1438
370.0085, 103.8886
370.4906, 104.2850
370.9727, 104.6310
371.4548, 103.4268
371.9369, 101.3099
372.4190, 99.71409
372.9012, 99.54067
373.3833, 99.95515
373.8654, 99.64642
374.3475, 98.51820
374.8296, 97.48781
375.3117, 96.87171
375.7939, 96.71521
376.2760, 97.09923
376.7581, 98.16277
377.2402, 99.43318
377.7223, 100.6908
378.2044, 101.9017
378.6866, 102.8801
379.1687, 103.4911
379.6508, 103.9985
380.1329, 104.7993
380.6150, 105.8826
381.0971, 106.8076
381.5793, 106.8264
382.0614, 106.8579
382.5435, 108.5995
383.0256, 112.3374
383.5077, 115.8736
383.9898, 117.2544
384.4720, 116.7798
384.9541, 117.1559
385.4362, 119.4669
385.9183, 121.7288
386.4004, 122.7939
386.8825, 122.8073
387.3647, 122.2580
387.8468, 121.2771
388.3289, 120.0339
388.8110, 119.0056
389.2931, 118.4909
389.7752, 117.5200
390.2574, 115.4471
390.7395, 113.0089
391.2216, 110.9947
391.7037, 109.5960
392.1858, 108.7605
392.6679, 108.5480
393.1501, 109.1786
393.6322, 109.2389
394.1143, 108.1655
394.5964, 107.0827
395.0785, 106.4114
395.5606, 106.2483
396.0428, 106.7976
396.5249, 108.2901
397.0070, 110.4538
397.4891, 111.8629
397.9712, 111.1126
398.4533, 111.2948
398.9355, 113.1919
399.4176, 115.9799
399.8997, 118.7882
400.3818, 121.3372
400.8639, 123.9302
401.3460, 127.0688
401.8282, 131.0354
402.3103, 134.7585
402.7924, 137.9925
403.2745, 141.2590
403.7566, 144.7315
404.2387, 148.4630
404.7209, 152.5399
405.2030, 157.0761
405.6851, 161.9928
406.1672, 166.4525
406.6493, 169.9229
407.1314, 173.6665
407.6136, 177.9839
408.0957, 182.6844
408.5778, 187.6363
409.0599, 192.7849
409.5420, 197.9518
410.0241, 202.8460
410.5063, 207.3559
410.9884, 212.0862
411.4705, 216.8708
411.9526, 222.1332
412.4347, 228.1036
412.9168, 234.7499
413.3990, 241.9276
413.8811, 249.5996
414.3632, 257.7074
414.8453, 266.1058
415.3274, 274.9486
415.8095, 283.6995
416.2917, 292.8968
416.7738, 301.6016
417.2559, 308.4191
417.7380, 312.9323
418.2201, 315.6596
418.7022, 317.4436
419.1844, 318.1336
419.6665, 316.1852
420.1486, 310.8497
420.6307, 302.9564
421.1128, 293.4648
421.5949, 282.3686
422.0771, 270.5767
422.5592, 257.9373
423.0413, 245.0118
423.5234, 232.4541
424.0055, 220.3839
424.4876, 208.5472
424.9698, 196.6839
425.4519, 184.9742
425.9340, 174.1907
426.4161, 164.3011
426.8982, 155.3350
427.3803, 147.4532
427.8625, 140.5158
428.3446, 134.3081
428.8267, 128.7324
429.3088, 123.7939
429.7909, 119.5310
430.2730, 116.1806
430.7552, 113.0690
431.2373, 110.3333
431.7194, 107.7443
432.2015, 105.1271
432.6836, 102.4963
433.1657, 99.91267
433.6479, 97.38780
434.1300, 94.96684
434.6121, 93.22427
435.0942, 92.72280
435.5763, 92.27051
436.0584, 91.60925
436.5406, 90.93297
437.0227, 90.53516
437.5048, 90.50243
437.9869, 90.57199
438.4690, 90.25899
438.9511, 89.30694
439.4333, 88.81123
439.9154, 89.15181
440.3975, 89.63130
440.8796, 89.89676
441.3617, 90.03567
441.8438, 90.36870
442.3260, 91.17495
442.8081, 92.28075
443.2902, 93.05090
443.7723, 93.33691
444.2544, 93.66808
444.7365, 94.20438
445.2187, 94.88393
445.7008, 95.66781
446.1829, 96.54877
446.6650, 97.50668
447.1471, 98.56227
447.6292, 99.68880
448.1114, 100.7111
448.5935, 101.4892
449.0756, 102.3798
449.5577, 104.0580
450.0398, 106.1590
450.5219, 107.5095
451.0041, 107.4636
451.4862, 106.7698
451.9683, 106.0267
452.4504, 105.2404
452.9325, 104.4400
453.4146, 103.6413
453.8968, 102.8330
454.3789, 101.9501
454.8610, 100.9044
455.3431, 100.0701
455.8252, 99.89034
456.3073, 99.77034
456.7895, 98.96265
457.2716, 97.41435
457.7537, 95.72955
458.2358, 94.44878
458.7179, 93.57027
459.2000, 92.36669
459.6822, 90.45502
460.1643, 88.71325
460.6464, 87.56142
461.1285, 86.66744
461.6106, 85.51968
462.0927, 83.93545
462.5748, 82.21835
463.0569, 80.94691
463.5391, 80.51701
464.0212, 79.46396
464.5033, 76.85031
464.9854, 74.52900
465.4675, 73.62008
465.9496, 73.74559
466.4318, 73.80093
466.9139, 73.05324
467.3960, 71.76261
467.8781, 70.71663
468.3602, 69.92287
468.8423, 69.35003
469.3245, 69.41676
469.8066, 69.43076
470.2887, 68.61629
470.7708, 66.89336
471.2529, 65.37398
471.7350, 65.27910
472.2172, 66.14517
472.6993, 66.07629
473.1814, 64.60449
473.6635, 63.09609
474.1456, 62.62432
474.6277, 62.82723
475.1099, 62.95496
475.5920, 62.94703
476.0741, 62.76360
476.5562, 62.30825
477.0383, 61.65005
477.5204, 60.92668
478.0026, 60.14373
478.4847, 59.48441
478.9668, 59.24628
479.4489, 59.51892
479.9310, 59.80067
480.4131, 60.11739
480.8953, 60.39330
481.3774, 60.65126
481.8595, 60.83236
482.3416, 60.66148
482.8237, 59.89745
483.3058, 58.91143
483.7880, 58.99818
484.2701, 61.30601
484.7522, 63.07305
485.2343, 64.04337
485.7164, 64.59071
486.1985, 64.77457
486.6807, 64.75439
487.1628, 64.98971
487.6449, 65.99953
488.1270, 67.70480
488.6091, 68.93324
489.0912, 69.30506
489.5734, 69.80382
490.0555, 70.96701
490.5376, 72.29131
491.0197, 73.06162
491.5018, 73.04154
491.9839, 73.11351
492.4661, 74.37426
492.9482, 76.67397
493.4303, 78.61742
493.9124, 79.91952
494.3945, 81.02056
494.8766, 82.45283
495.3588, 83.98853
495.8409, 84.91172
496.3230, 84.56167
496.8051, 83.99561
497.2872, 84.06665
497.7693, 84.66112
498.2515, 85.37362
498.7336, 86.05895
499.2157, 86.77954
499.6978, 87.61095
500.1799, 88.50016
500.6620, 89.73606
501.1442, 91.33675
501.6263, 93.29057
502.1084, 95.66151
502.5905, 98.38894
503.0726, 101.3401
503.5547, 104.4405
504.0369, 107.6953
504.5190, 111.1603
505.0011, 115.2610
505.4832, 118.9004
505.9653, 121.8877
506.4474, 124.5572
506.9296, 127.4182
507.4117, 130.3096
507.8938, 132.3968
508.3759, 132.8497
508.8580, 131.9123
509.3401, 131.1461
509.8223, 131.1250
510.3044, 129.9866
510.7865, 126.2778
511.2686, 121.5571
511.7507, 117.2673
512.2328, 113.6785
512.7150, 110.1812
513.1971, 106.3099
513.6792, 102.1664
514.1613, 97.87830
514.6434, 93.35361
515.1255, 89.16696
515.6077, 85.72774
516.0898, 83.01657
516.5719, 80.77168
517.0540, 79.47666
517.5361, 78.06648
518.0182, 75.82077
518.5004, 73.20519
518.9825, 71.01458
519.4646, 69.45638
519.9467, 68.22871
520.4288, 66.97066
520.9109, 65.64634
521.3931, 64.53460
521.8752, 63.54470
522.3573, 62.81411
522.8394, 62.48781
523.3215, 62.42457
523.8036, 62.55418
524.2858, 62.83321
524.7679, 62.90868
525.2500, 62.03640
525.7321, 59.92305
526.2142, 58.34849
526.6964, 57.62258
527.1785, 57.26556
527.6606, 57.14857
528.1427, 57.21143
528.6248, 57.37776
529.1069, 57.70574
529.5891, 57.96690
530.0712, 57.62152
530.5533, 56.73616
531.0354, 56.54973
531.5175, 57.70009
531.9996, 59.20646
532.4818, 59.95188
532.9639, 59.99763
533.4460, 59.69965
533.9281, 58.58148
534.4102, 57.60113
534.8923, 57.53448
535.3745, 58.25697
535.8566, 59.31528
536.3387, 60.52601
536.8208, 61.79254
537.3029, 62.90253
537.7850, 63.81261
538.2672, 64.66110
538.7493, 65.27573
539.2314, 65.98530
539.7135, 66.83922
540.1956, 67.95338
540.6777, 69.72131
541.1599, 72.51630
541.6420, 75.59653
542.1241, 76.89776
542.6062, 75.80151
543.0883, 74.92867
543.5704, 74.76340
544.0526, 74.96606
544.5347, 75.51383
545.0168, 76.30469
545.4989, 76.93581
545.9810, 76.90714
546.4631, 76.76000
546.9453, 77.30778
547.4274, 78.54359
547.9095, 80.27631
548.3916, 82.53329
548.8737, 85.11195
549.3558, 87.66108
549.8380, 90.14980
550.3201, 92.73424
550.8022, 95.07518
551.2843, 97.78779
551.7664, 101.7853
552.2485, 106.6919
552.7307, 111.0802
553.2128, 114.1070
553.6949, 118.1373
554.1770, 119.2900
554.6591, 124.2446
555.1412, 127.7905
555.6234, 129.7731
556.1055, 130.6169
556.5876, 130.3712
557.0697, 129.2114
557.5518, 127.5348
558.0339, 125.6480
558.5161, 122.5242
558.9982, 119.7124
559.4803, 114.7431
559.9624, 109.5798
560.4445, 104.1247
560.9266, 99.04619
561.4088, 95.03339
561.8909, 92.02526
562.3730, 89.17628
562.8551, 86.29521
563.3372, 83.33790
563.8193, 79.91728
564.3015, 76.26284
564.7836, 73.63226
565.2657, 72.71316
565.7478, 72.69230
566.2299, 72.03836
566.7120, 70.23531
567.1942, 69.08882
567.6763, 69.31504
568.1584, 69.53532
568.6405, 68.81335
569.1226, 67.45380
569.6047, 66.27484
570.0869, 65.71409
570.5690, 65.49344
571.0511, 65.04473
571.5332, 64.29274
572.0153, 63.57980
572.4974, 62.77545
572.9796, 62.19564
573.4617, 62.26630
573.9438, 62.69083
574.4259, 62.68523
574.9080, 61.76910
575.3901, 60.53571
575.8723, 59.55011
576.3544, 58.81615
576.8365, 58.43639
577.3186, 58.56242
577.8007, 58.66676
578.2828, 57.94171
578.7650, 56.32298
579.2471, 55.72817
579.7292, 57.54061
580.2113, 58.98671
580.6934, 58.46760
581.1755, 56.78493
581.6577, 55.14479
582.1398, 54.00050
582.6219, 53.36269
583.1040, 53.35807
583.5861, 54.11473
584.0682, 54.49096
584.5504, 54.30578
585.0325, 53.93473
585.5146, 53.25292
585.9967, 52.55824
586.4788, 52.25750
586.9609, 52.47453
587.4431, 52.86995
587.9252, 53.19852
