##NAMES=Rhodonite
##RRUFFID=R100038
##IDEAL CHEMISTRY=CaMn^2+^_3_Mn^2+^Si_5_O_15_
##LOCALITY=Langban, Filipstad, Varmland, Sweden
##OWNER=RRUFF
##SOURCE=William W Pinch
##DESCRIPTION=Pale red, tabular to blocky crystals associated with black langbanite R100037
##STATUS=The identification of this mineral has been confirmed by single-crystal X-ray diffraction.
##URL=rruff.info/R100038
92.49744, 1656.643
92.97955, 1681.383
93.46167, 1715.148
93.94379, 1730.928
94.42590, 1738.034
94.90802, 1739.970
95.39014, 1735.904
95.87225, 1725.042
96.35437, 1712.756
96.83649, 1702.735
97.31860, 1693.822
97.80072, 1684.380
98.28284, 1671.219
98.76495, 1653.995
99.24707, 1639.432
99.72919, 1628.336
100.2113, 1619.773
100.6934, 1614.191
101.1755, 1610.549
101.6577, 1607.102
102.1398, 1602.021
102.6219, 1594.343
103.1040, 1589.849
103.5861, 1589.849
104.0682, 1590.681
104.5504, 1590.331
105.0325, 1588.451
105.5146, 1585.888
105.9967, 1583.516
106.4788, 1580.923
106.9609, 1579.300
107.4431, 1579.396
107.9252, 1580.223
108.4073, 1580.249
108.8894, 1578.674
109.3715, 1576.715
109.8536, 1576.716
110.3358, 1579.006
110.8179, 1581.195
111.3000, 1581.839
111.7821, 1581.085
112.2642, 1580.357
112.7463, 1579.957
113.2285, 1580.022
113.7106, 1580.987
114.1927, 1583.286
114.6748, 1585.466
115.1569, 1585.100
115.6390, 1580.832
116.1212, 1577.451
116.6033, 1576.895
117.0854, 1577.561
117.5675, 1577.920
118.0496, 1577.190
118.5317, 1575.602
119.0139, 1574.291
119.4960, 1573.116
119.9781, 1572.416
120.4602, 1572.078
120.9423, 1572.243
121.4244, 1573.343
121.9066, 1575.927
122.3887, 1580.266
122.8708, 1582.023
123.3529, 1579.357
123.8350, 1576.403
124.3171, 1575.016
124.7993, 1575.282
125.2814, 1576.255
125.7635, 1577.086
126.2456, 1577.757
126.7277, 1578.132
127.2098, 1577.993
127.6920, 1577.638
128.1741, 1577.084
128.6562, 1576.160
129.1383, 1575.842
129.6204, 1578.175
130.1025, 1582.849
130.5847, 1586.628
131.0668, 1587.700
131.5489, 1586.732
132.0310, 1585.982
132.5131, 1585.699
132.9952, 1586.094
133.4774, 1587.670
133.9595, 1590.407
134.4416, 1592.747
134.9237, 1593.047
135.4058, 1590.998
135.8879, 1589.166
136.3701, 1588.008
136.8522, 1587.274
137.3343, 1586.914
137.8164, 1586.911
138.2985, 1587.206
138.7806, 1587.869
139.2628, 1589.846
139.7449, 1590.335
140.2270, 1587.891
140.7091, 1584.655
141.1912, 1582.650
141.6733, 1582.789
142.1555, 1584.365
142.6376, 1584.973
143.1197, 1583.542
143.6018, 1582.228
144.0839, 1580.786
144.5660, 1579.638
145.0482, 1579.640
145.5303, 1581.488
146.0124, 1584.741
146.4945, 1586.122
146.9766, 1583.823
147.4587, 1581.848
147.9409, 1582.224
148.4230, 1584.566
148.9051, 1586.928
149.3872, 1587.902
149.8693, 1587.724
150.3514, 1588.179
150.8336, 1590.258
151.3157, 1592.397
151.7978, 1593.096
152.2799, 1592.200
152.7620, 1590.802
153.2441, 1588.840
153.7263, 1586.961
154.2084, 1586.520
154.6905, 1589.529
155.1726, 1594.075
155.6547, 1595.544
156.1368, 1592.165
156.6190, 1588.828
157.1011, 1587.955
157.5832, 1589.002
158.0653, 1591.035
158.5474, 1594.027
159.0295, 1597.811
159.5117, 1600.137
159.9938, 1599.406
160.4759, 1598.682
160.9580, 1599.079
161.4401, 1600.417
161.9222, 1602.040
162.4044, 1603.460
162.8865, 1604.752
163.3686, 1605.358
163.8507, 1604.725
164.3328, 1603.934
164.8149, 1603.574
165.2971, 1603.595
165.7792, 1603.461
166.2613, 1602.427
166.7434, 1599.766
167.2255, 1598.468
167.7076, 1599.637
168.1898, 1601.216
168.6719, 1601.577
169.1540, 1600.459
169.6361, 1599.002
170.1182, 1598.850
170.6003, 1600.698
171.0825, 1602.214
171.5646, 1603.273
172.0467, 1603.967
172.5288, 1604.391
173.0109, 1604.571
173.4930, 1604.489
173.9752, 1603.824
174.4573, 1602.350
174.9394, 1601.645
175.4215, 1603.025
175.9036, 1605.493
176.3857, 1606.617
176.8679, 1605.168
177.3500, 1602.966
177.8321, 1602.637
178.3142, 1604.325
178.7963, 1605.920
179.2784, 1605.697
179.7606, 1603.959
180.2427, 1603.301
180.7248, 1605.398
181.2069, 1607.990
181.6890, 1608.868
182.1711, 1607.816
182.6533, 1606.569
183.1354, 1606.924
183.6175, 1609.105
184.0996, 1611.139
184.5817, 1613.417
185.0638, 1614.866
185.5460, 1614.057
186.0281, 1610.789
186.5102, 1607.290
186.9923, 1607.129
187.4744, 1612.183
187.9565, 1615.559
188.4387, 1615.302
188.9208, 1613.956
189.4029, 1613.173
189.8850, 1613.483
190.3671, 1614.488
190.8492, 1615.461
191.3314, 1616.347
191.8135, 1617.277
192.2956, 1618.383
192.7777, 1619.467
193.2598, 1620.287
193.7419, 1620.755
194.2241, 1621.078
194.7062, 1621.755
195.1883, 1623.629
195.6704, 1624.866
196.1525, 1625.004
196.6346, 1624.619
197.1168, 1624.352
197.5989, 1624.477
198.0810, 1624.890
198.5631, 1625.285
199.0452, 1625.365
199.5273, 1625.809
200.0095, 1626.959
200.4916, 1628.507
200.9737, 1630.042
201.4558, 1631.454
201.9379, 1632.598
202.4200, 1633.001
202.9022, 1632.390
203.3843, 1631.716
203.8664, 1630.894
204.3485, 1630.205
204.8306, 1630.574
205.3127, 1632.746
205.7949, 1635.860
206.2770, 1638.007
206.7591, 1639.054
207.2412, 1639.585
207.7233, 1639.877
208.2054, 1639.922
208.6876, 1639.610
209.1697, 1638.559
209.6518, 1637.382
210.1339, 1636.995
210.6160, 1637.614
211.0981, 1638.498
211.5803, 1639.071
212.0624, 1639.334
212.5445, 1639.617
213.0266, 1640.278
213.5087, 1640.843
213.9908, 1640.753
214.4730, 1639.835
214.9551, 1638.797
215.4372, 1638.458
215.9193, 1638.924
216.4014, 1639.453
216.8836, 1639.727
217.3657, 1640.062
217.8478, 1640.688
218.3299, 1641.658
218.8120, 1642.853
219.2941, 1644.105
219.7763, 1645.391
220.2584, 1646.794
220.7405, 1648.926
221.2226, 1650.803
221.7047, 1651.790
222.1868, 1651.700
222.6690, 1650.661
223.1511, 1648.478
223.6332, 1643.692
224.1153, 1641.212
224.5974, 1643.080
225.0795, 1646.032
225.5617, 1647.765
226.0438, 1647.631
226.5259, 1646.515
227.0080, 1645.910
227.4901, 1645.999
227.9722, 1646.367
228.4544, 1647.609
228.9365, 1648.734
229.4186, 1648.628
229.9007, 1647.105
230.3828, 1645.233
230.8649, 1644.922
231.3471, 1647.457
231.8292, 1649.606
232.3113, 1651.612
232.7934, 1653.129
233.2755, 1653.429
233.7576, 1652.440
234.2398, 1651.344
234.7219, 1652.195
235.2040, 1657.037
235.6861, 1660.166
236.1682, 1660.525
236.6503, 1659.787
237.1325, 1659.113
237.6146, 1658.871
238.0967, 1659.349
238.5788, 1661.179
239.0609, 1665.581
239.5430, 1668.375
240.0252, 1668.450
240.5073, 1667.325
240.9894, 1666.187
241.4715, 1665.327
241.9536, 1665.076
242.4357, 1666.177
242.9179, 1669.183
243.4000, 1671.031
243.8821, 1670.452
244.3642, 1669.034
244.8463, 1668.560
245.3284, 1669.412
245.8106, 1670.687
246.2927, 1671.314
246.7748, 1671.264
247.2569, 1671.395
247.7390, 1672.396
248.2211, 1673.402
248.7033, 1672.993
249.1854, 1670.763
249.6675, 1668.637
250.1496, 1669.060
250.6317, 1671.600
251.1138, 1673.338
251.5960, 1673.049
252.0781, 1671.904
252.5602, 1671.474
253.0423, 1672.004
253.5244, 1672.648
254.0065, 1672.366
254.4887, 1671.569
254.9708, 1671.477
255.4529, 1673.060
255.9350, 1675.259
256.4171, 1676.654
256.8992, 1677.165
257.3813, 1677.066
257.8635, 1675.620
258.3456, 1673.745
258.8277, 1673.130
259.3098, 1674.674
259.7919, 1677.478
260.2740, 1680.707
260.7562, 1684.693
261.2383, 1687.615
261.7204, 1687.286
262.2025, 1685.521
262.6846, 1684.548
263.1667, 1685.413
263.6489, 1686.828
264.1310, 1686.807
264.6131, 1684.993
265.0952, 1683.294
265.5773, 1682.559
266.0594, 1682.398
266.5416, 1682.627
267.0237, 1683.349
267.5058, 1684.073
267.9879, 1683.941
268.4700, 1682.677
268.9521, 1681.905
269.4343, 1683.192
269.9164, 1684.688
270.3985, 1684.707
270.8806, 1682.739
271.3627, 1680.358
271.8448, 1679.607
272.3270, 1680.789
272.8091, 1681.971
273.2912, 1682.454
273.7733, 1682.936
274.2554, 1683.986
274.7375, 1685.675
275.2197, 1687.368
275.7018, 1688.359
276.1839, 1688.557
276.6660, 1688.557
277.1481, 1688.155
277.6302, 1687.762
278.1124, 1687.699
278.5945, 1687.934
279.0766, 1688.088
279.5587, 1687.559
280.0408, 1686.186
280.5229, 1685.652
281.0051, 1686.969
281.4872, 1688.404
281.9693, 1689.468
282.4514, 1690.058
282.9335, 1690.098
283.4156, 1689.234
283.8978, 1687.426
284.3799, 1686.561
284.8620, 1687.588
285.3441, 1688.659
285.8262, 1689.003
286.3083, 1688.877
286.7905, 1688.900
287.2726, 1689.481
287.7547, 1690.594
288.2368, 1692.054
288.7189, 1694.446
289.2010, 1696.469
289.6832, 1697.853
290.1653, 1698.639
290.6474, 1698.905
291.1295, 1698.670
291.6116, 1697.986
292.0938, 1697.002
292.5759, 1695.358
293.0580, 1693.958
293.5401, 1692.985
294.0222, 1692.329
294.5043, 1691.885
294.9865, 1691.605
295.4686, 1691.502
295.9507, 1691.536
296.4328, 1691.350
296.9149, 1692.041
297.3970, 1694.706
297.8792, 1697.626
298.3613, 1699.189
298.8434, 1698.945
299.3255, 1697.804
299.8076, 1697.211
300.2897, 1697.241
300.7719, 1697.689
301.2540, 1698.713
301.7361, 1699.942
302.2182, 1701.187
302.7003, 1702.395
303.1824, 1703.602
303.6646, 1704.922
304.1467, 1706.506
304.6288, 1707.613
305.1109, 1708.096
305.5930, 1708.271
306.0751, 1708.089
306.5573, 1707.678
307.0394, 1707.330
307.5215, 1707.289
308.0036, 1707.550
308.4857, 1708.147
308.9678, 1709.151
309.4500, 1710.443
309.9321, 1712.511
310.4142, 1714.844
310.8963, 1716.493
311.3784, 1716.813
311.8605, 1715.905
312.3427, 1714.530
312.8248, 1710.750
313.3069, 1708.879
313.7890, 1711.239
314.2711, 1715.465
314.7532, 1718.490
315.2354, 1718.760
315.7175, 1717.167
316.1996, 1716.229
316.6817, 1716.267
317.1638, 1716.532
317.6459, 1717.321
318.1281, 1718.075
318.6102, 1717.957
319.0923, 1716.799
319.5744, 1715.654
320.0565, 1716.335
320.5386, 1719.528
321.0208, 1723.047
321.5029, 1727.760
321.9850, 1731.997
322.4671, 1734.981
322.9492, 1736.484
323.4313, 1736.421
323.9135, 1734.276
324.3956, 1729.344
324.8777, 1725.912
325.3598, 1724.188
325.8419, 1723.748
326.3240, 1725.029
326.8062, 1727.560
327.2883, 1730.370
327.7704, 1732.928
328.2525, 1735.165
328.7346, 1735.851
329.2167, 1732.738
329.6989, 1730.617
330.1810, 1731.312
330.6631, 1733.585
331.1452, 1735.583
331.6273, 1736.314
332.1094, 1736.143
332.5916, 1736.119
333.0737, 1735.927
333.5558, 1736.519
334.0379, 1738.769
334.5200, 1741.385
335.0021, 1743.073
335.4843, 1743.434
335.9664, 1743.154
336.4485, 1743.449
336.9306, 1744.797
337.4127, 1745.249
337.8948, 1743.479
338.3770, 1741.649
338.8591, 1741.108
339.3412, 1741.907
339.8233, 1743.144
340.3055, 1743.961
340.7876, 1744.314
341.2697, 1744.622
341.7518, 1744.902
342.2339, 1745.106
342.7160, 1745.045
343.1982, 1744.886
343.6803, 1745.060
344.1624, 1746.084
344.6445, 1747.643
345.1266, 1748.024
345.6087, 1746.325
346.0909, 1744.907
346.5730, 1744.471
347.0551, 1744.744
347.5372, 1745.516
348.0193, 1746.817
348.5014, 1748.208
348.9836, 1748.796
349.4657, 1748.285
349.9478, 1747.960
350.4299, 1748.010
350.9120, 1748.467
351.3941, 1749.428
351.8763, 1750.904
352.3584, 1752.735
352.8405, 1755.066
353.3226, 1757.945
353.8047, 1759.930
354.2868, 1760.973
354.7690, 1760.789
355.2511, 1758.485
355.7332, 1754.621
356.2153, 1751.469
356.6974, 1750.765
357.1795, 1752.000
357.6617, 1753.308
358.1438, 1754.883
358.6259, 1756.062
359.1080, 1756.374
359.5901, 1756.092
360.0722, 1755.539
360.5544, 1754.533
361.0365, 1753.649
361.5186, 1753.774
362.0007, 1754.999
362.4828, 1756.545
362.9649, 1758.781
363.4471, 1760.756
363.9292, 1761.292
364.4113, 1760.060
364.8934, 1758.307
365.3755, 1756.764
365.8576, 1755.446
366.3398, 1754.440
366.8219, 1753.703
367.3040, 1753.399
367.7861, 1753.581
368.2682, 1754.231
368.7503, 1755.562
369.2325, 1759.193
369.7146, 1763.123
370.1967, 1763.135
370.6788, 1758.249
371.1609, 1753.382
371.6430, 1753.125
372.1252, 1756.010
372.6073, 1757.100
373.0894, 1754.047
373.5715, 1750.350
374.0536, 1748.945
374.5357, 1749.496
375.0179, 1750.017
375.5000, 1749.680
375.9821, 1748.588
376.4642, 1746.820
376.9463, 1743.614
377.4284, 1741.540
377.9106, 1742.528
378.3927, 1745.066
378.8748, 1746.324
379.3569, 1745.432
379.8390, 1744.105
380.3211, 1744.628
380.8033, 1747.383
381.2854, 1749.901
381.7675, 1752.350
382.2496, 1754.252
382.7317, 1755.085
383.2138, 1754.898
383.6960, 1754.225
384.1781, 1753.339
384.6602, 1752.288
385.1423, 1751.778
385.6244, 1752.137
386.1065, 1752.531
386.5887, 1752.400
387.0708, 1752.158
387.5529, 1752.735
388.0350, 1754.587
388.5171, 1756.890
388.9992, 1757.803
389.4814, 1755.534
389.9635, 1754.631
390.4456, 1756.169
390.9277, 1758.348
391.4098, 1760.012
391.8919, 1760.850
392.3741, 1760.803
392.8562, 1759.611
393.3383, 1756.958
393.8204, 1755.659
394.3025, 1757.227
394.7846, 1758.494
395.2668, 1758.012
395.7489, 1756.478
396.2310, 1755.282
396.7131, 1755.235
397.1952, 1756.086
397.6773, 1757.023
398.1595, 1758.383
398.6416, 1759.225
399.1237, 1758.642
399.6058, 1758.026
400.0879, 1758.818
400.5700, 1761.245
401.0522, 1764.029
401.5343, 1765.629
402.0164, 1765.863
402.4985, 1765.906
402.9806, 1765.415
403.4627, 1765.090
403.9449, 1765.290
404.4270, 1765.898
404.9091, 1766.525
405.3912, 1766.692
405.8733, 1766.820
406.3554, 1768.551
406.8376, 1772.872
407.3197, 1776.342
407.8018, 1777.036
408.2839, 1776.459
408.7660, 1776.167
409.2481, 1776.660
409.7303, 1776.754
410.2124, 1774.260
410.6945, 1769.497
411.1766, 1767.651
411.6587, 1771.540
412.1408, 1776.505
412.6230, 1777.990
413.1051, 1776.429
413.5872, 1774.861
414.0693, 1774.222
414.5514, 1774.486
415.0335, 1776.111
415.5157, 1779.300
415.9978, 1781.823
416.4799, 1781.742
416.9620, 1779.935
417.4441, 1779.272
417.9262, 1780.418
418.4084, 1781.963
418.8905, 1783.075
419.3726, 1783.964
419.8547, 1785.349
420.3368, 1787.644
420.8189, 1789.984
421.3011, 1790.885
421.7832, 1790.092
422.2653, 1789.092
422.7474, 1787.775
423.2295, 1786.503
423.7116, 1785.434
424.1938, 1784.658
424.6759, 1784.512
425.1580, 1785.384
425.6401, 1787.185
426.1222, 1788.300
426.6043, 1788.665
427.0865, 1788.520
427.5686, 1787.169
428.0507, 1785.562
428.5328, 1785.244
429.0149, 1786.771
429.4970, 1788.969
429.9792, 1789.696
430.4613, 1787.817
430.9434, 1786.932
431.4255, 1787.367
431.9076, 1788.313
432.3897, 1789.520
432.8719, 1790.853
433.3540, 1792.164
433.8361, 1793.380
434.3182, 1794.467
434.8003, 1795.152
435.2824, 1795.388
435.7646, 1795.265
436.2467, 1794.039
436.7288, 1792.880
437.2109, 1793.460
437.6930, 1796.327
438.1751, 1799.377
438.6573, 1799.569
439.1394, 1796.634
439.6215, 1794.596
440.1036, 1794.594
440.5857, 1794.944
441.0678, 1794.087
441.5500, 1792.495
442.0321, 1791.983
442.5142, 1794.205
442.9963, 1797.789
443.4784, 1800.559
443.9605, 1802.588
444.4427, 1803.147
444.9248, 1800.842
445.4069, 1797.308
445.8890, 1795.314
446.3711, 1795.077
446.8532, 1796.075
447.3354, 1799.138
447.8175, 1803.107
448.2996, 1805.213
448.7817, 1804.674
449.2638, 1803.302
449.7459, 1803.000
450.2281, 1803.850
450.7102, 1804.464
451.1923, 1804.529
451.6744, 1804.575
452.1565, 1805.027
452.6386, 1805.750
453.1208, 1806.243
453.6029, 1806.203
454.0850, 1805.910
454.5671, 1806.147
455.0492, 1807.356
455.5313, 1808.530
456.0135, 1810.010
456.4956, 1811.222
456.9777, 1811.473
457.4598, 1810.839
457.9419, 1810.220
458.4240, 1810.602
458.9062, 1812.017
459.3883, 1812.356
459.8704, 1809.922
460.3525, 1808.328
460.8346, 1808.513
461.3167, 1809.917
461.7989, 1812.241
462.2810, 1815.410
462.7631, 1818.113
463.2452, 1817.884
463.7273, 1814.084
464.2094, 1811.089
464.6916, 1809.526
465.1737, 1808.869
465.6558, 1809.008
466.1379, 1809.794
466.6200, 1810.799
467.1021, 1811.811
467.5843, 1812.874
468.0664, 1814.247
468.5485, 1816.053
469.0306, 1817.313
469.5127, 1817.508
469.9948, 1816.914
470.4770, 1815.816
470.9591, 1813.908
471.4412, 1812.744
471.9233, 1813.650
472.4054, 1815.707
472.8875, 1817.352
473.3697, 1818.331
473.8518, 1818.667
474.3339, 1818.102
474.8160, 1816.682
475.2981, 1816.299
475.7802, 1817.780
476.2624, 1819.384
476.7445, 1820.208
477.2266, 1820.611
477.7087, 1821.466
478.1908, 1823.132
478.6729, 1824.910
479.1551, 1825.558
479.6372, 1824.821
480.1193, 1823.390
480.6014, 1819.158
481.0835, 1816.178
481.5656, 1817.883
482.0478, 1822.898
482.5299, 1827.211
483.0120, 1828.107
483.4941, 1826.465
483.9762, 1825.550
484.4583, 1825.758
484.9405, 1825.922
485.4226, 1825.645
485.9047, 1825.374
486.3868, 1825.409
486.8689, 1825.810
487.3510, 1826.542
487.8332, 1827.665
488.3153, 1829.115
488.7974, 1830.759
489.2795, 1832.900
489.7616, 1834.453
490.2437, 1833.647
490.7259, 1832.065
491.2080, 1832.344
491.6901, 1835.688
492.1722, 1839.472
492.6543, 1842.245
493.1364, 1843.963
493.6186, 1844.234
494.1007, 1842.734
494.5828, 1840.709
495.0649, 1839.413
495.5470, 1838.891
496.0291, 1839.190
496.5113, 1840.778
496.9934, 1842.767
497.4755, 1845.297
497.9576, 1847.809
498.4397, 1848.899
498.9218, 1847.830
499.4040, 1845.568
499.8861, 1844.247
500.3682, 1844.189
500.8503, 1844.579
501.3324, 1846.112
501.8145, 1847.445
502.2967, 1847.369
502.7788, 1846.279
503.2609, 1845.518
503.7430, 1845.918
504.2251, 1847.472
504.7072, 1850.612
505.1894, 1857.076
505.6715, 1861.113
506.1536, 1859.537
506.6357, 1856.164
507.1178, 1853.465
507.5999, 1851.857
508.0821, 1851.304
508.5642, 1852.772
509.0463, 1855.265
509.5284, 1855.312
510.0105, 1852.063
510.4926, 1849.345
510.9748, 1850.033
511.4569, 1852.829
511.9390, 1854.610
512.4211, 1854.986
512.9032, 1854.728
513.3853, 1853.227
513.8674, 1851.593
514.3495, 1852.576
514.8317, 1856.774
515.3138, 1860.322
515.7959, 1858.750
516.2780, 1851.474
516.7601, 1848.009
517.2422, 1852.026
517.7244, 1855.074
518.2065, 1853.550
518.6886, 1849.542
519.1707, 1846.015
519.6528, 1844.077
520.1349, 1843.167
520.6171, 1842.382
521.0992, 1841.481
521.5813, 1841.759
522.0634, 1845.217
522.5455, 1847.893
523.0276, 1847.902
523.5098, 1846.160
523.9919, 1844.303
524.4740, 1842.842
524.9561, 1842.154
525.4382, 1843.273
525.9203, 1846.235
526.4025, 1848.306
526.8846, 1848.664
527.3667, 1848.137
527.8488, 1847.071
528.3309, 1845.638
528.8130, 1845.140
529.2952, 1846.923
529.7773, 1849.054
530.2594, 1849.811
530.7415, 1849.322
531.2236, 1848.187
531.7057, 1846.462
532.1879, 1844.840
532.6700, 1844.718
533.1521, 1846.897
533.6342, 1848.853
534.1163, 1850.879
534.5984, 1852.381
535.0806, 1852.396
535.5627, 1851.500
536.0448, 1851.453
536.5269, 1853.455
537.0090, 1856.549
537.4911, 1857.661
537.9733, 1855.580
538.4554, 1854.178
538.9375, 1854.622
539.4196, 1855.252
539.9017, 1854.760
540.3839, 1853.397
540.8660, 1852.595
541.3481, 1853.453
541.8302, 1855.397
542.3123, 1857.583
542.7944, 1860.209
543.2766, 1861.210
543.7587, 1858.446
544.2408, 1854.750
544.7229, 1854.525
545.2050, 1858.205
545.6871, 1861.311
546.1693, 1862.438
546.6514, 1862.150
547.1335, 1860.152
547.6156, 1856.932
548.0977, 1855.145
548.5798, 1856.638
549.0620, 1860.352
549.5441, 1862.711
550.0262, 1862.285
550.5083, 1862.312
550.9904, 1863.319
551.4725, 1864.367
551.9547, 1864.327
552.4368, 1863.533
552.9189, 1863.632
553.4010, 1866.189
553.8831, 1870.203
554.3652, 1871.263
554.8474, 1867.817
555.3295, 1865.354
555.8116, 1866.252
556.2937, 1867.992
556.7758, 1868.888
557.2579, 1868.834
557.7401, 1868.605
558.2222, 1868.699
558.7043, 1868.892
559.1864, 1868.697
559.6685, 1868.096
560.1506, 1867.634
560.6328, 1867.569
561.1149, 1867.793
561.5970, 1868.133
562.0791, 1868.661
562.5612, 1869.003
563.0433, 1868.737
563.5255, 1868.501
564.0076, 1869.369
564.4897, 1870.910
564.9718, 1871.222
565.4539, 1868.942
565.9360, 1865.042
566.4182, 1862.742
566.9003, 1862.113
567.3824, 1863.081
567.8645, 1867.465
568.3466, 1871.736
568.8287, 1873.638
569.3109, 1873.368
569.7930, 1872.292
570.2751, 1870.942
570.7572, 1869.656
571.2393, 1869.453
571.7214, 1870.488
572.2036, 1870.660
572.6857, 1868.621
573.1678, 1866.184
573.6499, 1865.565
574.1320, 1866.700
574.6141, 1867.961
575.0963, 1869.104
575.5784, 1870.026
576.0605, 1870.698
576.5426, 1871.078
577.0247, 1870.960
577.5068, 1870.207
577.9890, 1869.197
578.4711, 1868.630
578.9532, 1868.565
579.4353, 1868.851
579.9174, 1870.100
580.3995, 1871.061
580.8817, 1870.797
581.3638, 1869.856
581.8459, 1869.179
582.3280, 1869.161
582.8101, 1869.996
583.2922, 1872.639
583.7744, 1877.333
584.2565, 1880.000
584.7386, 1879.132
585.2207, 1877.512
585.7029, 1876.918
586.1850, 1877.116
586.6671, 1877.606
587.1492, 1878.611
587.6313, 1879.393
588.1135, 1879.196
588.5956, 1878.381
589.0777, 1877.643
589.5598, 1877.140
