##NAMES=Rhodizite
##RRUFFID=R050099
##IDEAL CHEMISTRY=KAl_4_Be_5_B_11_O_28_
##LOCALITY=Mont Ibity, Antsirabe, Madagascar
##OWNER=RRUFF
##SOURCE=Rock Currier
##DESCRIPTION=Pale green single crystals
##STATUS=The identification of this mineral has been confirmed by X-ray diffraction and chemical analysis
##URL=rruff.info/R050099
##MEASURED CHEMISTRY=([box]_0.49_K_0.32_Rb_0.17_Na_0.02_)(Al_3.96_Si_0.04_)_Σ=4_Be_4.00_(B_11.45_Be_0.55_)_Σ=12_O_28_
113.2559, 52632.79
113.7380, 52781.81
114.2202, 52885.23
114.7023, 52877.88
115.1844, 52793.20
115.6665, 52708.19
116.1486, 52671.11
116.6307, 52679.16
117.1129, 52685.96
117.5950, 52688.38
118.0771, 52690.88
118.5592, 52703.67
119.0413, 52728.41
119.5234, 52739.04
120.0056, 52691.50
120.4877, 52606.91
120.9698, 52548.03
121.4519, 52555.82
121.9340, 52601.95
122.4161, 52618.93
122.8982, 52590.82
123.3804, 52546.05
123.8625, 52500.86
124.3446, 52456.92
124.8267, 52422.02
125.3088, 52400.97
125.7909, 52393.92
126.2731, 52400.64
126.7552, 52431.26
127.2373, 52470.29
127.7194, 52519.94
128.2015, 52577.93
128.6837, 52626.61
129.1658, 52638.07
129.6479, 52594.41
130.1300, 52544.36
130.6121, 52467.84
131.0942, 52399.17
131.5764, 52374.19
132.0585, 52408.84
132.5406, 52482.81
133.0227, 52524.55
133.5048, 52506.08
133.9869, 52483.13
134.4691, 52454.62
134.9512, 52426.33
135.4333, 52408.17
135.9154, 52407.94
136.3975, 52424.39
136.8796, 52430.44
137.3618, 52440.44
137.8439, 52431.38
138.3260, 52377.96
138.8081, 52286.29
139.2902, 52200.05
139.7723, 52159.66
140.2545, 52165.82
140.7366, 52158.89
141.2187, 52116.28
141.7008, 52068.02
142.1829, 52055.29
142.6650, 52091.43
143.1472, 52127.66
143.6293, 52100.88
144.1114, 52024.84
144.5935, 51961.50
145.0756, 51951.42
145.5577, 51976.38
146.0399, 51971.71
146.5220, 51901.93
147.0041, 51829.29
147.4862, 51801.88
147.9683, 51818.71
148.4504, 51853.46
148.9326, 51890.27
149.4147, 51930.56
149.8968, 51959.84
150.3789, 51979.89
150.8610, 51984.24
151.3431, 51960.86
151.8252, 51908.10
152.3074, 51845.79
152.7895, 51807.93
153.2716, 51814.46
153.7537, 51801.91
154.2358, 51732.89
154.7179, 51659.07
155.2001, 51632.30
155.6822, 51675.04
156.1643, 51759.70
156.6464, 51801.34
157.1285, 51769.79
157.6106, 51723.46
158.0928, 51649.25
158.5749, 51567.68
159.0570, 51507.35
159.5391, 51487.05
160.0212, 51502.07
160.5033, 51501.27
160.9855, 51487.53
161.4676, 51458.32
161.9497, 51393.07
162.4318, 51307.29
162.9139, 51245.34
163.3960, 51248.50
163.8782, 51319.02
164.3603, 51337.45
164.8424, 51259.11
165.3245, 51168.80
165.8066, 51126.52
166.2887, 51135.01
166.7709, 51151.57
167.2530, 51135.76
167.7351, 51087.63
168.2172, 51044.00
168.6993, 51007.95
169.1814, 50978.60
169.6636, 50961.35
170.1457, 50962.38
170.6278, 50954.38
171.1099, 50897.76
171.5920, 50801.92
172.0741, 50710.73
172.5563, 50633.09
173.0384, 50572.19
173.5205, 50542.76
174.0026, 50565.89
174.4847, 50595.11
174.9668, 50590.98
175.4490, 50555.28
175.9311, 50507.68
176.4132, 50468.64
176.8953, 50436.82
177.3774, 50371.33
177.8595, 50213.03
178.3417, 50059.88
178.8238, 49975.62
179.3059, 49965.54
179.7880, 49991.92
180.2701, 50026.34
180.7522, 50080.12
181.2344, 50092.71
181.7165, 50031.68
182.1986, 49942.98
182.6807, 49842.37
183.1628, 49736.14
183.6449, 49639.16
184.1271, 49576.57
184.6092, 49556.01
185.0913, 49559.67
185.5734, 49617.60
186.0555, 49678.10
186.5376, 49695.30
187.0198, 49650.62
187.5019, 49562.06
187.9840, 49473.77
188.4661, 49365.77
188.9482, 49286.78
189.4303, 49250.92
189.9125, 49241.36
190.3946, 49244.20
190.8767, 49253.50
191.3588, 49263.12
191.8409, 49243.23
192.3230, 49154.01
192.8052, 49079.51
193.2873, 49047.48
193.7694, 49039.63
194.2515, 49022.52
194.7336, 48974.86
195.2157, 48900.75
195.6979, 48838.87
196.1800, 48797.50
196.6621, 48756.65
197.1442, 48709.68
197.6263, 48657.17
198.1084, 48603.40
198.5906, 48553.17
199.0727, 48504.02
199.5548, 48434.59
200.0369, 48309.75
200.5190, 48196.68
201.0011, 48146.82
201.4833, 48155.31
201.9654, 48163.34
202.4475, 48123.52
202.9296, 48040.91
203.4117, 47977.91
203.8938, 47931.27
204.3760, 47908.27
204.8581, 47939.24
205.3402, 48030.03
205.8223, 48092.11
206.3044, 48031.23
206.7865, 47878.19
207.2687, 47742.07
207.7508, 47644.74
208.2329, 47575.20
208.7150, 47517.08
209.1971, 47466.89
209.6792, 47438.19
210.1614, 47466.08
210.6435, 47526.55
211.1256, 47562.43
211.6077, 47535.07
212.0898, 47470.60
212.5719, 47431.85
213.0541, 47440.00
213.5362, 47434.66
214.0183, 47367.24
214.5004, 47255.39
214.9825, 47139.73
215.4646, 47040.24
215.9468, 46954.29
216.4289, 46873.92
216.9110, 46803.06
217.3931, 46732.12
217.8752, 46652.51
218.3573, 46567.73
218.8395, 46488.07
219.3216, 46414.96
219.8037, 46349.94
220.2858, 46311.40
220.7679, 46324.52
221.2500, 46339.43
221.7322, 46340.63
222.2143, 46325.69
222.6964, 46291.80
223.1785, 46230.65
223.6606, 46140.73
224.1427, 46057.19
224.6249, 45995.69
225.1070, 45926.22
225.5891, 45817.21
226.0712, 45683.10
226.5533, 45572.54
227.0354, 45542.77
227.5176, 45610.22
227.9997, 45642.53
228.4818, 45619.43
228.9639, 45575.91
229.4460, 45519.09
229.9281, 45452.30
230.4103, 45378.38
230.8924, 45296.99
231.3745, 45201.23
231.8566, 45128.44
232.3387, 45095.04
232.8208, 45068.44
233.3030, 45034.27
233.7851, 44991.84
234.2672, 44949.89
234.7493, 44921.77
235.2314, 44921.04
235.7135, 44883.48
236.1957, 44778.47
236.6778, 44668.56
237.1599, 44598.64
237.6420, 44565.21
238.1241, 44524.03
238.6062, 44415.63
239.0884, 44192.94
239.5705, 44063.08
240.0526, 44094.29
240.5347, 44147.35
241.0168, 44138.33
241.4989, 44060.11
241.9811, 43959.92
242.4632, 43891.39
242.9453, 43864.80
243.4274, 43841.48
243.9095, 43844.28
244.3916, 43833.31
244.8738, 43768.36
245.3559, 43651.46
245.8380, 43530.91
246.3201, 43466.95
246.8022, 43491.65
247.2843, 43468.79
247.7665, 43358.67
248.2486, 43233.58
248.7307, 43145.21
249.2128, 43099.61
249.6949, 43070.54
250.1770, 43028.37
250.6592, 42966.73
251.1413, 42914.34
251.6234, 42887.72
252.1055, 42858.79
252.5876, 42797.62
253.0697, 42703.91
253.5519, 42610.62
254.0340, 42557.49
254.5161, 42559.89
254.9982, 42543.50
255.4803, 42487.63
255.9624, 42427.14
256.4445, 42394.29
256.9267, 42391.77
257.4088, 42392.82
257.8909, 42372.45
258.3730, 42327.43
258.8551, 42259.42
259.3372, 42140.12
259.8194, 42016.29
260.3015, 41930.50
260.7836, 41886.31
261.2657, 41850.59
261.7478, 41788.27
262.2299, 41693.32
262.7121, 41624.18
263.1942, 41612.27
263.6763, 41606.76
264.1584, 41558.18
264.6405, 41463.79
265.1227, 41369.51
265.6048, 41320.61
266.0869, 41321.26
266.5690, 41305.64
267.0511, 41269.38
267.5332, 41218.47
268.0154, 41152.46
268.4975, 41072.47
268.9796, 40992.00
269.4617, 40920.79
269.9438, 40859.34
270.4259, 40806.52
270.9081, 40788.57
271.3902, 40760.71
271.8723, 40671.06
272.3544, 40520.87
272.8365, 40381.59
273.3186, 40308.83
273.8008, 40300.82
274.2829, 40287.97
274.7650, 40278.02
275.2471, 40256.79
275.7292, 40212.74
276.2113, 40146.52
276.6935, 40064.95
277.1756, 39966.48
277.6577, 39855.31
278.1398, 39762.28
278.6219, 39678.24
279.1040, 39619.34
279.5862, 39623.15
280.0683, 39678.79
280.5504, 39698.39
281.0325, 39615.91
281.5146, 39453.41
281.9967, 39322.79
282.4789, 39235.61
282.9610, 39167.76
283.4431, 39108.52
283.9252, 39057.15
284.4073, 39012.36
284.8894, 38977.57
285.3716, 38946.20
285.8537, 38900.14
286.3358, 38841.97
286.8179, 38767.03
287.3000, 38647.94
287.7821, 38501.50
288.2643, 38403.40
288.7464, 38403.45
289.2285, 38460.82
289.7106, 38473.63
290.1927, 38442.32
290.6748, 38373.70
291.1570, 38241.66
291.6391, 38069.56
292.1212, 37930.80
292.6033, 37857.34
293.0854, 37828.92
293.5675, 37806.87
294.0497, 37797.42
294.5318, 37777.87
295.0139, 37730.84
295.4960, 37667.20
295.9781, 37614.89
296.4602, 37587.62
296.9424, 37565.24
297.4245, 37509.35
297.9066, 37415.21
298.3887, 37322.07
298.8708, 37232.72
299.3529, 37153.88
299.8351, 37105.07
300.3172, 37097.86
300.7993, 37097.66
301.2814, 37049.04
301.7635, 36948.74
302.2456, 36853.93
302.7278, 36776.62
303.2099, 36712.50
303.6920, 36656.16
304.1741, 36606.31
304.6562, 36566.28
305.1383, 36546.30
305.6205, 36548.48
306.1026, 36532.43
306.5847, 36492.68
307.0668, 36432.38
307.5489, 36342.79
308.0310, 36222.88
308.5132, 36112.39
308.9953, 36054.24
309.4774, 36051.19
309.9595, 36028.42
310.4416, 35974.64
310.9237, 35906.38
311.4059, 35832.84
311.8880, 35755.76
312.3701, 35677.40
312.8522, 35594.31
313.3343, 35510.17
313.8164, 35453.47
314.2986, 35456.70
314.7807, 35457.35
315.2628, 35415.68
315.7449, 35338.01
316.2270, 35254.69
316.7091, 35184.05
317.1913, 35123.47
317.6734, 35057.10
318.1555, 34969.20
318.6376, 34892.62
319.1197, 34848.43
319.6018, 34825.06
320.0840, 34794.09
320.5661, 34740.71
321.0482, 34672.87
321.5303, 34618.39
322.0124, 34587.98
322.4945, 34554.18
322.9767, 34524.22
323.4588, 34484.56
323.9409, 34405.25
324.4230, 34271.88
324.9051, 34118.80
325.3872, 34014.26
325.8694, 33981.48
326.3515, 33958.34
326.8336, 33957.01
327.3157, 33955.95
327.7978, 33928.66
328.2799, 33869.32
328.7621, 33799.31
329.2442, 33749.23
329.7263, 33738.69
330.2084, 33697.16
330.6905, 33600.37
331.1726, 33491.71
331.6548, 33403.36
332.1369, 33337.89
332.6190, 33274.08
333.1011, 33186.75
333.5832, 33065.27
334.0653, 32983.61
334.5475, 32965.76
335.0296, 32957.55
335.5117, 32936.54
335.9938, 32902.39
336.4759, 32863.68
336.9580, 32827.75
337.4402, 32794.41
337.9223, 32746.98
338.4044, 32675.84
338.8865, 32601.93
339.3686, 32527.78
339.8507, 32454.59
340.3329, 32383.51
340.8150, 32314.57
341.2971, 32248.70
341.7792, 32189.24
342.2613, 32141.55
342.7434, 32094.29
343.2256, 32043.67
343.7077, 31994.09
344.1898, 31953.03
344.6719, 31923.21
345.1540, 31896.05
345.6361, 31853.92
346.1183, 31792.68
346.6004, 31723.11
347.0825, 31629.89
347.5646, 31541.35
348.0467, 31482.55
348.5288, 31456.68
349.0110, 31440.78
349.4931, 31407.37
349.9752, 31353.76
350.4573, 31292.56
350.9394, 31197.51
351.4215, 31116.32
351.9037, 31085.45
352.3858, 31094.13
352.8679, 31096.21
353.3500, 31042.56
353.8321, 30935.87
354.3142, 30867.42
354.7964, 30872.37
355.2785, 30874.92
355.7606, 30850.65
356.2427, 30801.79
356.7248, 30732.22
357.2069, 30634.72
357.6891, 30524.18
358.1712, 30447.42
358.6533, 30419.47
359.1354, 30390.80
359.6175, 30341.01
360.0996, 30280.02
360.5818, 30218.57
361.0639, 30160.47
361.5460, 30101.81
362.0281, 30036.35
362.5102, 29962.75
362.9923, 29891.06
363.4745, 29817.68
363.9566, 29752.88
364.4387, 29711.84
364.9208, 29699.15
365.4029, 29686.95
365.8850, 29663.11
366.3672, 29625.14
366.8493, 29550.31
367.3314, 29408.44
367.8135, 29267.08
368.2956, 29207.62
368.7777, 29223.31
369.2599, 29226.37
369.7420, 29162.52
370.2241, 29068.79
370.7062, 29018.91
371.1883, 29029.91
371.6704, 29030.87
372.1526, 28940.81
372.6347, 28779.68
373.1168, 28664.90
373.5989, 28652.36
374.0810, 28660.32
374.5631, 28612.17
375.0453, 28513.84
375.5274, 28431.76
376.0095, 28409.93
376.4916, 28433.44
376.9737, 28434.26
377.4558, 28415.07
377.9380, 28373.58
378.4201, 28293.74
378.9022, 28192.36
379.3843, 28101.96
379.8664, 28035.48
380.3485, 27985.63
380.8307, 27939.07
381.3128, 27894.95
381.7949, 27855.63
382.2770, 27828.78
382.7591, 27802.62
383.2412, 27764.98
383.7234, 27714.12
384.2055, 27658.55
384.6876, 27608.95
385.1697, 27568.19
385.6518, 27520.45
386.1339, 27464.14
386.6161, 27403.64
387.0982, 27338.17
387.5803, 27269.86
388.0624, 27203.27
388.5445, 27140.62
389.0266, 27082.46
389.5088, 27036.12
389.9909, 27026.06
390.4730, 26999.54
390.9551, 26935.28
391.4372, 26853.87
391.9193, 26780.74
392.4015, 26726.87
392.8836, 26685.63
393.3657, 26642.83
393.8478, 26595.39
394.3299, 26554.68
394.8120, 26527.51
395.2942, 26503.16
395.7763, 26479.74
396.2584, 26454.88
396.7405, 26417.19
397.2226, 26347.41
397.7047, 26245.51
398.1869, 26157.58
398.6690, 26086.53
399.1511, 26031.66
399.6332, 25994.97
400.1153, 25973.13
400.5974, 25956.74
401.0796, 25946.81
401.5617, 25937.54
402.0438, 25917.62
402.5259, 25888.43
403.0080, 25843.59
403.4901, 25764.71
403.9723, 25671.82
404.4544, 25595.05
404.9365, 25539.63
405.4186, 25500.82
405.9007, 25480.50
406.3828, 25475.75
406.8650, 25474.60
407.3471, 25481.74
407.8292, 25477.93
408.3113, 25422.90
408.7934, 25305.65
409.2755, 25203.23
409.7577, 25145.69
410.2398, 25114.49
410.7219, 25089.17
411.2040, 25065.93
411.6861, 25040.12
412.1682, 25007.28
412.6504, 24966.59
413.1325, 24921.12
413.6146, 24862.85
414.0967, 24807.22
414.5788, 24766.54
415.0609, 24736.41
415.5431, 24704.04
416.0252, 24662.56
416.5073, 24611.35
416.9894, 24545.91
417.4715, 24442.86
417.9536, 24353.67
418.4358, 24274.09
418.9179, 24215.43
419.4000, 24201.20
419.8821, 24234.85
420.3642, 24278.73
420.8463, 24272.80
421.3285, 24196.26
421.8106, 24126.70
422.2927, 24062.08
422.7748, 24005.91
423.2569, 23962.21
423.7390, 23929.18
424.2212, 23900.76
424.7033, 23872.98
425.1854, 23845.85
425.6675, 23820.47
426.1496, 23804.14
426.6317, 23776.18
427.1139, 23705.57
427.5960, 23627.82
428.0781, 23597.96
428.5602, 23650.85
429.0423, 23712.64
429.5244, 23675.15
430.0066, 23535.68
430.4887, 23423.57
430.9708, 23386.22
431.4529, 23382.25
431.9350, 23368.29
432.4171, 23344.64
432.8993, 23305.40
433.3814, 23233.13
433.8635, 23147.20
434.3456, 23086.03
434.8277, 23057.29
435.3098, 23032.89
435.7920, 22989.78
436.2741, 22928.36
436.7562, 22866.23
437.2383, 22795.24
437.7204, 22731.73
438.2025, 22687.85
438.6847, 22659.49
439.1668, 22636.17
439.6489, 22614.27
440.1310, 22589.88
440.6131, 22552.03
441.0952, 22477.75
441.5774, 22422.15
442.0595, 22396.02
442.5416, 22384.56
443.0237, 22385.71
443.5058, 22393.33
443.9879, 22382.49
444.4701, 22317.81
444.9522, 22185.63
445.4343, 22098.97
445.9164, 22095.63
446.3985, 22100.65
446.8806, 22105.44
447.3628, 22099.95
447.8449, 22067.15
448.3270, 21993.10
448.8091, 21897.54
449.2912, 21831.55
449.7733, 21808.05
450.2555, 21778.50
450.7376, 21721.69
451.2197, 21659.50
451.7018, 21609.14
452.1839, 21573.63
452.6660, 21539.19
453.1482, 21492.56
453.6303, 21436.98
454.1124, 21388.36
454.5945, 21349.53
455.0766, 21314.87
455.5587, 21289.08
456.0409, 21265.74
456.5230, 21221.84
457.0051, 21123.87
457.4872, 21024.38
457.9693, 20967.68
458.4514, 20950.83
458.9336, 20962.18
459.4156, 21007.42
459.8978, 21063.01
460.3799, 21060.20
460.8620, 20969.39
461.3441, 20887.13
461.8262, 20833.53
462.3083, 20794.43
462.7905, 20753.85
463.2726, 20709.46
463.7547, 20673.23
464.2368, 20660.74
464.7189, 20677.60
465.2010, 20668.06
465.6832, 20612.45
466.1653, 20553.16
466.6474, 20488.72
467.1295, 20432.87
467.6116, 20412.58
468.0938, 20445.24
468.5759, 20497.04
469.0580, 20486.29
469.5401, 20386.42
470.0222, 20299.42
470.5043, 20250.42
470.9865, 20214.63
471.4686, 20179.39
471.9507, 20142.97
472.4328, 20105.99
472.9149, 20065.17
473.3970, 20023.89
473.8792, 19996.00
474.3613, 19985.36
474.8434, 19978.53
475.3255, 19977.86
475.8076, 19973.37
476.2897, 19941.04
476.7719, 19857.31
477.2540, 19770.60
477.7361, 19720.32
478.2182, 19694.79
478.7003, 19656.49
479.1824, 19590.73
479.6646, 19514.77
480.1467, 19453.91
480.6288, 19407.01
481.1109, 19381.26
481.5930, 19414.09
482.0751, 19439.63
482.5573, 19399.57
483.0394, 19303.54
483.5215, 19203.45
484.0036, 19134.58
484.4857, 19095.41
484.9678, 19077.29
485.4500, 19108.47
485.9321, 19123.04
486.4142, 19110.03
486.8963, 19078.41
487.3784, 19032.37
487.8605, 18974.63
488.3427, 18915.21
488.8248, 18865.23
489.3069, 18825.05
489.7890, 18787.15
490.2711, 18747.16
490.7532, 18715.48
491.2354, 18701.05
491.7175, 18698.12
492.1996, 18693.83
492.6817, 18691.42
493.1638, 18677.49
493.6459, 18619.27
494.1281, 18521.83
494.6102, 18463.37
495.0923, 18491.86
495.5744, 18552.21
496.0565, 18540.94
496.5386, 18443.47
497.0208, 18358.04
497.5029, 18302.49
497.9850, 18272.38
498.4671, 18279.40
498.9492, 18315.99
499.4313, 18335.65
499.9135, 18296.65
500.3956, 18205.25
500.8777, 18144.50
501.3598, 18147.85
501.8419, 18142.06
502.3240, 18112.39
502.8062, 18069.25
503.2883, 18022.58
503.7704, 17976.15
504.2525, 17931.47
504.7346, 17888.77
505.2167, 17847.47
505.6989, 17815.81
506.1810, 17809.47
506.6631, 17794.85
507.1452, 17748.54
507.6273, 17682.93
508.1094, 17626.07
508.5916, 17592.74
509.0737, 17570.05
509.5558, 17540.95
510.0379, 17505.79
510.5200, 17472.24
511.0021, 17441.21
511.4843, 17415.10
511.9664, 17398.35
512.4485, 17391.29
512.9306, 17386.92
513.4127, 17397.45
513.8948, 17400.88
514.3770, 17366.00
514.8591, 17296.83
515.3412, 17233.08
515.8233, 17204.45
516.3054, 17203.75
516.7875, 17185.65
517.2697, 17117.66
517.7518, 17072.39
518.2339, 17084.29
518.7160, 17106.29
519.1981, 17085.55
519.6802, 17015.20
520.1624, 16938.25
520.6445, 16908.23
521.1266, 16926.98
521.6087, 16916.45
522.0908, 16860.00
522.5729, 16798.13
523.0551, 16741.76
523.5372, 16693.93
524.0193, 16661.10
524.5014, 16648.07
524.9835, 16643.30
525.4656, 16638.33
525.9478, 16632.58
526.4299, 16623.69
526.9120, 16612.33
527.3941, 16594.42
527.8762, 16558.98
528.3583, 16504.59
528.8405, 16469.54
529.3226, 16488.01
529.8047, 16499.64
530.2868, 16450.73
530.7689, 16361.04
531.2510, 16288.82
531.7332, 16264.35
532.2153, 16270.26
532.6974, 16264.54
533.1795, 16242.98
533.6616, 16216.76
534.1437, 16191.31
534.6259, 16157.82
535.1080, 16099.49
535.5901, 16025.56
536.0722, 15969.07
536.5543, 15960.05
537.0364, 15982.23
537.5186, 15985.53
538.0007, 15967.23
538.4828, 15940.36
538.9649, 15901.98
539.4470, 15862.13
539.9291, 15834.03
540.4113, 15820.35
540.8934, 15805.47
541.3755, 15780.36
541.8576, 15749.74
542.3397, 15719.11
542.8218, 15689.34
543.3040, 15665.76
543.7861, 15654.91
544.2682, 15653.98
544.7503, 15638.88
545.2324, 15607.04
545.7145, 15566.28
546.1967, 15509.61
546.6788, 15449.43
547.1609, 15396.65
547.6430, 15354.94
548.1251, 15324.84
548.6072, 15310.15
549.0894, 15311.69
549.5715, 15304.18
550.0536, 15276.19
550.5357, 15255.98
551.0178, 15265.99
551.4999, 15284.77
551.9821, 15281.40
552.4642, 15244.07
552.9463, 15195.46
553.4284, 15153.88
553.9105, 15118.03
554.3926, 15081.21
554.8748, 15039.46
555.3569, 15006.87
555.8390, 15000.66
556.3211, 15020.48
556.8032, 15031.03
557.2853, 15024.93
557.7675, 15016.37
558.2496, 15023.70
558.7317, 15030.28
559.2138, 14998.74
559.6959, 14917.16
560.1780, 14824.02
560.6602, 14783.45
561.1423, 14817.47
561.6244, 14816.55
562.1065, 14739.14
562.5886, 14667.03
563.0707, 14622.87
563.5529, 14605.17
564.0350, 14611.14
564.5171, 14645.56
564.9992, 14685.84
565.4813, 14705.00
565.9634, 14703.29
566.4456, 14682.78
566.9277, 14638.77
567.4098, 14584.68
567.8919, 14529.91
568.3740, 14475.12
568.8561, 14430.98
569.3383, 14404.93
569.8204, 14384.26
570.3025, 14360.34
570.7846, 14334.97
571.2667, 14312.89
571.7488, 14296.01
572.2310, 14284.58
572.7131, 14280.87
573.1952, 14292.49
573.6773, 14290.99
574.1594, 14266.79
574.6415, 14239.83
575.1237, 14220.45
575.6058, 14204.69
576.0879, 14181.98
576.5700, 14145.17
577.0521, 14104.45
577.5342, 14074.09
578.0164, 14054.19
578.4985, 14044.82
578.9806, 14054.22
579.4627, 14062.10
579.9448, 14039.71
580.4269, 13991.38
580.9091, 13957.38
581.3912, 13955.32
581.8733, 13960.89
582.3554, 13966.63
582.8375, 13966.23
583.3196, 13941.54
583.8018, 13884.29
584.2839, 13814.81
584.7660, 13768.34
585.2481, 13750.82
585.7302, 13740.37
586.2123, 13749.10
586.6945, 13752.32
587.1766, 13734.34
587.6587, 13703.86
588.1408, 13678.52
588.6229, 13666.43
589.1050, 13662.68
589.5872, 13663.83
590.0693, 13669.42
590.5514, 13667.17
591.0335, 13654.09
591.5156, 13633.37
591.9977, 13607.30
592.4799, 13576.13
592.9620, 13539.52
593.4441, 13476.50
593.9262, 13428.77
594.4083, 13438.71
594.8904, 13478.86
595.3726, 13491.87
595.8547, 13457.79
596.3368, 13404.37
596.8189, 13374.17
597.3010, 13376.87
597.7831, 13356.13
598.2653, 13270.16
598.7474, 13204.66
599.2295, 13199.65
599.7116, 13228.97
600.1937, 13254.42
600.6758, 13264.03
601.1580, 13258.77
601.6401, 13232.92
602.1222, 13191.18
602.6043, 13156.58
603.0864, 13133.23
603.5685, 13115.88
604.0507, 13101.95
604.5328, 13091.01
605.0149, 13077.58
605.4970, 13051.30
605.9791, 13034.68
606.4612, 13050.69
606.9434, 13074.02
607.4255, 13069.11
607.9076, 13029.83
608.3897, 12979.84
608.8718, 12943.68
