##NAMES=Rhodochrosite
##RRUFFID=R100162
##IDEAL CHEMISTRY=Mn^2+^CO_3_
##LOCALITY=N'Chwaning mine, Kuruman, Kalahari manganese field, Cape Province, South Africa
##OWNER=RRUFF
##SOURCE=William W. Pinch
##DESCRIPTION=Reddish-purple cut gemstone
##STATUS=The identification of this mineral has been confirmed by single-crystal X-ray diffraction.
##URL=rruff.info/R100162
91.03516, 25.66659
91.51727, 25.60062
91.99939, 25.68696
92.48151, 25.86499
92.96362, 25.96247
93.44574, 25.70670
93.92786, 25.32552
94.40997, 25.49042
94.89210, 26.44238
95.37421, 27.35022
95.85633, 26.66471
96.33845, 24.46106
96.82056, 22.33591
97.30268, 21.32087
97.78480, 21.34333
98.26691, 21.73115
98.74903, 22.56617
99.23115, 23.58691
99.71326, 24.00294
100.1954, 23.73103
100.6775, 23.16095
101.1596, 22.45682
101.6417, 21.50893
102.1239, 21.03371
102.6060, 21.35567
103.0881, 22.40005
103.5702, 22.79417
104.0523, 22.28931
104.5344, 21.44257
105.0166, 20.83475
105.4987, 20.61390
105.9808, 20.37307
106.4629, 19.97685
106.9450, 19.33290
107.4271, 18.94555
107.9093, 18.95281
108.3914, 19.16570
108.8735, 19.30568
109.3556, 19.51108
109.8377, 19.51151
110.3198, 19.20244
110.8020, 18.38750
111.2841, 17.64805
111.7662, 16.97188
112.2483, 16.38067
112.7304, 15.91588
113.2125, 15.73521
113.6947, 15.56741
114.1768, 15.24323
114.6589, 14.07231
115.1410, 13.61839
115.6231, 14.64460
116.1052, 16.80285
116.5874, 18.80172
117.0695, 20.72776
117.5516, 22.04626
118.0337, 22.32597
118.5158, 19.92037
118.9980, 17.82386
119.4801, 17.95659
119.9622, 20.09182
120.4443, 21.58099
120.9264, 20.07517
121.4085, 17.29807
121.8907, 15.36536
122.3728, 15.81789
122.8549, 17.02225
123.3370, 17.80295
123.8191, 18.13109
124.3012, 18.03960
124.7834, 17.11690
125.2655, 15.76957
125.7476, 14.86598
126.2297, 15.34230
126.7118, 16.35482
127.1939, 16.59648
127.6761, 15.88607
128.1582, 14.91231
128.6403, 14.45852
129.1224, 14.44141
129.6045, 14.45914
130.0867, 14.15724
130.5688, 13.69084
131.0509, 13.62265
131.5330, 14.08761
132.0151, 14.78021
132.4972, 15.19048
132.9794, 15.31803
133.4615, 15.36836
133.9436, 15.49250
134.4257, 15.68021
134.9078, 15.77756
135.3899, 15.76209
135.8721, 15.64618
136.3542, 15.38695
136.8363, 14.92336
137.3184, 14.58732
137.8005, 14.74399
138.2826, 15.48333
138.7648, 16.02762
139.2469, 16.11843
139.7290, 15.86875
140.2111, 16.16729
140.6932, 17.19474
141.1753, 18.43925
141.6575, 19.31854
142.1396, 19.55301
142.6217, 20.23085
143.1038, 21.71600
143.5859, 24.07845
144.0681, 26.08892
144.5502, 27.81261
145.0323, 29.14397
145.5144, 29.93614
145.9965, 29.83335
146.4786, 29.72342
146.9608, 29.76100
147.4429, 29.89595
147.9250, 30.41125
148.4071, 31.55495
148.8892, 32.98906
149.3713, 34.17804
149.8535, 34.53962
150.3356, 35.24767
150.8177, 36.70280
151.2998, 39.40514
151.7819, 41.77052
152.2640, 43.52878
152.7462, 44.98492
153.2283, 46.64854
153.7104, 48.44236
154.1925, 50.53605
154.6746, 53.03843
155.1567, 56.27635
155.6389, 59.30177
156.1210, 61.77177
156.6031, 63.94343
157.0852, 66.47517
157.5673, 69.77048
158.0495, 73.25286
158.5316, 76.66873
159.0137, 79.84698
159.4958, 83.10339
159.9779, 86.43954
160.4600, 89.91341
160.9422, 93.71442
161.4243, 97.29348
161.9064, 101.5726
162.3885, 107.1000
162.8706, 113.5515
163.3527, 121.9039
163.8349, 132.8990
164.3170, 146.3144
164.7991, 161.0868
165.2812, 177.2634
165.7633, 194.3366
166.2454, 211.8786
166.7276, 230.7302
167.2097, 249.1218
167.6918, 266.5838
168.1739, 282.9145
168.6560, 297.7784
169.1381, 309.3816
169.6203, 319.7032
170.1024, 329.0196
170.5845, 340.1091
171.0666, 352.2164
171.5487, 363.5854
172.0309, 374.2671
172.5130, 385.6089
172.9951, 398.4014
173.4772, 412.4435
173.9593, 427.4975
174.4414, 443.5002
174.9236, 460.3485
175.4057, 476.8501
175.8878, 493.0931
176.3699, 511.7076
176.8520, 534.7917
177.3341, 561.9600
177.8163, 592.5894
178.2984, 624.6111
178.7805, 660.1481
179.2626, 702.3735
179.7447, 750.5226
180.2268, 805.0987
180.7090, 865.7347
181.1911, 932.4507
181.6732, 1005.097
182.1553, 1091.114
182.6374, 1181.879
183.1195, 1261.226
183.6017, 1331.826
184.0838, 1380.221
184.5659, 1396.524
185.0480, 1380.473
185.5301, 1329.506
186.0123, 1228.679
186.4944, 1090.760
186.9765, 955.4405
187.4586, 820.8738
187.9407, 695.5973
188.4228, 590.4798
188.9050, 505.2014
189.3871, 433.6270
189.8692, 375.1314
190.3513, 328.9927
190.8334, 291.6046
191.3155, 263.9665
191.7977, 242.5102
192.2798, 221.8527
192.7619, 201.9774
193.2440, 184.8352
193.7261, 171.7740
194.2082, 162.5984
194.6904, 154.6240
195.1725, 147.9629
195.6546, 141.9518
196.1367, 135.3746
196.6188, 128.0936
197.1009, 121.5611
197.5831, 116.5902
198.0652, 113.1278
198.5473, 110.6858
199.0294, 109.6144
199.5115, 109.0057
199.9937, 106.7119
200.4758, 102.4832
200.9579, 98.35865
201.4400, 95.68376
201.9221, 94.58885
202.4042, 93.00211
202.8864, 90.60965
203.3685, 87.86085
203.8506, 85.82957
204.3327, 84.63351
204.8148, 83.73920
205.2969, 82.96397
205.7791, 82.35979
206.2612, 81.45437
206.7433, 80.09164
207.2254, 78.51063
207.7075, 77.33223
208.1896, 76.62236
208.6718, 76.11283
209.1539, 75.71491
209.6360, 75.49197
210.1181, 75.05067
210.6002, 74.26070
211.0823, 73.30156
211.5645, 72.73849
212.0466, 72.74889
212.5287, 72.73399
213.0108, 72.27625
213.4929, 71.14987
213.9750, 70.49612
214.4572, 70.54947
214.9393, 71.04475
215.4214, 71.14980
215.9035, 70.65343
216.3856, 70.19588
216.8678, 70.22741
217.3499, 71.05001
217.8320, 71.31754
218.3141, 70.70510
218.7962, 69.57101
219.2783, 69.08631
219.7605, 69.51077
220.2426, 70.11389
220.7247, 70.52802
221.2068, 70.72089
221.6889, 70.80127
222.1710, 70.71481
222.6532, 70.53243
223.1353, 70.51308
223.6174, 70.82057
224.0995, 71.01976
224.5816, 70.82070
225.0637, 69.90199
225.5459, 69.42687
226.0280, 69.60469
226.5101, 70.20979
226.9922, 70.51176
227.4743, 70.26257
227.9564, 70.10435
228.4386, 70.42638
228.9207, 71.61631
229.4028, 72.30197
229.8849, 72.23849
230.3670, 71.71416
230.8492, 71.57650
231.3313, 72.12643
231.8134, 72.60903
232.2955, 72.62649
232.7776, 71.81869
233.2597, 71.41210
233.7419, 71.62981
234.2240, 72.19506
234.7061, 72.31526
235.1882, 71.55946
235.6703, 71.01608
236.1524, 71.19134
236.6346, 72.44854
237.1167, 73.61759
237.5988, 74.76920
238.0809, 75.81386
238.5630, 76.51811
239.0451, 76.64114
239.5273, 76.77688
240.0094, 77.19469
240.4915, 78.07903
240.9736, 78.73904
241.4557, 79.00073
241.9378, 79.11641
242.4200, 79.62975
242.9021, 80.74853
243.3842, 81.95231
243.8663, 83.10032
244.3484, 84.30036
244.8306, 85.07600
245.3127, 85.11705
245.7948, 84.89101
246.2769, 85.28938
246.7590, 86.58922
247.2411, 88.03031
247.7233, 89.31531
248.2054, 90.30797
248.6875, 91.71122
249.1696, 93.81676
249.6517, 96.12487
250.1338, 97.75690
250.6160, 98.32373
251.0981, 98.91796
251.5802, 99.85804
252.0623, 101.1849
252.5444, 102.7180
253.0265, 104.6688
253.5087, 106.6433
253.9908, 107.8624
254.4729, 107.5218
254.9550, 108.0991
255.4371, 110.6622
255.9192, 115.5752
256.4014, 119.1954
256.8835, 120.8029
257.3656, 121.8318
257.8477, 124.1497
258.3298, 128.3045
258.8120, 132.5288
259.2941, 136.3230
259.7762, 139.6446
260.2583, 143.5025
260.7404, 147.8957
261.2225, 152.8664
261.7047, 158.5935
262.1868, 165.1626
262.6689, 172.2782
263.1510, 179.8085
263.6331, 187.7076
264.1152, 196.9412
264.5974, 207.4637
265.0795, 219.3156
265.5616, 231.9389
266.0437, 244.9728
266.5258, 260.5707
267.0079, 279.0844
267.4901, 300.5978
267.9722, 324.1395
268.4543, 349.6353
268.9364, 377.8270
269.4185, 409.3350
269.9006, 444.1617
270.3828, 482.2986
270.8649, 524.7319
271.3470, 570.6148
271.8291, 616.6943
272.3112, 663.4089
272.7933, 710.5745
273.2755, 758.0482
273.7576, 806.1336
274.2397, 852.6652
274.7218, 896.7878
275.2039, 939.1277
275.6860, 981.0159
276.1682, 1022.431
276.6503, 1064.946
277.1324, 1109.943
277.6145, 1157.134
278.0966, 1205.045
278.5787, 1252.803
279.0609, 1301.924
279.5430, 1356.040
280.0251, 1414.765
280.5072, 1479.662
280.9893, 1550.843
281.4715, 1627.741
281.9536, 1714.752
282.4357, 1811.516
282.9178, 1919.540
283.3999, 2041.183
283.8820, 2176.466
284.3642, 2325.003
284.8463, 2489.994
285.3284, 2670.936
285.8105, 2854.386
286.2926, 3042.815
286.7747, 3228.454
287.2569, 3409.519
287.7390, 3584.921
288.2211, 3728.076
288.7032, 3834.788
289.1853, 3901.114
289.6674, 3912.234
290.1496, 3867.887
290.6317, 3773.367
291.1138, 3625.012
291.5959, 3426.085
292.0780, 3204.564
292.5602, 2959.254
293.0423, 2699.884
293.5244, 2445.088
294.0065, 2195.589
294.4886, 1962.743
294.9707, 1754.172
295.4529, 1568.088
295.9350, 1402.828
296.4171, 1258.144
296.8992, 1131.018
297.3813, 1019.484
297.8634, 923.5854
298.3456, 838.7825
298.8277, 764.6431
299.3098, 699.7689
299.7919, 641.9464
300.2740, 591.7807
300.7561, 547.4138
301.2383, 508.7984
301.7204, 475.1083
302.2025, 445.2609
302.6846, 418.7411
303.1667, 395.3058
303.6488, 374.2763
304.1310, 356.0322
304.6131, 339.3334
305.0952, 322.8012
305.5773, 306.9719
306.0594, 293.3539
306.5415, 284.1689
307.0237, 276.7912
307.5058, 268.1039
307.9879, 257.6615
308.4700, 247.3737
308.9521, 238.2637
309.4343, 230.3145
309.9164, 223.2681
310.3985, 217.5230
310.8806, 212.2232
311.3627, 206.6190
311.8448, 200.6210
312.3270, 194.9868
312.8091, 190.5207
313.2912, 186.5499
313.7733, 182.2793
314.2554, 176.8646
314.7375, 171.5664
315.2197, 167.1360
315.7018, 163.4617
316.1839, 159.9017
316.6660, 155.9361
317.1481, 152.0589
317.6302, 148.7124
318.1124, 145.9895
318.5945, 143.7883
319.0766, 142.3934
319.5587, 141.5619
320.0408, 140.4307
320.5229, 138.3497
321.0051, 136.1602
321.4872, 134.3984
321.9693, 133.6781
322.4514, 132.4205
322.9335, 129.6183
323.4156, 126.1188
323.8978, 123.5552
324.3799, 123.0356
324.8620, 122.7773
325.3441, 122.1720
325.8262, 121.1058
326.3083, 119.9382
326.7905, 118.5732
327.2726, 117.1560
327.7547, 115.8836
328.2368, 115.1115
328.7189, 114.1086
329.2010, 112.6503
329.6832, 110.6973
330.1653, 108.8595
330.6474, 106.9409
331.1295, 105.2808
331.6116, 104.1812
332.0938, 104.1963
332.5759, 103.8793
333.0580, 102.9414
333.5401, 101.4712
334.0222, 100.2229
334.5043, 99.37172
334.9865, 98.48574
335.4686, 97.20542
335.9507, 95.16675
336.4328, 93.74223
336.9149, 93.14822
337.3970, 93.12875
337.8792, 93.07967
338.3613, 93.06727
338.8434, 92.84172
339.3255, 92.24902
339.8076, 91.24071
340.2898, 90.20084
340.7719, 89.09192
341.2540, 88.00307
341.7361, 87.13554
342.2182, 86.55605
342.7003, 85.67325
343.1825, 83.93700
343.6646, 81.61924
344.1467, 80.96746
344.6288, 82.26181
345.1109, 83.77567
345.5930, 83.54361
346.0752, 81.74936
346.5573, 80.27811
347.0394, 79.71439
347.5215, 79.62562
348.0036, 78.90923
348.4857, 77.58626
348.9679, 76.41848
349.4500, 76.08154
349.9321, 76.34632
350.4142, 76.54147
350.8963, 76.54096
351.3784, 76.49824
351.8606, 76.68647
352.3427, 77.02672
352.8248, 77.22897
353.3069, 77.08693
353.7890, 76.72396
354.2711, 76.27548
354.7533, 75.74572
355.2354, 75.20704
355.7175, 74.70206
356.1996, 74.23795
356.6817, 73.82705
357.1638, 73.50449
357.6460, 73.21556
358.1281, 72.84480
358.6102, 72.41363
359.0923, 72.17419
359.5744, 72.48640
360.0565, 72.96719
360.5387, 73.24374
361.0208, 73.13537
361.5029, 72.90125
361.9850, 72.54134
362.4671, 72.12508
362.9492, 71.87267
363.4314, 71.94387
363.9135, 72.13900
364.3956, 72.38712
364.8777, 72.78487
365.3598, 72.97865
365.8419, 72.82169
366.3241, 72.43445
366.8062, 71.99651
367.2883, 71.35999
367.7704, 70.84151
368.2526, 70.55024
368.7347, 70.52443
369.2168, 70.51762
369.6989, 70.74419
370.1810, 70.85313
370.6631, 70.52430
371.1453, 69.19331
371.6274, 68.26534
372.1095, 67.97498
372.5916, 68.24521
373.0737, 68.61817
373.5558, 69.33621
374.0380, 69.80267
374.5201, 69.55086
375.0022, 68.17851
375.4843, 67.47874
375.9664, 67.72223
376.4485, 68.47883
376.9307, 68.88857
377.4128, 68.86714
377.8949, 68.84805
378.3770, 69.09881
378.8591, 69.58666
379.3412, 69.54324
379.8234, 68.84624
380.3055, 68.05003
380.7876, 67.86734
381.2697, 68.25783
381.7518, 68.52132
382.2339, 68.43000
382.7161, 68.13027
383.1982, 67.96724
383.6803, 67.93761
384.1624, 67.89925
384.6445, 67.65151
385.1266, 67.31773
385.6088, 67.25031
386.0909, 67.56773
386.5730, 67.95309
387.0551, 68.10297
387.5372, 68.02885
388.0193, 67.76118
388.5015, 67.11484
388.9836, 66.39049
389.4657, 65.88392
389.9478, 65.61111
390.4299, 65.53880
390.9120, 65.84467
391.3942, 66.27522
391.8763, 66.51282
392.3584, 66.32825
392.8405, 66.03932
393.3226, 65.64257
393.8047, 65.21921
394.2869, 65.14111
394.7690, 66.01923
395.2511, 66.97009
395.7332, 67.39315
396.2154, 66.83918
396.6975, 66.50253
397.1796, 66.83288
397.6617, 67.50589
398.1438, 67.96124
398.6259, 68.34981
399.1081, 68.30076
399.5902, 67.42715
400.0723, 65.48684
400.5544, 64.43377
401.0365, 64.90797
401.5186, 65.79307
402.0008, 66.16508
402.4829, 65.73374
402.9650, 65.32975
403.4471, 64.97777
403.9292, 64.72071
404.4113, 64.81293
404.8935, 65.45366
405.3756, 65.98754
405.8577, 65.99703
406.3398, 65.38478
406.8219, 65.02732
407.3040, 65.03356
407.7862, 65.10594
408.2683, 64.66583
408.7504, 63.68824
409.2325, 63.06942
409.7146, 63.28720
410.1967, 64.05642
410.6789, 64.49936
411.1610, 64.61707
411.6431, 64.41738
412.1252, 63.52962
412.6073, 62.30269
413.0894, 61.86618
413.5716, 62.70870
414.0537, 63.83021
414.5358, 63.90145
415.0179, 63.19332
415.5000, 62.59385
415.9821, 62.61465
416.4643, 62.97704
416.9464, 63.54300
417.4285, 64.32676
417.9106, 64.82259
418.3927, 64.36093
418.8748, 63.53875
419.3570, 63.07304
419.8391, 63.64396
420.3212, 64.18829
420.8033, 64.21372
421.2854, 63.81311
421.7675, 63.43182
422.2497, 63.10402
422.7318, 62.90828
423.2139, 62.92741
423.6960, 63.34596
424.1781, 63.59507
424.6602, 63.42086
425.1424, 63.09485
425.6245, 63.02927
426.1066, 63.68059
426.5887, 64.00919
427.0709, 63.64562
427.5530, 62.59022
428.0351, 61.95140
428.5172, 61.89553
428.9993, 62.01827
429.4814, 62.00441
429.9636, 61.76428
430.4457, 61.73653
430.9278, 61.97962
431.4099, 62.43089
431.8920, 63.03396
432.3741, 63.83528
432.8563, 64.46599
433.3384, 64.73428
433.8205, 64.67638
434.3026, 64.49874
434.7847, 64.18753
435.2668, 63.86191
435.7490, 63.63014
436.2311, 63.48182
436.7132, 63.38108
437.1953, 63.29370
437.6774, 63.28448
438.1595, 63.52876
438.6417, 63.95927
439.1238, 64.29716
439.6059, 64.38744
440.0880, 64.29359
440.5701, 64.05231
441.0522, 63.65065
441.5344, 63.21777
442.0165, 62.66771
442.4986, 62.18602
442.9807, 62.00433
443.4628, 62.61803
443.9449, 63.13548
444.4271, 63.10255
444.9092, 62.62035
445.3913, 62.28541
445.8734, 62.30231
446.3555, 62.46368
446.8376, 62.68328
447.3198, 63.01896
447.8019, 63.28804
448.2840, 63.59789
448.7661, 63.79238
449.2482, 63.60521
449.7303, 62.65325
450.2125, 61.98368
450.6946, 61.90675
451.1767, 62.37183
451.6588, 62.58109
452.1409, 62.40437
452.6230, 62.27811
453.1052, 62.61671
453.5873, 63.48232
454.0694, 64.00884
454.5515, 64.09650
455.0337, 63.88938
455.5158, 63.50574
455.9979, 62.96418
456.4800, 62.59617
456.9621, 62.63643
457.4442, 62.91756
457.9264, 63.13781
458.4085, 63.29095
458.8906, 63.18671
459.3727, 62.32607
459.8548, 61.18907
460.3369, 60.62480
460.8191, 61.00506
461.3012, 61.52644
461.7833, 61.47870
462.2654, 61.09630
462.7475, 60.86657
463.2296, 61.30473
463.7118, 61.70212
464.1939, 61.55079
464.6760, 60.81117
465.1581, 60.25877
465.6402, 60.45807
466.1223, 60.74010
466.6045, 60.63067
467.0866, 59.30543
467.5687, 58.52894
468.0508, 58.61715
468.5329, 59.28955
469.0150, 59.97456
469.4972, 60.90569
469.9793, 61.47217
470.4614, 61.32732
470.9435, 60.41185
471.4256, 60.05441
471.9077, 60.47035
472.3899, 61.01652
472.8720, 61.04998
473.3541, 60.51021
473.8362, 60.21565
474.3183, 60.33643
474.8004, 60.66275
475.2826, 60.77067
475.7647, 60.67598
476.2468, 60.60520
476.7289, 60.85615
477.2110, 61.17627
477.6931, 60.80500
478.1753, 59.74018
478.6574, 58.86752
479.1395, 59.05526
479.6216, 59.86232
480.1037, 60.64126
480.5858, 61.19260
481.0680, 61.74919
481.5501, 62.78644
482.0322, 63.94141
482.5143, 64.44228
482.9964, 63.32190
483.4786, 62.05500
483.9607, 61.35114
484.4428, 61.29927
484.9249, 61.28056
485.4070, 61.13595
485.8892, 61.01172
486.3713, 61.01274
486.8534, 61.14547
487.3355, 61.41286
487.8176, 62.05406
488.2997, 62.74910
488.7819, 62.72543
489.2640, 61.55038
489.7461, 60.63436
490.2282, 60.46848
490.7103, 61.01304
491.1924, 61.66467
491.6746, 62.46875
492.1567, 63.20750
492.6388, 63.74838
493.1209, 64.08119
493.6030, 63.98735
494.0851, 63.31829
494.5673, 62.55101
495.0494, 62.51857
495.5315, 63.01842
496.0136, 63.32160
496.4957, 62.81481
496.9778, 62.09789
497.4600, 61.85934
497.9421, 62.06605
498.4242, 62.33100
498.9063, 62.51256
499.3884, 62.60077
499.8705, 62.56124
500.3527, 62.30442
500.8348, 62.12776
501.3169, 62.29784
501.7990, 62.57073
502.2811, 62.60191
502.7632, 62.01406
503.2454, 61.51974
503.7275, 61.38316
504.2096, 61.55128
504.6917, 61.37791
505.1738, 60.51718
505.6559, 59.78820
506.1381, 59.73024
506.6202, 60.63020
507.1023, 61.00043
507.5844, 60.71415
508.0665, 60.12967
508.5486, 59.63054
509.0308, 59.21122
509.5129, 59.13730
509.9950, 59.64911
510.4771, 60.37165
510.9592, 60.33342
511.4413, 59.62232
511.9235, 59.08961
512.4056, 59.54216
512.8877, 60.41032
513.3698, 60.88310
513.8519, 60.89383
514.3340, 60.59327
514.8162, 59.75029
515.2983, 58.78413
515.7804, 58.20342
516.2625, 58.34011
516.7446, 58.65958
517.2267, 59.01175
517.7089, 59.39065
518.1910, 59.77716
518.6731, 60.49280
519.1552, 60.91253
519.6373, 60.61580
520.1194, 59.48507
520.6016, 58.93140
521.0837, 59.26509
521.5658, 59.83368
522.0479, 60.14836
522.5300, 60.08110
523.0121, 60.25214
523.4943, 60.81207
523.9764, 61.48000
524.4585, 61.71961
524.9406, 61.51883
525.4227, 61.28384
525.9048, 61.21556
526.3870, 61.18571
526.8691, 60.79113
527.3513, 60.05515
527.8334, 59.35789
528.3155, 58.70180
528.7976, 58.34731
529.2797, 58.95293
529.7618, 60.81868
530.2440, 62.26667
530.7261, 61.68100
531.2082, 60.09998
531.6903, 58.86372
532.1724, 58.72699
532.6545, 58.64949
533.1367, 58.15477
533.6188, 57.41811
534.1009, 57.05242
534.5830, 57.41941
535.0651, 57.92101
535.5472, 58.40612
536.0294, 58.90070
536.5115, 59.21531
536.9936, 59.30794
537.4757, 59.28032
537.9578, 59.18070
538.4399, 58.97976
538.9221, 58.88867
539.4042, 58.93261
539.8863, 59.08697
540.3684, 59.35942
540.8505, 59.73572
541.3326, 60.04433
541.8148, 60.17906
542.2969, 60.22434
542.7790, 60.38169
543.2611, 60.62351
543.7432, 60.73784
544.2253, 60.38277
544.7075, 59.93293
545.1896, 59.85100
545.6717, 60.28637
546.1538, 60.59256
546.6359, 60.24228
547.1180, 59.68610
547.6002, 59.40727
548.0823, 59.84988
548.5644, 60.19580
549.0465, 60.05240
549.5286, 59.69655
550.0107, 59.98290
550.4929, 61.55641
550.9750, 62.79187
551.4571, 63.04832
551.9392, 62.31877
552.4213, 61.99889
552.9034, 62.20285
553.3856, 62.45153
553.8677, 62.34060
554.3498, 61.89783
554.8319, 61.39627
555.3140, 60.80426
555.7961, 60.37551
556.2783, 60.69366
556.7604, 61.47112
557.2425, 61.85620
557.7246, 61.09205
558.2067, 60.26485
558.6888, 60.69419
559.1710, 62.01615
559.6531, 62.99234
560.1352, 62.80187
560.6173, 62.25055
561.0994, 61.72257
561.5815, 61.23136
562.0637, 60.94651
562.5458, 60.83261
563.0279, 60.98853
563.5100, 61.48894
563.9921, 62.57525
564.4742, 63.62546
564.9564, 64.82057
565.4385, 65.81990
565.9206, 65.90718
566.4027, 64.88766
566.8848, 63.91825
567.3669, 63.32100
567.8491, 63.01529
568.3312, 62.72407
568.8133, 62.45544
569.2954, 62.42789
569.7775, 63.04498
570.2596, 63.92671
570.7418, 64.37878
571.2239, 64.36064
571.7060, 64.06106
572.1881, 63.28880
572.6702, 62.46440
573.1523, 62.06928
573.6345, 62.41136
574.1166, 62.86293
574.5987, 63.33990
575.0808, 63.74438
575.5629, 63.91912
576.0450, 63.24357
576.5272, 63.02187
577.0093, 63.81913
577.4914, 65.38960
577.9735, 66.04683
578.4556, 65.39439
578.9377, 64.63680
579.4199, 64.36440
579.9020, 64.59035
580.3841, 64.84805
580.8662, 65.16782
581.3483, 65.36186
581.8304, 65.14748
582.3126, 64.63569
582.7947, 64.19672
583.2768, 63.88530
583.7589, 63.70538
584.2410, 63.72469
584.7231, 63.87279
585.2053, 64.01055
585.6874, 64.26008
586.1696, 64.31351
586.6517, 63.79668
587.1338, 62.87344
587.6159, 62.27427
588.0980, 62.27178
588.5801, 62.55739
