##NAMES=Rhodizite
##RRUFFID=R110072
##IDEAL CHEMISTRY=KAl_4_Be_5_B_11_O_28_
##LOCALITY=Sahanivotry, Sud Antzirabe, Madagascar
##OWNER=RRUFF
##SOURCE=Renato & Adriana Pagano
##DESCRIPTION=Pale yellow dodecahedra
##STATUS=The identification of this mineral has been confirmed by single-crystal X-ray diffraction.
##URL=rruff.info/R110072
186.9155, 1292.131
187.3976, 1280.171
187.8798, 1273.021
188.3619, 1272.132
188.8440, 1273.129
189.3261, 1270.139
189.8082, 1263.354
190.2903, 1255.500
190.7725, 1248.843
191.2546, 1242.608
191.7367, 1230.458
192.2188, 1209.220
192.7009, 1189.178
193.1830, 1191.670
193.6652, 1216.717
194.1473, 1241.086
194.6294, 1249.812
195.1115, 1244.391
195.5936, 1244.388
196.0757, 1252.196
196.5579, 1263.576
197.0400, 1269.430
197.5221, 1269.088
198.0042, 1270.341
198.4863, 1280.649
198.9684, 1300.184
199.4506, 1309.663
199.9327, 1305.431
200.4148, 1293.535
200.8969, 1286.361
201.3790, 1284.080
201.8611, 1285.100
202.3433, 1288.633
202.8254, 1294.678
203.3075, 1304.211
203.7896, 1319.790
204.2717, 1336.656
204.7538, 1341.410
205.2360, 1331.925
205.7181, 1318.286
206.2002, 1304.845
206.6823, 1290.802
207.1644, 1282.181
207.6465, 1280.431
208.1287, 1283.811
208.6108, 1287.615
209.0929, 1292.227
209.5750, 1296.196
210.0571, 1298.889
210.5392, 1300.588
211.0214, 1299.353
211.5035, 1293.139
211.9856, 1284.511
212.4677, 1283.442
212.9498, 1293.469
213.4319, 1303.217
213.9140, 1304.194
214.3962, 1292.063
214.8783, 1287.341
215.3604, 1294.385
215.8425, 1309.772
216.3246, 1319.486
216.8067, 1322.368
217.2889, 1322.025
217.7710, 1319.646
218.2531, 1313.037
218.7352, 1311.298
219.2173, 1317.547
219.6994, 1329.275
220.1816, 1332.989
220.6637, 1322.626
221.1458, 1314.717
221.6279, 1322.572
222.1100, 1357.813
222.5921, 1377.465
223.0743, 1373.206
223.5564, 1350.600
224.0385, 1335.249
224.5206, 1329.456
225.0027, 1327.747
225.4848, 1326.972
225.9670, 1326.731
226.4491, 1328.625
226.9312, 1333.774
227.4133, 1341.260
227.8954, 1347.005
228.3775, 1351.041
228.8597, 1353.173
229.3418, 1352.743
229.8239, 1347.757
230.3060, 1344.770
230.7881, 1344.217
231.2702, 1345.999
231.7524, 1350.648
232.2345, 1362.293
232.7166, 1370.850
233.1987, 1368.768
233.6808, 1347.339
234.1629, 1334.800
234.6451, 1335.817
235.1272, 1347.203
235.6093, 1354.890
236.0914, 1356.792
236.5735, 1357.866
237.0556, 1361.618
237.5378, 1372.416
238.0199, 1375.782
238.5020, 1366.236
238.9841, 1348.578
239.4662, 1343.981
239.9483, 1363.126
240.4305, 1380.815
240.9126, 1382.023
241.3947, 1354.020
241.8768, 1338.077
242.3589, 1340.310
242.8410, 1355.558
243.3232, 1365.784
243.8053, 1369.131
244.2874, 1369.891
244.7695, 1369.787
245.2516, 1367.497
245.7337, 1367.272
246.2159, 1369.871
246.6980, 1374.504
247.1801, 1378.901
247.6622, 1384.112
248.1443, 1387.522
248.6264, 1387.725
249.1086, 1383.734
249.5907, 1378.438
250.0728, 1369.208
250.5549, 1359.453
251.0370, 1359.140
251.5191, 1373.659
252.0013, 1389.137
252.4834, 1399.869
252.9655, 1404.980
253.4476, 1407.016
253.9297, 1403.584
254.4118, 1398.169
254.8940, 1399.468
255.3761, 1412.391
255.8582, 1423.318
256.3403, 1424.773
256.8224, 1410.912
257.3046, 1407.632
257.7867, 1419.666
258.2688, 1439.219
258.7509, 1451.578
259.2330, 1455.889
259.7151, 1454.395
260.1973, 1445.510
260.6794, 1425.637
261.1615, 1416.128
261.6436, 1421.775
262.1257, 1433.732
262.6078, 1436.299
263.0900, 1425.328
263.5721, 1414.921
264.0542, 1410.247
264.5363, 1412.192
265.0184, 1413.572
265.5005, 1413.346
265.9827, 1413.829
266.4648, 1419.645
266.9469, 1433.790
267.4290, 1444.281
267.9111, 1445.572
268.3932, 1436.672
268.8754, 1436.127
269.3575, 1448.053
269.8396, 1461.934
270.3217, 1462.408
270.8038, 1445.188
271.2859, 1431.146
271.7681, 1426.708
272.2502, 1431.526
272.7323, 1436.376
273.2144, 1441.727
273.6965, 1445.962
274.1786, 1444.942
274.6608, 1436.181
275.1429, 1436.349
275.6250, 1453.111
276.1071, 1483.237
276.5892, 1502.679
277.0714, 1509.819
277.5535, 1509.999
278.0356, 1505.566
278.5177, 1495.583
278.9998, 1490.868
279.4819, 1494.751
279.9641, 1505.334
280.4462, 1514.056
280.9283, 1520.380
281.4104, 1527.239
281.8925, 1538.953
282.3746, 1555.673
282.8568, 1565.843
283.3389, 1564.032
283.8210, 1557.321
284.3031, 1568.675
284.7852, 1600.335
285.2673, 1631.787
285.7495, 1645.726
286.2316, 1643.882
286.7137, 1649.234
287.1958, 1666.280
287.6779, 1689.565
288.1600, 1705.069
288.6422, 1712.543
289.1243, 1727.311
289.6064, 1764.152
290.0885, 1818.373
290.5706, 1863.345
291.0527, 1894.941
291.5349, 1920.705
292.0170, 1951.667
292.4991, 1987.335
292.9812, 2025.781
293.4633, 2068.236
293.9454, 2112.597
294.4276, 2153.555
294.9097, 2191.613
295.3918, 2221.051
295.8739, 2231.592
296.3560, 2225.683
296.8381, 2215.293
297.3203, 2208.003
297.8024, 2199.877
298.2845, 2182.677
298.7666, 2155.979
299.2487, 2121.969
299.7308, 2079.967
300.2130, 2031.562
300.6951, 1981.835
301.1772, 1925.770
301.6593, 1873.084
302.1414, 1839.846
302.6235, 1826.003
303.1057, 1817.486
303.5878, 1804.035
304.0699, 1787.669
304.5520, 1772.465
305.0341, 1760.897
305.5162, 1750.046
305.9984, 1734.234
306.4805, 1714.834
306.9626, 1700.222
307.4447, 1701.198
307.9268, 1708.943
308.4089, 1712.031
308.8911, 1706.462
309.3732, 1697.127
309.8553, 1685.799
310.3374, 1673.451
310.8195, 1663.156
311.3016, 1662.020
311.7838, 1661.095
312.2659, 1650.676
312.7480, 1624.161
313.2301, 1599.477
313.7122, 1586.769
314.1943, 1583.398
314.6765, 1584.146
315.1586, 1593.817
315.6407, 1601.840
316.1228, 1600.009
316.6049, 1584.766
317.0870, 1570.557
317.5692, 1566.488
318.0513, 1566.812
318.5334, 1563.513
319.0155, 1541.194
319.4976, 1525.682
319.9797, 1535.246
320.4619, 1574.038
320.9440, 1599.257
321.4261, 1581.853
321.9082, 1551.814
322.3903, 1537.579
322.8724, 1568.420
323.3546, 1592.221
323.8367, 1590.879
324.3188, 1565.201
324.8009, 1545.524
325.2830, 1538.175
325.7651, 1537.585
326.2473, 1540.208
326.7294, 1554.020
327.2115, 1561.522
327.6936, 1557.414
328.1757, 1544.400
328.6578, 1535.705
329.1400, 1531.866
329.6221, 1532.096
330.1042, 1536.607
330.5863, 1552.091
331.0684, 1560.526
331.5505, 1555.837
332.0327, 1545.153
332.5148, 1545.217
332.9969, 1567.282
333.4790, 1584.827
333.9611, 1587.134
334.4432, 1568.321
334.9254, 1557.695
335.4075, 1557.585
335.8896, 1563.715
336.3717, 1571.306
336.8538, 1582.402
337.3359, 1589.611
337.8180, 1589.530
338.3001, 1582.338
338.7823, 1577.753
339.2644, 1574.399
339.7465, 1576.459
340.2286, 1591.860
340.7107, 1624.317
341.1928, 1646.681
341.6750, 1650.291
342.1571, 1640.886
342.6392, 1640.581
343.1213, 1650.426
343.6034, 1663.794
344.0855, 1678.656
344.5677, 1694.590
345.0498, 1702.849
345.5319, 1700.738
346.0140, 1693.102
346.4961, 1688.240
346.9782, 1686.125
347.4604, 1686.006
347.9425, 1687.967
348.4246, 1691.678
348.9067, 1697.224
349.3888, 1705.515
349.8709, 1711.160
350.3531, 1704.395
350.8352, 1688.474
351.3173, 1675.528
351.7994, 1670.695
352.2815, 1672.022
352.7636, 1678.209
353.2458, 1689.217
353.7279, 1699.072
354.2100, 1700.988
354.6921, 1698.531
355.1742, 1698.041
355.6563, 1703.280
356.1385, 1709.324
356.6206, 1712.220
357.1027, 1712.050
357.5848, 1709.262
358.0669, 1702.363
358.5490, 1693.865
359.0312, 1685.491
359.5133, 1675.848
359.9954, 1670.223
360.4775, 1676.693
360.9596, 1689.427
361.4417, 1695.957
361.9239, 1686.861
362.4060, 1673.690
362.8881, 1660.874
363.3702, 1647.678
363.8523, 1641.532
364.3344, 1649.786
364.8166, 1664.638
365.2987, 1677.298
365.7808, 1685.385
366.2629, 1691.078
366.7450, 1694.377
367.2271, 1695.313
367.7093, 1695.743
368.1914, 1697.675
368.6735, 1698.015
369.1556, 1694.625
369.6377, 1677.662
370.1198, 1669.411
370.6020, 1675.052
371.0841, 1690.597
371.5662, 1701.901
372.0483, 1708.880
372.5304, 1711.507
373.0125, 1708.181
373.4947, 1693.704
373.9768, 1689.063
374.4589, 1699.122
374.9410, 1715.064
375.4231, 1722.344
375.9052, 1718.443
376.3874, 1713.173
376.8695, 1709.377
377.3516, 1706.990
377.8337, 1703.411
378.3158, 1697.737
378.7979, 1693.322
379.2801, 1694.458
379.7622, 1701.470
380.2443, 1707.405
380.7264, 1710.766
381.2085, 1712.396
381.6906, 1713.198
382.1728, 1713.049
382.6549, 1716.381
383.1370, 1731.669
383.6191, 1754.095
384.1012, 1761.229
384.5833, 1747.346
385.0655, 1729.827
385.5476, 1735.106
386.0297, 1757.489
386.5118, 1776.086
386.9939, 1778.468
387.4760, 1772.176
387.9582, 1766.698
388.4403, 1762.217
388.9224, 1760.520
389.4045, 1765.286
389.8866, 1773.185
390.3687, 1779.667
390.8509, 1784.207
391.3330, 1785.779
391.8151, 1779.681
392.2972, 1768.700
392.7793, 1763.967
393.2614, 1778.087
393.7436, 1795.995
394.2257, 1806.464
394.7078, 1803.941
395.1899, 1802.515
395.6720, 1806.593
396.1541, 1814.989
396.6363, 1825.809
397.1184, 1847.406
397.6005, 1863.130
398.0826, 1864.063
398.5647, 1847.368
399.0468, 1837.175
399.5290, 1839.345
400.0111, 1846.936
400.4932, 1854.485
400.9753, 1864.749
401.4574, 1870.972
401.9395, 1868.395
402.4217, 1860.422
402.9038, 1864.350
403.3859, 1888.781
403.8680, 1912.518
404.3501, 1924.215
404.8322, 1918.832
405.3144, 1918.747
405.7965, 1924.794
406.2786, 1935.120
406.7607, 1947.322
407.2428, 1961.700
407.7249, 1976.473
408.2071, 1991.652
408.6892, 2006.805
409.1713, 2016.691
409.6534, 2019.954
410.1355, 2026.140
410.6176, 2047.177
411.0998, 2080.304
411.5819, 2107.912
412.0640, 2124.000
412.5461, 2137.501
413.0282, 2166.137
413.5103, 2207.280
413.9925, 2246.003
414.4746, 2269.373
414.9567, 2286.558
415.4388, 2311.161
415.9209, 2344.694
416.4030, 2383.463
416.8852, 2426.120
417.3673, 2472.044
417.8494, 2520.278
418.3315, 2566.029
418.8136, 2618.031
419.2957, 2686.278
419.7779, 2767.984
420.2600, 2848.957
420.7421, 2917.930
421.2242, 2986.382
421.7063, 3060.862
422.1884, 3145.487
422.6706, 3233.093
423.1527, 3321.206
423.6348, 3411.826
424.1169, 3508.905
424.5990, 3620.806
425.0811, 3733.023
425.5633, 3841.755
426.0454, 3946.913
426.5275, 4048.984
427.0096, 4148.087
427.4917, 4244.961
427.9738, 4341.301
428.4560, 4440.886
428.9381, 4531.705
429.4202, 4613.333
429.9023, 4683.919
430.3844, 4743.528
430.8665, 4796.021
431.3487, 4825.198
431.8308, 4822.458
432.3129, 4787.606
432.7950, 4730.616
433.2771, 4652.451
433.7592, 4549.695
434.2414, 4410.176
434.7235, 4236.204
435.2056, 4054.404
435.6877, 3870.159
436.1698, 3686.279
436.6519, 3498.613
437.1341, 3308.531
437.6162, 3138.882
438.0983, 3012.198
438.5804, 2914.014
439.0625, 2818.876
439.5446, 2720.982
440.0268, 2631.129
440.5089, 2556.393
440.9910, 2496.616
441.4731, 2452.486
441.9552, 2435.409
442.4373, 2424.627
442.9195, 2406.753
443.4016, 2381.432
443.8837, 2356.324
444.3658, 2333.590
444.8479, 2312.754
445.3300, 2293.508
445.8122, 2270.502
446.2943, 2255.665
446.7764, 2255.259
447.2585, 2264.496
447.7406, 2271.153
448.2227, 2276.818
448.7049, 2277.285
449.1870, 2268.970
449.6691, 2249.099
450.1512, 2237.741
450.6333, 2237.034
451.1154, 2242.662
451.5976, 2249.494
452.0797, 2254.423
452.5618, 2271.624
453.0439, 2307.007
453.5260, 2354.074
454.0081, 2393.831
454.4903, 2425.039
454.9724, 2458.081
455.4545, 2498.036
455.9366, 2544.586
456.4187, 2600.307
456.9008, 2666.062
457.3830, 2734.211
457.8651, 2789.971
458.3472, 2838.967
458.8293, 2896.644
459.3114, 2968.902
459.7935, 3051.978
460.2757, 3144.444
460.7578, 3245.219
461.2399, 3350.774
461.7220, 3458.306
462.2041, 3570.057
462.6862, 3685.751
463.1684, 3803.707
463.6505, 3931.505
464.1326, 4070.165
464.6147, 4220.132
465.0968, 4384.717
465.5789, 4566.389
466.0611, 4756.740
466.5432, 4957.451
467.0253, 5167.030
467.5074, 5378.120
467.9895, 5595.004
468.4716, 5809.447
468.9538, 6017.832
469.4359, 6224.685
469.9180, 6411.976
470.4001, 6590.606
470.8822, 6743.815
471.3643, 6852.627
471.8465, 6925.670
472.3286, 6927.474
472.8107, 6839.819
473.2928, 6673.535
473.7749, 6477.978
474.2570, 6252.935
474.7392, 6003.896
475.2213, 5719.688
475.7034, 5408.298
476.1855, 5124.069
476.6676, 4873.371
477.1497, 4647.444
477.6319, 4441.977
478.1140, 4254.280
478.5961, 4078.662
479.0782, 3918.168
479.5603, 3765.065
480.0424, 3605.784
480.5246, 3441.977
481.0067, 3292.777
481.4888, 3175.950
481.9709, 3075.594
482.4530, 2977.478
482.9352, 2875.439
483.4173, 2784.033
483.8994, 2714.339
484.3815, 2657.416
484.8636, 2600.362
485.3457, 2540.057
485.8279, 2479.686
486.3100, 2416.941
486.7921, 2351.874
487.2742, 2299.326
487.7563, 2267.974
488.2384, 2239.824
488.7206, 2204.075
489.2027, 2154.290
489.6848, 2115.110
490.1669, 2089.014
490.6490, 2071.276
491.1311, 2054.757
491.6133, 2039.780
492.0954, 2024.676
492.5775, 2008.279
493.0596, 1991.523
493.5417, 1977.418
494.0238, 1965.981
494.5060, 1957.117
494.9881, 1952.885
495.4702, 1951.079
495.9523, 1944.832
496.4344, 1932.019
496.9165, 1920.539
497.3987, 1923.590
497.8808, 1933.132
498.3629, 1933.944
498.8450, 1907.097
499.3271, 1880.137
499.8092, 1871.927
500.2914, 1880.089
500.7735, 1891.444
501.2556, 1910.549
501.7377, 1924.298
502.2198, 1923.060
502.7019, 1897.873
503.1841, 1878.514
503.6662, 1872.053
504.1483, 1871.935
504.6304, 1870.656
505.1125, 1866.819
505.5946, 1864.092
506.0768, 1862.901
506.5589, 1863.225
507.0410, 1865.226
507.5231, 1869.423
508.0052, 1873.755
508.4873, 1877.112
508.9695, 1879.427
509.4516, 1882.315
509.9337, 1886.092
510.4158, 1889.072
510.8979, 1887.392
511.3800, 1882.613
511.8622, 1882.488
512.3443, 1891.540
512.8264, 1902.542
513.3085, 1904.813
513.7906, 1900.487
514.2728, 1897.212
514.7549, 1901.554
515.2370, 1907.362
515.7191, 1911.019
516.2012, 1912.443
516.6833, 1906.944
517.1655, 1882.005
517.6476, 1854.724
518.1297, 1839.794
518.6118, 1849.801
519.0939, 1860.438
519.5760, 1868.942
520.0582, 1875.511
520.5403, 1881.014
521.0224, 1885.654
521.5045, 1888.735
521.9866, 1889.011
522.4688, 1886.490
522.9509, 1888.520
523.4330, 1896.821
523.9151, 1905.631
524.3972, 1909.907
524.8793, 1909.489
525.3615, 1911.455
525.8436, 1917.438
526.3257, 1923.181
526.8078, 1921.892
527.2899, 1914.541
527.7720, 1905.262
528.2542, 1890.807
528.7363, 1879.220
529.2184, 1885.782
529.7005, 1907.123
530.1826, 1925.214
530.6647, 1928.982
531.1469, 1924.660
531.6290, 1914.664
532.1111, 1896.579
532.5932, 1887.068
533.0753, 1902.182
533.5574, 1925.091
534.0396, 1938.087
534.5217, 1924.850
535.0038, 1917.295
535.4859, 1921.932
535.9680, 1935.559
536.4501, 1948.792
536.9323, 1963.918
537.4144, 1974.680
537.8965, 1977.412
538.3786, 1971.862
538.8607, 1969.093
539.3428, 1969.456
539.8250, 1971.509
540.3071, 1972.302
540.7892, 1972.543
541.2713, 1981.170
541.7534, 2001.795
542.2355, 2024.747
542.7177, 2037.395
543.1998, 2041.284
543.6819, 2040.938
544.1640, 2034.042
544.6461, 2026.986
545.1282, 2026.350
545.6104, 2031.377
546.0925, 2037.145
546.5746, 2045.896
547.0567, 2051.161
547.5388, 2047.855
548.0209, 2033.102
548.5031, 2017.054
548.9852, 1996.955
549.4673, 1978.780
549.9494, 1969.048
550.4315, 1974.455
550.9136, 1977.923
551.3958, 1977.596
551.8779, 1974.201
552.3600, 1970.486
552.8421, 1967.427
553.3242, 1960.353
553.8063, 1944.287
554.2885, 1921.363
554.7706, 1910.409
555.2527, 1912.378
555.7348, 1916.279
556.2169, 1910.370
556.6990, 1899.064
557.1812, 1894.822
557.6633, 1901.277
558.1454, 1908.550
558.6275, 1904.685
559.1096, 1895.340
559.5917, 1890.405
560.0739, 1898.833
560.5560, 1908.000
561.0381, 1914.679
561.5202, 1917.633
562.0023, 1912.130
562.4844, 1882.937
562.9666, 1857.006
563.4487, 1847.965
563.9308, 1859.424
564.4129, 1869.770
564.8950, 1879.009
565.3771, 1887.091
565.8593, 1893.886
566.3414, 1899.097
566.8235, 1904.900
567.3056, 1912.911
567.7877, 1919.536
568.2698, 1916.386
568.7520, 1904.073
569.2341, 1893.351
569.7162, 1889.676
570.1983, 1889.170
570.6804, 1882.622
571.1625, 1871.381
571.6447, 1864.430
572.1268, 1871.536
572.6089, 1883.539
573.0910, 1891.694
573.5731, 1894.829
574.0552, 1896.216
574.5374, 1896.922
575.0195, 1896.826
575.5016, 1895.813
575.9837, 1893.084
576.4658, 1890.320
576.9479, 1886.794
577.4301, 1883.436
577.9122, 1882.171
578.3943, 1883.610
578.8764, 1885.746
579.3585, 1887.860
579.8406, 1890.127
580.3228, 1895.236
580.8049, 1904.104
581.2870, 1909.846
581.7691, 1906.832
582.2512, 1896.706
582.7333, 1884.371
583.2155, 1869.512
583.6975, 1858.425
584.1796, 1861.258
584.6617, 1870.721
585.1439, 1873.902
585.6260, 1862.706
586.1081, 1852.838
586.5902, 1855.729
587.0723, 1866.578
587.5544, 1876.012
588.0366, 1883.240
588.5187, 1886.860
589.0008, 1883.918
589.4829, 1874.990
589.9650, 1871.422
590.4471, 1876.351
590.9293, 1882.477
591.4114, 1886.029
591.8935, 1886.328
592.3756, 1889.392
592.8577, 1896.246
593.3398, 1903.081
593.8220, 1906.224
594.3041, 1905.876
594.7862, 1902.826
595.2683, 1896.134
595.7504, 1889.741
596.2325, 1890.767
596.7147, 1896.305
597.1968, 1898.751
597.6789, 1889.112
598.1610, 1879.943
598.6431, 1883.187
599.1252, 1895.875
599.6074, 1904.030
600.0895, 1897.116
600.5716, 1889.271
601.0537, 1888.892
601.5358, 1899.686
602.0179, 1901.993
602.5001, 1887.534
602.9822, 1872.560
603.4643, 1870.270
603.9464, 1885.044
604.4285, 1895.116
604.9106, 1898.658
605.3928, 1898.276
605.8749, 1897.426
606.3570, 1896.123
606.8391, 1894.719
607.3212, 1893.594
607.8033, 1892.069
608.2855, 1888.934
608.7676, 1884.439
609.2497, 1879.415
609.7318, 1868.305
610.2139, 1861.288
610.6960, 1870.897
611.1782, 1896.803
611.6603, 1915.943
612.1424, 1914.092
612.6245, 1907.582
613.1066, 1906.634
613.5887, 1915.118
614.0709, 1922.160
614.5530, 1927.918
615.0351, 1932.213
615.5172, 1935.263
615.9993, 1937.573
616.4814, 1935.857
616.9636, 1928.065
617.4457, 1918.440
617.9278, 1916.691
618.4099, 1921.879
618.8920, 1924.151
619.3741, 1915.061
619.8563, 1903.842
620.3384, 1907.319
620.8205, 1922.438
621.3026, 1933.987
621.7847, 1930.325
622.2668, 1921.792
622.7490, 1915.460
623.2311, 1912.059
623.7132, 1909.970
624.1953, 1912.384
624.6774, 1913.531
625.1595, 1908.804
625.6417, 1890.698
626.1238, 1881.552
626.6059, 1883.092
627.0880, 1891.824
627.5701, 1906.105
628.0522, 1927.398
628.5344, 1939.620
629.0165, 1937.564
629.4986, 1927.399
629.9807, 1918.768
630.4628, 1911.969
630.9449, 1908.810
631.4271, 1910.858
631.9092, 1916.442
632.3913, 1925.306
632.8734, 1936.781
633.3555, 1946.687
633.8376, 1950.574
634.3198, 1954.154
634.8019, 1962.302
635.2840, 1977.485
635.7661, 1986.474
636.2482, 1984.326
636.7303, 1978.730
637.2125, 1973.851
637.6946, 1967.283
638.1767, 1969.405
638.6588, 1982.804
639.1409, 2001.145
639.6230, 2014.068
640.1052, 2022.254
640.5873, 2036.770
641.0694, 2064.474
641.5515, 2092.571
642.0336, 2095.705
642.5157, 2082.084
642.9979, 2075.775
643.4800, 2098.047
643.9621, 2124.035
644.4442, 2134.520
644.9263, 2132.037
645.4084, 2132.920
645.8906, 2141.678
646.3727, 2155.583
646.8548, 2176.746
647.3369, 2207.605
647.8190, 2224.546
648.3011, 2219.475
648.7833, 2212.418
649.2654, 2220.153
649.7475, 2244.545
650.2296, 2261.901
650.7117, 2270.770
651.1938, 2273.383
651.6760, 2269.306
652.1581, 2260.818
652.6402, 2255.675
653.1223, 2257.841
653.6044, 2259.792
654.0865, 2257.302
654.5687, 2249.378
655.0508, 2234.243
655.5329, 2199.196
656.0150, 2168.988
656.4971, 2158.772
656.9792, 2163.330
657.4614, 2154.354
657.9435, 2120.054
658.4256, 2087.178
658.9077, 2064.106
659.3898, 2050.562
659.8719, 2040.369
660.3541, 2033.908
660.8362, 2029.029
661.3183, 2025.418
661.8004, 2022.282
662.2825, 2015.019
662.7646, 2003.072
663.2468, 1992.571
663.7289, 1991.094
664.2110, 1993.485
664.6931, 1992.042
665.1752, 1981.903
665.6573, 1976.386
666.1395, 1984.864
666.6216, 1999.832
667.1037, 2012.052
667.5858, 2020.280
668.0679, 2025.374
668.5500, 2026.131
669.0322, 2024.306
669.5143, 2024.116
669.9964, 2026.317
670.4785, 2026.128
670.9606, 2020.772
671.4427, 2012.926
671.9249, 2011.184
672.4070, 2014.732
672.8891, 2017.153
673.3712, 2012.485
673.8533, 2005.917
674.3354, 2004.671
674.8176, 2008.242
675.2997, 2009.673
675.7818, 2003.553
676.2639, 1995.669
676.7460, 1988.799
677.2281, 1982.587
677.7103, 1981.131
678.1924, 1988.429
678.6745, 1996.481
679.1566, 1998.821
679.6387, 1993.644
680.1208, 1991.886
680.6030, 1995.039
681.0851, 1999.125
681.5672, 1999.041
682.0493, 1995.505
682.5314, 1991.639
683.0135, 1988.362
683.4957, 1984.631
683.9778, 1976.986
684.4599, 1968.394
684.9420, 1964.685
