##NAMES=Rhodochrosite
##RRUFFID=R050019
##IDEAL CHEMISTRY=Mn^2+^CO_3_
##LOCALITY=Home Sweet Home mine, Colorado, USA
##OWNER=RRUFF
##SOURCE=Eugene Schlepp
##DESCRIPTION=Pink single crystal rhombs on quartz
##STATUS=The identification of this mineral has been confirmed by X-ray diffraction and chemical analysis
##URL=rruff.info/R050019
##MEASURED CHEMISTRY=Mn_1.00_CO_3_
108.9665, 9.804624
109.4486, 9.590351
109.9307, 8.720998
110.4128, 8.041943
110.8950, 7.850038
111.3771, 8.004680
111.8592, 8.131326
112.3413, 8.063771
112.8234, 8.428120
113.3055, 9.770152
113.7877, 12.00672
114.2698, 14.43123
114.7519, 17.32994
115.2340, 19.86367
115.7161, 21.00122
116.1982, 20.33468
116.6804, 19.10755
117.1625, 18.28993
117.6446, 17.83427
118.1267, 18.15576
118.6088, 20.41474
119.0909, 23.10584
119.5731, 25.00243
120.0552, 25.70093
120.5373, 25.70289
121.0194, 25.46977
121.5015, 24.52615
121.9836, 24.77410
122.4658, 28.28736
122.9479, 32.55274
123.4300, 34.87170
123.9121, 33.85855
124.3942, 31.21829
124.8763, 31.19672
125.3585, 35.55422
125.8406, 39.65261
126.3227, 42.56749
126.8048, 44.63058
127.2869, 46.12733
127.7690, 47.11684
128.2512, 47.80742
128.7333, 48.97431
129.2154, 50.34451
129.6975, 52.67216
130.1796, 56.15598
130.6617, 60.60859
131.1439, 65.91803
131.6260, 72.12734
132.1081, 79.02768
132.5902, 84.97089
133.0723, 88.06049
133.5544, 92.12270
134.0366, 99.34230
134.5187, 107.9621
135.0008, 114.9213
135.4829, 118.0365
135.9650, 117.4815
136.4471, 116.6486
136.9293, 115.6310
137.4114, 114.2810
137.8935, 112.1514
138.3756, 109.6080
138.8577, 107.4842
139.3398, 106.4654
139.8220, 106.5691
140.3041, 106.0863
140.7862, 105.2233
141.2683, 103.7492
141.7504, 100.3274
142.2325, 95.82938
142.7147, 93.25026
143.1968, 95.29287
143.6789, 102.0932
144.1610, 106.8552
144.6431, 108.1884
145.1252, 108.9035
145.6074, 110.2848
146.0895, 112.4480
146.5716, 115.2253
147.0537, 118.3783
147.5358, 122.0442
148.0179, 127.0627
148.5001, 133.8252
148.9822, 141.5991
149.4643, 150.5017
149.9464, 160.4634
150.4285, 169.8183
150.9106, 177.2312
151.3928, 182.6818
151.8749, 187.6463
152.3570, 194.7937
152.8391, 199.9033
153.3212, 198.0412
153.8033, 188.6928
154.2855, 177.5151
154.7676, 167.7693
155.2497, 159.6687
155.7318, 154.2293
156.2139, 154.2306
156.6960, 155.6994
157.1782, 153.1805
157.6603, 145.7307
158.1424, 139.0272
158.6245, 138.6903
159.1066, 142.6190
159.5887, 146.0317
160.0709, 146.1224
160.5530, 145.6232
161.0351, 149.2621
161.5172, 158.2659
161.9993, 167.1179
162.4814, 171.5348
162.9636, 172.9940
163.4457, 173.8316
163.9278, 173.1000
164.4099, 172.6974
164.8920, 176.9071
165.3741, 187.4278
165.8563, 197.7706
166.3384, 201.9147
166.8205, 203.2564
167.3026, 207.7898
167.7847, 219.8817
168.2668, 236.1082
168.7490, 248.7296
169.2311, 256.2525
169.7132, 263.6316
170.1953, 274.0884
170.6774, 286.0780
171.1595, 297.1574
171.6417, 305.7872
172.1238, 312.9683
172.6059, 321.1482
173.0880, 330.4737
173.5701, 340.6174
174.0522, 351.0206
174.5344, 362.1631
175.0165, 374.5879
175.4986, 388.3863
175.9807, 403.8001
176.4628, 420.8173
176.9449, 436.2480
177.4271, 460.0929
177.9092, 497.6372
178.3913, 543.9989
178.8734, 592.4264
179.3555, 639.5575
179.8376, 687.3727
180.3197, 742.2733
180.8019, 805.5981
181.2840, 874.4915
181.7661, 952.2325
182.2482, 1032.867
182.7303, 1112.235
183.2124, 1192.912
183.6946, 1263.894
184.1767, 1293.042
184.6588, 1271.232
185.1409, 1218.122
185.6230, 1130.915
186.1051, 1024.781
186.5873, 914.0308
187.0694, 803.6354
187.5515, 697.2249
188.0336, 601.4357
188.5157, 515.2578
188.9978, 445.0241
189.4800, 395.2264
189.9621, 358.0661
190.4442, 325.4256
190.9263, 294.1219
191.4084, 265.4032
191.8905, 242.5783
192.3727, 227.7218
192.8548, 215.5369
193.3369, 205.4053
193.8190, 196.7744
194.3011, 189.2359
194.7832, 182.6373
195.2654, 176.7872
195.7475, 171.2161
196.2296, 165.1932
196.7117, 160.9228
197.1938, 159.3611
197.6759, 158.9567
198.1581, 158.7322
198.6402, 158.3059
199.1223, 157.2831
199.6044, 154.6668
200.0865, 148.9483
200.5686, 144.6829
201.0508, 142.9018
201.5329, 142.0323
202.0150, 140.7922
202.4971, 138.8539
202.9792, 136.9896
203.4613, 136.7756
203.9435, 139.9386
204.4256, 140.7593
204.9077, 136.9184
205.3898, 132.4561
205.8719, 130.5084
206.3540, 131.5038
206.8362, 133.1763
207.3183, 132.1087
207.8004, 126.5109
208.2825, 122.7815
208.7646, 121.6021
209.2467, 121.5272
209.7289, 122.5295
210.2110, 124.1745
210.6931, 125.1292
211.1752, 123.4173
211.6573, 117.7754
212.1395, 114.1886
212.6216, 113.8156
213.1037, 114.3501
213.5858, 114.7942
214.0679, 115.0951
214.5500, 115.7693
215.0322, 117.5645
215.5143, 120.8571
215.9964, 122.6889
216.4785, 122.5894
216.9606, 121.5035
217.4427, 119.1364
217.9249, 115.9604
218.4070, 112.9178
218.8891, 110.6262
219.3712, 109.0593
219.8533, 109.2319
220.3354, 114.0890
220.8176, 117.8779
221.2997, 118.4678
221.7818, 116.7726
222.2639, 114.7347
222.7460, 113.6297
223.2281, 113.4160
223.7103, 113.7460
224.1924, 115.4530
224.6745, 116.8138
225.1566, 117.9009
225.6387, 118.3438
226.1208, 117.2988
226.6030, 114.0352
227.0851, 109.4863
227.5672, 107.7070
228.0493, 111.4661
228.5314, 114.3885
229.0135, 114.7510
229.4957, 113.9812
229.9778, 113.8867
230.4599, 115.3130
230.9420, 117.4019
231.4241, 117.8681
231.9062, 115.0581
232.3884, 113.4845
232.8705, 114.3962
233.3526, 116.2261
233.8347, 117.8133
234.3168, 118.7392
234.7989, 119.0033
235.2811, 118.4964
235.7632, 116.8203
236.2453, 115.2982
236.7274, 112.9645
237.2095, 111.5068
237.6916, 113.2322
238.1738, 118.0684
238.6559, 122.5228
239.1380, 121.1712
239.6201, 111.2751
240.1022, 105.7995
240.5843, 108.4747
241.0665, 112.9701
241.5486, 117.2506
242.0307, 120.7427
242.5128, 123.0602
242.9949, 123.6764
243.4770, 122.4802
243.9592, 120.8535
244.4413, 117.2427
244.9234, 114.7202
245.4055, 115.0881
245.8876, 117.5754
246.3697, 120.0625
246.8519, 120.8323
247.3340, 120.1786
247.8161, 120.8104
248.2982, 124.1054
248.7803, 126.8629
249.2624, 128.2356
249.7446, 128.3641
250.2267, 127.2523
250.7088, 124.3682
251.1909, 120.8252
251.6730, 120.2468
252.1551, 124.6749
252.6373, 127.9029
253.1194, 126.4785
253.6015, 123.5522
254.0836, 122.7320
254.5657, 125.5908
255.0478, 129.9502
255.5300, 132.1351
256.0121, 131.4013
256.4942, 131.3005
256.9763, 133.9925
257.4584, 137.0432
257.9406, 138.0241
258.4227, 136.3267
258.9048, 135.2845
259.3869, 140.1399
259.8690, 151.3507
260.3511, 157.6092
260.8333, 152.6691
261.3154, 145.6163
261.7975, 142.8129
262.2796, 144.4195
262.7617, 147.4322
263.2438, 149.7777
263.7260, 151.7001
264.2081, 154.5836
264.6902, 158.6463
265.1723, 163.6530
265.6544, 169.1191
266.1365, 175.2041
266.6187, 182.5023
267.1008, 193.1050
267.5829, 204.7911
268.0650, 211.7789
268.5471, 212.1518
269.0292, 213.6299
269.5114, 223.1844
269.9935, 237.3442
270.4756, 250.5802
270.9577, 260.3510
271.4398, 269.5337
271.9219, 280.3525
272.4041, 292.7731
272.8862, 309.4198
273.3683, 333.2242
273.8504, 361.6321
274.3325, 389.3958
274.8146, 416.9312
275.2968, 442.7161
275.7789, 463.3403
276.2610, 480.6061
276.7431, 502.4828
277.2252, 532.7043
277.7073, 567.7089
278.1895, 601.7776
278.6716, 634.6068
279.1537, 667.8065
279.6358, 700.8489
280.1179, 734.8347
280.6000, 770.8956
281.0822, 809.1431
281.5643, 850.8173
282.0464, 897.6550
282.5285, 949.3456
283.0106, 1007.020
283.4927, 1071.707
283.9749, 1141.869
284.4570, 1219.634
284.9391, 1304.115
285.4212, 1386.659
285.9033, 1460.099
286.3854, 1523.986
286.8676, 1585.021
287.3497, 1656.044
287.8318, 1712.372
288.3139, 1742.075
288.7960, 1747.487
289.2781, 1735.652
289.7603, 1710.495
290.2424, 1671.177
290.7245, 1613.462
291.2066, 1531.474
291.6887, 1439.901
292.1708, 1334.268
292.6530, 1222.500
293.1351, 1111.688
293.6172, 1004.583
294.0993, 904.8510
294.5814, 820.0330
295.0635, 757.2747
295.5457, 697.0789
296.0278, 637.6030
296.5099, 582.1162
296.9920, 532.9752
297.4741, 490.3865
297.9562, 454.3193
298.4384, 425.4522
298.9205, 405.2423
299.4026, 381.7468
299.8847, 346.4986
300.3668, 316.4928
300.8489, 299.9793
301.3311, 293.2678
301.8131, 287.9090
302.2953, 278.1999
302.7774, 265.4791
303.2595, 257.0461
303.7416, 258.4017
304.2237, 255.8207
304.7058, 243.0359
305.1880, 226.8186
305.6701, 214.1678
306.1522, 207.6704
306.6343, 205.5079
307.1164, 205.7223
307.5985, 209.6257
308.0807, 210.9894
308.5628, 206.2318
309.0449, 200.2693
309.5270, 196.0710
310.0091, 193.8361
310.4912, 191.6814
310.9734, 187.1568
311.4555, 180.6698
311.9376, 177.1551
312.4197, 178.8128
312.9018, 180.8688
313.3839, 180.3901
313.8661, 177.9614
314.3482, 175.0176
314.8303, 171.1363
315.3124, 167.6002
315.7945, 167.7477
316.2766, 172.5211
316.7588, 175.3699
317.2409, 170.8333
317.7230, 162.7084
318.2051, 157.3671
318.6872, 156.5009
319.1693, 156.8833
319.6515, 156.7663
320.1336, 156.0650
320.6157, 153.9910
321.0978, 149.4464
321.5799, 144.7495
322.0620, 144.3360
322.5442, 148.9663
323.0263, 152.1289
323.5084, 150.6415
323.9905, 147.2426
324.4726, 145.4508
324.9547, 145.8499
325.4369, 147.1539
325.9190, 148.3088
326.4011, 149.3049
326.8832, 149.7955
327.3653, 148.8849
327.8474, 148.3068
328.3296, 150.2519
328.8117, 153.5291
329.2938, 154.2080
329.7759, 149.5797
330.2580, 141.2899
330.7401, 136.9575
331.2223, 139.9969
331.7044, 142.7776
332.1865, 145.3883
332.6686, 146.9714
333.1507, 146.1518
333.6328, 142.6661
334.1150, 138.1813
334.5971, 135.0860
335.0792, 133.6013
335.5613, 133.0447
336.0434, 133.8130
336.5255, 135.0341
337.0077, 136.4764
337.4898, 138.0023
337.9719, 139.5330
338.4540, 141.2665
338.9361, 142.9823
339.4182, 142.4870
339.9004, 137.8234
340.3825, 133.8123
340.8646, 130.4839
341.3467, 128.9915
341.8288, 131.8412
342.3109, 140.7822
342.7931, 150.4948
343.2752, 152.0454
343.7573, 144.1108
344.2394, 137.4174
344.7215, 135.2450
345.2036, 134.6754
345.6858, 133.2684
346.1679, 130.9295
346.6500, 129.1510
347.1321, 128.9957
347.6142, 130.1132
348.0963, 131.9559
348.5785, 135.0186
349.0606, 137.0809
349.5427, 135.0053
350.0248, 130.3402
350.5069, 127.7765
350.9890, 130.5423
351.4712, 133.7878
351.9533, 132.5150
352.4354, 127.7271
352.9175, 124.8634
353.3996, 126.7785
353.8817, 131.8533
354.3639, 136.2376
354.8460, 141.0189
355.3281, 143.1900
355.8102, 139.6955
356.2923, 134.3023
356.7744, 131.7952
357.2566, 133.0823
357.7387, 135.4005
358.2208, 135.5402
358.7029, 132.8230
359.1850, 131.7567
359.6671, 133.6917
360.1493, 135.6781
360.6314, 136.9070
361.1135, 137.1317
361.5956, 135.7798
362.0777, 132.2995
362.5598, 127.7074
363.0420, 125.8974
363.5241, 129.6503
364.0062, 131.7349
364.4883, 129.7872
364.9704, 126.9530
365.4525, 125.9554
365.9347, 127.3256
366.4168, 129.5393
366.8989, 131.0054
367.3810, 131.7032
367.8631, 132.1849
368.3452, 132.5672
368.8274, 132.5817
369.3095, 131.3204
369.7916, 129.6008
370.2737, 129.5602
370.7558, 133.8048
371.2379, 138.9814
371.7201, 138.1026
372.2022, 130.3155
372.6843, 124.8986
373.1664, 127.8626
373.6485, 134.1909
374.1306, 135.6853
374.6128, 130.5477
375.0949, 126.2019
375.5770, 128.1068
376.0591, 133.2622
376.5412, 135.2537
377.0233, 132.4982
377.5055, 128.7467
377.9876, 127.8529
378.4697, 130.1909
378.9518, 131.9777
379.4339, 132.7046
379.9160, 133.2877
380.3982, 134.3022
380.8803, 135.6247
381.3624, 136.9443
381.8445, 138.1599
382.3266, 139.0284
382.8087, 138.7902
383.2909, 135.8472
383.7730, 133.8783
384.2551, 132.8818
384.7372, 132.9227
385.2193, 134.8425
385.7014, 138.3080
386.1836, 141.2304
386.6657, 141.2567
387.1478, 138.2325
387.6299, 135.2554
388.1120, 131.7165
388.5941, 128.9741
389.0763, 127.2208
389.5584, 126.5745
390.0405, 127.5131
390.5226, 130.6384
391.0047, 134.2607
391.4868, 135.4754
391.9690, 134.0034
392.4511, 132.7186
392.9332, 132.2812
393.4153, 132.4248
393.8974, 133.0449
394.3795, 134.1235
394.8617, 134.9454
395.3438, 135.3142
395.8259, 135.1538
396.3080, 133.9863
396.7901, 131.6941
397.2722, 129.7868
397.7544, 129.3290
398.2365, 130.1929
398.7186, 131.2856
399.2007, 133.8534
399.6828, 135.2566
400.1649, 132.7183
400.6471, 128.7461
401.1292, 128.2852
401.6113, 132.9871
402.0934, 138.9121
402.5755, 140.0413
403.0576, 134.0271
403.5398, 130.2609
404.0219, 129.6263
404.5040, 130.0440
404.9861, 131.0289
405.4682, 132.1690
405.9503, 132.7816
406.4325, 132.3589
406.9146, 131.2660
407.3967, 130.9127
407.8788, 132.0140
408.3609, 132.3664
408.8430, 130.7943
409.3252, 128.8649
409.8073, 127.7136
410.2894, 127.5358
410.7715, 127.9743
411.2536, 129.0639
411.7357, 130.6109
412.2179, 131.6883
412.7000, 132.4140
413.1821, 132.2314
413.6642, 129.9568
414.1463, 126.5377
414.6284, 123.8517
415.1106, 122.1187
415.5927, 121.3468
416.0748, 121.9316
416.5569, 123.5258
417.0390, 125.1694
417.5211, 126.6215
418.0033, 127.6773
418.4854, 127.9931
418.9675, 127.3923
419.4496, 126.5563
419.9317, 124.7539
420.4138, 123.3448
420.8960, 123.2060
421.3781, 124.2821
421.8602, 126.2648
422.3423, 129.0801
422.8244, 132.3994
423.3065, 134.8526
423.7887, 136.7740
424.2708, 137.1677
424.7529, 134.7901
425.2350, 131.7686
425.7171, 129.6765
426.1992, 128.7991
426.6814, 128.6680
427.1635, 128.8295
427.6456, 129.3150
428.1277, 130.7618
428.6098, 134.2250
429.0919, 136.5927
429.5741, 135.6908
430.0562, 132.8718
430.5383, 129.9060
431.0204, 126.9473
431.5025, 124.4860
431.9846, 122.6139
432.4668, 121.5224
432.9489, 122.3320
433.4310, 125.8089
433.9131, 129.5983
434.3952, 130.5945
434.8773, 128.4044
435.3595, 127.5612
435.8416, 130.5039
436.3237, 132.8721
436.8058, 130.9178
437.2879, 126.1638
437.7701, 122.7443
438.2522, 122.8194
438.7343, 125.2340
439.2164, 127.1466
439.6985, 128.7725
440.1806, 129.4230
440.6628, 128.0050
441.1449, 126.6297
441.6270, 127.1030
442.1091, 129.0401
442.5912, 130.4539
443.0733, 129.5364
443.5555, 127.0494
444.0376, 126.1796
444.5197, 127.7013
445.0018, 128.6667
445.4839, 127.4518
445.9660, 125.3645
446.4482, 123.1246
446.9303, 120.5776
447.4124, 119.8844
447.8945, 124.2260
448.3766, 131.0053
448.8587, 134.5657
449.3409, 134.0399
449.8230, 132.1743
450.3051, 130.8396
450.7872, 130.0181
451.2693, 129.3543
451.7514, 129.4830
452.2336, 129.0264
452.7157, 126.4209
453.1978, 123.3592
453.6799, 122.5379
454.1620, 124.6232
454.6441, 127.6911
455.1263, 129.2664
455.6084, 129.0848
456.0905, 128.9025
456.5726, 128.8176
457.0547, 128.6285
457.5368, 127.7517
458.0190, 126.8564
458.5011, 127.2831
458.9832, 129.8502
459.4653, 132.6992
459.9474, 132.9365
460.4295, 130.5210
460.9117, 128.2568
461.3938, 126.7486
461.8759, 125.4333
462.3580, 123.2120
462.8401, 120.4642
463.3222, 119.4352
463.8044, 122.8027
464.2865, 126.5154
464.7686, 126.2767
465.2507, 123.0349
465.7328, 120.9038
466.2149, 121.8258
466.6971, 124.2259
467.1792, 125.0215
467.6613, 123.1918
468.1434, 121.8269
468.6255, 120.7572
469.1076, 120.2817
469.5898, 121.0527
470.0719, 122.6213
470.5540, 123.6835
471.0361, 123.2866
471.5182, 122.1936
472.0003, 122.9595
472.4825, 126.7356
472.9646, 129.2088
473.4467, 128.1760
473.9288, 126.4381
474.4109, 125.6704
474.8930, 125.9502
475.3752, 126.5415
475.8573, 127.8362
476.3394, 128.8548
476.8215, 127.3193
477.3036, 123.1612
477.7857, 119.4564
478.2679, 117.3886
478.7500, 117.0381
479.2321, 119.1208
479.7142, 125.2657
480.1963, 129.4058
480.6784, 129.0298
481.1606, 127.0694
481.6427, 125.9118
482.1248, 125.8370
482.6069, 126.3949
483.0890, 127.4473
483.5711, 128.6308
484.0533, 127.7101
484.5354, 122.0680
485.0175, 118.6805
485.4996, 119.8694
485.9817, 122.4656
486.4638, 124.3562
486.9460, 125.1404
487.4281, 124.9765
487.9102, 123.0374
488.3923, 120.2879
488.8744, 120.1431
489.3565, 123.1448
489.8387, 125.7851
490.3208, 126.5186
490.8029, 125.5935
491.2850, 123.4407
491.7671, 119.0826
492.2492, 116.3017
492.7314, 117.0004
493.2135, 119.6115
493.6956, 123.1699
494.1777, 127.1528
494.6598, 129.9460
495.1419, 130.1679
495.6241, 128.2364
496.1062, 126.8643
496.5883, 126.5819
497.0704, 126.1432
497.5525, 125.5902
498.0346, 124.7266
498.5168, 123.1149
498.9989, 120.8801
499.4810, 118.8969
499.9631, 117.4977
500.4452, 116.9380
500.9273, 118.8777
501.4095, 124.2405
501.8916, 128.1351
502.3737, 127.5285
502.8558, 124.7094
503.3379, 123.5820
503.8200, 124.8046
504.3022, 125.2149
504.7843, 122.9241
505.2664, 119.6046
505.7485, 116.8296
506.2306, 114.8690
506.7127, 114.1438
507.1949, 115.1371
507.6770, 117.2926
508.1591, 118.1506
508.6412, 116.4850
509.1233, 115.2784
509.6054, 114.7339
510.0876, 114.6444
510.5697, 115.1617
511.0518, 116.0703
511.5339, 116.6733
512.0161, 116.5054
512.4982, 115.6525
512.9803, 113.8373
513.4624, 110.6392
513.9445, 109.2036
514.4266, 111.4323
514.9088, 115.3204
515.3909, 118.5952
515.8730, 121.3485
516.3551, 122.5745
516.8372, 119.7931
517.3193, 116.9612
517.8015, 118.7339
518.2836, 124.1163
518.7657, 128.3781
519.2478, 128.9565
519.7299, 127.1017
520.2120, 125.8489
520.6942, 126.3706
521.1763, 125.1865
521.6584, 120.6503
522.1405, 116.1607
522.6226, 113.5103
523.1047, 112.4189
523.5869, 111.8856
524.0690, 111.4975
524.5511, 111.1308
525.0332, 110.1650
525.5153, 108.6137
525.9974, 108.8907
526.4796, 112.5930
526.9617, 116.6282
527.4438, 116.9772
527.9259, 114.1767
528.4080, 112.9391
528.8901, 115.4287
529.3723, 118.1640
529.8544, 119.4143
530.3365, 119.3633
530.8186, 118.1011
531.3007, 115.7114
531.7828, 113.3431
532.2650, 112.6781
532.7471, 114.0402
533.2292, 115.1049
533.7113, 116.6711
534.1934, 116.9395
534.6755, 114.0254
535.1577, 110.0306
535.6398, 107.9109
536.1219, 108.6175
536.6040, 110.1636
537.0861, 110.5285
537.5682, 110.2366
538.0504, 111.4030
538.5325, 114.5356
539.0146, 116.9965
539.4967, 116.5226
539.9788, 113.8386
540.4609, 112.6131
540.9431, 114.2020
541.4252, 115.2059
541.9073, 114.0230
542.3894, 112.5416
542.8715, 112.7091
543.3536, 114.5720
543.8358, 116.8652
544.3179, 118.6805
544.8000, 120.0177
545.2821, 120.7342
545.7642, 120.4246
546.2463, 120.6236
546.7285, 122.9301
547.2106, 124.9556
547.6927, 124.7074
548.1748, 122.2521
548.6569, 119.2727
549.1390, 114.7385
549.6211, 111.3001
550.1032, 113.6419
550.5853, 120.1895
551.0674, 123.5773
551.5496, 120.5359
552.0317, 114.8485
552.5138, 112.6822
552.9959, 115.3228
553.4780, 117.1781
553.9601, 118.6015
554.4423, 118.9993
554.9244, 116.7132
555.4065, 113.6839
555.8886, 113.3579
556.3707, 117.0786
556.8528, 121.4085
557.3350, 121.5717
557.8171, 118.2195
558.2992, 117.0370
558.7813, 119.2979
559.2634, 121.3023
559.7455, 120.2162
560.2277, 117.0343
560.7098, 115.1528
561.1919, 115.4901
561.6740, 115.5539
562.1561, 114.2523
562.6382, 112.4852
563.1204, 110.5926
563.6025, 109.0240
564.0846, 109.2597
564.5667, 112.6919
565.0488, 118.2289
565.5309, 121.7185
566.0131, 123.0673
566.4952, 122.5969
566.9773, 118.4632
567.4594, 114.0060
567.9415, 110.9624
568.4236, 109.4020
568.9058, 109.0666
569.3879, 110.3108
569.8700, 112.3160
570.3521, 114.9744
570.8342, 117.7857
571.3163, 118.8787
571.7985, 117.6057
572.2806, 115.1420
572.7627, 112.6121
573.2448, 109.7839
573.7269, 109.0794
574.2090, 112.7847
574.6912, 115.7668
575.1733, 116.0978
575.6554, 115.3814
576.1375, 115.6137
576.6196, 117.1631
577.1017, 118.6054
577.5839, 118.4847
578.0660, 117.2266
578.5481, 115.9375
579.0302, 114.4875
579.5123, 114.5984
579.9944, 118.3365
580.4766, 122.9711
580.9587, 122.4514
581.4408, 115.2755
581.9229, 110.2687
582.4050, 110.3787
582.8871, 111.4651
583.3693, 110.4938
583.8514, 108.3451
584.3335, 107.4506
584.8156, 108.9367
585.2977, 111.5914
585.7798, 113.7413
586.2620, 115.4130
586.7441, 116.1276
587.2262, 115.5169
587.7083, 114.5166
588.1904, 112.8768
588.6725, 111.4030
589.1547, 111.7485
589.6368, 114.9966
590.1189, 117.7666
590.6010, 118.3644
591.0831, 117.6081
591.5652, 115.8795
592.0474, 113.6178
592.5295, 112.5089
593.0116, 113.8488
593.4937, 116.6316
593.9758, 117.4453
594.4579, 114.3667
594.9401, 113.8879
595.4222, 121.6507
595.9043, 127.4275
596.3864, 123.5573
596.8685, 113.6350
597.3506, 107.1938
597.8328, 108.6937
598.3149, 112.9411
598.7970, 116.3140
599.2791, 118.6888
599.7612, 119.4633
600.2433, 118.5195
600.7255, 117.2693
601.2076, 117.0378
601.6897, 117.5599
602.1718, 116.6210
602.6539, 110.4477
603.1360, 108.0916
603.6182, 113.7536
604.1003, 120.6278
604.5824, 123.9894
605.0645, 123.7231
605.5466, 121.8440
606.0287, 118.9622
606.5109, 115.8396
