##NAMES=Rhodochrosite
##RRUFFID=R050019
##IDEAL CHEMISTRY=Mn^2+^CO_3_
##LOCALITY=Home Sweet Home mine, Colorado, USA
##OWNER=RRUFF
##SOURCE=Eugene Schlepp
##DESCRIPTION=Pink single crystal rhombs on quartz
##STATUS=The identification of this mineral has been confirmed by X-ray diffraction and chemical analysis
##URL=rruff.info/R050019
##MEASURED CHEMISTRY=Mn_1.00_CO_3_
133.2699, 32.24170
133.7520, 37.40723
134.2341, 42.36438
134.7162, 45.56134
135.1983, 47.01415
135.6804, 48.35968
136.1626, 49.61210
136.6447, 50.71714
137.1268, 51.57124
137.6089, 52.16756
138.0910, 52.51126
138.5731, 52.40442
139.0553, 51.59499
139.5374, 51.59172
140.0195, 52.81862
140.5016, 54.86445
140.9837, 56.13909
141.4658, 56.65181
141.9480, 56.39859
142.4301, 55.02656
142.9122, 51.10503
143.3943, 49.15130
143.8764, 50.14730
144.3585, 54.02052
144.8407, 57.94769
145.3228, 63.32113
145.8049, 67.65475
146.2870, 68.27074
146.7691, 60.44948
147.2512, 55.10598
147.7334, 55.16362
148.2155, 62.36983
148.6976, 67.10993
149.1797, 67.17357
149.6618, 65.40733
150.1439, 65.56739
150.6261, 70.40637
151.1082, 74.69907
151.5903, 76.78867
152.0724, 75.02787
152.5545, 74.67865
153.0366, 77.60982
153.5188, 82.15054
154.0009, 85.00468
154.4830, 83.68015
154.9651, 82.10699
155.4472, 82.07763
155.9293, 85.01415
156.4115, 87.73596
156.8936, 89.39545
157.3757, 90.29986
157.8578, 91.54168
158.3399, 94.05416
158.8221, 96.64575
159.3042, 98.56561
159.7863, 99.44861
160.2684, 99.81359
160.7505, 99.00689
161.2326, 97.33215
161.7148, 97.21296
162.1969, 99.61382
162.6790, 104.0984
163.1611, 110.1941
163.6432, 120.9554
164.1253, 130.7878
164.6075, 135.5918
165.0896, 135.1802
165.5717, 135.6645
166.0538, 140.5316
166.5359, 148.4438
167.0180, 157.4571
167.5002, 167.7641
167.9823, 178.3152
168.4644, 188.0253
168.9465, 196.6157
169.4286, 205.7530
169.9107, 216.7173
170.3929, 229.0835
170.8750, 242.2514
171.3571, 256.3208
171.8392, 270.7076
172.3213, 284.2758
172.8034, 296.1152
173.2856, 309.2095
173.7677, 325.9131
174.2498, 346.1411
174.7319, 369.2277
175.2140, 394.1078
175.6961, 421.7232
176.1783, 453.6281
176.6604, 490.0983
177.1425, 530.2629
177.6246, 571.7604
178.1067, 614.8793
178.5888, 664.4206
179.0710, 723.3575
179.5531, 790.4894
180.0352, 863.1415
180.5173, 942.0078
180.9994, 1023.998
181.4815, 1104.933
181.9637, 1185.323
182.4458, 1258.838
182.9279, 1335.751
183.4100, 1405.978
183.8921, 1432.904
184.3742, 1400.862
184.8564, 1321.156
185.3385, 1212.020
185.8206, 1070.663
186.3027, 922.3962
186.7848, 782.7469
187.2669, 653.7292
187.7491, 545.5424
188.2312, 465.7827
188.7133, 410.0392
189.1954, 361.7049
189.6775, 321.2661
190.1596, 287.5423
190.6418, 259.8167
191.1239, 238.1477
191.6060, 219.2125
192.0881, 201.4788
192.5702, 185.1637
193.0524, 172.4576
193.5345, 163.7775
194.0166, 157.6751
194.4987, 152.7077
194.9808, 148.9658
195.4629, 144.9738
195.9451, 139.5630
196.4272, 132.7202
196.9093, 127.7254
197.3914, 124.9839
197.8735, 123.6138
198.3556, 122.2908
198.8378, 121.1368
199.3199, 119.3073
199.8020, 115.6348
200.2841, 109.8860
200.7662, 106.4930
201.2483, 106.3526
201.7305, 108.1190
202.2126, 108.5310
202.6947, 107.3916
203.1768, 105.6324
203.6589, 103.8176
204.1410, 102.0270
204.6232, 99.54148
205.1053, 95.71735
205.5874, 91.40984
206.0695, 89.77821
206.5516, 91.56707
207.0337, 94.07706
207.5159, 95.45683
207.9980, 95.41545
208.4801, 95.56446
208.9622, 96.31310
209.4443, 97.39709
209.9264, 97.31989
210.4086, 95.54420
210.8907, 93.68209
211.3728, 93.17525
211.8549, 94.57384
212.3370, 95.37496
212.8191, 94.92113
213.3013, 93.45087
213.7834, 93.28071
214.2655, 95.47755
214.7476, 97.25636
215.2297, 95.63433
215.7118, 88.70789
216.1940, 83.74501
216.6761, 82.80564
217.1582, 85.61829
217.6403, 85.86535
218.1224, 81.99615
218.6045, 77.63036
219.0867, 76.49188
219.5688, 80.01491
220.0509, 83.43663
220.5330, 85.84488
221.0151, 87.26509
221.4972, 87.92326
221.9794, 87.42692
222.4615, 86.61387
222.9436, 86.40116
223.4257, 87.07120
223.9078, 87.74985
224.3899, 88.08790
224.8721, 88.00140
225.3542, 88.87028
225.8363, 91.47381
226.3184, 94.30199
226.8005, 95.48974
227.2827, 94.21207
227.7648, 92.86047
228.2469, 92.20480
228.7290, 92.47973
229.2111, 91.42875
229.6932, 87.67792
230.1754, 83.72564
230.6575, 83.18800
231.1396, 88.48314
231.6217, 92.90665
232.1038, 94.31941
232.5859, 91.97934
233.0681, 90.63567
233.5502, 90.65163
234.0323, 91.40186
234.5144, 92.02267
234.9965, 92.51093
235.4786, 92.85732
235.9608, 92.95325
236.4429, 92.62531
236.9250, 92.85873
237.4071, 93.83582
237.8892, 95.26205
238.3713, 96.77367
238.8535, 98.79259
239.3356, 100.1850
239.8177, 100.4930
240.2998, 99.42757
240.7819, 98.23363
241.2640, 96.09837
241.7462, 94.28653
242.2283, 95.35120
242.7104, 101.6964
243.1925, 106.9532
243.6746, 108.7527
244.1567, 105.9059
244.6389, 103.5339
245.1210, 101.2981
245.6031, 99.73289
246.0852, 100.0080
246.5673, 103.2132
247.0494, 106.3931
247.5316, 108.2974
248.0137, 108.1461
248.4958, 109.5386
248.9779, 113.5118
249.4600, 118.4393
249.9421, 121.0392
250.4243, 120.0718
250.9064, 119.0330
251.3885, 119.2427
251.8706, 121.1262
252.3527, 122.8666
252.8348, 124.4171
253.3170, 125.8499
253.7991, 127.1587
254.2812, 127.8678
254.7633, 129.3453
255.2454, 132.4231
255.7275, 137.8372
256.2097, 141.9879
256.6918, 144.5401
257.1739, 146.0147
257.6560, 147.1375
258.1381, 147.2378
258.6202, 148.3942
259.1024, 151.7115
259.5845, 157.8482
260.0666, 163.2376
260.5487, 167.6142
261.0308, 171.4332
261.5129, 175.6202
261.9951, 180.0086
262.4772, 185.0910
262.9593, 191.3178
263.4414, 199.2494
263.9235, 205.4713
264.4056, 208.5635
264.8878, 211.3538
265.3699, 219.3685
265.8520, 234.2481
266.3341, 249.8555
266.8162, 263.5508
267.2983, 274.4774
267.7805, 288.1283
268.2626, 304.3685
268.7447, 323.3939
269.2268, 344.9657
269.7089, 368.3043
270.1910, 396.8927
270.6732, 433.7992
271.1553, 479.8697
271.6374, 524.0624
272.1195, 565.1599
272.6016, 606.2657
273.0837, 650.3588
273.5659, 697.3659
274.0480, 748.5001
274.5301, 804.5082
275.0122, 865.1495
275.4943, 931.5360
275.9764, 1003.914
276.4586, 1081.577
276.9407, 1162.753
277.4228, 1245.748
277.9049, 1337.478
278.3870, 1440.264
278.8691, 1553.928
279.3513, 1673.719
279.8334, 1798.747
280.3155, 1932.193
280.7976, 2080.856
281.2798, 2243.900
281.7619, 2411.667
282.2440, 2581.196
282.7261, 2752.426
283.2082, 2925.757
283.6903, 3101.954
284.1725, 3277.437
284.6546, 3448.929
285.1367, 3615.022
285.6188, 3778.203
286.1009, 3949.690
286.5830, 4119.790
287.0652, 4252.035
287.5473, 4346.819
288.0294, 4394.489
288.5115, 4382.516
288.9936, 4311.777
289.4757, 4192.566
289.9579, 4019.563
290.4400, 3802.585
290.9221, 3555.547
291.4042, 3276.645
291.8863, 2990.206
292.3684, 2711.474
292.8506, 2443.661
293.3327, 2195.924
293.8148, 1967.615
294.2969, 1761.447
294.7790, 1579.068
295.2611, 1419.846
295.7433, 1280.956
296.2254, 1161.579
296.7075, 1058.503
297.1896, 967.1749
297.6717, 886.1489
298.1538, 813.6182
298.6360, 748.1930
299.1181, 689.3310
299.6002, 637.6901
300.0823, 594.9148
300.5644, 559.0258
301.0465, 525.9266
301.5287, 494.6555
302.0108, 465.6232
302.4929, 439.9992
302.9750, 417.4188
303.4571, 397.2446
303.9392, 378.9812
304.4214, 362.6957
304.9035, 348.2127
305.3856, 336.3078
305.8677, 325.4289
306.3498, 314.1599
306.8319, 302.9123
307.3141, 292.9009
307.7962, 286.0919
308.2783, 280.4384
308.7604, 273.4926
309.2425, 263.8505
309.7246, 255.2037
310.2068, 251.8207
310.6889, 251.4966
311.1710, 248.4807
311.6531, 236.5564
312.1352, 222.9705
312.6173, 213.3734
313.0995, 209.7982
313.5816, 207.2211
314.0637, 202.8871
314.5458, 197.9279
315.0279, 194.4327
315.5100, 195.1767
315.9922, 196.1075
316.4743, 194.7791
316.9564, 190.2868
317.4385, 186.1225
317.9206, 183.8127
318.4027, 182.4346
318.8849, 180.6981
319.3670, 178.3193
319.8491, 175.4690
320.3312, 171.7210
320.8133, 166.6344
321.2954, 163.1486
321.7776, 163.5636
322.2597, 165.1644
322.7418, 165.0572
323.2239, 160.0253
323.7060, 156.0439
324.1881, 155.3685
324.6703, 158.4774
325.1524, 159.4781
325.6345, 156.7735
326.1166, 152.4277
326.5987, 148.0565
327.0808, 142.6361
327.5630, 138.4111
328.0451, 135.6904
328.5272, 134.4506
329.0093, 134.3134
329.4914, 136.9972
329.9735, 139.2328
330.4557, 138.6136
330.9378, 132.1291
331.4199, 128.1279
331.9020, 128.2643
332.3841, 131.5344
332.8662, 132.9558
333.3484, 131.6503
333.8305, 129.8066
334.3126, 128.5689
334.7947, 128.0951
335.2768, 127.8995
335.7589, 128.4167
336.2411, 128.9460
336.7232, 127.3110
337.2053, 122.6419
337.6874, 118.3837
338.1695, 116.4967
338.6516, 117.3814
339.1338, 116.9832
339.6159, 114.5937
340.0980, 111.9327
340.5801, 112.9120
341.0622, 118.1387
341.5443, 121.4123
342.0265, 119.0139
342.5086, 111.7566
342.9907, 107.0298
343.4728, 105.0313
343.9549, 104.9520
344.4370, 106.9031
344.9192, 110.5537
345.4013, 112.7048
345.8834, 111.1853
346.3655, 107.6246
346.8476, 106.5904
347.3297, 108.1484
347.8119, 110.3119
348.2940, 111.7813
348.7761, 112.4311
349.2582, 111.7177
349.7403, 108.5750
350.2225, 104.9275
350.7046, 103.7988
351.1867, 104.9143
351.6688, 106.2359
352.1509, 105.8264
352.6331, 104.8036
353.1152, 105.1659
353.5973, 108.4006
354.0794, 111.1519
354.5615, 109.5657
355.0436, 104.8467
355.5258, 100.6612
356.0079, 99.44035
356.4900, 99.40342
356.9721, 98.93439
357.4542, 97.55662
357.9363, 96.52325
358.4185, 96.67406
358.9006, 97.63042
359.3827, 98.73713
359.8648, 100.6860
360.3469, 101.9687
360.8290, 101.1881
361.3112, 97.77545
361.7933, 95.67596
362.2754, 97.40156
362.7575, 100.5959
363.2396, 102.7068
363.7217, 102.8070
364.2039, 102.0933
364.6860, 100.3462
365.1681, 97.56012
365.6502, 95.77900
366.1323, 95.28288
366.6144, 95.81154
367.0966, 97.21943
367.5787, 101.9657
368.0608, 104.5082
368.5429, 103.2768
369.0250, 99.17236
369.5071, 96.91655
369.9893, 97.96841
370.4714, 99.17493
370.9535, 98.96040
371.4356, 96.58109
371.9177, 94.39936
372.3998, 92.11095
372.8820, 90.20147
373.3641, 89.98151
373.8462, 92.07676
374.3283, 94.23652
374.8104, 95.56581
375.2925, 96.01578
375.7747, 96.22668
376.2568, 96.02824
376.7389, 95.93089
377.2210, 96.96912
377.7031, 99.27677
378.1852, 100.7595
378.6674, 100.5577
379.1495, 99.03484
379.6316, 97.36198
380.1137, 95.44169
380.5958, 94.38169
381.0779, 96.28577
381.5601, 100.3622
382.0422, 102.3939
382.5243, 100.7949
383.0064, 97.59360
383.4885, 95.89980
383.9706, 95.60955
384.4528, 96.06770
384.9349, 98.02136
385.4170, 100.1302
385.8991, 99.66532
386.3812, 95.36799
386.8633, 91.24966
387.3455, 91.58465
387.8276, 94.97993
388.3097, 98.26824
388.7918, 100.1166
389.2739, 101.0190
389.7560, 101.1233
390.2382, 100.3685
390.7203, 99.70192
391.2024, 100.0530
391.6845, 100.6331
392.1666, 100.5339
392.6487, 97.65891
393.1309, 95.73380
393.6130, 97.55215
394.0951, 102.6237
394.5772, 105.1381
395.0593, 100.6449
395.5414, 95.01172
396.0236, 91.94866
396.5057, 94.01326
396.9878, 96.23588
397.4699, 99.14847
397.9520, 102.0236
398.4341, 102.5377
398.9163, 98.53803
399.3984, 94.39671
399.8805, 91.53951
400.3626, 89.96665
400.8447, 89.84566
401.3268, 92.26615
401.8090, 95.33279
402.2911, 96.06236
402.7732, 93.15829
403.2553, 91.33088
403.7374, 92.19328
404.2195, 95.55667
404.7017, 98.21426
405.1838, 100.3990
405.6659, 101.2419
406.1480, 99.00235
406.6301, 93.59495
407.1122, 90.29319
407.5944, 90.48579
408.0765, 92.87258
408.5586, 94.58029
409.0407, 95.62482
409.5228, 96.35458
410.0049, 97.50329
410.4871, 98.52168
410.9692, 97.42477
411.4513, 93.55775
411.9334, 89.39125
412.4155, 87.85355
412.8976, 88.29803
413.3798, 88.88871
413.8619, 88.56075
414.3440, 88.08217
414.8261, 88.48709
415.3082, 89.78905
415.7903, 90.76299
416.2725, 90.41622
416.7546, 89.37814
417.2367, 88.30534
417.7188, 86.46197
418.2009, 85.69263
418.6830, 87.96833
419.1652, 92.33792
419.6473, 95.22292
420.1294, 93.66438
420.6115, 91.63154
421.0937, 91.57446
421.5758, 95.62093
422.0579, 97.72697
422.5400, 95.39872
423.0221, 91.02580
423.5042, 88.48961
423.9864, 89.52934
424.4685, 90.61530
424.9506, 90.77250
425.4327, 89.84677
425.9148, 90.07390
426.3969, 92.25575
426.8791, 94.67574
427.3612, 95.70234
427.8433, 94.77386
428.3254, 94.25951
428.8075, 94.69804
429.2896, 95.68922
429.7718, 95.85411
430.2539, 95.11746
430.7360, 93.98496
431.2181, 92.16280
431.7002, 89.81426
432.1823, 89.74742
432.6645, 92.57217
433.1466, 96.11566
433.6287, 97.60925
434.1108, 97.24298
434.5929, 95.84509
435.0750, 92.51250
435.5572, 88.90437
436.0393, 88.28697
436.5214, 90.55524
437.0035, 93.48669
437.4856, 96.31877
437.9677, 98.42769
438.4499, 98.67416
438.9320, 95.64434
439.4141, 92.60434
439.8962, 92.28563
440.3783, 93.81290
440.8604, 94.92028
441.3426, 94.58553
441.8247, 93.55318
442.3068, 91.91439
442.7889, 89.35466
443.2710, 87.77582
443.7531, 88.65398
444.2353, 90.39575
444.7174, 91.25430
445.1995, 88.93480
445.6816, 87.95632
446.1637, 89.95682
446.6458, 94.52483
447.1280, 97.42696
447.6101, 97.96329
448.0922, 97.60345
448.5743, 97.00141
449.0564, 95.78991
449.5385, 95.45570
450.0207, 96.61294
450.5028, 98.13924
450.9849, 97.46439
451.4670, 93.99936
451.9491, 91.38802
452.4312, 91.53664
452.9134, 93.96482
453.3955, 94.54931
453.8776, 93.02290
454.3597, 91.54901
454.8418, 92.78964
455.3239, 96.05229
455.8061, 98.44192
456.2882, 99.32709
456.7703, 99.05721
457.2524, 97.36358
457.7345, 94.70001
458.2166, 92.89178
458.6988, 93.86907
459.1809, 95.86646
459.6630, 97.21654
460.1451, 97.82641
460.6272, 97.28133
461.1093, 94.06244
461.5915, 89.92631
462.0736, 87.12391
462.5557, 87.12366
463.0378, 87.86553
463.5199, 89.08866
464.0020, 90.62590
464.4842, 91.41448
464.9663, 90.33349
465.4484, 89.10204
465.9305, 88.62563
466.4126, 89.28023
466.8947, 90.10277
467.3769, 91.37392
467.8590, 92.68771
468.3411, 93.41751
468.8232, 93.55553
469.3053, 93.05547
469.7874, 91.58118
470.2696, 89.23821
470.7517, 88.02416
471.2338, 88.07592
471.7159, 88.83270
472.1980, 90.21189
472.6801, 92.18222
473.1623, 93.11341
473.6444, 92.53823
474.1265, 91.31383
474.6086, 90.63946
475.0907, 90.53392
475.5728, 91.11830
476.0550, 93.73643
476.5371, 96.64466
477.0192, 96.18069
477.5013, 92.17332
477.9834, 88.75397
478.4655, 90.04659
478.9477, 93.55491
479.4298, 96.00812
479.9119, 96.20815
480.3940, 95.45266
480.8761, 93.41894
481.3582, 90.82070
481.8404, 89.74936
482.3225, 92.60465
482.8046, 95.72628
483.2867, 97.52917
483.7688, 97.72209
484.2509, 97.13261
484.7331, 94.84353
485.2152, 92.31301
485.6973, 90.84499
486.1794, 90.68070
486.6615, 91.22182
487.1436, 92.69457
487.6258, 94.82549
488.1079, 96.36937
488.5900, 97.31679
489.0721, 97.66772
489.5542, 97.49432
490.0363, 96.80264
490.5185, 94.68599
491.0006, 90.57444
491.4827, 86.92303
491.9648, 88.17973
492.4470, 93.31413
492.9291, 96.57417
493.4112, 95.03034
493.8933, 91.33414
494.3754, 89.06735
494.8575, 88.17324
495.3397, 88.42628
495.8218, 91.18005
496.3039, 94.27755
496.7860, 95.13428
497.2681, 92.92171
497.7502, 90.32980
498.2324, 87.41354
498.7145, 85.35363
499.1966, 85.70325
499.6787, 93.01363
500.1608, 98.69234
500.6429, 98.76247
501.1251, 93.66348
501.6072, 91.18275
502.0893, 95.68987
502.5714, 99.50649
503.0535, 98.57458
503.5356, 89.37631
504.0178, 83.99409
504.4999, 83.69714
504.9820, 86.12611
505.4641, 87.83044
505.9462, 88.67108
506.4283, 89.52367
506.9105, 90.81512
507.3926, 92.26099
507.8747, 92.60307
508.3568, 91.79743
508.8389, 90.67513
509.3210, 89.43658
509.8032, 88.34880
510.2853, 88.43042
510.7674, 90.11539
511.2495, 91.65035
511.7316, 90.86499
512.2137, 88.61469
512.6959, 86.65770
513.1780, 85.36777
513.6601, 84.89676
514.1422, 85.71819
514.6243, 87.64369
515.1064, 89.41185
515.5886, 90.64424
516.0707, 91.48997
516.5528, 91.95576
517.0349, 91.68308
517.5170, 91.79636
517.9991, 93.01062
518.4813, 94.42948
518.9634, 94.91821
519.4455, 94.24947
519.9276, 92.97311
520.4097, 90.74780
520.8918, 87.91722
521.3740, 86.64710
521.8561, 87.24089
522.3382, 88.39059
522.8203, 89.39283
523.3024, 90.23959
523.7845, 91.06046
524.2667, 91.98303
524.7488, 92.41645
525.2309, 90.61558
525.7130, 87.51369
526.1951, 86.53979
526.6772, 90.78774
527.1594, 95.90703
527.6415, 96.36480
528.1236, 93.00513
528.6057, 89.52073
529.0878, 87.41789
529.5699, 86.41309
530.0521, 86.73250
530.5342, 88.89582
531.0163, 90.11839
531.4984, 88.12119
531.9805, 85.33659
532.4626, 84.34130
532.9448, 87.12508
533.4269, 89.77332
533.9090, 92.10659
534.3911, 94.01582
534.8732, 94.99989
535.3553, 95.00764
535.8375, 94.16634
536.3196, 92.10785
536.8017, 88.67291
537.2838, 87.08181
537.7659, 87.70684
538.2480, 88.90163
538.7302, 88.30235
539.2123, 86.36323
539.6944, 86.61860
540.1765, 90.78309
540.6586, 95.72534
541.1407, 97.08669
541.6229, 95.49002
542.1050, 93.22545
542.5871, 91.04616
543.0692, 89.05890
543.5513, 86.79398
544.0334, 84.27862
544.5156, 83.82011
544.9977, 89.38052
545.4798, 95.78871
545.9619, 98.82085
546.4440, 95.21363
546.9261, 91.89000
547.4083, 89.49526
547.8904, 88.02505
548.3725, 87.59418
548.8546, 89.18550
549.3367, 90.17137
549.8188, 89.68056
550.3010, 87.88186
550.7831, 86.73400
551.2652, 86.29565
551.7473, 86.31361
552.2294, 86.59548
552.7115, 87.15778
553.1937, 88.44001
553.6758, 90.71742
554.1579, 92.71468
554.6400, 92.43386
555.1221, 90.54324
555.6042, 88.92950
556.0864, 87.93945
556.5685, 87.82736
557.0506, 89.82755
557.5327, 93.19305
558.0148, 95.10093
558.4969, 91.99203
558.9791, 88.64489
559.4612, 88.41385
559.9433, 92.41636
560.4254, 95.47632
560.9075, 96.28233
561.3896, 95.93280
561.8718, 95.45358
562.3539, 95.11012
562.8360, 94.07222
563.3181, 91.62605
563.8002, 88.76952
564.2823, 88.06153
564.7645, 89.87957
565.2466, 92.23923
565.7287, 94.90147
566.2108, 97.49966
566.6929, 97.84796
567.1750, 95.87634
567.6572, 93.17419
568.1393, 89.94308
568.6214, 87.15154
569.1035, 87.33239
569.5856, 91.50273
570.0677, 96.08431
570.5499, 98.37656
571.0320, 99.09850
571.5141, 99.41331
571.9962, 100.3353
572.4783, 100.3479
572.9604, 98.17875
573.4426, 94.32662
573.9247, 91.31110
574.4068, 89.50024
574.8889, 88.70053
575.3710, 89.18784
575.8531, 91.44518
576.3353, 92.24014
576.8174, 90.69036
577.2995, 88.97577
577.7816, 89.65224
578.2637, 93.07629
578.7458, 94.88751
579.2280, 94.13567
579.7101, 92.09161
580.1922, 90.54198
580.6743, 89.55587
581.1564, 89.52270
581.6385, 91.58259
582.1207, 94.18476
582.6028, 95.06840
583.0849, 94.42472
583.5670, 93.81645
584.0491, 94.77628
584.5313, 95.74722
585.0134, 95.33431
585.4955, 92.80272
585.9776, 90.62615
586.4597, 89.60701
586.9418, 89.20134
587.4240, 88.81488
587.9061, 88.42778
588.3882, 88.02899
588.8703, 87.53347
589.3524, 87.04819
589.8345, 86.87299
590.3167, 87.00802
590.7988, 87.44585
591.2809, 88.01845
591.7630, 88.86063
592.2451, 91.25985
592.7272, 95.31191
593.2094, 98.57665
593.6915, 98.22347
594.1736, 95.80069
594.6557, 94.35323
595.1378, 94.61027
595.6199, 94.94833
596.1021, 93.67716
596.5842, 91.85067
597.0663, 90.96889
597.5485, 92.64091
598.0306, 94.17809
598.5127, 94.78951
598.9948, 94.57400
599.4769, 93.99060
599.9590, 92.34615
600.4412, 91.22337
600.9233, 91.34603
601.4054, 92.83465
601.8875, 93.68536
602.3696, 93.85737
602.8517, 93.47014
603.3339, 92.02728
603.8160, 89.70681
604.2981, 89.59651
604.7802, 92.60447
605.2623, 95.87840
605.7444, 94.69019
606.2266, 90.71462
606.7087, 88.55653
607.1908, 91.60541
607.6729, 95.30909
608.1550, 95.86076
608.6371, 94.03891
609.1193, 92.39381
609.6014, 91.34930
610.0835, 91.24457
610.5656, 93.01289
611.0477, 97.25367
611.5298, 98.74055
612.0120, 94.82028
612.4941, 90.59985
612.9762, 89.92707
613.4583, 94.49262
613.9404, 96.22033
614.4225, 93.97923
614.9047, 90.24324
615.3868, 88.08308
615.8689, 87.48280
616.3510, 88.65740
616.8331, 92.45258
617.3152, 97.01357
617.7974, 99.94360
618.2795, 101.2617
618.7616, 101.2333
619.2437, 98.81311
619.7258, 95.98764
620.2079, 94.27377
620.6901, 93.75703
621.1722, 93.31700
621.6543, 91.92879
622.1364, 90.93615
622.6185, 91.45275
623.1006, 95.07671
623.5828, 96.66054
624.0649, 95.11618
624.5470, 92.52967
625.0291, 91.73945
625.5112, 93.37215
625.9933, 93.19351
626.4755, 89.80116
626.9576, 85.07068
627.4397, 82.62788
627.9218, 82.36855
628.4039, 83.49578
628.8860, 87.22086
629.3682, 91.27411
629.8503, 91.64565
630.3324, 88.89790
630.8145, 87.28987
