##NAMES=Rhodochrosite
##RRUFFID=R100002
##IDEAL CHEMISTRY=Mn^2+^CO_3_
##LOCALITY=Wudong mine, Liubao, Guangxi  Autonomous Region, China
##OWNER=RRUFF
##SOURCE=Marcus Origlieri
##DESCRIPTION=Red cleavage fragment
##STATUS=The identification of this mineral has been confirmed by X-ray diffraction.
##URL=rruff.info/R100002
91.18097, 0.0000000E+00
91.66309, 279.0010
92.14520, 286.8173
92.62732, 290.7761
93.10944, 285.9917
93.59155, 277.5195
94.07367, 269.8373
94.55579, 263.4978
95.03790, 257.5229
95.52002, 251.0687
96.00214, 244.3937
96.48425, 236.3666
96.96637, 225.3720
97.44849, 214.2854
97.93060, 204.9620
98.41272, 197.8341
98.89484, 192.1471
99.37695, 186.8621
99.85907, 182.7983
100.3412, 178.0649
100.8233, 171.4703
101.3054, 164.2431
101.7875, 158.1099
102.2697, 154.1169
102.7518, 152.1589
103.2339, 150.2180
103.7160, 148.0630
104.1981, 146.0913
104.6802, 144.7647
105.1624, 143.9363
105.6445, 142.8067
106.1266, 140.7774
106.6087, 137.7218
107.0908, 133.5904
107.5729, 126.8642
108.0551, 119.6201
108.5372, 114.4784
109.0193, 112.0248
109.5014, 110.9218
109.9835, 110.0739
110.4656, 109.4558
110.9478, 109.1567
111.4299, 109.4133
111.9120, 110.1365
112.3941, 110.6001
112.8762, 110.2730
113.3583, 110.0708
113.8405, 110.6409
114.3226, 111.9597
114.8047, 113.4500
115.2868, 114.6033
115.7689, 115.6387
116.2510, 115.6098
116.7332, 113.4553
117.2153, 110.9851
117.6974, 109.3989
118.1795, 109.0722
118.6616, 109.5685
119.1437, 109.8876
119.6259, 109.5955
120.1080, 109.6595
120.5901, 110.3134
121.0722, 111.2854
121.5543, 112.4245
122.0364, 113.7364
122.5186, 114.9651
123.0007, 114.5493
123.4828, 111.8673
123.9649, 108.6704
124.4470, 104.8699
124.9291, 100.8157
125.4113, 97.85162
125.8934, 97.06643
126.3755, 98.24073
126.8576, 99.30551
127.3397, 100.4071
127.8218, 101.2865
128.3040, 101.6391
128.7861, 101.3995
129.2682, 100.9716
129.7503, 100.1587
130.2324, 99.36185
130.7145, 99.40010
131.1967, 101.4900
131.6788, 104.6910
132.1609, 106.0091
132.6430, 104.4506
133.1251, 102.2378
133.6072, 99.66314
134.0894, 97.25902
134.5715, 96.20121
135.0536, 98.23625
135.5357, 103.8365
136.0178, 106.5130
136.4999, 103.0171
136.9821, 99.18137
137.4642, 96.64552
137.9463, 95.69427
138.4284, 96.06071
138.9105, 97.61982
139.3926, 101.2579
139.8748, 103.6896
140.3569, 104.7745
140.8390, 105.0325
141.3211, 104.7248
141.8032, 103.9432
142.2853, 102.6923
142.7675, 100.8709
143.2496, 97.40628
143.7317, 95.50260
144.2138, 96.17336
144.6959, 98.23830
145.1780, 100.3614
145.6602, 102.1445
146.1423, 103.5334
146.6244, 104.2525
147.1065, 104.0425
147.5886, 104.0815
148.0707, 105.3801
148.5529, 107.4488
149.0350, 108.3245
149.5171, 106.1867
149.9992, 103.3865
150.4813, 103.6304
150.9634, 107.8687
151.4456, 112.8508
151.9277, 115.8637
152.4098, 116.7753
152.8919, 117.2789
153.3740, 117.5771
153.8561, 117.9737
154.3383, 118.7682
154.8204, 120.0803
155.3025, 121.7010
155.7846, 123.5072
156.2667, 126.1124
156.7488, 127.4192
157.2310, 125.3002
157.7131, 122.4416
158.1952, 121.6253
158.6773, 124.3194
159.1594, 129.7070
159.6415, 134.6582
160.1237, 138.3200
160.6058, 142.6127
161.0879, 147.9047
161.5700, 153.9781
162.0521, 160.5573
162.5342, 167.4869
163.0164, 174.7758
163.4985, 181.8884
163.9806, 188.7192
164.4627, 195.5453
164.9448, 201.9790
165.4269, 208.4186
165.9091, 215.8412
166.3912, 225.4029
166.8733, 237.0900
167.3554, 245.6247
167.8375, 249.0495
168.3196, 251.5794
168.8018, 254.7223
169.2839, 258.8040
169.7660, 264.6417
170.2481, 273.2731
170.7302, 284.7585
171.2123, 296.4661
171.6945, 307.8439
172.1766, 319.6099
172.6587, 331.7776
173.1408, 344.0732
173.6229, 358.7964
174.1050, 378.3405
174.5872, 402.0222
175.0693, 429.4518
175.5514, 460.1584
176.0335, 494.7394
176.5156, 532.9523
176.9977, 572.5950
177.4799, 622.0240
177.9620, 683.6198
178.4441, 757.4161
178.9262, 845.0044
179.4083, 946.8783
179.8904, 1063.735
180.3726, 1195.593
180.8547, 1351.886
181.3368, 1513.403
181.8189, 1684.756
182.3010, 1856.097
182.7831, 2002.114
183.2653, 2111.471
183.7474, 2186.432
184.2295, 2190.722
184.7116, 2078.640
185.1937, 1926.966
185.6758, 1740.678
186.1580, 1531.855
186.6401, 1322.635
187.1222, 1132.937
187.6043, 961.4423
188.0864, 818.3414
188.5685, 708.0029
189.0507, 617.1875
189.5328, 544.5832
190.0149, 487.3409
190.4970, 440.4901
190.9791, 397.7755
191.4612, 359.5055
191.9434, 326.9191
192.4255, 301.1078
192.9076, 279.3946
193.3897, 260.9537
193.8718, 245.3436
194.3539, 231.0948
194.8361, 216.1448
195.3182, 198.9971
195.8003, 186.1007
196.2824, 180.5304
196.7645, 177.6815
197.2466, 173.0487
197.7288, 165.5888
198.2109, 157.6308
198.6930, 152.6759
199.1751, 151.2531
199.6572, 148.7591
200.1393, 143.5237
200.6215, 137.0819
201.1036, 131.3408
201.5857, 126.5835
202.0678, 122.9545
202.5499, 121.2294
203.0320, 121.2379
203.5142, 120.8243
203.9963, 119.0773
204.4784, 116.3585
204.9605, 113.4149
205.4426, 110.1377
205.9247, 107.1271
206.4069, 105.2622
206.8890, 104.3663
207.3711, 103.1179
207.8532, 99.83855
208.3353, 95.22433
208.8174, 93.14410
209.2996, 95.96674
209.7817, 99.27918
210.2638, 99.57551
210.7459, 97.26741
211.2280, 94.95123
211.7101, 95.00844
212.1923, 97.34489
212.6744, 98.36268
213.1565, 96.82413
213.6386, 94.69060
214.1207, 92.48545
214.6028, 90.45383
215.0850, 89.11325
215.5671, 89.43849
216.0492, 91.79379
216.5313, 92.84763
217.0134, 90.62457
217.4955, 88.62673
217.9777, 88.59359
218.4598, 90.25155
218.9419, 92.03358
219.4240, 92.45308
219.9061, 91.42590
220.3882, 89.38774
220.8704, 83.88220
221.3525, 79.49019
221.8346, 78.81492
222.3167, 81.50557
222.7988, 85.24400
223.2809, 87.60059
223.7631, 88.15193
224.2452, 89.13408
224.7273, 91.54448
225.2094, 93.46916
225.6915, 93.66255
226.1736, 92.27152
226.6558, 90.42220
227.1379, 89.24065
227.6200, 88.80897
228.1021, 88.85086
228.5842, 90.00197
229.0663, 91.02926
229.5485, 91.10092
230.0306, 90.24901
230.5127, 89.08408
230.9948, 88.09373
231.4769, 87.17730
231.9590, 87.47938
232.4412, 90.46526
232.9233, 93.41341
233.4054, 94.30936
233.8875, 93.15896
234.3696, 91.62145
234.8517, 91.18246
235.3339, 92.00382
235.8160, 93.01575
236.2981, 94.26013
236.7802, 95.65619
237.2623, 97.02904
237.7444, 98.39261
238.2266, 100.2038
238.7087, 103.3173
239.1908, 107.5170
239.6729, 109.7720
240.1550, 107.9353
240.6371, 105.4593
241.1193, 105.5855
241.6014, 108.4534
242.0835, 111.3635
242.5656, 112.0254
243.0477, 111.0121
243.5298, 110.8971
244.0120, 112.4385
244.4941, 114.6533
244.9762, 116.9126
245.4583, 119.2446
245.9404, 120.9074
246.4225, 120.4870
246.9047, 119.2130
247.3868, 119.8216
247.8689, 123.9239
248.3510, 129.0466
248.8331, 132.7627
249.3152, 135.0329
249.7974, 136.2535
250.2795, 135.2393
250.7616, 133.7564
251.2437, 134.4734
251.7258, 138.7386
252.2079, 144.1491
252.6901, 147.6846
253.1722, 148.9797
253.6543, 151.0121
254.1364, 155.8354
254.6185, 161.7498
255.1006, 167.2164
255.5828, 171.8435
256.0649, 176.0719
256.5470, 180.2432
257.0291, 184.2841
257.5112, 188.7160
257.9933, 193.9710
258.4755, 199.5973
258.9576, 204.9350
259.4397, 209.6629
259.9218, 215.4284
260.4039, 224.9393
260.8860, 239.0654
261.3682, 251.9135
261.8503, 258.7438
262.3324, 266.0016
262.8145, 277.8449
263.2966, 295.0250
263.7787, 315.3483
264.2609, 336.4900
264.7430, 358.2344
265.2251, 382.0546
265.7072, 407.0982
266.1893, 435.1280
266.6714, 467.8925
267.1536, 505.3754
267.6357, 545.4969
268.1178, 585.6033
268.5999, 624.6493
269.0820, 669.3987
269.5641, 726.3190
270.0463, 784.4257
270.5284, 840.2090
271.0105, 892.9142
271.4926, 942.3618
271.9747, 987.1848
272.4568, 1026.714
272.9390, 1069.164
273.4211, 1117.548
273.9032, 1166.451
274.3853, 1212.934
274.8674, 1258.474
275.3495, 1306.106
275.8317, 1358.361
276.3138, 1415.019
276.7959, 1477.033
277.2780, 1542.980
277.7601, 1616.345
278.2422, 1696.771
278.7244, 1785.297
279.2065, 1882.628
279.6886, 1988.854
280.1707, 2104.380
280.6528, 2231.881
281.1349, 2367.079
281.6171, 2520.886
282.0992, 2693.282
282.5813, 2885.547
283.0634, 3101.325
283.5455, 3342.406
284.0276, 3606.561
284.5098, 3884.198
284.9919, 4188.334
285.4740, 4491.183
285.9561, 4812.312
286.4382, 5122.210
286.9203, 5395.511
287.4025, 5619.554
287.8846, 5787.036
288.3667, 5877.454
288.8488, 5887.224
289.3309, 5808.833
289.8130, 5624.202
290.2952, 5368.137
290.7773, 5059.449
291.2594, 4708.966
291.7415, 4332.437
292.2236, 3956.002
292.7057, 3563.166
293.1879, 3203.629
293.6700, 2875.585
294.1521, 2576.994
294.6342, 2309.964
295.1163, 2073.821
295.5984, 1864.418
296.0806, 1677.014
296.5627, 1514.529
297.0448, 1369.875
297.5269, 1243.460
298.0090, 1131.093
298.4911, 1032.790
298.9733, 947.1008
299.4554, 871.2120
299.9375, 802.4663
300.4196, 740.6823
300.9017, 687.6711
301.3839, 646.3613
301.8660, 609.0972
302.3481, 571.9669
302.8302, 535.8321
303.3123, 503.6810
303.7944, 477.8282
304.2766, 458.1797
304.7587, 439.5540
305.2408, 422.5146
305.7229, 405.6801
306.2050, 387.5875
306.6871, 369.6241
307.1693, 354.4673
307.6514, 343.8146
308.1335, 336.5364
308.6156, 327.8569
309.0977, 317.1457
309.5798, 305.6358
310.0620, 291.6080
310.5441, 277.4049
311.0262, 266.4421
311.5083, 260.0264
311.9904, 255.9236
312.4725, 249.2117
312.9547, 235.6315
313.4368, 225.1891
313.9189, 218.9004
314.4010, 214.9763
314.8831, 212.6500
315.3652, 211.4325
315.8474, 209.9324
316.3295, 206.0624
316.8116, 198.3889
317.2937, 192.0044
317.7758, 187.0670
318.2579, 183.0809
318.7401, 180.0761
319.2222, 177.8597
319.7043, 175.9346
320.1864, 173.9087
320.6685, 171.8850
321.1506, 168.8900
321.6328, 163.4684
322.1149, 158.6705
322.5970, 156.2530
323.0791, 155.4839
323.5612, 154.3404
324.0433, 151.2751
324.5255, 146.6017
325.0076, 143.7504
325.4897, 144.6660
325.9718, 145.1974
326.4539, 144.7429
326.9360, 143.3997
327.4182, 141.2458
327.9003, 138.2895
328.3824, 134.8628
328.8645, 131.8733
329.3466, 129.1756
329.8287, 127.1958
330.3109, 126.7042
330.7930, 126.5026
331.2751, 125.3993
331.7572, 123.0972
332.2393, 120.2938
332.7214, 118.0548
333.2036, 116.6060
333.6857, 115.2458
334.1678, 113.5823
334.6499, 112.2871
335.1320, 112.2454
335.6141, 113.1954
336.0963, 113.8585
336.5784, 112.9268
337.0605, 110.2342
337.5426, 107.3436
338.0247, 102.9308
338.5068, 99.63568
338.9890, 98.77838
339.4711, 99.74718
339.9532, 101.3858
340.4353, 103.0852
340.9174, 104.6359
341.3995, 104.6612
341.8817, 101.1834
342.3638, 98.51421
342.8459, 98.32737
343.3280, 98.89978
343.8101, 97.94057
344.2922, 94.47611
344.7744, 89.80583
345.2565, 86.82881
345.7386, 86.68568
346.2207, 86.06525
346.7028, 83.92754
347.1849, 81.82868
347.6671, 80.91069
348.1492, 81.36050
348.6313, 82.63418
349.1134, 84.49093
349.5955, 87.50687
350.0776, 88.49819
350.5598, 85.36273
351.0419, 82.03268
351.5240, 79.92384
352.0061, 78.99944
352.4882, 78.72144
352.9703, 78.96217
353.4525, 79.55900
353.9346, 78.66819
354.4167, 74.00725
354.8988, 70.97598
355.3809, 72.72600
355.8630, 76.45157
356.3452, 78.10358
356.8273, 75.54546
357.3094, 70.85466
357.7915, 68.73729
358.2736, 70.31520
358.7557, 71.60288
359.2379, 71.63953
359.7200, 71.09796
360.2021, 70.33121
360.6842, 69.43700
361.1663, 68.61897
361.6484, 68.07481
362.1306, 67.81232
362.6127, 67.78904
363.0948, 68.27650
363.5769, 68.74153
364.0590, 68.87077
364.5411, 68.70690
365.0233, 68.47601
365.5054, 68.49439
365.9875, 68.60091
366.4696, 67.95945
366.9517, 66.06129
367.4338, 64.40924
367.9160, 63.60230
368.3981, 63.53556
368.8802, 64.16901
369.3623, 65.65676
369.8444, 67.59984
370.3265, 69.84396
370.8087, 72.59137
371.2908, 73.88094
371.7729, 71.93758
372.2550, 68.78551
372.7371, 66.37677
373.2192, 64.88336
373.7014, 64.24816
374.1835, 64.77920
374.6656, 66.24056
375.1477, 67.69858
375.6298, 69.25636
376.1119, 70.23384
376.5941, 69.70946
377.0762, 67.93739
377.5583, 66.21005
378.0404, 65.04498
378.5225, 64.18192
379.0046, 62.88771
379.4868, 60.98544
379.9689, 60.20795
380.4510, 62.45775
380.9331, 66.73500
381.4152, 69.87743
381.8973, 71.90206
382.3795, 72.46208
382.8616, 70.49645
383.3437, 66.61925
383.8258, 63.17239
384.3079, 60.86719
384.7900, 59.82708
385.2722, 60.81039
385.7543, 64.56401
386.2364, 67.22166
386.7185, 67.30537
387.2006, 65.87722
387.6827, 63.90078
388.1649, 61.56976
388.6470, 59.79908
389.1291, 59.76090
389.6112, 61.77281
390.0933, 62.75814
390.5754, 61.71246
391.0576, 60.54273
391.5397, 60.30585
392.0218, 60.94732
392.5039, 62.16856
392.9860, 63.94317
393.4681, 65.96193
393.9503, 66.65131
394.4324, 64.67686
394.9145, 63.14303
395.3966, 62.36710
395.8787, 62.32298
396.3608, 63.16203
396.8430, 64.88807
397.3251, 66.99319
397.8072, 68.77645
398.2893, 70.39590
398.7714, 71.17474
399.2535, 70.73549
399.7357, 69.92319
400.2178, 69.21871
400.6999, 68.58714
401.1820, 67.56568
401.6641, 65.55751
402.1462, 62.80618
402.6284, 62.40046
403.1105, 68.08999
403.5926, 71.68379
404.0747, 70.29606
404.5568, 66.65542
405.0389, 64.08282
405.5211, 63.86549
406.0032, 64.65060
406.4853, 63.82953
406.9674, 60.41105
407.4495, 58.43266
407.9316, 59.85910
408.4138, 61.55774
408.8959, 61.65620
409.3780, 60.27175
409.8601, 58.87907
410.3422, 59.32313
410.8243, 61.10717
411.3065, 59.65063
411.7886, 51.90326
412.2707, 46.15461
412.7528, 47.93026
413.2349, 53.22170
413.7170, 56.11275
414.1992, 53.87297
414.6813, 50.03386
415.1634, 49.51297
415.6455, 52.49751
416.1276, 55.22244
416.6097, 57.01003
417.0919, 57.62180
417.5740, 56.51295
418.0561, 53.64803
418.5382, 51.21795
419.0203, 50.33488
419.5024, 50.73404
419.9846, 52.33516
420.4667, 55.51878
420.9488, 58.03875
421.4309, 57.57566
421.9130, 54.87499
422.3951, 52.76036
422.8773, 51.16426
423.3594, 50.57352
423.8415, 51.93868
424.3236, 54.75144
424.8057, 57.14075
425.2878, 58.35844
425.7700, 58.65781
426.2521, 58.45065
426.7342, 57.60456
427.2163, 56.73881
427.6984, 55.67923
428.1805, 54.80023
428.6627, 54.65332
429.1448, 55.24744
429.6269, 55.94160
430.1090, 56.19852
430.5911, 56.01877
431.0732, 55.30515
431.5554, 53.26200
432.0375, 51.66030
432.5196, 51.08025
433.0017, 51.34990
433.4838, 52.49773
433.9659, 54.55748
434.4481, 56.59160
434.9302, 56.30870
435.4123, 51.20708
435.8944, 48.38374
436.3765, 49.66782
436.8586, 51.60596
437.3408, 51.71445
437.8229, 50.10024
438.3050, 48.70476
438.7871, 49.46995
439.2692, 52.19936
439.7513, 53.33912
440.2335, 51.32890
440.7156, 49.94093
441.1977, 51.00981
441.6798, 52.99263
442.1619, 53.86005
442.6440, 52.82586
443.1262, 51.01900
443.6083, 49.80884
444.0904, 49.19927
444.5725, 49.19037
445.0546, 50.33723
445.5367, 51.53098
446.0189, 52.02800
446.5010, 51.85579
446.9831, 51.25778
447.4652, 49.39784
447.9473, 47.48849
448.4294, 48.60444
448.9116, 53.31408
449.3937, 56.73599
449.8758, 55.07786
450.3579, 50.57938
450.8400, 48.42138
451.3221, 49.87825
451.8043, 51.44390
452.2864, 50.90975
452.7685, 49.19880
453.2506, 48.32159
453.7327, 48.82582
454.2148, 49.98267
454.6970, 51.29165
455.1791, 52.94979
455.6612, 52.63703
456.1433, 47.73939
456.6254, 43.17798
457.1075, 42.26477
457.5897, 44.25245
458.0718, 46.51471
458.5539, 47.62391
459.0360, 47.94077
459.5181, 48.60189
460.0002, 50.39433
460.4824, 51.46229
460.9645, 51.11407
461.4466, 50.49423
461.9287, 50.92306
462.4108, 52.28994
462.8929, 52.99168
463.3751, 51.09942
463.8572, 46.57621
464.3393, 44.24498
464.8214, 46.30887
465.3035, 47.94598
465.7856, 46.82310
466.2678, 44.93209
466.7499, 45.35860
467.2320, 49.41819
467.7141, 54.14431
468.1962, 54.70060
468.6783, 50.58353
469.1605, 47.95034
469.6426, 48.96469
470.1247, 50.43780
470.6068, 49.70475
471.0889, 47.33814
471.5710, 45.82434
472.0532, 47.49038
472.5353, 50.20633
473.0174, 50.34137
473.4995, 47.79676
473.9816, 45.05206
474.4637, 43.02736
474.9459, 41.71958
475.4280, 40.96384
475.9101, 40.74018
476.3922, 41.08530
476.8743, 42.66404
477.3564, 44.56725
477.8386, 45.11990
478.3207, 44.09844
478.8028, 43.39476
479.2849, 45.06186
479.7670, 49.10971
480.2491, 50.78331
480.7313, 48.15975
481.2134, 45.69714
481.6955, 45.06724
482.1776, 45.54350
482.6597, 46.01598
483.1418, 46.06092
483.6240, 45.81741
484.1061, 45.47259
484.5882, 44.89616
485.0703, 44.59710
485.5524, 44.78572
486.0345, 45.02467
486.5167, 44.85392
486.9988, 44.57980
487.4809, 44.99863
487.9630, 46.74445
488.4451, 49.14071
488.9272, 50.51237
489.4094, 50.71687
489.8915, 50.31487
490.3736, 48.54220
490.8557, 46.82380
491.3378, 46.42588
491.8199, 47.34121
492.3021, 48.03535
492.7842, 47.08586
493.2663, 45.24154
493.7484, 44.41763
494.2305, 44.84588
494.7126, 45.42419
495.1948, 45.16178
495.6769, 44.70911
496.1590, 45.77229
496.6411, 49.68991
497.1232, 52.71441
497.6053, 52.33138
498.0875, 50.05952
498.5696, 48.46979
499.0517, 48.15961
499.5338, 48.40802
500.0159, 48.55188
500.4980, 48.60428
500.9802, 48.27385
501.4623, 47.35306
501.9444, 46.32619
502.4265, 44.93034
502.9086, 43.66361
503.3907, 43.39681
503.8729, 44.46349
504.3550, 46.25426
504.8371, 47.75417
505.3192, 48.98211
505.8013, 49.87309
506.2834, 51.13442
506.7656, 51.39160
507.2477, 49.28539
507.7298, 45.68838
508.2119, 42.49355
508.6940, 40.62202
509.1761, 39.97420
509.6583, 40.79635
510.1404, 43.50349
510.6225, 45.24352
511.1046, 44.71832
511.5867, 43.30984
512.0688, 42.05945
512.5510, 41.02725
513.0331, 40.49633
513.5152, 40.76842
513.9973, 41.54477
514.4794, 42.52939
514.9615, 43.70034
515.4437, 44.74387
515.9258, 45.63485
516.4079, 46.17060
516.8900, 45.61118
517.3721, 43.24505
517.8542, 41.41462
518.3364, 41.07008
518.8185, 41.24430
519.3006, 40.67813
519.7827, 39.39328
520.2648, 38.69467
520.7469, 39.85387
521.2291, 42.69101
521.7112, 44.50526
522.1933, 45.12115
522.6754, 44.80379
523.1575, 42.21873
523.6396, 39.47321
524.1218, 38.97757
524.6039, 41.08960
525.0860, 43.81170
525.5681, 45.03688
526.0502, 44.78817
526.5323, 44.55085
527.0145, 43.99468
527.4966, 44.04973
527.9787, 46.24812
528.4608, 48.93341
528.9429, 49.55965
529.4250, 47.06561
529.9072, 43.98628
530.3893, 42.48240
530.8714, 42.08369
531.3535, 41.13979
531.8356, 39.22966
532.3177, 37.17405
532.7999, 35.41825
533.2820, 34.09152
533.7641, 34.24821
534.2462, 38.03179
534.7283, 41.04686
535.2104, 40.56746
535.6926, 38.12030
536.1747, 36.16569
536.6568, 35.55857
537.1389, 36.09205
537.6210, 37.65393
538.1031, 40.71285
538.5853, 42.75840
539.0674, 43.53327
539.5495, 43.62778
540.0316, 42.45839
540.5137, 40.94280
540.9958, 40.89257
541.4780, 43.17598
541.9601, 45.52437
542.4422, 43.67780
542.9243, 37.16803
543.4064, 33.25621
543.8885, 34.61517
544.3707, 36.47772
544.8528, 34.64620
545.3349, 30.73273
545.8170, 29.17591
546.2991, 33.35921
546.7813, 38.16290
547.2634, 37.94690
547.7455, 34.01954
548.2276, 31.81791
548.7097, 33.27658
549.1918, 36.13673
549.6740, 37.48325
550.1561, 36.93061
550.6382, 36.87745
551.1203, 38.78475
551.6024, 39.76568
552.0845, 36.83764
552.5667, 32.10384
553.0488, 30.01686
553.5309, 32.50584
554.0130, 36.97882
554.4951, 38.63192
554.9772, 36.20468
555.4594, 34.78445
555.9415, 35.38851
556.4236, 36.04398
556.9057, 36.13332
557.3878, 35.69622
557.8699, 34.78233
558.3521, 33.21039
558.8342, 31.77253
559.3163, 31.72901
559.7984, 33.03053
560.2805, 34.35788
560.7626, 35.74288
561.2448, 36.55063
561.7269, 35.53691
562.2090, 33.18337
562.6911, 31.78846
563.1732, 32.55283
563.6553, 33.66511
564.1375, 34.15743
564.6196, 34.06237
565.1017, 33.24225
565.5838, 31.60915
566.0659, 30.16737
566.5480, 30.48722
567.0302, 33.23636
567.5123, 34.78776
567.9944, 34.56884
568.4765, 33.95284
568.9586, 33.17075
569.4407, 32.40110
569.9229, 31.85762
570.4050, 31.61934
570.8871, 31.57258
571.3692, 31.52260
571.8513, 31.45536
572.3334, 31.69854
572.8156, 32.42452
573.2977, 33.24103
573.7798, 34.52586
574.2619, 35.64280
574.7440, 35.01894
575.2261, 30.91892
575.7083, 27.70038
576.1904, 30.43642
576.6725, 36.38234
577.1546, 38.39741
577.6367, 34.74937
578.1188, 29.55198
578.6010, 26.41117
579.0831, 25.34119
579.5652, 25.21442
580.0473, 26.59492
580.5294, 28.09131
581.0115, 29.70376
581.4937, 31.04437
581.9758, 31.67430
582.4579, 31.50593
582.9400, 30.71127
583.4221, 29.12494
583.9042, 26.85196
584.3864, 26.65611
584.8685, 30.54615
585.3506, 32.92887
585.8327, 31.21894
586.3148, 27.52804
586.7969, 23.08852
587.2791, 18.00865
587.7612, 15.22284
588.2433, 18.42171
588.7254, 24.73440
589.2075, 28.70410
589.6896, 29.91431
