##NAMES=Rhomboclase
##RRUFFID=R070507
##IDEAL CHEMISTRY=(H_5_O_2_)Fe^3+^(S^6+^O_4_)_2_&#183;2H_2_O
##LOCALITY=Alcaparrosa, Antofogasta, Chile
##OWNER=RRUFF
##SOURCE=James Shigley
##DESCRIPTION=Colorless tabular crystals, associated with pale yellow-brown r√∂merite and colorless prismatic or acicular ferrinatrite (R170042)..
##STATUS=The identification of this mineral has been confirmed by single-crystal X-ray diffraction.
##URL=rruff.info/R070507
148.3985, 14229.32
148.8806, 14584.61
149.3628, 14910.57
149.8449, 15208.28
150.3270, 15481.08
150.8091, 15742.75
151.2912, 16015.60
151.7733, 16237.21
152.2555, 16396.27
152.7376, 16501.33
153.2197, 16563.60
153.7018, 16587.13
154.1839, 16574.12
154.6660, 16532.42
155.1481, 16417.54
155.6303, 16330.42
156.1124, 16295.92
156.5945, 16302.70
157.0766, 16331.67
157.5587, 16370.42
158.0408, 16421.31
158.5230, 16502.39
159.0051, 16628.76
159.4872, 16774.56
159.9693, 16926.41
160.4514, 17022.08
160.9335, 17082.94
161.4157, 17158.37
161.8978, 17246.76
162.3799, 17329.39
162.8620, 17402.70
163.3441, 17475.65
163.8262, 17564.67
164.3084, 17655.79
164.7905, 17724.34
165.2726, 17752.43
165.7547, 17743.28
166.2368, 17731.03
166.7189, 17733.60
167.2011, 17718.82
167.6832, 17670.44
168.1653, 17600.05
168.6474, 17530.96
169.1295, 17480.68
169.6116, 17449.25
170.0938, 17407.20
170.5759, 17352.03
171.0580, 17291.29
171.5401, 17225.38
172.0222, 17155.56
172.5043, 17080.84
172.9865, 16997.47
173.4686, 16904.81
173.9507, 16843.40
174.4328, 16835.38
174.9149, 16828.43
175.3970, 16800.89
175.8792, 16758.29
176.3613, 16719.03
176.8434, 16697.01
177.3255, 16691.90
177.8076, 16678.86
178.2897, 16632.92
178.7719, 16603.63
179.2540, 16618.85
179.7361, 16667.35
180.2182, 16720.14
180.7003, 16758.53
181.1824, 16782.78
181.6646, 16780.14
182.1467, 16711.17
182.6288, 16661.08
183.1109, 16679.68
183.5930, 16747.92
184.0751, 16809.01
184.5573, 16819.11
185.0394, 16780.01
185.5215, 16774.62
186.0036, 16818.04
186.4857, 16870.98
186.9678, 16930.41
187.4500, 16988.48
187.9321, 17023.75
188.4142, 17016.25
188.8963, 16969.69
189.3784, 16966.75
189.8605, 17033.64
190.3427, 17106.49
190.8248, 17164.33
191.3069, 17207.93
191.7890, 17243.34
192.2711, 17272.50
192.7532, 17296.62
193.2354, 17331.24
193.7175, 17381.07
194.1996, 17433.94
194.6817, 17478.91
195.1638, 17522.42
195.6459, 17585.36
196.1281, 17685.56
196.6102, 17814.21
197.0923, 17899.95
197.5744, 17927.91
198.0565, 17940.37
198.5386, 17931.55
199.0208, 17917.49
199.5029, 17939.54
199.9850, 18029.39
200.4671, 18168.58
200.9492, 18249.12
201.4313, 18237.29
201.9135, 18219.85
202.3956, 18219.22
202.8777, 18232.21
203.3598, 18252.21
203.8419, 18276.95
204.3240, 18304.19
204.8061, 18324.19
205.2883, 18326.95
205.7704, 18334.93
206.2525, 18358.28
206.7346, 18390.13
207.2167, 18419.17
207.6988, 18440.53
208.1810, 18453.62
208.6631, 18455.03
209.1452, 18418.67
209.6273, 18403.99
210.1094, 18446.53
210.5915, 18513.97
211.0737, 18555.17
211.5558, 18548.08
212.0379, 18505.15
212.5200, 18454.78
213.0021, 18380.14
213.4842, 18324.13
213.9664, 18304.20
214.4485, 18303.65
214.9306, 18299.36
215.4127, 18282.76
215.8948, 18261.76
216.3769, 18253.51
216.8591, 18278.43
217.3412, 18279.91
217.8233, 18222.07
218.3054, 18150.41
218.7875, 18123.40
219.2696, 18158.80
219.7518, 18220.20
220.2339, 18246.23
220.7160, 18202.44
221.1981, 18193.61
221.6802, 18247.74
222.1623, 18325.44
222.6445, 18383.67
223.1266, 18413.92
223.6087, 18445.37
224.0908, 18519.85
224.5729, 18667.57
225.0550, 18783.76
225.5372, 18832.06
226.0193, 18873.70
226.5014, 18956.95
226.9835, 19088.79
227.4656, 19247.67
227.9477, 19411.61
228.4298, 19584.03
228.9120, 19749.80
229.3941, 19917.32
229.8762, 20073.25
230.3583, 20200.07
230.8404, 20302.23
231.3225, 20406.18
231.8047, 20536.67
232.2868, 20697.99
232.7689, 20859.53
233.2510, 21015.42
233.7331, 21175.99
234.2152, 21350.19
234.6974, 21535.51
235.1795, 21717.93
235.6616, 21885.79
236.1437, 22038.78
236.6258, 22212.96
237.1079, 22455.98
237.5901, 22669.12
238.0722, 22817.95
238.5543, 22911.24
239.0364, 22977.78
239.5185, 23039.67
240.0006, 23088.84
240.4828, 23055.56
240.9649, 22923.15
241.4470, 22727.13
241.9291, 22431.74
242.4112, 22084.88
242.8933, 21755.05
243.3755, 21475.65
243.8576, 21235.89
244.3397, 20991.10
244.8218, 20733.14
245.3039, 20480.60
245.7860, 20239.41
246.2682, 20001.09
246.7503, 19751.26
247.2324, 19483.95
247.7145, 19216.42
248.1966, 18987.30
248.6787, 18797.44
249.1609, 18647.58
249.6430, 18565.42
250.1251, 18500.13
250.6072, 18406.39
251.0893, 18274.65
251.5714, 18133.73
252.0535, 18028.61
252.5357, 17974.66
253.0178, 17918.45
253.4999, 17853.70
253.9820, 17790.68
254.4641, 17735.74
254.9462, 17689.35
255.4284, 17647.84
255.9105, 17606.29
256.3926, 17563.01
256.8747, 17529.60
257.3568, 17507.57
257.8390, 17494.87
258.3211, 17500.31
258.8032, 17516.45
259.2853, 17523.65
259.7674, 17504.19
260.2495, 17459.22
260.7317, 17415.27
261.2138, 17362.34
261.6959, 17323.66
262.1780, 17320.63
262.6601, 17335.78
263.1422, 17336.76
263.6244, 17301.09
264.1065, 17240.67
264.5886, 17195.44
265.0707, 17172.09
265.5528, 17152.60
266.0349, 17130.99
266.5170, 17109.17
266.9991, 17089.75
267.4813, 17074.66
267.9634, 17060.56
268.4455, 17045.05
268.9276, 17031.59
269.4097, 17002.67
269.8918, 16934.66
270.3740, 16856.36
270.8561, 16790.39
271.3382, 16741.95
271.8203, 16701.11
272.3024, 16658.88
272.7845, 16615.10
273.2667, 16570.53
273.7488, 16522.58
274.2309, 16476.55
274.7130, 16438.27
275.1951, 16407.96
275.6772, 16378.66
276.1594, 16349.25
276.6415, 16317.94
277.1236, 16277.03
277.6057, 16221.64
278.0878, 16162.96
278.5699, 16110.64
279.0521, 16064.15
279.5342, 16022.12
280.0163, 15983.04
280.4984, 15948.69
280.9805, 15929.23
281.4626, 15929.66
281.9448, 15915.98
282.4269, 15848.17
282.9090, 15739.86
283.3911, 15654.53
283.8732, 15615.75
284.3553, 15591.08
284.8375, 15552.71
285.3196, 15502.13
285.8017, 15457.55
286.2838, 15433.54
286.7659, 15422.58
287.2480, 15393.10
287.7302, 15323.42
288.2123, 15261.33
288.6944, 15228.39
289.1765, 15217.01
289.6586, 15212.67
290.1407, 15210.84
290.6229, 15208.41
291.1050, 15198.62
291.5871, 15187.54
292.0692, 15159.12
292.5513, 15093.67
293.0334, 15017.61
293.5156, 14959.13
293.9977, 14925.50
294.4798, 14907.67
294.9619, 14894.19
295.4440, 14884.51
295.9261, 14881.85
296.4083, 14892.31
296.8904, 14904.10
297.3725, 14914.57
297.8546, 14920.46
298.3367, 14912.61
298.8188, 14879.57
299.3010, 14818.33
299.7831, 14782.68
300.2652, 14801.36
300.7473, 14814.22
301.2294, 14796.33
301.7115, 14760.93
302.1937, 14733.89
302.6758, 14731.46
303.1579, 14746.44
303.6400, 14749.68
304.1221, 14726.75
304.6042, 14714.79
305.0864, 14730.55
305.5685, 14753.71
306.0506, 14762.88
306.5327, 14751.01
307.0148, 14731.08
307.4969, 14725.29
307.9791, 14740.84
308.4612, 14743.93
308.9433, 14715.76
309.4254, 14684.24
309.9075, 14665.26
310.3896, 14659.63
310.8718, 14656.77
311.3539, 14647.94
311.8360, 14633.69
312.3181, 14619.09
312.8002, 14599.40
313.2823, 14587.07
313.7644, 14591.52
314.2466, 14608.25
314.7287, 14625.99
315.2108, 14644.13
315.6929, 14658.37
316.1750, 14659.31
316.6571, 14645.01
317.1393, 14627.36
317.6214, 14607.89
318.1035, 14590.66
318.5856, 14582.92
319.0677, 14586.13
319.5498, 14598.02
320.0320, 14625.67
320.5141, 14663.52
320.9962, 14684.92
321.4783, 14676.82
321.9604, 14651.82
322.4425, 14629.12
322.9247, 14604.67
323.4068, 14594.62
323.8889, 14612.86
324.3710, 14644.64
324.8531, 14669.87
325.3352, 14684.42
325.8174, 14697.17
326.2995, 14720.53
326.7816, 14759.50
327.2637, 14774.81
327.7458, 14751.11
328.2279, 14718.23
328.7101, 14691.24
329.1922, 14670.73
329.6743, 14651.24
330.1564, 14628.34
330.6385, 14603.67
331.1206, 14590.91
331.6028, 14601.93
332.0849, 14611.14
332.5670, 14608.38
333.0491, 14603.92
333.5312, 14614.32
334.0133, 14645.65
334.4955, 14683.37
334.9776, 14698.71
335.4597, 14680.35
335.9418, 14664.00
336.4239, 14643.46
336.9060, 14630.96
337.3882, 14643.26
337.8703, 14676.01
338.3524, 14701.87
338.8345, 14686.62
339.3166, 14630.40
339.7987, 14604.39
340.2809, 14626.33
340.7630, 14656.40
341.2451, 14678.66
341.7272, 14695.31
342.2093, 14710.57
342.6914, 14725.57
343.1736, 14741.00
343.6557, 14761.21
344.1378, 14788.74
344.6199, 14804.68
345.1020, 14784.78
345.5841, 14758.12
346.0663, 14761.70
346.5484, 14803.93
347.0305, 14857.49
347.5126, 14919.02
347.9947, 14979.06
348.4768, 15000.92
348.9590, 14966.42
349.4411, 14917.59
349.9232, 14909.35
350.4053, 14941.46
350.8874, 14964.50
351.3695, 14955.53
351.8517, 14943.47
352.3338, 14957.92
352.8159, 14998.50
353.2980, 15042.97
353.7801, 15075.65
354.2622, 15097.68
354.7444, 15121.43
355.2265, 15128.61
355.7086, 15157.56
356.1907, 15244.59
356.6728, 15353.57
357.1549, 15424.24
357.6371, 15433.04
358.1192, 15413.32
358.6013, 15430.51
359.0834, 15505.74
359.5655, 15580.76
360.0476, 15650.18
360.5298, 15723.13
361.0119, 15812.81
361.4940, 15914.50
361.9761, 16004.91
362.4582, 16055.00
362.9403, 16067.40
363.4224, 16120.19
363.9045, 16241.14
364.3867, 16367.44
364.8688, 16478.24
365.3509, 16579.06
365.8330, 16678.31
366.3151, 16777.65
366.7972, 16878.79
367.2794, 16982.62
367.7615, 17089.22
368.2436, 17201.34
368.7257, 17324.46
369.2078, 17451.10
369.6899, 17578.11
370.1721, 17705.72
370.6542, 17821.14
371.1363, 17905.13
371.6184, 17974.18
372.1005, 18061.57
372.5826, 18172.96
373.0648, 18295.75
373.5469, 18423.02
374.0290, 18554.29
374.5111, 18682.91
374.9932, 18816.26
375.4753, 18939.81
375.9575, 19057.36
376.4396, 19160.06
376.9217, 19222.18
377.4038, 19228.24
377.8859, 19195.27
378.3680, 19166.71
378.8502, 19152.58
379.3323, 19128.77
379.8144, 19099.78
380.2965, 19057.83
380.7786, 19000.90
381.2607, 18926.21
381.7429, 18825.41
382.2250, 18688.30
382.7071, 18513.05
383.1892, 18325.83
383.6713, 18104.85
384.1534, 17893.63
384.6356, 17707.53
385.1177, 17539.35
385.5998, 17378.84
386.0819, 17223.24
386.5640, 17066.37
387.0461, 16892.01
387.5283, 16693.85
388.0104, 16510.12
388.4925, 16350.61
388.9746, 16211.05
389.4567, 16089.65
389.9388, 15986.29
390.4210, 15888.05
390.9031, 15791.72
391.3852, 15694.05
391.8673, 15580.08
392.3494, 15443.34
392.8315, 15319.75
393.3137, 15246.43
393.7958, 15213.83
394.2779, 15161.86
394.7600, 15071.78
395.2421, 14977.61
395.7242, 14893.28
396.2064, 14819.12
396.6885, 14755.25
397.1706, 14701.92
397.6527, 14658.84
398.1348, 14627.11
398.6169, 14621.38
399.0991, 14598.91
399.5812, 14544.63
400.0633, 14486.23
400.5454, 14441.17
401.0275, 14410.67
401.5096, 14387.18
401.9918, 14364.21
402.4739, 14342.69
402.9560, 14333.00
403.4381, 14353.82
403.9202, 14358.64
404.4023, 14324.51
404.8845, 14275.67
405.3666, 14237.25
405.8487, 14216.87
406.3308, 14208.45
406.8129, 14207.72
407.2950, 14214.41
407.7772, 14220.08
408.2593, 14225.50
408.7414, 14226.34
409.2235, 14216.18
409.7056, 14197.70
410.1877, 14183.05
410.6699, 14183.51
411.1520, 14185.59
411.6341, 14169.83
412.1162, 14138.19
412.5983, 14113.16
413.0804, 14106.53
413.5625, 14114.35
414.0446, 14125.84
414.5268, 14142.67
415.0089, 14159.52
415.4910, 14177.86
415.9731, 14194.55
416.4552, 14204.03
416.9373, 14206.49
417.4195, 14210.09
417.9016, 14224.11
418.3837, 14249.89
418.8658, 14268.30
419.3479, 14276.74
419.8300, 14280.43
420.3122, 14271.04
420.7943, 14260.63
421.2764, 14267.14
421.7585, 14298.75
422.2406, 14343.41
422.7227, 14387.91
423.2049, 14436.04
423.6870, 14456.93
424.1691, 14417.29
424.6512, 14376.48
425.1333, 14379.47
425.6154, 14421.13
426.0976, 14465.56
426.5797, 14493.57
427.0618, 14515.21
427.5439, 14542.38
428.0260, 14575.47
428.5081, 14623.38
428.9903, 14699.36
429.4724, 14788.58
429.9545, 14846.96
430.4366, 14853.26
430.9187, 14871.93
431.4008, 14935.97
431.8830, 15013.82
432.3651, 15063.32
432.8472, 15078.85
433.3293, 15090.51
433.8114, 15128.99
434.2935, 15196.28
434.7757, 15263.77
435.2578, 15330.16
435.7399, 15398.01
436.2220, 15482.76
436.7041, 15564.66
437.1862, 15611.06
437.6684, 15608.05
438.1505, 15589.32
438.6326, 15609.25
439.1147, 15673.08
439.5968, 15729.86
440.0789, 15777.89
440.5611, 15810.51
441.0432, 15816.65
441.5253, 15803.11
442.0074, 15796.30
442.4895, 15816.02
442.9716, 15843.19
443.4538, 15846.88
443.9359, 15829.91
444.4180, 15830.84
444.9001, 15872.97
445.3822, 15936.89
445.8643, 15977.81
446.3465, 15983.21
446.8286, 16001.28
447.3107, 16058.72
447.7928, 16119.87
448.2749, 16148.02
448.7570, 16143.54
449.2392, 16134.19
449.7213, 16143.94
450.2034, 16169.32
450.6855, 16173.50
451.1676, 16170.04
451.6497, 16123.48
452.1319, 15995.90
452.6140, 15842.88
453.0961, 15722.20
453.5782, 15646.74
454.0603, 15579.99
454.5424, 15476.93
455.0246, 15342.62
455.5067, 15239.39
455.9888, 15183.56
456.4709, 15134.02
456.9530, 15046.96
457.4352, 14946.90
457.9173, 14888.61
458.3994, 14909.41
458.8815, 14939.84
459.3636, 14923.06
459.8457, 14878.77
460.3279, 14859.19
460.8100, 14881.80
461.2921, 14922.17
461.7742, 14947.93
462.2563, 14953.33
462.7384, 14968.27
463.2205, 15001.68
463.7026, 15035.22
464.1848, 15060.92
464.6669, 15080.08
465.1490, 15097.25
465.6311, 15114.75
466.1132, 15130.47
466.5953, 15133.45
467.0775, 15109.63
467.5596, 15122.42
468.0417, 15242.00
468.5238, 15348.17
469.0059, 15352.32
469.4880, 15274.58
469.9702, 15214.67
470.4523, 15245.68
470.9344, 15313.66
471.4165, 15339.85
471.8986, 15324.42
472.3807, 15276.26
472.8629, 15187.91
473.3450, 15080.71
473.8271, 15001.23
474.3092, 14955.19
474.7913, 14910.54
475.2734, 14870.49
475.7556, 14822.75
476.2377, 14749.52
476.7198, 14655.47
477.2019, 14565.49
477.6840, 14498.23
478.1661, 14448.32
478.6483, 14388.48
479.1304, 14315.73
479.6125, 14236.99
480.0946, 14149.31
480.5767, 14059.77
481.0588, 13972.37
481.5410, 13888.85
482.0231, 13811.74
482.5052, 13742.56
482.9873, 13681.74
483.4694, 13632.44
483.9515, 13598.64
484.4337, 13558.71
484.9158, 13491.25
485.3979, 13414.76
485.8800, 13367.69
486.3621, 13359.94
486.8442, 13359.45
487.3264, 13365.81
487.8085, 13366.98
488.2906, 13341.43
488.7727, 13289.03
489.2548, 13237.04
489.7369, 13211.22
490.2191, 13208.58
490.7012, 13181.93
491.1833, 13085.81
491.6654, 13021.14
492.1475, 13022.92
492.6296, 13049.71
493.1118, 13063.80
493.5939, 13056.43
494.0760, 13037.26
494.5581, 13011.37
495.0402, 12980.54
495.5223, 12958.41
496.0045, 12950.22
496.4866, 12937.26
496.9687, 12905.70
497.4508, 12863.17
497.9329, 12822.08
498.4150, 12777.88
498.8972, 12746.69
499.3793, 12743.79
499.8614, 12756.18
500.3435, 12766.89
500.8256, 12772.12
501.3077, 12769.22
501.7899, 12753.62
502.2720, 12725.99
502.7541, 12710.19
503.2362, 12720.43
503.7183, 12725.51
504.2004, 12723.89
504.6826, 12712.83
505.1647, 12678.75
505.6468, 12623.08
506.1289, 12582.77
506.6110, 12612.22
507.0931, 12698.22
507.5753, 12735.34
508.0574, 12706.42
508.5395, 12670.04
509.0216, 12656.77
509.5037, 12657.47
509.9858, 12656.90
510.4680, 12655.56
510.9501, 12649.26
511.4322, 12636.85
511.9143, 12618.13
512.3964, 12588.78
512.8785, 12549.76
513.3607, 12515.18
513.8428, 12498.75
514.3249, 12498.27
514.8070, 12486.39
515.2891, 12431.76
515.7712, 12406.37
516.2534, 12447.59
516.7355, 12503.46
517.2176, 12527.40
517.6997, 12511.67
518.1818, 12478.21
518.6639, 12435.69
519.1461, 12390.20
519.6282, 12366.43
520.1103, 12366.56
520.5924, 12381.33
521.0745, 12418.52
521.5566, 12460.98
522.0388, 12475.99
522.5209, 12455.81
523.0030, 12430.47
523.4851, 12402.47
523.9672, 12378.57
524.4493, 12368.49
524.9315, 12370.85
525.4136, 12373.82
525.8957, 12368.84
526.3778, 12358.40
526.8599, 12352.60
527.3420, 12346.82
527.8242, 12354.59
528.3063, 12405.40
528.7884, 12446.76
529.2705, 12429.10
529.7526, 12361.05
530.2347, 12303.54
530.7169, 12304.34
531.1990, 12334.67
531.6811, 12339.81
532.1632, 12320.01
532.6453, 12299.72
533.1274, 12285.84
533.6096, 12279.65
534.0917, 12287.21
534.5738, 12313.77
535.0559, 12327.48
535.5380, 12313.47
536.0201, 12295.85
536.5022, 12289.57
536.9843, 12292.68
537.4664, 12299.32
537.9485, 12306.94
538.4307, 12311.61
538.9128, 12303.92
539.3949, 12280.17
539.8770, 12259.60
540.3591, 12235.76
540.8412, 12224.80
541.3234, 12249.02
541.8055, 12291.71
542.2876, 12310.95
542.7697, 12284.42
543.2518, 12243.65
543.7339, 12210.08
544.2161, 12184.54
544.6982, 12170.21
545.1803, 12168.12
545.6624, 12174.38
546.1445, 12186.73
546.6266, 12205.97
547.1088, 12216.46
547.5909, 12213.59
548.0730, 12208.24
548.5551, 12197.37
549.0372, 12188.11
549.5193, 12191.19
550.0015, 12207.90
550.4836, 12224.63
550.9657, 12227.03
551.4478, 12217.02
551.9299, 12206.49
552.4120, 12195.32
552.8942, 12183.72
553.3763, 12164.74
553.8584, 12149.26
554.3405, 12159.71
554.8226, 12207.73
555.3047, 12245.33
555.7869, 12255.08
556.2690, 12249.31
556.7511, 12233.33
557.2332, 12212.14
557.7153, 12201.07
558.1974, 12211.90
558.6796, 12231.59
559.1617, 12214.08
559.6438, 12125.64
560.1259, 12084.84
560.6080, 12150.31
561.0901, 12227.19
561.5723, 12274.43
562.0544, 12291.21
562.5365, 12284.62
563.0186, 12241.55
563.5007, 12195.97
563.9828, 12186.63
564.4650, 12206.76
564.9471, 12234.48
565.4292, 12265.38
565.9113, 12289.81
566.3934, 12293.84
566.8755, 12274.14
567.3577, 12270.63
567.8398, 12307.08
568.3219, 12329.15
568.8040, 12307.07
569.2861, 12269.77
569.7682, 12252.50
570.2504, 12262.89
570.7325, 12280.82
571.2146, 12288.37
571.6967, 12286.80
572.1788, 12279.19
572.6609, 12261.87
573.1431, 12256.60
573.6252, 12280.08
574.1073, 12317.85
574.5894, 12340.71
575.0715, 12343.13
575.5536, 12352.54
576.0358, 12395.43
576.5179, 12431.40
577.0000, 12410.19
577.4821, 12351.84
577.9642, 12322.75
578.4464, 12359.56
578.9285, 12428.83
579.4106, 12457.36
579.8927, 12432.04
580.3748, 12427.91
580.8569, 12460.75
581.3391, 12503.99
581.8212, 12547.27
582.3033, 12588.21
582.7854, 12620.74
583.2675, 12641.27
583.7496, 12657.26
584.2318, 12676.04
584.7139, 12692.89
585.1960, 12695.44
585.6781, 12682.78
586.1602, 12669.50
586.6423, 12666.15
587.1245, 12673.88
587.6066, 12703.47
588.0887, 12784.36
588.5708, 12840.71
589.0529, 12847.88
589.5350, 12841.49
590.0172, 12845.44
590.4993, 12861.46
590.9814, 12881.59
591.4635, 12899.58
591.9456, 12920.50
592.4277, 12958.96
592.9099, 13010.36
593.3920, 13043.57
593.8741, 13047.12
594.3562, 13034.90
594.8383, 13019.97
595.3204, 12998.85
595.8026, 13001.75
596.2847, 13059.78
596.7668, 13101.91
597.2489, 13086.35
597.7310, 13052.78
598.2131, 13056.18
598.6953, 13106.08
599.1774, 13155.77
599.6595, 13156.80
600.1416, 13121.96
600.6237, 13096.56
601.1058, 13081.16
601.5880, 13074.99
602.0701, 13081.31
602.5522, 13093.43
603.0343, 13098.95
603.5164, 13096.12
603.9985, 13095.58
604.4807, 13096.21
604.9628, 13101.59
605.4449, 13117.40
605.9270, 13138.77
606.4091, 13155.29
606.8912, 13162.69
607.3734, 13170.52
607.8555, 13200.69
608.3376, 13251.72
608.8197, 13262.75
609.3018, 13212.44
609.7839, 13170.38
610.2661, 13188.03
610.7482, 13234.75
611.2303, 13243.91
611.7124, 13195.71
612.1945, 13160.87
612.6766, 13170.61
613.1588, 13195.03
613.6409, 13213.77
614.1230, 13223.03
614.6051, 13219.15
615.0872, 13199.27
615.5693, 13172.22
616.0515, 13156.07
616.5336, 13152.71
617.0157, 13146.57
617.4978, 13131.58
617.9799, 13120.41
618.4620, 13124.76
618.9442, 13137.59
619.4263, 13145.50
619.9084, 13146.21
620.3905, 13142.14
620.8726, 13135.99
621.3547, 13124.63
621.8369, 13099.11
622.3190, 13062.57
622.8011, 13034.20
623.2832, 13028.52
623.7653, 13033.85
624.2474, 13014.42
624.7296, 12960.50
625.2117, 12915.90
625.6938, 12893.05
626.1759, 12872.70
626.6580, 12841.83
627.1401, 12804.27
627.6223, 12770.64
628.1044, 12746.65
628.5865, 12721.60
629.0686, 12684.34
629.5507, 12643.80
630.0328, 12614.07
630.5150, 12596.43
630.9971, 12584.71
631.4792, 12576.22
631.9613, 12566.56
632.4434, 12533.83
632.9255, 12458.74
633.4077, 12411.83
633.8898, 12429.47
634.3719, 12452.55
634.8539, 12443.25
635.3361, 12409.32
635.8182, 12378.66
636.3003, 12361.71
636.7824, 12346.46
637.2645, 12324.62
637.7466, 12299.04
638.2288, 12271.55
638.7109, 12243.84
639.1930, 12223.79
639.6751, 12218.24
640.1572, 12224.70
640.6393, 12233.16
641.1215, 12249.75
641.6036, 12253.37
642.0857, 12234.68
642.5678, 12207.27
643.0499, 12171.96
643.5320, 12134.19
