##NAMES=Rhomboclase
##RRUFFID=R070507
##IDEAL CHEMISTRY=(H_5_O_2_)Fe^3+^(S^6+^O_4_)_2_&#183;2H_2_O
##LOCALITY=Alcaparrosa, Antofogasta, Chile
##OWNER=RRUFF
##SOURCE=James Shigley
##DESCRIPTION=Colorless tabular crystals, associated with pale yellow-brown r√∂merite and colorless prismatic or acicular ferrinatrite (R170042)..
##STATUS=The identification of this mineral has been confirmed by single-crystal X-ray diffraction.
##URL=rruff.info/R070507
148.7090, 7635.942
149.1911, 7738.844
149.6732, 7832.868
150.1554, 7914.784
150.6375, 7989.960
151.1196, 8061.227
151.6017, 8131.309
152.0838, 8196.177
152.5659, 8246.863
153.0481, 8271.274
153.5302, 8330.517
154.0123, 8458.767
154.4944, 8616.605
154.9765, 8749.804
155.4586, 8821.877
155.9408, 8893.723
156.4229, 8984.364
156.9050, 9059.141
157.3871, 9110.731
157.8692, 9192.142
158.3513, 9292.314
158.8335, 9375.105
159.3156, 9415.880
159.7977, 9449.673
160.2798, 9495.440
160.7619, 9562.406
161.2440, 9634.988
161.7262, 9715.783
162.2083, 9801.408
162.6904, 9876.167
163.1725, 9939.318
163.6546, 9986.523
164.1367, 10013.90
164.6189, 10005.30
165.1010, 9989.833
165.5831, 9985.953
166.0652, 9992.437
166.5473, 9983.654
167.0294, 9939.761
167.5116, 9874.563
167.9937, 9804.744
168.4758, 9729.412
168.9579, 9656.060
169.4400, 9591.875
169.9221, 9538.006
170.4043, 9482.760
170.8864, 9405.733
171.3685, 9322.087
171.8506, 9258.463
172.3327, 9245.188
172.8148, 9250.071
173.2970, 9243.622
173.7791, 9223.102
174.2612, 9189.768
174.7433, 9136.313
175.2254, 9069.619
175.7076, 9008.838
176.1897, 8963.615
176.6718, 8931.904
177.1539, 8910.567
177.6360, 8900.300
178.1181, 8898.226
178.6003, 8909.094
179.0824, 8929.844
179.5645, 8939.605
180.0466, 8909.358
180.5287, 8858.167
181.0108, 8828.172
181.4930, 8833.325
181.9751, 8860.041
182.4572, 8887.561
182.9393, 8916.158
183.4214, 8950.455
183.9035, 9003.662
184.3857, 9067.745
184.8678, 9116.477
185.3499, 9133.931
185.8320, 9132.482
186.3141, 9134.908
186.7962, 9139.994
187.2784, 9159.521
187.7605, 9211.271
188.2426, 9291.190
188.7247, 9377.049
189.2068, 9467.717
189.6889, 9557.793
190.1711, 9624.097
190.6532, 9662.275
191.1353, 9691.115
191.6174, 9733.515
192.0995, 9788.576
192.5816, 9850.731
193.0638, 9912.360
193.5459, 9975.807
194.0280, 10067.10
194.5101, 10197.68
194.9922, 10336.02
195.4743, 10418.29
195.9565, 10440.05
196.4386, 10470.18
196.9207, 10562.38
197.4028, 10714.45
197.8849, 10819.30
198.3671, 10858.39
198.8492, 10860.94
199.3313, 10890.86
199.8134, 10949.38
200.2955, 11029.34
200.7776, 11140.50
201.2598, 11286.62
201.7419, 11396.81
202.2240, 11454.79
202.7061, 11475.95
203.1882, 11514.64
203.6703, 11574.48
204.1525, 11639.41
204.6346, 11701.33
205.1167, 11761.57
205.5988, 11807.22
206.0809, 11830.44
206.5630, 11836.85
207.0452, 11861.20
207.5273, 11909.35
208.0094, 11962.37
208.4915, 12006.60
208.9736, 12042.57
209.4557, 12066.40
209.9379, 12075.73
210.4200, 12071.42
210.9021, 12063.17
211.3842, 12049.01
211.8663, 12034.72
212.3484, 12032.28
212.8306, 12052.78
213.3127, 12048.65
213.7948, 12003.37
214.2769, 11915.70
214.7590, 11829.30
215.2411, 11738.90
215.7233, 11657.23
216.2054, 11608.53
216.6875, 11611.82
217.1696, 11596.54
217.6517, 11532.75
218.1338, 11408.74
218.6160, 11325.40
219.0981, 11294.47
219.5802, 11291.95
220.0623, 11280.55
220.5444, 11251.26
221.0265, 11232.13
221.5087, 11230.89
221.9908, 11247.34
222.4729, 11282.98
222.9550, 11338.51
223.4371, 11413.03
223.9192, 11508.76
224.4014, 11630.38
224.8835, 11761.22
225.3656, 11892.45
225.8477, 12021.10
226.3298, 12162.65
226.8119, 12317.23
227.2941, 12484.78
227.7762, 12671.83
228.2583, 12879.79
228.7404, 13097.72
229.2225, 13318.82
229.7046, 13540.36
230.1868, 13768.70
230.6689, 14001.84
231.1510, 14239.42
231.6331, 14485.89
232.1152, 14741.62
232.5974, 15002.36
233.0795, 15271.62
233.5616, 15550.64
234.0437, 15832.17
234.5258, 16121.42
235.0079, 16415.15
235.4901, 16707.83
235.9722, 17014.30
236.4543, 17301.24
236.9364, 17554.78
237.4185, 17785.49
237.9006, 17961.75
238.3828, 18079.84
238.8649, 18142.15
239.3470, 18159.58
239.8291, 18132.46
240.3112, 18057.76
240.7933, 17935.39
241.2755, 17767.92
241.7576, 17542.55
242.2397, 17243.99
242.7218, 16883.04
243.2039, 16514.06
243.6860, 16112.61
244.1682, 15732.54
244.6503, 15416.75
245.1324, 15195.23
245.6145, 14968.34
246.0966, 14720.11
246.5787, 14456.97
247.0609, 14222.24
247.5430, 14024.68
248.0251, 13844.77
248.5072, 13665.63
248.9893, 13473.38
249.4714, 13316.24
249.9536, 13204.88
250.4357, 13135.55
250.9178, 13076.98
251.3999, 13032.05
251.8820, 12994.92
252.3641, 12962.33
252.8463, 12937.19
253.3284, 12910.22
253.8105, 12876.00
254.2926, 12836.92
254.7747, 12818.89
255.2568, 12830.54
255.7390, 12852.11
256.2211, 12868.74
256.7032, 12877.84
257.1853, 12887.95
257.6674, 12899.00
258.1495, 12911.48
258.6317, 12932.23
259.1138, 12967.00
259.5959, 13001.38
260.0780, 13021.79
260.5601, 13022.17
261.0422, 13024.13
261.5244, 13029.76
262.0065, 13039.29
262.4886, 13057.56
262.9707, 13092.66
263.4528, 13124.09
263.9349, 13135.14
264.4171, 13122.85
264.8992, 13097.24
265.3813, 13053.32
265.8634, 12994.51
266.3455, 12958.04
266.8276, 12956.06
267.3098, 12953.89
267.7919, 12918.56
268.2740, 12841.10
268.7561, 12763.69
269.2382, 12695.27
269.7203, 12634.41
270.2025, 12570.63
270.6846, 12504.99
271.1667, 12435.09
271.6488, 12359.23
272.1309, 12279.00
272.6130, 12186.13
273.0952, 12075.43
273.5773, 11950.35
274.0594, 11830.68
274.5415, 11715.54
275.0236, 11609.21
275.5057, 11520.07
275.9879, 11451.00
276.4700, 11380.27
276.9521, 11305.52
277.4342, 11226.01
277.9163, 11135.48
278.3984, 11031.58
278.8806, 10925.21
279.3627, 10820.07
279.8448, 10715.10
280.3269, 10635.05
280.8090, 10596.36
281.2911, 10583.26
281.7733, 10529.31
282.2554, 10428.02
282.7375, 10316.82
283.2196, 10229.29
283.7017, 10165.17
284.1838, 10093.69
284.6660, 10007.05
285.1481, 9910.211
285.6302, 9806.752
286.1123, 9693.576
286.5944, 9601.407
287.0765, 9572.944
287.5587, 9601.111
288.0408, 9600.985
288.5229, 9550.221
289.0050, 9467.917
289.4871, 9400.715
289.9692, 9348.886
290.4514, 9294.087
290.9335, 9209.457
291.4156, 9104.021
291.8977, 9032.696
292.3798, 9014.413
292.8619, 9022.085
293.3441, 9004.134
293.8262, 8961.158
294.3083, 8912.636
294.7904, 8867.841
295.2726, 8827.800
295.7547, 8797.703
296.2368, 8782.745
296.7189, 8771.321
297.2010, 8746.119
297.6831, 8708.271
298.1653, 8664.504
298.6474, 8606.567
299.1295, 8547.104
299.6116, 8515.976
300.0937, 8526.121
300.5758, 8549.069
301.0580, 8547.496
301.5401, 8526.291
302.0222, 8506.702
302.5043, 8510.813
302.9864, 8522.920
303.4685, 8515.878
303.9507, 8480.587
304.4328, 8439.903
304.9149, 8413.500
305.3970, 8400.127
305.8791, 8395.732
306.3612, 8403.747
306.8434, 8417.266
307.3255, 8427.763
307.8076, 8433.110
308.2897, 8439.348
308.7718, 8454.867
309.2539, 8474.976
309.7361, 8489.310
310.2182, 8486.811
310.7003, 8479.584
311.1824, 8477.603
311.6645, 8482.221
312.1466, 8489.813
312.6288, 8507.042
313.1109, 8524.673
313.5930, 8527.646
314.0751, 8487.452
314.5572, 8446.811
315.0393, 8436.471
315.5215, 8462.531
316.0036, 8489.256
316.4857, 8495.545
316.9678, 8494.306
317.4499, 8502.617
317.9320, 8548.744
318.4142, 8586.508
318.8963, 8588.846
319.3784, 8551.785
319.8605, 8522.055
320.3426, 8517.821
320.8247, 8527.300
321.3069, 8538.474
321.7890, 8544.446
322.2711, 8555.340
322.7532, 8579.809
323.2353, 8617.985
323.7174, 8642.248
324.1996, 8627.118
324.6817, 8606.519
325.1638, 8607.101
325.6459, 8668.211
326.1280, 8711.340
326.6101, 8713.050
327.0923, 8676.815
327.5744, 8658.803
328.0565, 8685.412
328.5386, 8715.538
329.0207, 8724.449
329.5028, 8679.445
329.9850, 8656.508
330.4671, 8672.345
330.9492, 8717.834
331.4313, 8745.197
331.9134, 8738.930
332.3955, 8730.971
332.8777, 8738.775
333.3598, 8774.437
333.8419, 8800.932
334.3240, 8811.688
334.8061, 8813.313
335.2882, 8825.615
335.7704, 8851.682
336.2525, 8882.604
336.7346, 8917.842
337.2167, 8963.466
337.6988, 8988.632
338.1809, 8985.636
338.6631, 8968.913
339.1452, 8967.063
339.6273, 8983.394
340.1094, 9002.830
340.5915, 9019.098
341.0736, 9031.982
341.5558, 9048.949
342.0379, 9070.567
342.5200, 9095.903
343.0021, 9128.079
343.4842, 9168.006
343.9663, 9198.121
344.4485, 9209.146
344.9306, 9204.213
345.4127, 9195.779
345.8948, 9181.132
346.3769, 9178.978
346.8590, 9220.227
347.3412, 9298.982
347.8233, 9367.244
348.3054, 9404.092
348.7875, 9424.304
349.2696, 9461.835
349.7517, 9515.990
350.2339, 9575.515
350.7160, 9624.365
351.1981, 9669.759
351.6802, 9733.376
352.1623, 9828.638
352.6444, 9933.171
353.1266, 10014.39
353.6087, 10076.23
354.0908, 10135.65
354.5729, 10198.48
355.0550, 10267.61
355.5371, 10349.87
356.0193, 10454.63
356.5014, 10557.05
356.9835, 10623.69
357.4656, 10669.55
357.9477, 10732.60
358.4298, 10832.62
358.9120, 10958.34
359.3941, 11104.22
359.8762, 11272.42
360.3583, 11447.87
360.8404, 11626.89
361.3225, 11805.50
361.8047, 11980.35
362.2868, 12123.04
362.7689, 12283.53
363.2510, 12496.44
363.7331, 12771.38
364.2152, 13033.88
364.6974, 13232.82
365.1795, 13416.56
365.6616, 13636.19
366.1437, 13922.15
366.6258, 14223.34
367.1079, 14537.64
367.5901, 14864.60
368.0722, 15172.54
368.5543, 15425.81
369.0364, 15680.70
369.5185, 15975.66
370.0006, 16361.27
370.4828, 16724.18
370.9649, 17045.53
371.4470, 17334.37
371.9291, 17649.03
372.4112, 18020.18
372.8933, 18383.42
373.3755, 18694.68
373.8576, 18927.83
374.3397, 19187.04
374.8218, 19492.33
375.3039, 19809.93
375.7861, 20069.70
376.2682, 20271.12
376.7503, 20407.07
377.2324, 20464.75
377.7145, 20440.46
378.1967, 20394.46
378.6788, 20334.52
379.1609, 20238.62
379.6430, 20076.39
380.1251, 19849.13
380.6072, 19570.46
381.0894, 19240.87
381.5715, 18866.12
382.0536, 18464.20
382.5357, 18030.47
383.0178, 17585.90
383.4999, 17138.96
383.9821, 16692.06
384.4642, 16247.63
384.9463, 15792.34
385.4284, 15349.30
385.9105, 14939.39
386.3926, 14562.14
386.8748, 14203.89
387.3569, 13849.14
387.8390, 13505.24
388.3211, 13183.72
388.8032, 12884.33
389.2853, 12602.12
389.7675, 12326.82
390.2496, 12060.00
390.7317, 11812.37
391.2138, 11595.82
391.6959, 11397.06
392.1780, 11204.72
392.6602, 11018.27
393.1423, 10839.40
393.6244, 10657.73
394.1065, 10486.63
394.5886, 10340.51
395.0707, 10238.34
395.5529, 10150.59
396.0350, 10072.66
396.5171, 10003.79
396.9992, 9925.095
397.4813, 9818.277
397.9634, 9709.277
398.4456, 9615.292
398.9277, 9550.988
399.4098, 9487.922
399.8919, 9416.951
400.3740, 9343.148
400.8561, 9289.781
401.3383, 9278.975
401.8204, 9265.945
402.3025, 9230.017
402.7846, 9156.046
403.2667, 9095.237
403.7488, 9049.895
404.2310, 9016.937
404.7131, 8992.496
405.1952, 8979.029
405.6773, 8968.330
406.1594, 8958.389
406.6415, 8949.188
407.1237, 8940.112
407.6058, 8932.603
408.0879, 8921.241
408.5700, 8889.811
409.0521, 8837.588
409.5342, 8818.565
410.0164, 8858.901
410.4985, 8931.188
410.9806, 8964.182
411.4627, 8957.797
411.9448, 8938.004
412.4269, 8915.969
412.9091, 8895.064
413.3912, 8887.379
413.8733, 8897.692
414.3554, 8912.539
414.8375, 8913.215
415.3196, 8904.671
415.8018, 8901.628
416.2839, 8915.717
416.7660, 8937.478
417.2481, 8957.434
417.7302, 8975.175
418.2123, 8991.746
418.6945, 9007.888
419.1766, 9023.259
419.6587, 9037.106
420.1408, 9048.463
420.6229, 9059.265
421.1050, 9069.710
421.5872, 9080.064
422.0693, 9092.345
422.5514, 9099.732
423.0335, 9113.935
423.5156, 9143.287
423.9977, 9208.945
424.4799, 9261.484
424.9620, 9278.055
425.4441, 9277.013
425.9262, 9303.837
426.4083, 9378.513
426.8904, 9457.902
427.3726, 9529.276
427.8547, 9589.869
428.3368, 9653.084
428.8189, 9723.236
429.3010, 9792.616
429.7831, 9850.415
430.2653, 9889.419
430.7474, 9942.821
431.2295, 10023.28
431.7116, 10124.38
432.1937, 10204.19
432.6758, 10256.71
433.1580, 10317.72
433.6401, 10419.13
434.1222, 10557.43
434.6043, 10697.62
435.0864, 10839.19
435.5685, 10971.67
436.0507, 11071.65
436.5328, 11143.68
437.0149, 11214.79
437.4970, 11290.96
437.9791, 11378.18
438.4612, 11487.78
438.9434, 11620.75
439.4255, 11764.40
439.9076, 11915.86
440.3897, 12070.86
440.8718, 12218.20
441.3539, 12353.88
441.8361, 12485.19
442.3182, 12612.21
442.8003, 12737.57
443.2824, 12872.31
443.7645, 13036.87
444.2466, 13203.36
444.7288, 13350.38
445.2109, 13466.95
445.6930, 13582.86
446.1751, 13706.73
446.6572, 13834.02
447.1393, 13957.01
447.6215, 14096.84
448.1036, 14209.15
448.5857, 14285.21
449.0678, 14323.89
449.5499, 14331.91
450.0320, 14314.73
450.5142, 14261.64
450.9963, 14164.48
451.4784, 14022.85
451.9605, 13834.42
452.4426, 13584.00
452.9247, 13293.48
453.4069, 13005.23
453.8890, 12712.07
454.3711, 12452.41
454.8532, 12254.46
455.3353, 12112.74
455.8174, 11969.08
456.2996, 11817.46
456.7817, 11672.70
457.2638, 11542.28
457.7459, 11431.17
458.2281, 11360.33
458.7102, 11362.13
459.1923, 11392.85
459.6744, 11383.01
460.1565, 11337.41
460.6386, 11299.66
461.1208, 11298.08
461.6029, 11321.13
462.0850, 11357.65
462.5671, 11411.39
463.0492, 11466.47
463.5313, 11513.26
464.0135, 11556.25
464.4956, 11603.20
464.9777, 11663.89
465.4598, 11724.29
465.9419, 11776.52
466.4240, 11819.07
466.9062, 11866.52
467.3883, 11934.47
467.8704, 11999.61
468.3525, 12043.42
468.8346, 12048.84
469.3167, 12055.24
469.7989, 12071.71
470.2810, 12090.32
470.7631, 12080.80
471.2452, 12027.52
471.7273, 11977.17
472.2094, 11961.97
472.6916, 11991.40
473.1737, 11964.00
473.6558, 11871.86
474.1379, 11745.04
474.6200, 11611.72
475.1021, 11473.19
475.5843, 11340.31
476.0664, 11216.38
476.5485, 11099.91
477.0306, 10991.42
477.5127, 10889.92
477.9948, 10789.69
478.4770, 10676.83
478.9591, 10565.01
479.4412, 10482.03
479.9233, 10439.18
480.4054, 10394.09
480.8875, 10307.02
481.3697, 10194.63
481.8518, 10085.84
482.3339, 9981.686
482.8160, 9893.214
483.2981, 9832.011
483.7802, 9796.562
484.2624, 9760.715
484.7445, 9722.819
485.2266, 9677.396
485.7087, 9620.282
486.1908, 9525.532
486.6729, 9455.563
487.1551, 9431.024
487.6372, 9427.490
488.1193, 9394.455
488.6014, 9309.461
489.0835, 9236.366
489.5656, 9198.424
490.0478, 9196.288
490.5299, 9180.979
491.0120, 9147.175
491.4941, 9113.859
491.9762, 9103.358
492.4583, 9115.712
492.9405, 9111.486
493.4226, 9081.218
493.9047, 9037.416
494.3868, 8995.812
494.8689, 8957.894
495.3510, 8931.698
495.8332, 8928.063
496.3153, 8936.576
496.7974, 8944.065
497.2795, 8950.011
497.7616, 8948.526
498.2437, 8930.298
498.7259, 8903.700
499.2080, 8878.291
499.6901, 8852.673
500.1722, 8834.611
500.6543, 8834.318
501.1364, 8845.159
501.6186, 8849.001
502.1007, 8836.646
502.5828, 8820.300
503.0649, 8804.180
503.5470, 8788.385
504.0291, 8775.152
504.5113, 8771.575
504.9934, 8765.649
505.4755, 8743.092
505.9576, 8686.523
506.4397, 8654.466
506.9218, 8662.103
507.4040, 8697.032
507.8861, 8719.091
508.3682, 8726.094
508.8503, 8729.996
509.3324, 8737.047
509.8145, 8746.460
510.2967, 8750.642
510.7788, 8747.969
511.2609, 8748.447
511.7430, 8771.262
512.2252, 8806.544
512.7073, 8825.326
513.1894, 8812.039
513.6715, 8788.130
514.1536, 8777.366
514.6357, 8775.817
515.1179, 8769.838
515.6000, 8746.413
516.0821, 8720.005
516.5642, 8700.892
517.0463, 8691.128
517.5284, 8683.262
518.0106, 8666.321
518.4927, 8654.087
518.9748, 8660.140
519.4569, 8712.199
519.9390, 8752.027
520.4211, 8775.450
520.9033, 8782.693
521.3854, 8771.973
521.8675, 8729.413
522.3496, 8692.173
522.8317, 8677.693
523.3138, 8688.868
523.7960, 8690.031
524.2781, 8676.492
524.7602, 8665.907
525.2423, 8684.498
525.7244, 8729.419
526.2065, 8760.228
526.6887, 8766.136
527.1708, 8756.189
527.6529, 8737.623
528.1350, 8713.787
528.6171, 8700.018
529.0992, 8709.581
529.5814, 8731.465
530.0635, 8759.233
530.5456, 8792.659
531.0277, 8812.467
531.5098, 8794.255
531.9919, 8761.868
532.4741, 8738.372
532.9562, 8733.889
533.4383, 8733.635
533.9204, 8729.309
534.4025, 8726.301
534.8846, 8739.379
535.3668, 8799.618
535.8489, 8843.356
536.3310, 8847.770
536.8131, 8808.502
537.2952, 8789.381
537.7773, 8799.716
538.2595, 8815.435
538.7416, 8814.650
539.2237, 8795.164
539.7058, 8785.353
540.1879, 8790.782
540.6700, 8802.735
541.1522, 8803.021
541.6343, 8793.765
542.1164, 8791.593
542.5985, 8811.387
543.0806, 8839.625
543.5627, 8851.965
544.0449, 8849.648
544.5270, 8850.107
545.0091, 8871.326
545.4912, 8898.069
545.9733, 8913.285
546.4554, 8907.608
546.9376, 8905.716
547.4197, 8928.740
547.9018, 8959.031
548.3839, 8970.437
548.8660, 8929.672
549.3481, 8900.540
549.8303, 8906.488
550.3124, 8942.030
550.7945, 8954.320
551.2766, 8931.101
551.7587, 8904.001
552.2408, 8889.409
552.7230, 8889.460
553.2051, 8888.672
553.6872, 8885.297
554.1693, 8885.222
554.6514, 8897.008
555.1335, 8919.860
555.6157, 8946.574
556.0978, 8980.363
556.5799, 9010.505
557.0620, 9013.071
557.5441, 8994.017
558.0262, 8980.114
558.5084, 8991.405
558.9905, 9012.710
559.4726, 9031.836
559.9547, 9047.893
560.4368, 9060.166
560.9189, 9059.041
561.4011, 9058.991
561.8832, 9072.528
562.3653, 9123.332
562.8474, 9161.938
563.3295, 9177.977
563.8116, 9178.428
564.2938, 9173.276
564.7759, 9151.654
565.2580, 9143.759
565.7401, 9161.500
566.2222, 9202.782
566.7043, 9241.199
567.1865, 9276.834
567.6686, 9307.940
568.1507, 9334.950
568.6328, 9356.849
569.1149, 9363.989
569.5970, 9350.633
570.0792, 9341.900
570.5613, 9377.670
571.0434, 9440.891
571.5255, 9492.987
572.0076, 9511.987
572.4897, 9520.738
572.9719, 9528.249
573.4540, 9538.132
573.9361, 9563.827
574.4182, 9632.230
574.9003, 9700.479
575.3824, 9744.777
575.8646, 9758.743
576.3467, 9771.616
576.8288, 9789.526
577.3109, 9804.816
577.7930, 9806.771
578.2751, 9773.509
578.7573, 9785.727
579.2394, 9869.975
579.7215, 9984.517
580.2036, 10037.64
580.6857, 10024.14
581.1678, 10012.47
581.6500, 10030.20
582.1321, 10068.95
582.6142, 10104.71
583.0963, 10137.74
583.5784, 10175.85
584.0605, 10229.06
584.5427, 10289.09
585.0248, 10345.89
585.5069, 10399.11
585.9890, 10443.71
586.4711, 10463.31
586.9532, 10477.19
587.4354, 10507.67
587.9175, 10576.25
588.3996, 10644.13
588.8817, 10701.76
589.3638, 10751.80
589.8459, 10805.61
590.3281, 10866.67
590.8102, 10924.77
591.2923, 10977.24
591.7744, 11024.16
592.2565, 11056.25
592.7386, 11069.76
593.2208, 11080.80
593.7029, 11107.15
594.1850, 11145.29
594.6671, 11168.69
595.1492, 11172.45
595.6313, 11169.27
596.1135, 11179.90
596.5956, 11195.28
597.0777, 11194.78
597.5598, 11148.32
598.0419, 11104.45
598.5240, 11107.36
599.0062, 11143.46
599.4883, 11163.35
599.9704, 11127.41
600.4525, 11090.45
600.9346, 11080.57
601.4167, 11106.55
601.8989, 11121.69
602.3810, 11117.01
602.8631, 11109.20
603.3452, 11110.72
603.8273, 11123.69
604.3094, 11136.98
604.7916, 11151.14
605.2737, 11162.71
605.7558, 11163.51
606.2379, 11154.64
606.7200, 11149.50
607.2021, 11152.55
607.6843, 11162.31
608.1664, 11182.33
608.6485, 11209.34
609.1306, 11227.91
609.6127, 11218.42
610.0948, 11203.29
610.5770, 11200.23
611.0591, 11211.21
611.5412, 11228.55
612.0233, 11259.00
612.5054, 11289.00
612.9875, 11307.77
613.4697, 11305.21
613.9518, 11304.70
614.4339, 11308.04
614.9160, 11312.21
615.3981, 11313.77
615.8802, 11314.54
616.3624, 11303.96
616.8445, 11273.72
617.3266, 11233.86
617.8087, 11218.21
618.2908, 11225.66
618.7729, 11231.62
619.2551, 11219.83
619.7372, 11197.65
620.2193, 11175.47
620.7014, 11153.89
621.1835, 11133.19
621.6656, 11116.35
622.1478, 11099.32
622.6299, 11078.09
623.1120, 11049.24
623.5941, 11021.66
624.0762, 10990.39
624.5583, 10964.39
625.0405, 10958.22
625.5226, 10998.64
626.0047, 11013.60
626.4868, 10983.01
626.9689, 10921.68
627.4510, 10879.79
627.9332, 10858.29
628.4153, 10849.84
628.8974, 10859.64
629.3795, 10879.47
629.8616, 10876.53
630.3438, 10850.87
630.8259, 10818.51
631.3080, 10785.90
631.7901, 10756.64
632.2722, 10737.79
632.7543, 10733.41
633.2365, 10727.35
633.7186, 10713.05
634.2007, 10691.71
634.6828, 10664.67
635.1649, 10626.84
635.6470, 10590.51
636.1292, 10557.99
636.6113, 10527.99
637.0934, 10495.35
637.5755, 10451.56
638.0576, 10426.46
638.5397, 10433.62
639.0219, 10467.16
639.5040, 10499.71
639.9861, 10531.87
640.4682, 10551.99
640.9503, 10546.97
641.4324, 10524.32
641.9146, 10495.63
642.3967, 10460.58
642.8788, 10436.38
643.3609, 10448.76
643.8430, 10473.87
