##NAMES=Rhonite
##RRUFFID=R060316
##IDEAL CHEMISTRY=Ca_4_(Mg_8_Fe^3+^_2_Ti^4+^_2_)O_4_[Si_6_Al_6_O_36_]
##LOCALITY=Nickenicher Sattel, Laacher See District, Eifel, Germany
##OWNER=RRUFF
##SOURCE=Michael Scott
##DESCRIPTION=Brown bladed crystals
##STATUS=The identification of this mineral is confirmed by single-crystal X-ray diffraction and chemical analysis.
##URL=rruff.info/R060316
##MEASURED CHEMISTRY=(Ca_1.53_Na_0.47_)_Σ=2_(Mg_2.90_Fe^3+^_2.02_Fe^2+^_0.43_Ti_0.57_Mn_0.07_Cr_0.01_)_Σ=6_(Si_3.30_Al_2.70_)_Σ=6_O_20_ ; Fe2 and Fe3 estimated by charge balance
90.49219, 21.52426
90.97430, 21.48647
91.45642, 21.47375
91.93854, 21.64688
92.42065, 21.79675
92.90277, 21.53258
93.38489, 20.75508
93.86700, 19.89725
94.34912, 19.56934
94.83124, 19.68436
95.31335, 19.75147
95.79547, 19.44071
96.27759, 18.82572
96.75970, 18.13654
97.24182, 17.29720
97.72394, 16.53655
98.20605, 16.54893
98.68817, 17.44025
99.17029, 18.24294
99.65240, 17.89610
100.1345, 16.27314
100.6166, 15.44818
101.0988, 16.12760
101.5809, 18.05869
102.0630, 19.08163
102.5451, 19.01511
103.0272, 18.38051
103.5093, 17.67177
103.9915, 16.80684
104.4736, 16.09462
104.9557, 15.61359
105.4378, 15.36732
105.9199, 15.38262
106.4020, 15.97765
106.8842, 16.67965
107.3663, 16.60430
107.8484, 14.85915
108.3305, 13.37258
108.8126, 12.88458
109.2947, 14.45099
109.7769, 15.25853
110.2590, 14.76093
110.7411, 13.40768
111.2232, 12.60930
111.7053, 12.88223
112.1874, 13.36670
112.6696, 13.67621
113.1517, 13.50634
113.6338, 13.44830
114.1159, 13.88481
114.5980, 14.67308
115.0801, 14.79134
115.5623, 13.08699
116.0444, 11.05681
116.5265, 9.862576
117.0086, 10.55728
117.4907, 11.46793
117.9728, 11.91612
118.4550, 11.86410
118.9371, 11.91626
119.4192, 12.74565
119.9013, 13.74724
120.3834, 14.13516
120.8655, 12.89480
121.3477, 11.36473
121.8298, 10.59743
122.3119, 10.79632
122.7940, 11.05962
123.2761, 10.44212
123.7582, 9.382386
124.2404, 8.857070
124.7225, 10.05873
125.2046, 11.85596
125.6867, 12.78020
126.1688, 12.45186
126.6509, 11.64670
127.1331, 10.96816
127.6152, 10.45160
128.0973, 10.27243
128.5794, 10.85368
129.0615, 11.87042
129.5436, 12.50583
130.0258, 12.42612
130.5079, 12.05642
130.9900, 12.26567
131.4721, 13.05148
131.9542, 13.77129
132.4363, 13.65828
132.9185, 12.86089
133.4006, 12.42970
133.8827, 12.81801
134.3648, 13.75644
134.8469, 14.20340
135.3290, 14.05051
135.8112, 13.88262
136.2933, 14.48052
136.7754, 15.90188
137.2575, 17.21508
137.7396, 18.08361
138.2217, 18.50582
138.7039, 18.92871
139.1860, 19.29246
139.6681, 19.75356
140.1502, 20.62257
140.6323, 22.00864
141.1144, 23.41064
141.5966, 24.65860
142.0787, 25.73920
142.5608, 26.66620
143.0429, 27.34419
143.5250, 27.92015
144.0071, 28.72950
144.4893, 29.82725
144.9714, 31.05835
145.4535, 32.37988
145.9356, 34.01342
146.4177, 35.30176
146.8998, 36.05677
147.3820, 36.44090
147.8641, 37.15057
148.3462, 38.14289
148.8283, 39.49093
149.3104, 41.26450
149.7925, 43.78988
150.2747, 46.31148
150.7568, 48.94282
151.2389, 51.63407
151.7210, 53.71861
152.2031, 54.53893
152.6852, 55.13386
153.1674, 56.15778
153.6495, 57.84435
154.1316, 59.73656
154.6137, 62.04291
155.0958, 64.77861
155.5779, 66.83301
156.0601, 67.47758
156.5422, 67.65946
157.0243, 68.17986
157.5064, 69.67322
157.9885, 71.06199
158.4706, 72.00160
158.9528, 72.42874
159.4349, 72.81371
159.9170, 72.97829
160.3991, 73.25233
160.8812, 74.01701
161.3633, 75.85841
161.8455, 77.83223
162.3276, 79.59175
162.8097, 81.09228
163.2918, 82.31651
163.7739, 83.02810
164.2560, 83.38281
164.7382, 83.25117
165.2203, 82.88592
165.7024, 82.92269
166.1845, 83.77132
166.6666, 85.72260
167.1487, 87.65852
167.6309, 89.14455
168.1130, 90.20351
168.5951, 90.85073
169.0772, 90.37556
169.5593, 89.89297
170.0414, 90.58769
170.5236, 93.27995
171.0057, 95.71455
171.4878, 95.84572
171.9699, 94.30568
172.4520, 93.00423
172.9341, 93.21047
173.4163, 94.16484
173.8984, 94.99068
174.3805, 95.47953
174.8626, 95.82462
175.3447, 96.25106
175.8268, 96.72313
176.3090, 97.07427
176.7911, 97.01993
177.2732, 96.79733
177.7553, 96.83607
178.2374, 97.47109
178.7195, 98.15614
179.2017, 97.96445
179.6838, 96.99613
180.1659, 96.23005
180.6480, 96.45518
181.1301, 97.44374
181.6122, 98.73509
182.0944, 100.5570
182.5765, 102.3461
183.0586, 103.0639
183.5407, 102.7118
184.0228, 101.9993
184.5049, 101.3694
184.9871, 100.8540
185.4692, 100.6150
185.9513, 100.8661
186.4334, 101.3602
186.9155, 101.4187
187.3976, 101.0004
187.8798, 100.6240
188.3619, 100.9618
188.8440, 101.8980
189.3261, 102.6635
189.8082, 102.9277
190.2903, 102.8283
190.7725, 102.8392
191.2546, 102.9598
191.7367, 103.1931
192.2188, 103.7304
192.7009, 104.5415
193.1830, 104.9254
193.6652, 104.3102
194.1473, 102.9342
194.6294, 102.4556
195.1115, 103.0388
195.5936, 103.9630
196.0757, 104.1606
196.5579, 103.5982
197.0400, 103.3013
197.5221, 103.9751
198.0042, 105.5061
198.4863, 106.0283
198.9684, 105.3252
199.4506, 104.0869
199.9327, 103.1922
200.4148, 102.6126
200.8969, 102.5513
201.3790, 103.4150
201.8611, 105.2601
202.3433, 106.0959
202.8254, 105.6114
203.3075, 104.6131
203.7896, 104.5685
204.2717, 105.6654
204.7538, 106.7372
205.2360, 107.3160
205.7181, 107.3748
206.2002, 107.1050
206.6823, 106.3171
207.1644, 105.4260
207.6465, 105.3314
208.1287, 106.2861
208.6108, 107.1527
209.0929, 107.3006
209.5750, 106.5047
210.0571, 106.2745
210.5392, 106.8102
211.0214, 107.7363
211.5035, 108.2785
211.9856, 108.3602
212.4677, 108.2683
212.9498, 108.0991
213.4319, 107.8270
213.9140, 107.5738
214.3962, 107.2715
214.8783, 107.0315
215.3604, 107.1531
215.8425, 107.7662
216.3246, 108.4440
216.8067, 109.0335
217.2889, 109.5666
217.7710, 109.8621
218.2531, 109.8431
218.7352, 109.6199
219.2173, 109.4541
219.6994, 109.3614
220.1816, 109.2919
220.6637, 109.2293
221.1458, 109.1903
221.6279, 109.0838
222.1100, 108.7830
222.5921, 108.4635
223.0743, 108.6461
223.5564, 109.6313
224.0385, 110.5946
224.5206, 111.1577
225.0027, 111.2856
225.4848, 111.1117
225.9670, 110.4638
226.4491, 109.5768
226.9312, 109.0793
227.4133, 109.1594
227.8954, 109.3295
228.3775, 109.2977
228.8597, 108.7409
229.3418, 108.8373
229.8239, 110.0313
230.3060, 111.7692
230.7881, 112.4078
231.2702, 111.3239
231.7524, 110.0850
232.2345, 109.4115
232.7166, 109.5268
233.1987, 109.6403
233.6808, 109.6433
234.1629, 109.6670
234.6451, 110.1825
235.1272, 111.8197
235.6093, 113.0098
236.0914, 112.8934
236.5735, 110.4480
237.0556, 109.0738
237.5378, 109.1197
238.0199, 110.1366
238.5020, 111.0671
238.9841, 112.1909
239.4662, 112.8357
239.9483, 112.5871
240.4305, 110.7853
240.9126, 109.6568
241.3947, 109.3735
241.8768, 109.7052
242.3589, 110.1426
242.8410, 110.8700
243.3232, 111.4162
243.8053, 111.5331
244.2874, 110.9625
244.7695, 110.6009
245.2516, 110.5910
245.7337, 110.7318
246.2159, 110.5257
246.6980, 109.6527
247.1801, 108.9381
247.6622, 108.7506
248.1443, 109.3583
248.6264, 109.7428
249.1086, 109.8517
249.5907, 109.7690
250.0728, 109.6410
250.5549, 109.3782
251.0370, 109.2204
251.5191, 109.2770
252.0013, 109.6158
252.4834, 109.9655
252.9655, 110.4563
253.4476, 110.8752
253.9297, 110.6993
254.4118, 109.3852
254.8940, 108.4979
255.3761, 108.7669
255.8582, 110.6558
256.3403, 111.8022
256.8224, 111.8977
257.3046, 111.4913
257.7867, 111.5068
258.2688, 112.1279
258.7509, 112.7870
259.2330, 113.2845
259.7151, 113.5848
260.1973, 113.9614
260.6794, 114.4088
261.1615, 114.9333
261.6436, 115.6018
262.1257, 116.6110
262.6078, 117.2836
263.0900, 117.2423
263.5721, 116.3503
264.0542, 116.1532
264.5363, 116.9484
265.0184, 118.0761
265.5005, 118.7100
265.9827, 118.7258
266.4648, 118.5702
266.9469, 118.2309
267.4290, 117.6905
267.9111, 117.8159
268.3932, 118.9243
268.8754, 120.2047
269.3575, 120.7106
269.8396, 120.2868
270.3217, 119.6334
270.8038, 118.6925
271.2859, 117.5189
271.7681, 117.5306
272.2502, 119.1400
272.7323, 121.0798
273.2144, 121.9342
273.6965, 121.4915
274.1786, 121.1653
274.6608, 121.3452
275.1429, 121.9205
275.6250, 122.0050
276.1071, 121.4410
276.5892, 120.8394
277.0714, 120.7921
277.5535, 121.3496
278.0356, 122.0251
278.5177, 122.8780
278.9998, 123.7463
279.4819, 123.7881
279.9641, 122.8128
280.4462, 121.8130
280.9283, 121.7036
281.4104, 122.5216
281.8925, 123.1198
282.3746, 123.3603
282.8568, 123.2435
283.3389, 122.6079
283.8210, 121.3741
284.3031, 120.2283
284.7852, 119.7414
285.2673, 119.8756
285.7495, 119.8961
286.2316, 119.6879
286.7137, 119.3554
287.1958, 119.0866
287.6779, 118.8789
288.1600, 118.7602
288.6422, 118.8745
289.1243, 119.1536
289.6064, 119.0392
290.0885, 118.3788
290.5706, 117.5807
291.0527, 117.4131
291.5349, 117.8304
292.0170, 118.1448
292.4991, 117.8683
292.9812, 117.1669
293.4633, 116.6301
293.9454, 116.2872
294.4276, 116.1029
294.9097, 116.1164
295.3918, 116.2872
295.8739, 116.3999
296.3560, 116.3277
296.8381, 116.1238
297.3203, 115.8867
297.8024, 115.6111
298.2845, 115.3699
298.7666, 115.2539
299.2487, 115.2388
299.7308, 115.2473
300.2130, 115.1724
300.6951, 115.1305
301.1772, 115.4012
301.6593, 115.9828
302.1414, 116.5111
302.6235, 116.6798
303.1057, 116.5629
303.5878, 116.2975
304.0699, 115.8553
304.5520, 115.3460
305.0341, 114.8033
305.5162, 114.2543
305.9984, 113.9127
306.4805, 114.0428
306.9626, 114.4507
307.4447, 114.8849
307.9268, 115.3748
308.4089, 115.7425
308.8911, 115.7447
309.3732, 115.4572
309.8553, 115.1947
310.3374, 115.2304
310.8195, 115.3407
311.3016, 115.2653
311.7838, 114.8231
312.2659, 114.4611
312.7480, 114.4796
313.2301, 114.8073
313.7122, 115.2636
314.1943, 115.9700
314.6765, 116.6497
315.1586, 117.1137
315.6407, 117.3223
316.1228, 117.3621
316.6049, 117.1902
317.0870, 116.8838
317.5692, 116.5734
318.0513, 116.2871
318.5334, 116.0174
319.0155, 115.7591
319.4976, 115.5064
319.9797, 115.2716
320.4619, 114.9122
320.9440, 114.6196
321.4261, 114.6112
321.9082, 115.1806
322.3903, 115.8035
322.8724, 116.5221
323.3546, 117.3421
323.8367, 117.5114
324.3188, 116.1265
324.8009, 114.4509
325.2830, 113.4646
325.7651, 113.7570
326.2473, 114.2117
326.7294, 114.8384
327.2115, 115.5822
327.6936, 116.0230
328.1757, 115.6665
328.6578, 115.3430
329.1400, 115.4738
329.6221, 116.7629
330.1042, 117.5511
330.5863, 117.7010
331.0684, 117.3367
331.5505, 116.7974
332.0327, 115.7440
332.5148, 114.9064
332.9969, 114.6489
333.4790, 115.3483
333.9611, 115.5662
334.4432, 115.0135
334.9254, 114.1435
335.4075, 113.7410
335.8896, 113.9503
336.3717, 114.3417
336.8538, 114.8870
337.3359, 115.6474
337.8180, 115.8528
338.3001, 115.2070
338.7823, 114.4610
339.2644, 114.6424
339.7465, 116.0665
340.2286, 117.0143
340.7107, 116.9133
341.1928, 115.9507
341.6750, 115.4356
342.1571, 115.3935
342.6392, 115.6637
343.1213, 116.3938
343.6034, 117.5951
344.0855, 117.9473
344.5677, 116.9989
345.0498, 115.3127
345.5319, 114.1172
346.0140, 113.4078
346.4961, 113.3062
346.9782, 114.4158
347.4604, 116.3711
347.9425, 117.1954
348.4246, 116.5144
348.9067, 115.2794
349.3888, 114.8644
349.8709, 115.1408
350.3531, 115.3895
350.8352, 115.0574
351.3173, 114.4950
351.7994, 114.4161
352.2815, 114.8691
352.7636, 115.5222
353.2458, 116.2770
353.7279, 116.9925
354.2100, 117.3570
354.6921, 116.9726
355.1742, 116.3699
355.6563, 116.0977
356.1385, 116.1359
356.6206, 116.2617
357.1027, 116.3871
357.5848, 116.4896
358.0669, 116.5515
358.5490, 116.6047
359.0312, 116.5594
359.5133, 116.2634
359.9954, 115.8017
360.4775, 115.4360
360.9596, 115.2185
361.4417, 115.1875
361.9239, 115.4739
362.4060, 116.3275
362.8881, 116.8164
363.3702, 116.2776
363.8523, 115.2137
364.3344, 114.3955
364.8166, 114.1647
365.2987, 114.1029
365.7808, 114.0522
366.2629, 113.9869
366.7450, 114.0618
367.2271, 114.5554
367.7093, 115.0769
368.1914, 115.2827
368.6735, 114.7121
369.1556, 114.3039
369.6377, 114.2484
370.1198, 114.5036
370.6020, 114.7332
371.0841, 115.1520
371.5662, 115.3459
372.0483, 115.0435
372.5304, 113.7567
373.0125, 112.9025
373.4947, 112.6852
373.9768, 112.8603
374.4589, 112.8752
374.9410, 112.7324
375.4231, 112.4135
375.9052, 111.7859
376.3874, 110.7394
376.8695, 110.2961
377.3516, 110.5937
377.8337, 111.2565
378.3158, 111.9622
378.7979, 112.7767
379.2801, 113.1165
379.7622, 112.6659
380.2443, 111.6361
380.7264, 110.9466
381.2085, 110.6216
381.6906, 110.4923
382.1728, 110.4722
382.6549, 110.5442
383.1370, 110.6190
383.6191, 110.7085
384.1012, 110.7455
384.5833, 110.4482
385.0655, 109.8942
385.5476, 109.6531
386.0297, 110.5711
386.5118, 111.8991
386.9939, 112.1161
387.4760, 110.9704
387.9582, 109.6121
388.4403, 109.1203
388.9224, 109.2095
389.4045, 109.2838
389.8866, 108.9672
390.3687, 108.6172
390.8509, 108.6520
391.3330, 109.0266
391.8151, 109.2246
392.2972, 108.5487
392.7793, 107.7264
393.2614, 107.5353
393.7436, 108.9921
394.2257, 109.9449
394.7078, 108.8527
395.1899, 106.4983
395.6720, 104.9360
396.1541, 105.6267
396.6363, 106.6129
397.1184, 106.8915
397.6005, 106.0285
398.0826, 105.5049
398.5647, 105.7326
399.0468, 106.3529
399.5290, 106.9309
400.0111, 107.5120
400.4932, 107.9705
400.9753, 108.3747
401.4574, 108.7221
401.9395, 108.5448
402.4217, 107.3672
402.9038, 106.1629
403.3859, 105.6412
403.8680, 106.2251
404.3501, 106.4607
404.8322, 106.1144
405.3144, 105.4226
405.7965, 105.0505
406.2786, 105.0933
406.7607, 105.1294
407.2428, 104.8937
407.7249, 104.3678
408.2071, 104.2474
408.6892, 104.6421
409.1713, 105.1156
409.6534, 105.0216
410.1355, 104.3952
410.6176, 103.9600
411.0998, 104.0344
411.5819, 104.3661
412.0640, 104.4034
412.5461, 104.1471
413.0282, 103.6211
413.5103, 102.5787
413.9925, 101.3173
414.4746, 100.4514
414.9567, 100.1149
415.4388, 100.0926
415.9209, 100.4380
416.4030, 100.9405
416.8852, 101.0855
417.3673, 100.2425
417.8494, 99.17629
418.3315, 98.54872
418.8136, 98.40749
419.2957, 98.29358
419.7779, 97.94602
420.2600, 97.50296
420.7421, 97.10903
421.2242, 96.93752
421.7063, 96.68081
422.1884, 96.16431
422.6706, 95.46378
423.1527, 94.84388
423.6348, 94.42951
424.1169, 94.06687
424.5990, 93.67345
425.0811, 93.18993
425.5633, 92.80633
426.0454, 92.44801
426.5275, 92.22486
427.0096, 92.32839
427.4917, 93.32247
427.9738, 93.76125
428.4560, 93.11418
428.9381, 91.44765
429.4202, 90.44762
429.9023, 90.31213
430.3844, 90.49194
430.8665, 90.65661
431.3487, 90.82693
431.8308, 90.83379
432.3129, 90.62470
432.7950, 90.29319
433.2771, 90.06092
433.7592, 89.93655
434.2414, 89.72331
434.7235, 89.25461
435.2056, 88.61226
435.6877, 88.12305
436.1698, 87.79131
436.6519, 87.56741
437.1341, 87.49413
437.6162, 87.49818
438.0983, 87.35916
438.5804, 86.90074
439.0625, 86.44386
439.5446, 86.50455
440.0268, 86.92800
440.5089, 87.14705
440.9910, 86.69315
441.4731, 85.97086
441.9552, 85.32575
442.4373, 84.81966
442.9195, 84.31228
443.4016, 83.53824
443.8837, 82.78712
444.3658, 82.41100
444.8479, 82.83064
445.3300, 83.32230
445.8122, 83.95638
446.2943, 84.62048
446.7764, 84.45950
447.2585, 81.97427
447.7406, 79.68835
448.2227, 78.97170
448.7049, 81.11770
449.1870, 82.35434
449.6691, 82.30750
450.1512, 81.53007
450.6333, 80.85325
451.1154, 80.23829
451.5976, 79.80140
452.0797, 79.62434
452.5618, 79.68429
453.0439, 79.68411
453.5260, 79.64123
454.0081, 79.48587
454.4903, 79.07417
454.9724, 78.41566
455.4545, 77.95074
455.9366, 77.74151
456.4187, 77.73667
456.9008, 78.00273
457.3830, 78.48464
457.8651, 78.73310
458.3472, 78.16891
458.8293, 77.34892
459.3114, 77.45499
459.7935, 78.48392
460.2757, 79.47993
460.7578, 79.62025
461.2399, 79.26090
461.7220, 78.88253
462.2041, 78.57757
462.6862, 78.33128
463.1684, 78.14433
463.6505, 78.00684
464.1326, 77.90103
464.6147, 77.89497
465.0968, 77.85524
465.5789, 77.69272
466.0611, 77.38193
466.5432, 77.10110
467.0253, 77.08517
467.5074, 77.00747
467.9895, 76.58877
468.4716, 74.86719
468.9538, 74.03186
469.4359, 74.66789
469.9180, 76.27384
470.4001, 77.25558
470.8822, 77.40425
471.3643, 77.28527
471.8465, 77.09280
472.3286, 76.82396
472.8107, 76.51270
473.2928, 76.14889
473.7749, 75.78075
474.2570, 75.42390
474.7392, 75.07995
475.2213, 74.91704
475.7034, 74.98076
476.1855, 75.23500
476.6676, 75.71994
477.1497, 76.40096
477.6319, 76.93394
478.1140, 77.07295
478.5961, 76.94711
479.0782, 76.73020
479.5603, 76.42555
480.0424, 76.13796
480.5246, 75.88729
481.0067, 75.72457
481.4888, 75.72656
481.9709, 76.05943
482.4530, 76.39764
482.9352, 76.65304
483.4173, 76.79271
483.8994, 76.71291
484.3815, 75.99935
484.8636, 75.36781
485.3457, 75.16033
485.8279, 75.45555
486.3100, 75.96257
486.7921, 77.20136
487.2742, 78.34037
487.7563, 78.59366
488.2384, 77.17358
488.7206, 76.24270
489.2027, 76.23893
489.6848, 76.86520
490.1669, 76.98302
490.6490, 76.35979
491.1311, 75.93652
491.6133, 76.31542
492.0954, 77.47937
492.5775, 78.20750
493.0596, 78.44801
493.5417, 78.45376
494.0238, 78.51509
494.5060, 78.58955
494.9881, 78.42908
495.4702, 77.83992
495.9523, 77.20008
496.4344, 77.04269
496.9165, 77.30592
497.3987, 77.75622
497.8808, 78.54621
498.3629, 79.29527
498.8450, 79.47255
499.3271, 79.00609
499.8092, 78.82136
500.2914, 79.78127
500.7735, 81.07715
501.2556, 81.96407
501.7377, 81.94581
502.2198, 81.86217
502.7019, 81.87777
503.1841, 81.95851
503.6662, 82.01033
504.1483, 81.86280
504.6304, 81.86192
505.1125, 82.13445
505.5946, 82.70210
506.0768, 83.27146
506.5589, 83.89096
507.0410, 84.43606
507.5231, 84.79668
508.0052, 84.95550
508.4873, 85.02434
508.9695, 84.96894
509.4516, 84.89975
509.9337, 85.08125
510.4158, 85.49680
510.8979, 85.82726
511.3800, 85.77842
511.8622, 85.59875
512.3443, 86.04111
512.8264, 87.05686
513.3085, 87.81808
513.7906, 87.32131
514.2728, 86.33250
514.7549, 85.92712
515.2370, 86.50690
515.7191, 87.07946
516.2012, 86.81882
516.6833, 86.19289
517.1655, 85.91643
517.6476, 86.62281
518.1297, 87.31726
518.6118, 87.50835
519.0939, 87.26345
519.5760, 87.42313
520.0582, 88.64659
520.5403, 89.81334
521.0224, 90.42480
521.5045, 90.30563
521.9866, 90.10926
522.4688, 89.65087
522.9509, 89.31815
523.4330, 89.72265
523.9151, 91.05242
524.3972, 92.07668
524.8793, 92.49460
525.3615, 92.46535
525.8436, 92.37392
526.3257, 92.21912
526.8078, 91.98384
527.2899, 91.57214
527.7720, 91.08458
528.2542, 90.71635
528.7363, 90.47399
529.2184, 90.43647
529.7005, 90.98012
530.1826, 91.67412
530.6647, 91.87305
531.1469, 91.02267
531.6290, 90.26762
532.1111, 90.33243
532.5932, 90.94568
533.0753, 91.55201
533.5574, 92.16210
534.0396, 92.57616
534.5217, 92.70780
535.0038, 92.54134
535.4859, 92.24266
535.9680, 91.63270
536.4501, 91.07433
536.9323, 90.78174
537.4144, 90.82705
537.8965, 90.94633
538.3786, 91.17535
538.8607, 91.42357
539.3428, 91.59342
539.8250, 91.69714
540.3071, 91.56554
540.7892, 91.08736
541.2713, 90.39815
541.7534, 89.72880
542.2355, 89.10296
542.7177, 88.76977
543.1998, 89.06698
543.6819, 89.69057
544.1640, 90.22496
544.6461, 90.64465
545.1282, 90.87943
545.6104, 90.83048
546.0925, 90.58398
546.5746, 90.22385
547.0567, 89.62132
547.5388, 89.11983
548.0209, 88.75343
548.5031, 88.57755
548.9852, 88.70406
549.4673, 89.79617
549.9494, 90.50247
550.4315, 90.32703
550.9136, 89.27516
551.3958, 88.60289
551.8779, 88.40627
552.3600, 88.42794
552.8421, 88.55764
553.3242, 88.81923
553.8063, 88.91515
554.2885, 88.76413
554.7706, 88.63685
555.2527, 89.14798
555.7348, 90.12940
556.2169, 90.44642
556.6990, 89.38618
557.1812, 87.97746
557.6633, 87.83797
558.1454, 88.67097
558.6275, 89.36221
559.1096, 89.22997
559.5917, 88.72067
560.0739, 88.08495
560.5560, 87.33595
561.0381, 86.77241
561.5202, 86.43188
562.0023, 86.38098
562.4844, 86.70146
562.9666, 87.98017
563.4487, 88.74731
563.9308, 88.62826
564.4129, 88.09273
564.8950, 87.88091
565.3771, 88.22918
565.8593, 88.34532
566.3414, 87.91190
566.8235, 87.12785
567.3056, 86.99444
567.7877, 87.60995
568.2698, 88.16219
568.7520, 88.05690
569.2341, 87.47903
569.7162, 87.18635
570.1983, 87.22381
570.6804, 87.22735
571.1625, 86.69466
571.6447, 85.94474
572.1268, 85.48094
572.6089, 85.41665
573.0910, 85.66894
573.5731, 86.61780
574.0552, 87.77752
574.5374, 88.31864
575.0195, 87.19611
575.5016, 86.19051
575.9837, 86.03336
576.4658, 86.65377
576.9479, 86.96430
577.4301, 86.91971
577.9122, 86.58202
578.3943, 85.82373
578.8764, 84.44331
579.3585, 83.87901
579.8406, 84.33501
580.3228, 85.15180
580.8049, 85.68135
581.2870, 85.93557
581.7691, 86.19473
582.2512, 86.55167
582.7333, 86.81363
