##NAMES=Richterite
##RRUFFID=R060043
##IDEAL CHEMISTRY=Na(CaNa)Mg_5_Si_8_O_22_(OH)_2_
##LOCALITY=Langban, Filipstad, Varmland, Sweden
##OWNER=RRUFF
##SOURCE=University of Arizona Mineral Museum
##DESCRIPTION=Brown transparent stubby prismatic single crystal associated with calcite
##STATUS=The identification of this mineral has been confirmed by X-ray diffraction and chemical analysis
##URL=rruff.info/R060043
##MEASURED CHEMISTRY=(Na_0.45_K_0.25_[box]_0.30_)(Ca_0.78_Na_1.18_Mn_0.04_)_&#931;=2_(Mg_4.25_Mn_0.75_)_&#931;=5_(Si_0.97_Fe^3+^_0.02_Al_0.01_)_8_O_22_(OH)_2_
146.5207, 805.9346
147.0029, 809.1578
147.4850, 811.9708
147.9671, 814.6240
148.4492, 817.2982
148.9313, 820.3568
149.4134, 824.0807
149.8955, 828.4772
150.3777, 833.1967
150.8598, 839.2419
151.3419, 844.7603
151.8240, 849.1957
152.3061, 852.5313
152.7882, 854.9455
153.2704, 856.4767
153.7525, 856.6136
154.2346, 857.6995
154.7167, 860.2412
155.1988, 863.1296
155.6809, 866.0121
156.1631, 868.7156
156.6452, 870.9565
157.1273, 872.3937
157.6094, 873.0910
158.0915, 872.4630
158.5736, 868.7643
159.0558, 864.6064
159.5379, 862.8392
160.0200, 864.3503
160.5021, 867.2609
160.9842, 868.2194
161.4663, 866.7938
161.9485, 865.3243
162.4306, 863.9288
162.9127, 862.8573
163.3948, 862.5731
163.8769, 863.2542
164.3590, 864.8167
164.8412, 867.1793
165.3233, 870.4879
165.8054, 873.7684
166.2875, 876.6056
166.7696, 879.0004
167.2517, 880.8302
167.7339, 881.7762
168.2160, 882.3094
168.6981, 883.0304
169.1802, 884.0631
169.6623, 884.8068
170.1444, 884.0485
170.6266, 881.2776
171.1087, 880.2119
171.5908, 883.7162
172.0729, 888.3582
172.5550, 891.8503
173.0371, 893.5023
173.5193, 894.3320
174.0014, 896.3438
174.4835, 900.9894
174.9656, 903.5170
175.4477, 901.2775
175.9298, 897.9066
176.4120, 896.9451
176.8941, 899.8859
177.3762, 904.9186
177.8583, 906.8872
178.3404, 901.9328
178.8225, 898.8818
179.3047, 899.3765
179.7868, 901.8574
180.2689, 904.8052
180.7510, 907.4742
181.2331, 909.6707
181.7152, 910.3973
182.1974, 907.0573
182.6795, 905.1896
183.1616, 906.4478
183.6437, 909.7368
184.1258, 913.3362
184.6079, 916.4070
185.0900, 918.8390
185.5722, 919.7697
186.0543, 916.5941
186.5364, 914.9360
187.0185, 917.8065
187.5006, 924.1088
187.9827, 930.5911
188.4649, 935.6185
188.9470, 939.0160
189.4291, 940.9390
189.9112, 940.4129
190.3933, 939.3795
190.8754, 938.4023
191.3576, 937.5834
191.8397, 938.4784
192.3218, 943.3716
192.8039, 950.3522
193.2860, 954.9305
193.7681, 954.6883
194.2503, 953.6124
194.7324, 956.4135
195.2145, 963.7155
195.6966, 970.8081
196.1787, 975.2418
196.6608, 977.8154
197.1430, 978.9170
197.6251, 977.7950
198.1072, 976.1069
198.5893, 976.5702
199.0714, 979.4794
199.5535, 983.9288
200.0357, 991.5272
200.5178, 999.6962
200.9999, 1005.209
201.4820, 1006.164
201.9641, 1004.174
202.4462, 1003.620
202.9284, 1004.648
203.4105, 1007.109
203.8926, 1011.735
204.3747, 1017.280
204.8568, 1022.157
205.3389, 1025.390
205.8211, 1027.429
206.3032, 1030.249
206.7853, 1034.677
207.2674, 1038.949
207.7495, 1042.637
208.2316, 1045.994
208.7138, 1049.430
209.1959, 1053.200
209.6780, 1057.243
210.1601, 1060.984
210.6422, 1063.405
211.1243, 1066.618
211.6065, 1071.900
212.0886, 1078.146
212.5707, 1083.207
213.0528, 1085.484
213.5349, 1085.533
214.0170, 1088.917
214.4992, 1100.038
214.9813, 1109.400
215.4634, 1113.140
215.9455, 1113.162
216.4276, 1113.653
216.9097, 1117.249
217.3919, 1123.635
217.8740, 1129.833
218.3561, 1135.955
218.8382, 1141.807
219.3203, 1147.178
219.8024, 1152.181
220.2845, 1157.260
220.7667, 1162.950
221.2488, 1168.816
221.7309, 1172.725
222.2130, 1173.226
222.6951, 1173.428
223.1772, 1175.207
223.6594, 1178.179
224.1415, 1180.485
224.6236, 1181.032
225.1057, 1180.067
225.5878, 1178.941
226.0699, 1177.747
226.5521, 1176.290
227.0342, 1174.946
227.5163, 1173.559
227.9984, 1170.447
228.4805, 1163.840
228.9626, 1155.273
229.4448, 1148.008
229.9269, 1143.013
230.4090, 1138.196
230.8911, 1130.531
231.3732, 1120.010
231.8553, 1112.676
232.3375, 1114.423
232.8196, 1119.251
233.3017, 1119.637
233.7838, 1113.635
234.2659, 1105.456
234.7480, 1099.212
235.2302, 1095.044
235.7123, 1091.454
236.1944, 1088.130
236.6765, 1085.078
237.1586, 1082.326
237.6407, 1079.881
238.1229, 1077.735
238.6050, 1075.532
239.0871, 1072.960
239.5692, 1072.066
240.0513, 1075.231
240.5334, 1079.262
241.0156, 1082.411
241.4977, 1084.257
241.9798, 1084.722
242.4619, 1083.214
242.9440, 1078.963
243.4261, 1075.654
243.9083, 1074.155
244.3904, 1073.602
244.8725, 1073.684
245.3546, 1074.287
245.8367, 1075.195
246.3188, 1076.070
246.8010, 1076.757
247.2831, 1077.922
247.7652, 1080.763
248.2473, 1083.249
248.7294, 1083.745
249.2115, 1082.191
249.6937, 1080.109
250.1758, 1079.814
250.6579, 1082.811
251.1400, 1083.424
251.6221, 1078.542
252.1042, 1073.948
252.5864, 1073.531
253.0685, 1077.341
253.5506, 1082.349
254.0327, 1085.093
254.5148, 1085.312
254.9969, 1083.814
255.4790, 1077.786
255.9612, 1072.621
256.4433, 1071.897
256.9254, 1075.354
257.4075, 1079.965
257.8896, 1082.445
258.3718, 1082.174
258.8539, 1082.473
259.3360, 1084.340
259.8181, 1085.800
260.3002, 1085.349
260.7823, 1083.335
261.2645, 1081.490
261.7466, 1081.564
262.2287, 1083.973
262.7108, 1085.165
263.1929, 1084.572
263.6750, 1083.591
264.1572, 1082.270
264.6393, 1080.999
265.1214, 1080.848
265.6035, 1082.951
266.0856, 1087.429
266.5677, 1089.636
267.0499, 1088.033
267.5320, 1086.238
268.0141, 1085.471
268.4962, 1085.765
268.9783, 1086.950
269.4604, 1089.077
269.9426, 1092.010
270.4247, 1093.910
270.9068, 1093.520
271.3889, 1093.646
271.8710, 1096.329
272.3531, 1100.423
272.8352, 1102.813
273.3174, 1101.358
273.7995, 1097.192
274.2816, 1095.970
274.7637, 1100.284
275.2458, 1103.897
275.7279, 1103.871
276.2101, 1101.815
276.6922, 1101.339
277.1743, 1104.390
277.6564, 1109.464
278.1385, 1112.130
278.6206, 1111.068
279.1028, 1110.620
279.5849, 1112.389
280.0670, 1115.513
280.5491, 1118.509
281.0312, 1120.846
281.5133, 1122.844
281.9955, 1125.299
282.4776, 1128.659
282.9597, 1130.963
283.4418, 1130.650
283.9239, 1129.269
284.4060, 1129.505
284.8882, 1132.247
285.3703, 1135.733
285.8524, 1137.311
286.3345, 1136.835
286.8166, 1136.784
287.2987, 1137.833
287.7809, 1139.517
288.2630, 1141.445
288.7451, 1143.596
289.2272, 1145.458
289.7093, 1146.047
290.1914, 1145.489
290.6736, 1146.033
291.1557, 1148.555
291.6378, 1152.061
292.1199, 1155.882
292.6020, 1159.984
293.0841, 1163.419
293.5663, 1165.107
294.0484, 1165.350
294.5305, 1165.866
295.0126, 1167.624
295.4947, 1169.159
295.9768, 1168.453
296.4590, 1165.597
296.9411, 1163.791
297.4232, 1165.328
297.9053, 1169.470
298.3874, 1173.457
298.8695, 1177.865
299.3517, 1181.357
299.8338, 1182.275
300.3159, 1181.010
300.7980, 1180.219
301.2801, 1181.103
301.7622, 1183.262
302.2444, 1185.731
302.7265, 1188.751
303.2086, 1191.528
303.6907, 1193.558
304.1728, 1194.974
304.6549, 1196.156
305.1371, 1197.094
305.6192, 1198.064
306.1013, 1199.589
306.5834, 1201.764
307.0655, 1203.645
307.5476, 1204.693
308.0298, 1205.160
308.5119, 1205.434
308.9940, 1205.315
309.4761, 1205.713
309.9582, 1207.864
310.4403, 1211.534
310.9225, 1215.644
311.4046, 1220.666
311.8867, 1225.670
312.3688, 1229.089
312.8509, 1230.644
313.3330, 1231.305
313.8152, 1231.226
314.2973, 1230.786
314.7794, 1231.345
315.2615, 1233.398
315.7436, 1236.450
316.2257, 1240.495
316.7079, 1245.607
317.1900, 1249.827
317.6721, 1251.216
318.1542, 1251.019
318.6363, 1252.391
319.1184, 1256.572
319.6006, 1261.122
320.0827, 1264.375
320.5648, 1266.403
321.0469, 1267.740
321.5290, 1268.676
322.0111, 1268.904
322.4933, 1267.559
322.9754, 1263.520
323.4575, 1261.245
323.9396, 1264.002
324.4217, 1270.526
324.9038, 1277.246
325.3860, 1283.720
325.8681, 1289.059
326.3502, 1291.407
326.8323, 1290.802
327.3144, 1290.769
327.7965, 1293.333
328.2787, 1297.067
328.7608, 1299.413
329.2429, 1299.804
329.7250, 1299.688
330.2071, 1300.572
330.6892, 1302.251
331.1714, 1303.509
331.6535, 1302.916
332.1356, 1302.515
332.6177, 1305.454
333.0998, 1311.865
333.5819, 1316.890
334.0641, 1316.103
334.5462, 1311.302
335.0283, 1309.948
335.5104, 1314.052
335.9925, 1319.883
336.4746, 1326.324
336.9568, 1332.875
337.4389, 1336.743
337.9210, 1335.735
338.4031, 1332.213
338.8852, 1331.833
339.3673, 1335.548
339.8495, 1339.537
340.3316, 1343.329
340.8137, 1346.212
341.2958, 1346.085
341.7779, 1341.719
342.2600, 1336.366
342.7421, 1335.225
343.2242, 1338.723
343.7064, 1341.444
344.1885, 1341.091
344.6706, 1340.116
345.1527, 1341.846
345.6348, 1346.738
346.1169, 1351.513
346.5991, 1352.740
347.0812, 1350.240
347.5633, 1350.064
348.0454, 1354.347
348.5275, 1359.198
349.0096, 1361.598
349.4918, 1362.013
349.9739, 1363.297
350.4560, 1367.655
350.9381, 1374.036
351.4202, 1377.211
351.9023, 1373.788
352.3845, 1371.604
352.8666, 1374.348
353.3487, 1379.772
353.8308, 1383.508
354.3129, 1383.688
354.7950, 1382.436
355.2772, 1384.153
355.7593, 1391.139
356.2414, 1396.002
356.7235, 1396.257
357.2056, 1395.090
357.6877, 1395.560
358.1699, 1398.236
358.6520, 1401.982
359.1341, 1405.713
359.6162, 1409.508
360.0983, 1412.709
360.5804, 1415.248
361.0626, 1417.346
361.5447, 1418.464
362.0268, 1419.131
362.5089, 1420.964
362.9910, 1425.233
363.4731, 1431.615
363.9553, 1436.921
364.4374, 1440.409
364.9195, 1443.837
365.4016, 1447.719
365.8837, 1451.704
366.3658, 1455.191
366.8480, 1457.942
367.3301, 1460.356
367.8122, 1463.308
368.2943, 1467.516
368.7764, 1471.134
369.2585, 1473.697
369.7407, 1476.032
370.2228, 1478.796
370.7049, 1482.056
371.1870, 1485.429
371.6691, 1488.515
372.1512, 1491.276
372.6334, 1493.878
373.1155, 1495.695
373.5976, 1497.965
374.0797, 1502.434
374.5618, 1507.684
375.0439, 1510.620
375.5261, 1508.916
376.0082, 1503.688
376.4903, 1500.667
376.9724, 1501.444
377.4545, 1502.305
377.9366, 1501.766
378.4188, 1501.402
378.9009, 1503.386
379.3830, 1508.358
379.8651, 1514.110
380.3472, 1516.536
380.8293, 1513.950
381.3115, 1513.689
381.7936, 1517.607
382.2757, 1522.996
382.7578, 1529.315
383.2399, 1536.084
383.7220, 1542.175
384.2042, 1546.579
384.6863, 1549.388
385.1684, 1551.830
385.6505, 1553.906
386.1326, 1555.598
386.6147, 1555.181
387.0969, 1554.770
387.5790, 1558.240
388.0611, 1568.454
388.5432, 1581.301
389.0253, 1588.820
389.5074, 1589.669
389.9896, 1591.248
390.4717, 1597.058
390.9538, 1604.033
391.4359, 1609.960
391.9180, 1614.540
392.4001, 1617.802
392.8823, 1619.118
393.3644, 1618.854
393.8465, 1619.403
394.3286, 1621.542
394.8107, 1623.868
395.2928, 1625.716
395.7750, 1626.942
396.2571, 1626.759
396.7392, 1624.096
397.2213, 1620.210
397.7034, 1617.095
398.1855, 1614.915
398.6677, 1611.892
399.1498, 1606.357
399.6319, 1599.471
400.1140, 1593.867
400.5961, 1589.460
401.0782, 1586.682
401.5604, 1587.171
402.0425, 1589.607
402.5246, 1589.690
403.0067, 1585.498
403.4888, 1580.035
403.9709, 1577.823
404.4531, 1578.951
404.9352, 1580.966
405.4173, 1584.745
405.8994, 1588.436
406.3815, 1589.669
406.8636, 1588.470
407.3458, 1587.399
407.8279, 1588.740
408.3100, 1592.247
408.7921, 1593.756
409.2742, 1591.144
409.7563, 1589.150
410.2385, 1589.599
410.7206, 1591.842
411.2027, 1594.836
411.6848, 1598.165
412.1669, 1601.578
412.6490, 1604.569
413.1311, 1607.193
413.6133, 1609.170
414.0954, 1609.792
414.5775, 1610.300
415.0596, 1611.463
415.5417, 1613.419
416.0238, 1616.161
416.5060, 1619.979
416.9881, 1624.944
417.4702, 1627.556
417.9523, 1624.119
418.4344, 1622.290
418.9165, 1625.508
419.3987, 1630.985
419.8808, 1634.349
420.3629, 1633.530
420.8450, 1630.801
421.3271, 1631.179
421.8092, 1636.234
422.2914, 1640.454
422.7735, 1642.862
423.2556, 1644.596
423.7377, 1646.197
424.2198, 1647.763
424.7019, 1649.252
425.1841, 1650.606
425.6662, 1651.837
426.1483, 1653.035
426.6304, 1654.076
427.1125, 1655.298
427.5946, 1656.908
428.0768, 1658.772
428.5589, 1660.667
429.0410, 1662.508
429.5231, 1664.409
430.0052, 1666.889
430.4873, 1669.994
430.9695, 1671.715
431.4516, 1670.029
431.9337, 1668.147
432.4158, 1670.042
432.8979, 1675.762
433.3800, 1680.848
433.8622, 1682.073
434.3443, 1681.588
434.8264, 1683.860
435.3085, 1689.683
435.7906, 1694.903
436.2727, 1695.854
436.7549, 1693.478
437.2370, 1692.763
437.7191, 1695.871
438.2012, 1698.612
438.6833, 1697.370
439.1654, 1694.026
439.6476, 1693.820
440.1297, 1699.142
440.6118, 1706.427
441.0939, 1709.309
441.5760, 1705.363
442.0581, 1703.696
442.5403, 1706.348
443.0224, 1710.243
443.5045, 1713.118
443.9866, 1714.895
444.4687, 1716.735
444.9508, 1719.736
445.4330, 1723.610
445.9151, 1725.150
446.3972, 1720.143
446.8793, 1717.816
447.3614, 1721.204
447.8435, 1727.275
448.3257, 1732.901
448.8078, 1736.987
449.2899, 1739.884
449.7720, 1741.800
450.2541, 1742.144
450.7362, 1743.569
451.2184, 1748.487
451.7005, 1752.242
452.1826, 1751.536
452.6647, 1748.110
453.1468, 1746.195
453.6289, 1748.443
454.1111, 1753.763
454.5932, 1759.560
455.0753, 1766.434
455.5574, 1772.086
456.0395, 1775.069
456.5216, 1776.839
457.0038, 1778.086
457.4859, 1778.916
457.9680, 1780.199
458.4501, 1783.014
458.9322, 1786.888
459.4143, 1789.668
459.8965, 1790.464
460.3786, 1791.973
460.8607, 1797.078
461.3428, 1804.600
461.8249, 1811.688
462.3070, 1819.346
462.7892, 1824.957
463.2713, 1824.711
463.7534, 1820.280
464.2355, 1818.242
464.7176, 1821.498
465.1997, 1827.160
465.6819, 1830.062
466.1640, 1829.116
466.6461, 1829.730
467.1282, 1834.571
467.6103, 1839.710
468.0924, 1841.078
468.5746, 1839.162
469.0567, 1838.040
469.5388, 1840.852
470.0209, 1846.898
470.5030, 1851.448
470.9851, 1852.571
471.4673, 1854.493
471.9494, 1858.515
472.4315, 1863.113
472.9136, 1866.859
473.3957, 1869.348
473.8778, 1870.901
474.3600, 1871.430
474.8421, 1870.450
475.3242, 1872.084
475.8063, 1879.680
476.2884, 1886.428
476.7705, 1890.233
477.2527, 1891.658
477.7348, 1891.476
478.2169, 1889.675
478.6990, 1887.617
479.1811, 1887.226
479.6632, 1888.424
480.1454, 1892.216
480.6275, 1901.981
481.1096, 1911.381
481.5917, 1914.454
482.0738, 1911.766
482.5559, 1909.339
483.0380, 1910.507
483.5201, 1913.514
484.0023, 1914.913
484.4844, 1914.480
484.9665, 1916.437
485.4486, 1925.037
485.9307, 1936.596
486.4128, 1940.987
486.8950, 1934.185
487.3771, 1929.211
487.8592, 1932.325
488.3413, 1939.144
488.8234, 1943.597
489.3055, 1944.598
489.7877, 1945.167
490.2698, 1948.517
490.7519, 1954.923
491.2340, 1958.828
491.7161, 1957.437
492.1982, 1957.213
492.6804, 1961.250
493.1625, 1967.360
493.6446, 1972.279
494.1267, 1974.809
494.6088, 1976.166
495.0909, 1978.160
495.5731, 1980.666
496.0552, 1984.215
496.5373, 1990.917
497.0194, 1996.676
497.5015, 1998.406
497.9836, 1997.925
498.4658, 1999.598
498.9479, 2006.440
499.4300, 2015.454
499.9121, 2020.271
500.3942, 2020.010
500.8763, 2020.833
501.3585, 2025.254
501.8406, 2030.780
502.3227, 2035.248
502.8048, 2038.621
503.2869, 2041.627
503.7690, 2044.312
504.2512, 2046.979
504.7333, 2050.277
505.2154, 2054.257
505.6975, 2057.783
506.1796, 2059.997
506.6617, 2061.376
507.1439, 2063.574
507.6260, 2067.695
508.1081, 2070.512
508.5902, 2069.581
509.0723, 2067.707
509.5544, 2068.057
510.0366, 2071.151
510.5187, 2075.891
511.0008, 2081.581
511.4829, 2088.214
511.9650, 2092.812
512.4471, 2093.628
512.9293, 2094.495
513.4114, 2096.842
513.8935, 2099.294
514.3756, 2099.635
514.8577, 2097.449
515.3398, 2095.308
515.8220, 2096.517
516.3041, 2101.280
516.7862, 2107.309
517.2683, 2116.623
517.7504, 2124.435
518.2325, 2128.662
518.7147, 2130.088
519.1968, 2129.608
519.6789, 2126.779
520.1610, 2124.064
520.6431, 2124.960
521.1252, 2128.925
521.6074, 2131.240
522.0895, 2130.010
522.5716, 2128.379
523.0537, 2130.671
523.5358, 2136.227
524.0179, 2139.762
524.5001, 2137.744
524.9822, 2135.783
525.4643, 2139.459
525.9464, 2146.681
526.4285, 2150.337
526.9106, 2146.994
527.3928, 2140.969
527.8749, 2140.338
528.3570, 2147.607
528.8391, 2154.852
529.3212, 2164.018
529.8033, 2171.366
530.2855, 2173.921
530.7676, 2172.924
531.2497, 2171.304
531.7318, 2170.596
532.2139, 2171.208
532.6960, 2174.968
533.1782, 2184.104
533.6603, 2190.034
534.1424, 2188.728
534.6245, 2185.824
535.1066, 2183.300
535.5887, 2181.821
536.0709, 2182.827
536.5530, 2188.269
537.0351, 2196.190
537.5172, 2204.320
537.9993, 2212.851
538.4814, 2216.277
538.9636, 2208.906
539.4457, 2198.354
539.9278, 2197.894
540.4099, 2209.069
540.8920, 2219.362
541.3741, 2225.941
541.8563, 2229.690
542.3384, 2230.227
542.8205, 2228.330
543.3026, 2227.185
543.7847, 2228.749
544.2668, 2232.638
544.7490, 2237.497
545.2311, 2246.125
545.7132, 2251.723
546.1953, 2252.169
546.6774, 2251.121
547.1595, 2250.498
547.6417, 2250.895
548.1238, 2252.897
548.6059, 2257.429
549.0880, 2263.518
549.5701, 2266.959
550.0522, 2266.206
550.5344, 2266.742
551.0165, 2271.535
551.4986, 2277.435
551.9807, 2282.136
552.4628, 2285.475
552.9449, 2288.470
553.4271, 2292.458
553.9092, 2296.227
554.3913, 2296.825
554.8734, 2294.103
555.3555, 2292.411
555.8376, 2293.937
556.3198, 2298.126
556.8019, 2304.125
557.2840, 2313.446
557.7661, 2320.478
558.2482, 2322.497
558.7303, 2322.937
559.2125, 2324.969
559.6946, 2328.599
560.1767, 2331.781
560.6588, 2332.919
561.1409, 2332.826
561.6230, 2335.081
562.1052, 2340.941
562.5873, 2347.121
563.0694, 2355.018
563.5515, 2361.721
564.0336, 2363.871
564.5157, 2362.351
564.9979, 2361.915
565.4800, 2366.900
565.9621, 2374.731
566.4442, 2377.953
566.9263, 2375.591
567.4084, 2375.362
567.8906, 2381.611
568.3727, 2390.140
568.8548, 2394.946
569.3369, 2395.751
569.8190, 2397.717
570.3011, 2403.820
570.7833, 2411.034
571.2654, 2416.168
571.7475, 2419.421
572.2296, 2422.648
572.7117, 2426.914
573.1938, 2431.623
573.6760, 2435.417
574.1581, 2438.129
574.6402, 2440.083
575.1223, 2440.431
575.6044, 2440.825
576.0865, 2442.380
576.5687, 2444.805
577.0508, 2446.977
577.5329, 2448.095
578.0150, 2449.200
578.4971, 2453.013
578.9792, 2460.209
579.4614, 2466.155
579.9435, 2469.628
580.4256, 2471.989
580.9077, 2473.724
581.3898, 2475.145
581.8719, 2477.427
582.3541, 2481.078
582.8362, 2485.685
583.3183, 2492.283
583.8004, 2499.780
584.2825, 2503.014
584.7646, 2499.651
585.2468, 2495.061
585.7289, 2496.245
586.2110, 2504.360
586.6931, 2512.180
587.1752, 2520.309
587.6573, 2527.490
588.1394, 2533.593
588.6215, 2538.329
589.1036, 2541.136
589.5858, 2541.878
590.0679, 2541.373
590.5500, 2540.060
591.0321, 2537.593
591.5142, 2538.082
591.9963, 2543.134
592.4785, 2548.809
592.9606, 2554.588
593.4427, 2559.484
593.9248, 2561.575
594.4069, 2559.850
594.8890, 2558.115
595.3712, 2558.682
595.8533, 2561.395
596.3354, 2566.821
596.8175, 2575.206
597.2996, 2582.323
597.7817, 2584.526
598.2639, 2583.022
598.7460, 2584.338
599.2281, 2590.346
599.7102, 2596.227
600.1923, 2600.878
600.6744, 2605.390
601.1566, 2611.465
601.6387, 2618.626
602.1208, 2624.201
602.6029, 2625.881
603.0850, 2624.778
603.5671, 2625.200
604.0493, 2627.387
604.5314, 2630.467
605.0135, 2634.310
605.4956, 2638.995
605.9777, 2645.880
606.4598, 2654.185
606.9420, 2659.836
607.4241, 2658.738
607.9062, 2655.411
608.3883, 2654.739
608.8704, 2656.578
609.3525, 2660.555
609.8347, 2666.925
610.3168, 2673.998
610.7989, 2679.427
611.2810, 2682.844
611.7631, 2686.425
612.2452, 2691.289
612.7274, 2695.128
613.2095, 2695.992
613.6916, 2695.542
614.1737, 2696.314
614.6558, 2699.141
615.1379, 2702.871
615.6201, 2705.966
616.1022, 2708.370
616.5843, 2711.479
617.0664, 2715.060
617.5485, 2719.744
618.0306, 2727.603
618.5128, 2735.882
618.9949, 2741.002
619.4770, 2742.028
619.9591, 2742.083
620.4412, 2742.723
620.9233, 2743.579
621.4055, 2743.362
621.8876, 2742.263
622.3697, 2743.286
622.8518, 2748.559
623.3339, 2756.713
623.8160, 2763.735
624.2982, 2768.826
624.7803, 2774.040
625.2624, 2780.788
625.7445, 2786.404
626.2266, 2787.878
626.7087, 2786.942
627.1909, 2787.905
627.6730, 2793.228
628.1551, 2800.532
628.6372, 2806.274
629.1193, 2810.490
629.6014, 2811.792
630.0836, 2807.490
630.5657, 2804.460
631.0478, 2810.690
631.5299, 2822.433
632.0120, 2830.206
632.4941, 2829.264
632.9763, 2829.056
633.4584, 2836.154
633.9405, 2846.174
634.4226, 2851.772
634.9047, 2852.161
635.3868, 2852.992
635.8690, 2859.351
636.3511, 2870.157
636.8332, 2877.917
637.3153, 2881.652
637.7974, 2883.773
638.2795, 2882.152
638.7617, 2881.141
