##NAMES=Richetite
##RRUFFID=R090053
##IDEAL CHEMISTRY=(Fe^3+^,Mg)_x_Pb^2+^_8.6_(U^6+^O_2_)_36_O_36_(OH)_24_&#183;41H_2_O
##LOCALITY=Shinkolobwe mine, Katanga, Congo
##OWNER=RRUFF
##SOURCE=William W. Pinch
##DESCRIPTION=Brown plates. Sample is from the same specimen used in the Burns (1998) study.
##STATUS=The identification of this mineral has been confirmed by single-crystal X-ray diffraction.
##URL=rruff.info/R090053
92.02539, 165.9603
92.50751, 164.5840
92.98962, 165.1352
93.47174, 167.1779
93.95386, 169.6659
94.43597, 170.0045
94.91809, 166.8213
95.40021, 161.5273
95.88232, 158.3249
96.36444, 159.0177
96.84656, 159.2739
97.32867, 157.0348
97.81078, 153.7043
98.29290, 151.7882
98.77502, 153.5241
99.25713, 159.3796
99.73925, 162.2877
100.2214, 161.0581
100.7035, 158.9183
101.1856, 157.1833
101.6677, 155.9950
102.1498, 154.7395
102.6320, 152.5578
103.1141, 148.4907
103.5962, 145.9988
104.0783, 145.5666
104.5604, 146.4345
105.0425, 148.0697
105.5247, 150.4905
106.0068, 152.9709
106.4889, 154.1810
106.9710, 154.1500
107.4531, 153.5687
107.9352, 152.5588
108.4173, 151.1756
108.8995, 149.6660
109.3816, 147.6650
109.8637, 145.9481
110.3458, 145.5397
110.8279, 146.8377
111.3100, 148.3383
111.7922, 148.0722
112.2743, 145.4644
112.7564, 142.9160
113.2385, 141.1233
113.7206, 139.6930
114.2027, 138.1833
114.6849, 136.3347
115.1670, 134.4820
115.6491, 133.8869
116.1312, 136.0731
116.6133, 137.8267
117.0954, 138.5871
117.5776, 138.5800
118.0597, 138.2092
118.5418, 137.7536
119.0239, 137.2146
119.5060, 136.2470
119.9881, 133.4293
120.4703, 131.5477
120.9524, 132.4425
121.4345, 135.6841
121.9166, 139.0662
122.3987, 140.4965
122.8808, 139.5669
123.3630, 139.0186
123.8451, 139.4357
124.3272, 139.9365
124.8093, 139.4118
125.2914, 137.5324
125.7735, 135.5731
126.2557, 135.2536
126.7378, 136.2256
127.2199, 137.1852
127.7020, 137.9934
128.1841, 138.4667
128.6662, 137.8042
129.1483, 134.8631
129.6305, 132.0186
130.1126, 131.3904
130.5947, 132.7751
131.0768, 134.1822
131.5589, 133.5506
132.0410, 130.5139
132.5232, 128.4465
133.0053, 128.3961
133.4874, 129.0241
133.9695, 129.9515
134.4516, 131.0186
134.9337, 131.9628
135.4159, 132.3305
135.8980, 131.6653
136.3801, 131.2680
136.8622, 131.1060
137.3443, 131.2350
137.8264, 131.8888
138.3086, 133.1272
138.7907, 134.5800
139.2728, 135.1966
139.7549, 134.8544
140.2370, 133.7419
140.7191, 130.8251
141.2013, 127.3015
141.6834, 125.0928
142.1655, 125.3692
142.6476, 127.4664
143.1297, 128.3933
143.6118, 126.8263
144.0939, 125.7126
144.5761, 126.8878
145.0582, 129.8295
145.5403, 132.0774
146.0224, 131.8525
146.5045, 129.8811
146.9866, 128.6686
147.4688, 128.5157
147.9509, 128.9819
148.4330, 129.8364
148.9151, 131.1654
149.3972, 132.3471
149.8793, 132.7347
150.3615, 132.8017
150.8436, 133.1367
151.3257, 134.0333
151.8078, 135.2845
152.2899, 136.5507
152.7720, 138.3255
153.2542, 139.1467
153.7363, 137.8361
154.2184, 135.4562
154.7005, 133.6954
155.1826, 133.9028
155.6647, 135.7772
156.1469, 136.1454
156.6290, 132.7029
157.1111, 129.9400
157.5932, 129.7248
158.0753, 131.1864
158.5574, 132.2979
159.0396, 131.1815
159.5217, 127.4283
160.0038, 125.2432
160.4859, 125.3348
160.9680, 126.0952
161.4501, 127.0669
161.9323, 128.1342
162.4144, 129.2819
162.8965, 130.4680
163.3786, 131.6633
163.8607, 133.1665
164.3428, 135.9670
164.8250, 138.3866
165.3071, 138.8331
165.7892, 137.1447
166.2713, 134.9168
166.7534, 134.1389
167.2355, 135.0802
167.7177, 135.5033
168.1998, 134.6135
168.6819, 133.2754
169.1640, 132.7734
169.6461, 133.5499
170.1282, 134.4938
170.6104, 134.0691
171.0925, 132.4559
171.5746, 130.8633
172.0567, 129.9772
172.5388, 129.5005
173.0209, 128.4469
173.5031, 126.1713
173.9852, 123.9531
174.4673, 122.5983
174.9494, 122.1099
175.4315, 122.6034
175.9136, 124.6886
176.3958, 128.2951
176.8779, 131.2164
177.3600, 133.3291
177.8421, 134.3904
178.3242, 133.7287
178.8063, 131.5394
179.2885, 129.2749
179.7706, 128.6149
180.2527, 130.0409
180.7348, 130.9769
181.2169, 130.4927
181.6990, 130.0429
182.1812, 130.4769
182.6633, 131.8882
183.1454, 133.7197
183.6275, 135.1997
184.1096, 136.1436
184.5917, 137.1022
185.0738, 138.3582
185.5560, 139.4556
186.0381, 139.9197
186.5202, 139.6889
187.0023, 139.2248
187.4844, 139.3013
187.9665, 140.1241
188.4487, 141.2691
188.9308, 143.4296
189.4129, 145.5548
189.8950, 146.3582
190.3771, 145.4374
190.8592, 143.8991
191.3414, 143.9629
191.8235, 146.6629
192.3056, 149.0130
192.7877, 150.6004
193.2698, 151.6897
193.7519, 152.5107
194.2341, 153.0703
194.7162, 153.6626
195.1983, 155.0880
195.6804, 157.6551
196.1625, 159.8062
196.6446, 160.6254
197.1268, 160.6870
197.6089, 161.4214
198.0910, 163.5883
198.5731, 166.1754
199.0552, 167.4582
199.5373, 167.2327
200.0195, 167.0845
200.5016, 167.9116
200.9837, 169.5749
201.4658, 171.3908
201.9479, 173.3721
202.4300, 175.2130
202.9122, 176.6445
203.3943, 177.6630
203.8764, 178.3081
204.3585, 178.5912
204.8406, 178.5149
205.3227, 178.1245
205.8048, 177.0574
206.2870, 175.9519
206.7691, 175.2332
207.2512, 174.9529
207.7333, 174.9720
208.2154, 175.5425
208.6975, 176.9907
209.1797, 177.0296
209.6618, 173.9069
210.1439, 170.1467
210.6260, 166.7303
211.1081, 163.9454
211.5902, 162.0469
212.0724, 161.7533
212.5545, 164.0249
213.0366, 164.9459
213.5187, 163.3996
214.0008, 161.1559
214.4829, 158.9992
214.9651, 157.2033
215.4472, 155.8455
215.9293, 155.2854
216.4114, 156.7748
216.8935, 156.3223
217.3756, 152.4499
217.8578, 148.0222
218.3399, 144.7381
218.8220, 143.0833
219.3041, 142.7170
219.7862, 143.3118
220.2683, 146.2876
220.7505, 147.3183
221.2326, 145.0723
221.7147, 141.9444
222.1968, 139.6762
222.6789, 138.7090
223.1610, 138.5003
223.6432, 138.2871
224.1253, 138.1594
224.6074, 137.7979
225.0895, 137.2310
225.5716, 136.4215
226.0537, 135.1687
226.5358, 133.4500
227.0180, 131.7394
227.5001, 130.7302
227.9822, 130.6652
228.4643, 130.6071
228.9464, 129.9888
229.4285, 129.5904
229.9107, 130.8118
230.3928, 134.0381
230.8749, 137.1067
231.3570, 136.6082
231.8391, 132.0893
232.3212, 129.1293
232.8034, 129.8746
233.2855, 132.1565
233.7676, 133.1976
234.2497, 132.4034
234.7318, 130.9686
235.2139, 130.1461
235.6961, 129.8570
236.1782, 129.6046
236.6603, 129.0807
237.1424, 128.5759
237.6245, 128.7646
238.1066, 130.0066
238.5888, 130.9983
239.0709, 129.8956
239.5530, 127.3782
240.0351, 125.6123
240.5172, 125.5885
240.9993, 126.7403
241.4815, 128.1135
241.9636, 129.7904
242.4457, 131.3350
242.9278, 132.5396
243.4099, 133.4042
243.8920, 133.8229
244.3742, 133.4355
244.8563, 132.6168
245.3384, 132.3076
245.8205, 132.7878
246.3026, 133.1445
246.7847, 132.3623
247.2668, 131.1827
247.7490, 130.8997
248.2311, 132.5377
248.7132, 135.2318
249.1953, 136.8213
249.6774, 136.8356
250.1595, 136.6468
250.6417, 137.0142
251.1238, 137.5103
251.6059, 137.4702
252.0880, 136.3678
252.5701, 134.8283
253.0522, 134.5407
253.5344, 136.2638
254.0165, 137.7762
254.4986, 138.5898
254.9807, 138.8105
255.4628, 138.4144
255.9449, 137.3077
256.4271, 135.8838
256.9092, 135.1334
257.3913, 135.6158
257.8734, 135.7099
258.3555, 134.6147
258.8376, 133.2763
259.3198, 132.5029
259.8019, 132.6110
260.2840, 133.4925
260.7661, 135.3120
261.2482, 140.1001
261.7303, 141.6973
262.2125, 136.1823
262.6946, 129.5991
263.1767, 127.5472
263.6588, 131.6299
264.1409, 138.5061
264.6230, 142.2936
265.1052, 141.4652
265.5873, 140.2826
266.0694, 138.3387
266.5515, 136.5819
267.0336, 135.8241
267.5157, 136.1954
267.9979, 137.1206
268.4800, 137.7391
268.9621, 137.7543
269.4442, 138.1183
269.9263, 139.5939
270.4084, 140.8004
270.8906, 140.2204
271.3727, 137.9992
271.8548, 136.0769
272.3369, 137.1019
272.8190, 142.6986
273.3011, 145.7383
273.7833, 145.2143
274.2654, 143.5334
274.7475, 141.6600
275.2296, 139.8536
275.7117, 138.1228
276.1938, 136.3608
276.6760, 134.3139
277.1581, 133.9616
277.6402, 136.9860
278.1223, 139.7470
278.6044, 140.3092
279.0865, 139.0046
279.5686, 137.4003
280.0508, 136.7561
280.5329, 137.0963
281.0150, 137.2233
281.4971, 136.7319
281.9792, 136.4769
282.4613, 137.0240
282.9435, 138.0793
283.4256, 138.9171
283.9077, 139.0451
284.3898, 138.5551
284.8719, 138.2648
285.3540, 138.2840
285.8362, 138.3412
286.3183, 138.5733
286.8004, 138.7745
287.2825, 138.4794
287.7646, 137.3814
288.2467, 135.8242
288.7289, 135.0236
289.2110, 135.7389
289.6931, 136.2124
290.1752, 136.0386
290.6573, 135.5031
291.1394, 134.9751
291.6216, 134.5923
292.1037, 134.3219
292.5858, 134.0672
293.0679, 133.5368
293.5500, 133.5954
294.0321, 135.1365
294.5143, 136.9618
294.9964, 137.7320
295.4785, 137.0891
295.9606, 135.5275
296.4427, 133.5983
296.9248, 130.9711
297.4070, 129.0667
297.8891, 127.9204
298.3712, 127.5238
298.8533, 128.0376
299.3354, 129.4358
299.8175, 131.3235
300.2997, 133.5459
300.7818, 136.2594
301.2639, 137.3903
301.7460, 136.0027
302.2281, 133.8040
302.7102, 131.5306
303.1924, 129.3843
303.6745, 127.7572
304.1566, 126.8760
304.6387, 126.8276
305.1208, 127.8240
305.6029, 132.0723
306.0851, 135.1653
306.5672, 133.6420
307.0493, 128.8426
307.5314, 125.2961
308.0135, 125.8257
308.4956, 129.3512
308.9778, 131.0815
309.4599, 130.0213
309.9420, 128.7796
310.4241, 127.7217
310.9062, 127.0924
311.3883, 127.7944
311.8705, 130.5005
312.3526, 133.7657
312.8347, 134.0500
313.3168, 130.1720
313.7989, 126.6913
314.2810, 124.0086
314.7632, 122.3861
315.2453, 122.6127
315.7274, 124.9916
316.2095, 127.9002
316.6916, 129.1068
317.1737, 128.2299
317.6559, 127.2418
318.1380, 125.5833
318.6201, 124.2988
319.1022, 124.8261
319.5843, 127.2270
320.0664, 129.6296
320.5485, 130.2886
321.0306, 129.0067
321.5128, 127.6482
321.9949, 125.4364
322.4770, 123.7859
322.9591, 124.1678
323.4412, 126.1793
323.9233, 127.7067
324.4055, 127.1383
324.8876, 124.9026
325.3697, 124.1543
325.8518, 126.0930
326.3339, 127.9638
326.8160, 128.9168
327.2982, 129.0455
327.7803, 128.4920
328.2624, 127.2289
328.7445, 125.5402
329.2266, 124.1321
329.7087, 122.6463
330.1909, 121.9950
330.6730, 122.7902
331.1551, 124.3657
331.6372, 126.0272
332.1193, 127.5817
332.6014, 128.8275
333.0836, 129.5372
333.5657, 129.8053
334.0478, 128.9734
334.5299, 125.7924
335.0120, 122.3083
335.4941, 120.3230
335.9763, 119.9878
336.4584, 120.0793
336.9405, 119.4104
337.4226, 117.8695
337.9047, 117.1654
338.3868, 118.4706
338.8690, 119.4145
339.3511, 118.1773
339.8332, 115.4249
340.3153, 113.3262
340.7974, 113.3020
341.2795, 115.0323
341.7617, 116.5278
342.2438, 117.6452
342.7259, 118.7337
343.2080, 120.3293
343.6901, 121.8376
344.1722, 122.2624
344.6544, 121.1792
345.1365, 119.1284
345.6186, 117.2066
346.1007, 115.2459
346.5828, 113.7268
347.0649, 112.7144
347.5471, 112.1208
348.0292, 111.8933
348.5113, 112.0130
348.9934, 112.5220
349.4755, 113.6291
349.9576, 115.8554
350.4398, 116.3394
350.9219, 113.1693
351.4040, 110.2637
351.8861, 109.9384
352.3682, 111.7859
352.8503, 114.0530
353.3325, 115.4607
353.8146, 116.0452
354.2967, 116.3783
354.7788, 116.7089
355.2609, 116.5079
355.7430, 114.8506
356.2252, 112.8027
356.7073, 112.0084
357.1894, 113.2701
357.6715, 115.7130
358.1536, 117.1954
358.6357, 117.7285
359.1179, 117.1009
359.5999, 113.7293
360.0821, 110.2861
360.5642, 109.2369
361.0463, 110.9060
361.5284, 113.5296
362.0105, 114.8667
362.4926, 114.4408
362.9748, 114.5735
363.4569, 116.4087
363.9390, 117.7066
364.4211, 117.1488
364.9032, 115.1646
365.3853, 113.0344
365.8675, 111.6660
366.3496, 111.0244
366.8317, 110.8101
367.3138, 111.6001
367.7959, 112.0853
368.2780, 111.3672
368.7602, 110.4102
369.2423, 110.6221
369.7244, 112.6571
370.2065, 115.4201
370.6886, 116.6973
371.1707, 115.9423
371.6529, 115.0253
372.1350, 113.6854
372.6171, 112.6509
373.0992, 112.8309
373.5813, 114.1477
374.0634, 115.1936
374.5456, 114.0552
375.0277, 110.5723
375.5098, 108.4557
375.9919, 108.3580
376.4740, 109.1633
376.9561, 111.0776
377.4383, 113.4530
377.9204, 114.7741
378.4025, 113.5181
378.8846, 110.9938
379.3667, 111.3794
379.8488, 116.2975
380.3310, 119.8971
380.8131, 118.5269
381.2952, 115.2420
381.7773, 113.0681
382.2594, 112.8777
382.7415, 113.3979
383.2237, 113.1489
383.7058, 112.1380
384.1879, 111.6722
384.6700, 112.1113
385.1521, 113.2131
385.6342, 115.1120
386.1164, 117.6832
386.5985, 119.4862
387.0806, 118.6877
387.5627, 116.6323
388.0448, 117.0017
388.5269, 120.8368
389.0091, 124.5621
389.4912, 125.2026
389.9733, 123.7582
390.4554, 122.2353
390.9375, 120.7303
391.4196, 119.5707
391.9018, 118.9719
392.3839, 118.9445
392.8660, 119.7893
393.3481, 122.2300
393.8302, 125.0476
394.3123, 125.6557
394.7945, 123.2676
395.2766, 121.4459
395.7587, 121.9681
396.2408, 123.8683
396.7229, 125.8501
397.2050, 127.7444
397.6872, 128.7203
398.1693, 127.3988
398.6514, 123.4959
399.1335, 121.0818
399.6156, 121.6288
400.0977, 122.6506
400.5798, 122.1891
401.0620, 120.4932
401.5441, 119.1283
402.0262, 119.1320
402.5083, 120.1795
402.9904, 120.6341
403.4725, 120.1500
403.9547, 119.6016
404.4368, 119.0583
404.9189, 118.5748
405.4010, 118.1544
405.8831, 117.8122
406.3652, 117.7252
406.8474, 118.2299
407.3295, 119.7535
407.8116, 120.5884
408.2937, 120.3289
408.7758, 119.8288
409.2579, 119.3182
409.7401, 118.9668
410.2222, 119.2530
410.7043, 120.7723
411.1864, 123.1310
411.6685, 122.8591
412.1506, 115.8842
412.6328, 111.2823
413.1149, 111.6629
413.5970, 114.4724
414.0791, 117.1047
414.5612, 118.6221
415.0433, 119.4023
415.5255, 120.0435
416.0076, 120.6645
416.4897, 120.7334
416.9718, 119.7795
417.4539, 118.6287
417.9360, 117.2168
418.4182, 115.8553
418.9003, 115.4426
419.3824, 117.1739
419.8645, 120.3121
420.3466, 121.3458
420.8287, 119.1489
421.3109, 117.1693
421.7930, 116.9945
422.2751, 117.6875
422.7572, 118.1611
423.2393, 118.0199
423.7214, 118.0760
424.2036, 119.7241
424.6857, 122.8549
425.1678, 124.6518
425.6499, 124.1434
426.1320, 122.4840
426.6141, 119.9858
427.0963, 116.9344
427.5784, 115.7622
428.0605, 119.1944
428.5426, 124.4408
429.0247, 127.0536
429.5068, 126.7123
429.9890, 125.6485
430.4711, 124.8919
430.9532, 124.5586
431.4353, 124.8470
431.9174, 126.2659
432.3995, 127.5525
432.8817, 128.1684
433.3638, 128.1852
433.8459, 127.5769
434.3280, 126.2530
434.8101, 124.8454
435.2922, 124.3227
435.7744, 125.0218
436.2565, 125.2303
436.7386, 124.1683
437.2207, 123.1746
437.7028, 123.3201
438.1849, 124.4574
438.6671, 125.8022
439.1492, 126.8983
439.6313, 127.6897
440.1134, 127.8075
440.5955, 126.4207
441.0776, 125.3801
441.5598, 124.7893
442.0418, 124.6898
442.5240, 125.4997
443.0061, 127.1609
443.4882, 128.6132
443.9703, 128.2298
444.4524, 125.3180
444.9345, 123.8298
445.4167, 124.8323
445.8988, 126.2330
446.3809, 127.6129
446.8630, 128.8120
447.3451, 129.7089
447.8272, 130.2308
448.3094, 130.3848
448.7915, 130.0342
449.2736, 128.8010
449.7557, 128.1482
450.2378, 128.7288
450.7199, 129.8267
451.2021, 131.2074
451.6842, 132.7702
452.1663, 133.9709
452.6484, 134.1041
453.1305, 133.4499
453.6126, 133.2619
454.0948, 133.7213
454.5769, 134.3999
455.0590, 135.1180
455.5411, 135.8435
456.0232, 136.5736
456.5053, 137.6796
456.9875, 138.2723
457.4696, 136.9465
457.9517, 134.2446
458.4338, 132.6911
458.9159, 133.2582
459.3980, 135.0590
459.8802, 137.1064
460.3623, 139.5272
460.8444, 141.1541
461.3265, 141.5826
461.8086, 141.2537
462.2907, 140.0784
462.7729, 138.3205
463.2550, 137.2442
463.7371, 137.8522
464.2192, 139.7675
464.7013, 140.8236
465.1834, 140.4611
465.6656, 140.0191
466.1477, 139.3737
466.6298, 138.8958
467.1119, 139.2078
467.5940, 140.3484
468.0761, 141.5101
468.5583, 141.7280
469.0404, 140.8976
469.5225, 139.7908
470.0046, 137.4925
470.4867, 135.8762
470.9688, 136.3487
471.4510, 137.7185
471.9331, 137.8013
472.4152, 135.4201
472.8973, 132.2025
473.3794, 131.7349
473.8615, 135.0812
474.3437, 136.6138
474.8258, 133.1782
475.3079, 129.3185
475.7900, 128.4367
476.2721, 130.0697
476.7542, 130.8199
477.2364, 127.2590
477.7185, 121.6381
478.2006, 119.5527
478.6827, 121.6461
479.1648, 123.5372
479.6469, 122.4243
480.1291, 119.9658
480.6112, 119.3034
481.0933, 121.2444
481.5754, 123.0812
482.0575, 123.1645
482.5396, 122.2804
483.0217, 121.9741
483.5038, 122.5755
483.9860, 123.2457
484.4681, 123.2220
484.9502, 122.4594
485.4323, 121.4276
485.9144, 119.9720
486.3965, 118.4329
486.8787, 116.8050
487.3608, 115.2144
487.8429, 113.7395
488.3250, 112.4070
488.8071, 111.5722
489.2892, 112.0511
489.7714, 115.1183
490.2535, 116.3157
490.7356, 113.9586
491.2177, 111.6198
491.6998, 111.3077
492.1819, 112.5450
492.6641, 113.8225
493.1462, 114.2197
493.6283, 113.9455
494.1104, 113.5430
494.5925, 112.8973
495.0746, 112.4393
495.5568, 112.2145
496.0389, 112.2589
496.5210, 112.8170
497.0031, 113.8221
497.4852, 114.5987
497.9673, 114.6352
498.4495, 114.0817
498.9316, 113.3387
499.4137, 112.4238
499.8958, 111.2377
500.3779, 109.0361
500.8600, 106.7749
501.3422, 106.5275
501.8243, 109.4012
502.3064, 112.0889
502.7885, 112.8695
503.2706, 112.3816
503.7527, 111.5620
504.2349, 110.6024
504.7170, 109.9930
505.1991, 110.4345
505.6812, 112.0282
506.1633, 112.2164
506.6454, 109.7147
507.1276, 107.4001
507.6097, 106.0383
508.0918, 105.6278
508.5739, 106.4291
509.0560, 108.4743
509.5381, 110.7515
510.0203, 111.5335
510.5024, 110.2336
510.9845, 109.4532
511.4666, 109.7592
511.9487, 110.0258
512.4308, 109.5941
512.9130, 108.8235
513.3951, 108.5236
513.8772, 109.1974
514.3593, 110.2592
514.8414, 110.6698
515.3235, 110.3857
515.8057, 109.7633
516.2878, 108.6175
516.7699, 107.4079
517.2520, 106.3507
517.7341, 105.5021
518.2162, 105.2088
518.6984, 106.0900
519.1805, 107.3342
519.6626, 107.9142
520.1447, 107.8400
520.6268, 107.4391
521.1089, 106.6389
521.5911, 105.8710
522.0732, 106.2533
522.5553, 108.0695
523.0374, 109.9332
523.5195, 112.5908
524.0016, 114.5209
524.4838, 113.6136
524.9659, 110.3448
525.4480, 107.4824
525.9301, 107.1048
526.4122, 108.6793
526.8943, 109.4325
527.3765, 108.3233
527.8586, 107.8739
528.3407, 109.0089
528.8228, 110.3573
529.3049, 110.6161
529.7870, 109.7802
530.2692, 108.9753
530.7513, 109.2458
531.2334, 110.4044
531.7155, 111.4141
532.1976, 112.3961
532.6797, 112.9343
533.1619, 112.2054
533.6440, 111.2576
534.1261, 111.3297
534.6082, 112.7397
535.0903, 114.0588
535.5724, 114.2082
536.0546, 113.6373
536.5367, 113.3272
537.0188, 113.4148
537.5009, 113.4687
537.9830, 113.0414
538.4651, 112.3180
538.9473, 112.2980
539.4294, 114.1295
539.9115, 115.1577
540.3936, 113.6739
540.8757, 111.4381
541.3578, 110.7663
541.8400, 112.0265
542.3221, 113.7966
542.8042, 114.5594
543.2863, 114.2851
543.7684, 114.8695
544.2505, 117.9769
544.7326, 119.9121
545.2147, 119.3352
545.6968, 117.5639
546.1790, 115.9155
546.6611, 114.7613
547.1432, 113.9027
547.6253, 112.8344
548.1074, 111.6832
548.5895, 112.2794
549.0717, 115.6870
549.5538, 118.6965
550.0359, 119.3565
550.5180, 118.3864
551.0001, 116.4036
551.4822, 112.7563
551.9644, 109.9568
552.4465, 110.6061
552.9286, 113.0198
553.4107, 113.4532
553.8928, 111.1448
554.3749, 108.4715
554.8571, 107.7019
555.3392, 108.7513
555.8213, 108.4704
556.3034, 104.3377
556.7855, 102.1314
557.2676, 105.7353
557.7498, 110.9150
558.2319, 111.9878
558.7140, 107.9916
559.1961, 103.0801
559.6782, 101.9730
560.1603, 104.7282
560.6425, 106.3841
561.1246, 106.2680
561.6067, 105.9735
562.0888, 105.7790
562.5709, 105.7988
563.0530, 106.3607
563.5352, 107.5727
564.0173, 108.4811
564.4994, 107.9462
564.9815, 106.4394
565.4636, 105.6449
565.9457, 105.8784
566.4279, 105.9349
566.9100, 104.6616
567.3921, 102.6426
567.8742, 101.9589
568.3563, 103.6293
568.8384, 104.9269
569.3206, 104.2630
569.8027, 103.0572
570.2848, 103.4971
570.7669, 105.6382
571.2490, 107.2275
571.7311, 106.1024
572.2133, 102.6175
572.6954, 100.7289
573.1775, 101.6228
573.6596, 102.5582
574.1417, 103.5697
574.6238, 104.2236
575.1060, 103.7789
575.5881, 102.3792
576.0702, 101.3725
576.5523, 102.4298
577.0344, 104.7317
577.5165, 104.8247
577.9987, 102.0392
578.4808, 100.0210
578.9629, 100.8771
579.4450, 102.9893
579.9271, 104.2130
580.4092, 104.5121
580.8914, 103.9424
581.3735, 101.2467
581.8556, 98.49062
582.3377, 98.44872
582.8198, 100.8384
583.3019, 103.1235
583.7841, 103.8965
584.2662, 103.4489
584.7483, 102.5546
585.2304, 100.5559
585.7125, 99.20113
586.1946, 98.17033
586.6768, 98.00941
587.1589, 99.88023
587.6410, 102.9188
588.1231, 104.9127
