##NAMES=Richterite
##RRUFFID=R050414
##IDEAL CHEMISTRY=Na(CaNa)Mg_5_Si_8_O_22_(OH)_2_
##LOCALITY=Kokcha Valley, Badakhshan, Afghanistan
##OWNER=RRUFF
##SOURCE=Marcus Origlieri
##DESCRIPTION=Transparent pale yellowish-green bladed crystal
##STATUS=The identification of this mineral has been confirmed by X-ray diffraction and chemical analysis
##URL=rruff.info/R050414
##MEASURED CHEMISTRY=(Na_0.67_K_0.33_)_Σ=1_(Ca_1.19_Na_0.81_)_Σ=2_Mg_5.00_(Si_7.80_Al_0.19_Ti_0.01_)_Σ=8_O_22_((OH)_1.58_F_0.42_)_Σ=2_
92.52344, 42760.02
93.00555, 41959.53
93.48767, 42060.30
93.96979, 44285.24
94.45190, 46564.25
94.93402, 48703.45
95.41614, 50048.52
95.89825, 50822.66
96.38037, 51428.75
96.86249, 51869.52
97.34460, 52168.45
97.82672, 52376.63
98.30884, 52529.00
98.79095, 52644.28
99.27307, 52651.83
99.75519, 52511.52
100.2373, 52357.71
100.7194, 52236.86
101.2015, 52164.35
101.6837, 52136.71
102.1658, 52128.99
102.6479, 52117.14
103.1300, 52095.32
103.6121, 52092.63
104.0942, 52127.36
104.5764, 52187.92
105.0585, 52269.35
105.5406, 52377.59
106.0227, 52502.97
106.5048, 52613.55
106.9869, 52674.79
107.4691, 52738.60
107.9512, 52834.78
108.4333, 52953.63
108.9154, 53071.18
109.3975, 53164.72
109.8796, 53227.93
110.3618, 53296.22
110.8439, 53368.89
111.3260, 53443.89
111.8081, 53522.96
112.2902, 53604.18
112.7723, 53682.33
113.2544, 53749.63
113.7366, 53798.16
114.2187, 53849.86
114.7008, 53911.56
115.1829, 53972.16
115.6650, 54017.84
116.1471, 54043.51
116.6293, 54060.26
117.1114, 54096.98
117.5935, 54171.99
118.0756, 54229.05
118.5577, 54238.31
119.0398, 54217.71
119.5220, 54211.29
120.0041, 54241.20
120.4862, 54295.97
120.9683, 54346.16
121.4504, 54391.71
121.9325, 54431.89
122.4147, 54461.52
122.8968, 54478.96
123.3789, 54501.95
123.8610, 54544.80
124.3431, 54595.70
124.8252, 54644.73
125.3074, 54689.39
125.7895, 54729.49
126.2716, 54763.19
126.7537, 54783.07
127.2358, 54809.38
127.7179, 54853.27
128.2001, 54905.11
128.6822, 54952.39
129.1643, 54986.23
129.6464, 55008.24
130.1285, 55036.25
130.6107, 55076.68
131.0928, 55118.26
131.5749, 55163.76
132.0570, 55209.11
132.5391, 55245.15
133.0212, 55261.09
133.5034, 55250.73
133.9855, 55268.93
134.4676, 55332.92
134.9497, 55405.70
135.4318, 55470.09
135.9139, 55523.24
136.3960, 55568.45
136.8782, 55607.36
137.3603, 55638.17
137.8424, 55672.98
138.3245, 55712.71
138.8066, 55756.48
139.2887, 55804.59
139.7709, 55858.05
140.2530, 55910.86
140.7351, 55951.11
141.2172, 55979.55
141.6993, 56015.40
142.1814, 56071.26
142.6636, 56141.82
143.1457, 56208.55
143.6278, 56267.26
144.1099, 56320.19
144.5920, 56369.88
145.0741, 56416.34
145.5563, 56462.09
146.0384, 56509.98
146.5205, 56560.57
147.0026, 56608.85
147.4847, 56649.68
147.9668, 56691.02
148.4490, 56739.82
148.9311, 56796.65
149.4132, 56854.00
149.8953, 56898.95
150.3774, 56922.22
150.8595, 56951.95
151.3417, 56988.94
151.8238, 57032.02
152.3059, 57082.95
152.7880, 57141.45
153.2701, 57202.71
153.7522, 57253.96
154.2344, 57278.89
154.7165, 57310.91
155.1986, 57354.00
155.6807, 57403.92
156.1628, 57455.76
156.6449, 57507.04
157.1271, 57558.14
157.6092, 57610.80
158.0913, 57662.39
158.5734, 57718.59
159.0555, 57796.53
159.5376, 57882.93
160.0198, 57940.01
160.5019, 57939.88
160.9840, 57897.05
161.4661, 57872.45
161.9482, 57865.88
162.4303, 57875.95
162.9125, 57912.50
163.3946, 57974.07
163.8767, 58025.38
164.3588, 58040.82
164.8409, 58032.55
165.3230, 58019.66
165.8052, 57994.23
166.2873, 57975.48
166.7694, 57994.17
167.2515, 58060.74
167.7336, 58129.93
168.2157, 58184.04
168.6979, 58227.10
169.1800, 58263.34
169.6621, 58295.87
170.1442, 58321.91
170.6263, 58329.71
171.1084, 58296.51
171.5906, 58282.99
172.0727, 58321.55
172.5548, 58386.21
173.0369, 58439.91
173.5190, 58458.03
174.0011, 58445.64
174.4833, 58445.73
174.9654, 58465.07
175.4475, 58491.70
175.9296, 58527.76
176.4117, 58569.04
176.8938, 58609.71
177.3760, 58645.70
177.8581, 58676.98
178.3402, 58702.80
178.8223, 58712.96
179.3044, 58728.32
179.7865, 58763.73
180.2687, 58812.77
180.7508, 58855.59
181.2329, 58874.22
181.7150, 58866.04
182.1971, 58864.03
182.6792, 58871.61
183.1614, 58881.71
183.6435, 58890.07
184.1256, 58896.66
184.6077, 58903.80
185.0898, 58911.25
185.5719, 58919.68
186.0541, 58942.70
186.5362, 58993.46
187.0183, 59051.09
187.5004, 59096.02
187.9825, 59125.82
188.4646, 59149.68
188.9468, 59176.86
189.4289, 59205.30
189.9110, 59226.16
190.3931, 59229.21
190.8752, 59226.01
191.3573, 59234.23
191.8395, 59256.23
192.3216, 59287.43
192.8037, 59332.35
193.2858, 59384.39
193.7679, 59427.46
194.2500, 59450.37
194.7322, 59458.55
195.2143, 59468.24
195.6964, 59476.18
196.1785, 59492.70
196.6606, 59527.59
197.1427, 59574.07
197.6249, 59616.70
198.1070, 59640.64
198.5891, 59648.86
199.0712, 59673.84
199.5533, 59734.34
200.0354, 59790.95
200.5176, 59824.54
200.9997, 59841.71
201.4818, 59858.26
201.9639, 59886.05
202.4460, 59925.20
202.9281, 59967.10
203.4103, 60013.03
203.8924, 60060.61
204.3745, 60110.25
204.8566, 60161.43
205.3387, 60211.85
205.8208, 60259.13
206.3030, 60302.80
206.7851, 60351.80
207.2672, 60416.69
207.7493, 60477.21
208.2314, 60523.73
208.7135, 60557.79
209.1957, 60586.78
209.6778, 60617.16
210.1599, 60649.15
210.6420, 60678.72
211.1241, 60704.51
211.6062, 60728.85
212.0884, 60754.64
212.5705, 60780.53
213.0526, 60800.49
213.5347, 60806.69
214.0168, 60796.44
214.4989, 60803.39
214.9811, 60839.20
215.4632, 60881.42
215.9453, 60915.77
216.4274, 60941.65
216.9095, 60966.31
217.3916, 60995.67
217.8737, 61030.61
218.3559, 61067.46
218.8380, 61107.84
219.3201, 61150.04
219.8022, 61196.20
220.2843, 61246.65
220.7664, 61290.16
221.2486, 61308.71
221.7307, 61311.29
222.2128, 61334.97
222.6949, 61410.70
223.1770, 61496.69
223.6591, 61535.89
224.1413, 61519.13
224.6234, 61508.59
225.1055, 61559.38
225.5876, 61647.34
226.0697, 61731.89
226.5518, 61801.23
227.0340, 61861.36
227.5161, 61921.63
227.9982, 61983.52
228.4803, 62039.30
228.9624, 62080.45
229.4445, 62113.24
229.9267, 62146.05
230.4088, 62183.11
230.8909, 62220.45
231.3730, 62253.26
231.8551, 62287.37
232.3372, 62301.13
232.8194, 62273.73
233.3015, 62227.21
233.7836, 62186.25
234.2657, 62161.71
234.7478, 62147.72
235.2299, 62132.03
235.7121, 62116.81
236.1942, 62095.28
236.6763, 62060.17
237.1584, 62021.14
237.6405, 61987.51
238.1227, 61962.98
238.6048, 61946.79
239.0869, 61937.18
239.5690, 61935.40
240.0511, 61938.91
240.5332, 61952.61
241.0154, 61967.96
241.4975, 61973.24
241.9796, 61963.13
242.4617, 61948.11
242.9438, 61956.26
243.4259, 62010.24
243.9081, 62052.31
244.3902, 62069.59
244.8723, 62076.40
245.3544, 62084.16
245.8365, 62097.61
246.3186, 62117.28
246.8008, 62145.05
247.2829, 62189.36
247.7650, 62229.40
248.2471, 62273.18
248.7292, 62307.89
249.2113, 62318.01
249.6935, 62299.03
250.1756, 62263.66
250.6577, 62235.89
251.1398, 62206.44
251.6219, 62200.88
252.1040, 62242.77
252.5862, 62294.55
253.0683, 62319.64
253.5504, 62308.26
254.0325, 62281.68
254.5146, 62274.99
254.9967, 62306.16
255.4789, 62325.54
255.9610, 62325.13
256.4431, 62318.27
256.9252, 62314.53
257.4073, 62316.85
257.8894, 62326.30
258.3716, 62344.82
258.8537, 62376.99
259.3358, 62408.99
259.8179, 62441.08
260.3000, 62473.27
260.7821, 62507.02
261.2643, 62542.33
261.7464, 62574.79
262.2285, 62598.39
262.7106, 62610.05
263.1927, 62627.82
263.6748, 62652.77
264.1570, 62682.82
264.6391, 62719.55
265.1212, 62762.14
265.6033, 62800.64
266.0854, 62823.71
266.5675, 62830.09
267.0497, 62840.82
267.5318, 62858.38
268.0139, 62878.71
268.4960, 62894.80
268.9781, 62907.17
269.4602, 62931.07
269.9424, 62985.93
270.4245, 63065.08
270.9066, 63119.42
271.3887, 63138.69
271.8708, 63140.32
272.3529, 63130.40
272.8351, 63110.79
273.3172, 63097.68
273.7993, 63104.60
274.2814, 63125.23
274.7635, 63135.30
275.2456, 63112.98
275.7278, 63104.31
276.2099, 63156.61
276.6920, 63261.76
277.1741, 63352.54
277.6562, 63394.55
278.1383, 63402.21
278.6205, 63411.14
279.1026, 63421.16
279.5847, 63432.71
280.0668, 63442.61
280.5489, 63452.53
281.0310, 63472.71
281.5132, 63506.96
281.9953, 63553.76
282.4774, 63614.21
282.9595, 63692.98
283.4416, 63757.35
283.9237, 63775.31
284.4059, 63758.66
284.8880, 63759.55
285.3701, 63799.18
285.8522, 63848.16
286.3343, 63872.73
286.8164, 63874.23
287.2986, 63879.05
287.7807, 63903.84
288.2628, 63943.43
288.7449, 63980.89
289.2270, 64013.81
289.7091, 64044.75
290.1913, 64078.77
290.6734, 64113.79
291.1555, 64142.07
291.6376, 64154.68
292.1197, 64158.29
292.6018, 64169.80
293.0840, 64192.86
293.5661, 64216.91
294.0482, 64235.93
294.5303, 64250.99
295.0124, 64263.43
295.4945, 64270.02
295.9767, 64276.23
296.4588, 64293.22
296.9409, 64324.10
297.4230, 64355.54
297.9051, 64384.90
298.3872, 64409.91
298.8694, 64425.77
299.3515, 64427.84
299.8336, 64426.05
300.3157, 64433.99
300.7978, 64453.12
301.2799, 64473.22
301.7621, 64486.23
302.2442, 64500.77
302.7263, 64528.19
303.2084, 64572.79
303.6905, 64616.13
304.1726, 64635.29
304.6548, 64628.91
305.1369, 64630.63
305.6190, 64660.31
306.1011, 64691.43
306.5832, 64697.88
307.0653, 64679.26
307.5475, 64666.30
308.0296, 64691.40
308.5117, 64750.56
308.9938, 64792.78
309.4759, 64795.50
309.9580, 64799.47
310.4402, 64837.49
310.9223, 64901.63
311.4044, 64960.49
311.8865, 64991.21
312.3686, 64999.27
312.8507, 65007.77
313.3329, 65012.09
313.8150, 65025.50
314.2971, 65059.05
314.7792, 65104.81
315.2613, 65148.83
315.7434, 65184.47
316.2256, 65214.55
316.7077, 65246.62
317.1898, 65283.89
317.6719, 65314.12
318.1540, 65322.30
318.6361, 65324.43
319.1183, 65339.49
319.6004, 65376.08
320.0825, 65419.18
320.5646, 65444.75
321.0467, 65448.21
321.5288, 65463.76
322.0110, 65516.87
322.4931, 65577.91
322.9752, 65625.05
323.4573, 65654.76
323.9394, 65674.14
324.4215, 65689.18
324.9037, 65699.80
325.3858, 65702.79
325.8679, 65688.77
326.3500, 65676.02
326.8321, 65675.48
327.3142, 65687.21
327.7964, 65708.70
328.2785, 65742.89
328.7606, 65786.99
329.2427, 65826.88
329.7248, 65859.47
330.2069, 65892.14
330.6891, 65934.74
331.1712, 65980.93
331.6533, 66016.33
332.1354, 66027.84
332.6175, 66027.92
333.0996, 66041.68
333.5818, 66071.39
334.0639, 66107.72
334.5460, 66151.20
335.0281, 66196.64
335.5102, 66236.93
335.9923, 66268.02
336.4745, 66298.81
336.9566, 66344.64
337.4387, 66406.77
337.9208, 66457.81
338.4029, 66487.52
338.8850, 66501.65
339.3671, 66500.06
339.8492, 66481.09
340.3314, 66470.30
340.8135, 66493.61
341.2956, 66545.21
341.7777, 66586.42
342.2598, 66604.14
342.7419, 66618.95
343.2241, 66652.45
343.7062, 66700.58
344.1883, 66741.80
344.6704, 66763.84
345.1525, 66772.18
345.6346, 66777.68
346.1168, 66780.14
346.5989, 66781.92
347.0810, 66775.30
347.5631, 66769.72
348.0452, 66786.30
348.5273, 66849.61
349.0095, 66920.20
349.4916, 66947.92
349.9737, 66931.77
350.4558, 66919.29
350.9379, 66936.30
351.4200, 66968.09
351.9022, 66989.36
352.3843, 66995.78
352.8664, 67000.92
353.3485, 67011.16
353.8306, 67026.95
354.3127, 67050.55
354.7949, 67084.34
355.2770, 67123.54
355.7591, 67162.28
356.2412, 67200.27
356.7233, 67240.73
357.2054, 67291.93
357.6876, 67343.91
358.1697, 67381.55
358.6518, 67402.75
359.1339, 67409.55
359.6160, 67391.40
360.0981, 67356.39
360.5803, 67349.22
361.0624, 67401.64
361.5445, 67464.29
362.0266, 67491.23
362.5087, 67486.91
362.9908, 67492.55
363.4730, 67538.30
363.9551, 67605.45
364.4372, 67635.55
364.9193, 67603.72
365.4014, 67579.30
365.8835, 67594.02
366.3657, 67635.72
366.8478, 67682.52
367.3299, 67728.45
367.8120, 67770.81
368.2941, 67802.55
368.7762, 67818.36
369.2584, 67846.66
369.7405, 67913.69
370.2226, 67981.73
370.7047, 68008.65
371.1868, 67991.10
371.6689, 67961.74
372.1511, 67947.71
372.6332, 67950.26
373.1153, 67960.30
373.5974, 67992.83
374.0795, 68018.17
374.5616, 68013.22
375.0438, 67989.19
375.5259, 67975.52
376.0080, 67988.96
376.4901, 68022.58
376.9722, 68052.30
377.4543, 68078.30
377.9365, 68099.67
378.4186, 68112.95
378.9007, 68122.57
379.3828, 68132.01
379.8649, 68142.43
380.3470, 68155.55
380.8292, 68175.07
381.3113, 68207.45
381.7934, 68225.19
382.2755, 68218.76
382.7576, 68208.17
383.2397, 68204.21
383.7219, 68206.82
384.2040, 68209.86
384.6861, 68207.33
385.1682, 68200.80
385.6503, 68212.02
386.1324, 68270.07
386.6146, 68314.89
387.0967, 68330.14
387.5788, 68328.34
388.0609, 68322.67
388.5430, 68318.83
389.0251, 68320.88
389.5073, 68337.08
389.9894, 68369.57
390.4715, 68412.48
390.9536, 68461.17
391.4357, 68520.63
391.9178, 68608.24
392.4000, 68716.20
392.8821, 68807.48
393.3642, 68838.37
393.8463, 68806.17
394.3284, 68797.80
394.8105, 68831.05
395.2927, 68868.67
395.7748, 68898.15
396.2569, 68923.11
396.7390, 68953.01
397.2211, 68995.66
397.7032, 69039.53
398.1854, 69055.32
398.6675, 69033.45
399.1496, 69013.64
399.6317, 69004.84
400.1138, 69004.17
400.5959, 69017.45
401.0781, 69044.90
401.5602, 69061.48
402.0423, 69031.39
402.5244, 68960.83
403.0065, 68920.36
403.4886, 68932.97
403.9708, 68956.11
404.4529, 68957.31
404.9350, 68943.82
405.4171, 68936.32
405.8992, 68948.68
406.3813, 68969.34
406.8635, 68980.88
407.3456, 68982.80
407.8277, 68979.02
408.3098, 68968.20
408.7919, 68954.00
409.2740, 68941.56
409.7562, 68929.23
410.2383, 68923.96
410.7204, 68930.74
411.2025, 68948.10
411.6846, 68974.29
412.1667, 69012.53
412.6489, 69049.78
413.1310, 69066.95
413.6131, 69065.01
414.0952, 69066.10
414.5773, 69075.14
415.0594, 69088.16
415.5416, 69100.66
416.0237, 69112.91
416.5058, 69129.61
416.9879, 69154.87
417.4700, 69186.74
417.9521, 69214.55
418.4343, 69236.72
418.9164, 69257.05
419.3985, 69268.33
419.8806, 69280.55
420.3627, 69313.05
420.8448, 69371.73
421.3270, 69436.40
421.8091, 69476.03
422.2912, 69476.83
422.7733, 69490.27
423.2554, 69527.85
423.7375, 69566.72
424.2197, 69596.86
424.7018, 69616.34
425.1839, 69624.22
425.6660, 69619.02
426.1481, 69602.63
426.6302, 69586.70
427.1124, 69567.05
427.5945, 69554.21
428.0766, 69547.40
428.5587, 69549.27
429.0408, 69565.20
429.5229, 69596.07
430.0051, 69632.88
430.4872, 69666.27
430.9693, 69700.08
431.4514, 69715.27
431.9335, 69695.42
432.4156, 69670.55
432.8978, 69644.20
433.3799, 69622.20
433.8620, 69615.61
434.3441, 69634.50
434.8262, 69670.96
435.3083, 69704.73
435.7905, 69738.86
436.2726, 69761.08
436.7547, 69755.41
437.2368, 69741.73
437.7189, 69737.17
438.2010, 69745.08
438.6832, 69757.67
439.1653, 69772.31
439.6474, 69787.16
440.1295, 69789.82
440.6116, 69770.62
441.0938, 69753.83
441.5759, 69756.96
442.0580, 69778.09
442.5401, 69816.98
443.0222, 69903.33
443.5043, 69986.73
443.9865, 70008.20
444.4686, 69973.61
444.9507, 69936.29
445.4328, 69917.48
445.9149, 69914.98
446.3970, 69927.00
446.8792, 69961.63
447.3613, 69985.53
447.8434, 69982.70
448.3255, 69967.63
448.8076, 69955.48
449.2897, 69949.52
449.7719, 69951.95
450.2540, 69968.05
450.7361, 69999.30
451.2182, 70010.03
451.7003, 69976.48
452.1824, 69951.91
452.6646, 69967.28
453.1467, 70002.32
453.6288, 70018.56
454.1109, 69999.09
454.5930, 69965.00
455.0751, 69958.66
455.5573, 69992.46
456.0394, 70030.92
456.5215, 70077.05
457.0036, 70123.92
457.4857, 70173.42
457.9678, 70220.80
458.4500, 70253.75
458.9321, 70259.23
459.4142, 70243.44
459.8963, 70245.17
460.3784, 70278.24
460.8605, 70304.20
461.3427, 70300.48
461.8248, 70292.50
462.3069, 70312.35
462.7890, 70367.98
463.2711, 70421.27
463.7532, 70425.16
464.2354, 70384.02
464.7175, 70358.47
465.1996, 70363.15
465.6817, 70372.16
466.1638, 70356.04
466.6459, 70328.85
467.1281, 70328.66
467.6102, 70382.92
468.0923, 70455.56
468.5744, 70512.94
469.0565, 70555.06
469.5386, 70578.30
470.0208, 70575.47
470.5029, 70559.61
470.9850, 70553.71
471.4671, 70558.61
471.9492, 70563.79
472.4313, 70567.79
472.9135, 70569.98
473.3956, 70572.35
473.8777, 70574.08
474.3598, 70566.40
474.8419, 70539.82
475.3240, 70498.04
475.8062, 70476.11
476.2883, 70491.87
476.7704, 70503.73
477.2525, 70501.23
477.7346, 70491.92
478.2167, 70486.89
478.6989, 70488.36
479.1810, 70486.58
479.6631, 70464.76
480.1452, 70413.17
480.6273, 70391.84
481.1094, 70426.16
481.5916, 70464.40
482.0737, 70493.86
482.5558, 70514.47
483.0379, 70529.99
483.5200, 70542.77
484.0021, 70547.88
484.4843, 70530.73
484.9664, 70482.73
485.4485, 70451.24
485.9306, 70458.30
486.4127, 70474.26
486.8948, 70478.55
487.3770, 70472.97
487.8591, 70472.08
488.3412, 70490.91
488.8233, 70518.20
489.3054, 70534.78
489.7875, 70541.17
490.2697, 70528.99
490.7518, 70479.35
491.2339, 70416.65
491.7160, 70391.02
492.1981, 70416.73
492.6802, 70438.31
493.1624, 70424.28
493.6445, 70394.70
494.1266, 70379.96
494.6087, 70385.02
495.0908, 70396.36
495.5729, 70401.47
496.0551, 70400.52
496.5372, 70409.83
497.0193, 70444.13
497.5014, 70469.99
497.9835, 70474.80
498.4656, 70465.87
498.9478, 70451.21
499.4299, 70434.13
499.9120, 70418.58
500.3941, 70411.54
500.8762, 70416.60
501.3583, 70414.82
501.8405, 70398.27
502.3226, 70382.72
502.8047, 70367.01
503.2868, 70357.53
503.7689, 70367.34
504.2510, 70405.14
504.7331, 70455.48
505.2152, 70494.49
505.6974, 70524.23
506.1795, 70529.88
506.6616, 70489.91
507.1437, 70441.98
507.6258, 70410.34
508.1079, 70394.98
508.5901, 70392.00
509.0722, 70409.64
509.5543, 70433.84
510.0364, 70436.34
510.5185, 70417.77
511.0006, 70420.59
511.4828, 70475.48
511.9649, 70553.97
512.4470, 70593.23
512.9291, 70583.42
513.4113, 70575.95
513.8934, 70580.34
514.3755, 70595.16
514.8576, 70627.09
515.3397, 70672.16
515.8218, 70706.09
516.3040, 70709.54
516.7861, 70686.73
517.2682, 70668.89
517.7503, 70655.55
518.2324, 70647.78
518.7145, 70646.59
519.1967, 70650.30
519.6788, 70660.95
520.1609, 70676.72
520.6430, 70688.22
521.1251, 70684.35
521.6072, 70665.64
522.0894, 70652.66
522.5715, 70648.77
523.0536, 70645.40
523.5357, 70642.81
524.0178, 70637.70
524.4999, 70623.05
524.9821, 70595.81
525.4642, 70572.58
525.9463, 70567.12
526.4284, 70578.40
526.9105, 70608.84
527.3926, 70670.42
527.8748, 70716.22
528.3569, 70695.06
528.8390, 70626.85
529.3211, 70580.31
529.8032, 70577.66
530.2853, 70580.80
530.7675, 70565.71
531.2496, 70542.52
531.7317, 70534.36
532.2138, 70548.10
532.6959, 70564.72
533.1780, 70559.05
533.6602, 70524.84
534.1423, 70506.27
534.6244, 70523.03
535.1065, 70530.84
535.5886, 70498.42
536.0707, 70450.27
536.5529, 70424.96
537.0350, 70437.73
537.5171, 70472.98
537.9992, 70512.03
538.4813, 70560.32
538.9634, 70583.95
539.4456, 70558.67
539.9277, 70533.51
540.4098, 70532.99
540.8919, 70548.91
541.3740, 70564.09
541.8561, 70572.70
542.3383, 70576.18
542.8204, 70574.44
543.3025, 70568.02
543.7846, 70562.20
544.2667, 70556.52
544.7488, 70554.97
545.2310, 70569.83
545.7131, 70597.92
546.1952, 70604.57
546.6773, 70559.77
547.1594, 70514.87
547.6415, 70503.82
548.1237, 70519.48
548.6058, 70543.03
549.0879, 70567.24
549.5700, 70591.98
550.0521, 70617.47
550.5342, 70646.44
551.0164, 70667.98
551.4985, 70677.90
551.9806, 70686.05
552.4627, 70695.28
552.9448, 70706.17
553.4269, 70719.45
553.9091, 70735.48
554.3912, 70752.30
554.8733, 70767.81
555.3554, 70782.59
555.8375, 70789.08
556.3196, 70774.05
556.8018, 70764.42
557.2839, 70781.10
557.7660, 70816.18
558.2481, 70848.03
558.7302, 70872.30
559.2123, 70886.12
559.6945, 70884.47
560.1766, 70869.35
560.6587, 70845.84
561.1408, 70812.14
561.6229, 70782.80
562.1050, 70776.66
562.5872, 70797.71
563.0693, 70822.03
563.5514, 70856.27
564.0335, 70886.96
564.5156, 70906.19
564.9977, 70916.95
565.4799, 70923.38
565.9620, 70927.20
566.4441, 70932.48
566.9262, 70946.79
567.4083, 70973.39
567.8904, 70994.56
568.3726, 70995.13
568.8547, 71005.75
569.3368, 71051.70
569.8189, 71110.80
570.3010, 71142.45
570.7831, 71127.70
571.2653, 71104.12
571.7474, 71123.01
572.2295, 71177.61
572.7116, 71213.26
573.1937, 71220.26
573.6758, 71209.30
574.1580, 71174.07
574.6401, 71125.86
575.1222, 71109.55
575.6043, 71157.45
576.0864, 71206.42
576.5685, 71217.00
577.0507, 71210.56
577.5328, 71228.73
578.0149, 71280.23
578.4970, 71329.98
578.9791, 71337.22
579.4612, 71299.51
579.9434, 71283.89
580.4255, 71314.26
580.9076, 71339.46
581.3897, 71341.55
581.8718, 71338.52
582.3539, 71352.85
582.8361, 71388.41
583.3182, 71426.96
583.8003, 71446.10
584.2824, 71450.00
584.7645, 71470.87
585.2466, 71512.11
585.7288, 71561.01
586.2108, 71627.20
586.6929, 71689.09
