##NAMES=Richterite
##RRUFFID=R060471
##IDEAL CHEMISTRY=Na(CaNa)Mg_5_Si_8_O_22_(OH)_2_
##LOCALITY=Kipawa Complex, Villedieu Township, Quebec, Canada
##OWNER=RRUFF
##SOURCE=Michael Scott
##DESCRIPTION=Black platy fragment embedded in albite
##STATUS=The identification of this mineral has been confirmed by X-ray diffraction and chemical analysis
##URL=rruff.info/R060471
##MEASURED CHEMISTRY=(Na_0.52_K_0.40_[box]_0.08_)(Na_1.60_Ca_0.40_)_&#931;=2_(Mg_4.25_Mn_0.75_)_&#931;=5_Si_8_O_22_(OH)_2_
126.2821, 154.2696
126.7642, 155.7022
127.2463, 156.9583
127.7284, 157.8259
128.2105, 158.4295
128.6927, 159.0365
129.1748, 159.6296
129.6569, 160.2744
130.1390, 161.1021
130.6211, 162.1658
131.1032, 163.0933
131.5854, 163.6009
132.0675, 163.9339
132.5496, 164.3225
133.0317, 164.8938
133.5138, 165.5125
133.9959, 165.8198
134.4781, 165.5227
134.9602, 165.3841
135.4423, 165.7153
135.9244, 166.2892
136.4065, 166.7825
136.8886, 166.9689
137.3708, 166.8901
137.8529, 167.1123
138.3350, 167.8700
138.8171, 168.7169
139.2992, 169.6658
139.7813, 170.6352
140.2635, 171.4816
140.7456, 172.0632
141.2277, 172.3406
141.7098, 172.7145
142.1919, 173.2659
142.6740, 173.8250
143.1561, 174.2382
143.6383, 174.5208
144.1204, 174.8763
144.6025, 175.5186
145.0846, 176.4990
145.5667, 177.5642
146.0488, 179.0694
146.5310, 180.4898
147.0131, 181.2025
147.4952, 181.0421
147.9773, 180.4709
148.4594, 179.9040
148.9415, 179.3423
149.4237, 178.7999
149.9058, 178.2592
150.3879, 177.7398
150.8700, 177.3258
151.3521, 177.1088
151.8342, 176.8841
152.3164, 176.6243
152.7985, 176.2944
153.2806, 175.6044
153.7627, 174.0207
154.2448, 171.5083
154.7269, 169.6915
155.2091, 169.2664
155.6912, 169.2989
156.1733, 169.4626
156.6554, 169.6821
157.1375, 169.8965
157.6196, 170.0535
158.1018, 170.1859
158.5839, 170.1465
159.0660, 169.7984
159.5481, 169.3879
160.0302, 169.0628
160.5123, 168.8609
160.9945, 168.7246
161.4766, 168.5587
161.9587, 168.3728
162.4408, 168.1299
162.9229, 167.6494
163.4050, 167.2013
163.8871, 167.1169
164.3693, 167.5128
164.8514, 168.1325
165.3335, 168.3425
165.8156, 167.7235
166.2977, 167.2823
166.7798, 167.3164
167.2620, 167.5572
167.7441, 167.5916
168.2262, 167.2278
168.7083, 166.5810
169.1904, 165.9762
169.6725, 165.4778
170.1547, 164.9067
170.6368, 164.1246
171.1189, 163.1956
171.6010, 162.3490
172.0831, 161.7253
172.5652, 161.2210
173.0474, 160.5842
173.5295, 159.7320
174.0116, 158.9081
174.4937, 158.2552
174.9758, 157.7715
175.4579, 157.5258
175.9401, 157.8878
176.4222, 158.3375
176.9043, 158.1853
177.3864, 157.0799
177.8685, 155.8931
178.3506, 155.8948
178.8328, 157.4763
179.3149, 158.8517
179.7970, 159.3672
180.2791, 159.4351
180.7612, 159.2341
181.2433, 158.7509
181.7255, 158.3255
182.2076, 158.7956
182.6897, 160.8600
183.1718, 162.5484
183.6539, 163.3439
184.1360, 163.6714
184.6181, 163.9020
185.1003, 164.2036
185.5824, 164.5971
186.0645, 165.1615
186.5466, 166.1506
187.0287, 167.0071
187.5108, 167.5901
187.9930, 168.0165
188.4751, 168.3822
188.9572, 168.7240
189.4393, 169.1046
189.9214, 169.8922
190.4035, 171.3849
190.8857, 172.9499
191.3678, 174.6285
191.8499, 176.2858
192.3320, 177.7111
192.8141, 178.7666
193.2962, 179.4895
193.7784, 180.1600
194.2605, 180.7423
194.7426, 181.3231
195.2247, 181.8062
195.7068, 182.2883
196.1889, 183.0496
196.6711, 184.2956
197.1532, 185.9628
197.6353, 187.6164
198.1174, 189.3659
198.5995, 191.0124
199.0816, 192.4315
199.5638, 193.6448
200.0459, 194.7762
200.5280, 195.8937
201.0101, 196.9837
201.4922, 198.0122
201.9743, 199.0671
202.4565, 199.9772
202.9386, 200.4245
203.4207, 200.3894
203.9028, 200.6401
204.3849, 201.9180
204.8670, 203.6365
205.3492, 204.9355
205.8313, 205.5402
206.3134, 205.8310
206.7955, 206.2419
207.2776, 206.7917
207.7597, 207.3759
208.2419, 208.0267
208.7240, 208.6585
209.2061, 209.1465
209.6882, 209.4016
210.1703, 209.5965
210.6524, 210.1115
211.1346, 211.1840
211.6167, 211.9376
212.0988, 211.9431
212.5809, 211.5984
213.0630, 211.2146
213.5451, 210.8912
214.0273, 210.6928
214.5094, 210.8285
214.9915, 211.6416
215.4736, 212.1559
215.9557, 211.9967
216.4378, 211.5823
216.9200, 211.3584
217.4021, 211.5312
217.8842, 211.9083
218.3663, 211.9228
218.8484, 211.1173
219.3305, 210.6113
219.8127, 210.6858
220.2948, 211.0366
220.7769, 211.4634
221.2590, 211.8762
221.7411, 212.1034
222.2232, 211.6223
222.7054, 209.4387
223.1875, 207.7020
223.6696, 206.7356
224.1517, 206.2039
224.6338, 205.7442
225.1159, 205.1935
225.5980, 204.5946
226.0802, 204.0725
226.5623, 203.9949
227.0444, 203.5488
227.5265, 202.5126
228.0086, 201.1197
228.4907, 199.5970
228.9729, 198.0236
229.4550, 196.5154
229.9371, 195.4212
230.4192, 194.9438
230.9013, 194.5267
231.3834, 194.2383
231.8656, 193.9296
232.3477, 193.3570
232.8298, 192.4115
233.3119, 191.2287
233.7940, 190.0820
234.2761, 189.0166
234.7583, 187.8783
235.2404, 186.3577
235.7225, 184.7801
236.2046, 183.8272
236.6867, 183.8623
237.1688, 184.2364
237.6510, 183.7564
238.1331, 182.3739
238.6152, 180.8766
239.0973, 179.2823
239.5794, 177.7687
240.0615, 176.8232
240.5437, 176.7420
241.0258, 176.9117
241.5079, 176.5544
241.9900, 175.7071
242.4721, 174.6057
242.9542, 173.0507
243.4364, 171.3101
243.9185, 170.1386
244.4006, 169.8650
244.8827, 169.8666
245.3648, 169.5764
245.8469, 169.0219
246.3290, 168.2947
246.8112, 167.4507
247.2933, 166.4738
247.7754, 165.2710
248.2575, 163.7631
248.7396, 162.1315
249.2217, 160.3647
249.7039, 158.5550
250.1860, 157.0645
250.6681, 156.2690
251.1502, 155.9822
251.6323, 155.5118
252.1144, 154.8333
252.5966, 153.9453
253.0787, 152.7782
253.5608, 151.4328
254.0429, 150.1183
254.5250, 148.9546
255.0071, 147.9205
255.4893, 146.9215
255.9714, 145.9516
256.4535, 145.0407
256.9356, 144.2452
257.4177, 143.5023
257.8998, 142.6845
258.3820, 141.6646
258.8641, 140.5508
259.3462, 139.7703
259.8283, 139.6140
260.3104, 139.3117
260.7925, 138.4179
261.2747, 137.3006
261.7568, 136.5045
262.2389, 136.3734
262.7210, 136.5859
263.2031, 136.1580
263.6852, 134.6660
264.1674, 133.2262
264.6495, 131.8387
265.1316, 130.7338
265.6137, 130.2720
266.0958, 130.6378
266.5779, 131.4493
267.0601, 131.8235
267.5422, 131.6783
268.0243, 131.1784
268.5064, 130.0854
268.9885, 128.8550
269.4706, 127.8808
269.9528, 127.3020
270.4349, 127.0040
270.9170, 126.8113
271.3991, 126.9056
271.8812, 126.7318
272.3633, 125.9760
272.8455, 125.1603
273.3276, 124.7049
273.8097, 124.6997
274.2918, 124.9215
274.7739, 125.0436
275.2560, 125.0312
275.7382, 124.9827
276.2202, 124.7220
276.7024, 124.5598
277.1845, 124.7781
277.6666, 125.3654
278.1487, 126.0134
278.6308, 126.3027
279.1129, 125.9944
279.5951, 126.1722
280.0772, 127.4653
280.5593, 128.6197
281.0414, 128.7401
281.5235, 127.9849
282.0056, 127.2706
282.4878, 127.5291
282.9699, 128.9582
283.4520, 129.9431
283.9341, 130.1234
284.4162, 130.2844
284.8983, 130.7655
285.3805, 131.5042
285.8626, 132.2395
286.3447, 132.7534
286.8268, 133.0519
287.3089, 133.6116
287.7910, 134.6490
288.2732, 135.6906
288.7553, 136.6559
289.2374, 137.5214
289.7195, 138.3091
290.2016, 139.0594
290.6837, 139.6898
291.1659, 139.7145
291.6480, 138.0063
292.1301, 137.0107
292.6122, 137.5824
293.0943, 138.9930
293.5764, 140.2114
294.0586, 140.7662
294.5407, 140.9111
295.0228, 141.3360
295.5049, 142.4785
295.9870, 143.3727
296.4691, 143.8356
296.9513, 144.0988
297.4334, 144.4461
297.9155, 144.9617
298.3976, 145.4538
298.8797, 145.5601
299.3618, 144.7062
299.8440, 144.6045
300.3261, 146.0876
300.8082, 147.7861
301.2903, 148.4406
301.7724, 147.8818
302.2545, 147.0476
302.7367, 147.0778
303.2188, 148.3280
303.7009, 149.0767
304.1830, 149.0057
304.6651, 148.7467
305.1472, 148.6010
305.6294, 148.6246
306.1115, 148.8612
306.5936, 149.4301
307.0757, 150.3771
307.5578, 150.5822
308.0399, 149.3770
308.5221, 148.2331
309.0042, 147.8746
309.4863, 148.1158
309.9684, 148.3959
310.4505, 148.3620
310.9326, 148.0591
311.4148, 147.7934
311.8969, 147.5961
312.3790, 147.3936
312.8611, 147.1064
313.3432, 146.8147
313.8253, 146.6503
314.3075, 146.6771
314.7896, 146.8467
315.2717, 147.0456
315.7538, 147.4939
316.2359, 147.6509
316.7180, 147.3197
317.2001, 146.7438
317.6823, 146.1202
318.1644, 145.5139
318.6465, 145.0174
319.1286, 144.7779
319.6107, 144.9261
320.0928, 145.0511
320.5750, 145.3795
321.0571, 145.5316
321.5392, 145.0684
322.0213, 144.0186
322.5034, 142.9080
322.9855, 142.2817
323.4677, 142.2238
323.9498, 142.0356
324.4319, 141.6590
324.9140, 141.2269
325.3961, 140.7359
325.8782, 140.2353
326.3604, 139.8808
326.8425, 139.8354
327.3246, 140.0314
327.8067, 139.6661
328.2888, 138.2788
328.7709, 136.9424
329.2531, 135.9658
329.7352, 135.2168
330.2173, 134.4205
330.6994, 133.4355
331.1815, 132.4209
331.6636, 131.8042
332.1458, 132.1270
332.6279, 132.1923
333.1100, 131.6892
333.5921, 131.0495
334.0742, 130.8099
334.5563, 131.0875
335.0385, 131.4048
335.5206, 131.0179
336.0027, 129.4224
336.4848, 128.4239
336.9669, 128.3989
337.4490, 128.5953
337.9312, 128.5095
338.4133, 128.1332
338.8954, 127.7805
339.3775, 127.7562
339.8596, 128.0945
340.3417, 128.3290
340.8239, 128.3107
341.3060, 128.3553
341.7881, 128.5857
342.2702, 128.9646
342.7523, 129.4176
343.2344, 129.9069
343.7166, 130.4081
344.1987, 130.7975
344.6808, 131.0832
345.1629, 131.2289
345.6450, 131.0464
346.1271, 130.7952
346.6093, 130.7643
347.0914, 131.0581
347.5735, 131.5698
348.0556, 132.1194
348.5377, 132.8787
349.0198, 133.3483
349.5020, 133.3033
349.9841, 133.1802
350.4662, 133.3133
350.9483, 133.7112
351.4304, 134.1079
351.9125, 134.1509
352.3947, 133.7086
352.8768, 133.8006
353.3589, 134.9850
353.8410, 136.1421
354.3231, 136.8831
354.8052, 137.2879
355.2874, 137.5893
355.7695, 137.9253
356.2516, 138.3005
356.7337, 138.7644
357.2158, 139.4968
357.6979, 140.0632
358.1800, 140.2002
358.6621, 140.2217
359.1443, 140.4880
359.6264, 141.1380
360.1085, 141.9917
360.5906, 142.7559
361.0727, 143.4550
361.5548, 143.9916
362.0370, 144.2959
362.5191, 144.4936
363.0012, 144.5789
363.4833, 144.5955
363.9654, 144.7020
364.4475, 145.1364
364.9297, 145.9325
365.4118, 146.4728
365.8939, 146.5043
366.3760, 146.5432
366.8581, 146.7927
367.3402, 147.2024
367.8224, 147.6543
368.3045, 148.0852
368.7866, 148.5027
369.2687, 148.9767
369.7508, 149.6530
370.2329, 150.0441
370.7151, 149.7953
371.1972, 149.2986
371.6793, 148.8957
372.1614, 148.6802
372.6435, 148.6250
373.1256, 148.7875
373.6078, 149.1966
374.0899, 149.3980
374.5720, 149.0645
375.0541, 148.6993
375.5362, 148.8069
376.0183, 149.3273
376.5005, 149.6283
376.9826, 149.0961
377.4647, 147.9819
377.9468, 147.1873
378.4289, 146.7585
378.9110, 146.6736
379.3932, 147.2115
379.8753, 148.0498
380.3574, 148.5610
380.8395, 148.4740
381.3216, 148.0437
381.8037, 147.4709
382.2859, 146.7480
382.7680, 146.1960
383.2501, 146.0124
383.7322, 146.0586
384.2143, 146.0222
384.6964, 145.7932
385.1786, 145.8565
385.6607, 146.8806
386.1428, 148.4189
386.6249, 149.1945
387.1070, 148.7651
387.5891, 147.9274
388.0713, 147.6165
388.5534, 147.7776
389.0355, 147.8223
389.5176, 147.5234
389.9997, 147.1225
390.4818, 146.8453
390.9640, 146.7035
391.4461, 146.6380
391.9282, 146.6380
392.4103, 146.6775
392.8924, 146.6261
393.3745, 146.4384
393.8567, 146.2168
394.3388, 145.9630
394.8209, 145.7066
395.3030, 145.5477
395.7851, 145.5392
396.2672, 145.5272
396.7494, 145.1966
397.2315, 144.2556
397.7136, 143.7107
398.1957, 143.9228
398.6778, 144.3286
399.1599, 144.4710
399.6420, 144.3087
400.1241, 144.0708
400.6063, 143.9906
401.0884, 144.0842
401.5705, 143.7621
402.0526, 142.6640
402.5347, 141.6146
403.0168, 140.6886
403.4990, 140.0142
403.9811, 139.8699
404.4632, 140.3993
404.9453, 141.2737
405.4274, 141.6877
405.9095, 141.3605
406.3917, 141.0158
406.8738, 140.5729
407.3559, 140.1993
407.8380, 140.0971
408.3201, 140.2348
408.8022, 140.3366
409.2844, 140.1083
409.7665, 139.5274
410.2486, 138.9720
410.7307, 138.4809
411.2128, 137.9715
411.6949, 137.4114
412.1771, 136.8176
412.6592, 136.1839
413.1413, 135.4795
413.6234, 134.8269
414.1055, 134.5714
414.5876, 134.9237
415.0698, 135.0241
415.5519, 134.4132
416.0340, 133.6510
416.5161, 133.1476
416.9982, 132.9363
417.4803, 132.7071
417.9625, 132.1160
418.4446, 131.2369
418.9267, 130.5999
419.4088, 130.4058
419.8909, 130.1604
420.3730, 129.5376
420.8552, 128.6428
421.3373, 127.6802
421.8194, 126.7683
422.3015, 125.7683
422.7836, 124.3883
423.2657, 122.6385
423.7479, 121.1005
424.2300, 119.9466
424.7121, 119.2087
425.1942, 119.0003
425.6763, 119.4869
426.1584, 119.6558
426.6406, 118.7467
427.1227, 117.3304
427.6048, 116.4508
428.0869, 116.3073
428.5690, 116.2609
429.0511, 115.7026
429.5333, 114.6269
430.0154, 113.7710
430.4975, 113.3365
430.9796, 112.9335
431.4617, 112.2233
431.9438, 111.3656
432.4260, 110.8369
432.9081, 110.9045
433.3902, 111.2724
433.8723, 111.2491
434.3544, 110.7625
434.8365, 109.9602
435.3187, 108.4190
435.8008, 106.8457
436.2829, 105.8815
436.7650, 105.5562
437.2471, 105.4555
437.7292, 105.2150
438.2114, 104.8325
438.6935, 104.3620
439.1756, 103.3118
439.6577, 102.7273
440.1398, 103.2983
440.6219, 104.3365
441.1040, 104.9055
441.5862, 104.6111
442.0683, 103.8146
442.5504, 103.1313
443.0325, 102.5483
443.5146, 102.1161
443.9967, 101.8268
444.4789, 101.7036
444.9610, 101.9600
445.4431, 102.4489
445.9252, 102.6724
446.4073, 102.0969
446.8894, 100.9965
447.3716, 100.4767
447.8537, 100.7430
448.3358, 101.0779
448.8179, 101.2525
449.3000, 101.2913
449.7821, 101.1829
450.2643, 100.9017
450.7464, 100.5813
451.2285, 100.2507
451.7106, 99.95141
452.1927, 99.96121
452.6748, 100.4594
453.1570, 101.0200
453.6391, 101.1582
454.1212, 100.9642
454.6033, 100.8173
455.0854, 100.8219
455.5675, 100.8975
456.0497, 100.9021
456.5318, 100.8779
457.0139, 101.1417
457.4960, 101.9724
457.9781, 103.0515
458.4602, 103.4609
458.9424, 102.9019
459.4245, 102.4310
459.9066, 102.4601
460.3887, 102.5370
460.8708, 102.0407
461.3529, 100.9609
461.8351, 99.95135
462.3172, 99.62072
462.7993, 99.98674
463.2814, 100.5663
463.7635, 101.9322
464.2456, 102.8423
464.7278, 102.6775
465.2099, 101.9748
465.6920, 101.4643
466.1741, 101.4288
466.6562, 101.6573
467.1383, 101.8507
467.6205, 102.1019
468.1026, 102.0248
468.5847, 101.1071
469.0668, 100.3077
469.5489, 100.1492
470.0310, 100.4864
470.5132, 100.8511
470.9953, 100.9424
471.4774, 100.8836
471.9595, 101.0426
472.4416, 101.5265
472.9237, 101.8296
473.4059, 101.6029
473.8880, 101.2110
474.3701, 100.9474
474.8522, 100.8442
475.3343, 100.8747
475.8164, 101.1326
476.2986, 101.5023
476.7807, 101.6732
477.2628, 101.5808
477.7449, 101.4482
478.2270, 101.4319
478.7091, 101.5148
479.1913, 101.6130
479.6734, 101.9067
480.1555, 102.0096
480.6376, 101.4439
481.1197, 100.5717
481.6018, 100.2118
482.0839, 100.6495
482.5660, 101.4329
483.0482, 101.9648
483.5303, 102.2072
484.0124, 102.2648
484.4945, 101.9711
484.9766, 101.6609
485.4587, 101.5332
485.9409, 101.5358
486.4230, 101.4930
486.9051, 101.2981
487.3872, 101.0407
487.8693, 100.9691
488.3514, 101.0506
488.8336, 101.4036
489.3157, 102.5126
489.7978, 103.4794
490.2799, 103.4831
490.7620, 102.6666
491.2441, 101.9447
491.7263, 102.1245
492.2084, 103.0025
492.6905, 103.6084
493.1726, 103.9095
493.6547, 104.0148
494.1368, 103.7923
494.6190, 103.4807
495.1011, 103.3496
495.5832, 103.4697
496.0653, 103.5784
496.5474, 103.3887
497.0295, 103.0266
497.5117, 102.8875
497.9938, 103.0504
498.4759, 103.3509
498.9580, 103.7288
499.4401, 104.1476
499.9222, 104.4247
500.4044, 104.2224
500.8865, 104.2117
501.3686, 104.9871
501.8507, 106.1731
502.3328, 106.9689
502.8149, 107.0913
503.2971, 106.9282
503.7792, 107.0459
504.2613, 107.6101
504.7434, 107.8443
505.2255, 107.6610
505.7076, 107.2759
506.1898, 106.6467
506.6719, 105.9109
507.1540, 105.2639
507.6361, 104.7975
508.1182, 104.5842
508.6003, 104.8686
509.0825, 105.9300
509.5646, 106.7401
510.0467, 107.1869
510.5288, 107.3676
511.0109, 107.1535
511.4930, 106.6790
511.9752, 106.3440
512.4573, 106.3462
512.9394, 106.6875
513.4215, 107.5810
513.9036, 109.2009
514.3857, 110.2634
514.8679, 109.9640
515.3500, 109.0706
515.8321, 108.6085
516.3142, 108.6454
516.7963, 108.6691
517.2784, 108.2305
517.7606, 107.7550
518.2427, 107.9448
518.7248, 108.8291
519.2069, 109.7806
519.6890, 110.4249
520.1711, 110.7855
520.6533, 110.9436
521.1354, 110.5652
521.6175, 110.4594
522.0996, 110.9329
522.5817, 111.6398
523.0638, 112.3352
523.5460, 112.9204
524.0281, 113.2438
524.5102, 113.0845
524.9923, 112.4678
525.4744, 112.3157
525.9565, 113.0099
526.4387, 113.6947
526.9208, 114.1829
527.4029, 114.5850
527.8850, 115.0165
528.3671, 115.5073
528.8492, 116.0140
529.3314, 116.4975
529.8135, 116.9579
530.2956, 117.3739
530.7777, 117.6553
531.2598, 118.0770
531.7419, 119.1249
532.2241, 120.3582
532.7062, 120.9845
533.1883, 120.5471
533.6704, 120.1182
534.1525, 120.6305
534.6346, 121.6789
535.1168, 122.2778
535.5989, 122.1836
536.0810, 121.8529
536.5631, 121.7532
537.0452, 121.8980
537.5273, 121.8034
538.0095, 121.0093
538.4916, 120.5091
538.9737, 120.9297
539.4558, 121.7877
539.9379, 122.3580
540.4200, 122.4066
540.9022, 122.2145
541.3843, 122.1820
541.8664, 122.3713
542.3485, 122.3691
542.8306, 122.0426
543.3127, 121.6585
543.7948, 121.3096
544.2769, 120.9544
544.7590, 120.5115
545.2411, 119.9410
545.7233, 119.3413
546.2054, 118.8046
546.6875, 118.3340
547.1696, 118.0153
547.6517, 117.8803
548.1339, 117.8614
548.6160, 118.1399
549.0981, 118.5204
549.5802, 118.3664
550.0623, 116.9731
550.5444, 115.6387
551.0266, 115.2459
551.5087, 115.5359
551.9908, 116.0590
552.4729, 116.7031
552.9550, 117.0776
553.4371, 116.6077
553.9193, 115.0605
554.4014, 114.0820
554.8835, 114.0476
555.3656, 114.0794
555.8477, 113.9249
556.3298, 113.6115
556.8120, 113.1769
557.2941, 112.6411
557.7762, 112.1075
558.2583, 111.6554
558.7404, 111.2489
559.2225, 111.2929
559.7047, 112.4026
560.1868, 113.1543
560.6689, 112.6438
561.1510, 111.4334
561.6331, 110.5051
562.1152, 110.2547
562.5974, 110.0682
563.0795, 109.1290
563.5616, 107.7454
564.0437, 107.1588
564.5258, 107.7376
565.0079, 108.5633
565.4901, 108.8521
565.9722, 108.5996
566.4543, 108.2496
566.9364, 107.5818
567.4185, 107.0691
567.9006, 106.9140
568.3828, 107.0160
568.8649, 107.3530
569.3470, 107.8675
569.8291, 108.2151
570.3112, 107.9050
570.7933, 106.8674
571.2755, 106.4409
571.7576, 107.4399
572.2397, 108.0253
572.7218, 107.5447
573.2039, 106.5434
573.6860, 105.5543
574.1682, 104.7176
574.6503, 104.0943
575.1324, 103.7845
575.6145, 103.7439
576.0966, 103.8351
576.5787, 104.1183
577.0609, 104.2575
577.5430, 103.9810
578.0251, 103.4305
578.5072, 102.9704
578.9893, 102.6498
579.4714, 102.3252
579.9536, 101.8413
580.4357, 101.3768
580.9178, 101.2065
581.3999, 101.3280
581.8820, 101.4815
582.3641, 101.4901
582.8463, 101.3445
583.3284, 100.9791
583.8105, 100.0539
584.2926, 99.40606
584.7747, 99.27128
585.2568, 99.28858
585.7390, 99.15492
586.2211, 98.88525
586.7032, 98.73972
587.1853, 99.03056
587.6674, 99.48665
588.1495, 99.23167
588.6317, 98.10571
589.1138, 97.26953
589.5959, 97.21282
590.0780, 97.50443
590.5601, 97.56905
591.0422, 97.41196
591.5244, 97.52011
592.0065, 98.48974
592.4886, 99.43612
592.9707, 99.39695
593.4528, 98.60175
593.9349, 97.90955
594.4171, 97.69971
594.8992, 97.76979
595.3813, 97.76907
595.8634, 97.65252
596.3455, 97.59830
596.8276, 97.65280
597.3098, 97.71115
597.7919, 97.78650
598.2740, 97.82052
598.7561, 97.68563
599.2382, 97.32102
599.7203, 96.93542
600.2025, 96.74018
600.6846, 96.73911
601.1667, 97.17052
601.6488, 98.30559
602.1309, 99.37729
602.6130, 99.86750
603.0952, 99.91544
603.5773, 99.71536
604.0594, 99.15186
604.5415, 98.61129
605.0236, 98.17324
605.5057, 97.92683
605.9879, 98.12968
606.4700, 98.77356
606.9521, 99.38869
607.4342, 99.55354
607.9163, 99.35411
608.3984, 99.45705
608.8806, 100.2230
609.3627, 100.7976
609.8448, 100.9286
610.3269, 100.9818
610.8090, 101.3503
611.2911, 101.9615
611.7733, 102.3394
612.2554, 102.0602
612.7375, 101.4102
613.2196, 101.0241
613.7017, 100.9079
614.1838, 101.0045
614.6660, 101.4177
615.1481, 101.8938
615.6302, 102.2336
616.1123, 102.4394
616.5944, 102.2416
617.0765, 101.0032
617.5587, 99.89548
618.0408, 99.81374
618.5229, 100.4570
619.0050, 101.2692
619.4871, 102.0390
619.9692, 102.4484
620.4514, 101.9344
