##NAMES=Richterite
##RRUFFID=R060471
##IDEAL CHEMISTRY=Na(CaNa)Mg_5_Si_8_O_22_(OH)_2_
##LOCALITY=Kipawa Complex, Villedieu Township, Quebec, Canada
##OWNER=RRUFF
##SOURCE=Michael Scott
##DESCRIPTION=Black platy fragment embedded in albite
##STATUS=The identification of this mineral has been confirmed by X-ray diffraction and chemical analysis
##URL=rruff.info/R060471
##MEASURED CHEMISTRY=(Na_0.52_K_0.40_[box]_0.08_)(Na_1.60_Ca_0.40_)_&#931;=2_(Mg_4.25_Mn_0.75_)_&#931;=5_Si_8_O_22_(OH)_2_
157.0852, 105.1227
157.5673, 113.6743
158.0495, 121.5874
158.5316, 126.3690
159.0137, 124.8433
159.4958, 124.0254
159.9779, 126.1069
160.4600, 130.4210
160.9422, 134.7899
161.4243, 138.3188
161.9064, 141.7513
162.3885, 145.6137
162.8706, 150.8727
163.3527, 155.6603
163.8349, 158.7775
164.3170, 160.5967
164.7991, 162.8970
165.2812, 167.5963
165.7633, 172.6878
166.2454, 176.3195
166.7276, 176.3079
167.2097, 176.1546
167.6918, 177.9542
168.1739, 181.5412
168.6560, 185.6565
169.1381, 189.8130
169.6203, 193.9389
170.1024, 196.7123
170.5845, 198.2934
171.0666, 200.2837
171.5487, 204.3808
172.0309, 210.3394
172.5130, 214.7381
172.9951, 213.8379
173.4772, 210.0738
173.9593, 207.2222
174.4414, 206.8789
174.9236, 208.0649
175.4057, 210.2976
175.8878, 213.5997
176.3699, 216.3867
176.8520, 217.2090
177.3341, 216.5648
177.8163, 215.5181
178.2984, 213.8419
178.7805, 212.2630
179.2626, 212.1631
179.7447, 213.6578
180.2268, 215.4174
180.7090, 216.1607
181.1911, 216.0826
181.6732, 215.7533
182.1553, 215.5947
182.6374, 215.3488
183.1195, 214.1167
183.6017, 211.6440
184.0838, 209.4522
184.5659, 209.5397
185.0480, 211.5557
185.5301, 213.7649
186.0123, 214.9262
186.4944, 215.5844
186.9765, 217.7331
187.4586, 221.7680
187.9407, 226.1266
188.4228, 228.5012
188.9050, 229.0423
189.3871, 229.3864
189.8692, 230.2627
190.3513, 231.6049
190.8334, 233.1577
191.3155, 234.9212
191.7977, 236.8359
192.2798, 239.0309
192.7619, 241.5095
193.2440, 243.5007
193.7261, 244.0449
194.2082, 243.3671
194.6904, 244.1844
195.1725, 246.7682
195.6546, 250.6111
196.1367, 255.1020
196.6188, 260.3611
197.1009, 265.0368
197.5831, 268.1068
198.0652, 269.6074
198.5473, 271.5679
199.0294, 274.3050
199.5115, 277.2602
199.9937, 278.9444
200.4758, 279.0424
200.9579, 279.6983
201.4400, 282.4848
201.9221, 287.6129
202.4042, 291.8325
202.8864, 294.8568
203.3685, 296.9836
203.8506, 298.6573
204.3327, 299.6323
204.8148, 301.0658
205.2969, 304.1410
205.7791, 309.3540
206.2612, 312.3703
206.7433, 312.2225
207.2254, 310.2908
207.7075, 310.1360
208.1896, 312.1335
208.6718, 314.8111
209.1539, 317.5171
209.6360, 320.2720
210.1181, 322.8622
210.6002, 325.3428
211.0823, 327.6255
211.5645, 329.4442
212.0466, 330.7657
212.5287, 331.7396
213.0108, 332.2001
213.4929, 331.7286
213.9750, 332.5096
214.4572, 335.1528
214.9393, 338.9220
215.4214, 341.6481
215.9035, 342.9400
216.3856, 343.9995
216.8678, 345.4773
217.3499, 347.5926
217.8320, 349.4669
218.3141, 351.0991
218.7962, 352.4311
219.2783, 353.1883
219.7605, 353.0869
220.2426, 352.8933
220.7247, 353.1126
221.2068, 354.1312
221.6889, 354.4607
222.1710, 354.0376
222.6532, 352.8865
223.1353, 351.0109
223.6174, 348.0413
224.0995, 344.9432
224.5816, 342.2771
225.0637, 340.3896
225.5459, 337.9079
226.0280, 334.3094
226.5101, 330.1887
226.9922, 327.5421
227.4743, 326.9185
227.9564, 326.8588
228.4386, 326.9256
228.9207, 328.0133
229.4028, 326.9398
229.8849, 322.7682
230.3670, 316.6278
230.8492, 311.4713
231.3313, 307.3495
231.8134, 304.2006
232.2955, 302.2390
232.7776, 302.7065
233.2597, 301.4647
233.7419, 297.7470
234.2240, 292.5135
234.7061, 288.3177
235.1882, 285.3189
235.6703, 283.1256
236.1524, 281.7802
236.6346, 282.2903
237.1167, 281.2495
237.5988, 277.8976
238.0809, 273.2792
238.5630, 269.8069
239.0451, 268.0649
239.5273, 266.6270
240.0094, 265.0590
240.4915, 263.7177
240.9736, 261.1725
241.4557, 256.7069
241.9378, 251.3328
242.4200, 247.2013
242.9021, 244.7976
243.3842, 242.8081
243.8663, 240.7544
244.3484, 238.5627
244.8306, 236.5129
245.3127, 234.6135
245.7948, 232.8691
246.2769, 231.4544
246.7590, 231.1306
247.2411, 229.8558
247.7233, 226.4764
248.2054, 219.8387
248.6875, 215.4884
249.1696, 214.2527
249.6517, 214.7817
250.1338, 215.0462
250.6160, 215.2834
251.0981, 214.8132
251.5802, 213.1896
252.0623, 210.0156
252.5444, 207.8072
253.0265, 207.2637
253.5087, 207.1293
253.9908, 205.4151
254.4729, 200.9307
254.9550, 197.2841
255.4371, 195.7840
255.9192, 196.8156
256.4014, 196.9514
256.8835, 195.9886
257.3656, 194.3288
257.8477, 192.2752
258.3298, 189.3896
258.8120, 187.1134
259.2941, 186.0414
259.7762, 186.2872
260.2583, 185.5945
260.7404, 183.4511
261.2225, 180.9907
261.7047, 179.4845
262.1868, 179.4109
262.6689, 178.9927
263.1510, 177.6405
263.6331, 175.4078
264.1152, 174.0106
264.5974, 173.8694
265.0795, 173.9278
265.5616, 173.1416
266.0437, 171.2504
266.5258, 169.3172
267.0079, 167.4150
267.4901, 165.5862
267.9722, 164.3809
268.4543, 163.9045
268.9364, 163.8246
269.4185, 164.0622
269.9006, 164.8547
270.3828, 164.8823
270.8649, 163.6819
271.3470, 161.5859
271.8291, 160.2265
272.3112, 159.8182
272.7933, 159.5336
273.2755, 158.7349
273.7576, 157.3317
274.2397, 156.0476
274.7218, 155.0600
275.2039, 154.1968
275.6860, 152.7759
276.1682, 150.5596
276.6503, 148.6308
277.1324, 147.6759
277.6145, 147.7433
278.0966, 148.4021
278.5787, 149.9507
279.0609, 151.6915
279.5430, 151.7960
280.0251, 149.9791
280.5072, 148.3104
280.9893, 148.0981
281.4715, 149.3354
281.9536, 150.1920
282.4357, 150.5142
282.9178, 150.5831
283.3999, 150.9619
283.8820, 151.6790
284.3642, 152.1509
284.8463, 151.9192
285.3284, 151.0645
285.8105, 150.5368
286.2926, 150.3183
286.7747, 150.4734
287.2569, 151.1830
287.7390, 152.4305
288.2211, 153.8523
288.7032, 155.8167
289.1853, 157.9125
289.6674, 157.7473
290.1496, 154.9596
290.6317, 152.2783
291.1138, 153.7140
291.5959, 158.5701
292.0780, 161.8677
292.5602, 161.1606
293.0423, 158.1213
293.5244, 156.8178
294.0065, 157.2859
294.4886, 158.9344
294.9707, 162.2342
295.4529, 166.5180
295.9350, 169.1827
296.4171, 168.9143
296.8992, 167.3085
297.3813, 166.9945
297.8634, 167.9196
298.3456, 169.5482
298.8277, 171.9550
299.3098, 174.7339
299.7919, 176.9824
300.2740, 178.4699
300.7561, 179.4006
301.2383, 179.5996
301.7204, 179.2771
302.2025, 179.3810
302.6846, 181.2060
303.1667, 183.6376
303.6488, 184.8947
304.1310, 184.4472
304.6131, 183.5800
305.0952, 183.4329
305.5773, 183.8675
306.0594, 184.5069
306.5415, 185.0235
307.0237, 185.7082
307.5058, 187.1522
307.9879, 189.5676
308.4700, 191.5698
308.9521, 191.9633
309.4343, 191.2366
309.9164, 190.2757
310.3985, 188.8498
310.8806, 187.7418
311.3627, 188.0112
311.8448, 189.7247
312.3270, 190.7538
312.8091, 188.7727
313.2912, 185.7260
313.7733, 183.9110
314.2554, 185.1950
314.7375, 187.0051
315.2197, 188.1958
315.7018, 188.7895
316.1839, 188.9977
316.6660, 188.7183
317.1481, 188.1978
317.6302, 187.6536
318.1124, 187.3893
318.5945, 186.7965
319.0766, 185.1936
319.5587, 182.9821
320.0408, 181.5254
320.5229, 181.9340
321.0051, 182.7351
321.4872, 183.1009
321.9693, 182.6587
322.4514, 182.2321
322.9335, 182.2031
323.4156, 182.2845
323.8978, 181.9224
324.3799, 179.9748
324.8620, 178.4785
325.3441, 178.3645
325.8262, 180.3165
326.3083, 181.6961
326.7905, 182.2915
327.2726, 182.2143
327.7547, 181.5994
328.2368, 179.7673
328.7189, 178.1096
329.2010, 176.8460
329.6832, 175.9923
330.1653, 175.4768
330.6474, 175.5588
331.1295, 175.7929
331.6116, 175.8250
332.0938, 175.6116
332.5759, 175.2513
333.0580, 174.6526
333.5401, 173.8719
334.0222, 173.4159
334.5043, 173.5483
334.9865, 173.6352
335.4686, 173.3229
335.9507, 172.6009
336.4328, 171.3898
336.9149, 169.2345
337.3970, 166.7873
337.8792, 166.0650
338.3613, 167.6848
338.8434, 169.2512
339.3255, 169.4749
339.8076, 168.0650
340.2898, 167.7801
340.7719, 169.1012
341.2540, 170.7221
341.7361, 170.2844
342.2182, 167.4965
342.7003, 165.5266
343.1825, 165.7499
343.6646, 167.8255
344.1467, 169.5988
344.6288, 171.1191
345.1109, 172.1641
345.5930, 172.2289
346.0752, 171.4305
346.5573, 171.0089
347.0394, 171.3920
347.5215, 172.2155
348.0036, 172.5700
348.4857, 172.4690
348.9679, 172.5624
349.4500, 173.4748
349.9321, 174.9766
350.4142, 176.4767
350.8963, 177.9995
351.3784, 179.2170
351.8606, 179.4033
352.3427, 178.8108
352.8248, 178.3740
353.3069, 178.4421
353.7890, 179.0519
354.2711, 180.5192
354.7533, 182.9744
355.2354, 185.2642
355.7175, 186.1218
356.1996, 186.1465
356.6817, 186.3834
357.1638, 187.8108
357.6460, 189.2228
358.1281, 189.2717
358.6102, 188.1036
359.0923, 187.6609
359.5744, 190.2983
360.0565, 193.6435
360.5387, 195.3087
361.0208, 193.0965
361.5029, 191.0104
361.9850, 190.9811
362.4671, 192.5170
362.9492, 194.1211
363.4314, 195.9243
363.9135, 197.1847
364.3956, 197.3398
364.8777, 195.7282
365.3598, 194.4234
365.8419, 193.8991
366.3241, 193.9334
366.8062, 194.2016
367.2883, 195.3619
367.7704, 196.0728
368.2526, 195.9965
368.7347, 195.0845
369.2168, 193.5601
369.6989, 190.8366
370.1810, 187.8713
370.6631, 185.3792
371.1453, 183.0422
371.6274, 181.7018
372.1095, 182.0024
372.5916, 183.5686
373.0737, 183.7649
373.5558, 181.6211
374.0380, 179.5502
374.5201, 179.1588
375.0022, 181.4140
375.4843, 182.0326
375.9664, 180.3559
376.4485, 177.4342
376.9307, 175.1249
377.4128, 173.3832
377.8949, 172.5670
378.3770, 173.4685
378.8591, 175.9126
379.3412, 175.9151
379.8234, 172.9531
380.3055, 169.3920
380.7876, 168.2441
381.2697, 169.3405
381.7518, 169.8181
382.2339, 168.7562
382.7161, 166.7364
383.1982, 164.6592
383.6803, 162.5740
384.1624, 161.4349
384.6445, 163.0183
385.1266, 166.0798
385.6088, 167.2728
386.0909, 165.6943
386.5730, 163.4305
387.0551, 163.2162
387.5372, 164.3651
388.0193, 164.9018
388.5015, 162.8698
388.9836, 160.1900
389.4657, 159.1210
389.9478, 159.8264
390.4299, 160.6201
390.9120, 160.0923
391.3942, 159.0645
391.8763, 158.5661
392.3584, 159.8852
392.8405, 160.9256
393.3226, 160.3142
393.8047, 158.3888
394.2869, 156.6937
394.7690, 155.6084
395.2511, 155.0916
395.7332, 155.2163
396.2154, 156.4209
396.6975, 157.3671
397.1796, 157.8355
397.6617, 157.8669
398.1438, 157.5369
398.6259, 156.2832
399.1081, 155.2259
399.5902, 154.8661
400.0723, 155.4004
400.5544, 155.2344
401.0365, 153.6325
401.5186, 151.8698
402.0008, 151.0682
402.4829, 151.9554
402.9650, 152.4007
403.4471, 152.0641
403.9292, 151.1075
404.4113, 150.2806
404.8935, 149.7651
405.3756, 148.9564
405.8577, 147.2403
406.3398, 144.3554
406.8219, 142.6584
407.3040, 142.2773
407.7862, 142.8898
408.2683, 144.5833
408.7504, 147.4268
409.2325, 149.0712
409.7146, 148.0517
410.1967, 145.3848
410.6789, 144.6065
411.1610, 145.7774
411.6431, 147.2865
412.1252, 147.8093
412.6073, 147.5664
413.0894, 147.1202
413.5716, 146.5138
414.0537, 145.9061
414.5358, 145.3572
415.0179, 144.9436
415.5000, 144.9013
415.9821, 145.6175
416.4643, 146.6272
416.9464, 147.4160
417.4285, 147.9215
417.9106, 148.5037
418.3927, 149.7571
418.8748, 151.0983
419.3570, 151.8139
419.8391, 151.1922
420.3212, 150.3657
420.8033, 149.6207
421.2854, 149.0120
421.7675, 148.7615
422.2497, 149.5227
422.7318, 150.2267
423.2139, 150.2639
423.6960, 149.2644
424.1781, 148.2724
424.6602, 147.4204
425.1424, 146.6368
425.6245, 145.8504
426.1066, 145.6314
426.5887, 144.6801
427.0709, 142.3630
427.5530, 138.6806
428.0351, 136.0263
428.5172, 134.6820
428.9993, 133.9391
429.4814, 133.4588
429.9636, 133.4904
430.4457, 132.7674
430.9278, 131.0230
431.4099, 128.6297
431.8920, 126.3812
432.3741, 124.2796
432.8563, 122.1433
433.3384, 119.6239
433.8205, 116.8882
434.3026, 115.3663
434.7847, 115.1759
435.2668, 115.1876
435.7490, 113.7374
436.2311, 111.4124
436.7132, 110.5928
437.1953, 112.8266
437.6774, 115.5381
438.1595, 114.5736
438.6417, 110.7792
439.1238, 107.6571
439.6059, 107.9708
440.0880, 109.6981
440.5701, 110.7886
441.0522, 110.9919
441.5344, 110.7586
442.0165, 110.1961
442.4986, 109.4229
442.9807, 108.5856
443.4628, 107.3795
443.9449, 106.4634
444.4271, 106.1417
444.9092, 106.3561
445.3913, 106.7627
445.8734, 107.8722
446.3555, 108.6892
446.8376, 108.6564
447.3198, 107.2203
447.8019, 105.9409
448.2840, 104.8143
448.7661, 103.8877
449.2482, 103.2163
449.7303, 102.7005
450.2125, 102.6645
450.6946, 103.5051
451.1767, 105.0934
451.6588, 105.2833
452.1409, 103.5024
452.6230, 101.6577
453.1052, 101.3131
453.5873, 102.6167
454.0694, 103.3169
454.5515, 103.0675
455.0337, 102.5052
455.5158, 102.8420
455.9979, 104.0075
456.4800, 104.9144
456.9621, 104.9123
457.4442, 104.3913
457.9264, 104.2827
458.4085, 104.5743
458.8906, 104.9439
459.3727, 105.4240
459.8548, 105.7379
460.3369, 105.2271
460.8191, 103.2357
461.3012, 101.6164
461.7833, 102.6776
462.2654, 105.1879
462.7475, 106.5825
463.2296, 103.6722
463.7118, 101.0603
464.1939, 101.9566
464.6760, 106.6055
465.1581, 110.3581
465.6402, 111.5526
466.1223, 111.4268
466.6045, 110.8197
467.0866, 108.8605
467.5687, 107.6450
468.0508, 107.7671
468.5329, 108.6512
469.0150, 108.9958
469.4972, 108.3268
469.9793, 107.8394
470.4614, 108.0156
470.9435, 108.9106
471.4256, 109.4343
471.9077, 109.6933
472.3899, 109.3733
472.8720, 107.7822
473.3541, 104.7012
473.8362, 102.8651
474.3183, 102.8528
474.8004, 103.9151
475.2826, 104.9099
475.7647, 105.8023
476.2468, 106.0958
476.7289, 105.0519
477.2110, 103.3196
477.6931, 102.4091
478.1753, 102.3252
478.6574, 102.4504
479.1395, 102.0899
479.6216, 101.6647
480.1037, 101.9001
480.5858, 103.4230
481.0680, 104.8196
481.5501, 105.0447
482.0322, 104.4412
482.5143, 103.7147
482.9964, 103.0646
483.4786, 102.4230
483.9607, 101.6743
484.4428, 100.7946
484.9249, 100.2154
485.4070, 100.3018
485.8892, 100.5479
486.3713, 100.5900
486.8534, 100.0812
487.3355, 99.86353
487.8176, 99.96506
488.2997, 100.3652
488.7819, 101.0688
489.2640, 102.2224
489.7461, 103.3843
490.2282, 104.6212
490.7103, 105.8745
491.1924, 105.6901
491.6746, 103.7291
492.1567, 101.7202
492.6388, 101.3189
493.1209, 102.3473
493.6030, 103.2417
494.0851, 103.7456
494.5673, 104.2031
495.0494, 105.2472
495.5315, 106.7066
496.0136, 107.9249
496.4957, 108.7493
496.9778, 109.0917
497.4600, 108.3305
497.9421, 106.6616
498.4242, 105.9009
498.9063, 108.1976
499.3884, 111.2697
499.8705, 113.1285
500.3527, 113.0290
500.8348, 112.5531
501.3169, 111.7395
501.7990, 111.0208
502.2811, 111.0100
502.7632, 112.6591
503.2454, 114.1240
503.7275, 114.7043
504.2096, 114.5444
504.6917, 115.3688
505.1738, 117.8350
505.6559, 120.3778
506.1381, 122.2266
506.6202, 123.3672
507.1023, 123.8018
507.5844, 123.3616
508.0665, 122.5253
508.5486, 121.7953
509.0308, 121.1630
509.5129, 120.9546
509.9950, 121.2075
510.4771, 121.9677
510.9592, 123.9149
511.4413, 126.8431
511.9235, 128.8994
512.4056, 127.7996
512.8877, 125.5006
513.3698, 125.2913
513.8519, 127.5587
514.3340, 129.6368
514.8162, 128.9358
515.2983, 127.1612
515.7804, 126.3838
516.2625, 127.9878
516.7446, 129.7212
517.2267, 130.7337
517.7089, 131.2071
518.1910, 131.5695
518.6731, 132.0394
519.1552, 132.2986
519.6373, 131.9796
520.1194, 130.9359
520.6016, 130.8898
521.0837, 132.5264
521.5658, 134.3922
522.0479, 135.4127
522.5300, 135.3381
523.0121, 135.3233
523.4943, 135.5439
523.9764, 135.7226
524.4585, 135.1576
524.9406, 133.8331
525.4227, 132.8316
525.9048, 132.1543
526.3870, 132.2623
526.8691, 135.5852
527.3513, 141.8187
527.8334, 146.2213
528.3155, 143.3531
528.7976, 137.3026
529.2797, 133.8942
529.7618, 133.9409
530.2440, 135.9031
530.7261, 139.9483
531.2082, 144.8722
531.6903, 149.0586
532.1724, 152.7202
532.6545, 154.8376
533.1367, 153.9886
533.6188, 151.1466
534.1009, 149.7531
534.5830, 151.9692
535.0651, 154.1261
535.5472, 154.8295
536.0294, 153.7623
536.5115, 153.6011
536.9936, 154.5995
537.4757, 156.1498
537.9578, 157.9745
538.4399, 160.2747
538.9221, 161.5614
539.4042, 161.4570
539.8863, 160.6959
540.3684, 160.6035
540.8505, 161.1215
541.3326, 161.5240
541.8148, 161.0908
542.2969, 160.6125
542.7790, 162.2153
543.2611, 165.5431
543.7432, 167.8253
544.2253, 166.3040
544.7075, 163.2545
545.1896, 161.0412
545.6717, 160.1223
546.1538, 159.2641
546.6359, 157.1649
547.1180, 155.0989
547.6002, 154.4511
548.0823, 157.6857
548.5644, 159.8941
549.0465, 159.7661
549.5286, 157.9616
550.0107, 156.3221
550.4929, 154.3641
550.9750, 153.3512
551.4571, 154.2150
551.9392, 156.9741
552.4213, 157.3999
552.9034, 154.9055
553.3856, 151.9320
553.8677, 150.6436
554.3498, 150.8617
554.8319, 150.2571
555.3140, 148.3993
555.7961, 146.4218
556.2783, 146.0695
556.7604, 146.8335
557.2425, 147.2875
557.7246, 146.8372
558.2067, 145.9216
558.6888, 144.6128
559.1710, 143.1206
559.6531, 142.1773
560.1352, 142.9239
560.6173, 143.7171
561.0994, 143.5766
561.5815, 142.3502
562.0637, 140.8315
562.5458, 138.8067
563.0279, 136.7846
563.5100, 135.0703
563.9921, 133.2968
564.4742, 132.6025
564.9564, 133.7399
565.4385, 135.3942
565.9206, 134.9779
566.4027, 131.9110
566.8848, 129.7559
567.3669, 129.8561
567.8491, 131.4285
568.3312, 131.9185
568.8133, 131.3643
569.2954, 130.7943
569.7775, 131.0932
570.2596, 131.7652
570.7418, 131.8394
571.2239, 131.2456
571.7060, 130.5486
572.1881, 129.9514
572.6702, 129.5857
573.1523, 129.7246
573.6345, 131.1938
574.1166, 131.7912
574.5987, 129.8695
575.0808, 126.7119
575.5629, 124.4143
576.0450, 123.2748
576.5272, 123.1874
577.0093, 124.7496
577.4914, 127.5619
577.9735, 128.9462
578.4556, 128.4371
578.9377, 127.4385
579.4199, 126.5705
579.9020, 125.8486
580.3841, 124.9761
580.8662, 123.9004
581.3483, 122.9744
581.8304, 122.8167
582.3126, 123.1495
582.7947, 122.9847
583.2768, 122.0891
583.7589, 120.8065
584.2410, 119.5059
584.7231, 118.0852
585.2053, 116.3434
585.6874, 113.4714
586.1696, 110.9232
586.6517, 109.7584
587.1338, 109.6751
587.6159, 109.3141
588.0980, 108.0796
588.5801, 106.7072
589.0623, 105.4448
589.5444, 104.2693
590.0265, 103.3932
590.5086, 102.9431
590.9907, 102.6321
591.4728, 102.4211
591.9550, 102.4813
592.4371, 101.3705
592.9192, 98.66061
593.4013, 95.56029
593.8834, 93.88887
594.3655, 93.47434
594.8477, 93.24564
595.3298, 92.91393
595.8119, 92.53636
596.2940, 92.31026
596.7761, 92.13239
597.2582, 91.64939
597.7404, 89.56023
598.2225, 87.95591
598.7046, 89.10651
599.1867, 93.06058
599.6688, 95.40129
600.1509, 93.22324
600.6331, 90.18443
601.1152, 88.55432
601.5973, 88.88583
602.0794, 89.50517
602.5615, 90.56184
603.0436, 91.75813
603.5258, 93.00658
604.0079, 94.58994
604.4900, 94.39988
604.9721, 91.34386
605.4542, 87.46288
605.9363, 87.36588
606.4185, 90.65205
606.9006, 93.78499
607.3827, 95.44965
607.8648, 95.80779
608.3469, 94.26974
608.8290, 91.22751
609.3112, 88.97057
609.7933, 89.20900
610.2754, 90.48078
610.7575, 91.75677
611.2396, 92.87963
611.7217, 94.16348
612.2039, 96.41602
612.6860, 98.38682
613.1681, 99.08704
613.6502, 97.57295
614.1323, 96.39832
614.6144, 95.65421
615.0966, 95.20741
615.5787, 94.85606
616.0608, 94.59657
616.5429, 94.45985
617.0250, 94.41725
617.5071, 94.54362
617.9893, 95.23367
618.4714, 96.38567
618.9535, 97.17690
619.4356, 96.60971
619.9177, 95.76627
620.3998, 96.44958
620.8820, 98.45092
621.3641, 99.76490
621.8462, 98.30991
622.3283, 96.41148
622.8104, 95.86042
623.2925, 97.21053
623.7747, 98.53053
624.2568, 99.43823
624.7389, 100.1981
625.2210, 101.1025
625.7031, 102.7008
626.1852, 103.0831
626.6674, 101.5724
627.1495, 99.46212
627.6316, 99.16502
628.1137, 100.7756
628.5958, 101.8082
629.0779, 101.2630
629.5601, 100.0567
630.0422, 99.95486
630.5243, 100.8162
631.0064, 101.9656
631.4885, 103.5798
631.9706, 104.9353
632.4528, 105.0703
632.9349, 104.0831
633.4170, 103.3414
633.8991, 103.6310
634.3812, 104.2102
634.8633, 104.6621
635.3455, 104.9275
635.8276, 105.0805
636.3097, 104.8557
636.7918, 104.7667
637.2739, 105.3823
637.7560, 107.0194
638.2382, 107.9670
638.7203, 107.8689
639.2024, 107.4446
639.6845, 107.8238
640.1666, 108.9241
640.6487, 110.0653
641.1309, 111.0800
641.6130, 111.9989
642.0951, 112.8877
642.5772, 113.7086
643.0594, 114.3172
643.5415, 114.8940
644.0236, 115.0280
644.5057, 113.9626
644.9879, 111.9157
645.4700, 110.9353
645.9521, 112.0552
646.4342, 113.8698
646.9163, 116.0488
647.3984, 118.8844
647.8806, 120.0569
648.3627, 118.8778
648.8448, 117.3552
649.3269, 117.1943
649.8090, 118.3986
650.2911, 119.3546
650.7733, 119.9132
651.2554, 120.3956
