##NAMES=Riebeckite
##RRUFFID=R050082
##IDEAL CHEMISTRY=[box]Na_2_(Fe^2+^_3_Fe^3+^_2_)Si_8_O_22_(OH)_2_
##LOCALITY=Mt. Malosa, Zomba, Chilwa, Alkaline Area, Malawi
##OWNER=RRUFF
##SOURCE=Rock Currier
##DESCRIPTION=Black elongated prisms
##STATUS=The identification of this mineral has been confirmed by X-ray diffraction and chemical analysis
##URL=rruff.info/R050082
##MEASURED CHEMISTRY=([box]_0.63_Na_0.19_K_0.18_)(Na_1.58_Ca_0.42_)_Σ=2_Fe^2+^_3.00_(Fe^3+^_1.30_Fe^2+^_0.45_Mn_0.15_Mg_0.05_Ti_0.05_)_Σ=2_(Si_0.98_Al_0.02_)_8_O_22_(OH)_2_
130.260, 339.172
130.743, 343.105
131.225, 350.189
131.707, 360.031
132.189, 369.471
132.671, 372.452
133.153, 358.955
133.635, 354.987
134.117, 366.599
134.600, 386.125
135.082, 405.664
135.564, 422.540
136.046, 437.025
136.528, 449.415
137.010, 457.655
137.492, 467.651
137.974, 480.398
138.456, 495.561
138.939, 512.842
139.421, 532.440
139.903, 553.513
140.385, 573.201
140.867, 587.362
141.349, 607.337
141.831, 642.781
142.313, 687.089
142.796, 724.594
143.278, 748.175
143.760, 760.916
144.242, 772.103
144.724, 786.691
145.206, 792.610
145.688, 784.185
146.170, 762.355
146.652, 728.975
147.135, 679.626
147.617, 622.835
148.099, 576.511
148.581, 542.385
149.063, 515.473
149.545, 492.433
150.027, 473.419
150.509, 461.393
150.992, 459.696
151.474, 465.374
151.956, 471.986
152.438, 479.722
152.920, 487.538
153.402, 492.424
153.884, 494.278
154.366, 501.831
154.848, 524.086
155.331, 552.602
155.813, 575.105
156.295, 586.920
156.777, 596.297
157.259, 611.907
157.741, 634.227
158.223, 658.491
158.705, 683.022
159.187, 708.284
159.669, 734.608
160.152, 761.263
160.634, 790.227
161.116, 825.438
161.598, 868.675
162.080, 911.159
162.562, 950.837
163.044, 987.304
163.527, 1020.644
164.009, 1054.383
164.491, 1080.445
164.973, 1086.077
165.455, 1069.228
165.937, 1037.816
166.419, 986.978
166.901, 926.775
167.383, 866.879
167.865, 809.998
168.348, 756.210
168.830, 705.315
169.312, 656.646
169.794, 613.140
170.276, 574.095
170.758, 540.872
171.240, 516.435
171.723, 503.456
172.205, 497.074
172.687, 486.957
173.169, 470.729
173.651, 456.057
174.133, 446.588
174.615, 439.330
175.097, 430.966
175.579, 419.873
176.061, 407.532
176.544, 397.231
177.026, 388.649
177.508, 383.092
177.990, 382.332
178.472, 383.706
178.954, 384.526
179.436, 383.681
179.918, 381.440
180.401, 377.763
180.883, 369.515
181.365, 366.004
181.847, 371.506
182.329, 381.182
182.811, 390.020
183.293, 395.777
183.775, 399.630
184.258, 404.540
184.740, 411.556
185.222, 417.724
185.704, 420.347
186.186, 422.783
186.668, 429.257
187.150, 442.001
187.632, 457.749
188.114, 468.044
188.596, 469.521
189.079, 471.310
189.561, 473.150
190.043, 476.910
190.525, 485.179
191.007, 499.242
191.489, 516.367
191.971, 530.814
192.454, 542.655
192.936, 551.031
193.418, 554.134
193.900, 555.210
194.382, 556.750
194.864, 559.708
195.346, 564.487
195.828, 572.362
196.310, 585.746
196.792, 597.794
197.275, 610.297
197.757, 619.985
198.239, 623.722
198.721, 620.376
199.203, 611.698
199.685, 600.652
200.167, 585.927
200.650, 571.237
201.132, 560.142
201.614, 547.501
202.096, 526.690
202.578, 495.979
203.060, 463.189
203.542, 442.595
204.024, 440.288
204.506, 437.397
204.988, 432.144
205.471, 425.798
205.953, 418.014
206.435, 409.082
206.917, 401.751
207.399, 401.287
207.881, 412.391
208.363, 418.884
208.845, 417.287
209.328, 413.113
209.810, 409.595
210.292, 407.460
210.774, 405.724
211.256, 402.593
211.738, 396.660
212.220, 393.617
212.702, 394.674
213.184, 397.638
213.667, 401.768
214.149, 406.777
214.631, 412.271
215.113, 417.858
215.595, 423.540
216.077, 429.254
216.559, 435.125
217.041, 440.896
217.523, 446.517
218.006, 451.942
218.488, 457.015
218.970, 460.657
219.452, 461.840
219.934, 468.089
220.416, 485.542
220.898, 503.016
221.380, 515.978
221.863, 524.908
222.345, 533.049
222.827, 543.873
223.309, 557.668
223.791, 567.010
224.273, 569.690
224.755, 569.474
225.237, 567.921
225.719, 564.504
226.202, 557.685
226.684, 545.813
227.166, 529.173
227.648, 512.586
228.130, 494.941
228.612, 478.824
229.094, 463.805
229.577, 450.870
230.059, 442.133
230.541, 439.840
231.023, 442.323
231.505, 441.703
231.987, 434.546
232.469, 429.543
232.951, 428.891
233.433, 431.789
233.915, 437.629
234.398, 446.913
234.880, 457.767
235.362, 464.530
235.844, 464.017
236.326, 466.116
236.808, 474.964
237.290, 487.040
237.772, 499.054
238.255, 509.974
238.737, 519.591
239.219, 526.552
239.701, 529.142
240.183, 534.612
240.665, 546.553
241.147, 561.306
241.629, 576.075
242.111, 590.074
242.594, 604.625
243.076, 622.886
243.558, 646.031
244.040, 664.723
244.522, 675.282
245.004, 681.165
245.486, 683.278
245.968, 681.750
246.451, 680.318
246.933, 684.742
247.415, 694.802
247.897, 697.645
248.379, 687.884
248.861, 672.830
249.343, 658.096
249.825, 643.771
250.307, 628.049
250.790, 610.592
251.272, 591.030
251.754, 566.744
252.236, 534.186
252.718, 502.051
253.200, 476.081
253.682, 455.611
254.164, 439.195
254.646, 428.595
255.129, 421.239
255.611, 410.862
256.093, 396.023
256.575, 381.466
257.057, 370.898
257.539, 363.248
258.021, 356.734
258.503, 352.170
258.986, 347.772
259.468, 339.857
259.950, 327.728
260.432, 318.749
260.914, 319.583
261.396, 326.556
261.878, 330.804
262.360, 329.902
262.842, 327.450
263.325, 326.475
263.807, 326.736
264.289, 325.946
264.771, 322.216
265.253, 317.273
265.735, 315.347
266.217, 317.897
266.699, 320.725
267.181, 320.772
267.664, 319.416
268.146, 320.907
268.628, 327.475
269.110, 336.210
269.592, 341.266
270.074, 342.299
270.556, 342.413
271.039, 341.970
271.521, 341.217
272.003, 340.301
272.485, 339.207
272.967, 338.535
273.449, 339.295
273.931, 342.143
274.413, 343.880
274.895, 345.016
275.378, 344.550
275.860, 339.965
276.342, 331.669
276.824, 324.993
277.306, 325.759
277.788, 335.410
278.270, 338.739
278.752, 328.232
279.234, 319.204
279.717, 320.828
280.199, 330.849
280.681, 341.318
281.163, 346.753
281.645, 347.660
282.127, 349.203
282.609, 351.594
283.091, 354.356
283.573, 357.466
284.056, 360.872
284.538, 364.456
285.020, 368.127
285.502, 372.112
285.984, 376.994
286.466, 382.512
286.948, 389.535
287.431, 400.996
287.913, 412.276
288.395, 418.182
288.877, 417.628
289.359, 415.269
289.841, 418.309
290.323, 429.023
290.805, 438.973
291.287, 448.700
291.770, 457.129
292.252, 462.727
292.734, 466.015
293.216, 469.564
293.698, 476.836
294.180, 488.117
294.662, 494.426
295.144, 490.961
295.626, 487.578
296.109, 489.063
296.591, 493.600
297.073, 497.018
297.555, 496.613
298.037, 493.510
298.519, 491.050
299.001, 489.462
299.483, 488.047
299.966, 489.289
300.448, 489.624
300.930, 483.904
301.412, 469.141
301.894, 451.244
302.376, 437.345
302.858, 427.607
303.340, 418.873
303.822, 409.930
304.305, 401.802
304.787, 395.937
305.269, 392.818
305.751, 389.500
306.233, 383.764
306.715, 376.305
307.197, 368.985
307.679, 361.610
308.161, 355.620
308.644, 353.229
309.126, 354.085
309.608, 355.439
310.090, 358.496
310.572, 360.729
311.054, 357.901
311.536, 349.618
312.018, 341.539
312.500, 338.233
312.983, 339.683
313.465, 340.603
313.947, 340.143
314.429, 339.954
314.911, 340.823
315.393, 342.692
315.875, 345.663
316.358, 350.162
316.840, 355.198
317.322, 357.001
317.804, 350.643
318.286, 347.432
318.768, 351.130
319.250, 357.825
319.732, 363.210
320.214, 365.882
320.697, 366.862
321.179, 367.409
321.661, 365.903
322.143, 367.977
322.625, 376.679
323.107, 385.909
323.589, 392.214
324.071, 395.398
324.553, 397.015
325.036, 398.473
325.518, 399.791
326.000, 399.514
326.482, 394.888
326.964, 391.698
327.446, 392.300
327.928, 395.207
328.410, 398.207
328.892, 400.337
329.375, 401.460
329.857, 401.225
330.339, 399.589
330.821, 396.699
331.303, 390.746
331.785, 384.615
332.267, 381.378
332.749, 381.809
333.232, 382.123
333.714, 377.668
334.196, 368.878
334.678, 362.772
335.160, 362.320
335.642, 362.550
336.124, 358.387
336.606, 350.484
337.089, 343.680
337.571, 341.017
338.053, 340.361
338.535, 337.884
339.017, 333.094
339.499, 329.057
339.981, 328.234
340.463, 330.134
340.945, 331.771
341.427, 332.494
341.910, 333.450
342.392, 336.488
342.874, 340.444
343.356, 341.377
343.838, 337.002
344.320, 330.047
344.802, 326.872
345.284, 329.107
345.767, 332.029
346.249, 335.037
346.731, 338.563
347.213, 342.791
347.695, 347.870
348.177, 354.361
348.659, 363.162
349.141, 374.954
349.624, 385.477
350.106, 394.306
350.588, 402.557
351.070, 410.163
351.552, 417.558
352.034, 425.448
352.516, 434.129
352.998, 443.746
353.480, 454.753
353.963, 466.483
354.445, 480.885
354.927, 500.647
355.409, 521.568
355.891, 539.505
356.373, 553.245
356.855, 565.849
357.337, 582.267
357.819, 602.932
358.302, 617.407
358.784, 619.721
359.266, 620.201
359.748, 628.015
360.230, 641.366
360.712, 650.691
361.194, 651.420
361.676, 644.992
362.159, 632.208
362.641, 612.234
363.123, 592.709
363.605, 578.520
364.087, 568.447
364.569, 558.500
365.051, 549.300
365.533, 539.262
366.016, 527.089
366.498, 513.465
366.980, 499.219
367.462, 484.250
367.944, 470.789
368.426, 463.249
368.908, 465.148
369.390, 464.069
369.872, 457.395
370.354, 448.984
370.837, 441.230
371.319, 434.605
371.801, 428.862
372.283, 423.791
372.765, 419.395
373.247, 415.884
373.729, 415.341
374.211, 413.339
374.694, 406.947
375.176, 399.185
375.658, 394.687
376.140, 395.508
376.622, 398.240
377.104, 396.439
377.586, 388.851
378.068, 381.051
378.551, 370.824
379.033, 362.921
379.515, 361.446
379.997, 365.842
380.479, 370.721
380.961, 373.505
381.443, 373.861
381.925, 369.486
382.407, 358.186
382.890, 348.272
383.372, 346.765
383.854, 350.071
384.336, 351.771
384.818, 350.921
385.300, 348.009
385.782, 341.086
386.264, 331.909
386.746, 327.750
387.229, 332.444
387.711, 340.146
388.193, 340.341
388.675, 329.967
389.157, 322.995
389.639, 324.405
390.121, 327.480
390.603, 326.315
391.086, 320.762
391.568, 314.197
392.050, 309.155
392.532, 305.625
393.014, 302.728
393.496, 300.404
393.978, 298.821
394.460, 299.589
394.943, 300.516
395.425, 298.275
395.907, 291.725
396.389, 284.072
396.871, 280.678
397.353, 282.663
397.835, 283.812
398.317, 283.616
398.799, 282.314
399.281, 279.156
399.764, 274.767
400.246, 271.385
400.728, 271.911
401.210, 273.882
401.692, 270.616
402.174, 260.929
402.656, 253.524
403.138, 254.374
403.621, 259.901
404.103, 262.922
404.585, 262.090
405.067, 261.000
405.549, 261.486
406.031, 262.975
406.513, 264.678
406.995, 266.461
407.478, 267.465
407.960, 266.292
408.442, 262.098
408.924, 260.649
409.406, 263.833
409.888, 267.756
410.370, 271.727
410.852, 274.827
411.334, 275.018
411.817, 270.917
412.299, 264.421
412.781, 261.141
413.263, 261.981
413.745, 264.611
414.227, 271.096
414.709, 277.351
415.191, 279.749
415.673, 278.335
416.156, 276.586
416.638, 278.572
417.120, 283.398
417.602, 283.993
418.084, 277.799
418.566, 272.839
419.048, 274.960
419.530, 280.922
420.013, 286.200
420.495, 290.492
420.977, 292.759
421.459, 290.601
421.941, 285.457
422.423, 282.743
422.905, 284.618
423.387, 287.459
423.870, 285.520
424.352, 276.900
424.834, 273.697
425.316, 280.284
425.798, 289.360
426.280, 298.391
426.762, 305.886
427.244, 308.329
427.726, 302.784
428.208, 292.366
428.691, 289.327
429.173, 300.406
429.655, 308.798
430.137, 311.541
430.619, 312.227
431.101, 313.907
431.583, 316.877
432.065, 319.090
432.548, 318.237
433.030, 314.598
433.512, 311.599
433.994, 310.466
434.476, 307.542
434.958, 298.428
435.440, 286.915
435.922, 279.176
436.405, 278.443
436.887, 278.133
437.369, 270.552
437.851, 258.724
438.333, 254.121
438.815, 261.255
439.297, 270.767
439.779, 270.315
440.261, 257.329
440.744, 248.628
441.226, 246.302
441.708, 246.868
442.190, 250.187
442.672, 254.715
443.154, 257.123
443.636, 255.474
444.118, 251.193
444.600, 248.134
445.083, 246.648
445.565, 245.821
446.047, 246.310
446.529, 246.772
447.011, 245.871
447.493, 243.869
447.975, 242.537
448.457, 244.074
448.940, 247.298
449.422, 247.216
449.904, 242.472
450.386, 239.252
450.868, 241.947
451.350, 247.381
451.832, 251.045
452.314, 252.682
452.797, 252.275
453.279, 247.957
453.761, 242.099
454.243, 239.215
454.725, 240.151
455.207, 242.063
455.689, 242.218
456.171, 240.495
456.653, 239.973
457.135, 241.579
457.618, 243.125
458.100, 244.283
458.582, 244.835
459.064, 243.945
459.546, 241.417
460.028, 239.241
460.510, 241.365
460.992, 249.466
461.474, 253.284
461.957, 248.564
462.439, 243.575
462.921, 242.520
463.403, 244.203
463.885, 245.595
464.367, 245.389
464.849, 244.355
465.332, 242.635
465.814, 240.460
466.296, 240.767
466.778, 245.150
467.260, 251.389
467.742, 256.822
468.224, 261.780
468.706, 264.245
469.188, 261.877
469.671, 258.553
470.153, 256.659
470.635, 256.374
471.117, 257.548
471.599, 260.249
472.081, 263.806
472.563, 266.079
473.045, 266.191
473.527, 266.530
474.010, 267.519
474.492, 268.564
474.974, 269.307
475.456, 269.716
475.938, 269.893
476.420, 269.835
476.902, 269.623
477.384, 269.796
477.866, 270.662
478.349, 270.209
478.831, 266.314
479.313, 261.297
479.795, 258.888
480.277, 259.596
480.759, 261.277
481.241, 264.392
481.723, 267.375
482.206, 267.707
482.688, 265.397
483.170, 263.214
483.652, 263.474
484.134, 265.745
484.616, 266.167
485.098, 261.319
485.580, 258.821
486.062, 262.455
486.545, 266.982
487.027, 266.332
487.509, 260.055
487.991, 254.023
488.473, 255.143
488.955, 262.335
489.437, 265.353
489.919, 262.411
490.402, 259.518
490.884, 259.795
491.366, 261.971
491.848, 264.547
492.330, 267.613
492.812, 270.322
493.294, 272.248
493.776, 273.483
494.259, 273.938
494.741, 273.625
495.223, 273.130
495.705, 272.637
496.187, 272.202
496.669, 274.632
497.151, 282.759
497.633, 290.118
498.115, 295.434
498.598, 299.292
499.080, 302.202
499.562, 304.371
500.044, 306.182
500.526, 308.015
501.008, 309.868
501.490, 311.486
501.972, 312.295
502.454, 314.004
502.937, 320.142
503.419, 327.000
503.901, 328.216
504.383, 319.976
504.865, 312.673
505.347, 313.550
505.829, 319.504
506.311, 325.849
506.793, 331.671
507.276, 334.774
507.758, 332.583
508.240, 325.179
508.722, 320.393
509.204, 320.598
509.686, 320.344
510.168, 316.782
510.651, 313.121
511.133, 313.535
511.615, 318.686
512.097, 324.850
512.579, 328.802
513.061, 330.503
513.543, 328.573
514.025, 320.787
514.507, 314.601
514.990, 316.322
515.472, 321.446
515.954, 322.533
516.436, 316.317
516.918, 312.454
517.400, 319.565
517.882, 330.708
518.364, 333.917
518.846, 327.953
519.329, 321.928
519.811, 323.728
520.293, 332.456
520.775, 338.042
521.257, 335.723
521.739, 336.114
522.221, 342.206
522.703, 350.336
523.185, 357.964
523.668, 364.295
524.150, 368.599
524.632, 367.655
525.114, 363.925
525.596, 368.835
526.078, 384.638
526.560, 398.641
527.042, 403.246
527.524, 403.384
528.007, 408.412
528.489, 419.145
528.971, 431.871
529.453, 446.646
529.935, 462.080
530.417, 476.335
530.899, 489.561
531.381, 503.466
531.864, 519.458
532.346, 536.542
532.828, 551.110
533.310, 561.453
533.792, 572.480
534.274, 585.549
534.756, 598.719
535.238, 610.064
535.721, 620.114
536.203, 631.990
536.685, 650.546
537.167, 669.839
537.649, 679.292
538.131, 679.501
538.613, 678.352
539.095, 678.184
539.578, 678.971
540.060, 681.554
540.542, 687.609
541.024, 687.853
541.506, 679.764
541.988, 667.781
542.470, 651.039
542.952, 632.722
543.434, 619.535
543.917, 614.598
544.399, 611.609
544.881, 598.912
545.363, 574.680
545.845, 553.976
546.327, 540.169
546.809, 526.964
547.291, 508.730
547.773, 488.479
548.256, 473.084
548.738, 465.954
549.220, 461.207
549.702, 456.465
550.184, 450.826
550.666, 441.467
551.148, 427.930
551.630, 414.709
552.112, 406.430
552.595, 403.007
553.077, 398.516
553.559, 391.768
554.041, 385.342
554.523, 378.960
555.005, 373.457
555.487, 370.164
555.969, 369.063
556.451, 367.939
556.934, 363.634
557.416, 357.982
557.898, 358.048
558.380, 364.826
558.862, 367.600
559.344, 358.938
559.826, 345.294
560.308, 340.829
560.791, 348.451
561.273, 353.715
561.755, 351.766
562.237, 348.943
562.719, 350.757
563.201, 355.826
563.683, 359.144
564.165, 357.895
564.648, 354.239
565.130, 352.806
565.612, 354.118
566.094, 354.783
566.576, 353.233
567.058, 352.430
567.540, 353.992
568.022, 357.689
568.505, 363.067
568.987, 371.204
569.469, 379.378
569.951, 386.011
570.433, 391.252
570.915, 394.970
571.397, 397.237
571.879, 399.600
572.361, 403.566
572.844, 409.108
573.326, 415.688
573.808, 427.185
574.290, 434.341
574.772, 431.561
575.254, 426.476
575.736, 427.234
576.218, 434.357
576.700, 439.992
577.183, 436.902
577.665, 429.191
578.147, 425.737
578.629, 426.418
579.111, 423.676
579.593, 412.969
580.075, 399.423
580.557, 392.588
581.039, 396.739
581.522, 396.157
582.004, 387.622
582.486, 377.556
582.968, 368.692
583.450, 360.880
583.932, 353.732
584.414, 347.081
584.896, 340.080
585.378, 329.844
585.861, 316.911
586.343, 311.510
586.825, 318.305
587.307, 322.583
587.789, 311.836
588.271, 291.564
588.753, 278.952
589.235, 278.850
589.718, 278.580
590.200, 272.272
590.682, 265.240
591.164, 264.184
591.646, 268.414
592.128, 271.378
592.610, 268.375
593.092, 261.123
593.575, 254.548
594.057, 248.353
594.539, 243.857
595.021, 240.580
595.503, 239.996
595.985, 245.513
596.467, 255.177
596.949, 260.139
597.432, 254.157
597.914, 246.379
598.396, 242.048
598.878, 240.501
599.360, 240.924
599.842, 242.986
600.324, 245.735
600.806, 248.534
601.288, 251.284
601.771, 250.984
602.253, 245.637
602.735, 240.441
603.217, 235.743
603.699, 232.270
604.181, 230.811
604.663, 231.391
605.145, 233.018
605.627, 236.396
606.110, 239.738
606.592, 240.708
607.074, 239.623
607.556, 237.911
608.038, 236.026
608.520, 234.381
609.002, 233.646
609.484, 234.049
609.966, 234.204
610.449, 233.779
610.931, 233.469
611.413, 233.504
611.895, 233.740
612.377, 234.113
612.859, 234.605
613.341, 234.766
613.823, 233.591
614.305, 232.050
614.788, 233.071
615.270, 236.570
615.752, 237.326
616.234, 231.955
616.716, 223.884
617.198, 220.540
617.680, 224.840
618.162, 227.105
618.645, 224.250
619.127, 222.696
619.609, 226.953
620.091, 234.192
620.573, 239.715
621.055, 241.925
621.537, 241.122
622.019, 235.173
622.502, 226.380
622.984, 223.138
623.466, 226.553
623.948, 231.428
624.430, 235.495
624.912, 238.014
625.394, 236.581
625.876, 226.831
626.359, 220.243
626.841, 217.869
627.323, 217.778
627.805, 220.056
628.287, 223.494
628.769, 225.840
629.251, 225.977
629.733, 225.133
630.215, 225.067
630.698, 225.463
631.180, 223.943
631.662, 219.622
632.144, 217.397
632.626, 222.135
633.108, 231.436
633.590, 234.611
634.072, 223.980
634.554, 218.593
635.037, 224.465
635.519, 231.979
636.001, 234.331
636.483, 232.271
636.965, 229.720
637.447, 228.633
637.929, 228.240
638.411, 227.284
638.893, 225.949
639.376, 225.489
639.858, 226.162
640.340, 227.458
640.822, 229.122
641.304, 231.072
641.786, 232.846
642.268, 235.512
642.750, 236.540
643.232, 234.101
643.715, 231.236
644.197, 230.089
644.679, 230.581
645.161, 231.639
645.643, 232.629
646.125, 234.036
646.607, 237.545
647.089, 242.492
647.572, 243.709
648.054, 239.461
648.536, 236.461
649.018, 241.122
649.500, 251.663
649.982, 256.555
650.464, 251.193
650.946, 246.736
651.429, 243.320
651.911, 241.678
652.393, 242.786
652.875, 246.152
653.357, 250.484
653.839, 255.572
654.321, 260.184
654.803, 262.783
655.286, 263.481
655.768, 262.127
656.250, 258.417
656.732, 255.441
657.214, 255.580
657.696, 258.488
658.178, 262.190
658.660, 267.750
659.142, 272.607
659.625, 277.241
660.107, 280.648
660.589, 281.602
661.071, 280.762
661.553, 279.849
662.035, 279.401
662.517, 279.720
662.999, 283.048
663.481, 287.293
663.964, 284.636
664.446, 274.025
664.928, 265.593
665.410, 267.636
665.892, 276.732
666.374, 279.070
666.856, 268.674
667.338, 262.419
667.820, 265.851
668.303, 268.680
668.785, 263.481
669.267, 253.705
669.749, 247.966
670.231, 250.607
670.713, 253.783
671.195, 250.377
671.677, 243.695
672.159, 239.268
672.642, 237.710
673.124, 238.447
673.606, 241.615
674.088, 245.158
674.570, 243.030
675.052, 232.119
675.534, 224.890
676.016, 223.775
676.499, 224.335
676.981, 224.888
677.463, 225.456
677.945, 225.955
678.427, 226.066
678.909, 227.169
679.391, 232.520
679.873, 237.510
680.356, 234.856
680.838, 226.587
681.320, 222.033
