##NAMES=Riebeckite
##RRUFFID=R060028
##IDEAL CHEMISTRY=[box]Na_2_(Fe^2+^_3_Fe^3+^_2_)Si_8_O_22_(OH)_2_
##LOCALITY=Transvaal, South Africa
##OWNER=RRUFF
##SOURCE=University of Arizona Mineral Museum
##DESCRIPTION=Black to blue fibrous, known as blue asbestos
##STATUS=The identification of this mineral has been confirmed by X-ray diffraction and chemical analysis
##URL=rruff.info/R060028
##MEASURED CHEMISTRY=([box]_0.98_K_0.02_)(Na_0.98_Ca_0.02_)_2_(Fe^2+^_0.85_Mg_0.15_)_3_(Fe^3+^_0.99_[box]_0.01_)_2_Si_8.00_O_22_(OH)_2_
133.2484, 168.4046
133.7305, 168.6258
134.2126, 169.2099
134.6947, 170.1212
135.1769, 170.9624
135.6590, 171.6124
136.1411, 172.1856
136.6232, 173.0071
137.1053, 174.0562
137.5874, 175.3946
138.0696, 177.2081
138.5517, 179.5361
139.0338, 181.7439
139.5159, 183.6843
139.9980, 185.3631
140.4801, 186.8895
140.9623, 187.9996
141.4444, 189.4181
141.9265, 192.0487
142.4086, 196.2000
142.8907, 200.7001
143.3728, 205.6563
143.8550, 211.2881
144.3371, 215.2894
144.8192, 217.8763
145.3013, 218.6850
145.7834, 216.9497
146.2655, 211.4308
146.7477, 205.3889
147.2298, 199.6116
147.7119, 193.9762
148.1940, 189.0675
148.6761, 184.9058
149.1582, 181.4544
149.6404, 178.7908
150.1225, 177.0932
150.6046, 175.9563
151.0867, 175.2713
151.5688, 175.3033
152.0509, 175.3709
152.5331, 175.3858
153.0152, 175.4157
153.4973, 175.6729
153.9794, 176.3164
154.4615, 177.0598
154.9436, 177.7886
155.4258, 178.6679
155.9079, 179.3105
156.3900, 179.4628
156.8721, 179.2611
157.3542, 179.3768
157.8363, 179.9751
158.3185, 180.8917
158.8006, 182.0367
159.2827, 183.1669
159.7648, 184.7432
160.2469, 187.1296
160.7290, 190.2279
161.2112, 193.1261
161.6933, 195.5581
162.1754, 197.6686
162.6575, 199.5778
163.1396, 201.8545
163.6217, 203.4752
164.1039, 203.9063
164.5860, 203.1589
165.0681, 201.9412
165.5502, 200.3163
166.0323, 198.4795
166.5145, 196.6313
166.9966, 194.7646
167.4787, 192.9677
167.9608, 191.2366
168.4429, 189.5617
168.9250, 188.1358
169.4071, 187.1510
169.8893, 186.4812
170.3714, 185.9227
170.8535, 185.7007
171.3356, 185.3642
171.8177, 184.4486
172.2998, 182.8604
172.7820, 181.1641
173.2641, 179.6653
173.7462, 178.3754
174.2283, 177.3081
174.7104, 176.6353
175.1925, 176.1028
175.6747, 175.4084
176.1568, 174.4902
176.6389, 173.5315
177.1210, 172.6357
177.6031, 171.8281
178.0852, 171.1788
178.5674, 170.8020
179.0495, 170.5864
179.5316, 170.3398
180.0137, 170.0194
180.4958, 169.7211
180.9779, 169.5212
181.4601, 169.4272
181.9422, 169.4736
182.4243, 169.8158
182.9064, 170.3074
183.3885, 170.5873
183.8706, 170.5269
184.3528, 170.3878
184.8349, 170.5725
185.3170, 171.0553
185.7991, 171.6190
186.2812, 172.1663
186.7633, 172.6745
187.2455, 173.0342
187.7276, 173.1507
188.2097, 173.2154
188.6918, 173.6491
189.1739, 174.4485
189.6560, 175.2797
190.1382, 175.8915
190.6203, 176.3130
191.1024, 176.7509
191.5845, 177.2608
192.0666, 177.7993
192.5487, 178.2787
193.0309, 178.7007
193.5130, 179.0652
193.9951, 179.3795
194.4772, 179.6454
194.9593, 179.8513
195.4414, 179.9937
195.9236, 180.0797
196.4057, 180.1093
196.8878, 180.0714
197.3699, 180.0318
197.8520, 180.0699
198.3341, 180.1877
198.8163, 180.2411
199.2984, 180.1978
199.7805, 180.0635
200.2626, 179.8676
200.7447, 179.6072
201.2268, 179.2931
201.7090, 178.8775
202.1911, 178.3307
202.6732, 177.9715
203.1553, 177.8966
203.6374, 178.0762
204.1195, 178.3594
204.6017, 178.7935
205.0838, 179.2104
205.5659, 179.3617
206.0480, 179.1579
206.5301, 179.2142
207.0122, 179.7506
207.4944, 180.7124
207.9765, 181.4737
208.4586, 181.9755
208.9407, 182.3959
209.4228, 182.9429
209.9049, 183.6722
210.3871, 184.3096
210.8692, 184.7896
211.3513, 185.1137
211.8334, 185.3334
212.3155, 185.4529
212.7976, 185.4640
213.2798, 185.3579
213.7619, 185.1334
214.2440, 184.7937
214.7261, 184.3122
215.2082, 183.6925
215.6903, 183.0726
216.1725, 182.4295
216.6546, 181.8281
217.1367, 181.3699
217.6188, 181.1316
218.1009, 180.8335
218.5830, 180.4205
219.0651, 179.8868
219.5473, 179.1744
220.0294, 178.1240
220.5115, 177.0656
220.9936, 176.4209
221.4757, 176.3542
221.9578, 176.3020
222.4400, 176.1216
222.9221, 175.7950
223.4042, 175.5358
223.8863, 175.3909
224.3684, 175.2576
224.8505, 174.9906
225.3327, 174.4830
225.8148, 174.0796
226.2969, 173.8800
226.7790, 173.8999
227.2611, 173.9664
227.7432, 174.1356
228.2254, 174.3038
228.7075, 174.3419
229.1896, 174.1828
229.6717, 174.0289
230.1538, 173.8858
230.6359, 173.7355
231.1181, 173.8201
231.6002, 174.2133
232.0823, 174.7694
232.5644, 175.3433
233.0465, 176.0000
233.5286, 176.5553
234.0108, 176.9521
234.4929, 177.1805
234.9750, 177.3762
235.4571, 177.5221
235.9392, 177.6458
236.4213, 177.7877
236.9035, 177.9991
237.3856, 178.1280
237.8677, 178.0991
238.3498, 177.8905
238.8319, 177.8478
239.3140, 178.0270
239.7962, 178.3229
240.2783, 178.6379
240.7604, 178.9934
241.2425, 179.3367
241.7246, 179.7117
242.2067, 180.1388
242.6889, 180.2305
243.1710, 179.7621
243.6531, 179.1717
244.1352, 178.9125
244.6173, 179.2121
245.0994, 179.4022
245.5816, 179.3355
246.0637, 179.0067
246.5458, 178.6618
247.0279, 178.2599
247.5100, 177.8828
247.9921, 177.6324
248.4743, 177.6236
248.9564, 177.5048
249.4385, 177.1699
249.9206, 176.6268
250.4027, 176.2255
250.8848, 176.0760
251.3670, 175.9439
251.8491, 175.6297
252.3312, 175.0872
252.8133, 174.4511
253.2954, 173.7072
253.7775, 172.8637
254.2597, 172.0536
254.7418, 171.2273
255.2239, 170.4908
255.7060, 169.9371
256.1881, 169.6150
256.6702, 169.3448
257.1523, 169.1089
257.6345, 168.9043
258.1166, 168.7266
258.5987, 168.6420
259.0808, 168.4890
259.5629, 168.1014
260.0450, 167.3354
260.5272, 166.7508
261.0093, 166.4393
261.4914, 166.3680
261.9735, 166.3951
262.4556, 166.5986
262.9377, 166.7657
263.4199, 166.7152
263.9020, 166.3354
264.3841, 166.0937
264.8662, 166.0089
265.3483, 166.0968
265.8304, 166.4780
266.3126, 167.3023
266.7947, 168.0984
267.2768, 168.5356
267.7589, 168.4988
268.2410, 168.5855
268.7231, 168.9023
269.2053, 169.3388
269.6874, 169.5521
270.1695, 169.4743
270.6516, 169.3593
271.1337, 169.3486
271.6158, 169.4654
272.0980, 169.5621
272.5801, 169.6454
273.0622, 169.6867
273.5443, 169.6205
274.0264, 169.4371
274.5085, 169.1655
274.9907, 168.7491
275.4728, 168.1393
275.9549, 167.8107
276.4370, 167.8520
276.9191, 168.0677
277.4012, 168.1041
277.8834, 167.9406
278.3655, 167.7264
278.8476, 167.5323
279.3297, 167.3622
279.8118, 167.1337
280.2939, 166.8306
280.7761, 166.5215
281.2582, 166.2735
281.7403, 166.0792
282.2224, 166.0566
282.7045, 166.3157
283.1866, 166.8271
283.6688, 167.2363
284.1509, 167.5259
284.6330, 167.7633
285.1151, 168.0356
285.5972, 168.3401
286.0793, 168.6307
286.5615, 168.9255
287.0436, 169.1935
287.5257, 169.2724
288.0078, 169.1431
288.4899, 168.9245
288.9720, 168.6701
289.4542, 168.3966
289.9363, 168.2805
290.4184, 168.4098
290.9005, 168.7179
291.3826, 169.0835
291.8647, 169.5188
292.3469, 169.8450
292.8290, 169.8238
293.3111, 169.5313
293.7932, 169.3213
294.2753, 169.2988
294.7574, 169.3812
295.2396, 169.3809
295.7217, 169.3054
296.2038, 169.2972
296.6859, 169.5848
297.1680, 170.0332
297.6501, 170.2703
298.1323, 170.2079
298.6144, 169.9460
299.0965, 169.5553
299.5786, 169.0549
300.0607, 168.5919
300.5428, 168.2781
301.0250, 168.0550
301.5071, 167.8088
301.9892, 167.5190
302.4713, 167.2112
302.9534, 166.8744
303.4355, 166.5307
303.9177, 166.2439
304.3998, 166.1193
304.8819, 166.0481
305.3640, 165.8733
305.8461, 165.5613
306.3282, 165.2526
306.8104, 165.0659
307.2925, 164.9743
307.7746, 164.9258
308.2567, 164.9270
308.7388, 164.9459
309.2209, 164.9019
309.7031, 164.7858
310.1852, 164.8160
310.6673, 165.3665
311.1494, 166.1125
311.6315, 166.5911
312.1136, 166.2233
312.5958, 165.8384
313.0779, 166.0935
313.5600, 166.9398
314.0421, 167.7334
314.5242, 168.0507
315.0063, 168.1590
315.4885, 168.3199
315.9706, 168.5875
316.4527, 168.9464
316.9348, 169.4609
317.4169, 170.0872
317.8990, 170.6331
318.3812, 170.9120
318.8633, 171.1516
319.3454, 171.5109
319.8275, 172.0870
320.3096, 172.6968
320.7917, 173.3510
321.2739, 174.0110
321.7560, 174.5739
322.2381, 174.8998
322.7202, 175.2165
323.2023, 175.6362
323.6844, 176.2102
324.1666, 176.8008
324.6487, 177.3140
325.1308, 177.8372
325.6129, 178.5042
326.0950, 179.6132
326.5771, 180.6018
327.0593, 181.2630
327.5414, 181.4972
328.0235, 181.7755
328.5056, 182.2705
328.9877, 182.7518
329.4698, 182.9754
329.9520, 182.7695
330.4341, 182.5070
330.9162, 182.2288
331.3983, 181.9343
331.8804, 181.6724
332.3625, 181.5895
332.8447, 181.4212
333.3268, 180.9550
333.8089, 180.0114
334.2910, 179.0897
334.7731, 178.1912
335.2552, 177.3412
335.7374, 176.7279
336.2195, 176.5101
336.7016, 176.2648
337.1837, 175.6898
337.6658, 174.6094
338.1479, 173.8174
338.6301, 173.4505
339.1122, 173.3244
339.5943, 173.0014
340.0764, 172.4128
340.5585, 171.8535
341.0406, 171.4231
341.5227, 171.1052
342.0049, 171.1157
342.4870, 171.5649
342.9691, 172.1126
343.4512, 172.2121
343.9333, 171.8334
344.4154, 171.4814
344.8976, 171.3278
345.3797, 171.3453
345.8618, 171.4567
346.3439, 171.6853
346.8260, 171.8662
347.3081, 171.7645
347.7903, 171.4316
348.2724, 171.2100
348.7545, 171.1865
349.2366, 171.3235
349.7187, 171.6354
350.2008, 172.1082
350.6830, 172.4794
351.1651, 172.4021
351.6472, 172.0882
352.1293, 172.0806
352.6114, 172.5588
353.0935, 173.1254
353.5757, 173.2598
354.0578, 173.0763
354.5399, 172.9759
355.0220, 173.2139
355.5041, 173.6452
355.9862, 174.1496
356.4684, 174.7352
356.9505, 175.2067
357.4326, 175.4077
357.9147, 175.3905
358.3968, 175.2415
358.8789, 174.8145
359.3611, 174.3996
359.8432, 174.2256
360.3253, 174.2856
360.8074, 174.3626
361.2895, 174.4055
361.7716, 174.3846
362.2538, 174.2718
362.7359, 174.0022
363.2180, 173.7063
363.7001, 173.3617
364.1822, 173.0124
364.6643, 172.8224
365.1465, 173.0058
365.6286, 173.2415
366.1107, 173.3740
366.5928, 173.4126
367.0749, 173.2950
367.5570, 172.8165
368.0392, 172.2061
368.5213, 171.8578
369.0034, 172.0761
369.4855, 172.3046
369.9676, 172.3913
370.4497, 172.3070
370.9319, 172.2028
371.4140, 172.0878
371.8961, 171.9367
372.3782, 171.7229
372.8603, 171.4085
373.3424, 171.0932
373.8246, 170.8115
374.3067, 170.5521
374.7888, 170.1827
375.2709, 169.6392
375.7530, 169.0973
376.2351, 168.6704
376.7173, 168.3906
377.1994, 168.1330
377.6815, 167.9071
378.1636, 167.6888
378.6457, 167.4046
379.1278, 167.0353
379.6100, 166.7093
380.0921, 166.5119
380.5742, 166.4372
381.0563, 166.2756
381.5384, 166.0053
382.0205, 165.5859
382.5027, 165.4701
382.9848, 165.3013
383.4669, 165.0823
383.9490, 164.6626
384.4311, 164.5020
384.9132, 164.2376
385.3954, 163.9689
385.8775, 163.8447
386.3596, 163.4543
386.8417, 163.3278
387.3238, 163.0960
387.8059, 162.9124
388.2881, 162.6243
388.7702, 162.3685
389.2523, 162.2172
389.7344, 162.0081
390.2165, 161.7080
390.6986, 161.1937
391.1808, 160.7784
391.6629, 160.4694
392.1450, 160.2346
392.6271, 160.1160
393.1092, 160.0449
393.5913, 159.9325
394.0735, 159.7263
394.5556, 159.4919
395.0377, 159.2473
395.5198, 158.9971
396.0019, 158.7669
396.4840, 158.5831
396.9662, 158.4133
397.4483, 158.2330
397.9304, 157.9807
398.4125, 157.7966
398.8946, 157.7354
399.3767, 157.7555
399.8589, 157.7559
400.3410, 157.7205
400.8231, 157.6671
401.3052, 157.5960
401.7873, 157.5004
402.2694, 157.3985
402.7516, 157.2252
403.2337, 157.0919
403.7158, 157.1667
404.1979, 157.6674
404.6800, 157.8977
405.1621, 157.6388
405.6443, 156.9761
406.1264, 156.5598
406.6085, 156.4554
407.0906, 156.4232
407.5727, 156.2972
408.0548, 156.0687
408.5370, 155.8614
409.0191, 155.6880
409.5012, 155.5422
409.9833, 155.3940
410.4654, 155.2432
410.9475, 155.1746
411.4297, 155.2376
411.9118, 155.4135
412.3939, 155.7088
412.8760, 156.1350
413.3581, 156.4625
413.8402, 156.3123
414.3224, 155.8835
414.8045, 155.6872
415.2866, 155.9824
415.7687, 156.4428
416.2508, 156.7318
416.7329, 156.8681
417.2151, 156.9364
417.6972, 156.9435
418.1793, 156.9338
418.6614, 156.9654
419.1435, 157.0673
419.6256, 157.1263
420.1078, 156.9755
420.5899, 156.7640
421.0720, 156.7056
421.5541, 156.9866
422.0362, 157.3327
422.5183, 157.6724
423.0005, 157.9967
423.4826, 158.2458
423.9647, 158.2714
424.4468, 158.2991
424.9289, 158.4742
425.4110, 159.0061
425.8932, 159.4403
426.3753, 159.6796
426.8574, 159.8114
427.3395, 160.0579
427.8216, 160.5452
428.3037, 160.9708
428.7859, 161.2395
429.2680, 161.3425
429.7501, 161.3237
430.2322, 161.1525
430.7143, 160.9002
431.1964, 160.6404
431.6786, 160.3741
432.1607, 160.1035
432.6428, 159.8517
433.1249, 159.5869
433.6070, 159.2036
434.0891, 158.7013
434.5713, 158.1214
435.0534, 157.3665
435.5355, 156.5279
436.0176, 156.0748
436.4997, 156.1050
436.9818, 156.2778
437.4640, 156.1954
437.9461, 155.9140
438.4282, 155.6086
438.9103, 155.3382
439.3924, 155.0886
439.8745, 154.8087
440.3566, 154.5128
440.8387, 154.3059
441.3209, 154.2993
441.8030, 154.3954
442.2851, 154.4915
442.7672, 154.5483
443.2493, 154.6371
443.7314, 154.8989
444.2136, 155.2059
444.6957, 155.3222
445.1778, 154.9357
445.6599, 154.5593
446.1420, 154.4099
446.6241, 154.5170
447.1063, 154.6392
447.5884, 154.8057
448.0705, 154.9362
448.5526, 154.9679
449.0347, 154.8140
449.5168, 154.6803
449.9990, 154.5286
450.4811, 154.4088
450.9632, 154.4865
451.4453, 154.8787
451.9274, 155.2469
452.4095, 155.4621
452.8917, 155.5136
453.3738, 155.4866
453.8559, 155.3311
454.3380, 155.2179
454.8201, 155.3977
455.3022, 155.8737
455.7844, 156.2442
456.2665, 156.4108
456.7486, 156.4294
457.2307, 156.3230
457.7128, 156.1133
458.1949, 156.0741
458.6771, 156.5534
459.1592, 157.2917
459.6413, 157.7368
460.1234, 157.8250
460.6055, 157.8167
461.0876, 157.8972
461.5698, 158.0472
462.0519, 158.2355
462.5340, 158.5172
463.0161, 158.7735
463.4982, 158.8957
463.9803, 158.9162
464.4625, 158.9751
464.9446, 159.3360
465.4267, 159.6289
465.9088, 159.8564
466.3909, 159.8681
466.8730, 160.1239
467.3552, 160.2607
467.8373, 160.3782
468.3194, 160.6251
468.8015, 160.5906
469.2836, 160.8050
469.7657, 160.8989
470.2479, 161.0260
470.7300, 161.0335
471.2121, 161.0581
471.6942, 161.1722
472.1763, 161.2133
472.6584, 161.1483
473.1406, 161.1879
473.6227, 160.9987
474.1048, 160.9818
474.5869, 161.0307
475.0690, 160.8956
475.5511, 160.8615
476.0333, 160.7681
476.5154, 160.4584
476.9975, 160.4834
477.4796, 160.3421
477.9617, 160.0303
478.4438, 159.9981
478.9260, 159.6888
479.4081, 159.6259
479.8902, 159.6223
480.3723, 159.5932
480.8544, 159.3614
481.3365, 159.0647
481.8187, 158.9423
482.3008, 159.2747
482.7829, 159.6482
483.2650, 159.8789
483.7471, 159.9618
484.2292, 159.8936
484.7114, 159.3526
485.1935, 158.8911
485.6756, 158.8883
486.1577, 159.7369
486.6398, 160.3255
487.1219, 160.4215
487.6041, 160.2614
488.0862, 160.1336
488.5683, 160.0002
489.0504, 159.9616
489.5325, 160.0689
490.0146, 160.2985
490.4968, 160.4610
490.9789, 160.5362
491.4610, 160.5891
491.9431, 160.6677
492.4252, 160.7714
492.9073, 160.7948
493.3895, 160.6870
493.8716, 160.6384
494.3537, 161.0515
494.8358, 161.8211
495.3179, 162.3430
495.8000, 162.2933
496.2822, 161.9755
496.7643, 161.7985
497.2464, 161.7578
497.7285, 161.8345
498.2106, 162.1450
498.6927, 162.4979
499.1749, 162.6454
499.6570, 162.4937
500.1391, 162.4467
500.6212, 162.9170
501.1033, 163.5406
501.5854, 163.8955
502.0676, 163.4834
502.5497, 163.1821
503.0318, 163.2561
503.5139, 163.6546
503.9960, 164.0669
504.4781, 164.5957
504.9603, 165.0202
505.4424, 165.2359
505.9245, 165.1815
506.4066, 165.1886
506.8887, 165.2698
507.3708, 165.4008
507.8530, 165.5667
508.3351, 165.7737
508.8172, 165.9711
509.2993, 166.1368
509.7814, 166.3017
510.2635, 166.5729
510.7457, 166.9496
511.2278, 167.2704
511.7099, 167.4090
512.1920, 167.4287
512.6741, 167.4680
513.1563, 167.5285
513.6384, 167.6439
514.1205, 167.8704
514.6026, 168.1622
515.0847, 168.4581
515.5668, 168.7506
516.0490, 169.0248
516.5311, 169.2665
517.0132, 169.4848
517.4953, 169.6966
517.9774, 169.8224
518.4595, 170.0237
518.9417, 170.4066
519.4238, 170.9873
519.9059, 171.5071
520.3880, 171.8947
520.8701, 172.2502
521.3522, 172.6180
521.8344, 172.9256
522.3165, 173.4093
522.7986, 174.1705
523.2807, 175.0275
523.7628, 175.6097
524.2449, 175.8449
524.7271, 176.2354
525.2092, 176.9890
525.6913, 177.9845
526.1734, 178.8168
526.6555, 179.4850
527.1376, 180.0769
527.6198, 180.5756
528.1019, 181.0476
528.5840, 181.6988
529.0661, 182.5664
529.5482, 183.4142
530.0303, 183.9489
530.5125, 184.3339
530.9946, 184.8476
531.4767, 185.7803
531.9588, 186.6154
532.4409, 187.0001
532.9230, 187.0519
533.4052, 187.1278
533.8873, 187.3134
534.3694, 187.5658
534.8515, 187.9126
535.3336, 188.4070
535.8157, 188.7081
536.2979, 188.6802
536.7800, 188.5792
537.2621, 188.6120
537.7442, 188.9029
538.2263, 188.9998
538.7084, 188.8484
539.1906, 188.5185
539.6727, 188.1687
540.1548, 187.8078
540.6369, 187.2799
541.1190, 186.4474
541.6011, 185.4369
542.0833, 184.6420
542.5654, 184.0578
543.0475, 183.5858
543.5296, 183.2624
544.0117, 182.9667
544.4938, 182.4917
544.9760, 181.7864
545.4581, 181.0236
545.9402, 180.1499
546.4223, 179.3477
546.9044, 178.8509
547.3865, 179.1689
547.8687, 179.3410
548.3508, 178.9697
548.8329, 178.1925
549.3150, 177.4526
549.7971, 176.6560
550.2792, 176.0753
550.7614, 175.8921
551.2435, 176.1710
551.7256, 176.1230
552.2077, 175.5736
552.6898, 174.9733
553.1719, 174.6859
553.6541, 174.7521
554.1362, 174.8378
554.6183, 174.9296
555.1004, 175.0041
555.5825, 175.0345
556.0646, 175.0170
556.5468, 174.9107
557.0289, 174.5807
557.5110, 174.2525
557.9931, 174.3690
558.4752, 174.8445
558.9573, 175.2357
559.4395, 175.0239
559.9216, 174.7699
560.4037, 175.0392
560.8858, 175.9583
561.3679, 176.7917
561.8500, 177.1865
562.3322, 177.3921
562.8143, 177.6313
563.2964, 178.0365
563.7785, 178.3533
564.2606, 178.4853
564.7427, 178.5439
565.2249, 178.7555
565.7070, 179.1923
566.1891, 179.6211
566.6712, 179.9710
567.1533, 180.2529
567.6354, 180.5782
568.1176, 180.9498
568.5997, 181.3531
569.0818, 181.7966
569.5639, 182.2673
570.0460, 182.7371
570.5281, 183.1979
571.0103, 183.6417
571.4924, 184.0439
571.9745, 184.4225
572.4566, 184.8313
572.9387, 185.3575
573.4208, 185.7952
573.9030, 185.9232
574.3851, 185.8694
574.8672, 185.9166
575.3493, 186.3960
575.8314, 186.7605
576.3135, 186.7745
576.7957, 186.4275
577.2778, 186.0524
577.7599, 185.7189
578.2420, 185.2921
578.7241, 184.6752
579.2062, 183.7768
579.6884, 183.0827
580.1705, 182.6656
580.6526, 182.2978
581.1347, 181.6857
581.6168, 180.8339
582.0989, 179.9976
582.5811, 179.2296
583.0632, 178.5031
583.5453, 177.7592
584.0274, 177.0030
584.5095, 176.2764
584.9916, 175.5225
585.4738, 174.8593
585.9559, 174.4550
586.4380, 174.2828
586.9201, 174.0842
587.4022, 173.7410
587.8843, 173.3262
588.3664, 172.8519
588.8485, 172.2473
589.3306, 171.8117
589.8127, 171.7856
590.2949, 171.8163
590.7770, 171.5778
591.2591, 170.8909
591.7412, 170.3460
592.2233, 170.0106
592.7054, 169.8410
593.1876, 169.7907
593.6697, 169.8767
594.1518, 169.8873
594.6339, 169.7364
595.1160, 169.4625
595.5981, 169.0723
596.0803, 168.5920
596.5624, 168.2719
597.0445, 168.4839
597.5266, 168.8542
598.0087, 168.8623
598.4908, 168.4360
598.9730, 168.0495
599.4551, 168.0018
599.9372, 168.0915
600.4193, 168.1318
600.9014, 168.0228
601.3835, 167.9500
601.8657, 168.0248
602.3478, 168.1234
602.8299, 168.0370
603.3120, 167.5819
603.7941, 167.3090
604.2762, 167.3806
604.7584, 167.7083
605.2405, 167.9620
605.7226, 168.1471
606.2047, 168.2327
606.6868, 168.1194
607.1689, 167.8961
607.6511, 167.9022
608.1332, 167.6187
608.6153, 168.0798
609.0974, 168.3382
609.5795, 168.4047
610.0616, 167.7091
610.5438, 167.9945
611.0259, 167.8847
611.5080, 167.7574
611.9901, 168.1767
612.4722, 167.5847
612.9543, 167.9925
613.4365, 167.9993
613.9186, 168.1875
614.4007, 167.9782
614.8828, 167.8898
615.3649, 168.1963
615.8470, 168.2820
616.3292, 168.0214
616.8113, 168.2128
617.2934, 167.5928
617.7755, 167.9763
618.2576, 168.0230
618.7397, 168.0355
619.2219, 168.0083
619.7040, 167.8906
620.1861, 167.6726
620.6682, 167.5035
621.1503, 167.5923
621.6324, 167.7722
622.1146, 167.8313
622.5967, 167.6814
623.0788, 167.4969
623.5609, 167.3762
624.0430, 167.2642
624.5251, 167.0815
625.0073, 166.7143
625.4894, 166.3969
625.9715, 166.1229
626.4536, 165.9235
626.9357, 165.9412
