##NAMES=Riebeckite
##RRUFFID=R050082
##IDEAL CHEMISTRY=[box]Na_2_(Fe^2+^_3_Fe^3+^_2_)Si_8_O_22_(OH)_2_
##LOCALITY=Mt. Malosa, Zomba, Chilwa, Alkaline Area, Malawi
##OWNER=RRUFF
##SOURCE=Rock Currier
##DESCRIPTION=Black elongated prisms
##STATUS=The identification of this mineral has been confirmed by X-ray diffraction and chemical analysis
##URL=rruff.info/R050082
##MEASURED CHEMISTRY=([box]_0.63_Na_0.19_K_0.18_)(Na_1.58_Ca_0.42_)_Σ=2_Fe^2+^_3.00_(Fe^3+^_1.30_Fe^2+^_0.45_Mn_0.15_Mg_0.05_Ti_0.05_)_Σ=2_(Si_0.98_Al_0.02_)_8_O_22_(OH)_2_
130.3772, 344.8205
130.8593, 357.7484
131.3414, 367.4567
131.8235, 380.4230
132.3056, 396.3696
132.7877, 416.2178
133.2699, 442.4437
133.7520, 475.4354
134.2341, 508.8004
134.7162, 539.0081
135.1983, 566.1754
135.6804, 596.4477
136.1626, 628.7167
136.6447, 665.0954
137.1268, 710.7109
137.6089, 766.8928
138.0910, 826.4919
138.5731, 887.3181
139.0553, 953.0114
139.5374, 1006.445
140.0195, 1046.134
140.5016, 1072.773
140.9837, 1087.809
141.4658, 1092.027
141.9480, 1083.640
142.4301, 1059.894
142.9122, 1014.052
143.3943, 967.1900
143.8764, 920.5516
144.3585, 874.5641
144.8407, 830.2361
145.3228, 786.4963
145.8049, 745.5414
146.2870, 709.7034
146.7691, 678.9874
147.2512, 653.9013
147.7334, 634.8948
148.2155, 621.9963
148.6976, 614.3914
149.1797, 614.4773
149.6618, 619.1874
150.1439, 624.4309
150.6261, 630.1350
151.1082, 636.3777
151.5903, 642.8010
152.0724, 648.1227
152.5545, 656.4712
153.0366, 670.2059
153.5188, 687.0656
154.0009, 702.5390
154.4830, 714.0447
154.9651, 725.6354
155.4472, 739.4988
155.9293, 759.1859
156.4115, 776.2342
156.8936, 787.5671
157.3757, 794.6338
157.8578, 802.6562
158.3399, 811.4839
158.8221, 822.6848
159.3042, 837.3708
159.7863, 858.7482
160.2684, 880.7632
160.7505, 902.4961
161.2326, 923.8578
161.7148, 942.5722
162.1969, 959.0448
162.6790, 971.9714
163.1611, 979.9332
163.6432, 982.4294
164.1253, 980.0299
164.6075, 970.7898
165.0896, 954.5597
165.5717, 939.5753
166.0538, 933.8943
166.5359, 931.7390
167.0180, 924.8627
167.5002, 905.1032
167.9823, 882.2573
168.4644, 863.8707
168.9465, 850.9266
169.4286, 839.4366
169.9107, 828.4667
170.3929, 816.9448
170.8750, 802.3102
171.3571, 780.7130
171.8392, 756.6078
172.3213, 734.7524
172.8034, 716.1981
173.2856, 699.1306
173.7677, 679.0109
174.2498, 658.0660
174.7319, 644.2190
175.2140, 648.1376
175.6961, 660.7657
176.1783, 667.6124
176.6604, 663.7803
177.1425, 657.3872
177.6246, 660.0561
178.1067, 670.3151
178.5888, 678.7765
179.0710, 675.2880
179.5531, 664.9189
180.0352, 658.8635
180.5173, 660.2056
180.9994, 666.7569
181.4815, 676.1610
181.9637, 688.4194
182.4458, 700.9577
182.9279, 712.9054
183.4100, 723.7236
183.8921, 731.2009
184.3742, 731.7757
184.8564, 729.9066
185.3385, 736.3049
185.8206, 751.3619
186.3027, 770.5995
186.7848, 792.4408
187.2669, 816.0085
187.7491, 835.3663
188.2312, 846.9149
188.7133, 852.5421
189.1954, 858.5684
189.6775, 864.6071
190.1596, 872.6614
190.6418, 887.1347
191.1239, 907.7681
191.6060, 926.5098
192.0881, 939.2289
192.5702, 946.6386
193.0524, 955.4799
193.5345, 966.4392
194.0166, 976.9999
194.4987, 982.7312
194.9808, 983.3990
195.4629, 982.7626
195.9451, 982.6863
196.4272, 983.1346
196.9093, 980.9452
197.3914, 973.9999
197.8735, 967.5908
198.3556, 975.3873
198.8378, 1000.308
199.3199, 1020.770
199.8020, 1021.888
200.2841, 1001.992
200.7662, 987.2802
201.2483, 978.9642
201.7305, 976.8959
202.2126, 982.2585
202.6947, 996.7750
203.1768, 1012.292
203.6589, 1023.513
204.1410, 1029.541
204.6232, 1036.917
205.1053, 1046.269
205.5874, 1057.311
206.0695, 1068.950
206.5516, 1080.874
207.0337, 1094.219
207.5159, 1110.241
207.9980, 1129.178
208.4801, 1148.568
208.9622, 1169.350
209.4443, 1190.323
209.9264, 1204.615
210.4086, 1209.616
210.8907, 1213.208
211.3728, 1221.973
211.8549, 1238.079
212.3370, 1252.456
212.8191, 1264.995
213.3013, 1275.093
213.7834, 1277.683
214.2655, 1270.120
214.7476, 1259.264
215.2297, 1252.080
215.7118, 1251.953
216.1940, 1245.258
216.6761, 1226.202
217.1582, 1195.716
217.6403, 1177.866
218.1224, 1178.323
218.6045, 1184.092
219.0867, 1182.613
219.5688, 1171.102
220.0509, 1158.928
220.5330, 1148.527
221.0151, 1139.849
221.4972, 1128.609
221.9794, 1113.254
222.4615, 1096.969
222.9436, 1082.759
223.4257, 1070.469
223.9078, 1060.386
224.3899, 1052.036
224.8721, 1044.991
225.3542, 1043.863
225.8363, 1049.702
226.3184, 1060.431
226.8005, 1074.468
227.2827, 1094.320
227.7648, 1112.497
228.2469, 1126.839
228.7290, 1136.797
229.2111, 1147.177
229.6932, 1159.905
230.1754, 1171.380
230.6575, 1175.638
231.1396, 1165.309
231.6217, 1160.975
232.1038, 1170.607
232.5859, 1198.358
233.0681, 1217.152
233.5502, 1222.305
234.0323, 1221.826
234.5144, 1228.254
234.9965, 1248.143
235.4786, 1263.659
235.9608, 1267.696
236.4429, 1256.338
236.9250, 1252.263
237.4071, 1261.047
237.8892, 1273.680
238.3713, 1275.321
238.8535, 1260.305
239.3356, 1243.779
239.8177, 1230.904
240.2998, 1223.470
240.7819, 1212.462
241.2640, 1195.877
241.7462, 1176.710
242.2283, 1160.274
242.7104, 1148.861
243.1925, 1136.385
243.6746, 1120.428
244.1567, 1099.403
244.6389, 1080.121
245.1210, 1063.304
245.6031, 1047.838
246.0852, 1032.022
246.5673, 1016.140
247.0494, 999.4181
247.5316, 981.4232
248.0137, 961.6920
248.4958, 942.0594
248.9779, 922.1929
249.4600, 902.7127
249.9421, 885.2902
250.4243, 870.3310
250.9064, 856.4266
251.3885, 841.9713
251.8706, 824.0898
252.3527, 816.2255
252.8348, 823.5726
253.3170, 837.7004
253.7991, 842.5603
254.2812, 835.6039
254.7633, 824.1084
255.2454, 808.6559
255.7275, 785.5994
256.2097, 773.3411
256.6918, 775.8780
257.1739, 786.5927
257.6560, 793.0841
258.1381, 793.0400
258.6202, 793.6279
259.1024, 799.3603
259.5845, 813.9044
260.0666, 816.7849
260.5487, 801.6644
261.0308, 779.6903
261.5129, 771.2884
261.9951, 780.2645
262.4772, 794.0005
262.9593, 809.6895
263.4414, 829.9182
263.9235, 839.3060
264.4056, 833.9445
264.8878, 821.4616
265.3699, 815.2816
265.8520, 817.0752
266.3341, 820.2679
266.8162, 822.5600
267.2983, 823.8318
267.7805, 824.7281
268.2626, 824.9508
268.7447, 825.1236
269.2268, 827.1148
269.7089, 832.1591
270.1910, 834.5641
270.6732, 831.0163
271.1553, 820.6443
271.6374, 813.1294
272.1195, 809.0736
272.6016, 806.9827
273.0837, 804.9344
273.5659, 803.0812
274.0480, 800.4636
274.5301, 796.4678
275.0122, 791.0561
275.4943, 786.0294
275.9764, 781.8105
276.4586, 777.1812
276.9407, 768.9828
277.4228, 756.5505
277.9049, 747.1360
278.3870, 744.7163
278.8691, 748.9421
279.3513, 752.0940
279.8334, 754.3530
280.3155, 755.0709
280.7976, 752.5095
281.2798, 746.5210
281.7619, 741.3027
282.2440, 739.7124
282.7261, 740.8286
283.2082, 736.6636
283.6903, 726.1432
284.1725, 714.2945
284.6546, 707.4031
285.1367, 705.3769
285.6188, 704.2742
286.1009, 702.6931
286.5830, 700.9147
287.0652, 701.1633
287.5473, 704.0333
288.0294, 705.3788
288.5115, 697.6294
288.9936, 682.2885
289.4757, 672.2104
289.9579, 674.5045
290.4400, 684.3909
290.9221, 688.6573
291.4042, 687.0380
291.8863, 683.1159
292.3684, 678.0694
292.8506, 673.0297
293.3327, 673.1860
293.8148, 684.1029
294.2969, 698.9560
294.7790, 703.5576
295.2611, 697.8884
295.7433, 689.8410
296.2254, 685.4217
296.7075, 683.9305
297.1896, 683.6058
297.6717, 684.4918
298.1538, 685.7662
298.6360, 686.0458
299.1181, 685.4123
299.6002, 684.8006
300.0823, 683.5385
300.5644, 682.9577
301.0465, 686.1074
301.5287, 696.5092
302.0108, 707.5313
302.4929, 710.1766
302.9750, 705.7950
303.4571, 701.9744
303.9392, 703.0336
304.4214, 707.9559
304.9035, 716.7217
305.3856, 733.7916
305.8677, 747.1461
306.3498, 740.3208
306.8319, 718.9989
307.3141, 703.1097
307.7962, 707.4536
308.2783, 721.6818
308.7604, 737.2811
309.2425, 755.3699
309.7246, 767.6774
310.2068, 763.3550
310.6889, 748.4231
311.1710, 738.4785
311.6531, 743.9642
312.1352, 755.5243
312.6173, 767.4249
313.0995, 780.0905
313.5816, 788.7065
314.0637, 787.4385
314.5458, 780.7828
315.0279, 777.2055
315.5100, 781.8882
315.9922, 789.0421
316.4743, 796.3705
316.9564, 804.2713
317.4385, 809.5703
317.9206, 809.5554
318.4027, 806.6883
318.8849, 804.4088
319.3670, 805.8658
319.8491, 806.1088
320.3312, 802.0382
320.8133, 792.1616
321.2954, 785.7571
321.7776, 787.2074
322.2597, 791.9585
322.7418, 795.1569
323.2239, 793.6349
323.7060, 792.9643
324.1881, 796.0469
324.6703, 803.6361
325.1524, 806.0991
325.6345, 800.0024
326.1166, 789.9589
326.5987, 779.5669
327.0808, 765.4421
327.5630, 755.0059
328.0451, 749.9884
328.5272, 750.1684
329.0093, 750.9016
329.4914, 753.8956
329.9735, 755.8893
330.4557, 754.7482
330.9378, 749.6602
331.4199, 742.6395
331.9020, 732.4475
332.3841, 720.1848
332.8662, 711.4122
333.3484, 707.6968
333.8305, 705.2247
334.3126, 701.5625
334.7947, 695.4969
335.2768, 692.3466
335.7589, 693.5217
336.2411, 697.1289
336.7232, 697.7675
337.2053, 693.8605
337.6874, 691.5895
338.1695, 694.5923
338.6516, 703.5733
339.1338, 712.0098
339.6159, 720.6220
340.0980, 727.2306
340.5801, 725.6903
341.0622, 714.7090
341.5443, 707.4770
342.0265, 710.7375
342.5086, 723.3148
342.9907, 734.8511
343.4728, 745.2684
343.9549, 754.5648
344.4370, 762.7182
344.9192, 769.6630
345.4013, 774.8294
345.8834, 775.3350
346.3655, 774.5779
346.8476, 783.5164
347.3297, 802.4189
347.8119, 821.9445
348.2940, 831.9464
348.7761, 835.2505
349.2582, 840.1275
349.7403, 849.5854
350.2225, 861.1613
350.7046, 872.3321
351.1867, 883.0113
351.6688, 891.7489
352.1509, 894.4982
352.6331, 895.4340
353.1152, 902.0580
353.5973, 920.0411
354.0794, 936.5323
354.5615, 937.3468
355.0436, 926.6473
355.5258, 917.1029
356.0079, 916.2328
356.4900, 919.2544
356.9721, 922.2336
357.4542, 924.5789
357.9363, 926.8438
358.4185, 930.5058
358.9006, 934.1754
359.3827, 935.4482
359.8648, 932.2584
360.3469, 927.3248
360.8290, 921.8484
361.3112, 915.8829
361.7933, 909.6254
362.2754, 903.2187
362.7575, 896.4763
363.2396, 889.1649
363.7217, 883.9643
364.2039, 875.5563
364.6860, 861.1572
365.1681, 840.6219
365.6502, 821.5044
366.1323, 802.3015
366.6144, 786.0452
367.0966, 774.8684
367.5787, 776.6389
368.0608, 774.0237
368.5429, 764.8149
369.0250, 749.9562
369.5071, 734.3057
369.9893, 715.6435
370.4714, 698.8240
370.9535, 686.9282
371.4356, 684.4693
371.9177, 676.4423
372.3998, 659.5696
372.8820, 638.5474
373.3641, 624.3668
373.8462, 619.1183
374.3283, 615.3708
374.8104, 610.6529
375.2925, 604.9223
375.7747, 598.0845
376.2568, 589.8580
376.7389, 580.9693
377.2210, 572.5168
377.7031, 564.5487
378.1852, 556.2737
378.6674, 546.7851
379.1495, 536.8141
379.6316, 529.3256
380.1137, 524.5332
380.5958, 520.8597
381.0779, 517.8130
381.5601, 514.9548
382.0422, 509.9933
382.5243, 500.9910
383.0064, 491.3428
383.4885, 488.8416
383.9706, 492.2536
384.4528, 492.6717
384.9349, 480.0550
385.4170, 461.4742
385.8991, 448.6310
386.3812, 443.9556
386.8633, 442.5022
387.3455, 440.2571
387.8276, 437.7059
388.3097, 435.9292
388.7918, 436.2652
389.2739, 437.1115
389.7560, 437.3564
390.2382, 436.9304
390.7203, 435.6995
391.2024, 434.2085
391.6845, 431.6797
392.1666, 427.1783
392.6487, 416.6932
393.1309, 407.6567
393.6130, 404.3647
394.0951, 406.2372
394.5772, 406.4198
395.0593, 401.8689
395.5414, 395.9005
396.0236, 390.6195
396.5057, 384.8808
396.9878, 381.5291
397.4699, 374.0369
397.9520, 381.9775
398.4341, 386.5885
398.9163, 388.0488
399.3984, 376.9212
399.8805, 382.0482
400.3626, 380.6610
400.8447, 379.0067
401.3268, 373.9096
401.8090, 381.2053
402.2911, 385.1713
402.7732, 385.9865
403.2553, 374.2139
403.7374, 378.6958
404.2195, 376.6637
404.7017, 374.3643
405.1838, 381.1340
405.6659, 371.1922
406.1480, 377.8181
406.6301, 377.8304
407.1122, 380.8696
407.5944, 378.4200
408.0765, 382.4738
408.5586, 382.4988
409.0407, 378.5844
409.5228, 375.3341
410.0049, 375.9240
410.4871, 379.5435
410.9692, 384.2831
411.4513, 390.2237
411.9334, 396.2393
412.4155, 401.2006
412.8976, 405.3036
413.3798, 408.9398
413.8619, 411.8831
414.3440, 414.7667
414.8261, 417.5804
415.3082, 420.3803
415.7903, 425.4454
416.2725, 437.2598
416.7546, 451.0689
417.2367, 461.5902
417.7188, 462.1507
418.2009, 464.3400
418.6830, 474.4096
419.1652, 490.7522
419.6473, 507.0850
420.1294, 523.7166
420.6115, 538.1400
421.0937, 548.9380
421.5758, 554.1636
422.0579, 559.0640
422.5400, 564.5334
423.0221, 570.0490
423.5042, 574.8524
423.9864, 577.9413
424.4685, 581.3557
424.9506, 585.5228
425.4327, 590.3914
425.9148, 596.2496
426.3969, 604.5823
426.8791, 612.2135
427.3612, 616.3187
427.8433, 616.4338
428.3254, 614.2121
428.8075, 608.8619
429.2896, 601.7014
429.7718, 597.8618
430.2539, 598.0272
430.7360, 597.8417
431.2181, 595.1155
431.7002, 589.8716
432.1823, 582.4023
432.6645, 572.6783
433.1466, 560.8198
433.6287, 545.7382
434.1108, 528.2530
434.5929, 512.3746
435.0750, 500.3151
435.5572, 490.8105
436.0393, 481.4817
436.5214, 472.3918
437.0035, 464.8539
437.4856, 462.5695
437.9677, 461.7622
438.4499, 456.7572
438.9320, 443.8551
439.4141, 430.2768
439.8962, 419.9146
440.3783, 412.8109
440.8604, 408.7714
441.3426, 413.5054
441.8247, 416.9646
442.3068, 411.4887
442.7889, 393.4076
443.2710, 380.1723
443.7531, 379.5035
444.2353, 384.8734
444.7174, 389.0537
445.1995, 391.8949
445.6816, 392.4973
446.1637, 389.6689
446.6458, 383.8390
447.1280, 379.2801
447.6101, 377.1135
448.0922, 374.9676
448.5743, 371.0936
449.0564, 363.3445
449.5385, 359.7050
450.0207, 361.3428
450.5028, 366.2812
450.9849, 371.2718
451.4670, 376.4482
451.9491, 380.7497
452.4312, 383.4640
452.9134, 384.8184
453.3955, 386.6886
453.8776, 389.1032
454.3597, 391.7702
454.8418, 395.9802
455.3239, 400.6280
455.8061, 399.9288
456.2882, 389.4260
456.7703, 377.9369
457.2524, 381.1737
457.7345, 395.5568
458.2166, 406.5399
458.6988, 400.4819
459.1809, 388.9117
459.6630, 384.6477
460.1451, 389.6610
460.6272, 396.7671
461.1093, 403.1766
461.5915, 408.4685
462.0736, 411.9726
462.5557, 411.3022
463.0378, 410.9417
463.5199, 412.5727
464.0020, 416.0294
464.4842, 419.9534
464.9663, 424.9070
465.4484, 429.6043
465.9305, 433.6560
466.4126, 439.6894
466.8947, 440.3123
467.3769, 431.9896
467.8590, 419.8272
468.3411, 412.3017
468.8232, 411.9594
469.3053, 411.2172
469.7874, 407.5103
470.2696, 401.1266
470.7517, 397.7798
471.2338, 398.2188
471.7159, 399.4032
472.1980, 398.6771
472.6801, 396.0791
473.1623, 393.3430
473.6444, 390.2566
474.1265, 387.9888
474.6086, 389.8557
475.0907, 395.0869
475.5728, 398.7013
476.0550, 397.1093
476.5371, 392.5429
477.0192, 387.3992
477.5013, 381.6813
477.9834, 378.9311
478.4655, 386.5203
478.9477, 397.2908
479.4298, 401.4030
479.9119, 389.7091
480.3940, 378.6360
480.8761, 379.3812
481.3582, 387.8949
481.8404, 392.5361
482.3225, 385.0143
482.8046, 376.4677
483.2867, 371.5404
483.7688, 370.7284
484.2509, 373.2123
484.7331, 383.2659
485.2152, 394.3342
485.6973, 400.2590
486.1794, 397.4405
486.6615, 395.7344
487.1436, 397.3956
487.6258, 401.2618
488.1079, 401.1553
488.5900, 395.4102
489.0721, 390.3026
489.5542, 389.5362
490.0363, 393.1309
490.5185, 397.6516
491.0006, 403.5648
491.4827, 408.4296
491.9648, 407.0255
492.4470, 400.8219
492.9291, 398.0888
493.4112, 403.2298
493.8933, 412.0345
494.3754, 419.1523
494.8575, 424.5120
495.3397, 427.2481
495.8218, 422.9920
496.3039, 417.7010
496.7860, 419.0061
497.2681, 430.0357
497.7502, 439.7101
498.2324, 441.1853
498.7145, 438.0761
499.1966, 435.3230
499.6787, 432.0703
500.1608, 431.7245
500.6429, 437.1269
501.1251, 447.7690
501.6072, 455.4969
502.0893, 457.4760
502.5714, 458.5359
503.0535, 460.9311
503.5356, 465.3377
504.0178, 469.6385
504.4999, 474.6199
504.9820, 478.7245
505.4641, 478.4789
505.9462, 472.4344
506.4283, 469.9456
506.9105, 475.7740
507.3926, 486.7494
507.8747, 488.2614
508.3568, 479.7220
508.8389, 472.6822
509.3210, 477.6573
509.8032, 490.7093
510.2853, 501.2690
510.7674, 508.0152
511.2495, 512.2551
511.7316, 513.1907
512.2137, 512.7249
512.6959, 514.6917
513.1780, 522.5154
513.6601, 531.7960
514.1422, 541.1790
514.6243, 550.1591
515.1064, 555.6585
515.5886, 552.6288
516.0707, 548.4394
516.5528, 547.3833
517.0349, 549.9469
517.5170, 555.7302
517.9991, 566.7912
518.4813, 580.2136
518.9634, 592.1224
519.4455, 600.0938
519.9276, 610.9019
520.4097, 627.4193
520.8918, 648.1143
521.3740, 663.8195
521.8561, 672.7192
522.3382, 682.6433
522.8203, 699.5673
523.3024, 722.9103
523.7845, 745.1838
524.2667, 766.0558
524.7488, 786.0495
525.2309, 806.8578
525.7130, 828.0372
526.1951, 847.6614
526.6772, 865.6473
527.1594, 881.5125
527.6415, 892.8074
528.1236, 900.6565
528.6057, 910.3161
529.0878, 925.9843
529.5699, 943.7254
530.0521, 961.2410
530.5342, 979.1906
531.0163, 993.2502
531.4984, 999.3932
531.9805, 1002.224
532.4626, 1006.681
532.9448, 1014.123
533.4269, 1022.537
533.9090, 1034.655
534.3911, 1047.907
534.8732, 1051.263
535.3553, 1040.730
535.8375, 1027.705
536.3196, 1016.732
536.8017, 1007.707
537.2838, 1000.846
537.7659, 997.1961
538.2480, 992.0274
538.7302, 979.5319
539.2123, 960.4364
539.6944, 940.3049
540.1765, 919.8157
540.6586, 899.7633
541.1407, 881.3018
541.6229, 863.9370
542.1050, 845.6268
542.5871, 823.0925
543.0692, 800.5217
543.5513, 781.7217
544.0334, 767.0503
544.5156, 754.8269
544.9977, 749.0867
545.4798, 742.7059
545.9619, 729.6393
546.4440, 699.9221
546.9261, 676.6317
547.4083, 666.6208
547.8904, 664.2679
548.3725, 659.7089
548.8546, 652.2493
549.3367, 643.6066
549.8188, 633.6419
550.3010, 622.5852
550.7831, 613.0927
551.2652, 605.2231
551.7473, 598.6990
552.2294, 593.0946
552.7115, 588.5149
553.1937, 587.1484
553.6758, 589.9139
554.1579, 592.7925
554.6400, 587.9512
555.1221, 578.8737
555.6042, 575.8803
556.0864, 587.4222
556.5685, 601.7516
557.0506, 608.2383
557.5327, 608.0379
558.0148, 605.2538
558.4969, 596.9271
558.9791, 590.3646
559.4612, 590.9573
559.9433, 600.6877
560.4254, 609.9770
560.9075, 616.6397
561.3896, 622.3601
561.8718, 628.8278
562.3539, 637.6229
562.8360, 644.1296
563.3181, 645.7172
563.8002, 645.8340
564.2823, 653.9069
564.7645, 671.6464
565.2466, 689.4517
565.7287, 704.0686
566.2108, 715.6110
566.6929, 723.9587
567.1750, 728.9918
567.6572, 732.0247
568.1393, 733.2882
568.6214, 733.4114
569.1035, 733.3480
569.5856, 732.9993
570.0677, 733.5054
570.5499, 737.8241
571.0320, 743.2133
571.5141, 745.3745
571.9962, 741.1977
572.4783, 735.0316
572.9604, 728.9172
573.4426, 722.4811
573.9247, 713.4435
574.4068, 703.0082
574.8889, 688.3455
575.3710, 667.0355
575.8531, 637.1478
576.3353, 612.5561
576.8174, 595.7281
577.2995, 580.8882
577.7816, 561.6523
578.2637, 537.4598
578.7458, 516.0165
579.2280, 498.9054
579.7101, 484.1534
580.1922, 467.5328
580.6743, 449.7344
581.1564, 434.6588
581.6385, 425.9452
582.1207, 419.9677
582.6028, 412.1148
583.0849, 402.6986
583.5670, 393.6350
584.0491, 385.9709
584.5313, 379.1853
585.0134, 373.0723
585.4955, 367.9836
585.9776, 362.3543
586.4597, 355.1191
586.9418, 347.4430
587.4240, 340.7297
587.9061, 335.3363
588.3882, 330.3448
588.8703, 325.8134
589.3524, 321.5793
589.8345, 316.8077
590.3167, 310.9469
590.7988, 306.7021
591.2809, 306.0086
591.7630, 308.0367
592.2451, 308.1701
592.7272, 306.3084
593.2094, 305.0066
593.6915, 307.9271
594.1736, 312.6084
594.6557, 313.9344
595.1378, 310.4252
595.6199, 306.2533
596.1021, 302.7955
596.5842, 301.1087
597.0663, 302.7089
597.5485, 314.1031
598.0306, 322.4992
598.5127, 321.5878
598.9948, 313.6805
599.4769, 309.1152
599.9590, 313.8856
600.4412, 315.4502
600.9233, 307.6671
601.4054, 289.3406
601.8875, 280.8101
602.3696, 284.6203
602.8517, 292.1678
603.3339, 295.9782
603.8160, 296.4790
604.2981, 299.5022
604.7802, 306.4163
605.2623, 313.3096
605.7444, 314.5822
606.2266, 311.6863
606.7087, 308.4539
607.1908, 305.9811
607.6729, 304.0085
608.1550, 301.4212
608.6371, 298.9855
609.1193, 299.1020
609.6014, 305.7920
610.0835, 312.6576
610.5656, 316.0451
611.0477, 315.0721
611.5298, 316.0813
612.0120, 322.4160
612.4941, 327.6628
612.9762, 326.1573
613.4583, 313.8438
613.9404, 310.5671
614.4225, 320.1283
614.9047, 333.6273
615.3868, 337.7736
615.8689, 333.2819
616.3510, 329.1879
616.8331, 328.4530
617.3152, 329.0508
617.7974, 326.4982
618.2795, 322.1642
618.7616, 321.1845
619.2437, 330.1737
619.7258, 340.7642
620.2079, 346.4945
620.6901, 347.0112
621.1722, 347.2780
621.6543, 348.7734
622.1364, 350.7543
622.6185, 353.1043
623.1006, 358.0161
623.5828, 357.9185
