##NAMES=Rinkite-(Ce)
##RRUFFID=R050229
##IDEAL CHEMISTRY=(Ca_3_Ce^3+^)Na(NaCa)Ti^4+^(Si_2_O_7_)_2_(OF)F_2_
##LOCALITY=Kipawa alkaline complex, near Sheffield Lake, Villedieu Township, Temiscamingue County, Quebec, Canada
##OWNER=RRUFF
##SOURCE=Marcus Origlieri
##DESCRIPTION=Aggregate of coarsely crystalline yellowish-gray crystals associated with red eudialyte R050230
##STATUS=The identification of this mineral has been confirmed by X-ray diffraction.
##URL=rruff.info/R050229
93.74609, 67.74724
94.22821, 65.47612
94.71033, 66.26278
95.19244, 69.74696
95.67456, 74.47478
96.15668, 80.00867
96.63879, 86.30932
97.12091, 93.25772
97.60303, 100.8620
98.08514, 109.2248
98.56726, 118.2763
99.04938, 128.0374
99.53149, 138.8716
100.0136, 150.9522
100.4957, 164.2272
100.9778, 178.3776
101.4600, 193.0430
101.9421, 208.7197
102.4242, 226.3989
102.9063, 246.3863
103.3884, 267.9337
103.8705, 290.6672
104.3527, 315.6355
104.8348, 339.4333
105.3169, 361.8578
105.7990, 382.8335
106.2811, 403.8989
106.7632, 425.3040
107.2454, 446.3760
107.7275, 466.2021
108.2096, 484.6023
108.6917, 502.3256
109.1738, 519.1673
109.6559, 534.9782
110.1381, 551.8464
110.6202, 569.5706
111.1023, 588.5676
111.5844, 609.2884
112.0665, 631.3249
112.5486, 655.7238
113.0308, 682.9724
113.5129, 713.7797
113.9950, 746.0428
114.4771, 780.1368
114.9592, 815.2789
115.4413, 850.8024
115.9235, 886.8694
116.4056, 922.8800
116.8877, 958.1142
117.3698, 993.2256
117.8519, 1027.377
118.3340, 1061.208
118.8162, 1094.005
119.2983, 1123.894
119.7804, 1149.055
120.2625, 1171.952
120.7446, 1194.337
121.2267, 1217.166
121.7089, 1239.112
122.1910, 1259.337
122.6731, 1277.956
123.1552, 1295.493
123.6373, 1311.724
124.1194, 1327.136
124.6016, 1342.565
125.0837, 1357.474
125.5658, 1372.796
126.0479, 1389.550
126.5300, 1407.690
127.0121, 1426.441
127.4943, 1444.758
127.9764, 1463.094
128.4585, 1482.973
128.9406, 1503.528
129.4227, 1526.220
129.9048, 1555.510
130.3869, 1592.078
130.8691, 1628.504
131.3512, 1654.970
131.8333, 1673.043
132.3154, 1692.153
132.7975, 1718.314
133.2796, 1749.538
133.7618, 1775.028
134.2439, 1789.876
134.7260, 1793.513
135.2081, 1797.607
135.6902, 1806.502
136.1723, 1814.499
136.6545, 1817.978
137.1366, 1817.021
137.6187, 1818.585
138.1008, 1823.729
138.5829, 1830.450
139.0650, 1834.770
139.5472, 1836.495
140.0293, 1836.836
140.5114, 1836.453
140.9935, 1835.408
141.4756, 1833.061
141.9577, 1828.475
142.4399, 1822.763
142.9220, 1820.557
143.4041, 1823.585
143.8862, 1826.861
144.3683, 1826.588
144.8504, 1819.323
145.3326, 1816.794
145.8147, 1821.720
146.2968, 1833.040
146.7789, 1841.632
147.2610, 1847.383
147.7431, 1850.659
148.2253, 1851.574
148.7074, 1847.917
149.1895, 1845.070
149.6716, 1843.995
150.1537, 1844.717
150.6358, 1844.986
151.1180, 1844.069
151.6001, 1843.089
152.0822, 1842.998
152.5643, 1844.653
153.0464, 1846.281
153.5285, 1847.700
154.0107, 1848.921
154.4928, 1849.835
154.9749, 1850.689
155.4570, 1851.173
155.9391, 1850.988
156.4212, 1849.659
156.9034, 1848.087
157.3855, 1846.189
157.8676, 1843.706
158.3497, 1842.369
158.8318, 1843.329
159.3139, 1845.357
159.7961, 1846.898
160.2782, 1847.582
160.7603, 1847.660
161.2424, 1846.839
161.7245, 1844.570
162.2066, 1843.359
162.6888, 1845.530
163.1709, 1849.095
163.6530, 1850.845
164.1351, 1846.775
164.6172, 1842.475
165.0993, 1841.623
165.5815, 1845.865
166.0636, 1850.148
166.5457, 1852.195
167.0278, 1852.524
167.5099, 1852.203
167.9920, 1851.489
168.4742, 1850.490
168.9563, 1849.200
169.4384, 1847.409
169.9205, 1845.887
170.4026, 1845.188
170.8847, 1845.195
171.3669, 1845.575
171.8490, 1846.805
172.3311, 1848.072
172.8132, 1848.409
173.2953, 1847.258
173.7774, 1845.804
174.2596, 1845.064
174.7417, 1844.899
175.2238, 1844.837
175.7059, 1844.610
176.1880, 1844.259
176.6701, 1843.771
177.1523, 1842.870
177.6344, 1842.163
178.1165, 1842.630
178.5986, 1844.070
179.0807, 1845.331
179.5628, 1845.347
180.0450, 1844.612
180.5271, 1844.241
181.0092, 1844.988
181.4913, 1845.685
181.9734, 1844.065
182.4555, 1840.318
182.9377, 1836.757
183.4198, 1835.328
183.9019, 1835.552
184.3840, 1836.063
184.8661, 1836.702
185.3482, 1837.297
185.8304, 1837.391
186.3125, 1836.982
186.7946, 1836.629
187.2767, 1837.435
187.7588, 1838.942
188.2409, 1838.884
188.7231, 1835.922
189.2052, 1831.351
189.6873, 1828.294
190.1694, 1826.731
190.6515, 1826.369
191.1336, 1827.666
191.6158, 1830.344
192.0979, 1831.914
192.5800, 1831.108
193.0621, 1828.809
193.5442, 1828.579
194.0263, 1830.762
194.5085, 1833.025
194.9906, 1832.578
195.4727, 1829.547
195.9548, 1826.836
196.4369, 1825.302
196.9190, 1824.781
197.4012, 1824.578
197.8833, 1824.803
198.3654, 1824.971
198.8475, 1824.443
199.3296, 1823.185
199.8117, 1822.074
200.2939, 1821.627
200.7760, 1821.639
201.2581, 1820.148
201.7402, 1816.661
202.2223, 1813.013
202.7044, 1811.140
203.1866, 1811.105
203.6687, 1812.544
204.1508, 1816.184
204.6329, 1821.731
205.1150, 1824.205
205.5971, 1822.746
206.0793, 1820.084
206.5614, 1819.451
207.0435, 1821.223
207.5256, 1823.156
208.0077, 1824.855
208.4898, 1826.297
208.9720, 1826.520
209.4541, 1825.015
209.9362, 1823.134
210.4183, 1822.584
210.9004, 1823.728
211.3825, 1824.904
211.8647, 1825.822
212.3468, 1826.489
212.8289, 1826.309
213.3110, 1824.834
213.7931, 1823.178
214.2752, 1822.801
214.7574, 1824.137
215.2395, 1825.550
215.7216, 1826.803
216.2037, 1827.922
216.6858, 1828.150
217.1679, 1826.971
217.6500, 1825.573
218.1322, 1825.447
218.6143, 1827.026
219.0964, 1828.764
219.5785, 1830.367
220.0606, 1831.863
220.5427, 1832.668
221.0249, 1832.428
221.5070, 1831.852
221.9891, 1831.693
222.4712, 1831.860
222.9533, 1832.675
223.4354, 1834.655
223.9176, 1837.998
224.3997, 1839.179
224.8818, 1836.936
225.3639, 1833.934
225.8460, 1833.102
226.3281, 1835.240
226.8103, 1837.995
227.2924, 1841.123
227.7745, 1844.746
228.2566, 1847.302
228.7387, 1848.569
229.2208, 1849.010
229.7030, 1848.897
230.1851, 1847.450
230.6672, 1847.048
231.1493, 1848.730
231.6314, 1852.631
232.1135, 1854.362
232.5957, 1852.494
233.0778, 1849.943
233.5599, 1849.854
234.0420, 1854.094
234.5241, 1857.044
235.0062, 1856.933
235.4884, 1853.742
235.9705, 1852.879
236.4526, 1855.672
236.9347, 1859.401
237.4168, 1861.489
237.8989, 1860.933
238.3811, 1860.661
238.8632, 1861.125
239.3453, 1862.314
239.8274, 1863.964
240.3095, 1866.846
240.7916, 1869.325
241.2738, 1869.796
241.7559, 1866.800
242.2380, 1864.719
242.7201, 1864.320
243.2022, 1865.545
243.6843, 1867.329
244.1665, 1870.632
244.6486, 1873.458
245.1307, 1873.960
245.6128, 1870.266
246.0949, 1868.217
246.5770, 1869.162
247.0592, 1872.721
247.5413, 1875.148
248.0234, 1876.095
248.5055, 1876.320
248.9876, 1876.211
249.4697, 1875.370
249.9519, 1875.006
250.4340, 1875.264
250.9161, 1876.065
251.3982, 1877.061
251.8803, 1878.203
252.3624, 1879.529
252.8446, 1881.017
253.3267, 1882.592
253.8088, 1884.548
254.2909, 1887.373
254.7730, 1890.605
255.2551, 1892.063
255.7373, 1890.713
256.2194, 1889.308
256.7015, 1889.700
257.1836, 1893.298
257.6657, 1894.846
258.1478, 1893.247
258.6299, 1889.676
259.1121, 1887.742
259.5942, 1888.097
260.0763, 1888.958
260.5584, 1889.479
261.0405, 1889.490
261.5226, 1889.685
262.0048, 1890.053
262.4869, 1890.626
262.9690, 1891.508
263.4511, 1892.738
263.9332, 1894.154
264.4153, 1895.925
264.8975, 1898.511
265.3796, 1899.531
265.8617, 1898.543
266.3438, 1896.375
266.8259, 1894.310
267.3080, 1892.041
267.7902, 1890.758
268.2723, 1891.309
268.7544, 1894.096
269.2365, 1895.767
269.7186, 1896.008
270.2007, 1895.551
270.6829, 1895.607
271.1650, 1896.455
271.6471, 1896.821
272.1292, 1896.025
272.6113, 1894.028
273.0934, 1892.853
273.5756, 1892.673
274.0577, 1893.027
274.5398, 1893.354
275.0219, 1893.600
275.5040, 1894.042
275.9861, 1894.885
276.4683, 1896.063
276.9504, 1896.772
277.4325, 1897.019
277.9146, 1896.768
278.3967, 1895.853
278.8788, 1894.206
279.3610, 1892.479
279.8431, 1890.616
280.3252, 1888.817
280.8073, 1888.264
281.2894, 1889.225
281.7715, 1890.351
282.2537, 1890.393
282.7358, 1889.333
283.2179, 1888.200
283.7000, 1887.259
284.1821, 1886.335
284.6642, 1884.804
285.1464, 1882.590
285.6285, 1880.329
286.1106, 1878.273
286.5927, 1876.458
287.0748, 1875.564
287.5569, 1875.950
288.0391, 1876.970
288.5212, 1877.352
289.0033, 1877.103
289.4854, 1876.299
289.9675, 1874.692
290.4496, 1872.453
290.9318, 1870.608
291.4139, 1869.256
291.8960, 1868.310
292.3781, 1867.710
292.8602, 1867.439
293.3423, 1867.334
293.8245, 1867.305
294.3066, 1867.371
294.7887, 1867.751
295.2708, 1868.573
295.7529, 1869.148
296.2350, 1868.460
296.7172, 1866.687
297.1993, 1864.698
297.6814, 1862.260
298.1635, 1859.965
298.6456, 1859.360
299.1277, 1860.545
299.6099, 1862.249
300.0920, 1863.462
300.5741, 1864.198
301.0562, 1864.429
301.5383, 1864.079
302.0204, 1863.272
302.5026, 1861.858
302.9847, 1859.869
303.4668, 1858.338
303.9489, 1858.488
304.4310, 1859.599
304.9131, 1860.356
305.3953, 1859.996
305.8774, 1859.513
306.3595, 1860.067
306.8416, 1861.503
307.3237, 1863.024
307.8058, 1865.018
308.2880, 1866.473
308.7701, 1865.853
309.2522, 1861.844
309.7343, 1857.649
310.2164, 1855.606
310.6985, 1855.398
311.1807, 1856.169
311.6628, 1858.488
312.1449, 1861.035
312.6270, 1862.532
313.1091, 1862.607
313.5912, 1862.305
314.0734, 1861.961
314.5555, 1861.646
315.0376, 1861.501
315.5197, 1861.061
316.0018, 1861.131
316.4839, 1862.511
316.9661, 1865.448
317.4482, 1867.981
317.9303, 1869.355
318.4124, 1869.818
318.8945, 1869.675
319.3766, 1868.792
319.8588, 1867.551
320.3409, 1865.880
320.8230, 1863.822
321.3051, 1862.288
321.7872, 1861.961
322.2693, 1862.100
322.7515, 1862.125
323.2336, 1862.184
323.7157, 1861.875
324.1978, 1860.693
324.6799, 1858.886
325.1620, 1857.829
325.6442, 1858.194
326.1263, 1858.983
326.6084, 1859.682
327.0905, 1860.233
327.5726, 1860.655
328.0547, 1860.829
328.5369, 1860.843
329.0190, 1860.950
329.5011, 1861.192
329.9832, 1861.493
330.4653, 1861.979
330.9474, 1863.186
331.4296, 1863.240
331.9117, 1861.558
332.3938, 1859.022
332.8759, 1856.875
333.3580, 1855.361
333.8401, 1853.880
334.3223, 1852.215
334.8044, 1850.299
335.2865, 1848.862
335.7686, 1847.756
336.2507, 1847.292
336.7328, 1848.011
337.2150, 1850.641
337.6971, 1852.417
338.1792, 1852.605
338.6613, 1851.495
339.1434, 1850.936
339.6255, 1850.999
340.1077, 1851.413
340.5898, 1852.340
341.0719, 1854.011
341.5540, 1854.091
342.0361, 1851.776
342.5182, 1848.322
343.0003, 1846.941
343.4825, 1847.917
343.9646, 1848.920
344.4467, 1848.354
344.9288, 1846.399
345.4109, 1845.682
345.8930, 1846.608
346.3752, 1847.809
346.8573, 1847.132
347.3394, 1844.721
347.8215, 1842.364
348.3036, 1840.459
348.7857, 1839.205
349.2679, 1839.588
349.7500, 1841.695
350.2321, 1843.852
350.7142, 1844.593
351.1963, 1844.104
351.6784, 1842.750
352.1606, 1839.942
352.6427, 1837.106
353.1248, 1836.612
353.6069, 1838.131
354.0890, 1839.613
354.5711, 1839.285
355.0533, 1838.151
355.5354, 1837.678
356.0175, 1838.289
356.4996, 1839.252
356.9817, 1840.005
357.4638, 1840.639
357.9460, 1841.353
358.4281, 1842.618
358.9102, 1843.784
359.3923, 1844.068
359.8744, 1843.270
360.3565, 1842.822
360.8387, 1843.857
361.3208, 1845.596
361.8029, 1847.072
362.2850, 1847.353
362.7671, 1847.785
363.2492, 1849.338
363.7314, 1851.853
364.2135, 1853.526
364.6956, 1852.865
365.1777, 1851.634
365.6598, 1851.059
366.1419, 1851.724
366.6241, 1852.632
367.1062, 1850.835
367.5883, 1856.021
368.0704, 1859.080
368.5525, 1860.126
369.0346, 1853.133
369.5168, 1856.521
369.9989, 1855.749
370.4810, 1854.806
370.9631, 1859.656
371.4452, 1853.832
371.9273, 1858.590
372.4095, 1859.123
372.8916, 1861.590
373.3737, 1859.871
373.8558, 1859.445
374.3379, 1863.206
374.8200, 1864.649
375.3022, 1855.408
375.7843, 1852.083
376.2664, 1848.912
376.7485, 1847.383
377.2306, 1848.247
377.7127, 1850.634
378.1949, 1851.508
378.6770, 1850.527
379.1591, 1849.378
379.6412, 1849.006
380.1233, 1849.406
380.6054, 1850.038
381.0876, 1851.063
381.5697, 1851.801
382.0518, 1851.268
382.5339, 1849.488
383.0160, 1846.883
383.4981, 1843.048
383.9803, 1838.599
384.4624, 1835.576
384.9445, 1834.017
385.4266, 1833.006
385.9087, 1832.314
386.3908, 1831.560
386.8730, 1829.598
387.3551, 1825.544
387.8372, 1821.071
388.3193, 1818.411
388.8014, 1817.214
389.2835, 1815.994
389.7657, 1813.825
390.2478, 1811.183
390.7299, 1808.459
391.2120, 1805.596
391.6941, 1803.175
392.1762, 1801.955
392.6584, 1801.394
393.1405, 1800.610
393.6226, 1799.295
394.1047, 1797.609
394.5868, 1795.864
395.0689, 1794.023
395.5511, 1791.179
396.0332, 1785.430
396.5153, 1779.415
396.9974, 1775.153
397.4795, 1774.748
397.9616, 1774.147
398.4438, 1772.565
398.9259, 1770.259
399.4080, 1768.015
399.8901, 1765.574
400.3722, 1763.527
400.8543, 1762.422
401.3365, 1763.276
401.8186, 1761.983
402.3007, 1756.827
402.7828, 1750.554
403.2649, 1746.690
403.7470, 1746.790
404.2292, 1746.307
404.7113, 1744.135
405.1934, 1740.443
405.6755, 1737.115
406.1576, 1734.048
406.6397, 1731.673
407.1219, 1730.643
407.6040, 1731.209
408.0861, 1731.065
408.5682, 1729.896
409.0503, 1728.112
409.5324, 1726.312
410.0146, 1724.505
410.4967, 1722.921
410.9788, 1721.727
411.4609, 1720.861
411.9430, 1720.093
412.4251, 1719.421
412.9073, 1718.591
413.3894, 1716.924
413.8715, 1714.783
414.3536, 1713.347
414.8357, 1713.087
415.3178, 1713.442
415.8000, 1713.865
416.2821, 1714.318
416.7642, 1714.687
417.2463, 1715.388
417.7284, 1715.731
418.2105, 1714.892
418.6927, 1712.603
419.1748, 1709.851
419.6569, 1706.874
420.1390, 1703.910
420.6211, 1701.390
421.1032, 1699.045
421.5854, 1697.555
422.0675, 1698.008
422.5496, 1700.287
423.0317, 1701.107
423.5138, 1698.237
423.9959, 1694.516
424.4781, 1691.743
424.9602, 1690.593
425.4423, 1689.889
425.9244, 1689.758
426.4065, 1689.995
426.8886, 1690.152
427.3708, 1690.271
427.8529, 1690.250
428.3350, 1690.048
428.8171, 1689.652
429.2992, 1689.152
429.7813, 1688.414
430.2635, 1687.763
430.7456, 1687.717
431.2277, 1688.608
431.7098, 1688.563
432.1919, 1686.862
432.6740, 1684.218
433.1562, 1682.909
433.6383, 1682.996
434.1204, 1683.721
434.6025, 1685.103
435.0846, 1686.881
435.5667, 1687.545
436.0489, 1686.982
436.5310, 1685.469
437.0131, 1682.867
437.4952, 1679.515
437.9773, 1676.612
438.4594, 1674.677
438.9416, 1673.392
439.4236, 1672.315
439.9058, 1671.496
440.3879, 1671.183
440.8700, 1672.943
441.3521, 1674.654
441.8342, 1673.503
442.3163, 1667.801
442.7985, 1662.868
443.2806, 1662.581
443.7627, 1664.943
444.2448, 1666.748
444.7269, 1666.721
445.2090, 1666.036
445.6912, 1665.225
446.1733, 1664.291
446.6554, 1662.504
447.1375, 1658.717
447.6196, 1654.682
448.1017, 1651.487
448.5839, 1648.934
449.0660, 1647.646
449.5481, 1648.343
450.0302, 1650.151
450.5123, 1651.151
450.9944, 1650.760
451.4766, 1650.646
451.9587, 1651.642
452.4408, 1653.874
452.9229, 1654.530
453.4050, 1653.333
453.8871, 1651.265
454.3693, 1648.594
454.8514, 1645.197
455.3335, 1644.117
455.8156, 1646.604
456.2977, 1650.478
456.7798, 1650.819
457.2620, 1647.901
457.7441, 1645.412
458.2262, 1646.063
458.7083, 1648.406
459.1904, 1649.176
459.6725, 1648.218
460.1547, 1646.874
460.6368, 1646.560
461.1189, 1646.600
461.6010, 1645.828
462.0831, 1643.295
462.5652, 1640.716
463.0474, 1639.322
463.5295, 1638.894
464.0116, 1638.864
464.4937, 1639.474
464.9758, 1640.023
465.4579, 1639.920
465.9401, 1638.902
466.4222, 1638.455
466.9043, 1640.157
467.3864, 1642.024
467.8685, 1642.189
468.3506, 1637.625
468.8328, 1634.764
469.3149, 1635.459
469.7970, 1638.478
470.2791, 1639.021
470.7612, 1635.697
471.2433, 1631.987
471.7255, 1629.174
472.2076, 1627.249
472.6897, 1626.479
473.1718, 1627.336
473.6539, 1628.378
474.1360, 1627.450
474.6182, 1624.401
475.1003, 1622.760
475.5824, 1623.731
476.0645, 1626.122
476.5466, 1627.217
477.0287, 1627.080
477.5109, 1626.578
477.9930, 1626.661
478.4751, 1626.641
478.9572, 1624.963
479.4393, 1621.422
479.9214, 1617.402
480.4036, 1613.388
480.8857, 1609.899
481.3678, 1607.837
481.8499, 1609.038
482.3320, 1610.017
482.8141, 1608.322
483.2963, 1604.654
483.7784, 1601.162
484.2605, 1598.219
484.7426, 1596.088
485.2247, 1595.395
485.7068, 1596.919
486.1890, 1596.865
486.6711, 1592.669
487.1532, 1587.803
487.6353, 1585.601
488.1174, 1589.180
488.5995, 1590.399
489.0817, 1586.810
489.5638, 1580.497
490.0459, 1578.902
490.5280, 1584.128
491.0101, 1588.737
491.4922, 1588.847
491.9744, 1584.323
492.4565, 1582.422
492.9386, 1583.577
493.4207, 1585.312
493.9028, 1584.854
494.3849, 1582.493
494.8671, 1580.306
495.3492, 1578.878
495.8313, 1577.524
496.3134, 1574.854
496.7955, 1571.275
497.2776, 1568.228
497.7598, 1567.127
498.2419, 1566.689
498.7240, 1565.390
499.2061, 1563.177
499.6882, 1561.533
500.1703, 1561.801
500.6525, 1562.851
501.1346, 1563.647
501.6167, 1564.043
502.0988, 1564.038
502.5809, 1563.372
503.0630, 1562.296
503.5452, 1561.348
504.0273, 1559.987
504.5094, 1559.348
504.9915, 1560.064
505.4736, 1562.182
505.9557, 1563.247
506.4379, 1563.150
506.9200, 1562.069
507.4021, 1559.687
507.8842, 1555.292
508.3663, 1553.049
508.8484, 1553.810
509.3306, 1555.843
509.8127, 1556.430
510.2948, 1555.620
510.7769, 1553.960
511.2590, 1550.870
511.7411, 1547.529
512.2233, 1547.355
512.7054, 1550.088
513.1875, 1552.736
513.6696, 1552.527
514.1517, 1551.139
514.6339, 1551.170
515.1160, 1553.310
515.5981, 1555.181
516.0802, 1554.554
516.5623, 1552.818
517.0444, 1551.830
517.5266, 1553.070
518.0087, 1554.235
518.4908, 1554.633
518.9729, 1554.281
519.4550, 1553.365
519.9371, 1550.693
520.4193, 1548.549
520.9014, 1547.848
521.3835, 1548.831
521.8656, 1550.359
522.3477, 1553.422
522.8298, 1555.944
523.3120, 1555.277
523.7941, 1550.312
524.2762, 1547.541
524.7583, 1548.494
525.2404, 1551.471
525.7225, 1552.770
526.2047, 1552.419
526.6868, 1551.120
527.1689, 1548.776
527.6510, 1545.816
528.1331, 1542.993
528.6152, 1540.317
529.0974, 1538.640
529.5795, 1539.749
530.0616, 1541.876
530.5437, 1542.349
531.0258, 1540.140
531.5079, 1537.734
531.9901, 1536.463
532.4722, 1536.005
532.9543, 1535.869
533.4364, 1536.090
533.9185, 1536.390
534.4006, 1536.962
534.8828, 1537.682
535.3649, 1537.546
535.8470, 1536.036
536.3291, 1534.043
536.8112, 1531.662
537.2933, 1528.367
537.7755, 1526.874
538.2576, 1527.906
538.7397, 1529.715
539.2218, 1530.346
539.7039, 1529.683
540.1860, 1528.947
540.6682, 1528.468
541.1503, 1527.898
541.6324, 1526.037
542.1145, 1523.087
542.5966, 1520.931
543.0787, 1521.422
543.5609, 1522.997
544.0430, 1523.023
544.5251, 1521.548
545.0072, 1519.781
545.4893, 1518.481
545.9714, 1517.409
546.4536, 1516.286
546.9357, 1514.963
547.4178, 1513.865
547.8999, 1513.497
548.3820, 1513.362
548.8641, 1512.773
549.3463, 1510.237
549.8284, 1508.748
550.3105, 1509.381
550.7926, 1511.685
551.2747, 1513.406
551.7568, 1514.856
552.2390, 1515.245
552.7211, 1514.047
553.2032, 1511.134
553.6853, 1507.971
554.1674, 1504.346
554.6495, 1501.132
555.1317, 1499.261
555.6138, 1498.672
556.0959, 1498.787
556.5780, 1499.788
557.0601, 1500.814
557.5422, 1500.622
558.0244, 1499.492
558.5065, 1498.201
558.9886, 1495.862
559.4707, 1494.480
559.9528, 1496.944
560.4349, 1502.501
560.9171, 1506.514
561.3992, 1505.209
561.8813, 1502.883
562.3634, 1502.212
562.8455, 1503.921
563.3276, 1505.796
563.8098, 1507.956
564.2919, 1509.873
564.7740, 1511.074
565.2561, 1511.281
565.7382, 1511.190
566.2203, 1510.618
566.7025, 1509.925
567.1846, 1510.233
567.6667, 1511.743
568.1488, 1512.943
568.6309, 1513.289
569.1130, 1512.892
569.5952, 1511.573
570.0773, 1509.372
570.5594, 1508.074
571.0415, 1509.730
571.5236, 1512.943
572.0057, 1515.488
572.4879, 1517.111
572.9700, 1518.118
573.4521, 1518.143
573.9342, 1517.891
574.4163, 1518.206
574.8984, 1519.700
575.3806, 1521.351
575.8627, 1523.015
576.3448, 1524.618
576.8269, 1525.985
577.3090, 1526.822
577.7911, 1527.743
578.2733, 1528.989
578.7554, 1530.530
579.2375, 1531.810
579.7196, 1532.854
580.2017, 1533.567
580.6838, 1533.655
581.1660, 1533.129
581.6481, 1533.004
582.1302, 1533.212
582.6123, 1534.353
583.0944, 1538.403
583.5765, 1544.040
584.0587, 1547.365
584.5408, 1546.650
585.0229, 1544.276
585.5050, 1541.389
585.9871, 1538.659
586.4692, 1537.729
586.9514, 1541.886
587.4335, 1545.725
587.9155, 1545.451
588.3976, 1541.299
