##NAMES=Robertsite
##RRUFFID=R120040
##IDEAL CHEMISTRY=Ca_2_Mn^3+^_3_O_2_(PO_4_)_3_&#183;3H_2_O
##LOCALITY=Tip Top mine, Custer County, South Dakota, USA
##OWNER=RRUFF
##SOURCE=Mark N. Feinglos
##DESCRIPTION=Dark reddish brown plates on bobdownsite. This sample was used to determine the structure reported in Andrade et al (2012)
##STATUS=The identification of this mineral has been confirmed by X-ray diffraction and chemical analysis
##URL=rruff.info/R120040
##MEASURED CHEMISTRY=Ca_1.93_(Mn_2.92_Fe_0.07_)_Σ=2.99_O_1.84_(PO_4_)_3.04_·2.72H_2_O
9.001007e+001, 0.000000e+000
9.049219e+001, 7.375072e+001
9.097430e+001, 7.385603e+001
9.145642e+001, 7.391245e+001
9.193854e+001, 7.390405e+001
9.242065e+001, 7.369891e+001
9.290277e+001, 7.312946e+001
9.338489e+001, 7.228177e+001
9.386700e+001, 7.135347e+001
9.434912e+001, 7.040413e+001
9.483124e+001, 6.942769e+001
9.531335e+001, 6.837683e+001
9.579547e+001, 6.722920e+001
9.627759e+001, 6.614285e+001
9.675970e+001, 6.532269e+001
9.724182e+001, 6.475574e+001
9.772394e+001, 6.420939e+001
9.820605e+001, 6.358216e+001
9.868817e+001, 6.287728e+001
9.917029e+001, 6.214510e+001
9.965240e+001, 6.133794e+001
1.001345e+002, 6.057162e+001
1.006166e+002, 6.016220e+001
1.010988e+002, 6.020443e+001
1.015809e+002, 6.017151e+001
1.020630e+002, 5.972458e+001
1.025451e+002, 5.875014e+001
1.030272e+002, 5.790889e+001
1.035093e+002, 5.725077e+001
1.039915e+002, 5.675379e+001
1.044736e+002, 5.629447e+001
1.049557e+002, 5.585128e+001
1.054378e+002, 5.548268e+001
1.059199e+002, 5.525118e+001
1.064020e+002, 5.528519e+001
1.068842e+002, 5.522337e+001
1.073663e+002, 5.509939e+001
1.078484e+002, 5.491990e+001
1.083305e+002, 5.429771e+001
1.088126e+002, 5.278963e+001
1.092947e+002, 5.109389e+001
1.097769e+002, 4.984887e+001
1.102590e+002, 4.912796e+001
1.107411e+002, 4.878722e+001
1.112232e+002, 4.895980e+001
1.117053e+002, 4.983984e+001
1.121874e+002, 5.037809e+001
1.126696e+002, 5.044510e+001
1.131517e+002, 5.014724e+001
1.136338e+002, 4.962242e+001
1.141159e+002, 4.856124e+001
1.145980e+002, 4.755027e+001
1.150801e+002, 4.682254e+001
1.155623e+002, 4.654557e+001
1.160444e+002, 4.622502e+001
1.165265e+002, 4.564577e+001
1.170086e+002, 4.492526e+001
1.174907e+002, 4.432959e+001
1.179728e+002, 4.405730e+001
1.184550e+002, 4.386883e+001
1.189371e+002, 4.361049e+001
1.194192e+002, 4.321214e+001
1.199013e+002, 4.279852e+001
1.203834e+002, 4.236647e+001
1.208655e+002, 4.195054e+001
1.213477e+002, 4.168487e+001
1.218298e+002, 4.169312e+001
1.223119e+002, 4.187469e+001
1.227940e+002, 4.214996e+001
1.232761e+002, 4.281078e+001
1.237582e+002, 4.327291e+001
1.242404e+002, 4.275896e+001
1.247225e+002, 4.135606e+001
1.252046e+002, 4.013593e+001
1.256867e+002, 4.032349e+001
1.261688e+002, 4.125547e+001
1.266509e+002, 4.172712e+001
1.271331e+002, 4.090437e+001
1.276152e+002, 3.947813e+001
1.280973e+002, 3.843816e+001
1.285794e+002, 3.779857e+001
1.290615e+002, 3.737458e+001
1.295436e+002, 3.703513e+001
1.300258e+002, 3.676678e+001
1.305079e+002, 3.651880e+001
1.309900e+002, 3.627699e+001
1.314721e+002, 3.603769e+001
1.319542e+002, 3.572735e+001
1.324363e+002, 3.529285e+001
1.329185e+002, 3.494785e+001
1.334006e+002, 3.517955e+001
1.338827e+002, 3.598777e+001
1.343648e+002, 3.660511e+001
1.348469e+002, 3.657637e+001
1.353290e+002, 3.593827e+001
1.358112e+002, 3.517413e+001
1.362933e+002, 3.424762e+001
1.367754e+002, 3.330831e+001
1.372575e+002, 3.274311e+001
1.377396e+002, 3.260516e+001
1.382217e+002, 3.259367e+001
1.387039e+002, 3.256446e+001
1.391860e+002, 3.253481e+001
1.396681e+002, 3.232221e+001
1.401502e+002, 3.178318e+001
1.406323e+002, 3.106483e+001
1.411144e+002, 3.087097e+001
1.415966e+002, 3.144313e+001
1.420787e+002, 3.207891e+001
1.425608e+002, 3.220415e+001
1.430429e+002, 3.161802e+001
1.435250e+002, 3.108806e+001
1.440071e+002, 3.072196e+001
1.444893e+002, 3.051841e+001
1.449714e+002, 3.038486e+001
1.454535e+002, 3.040005e+001
1.459356e+002, 3.040869e+001
1.464177e+002, 3.023208e+001
1.468998e+002, 2.956265e+001
1.473820e+002, 2.919508e+001
1.478641e+002, 2.940686e+001
1.483462e+002, 3.033504e+001
1.488283e+002, 3.086612e+001
1.493104e+002, 3.072307e+001
1.497925e+002, 3.031596e+001
1.502747e+002, 3.012222e+001
1.507568e+002, 3.051599e+001
1.512389e+002, 3.074211e+001
1.517210e+002, 3.055051e+001
1.522031e+002, 2.971098e+001
1.526852e+002, 2.919035e+001
1.531674e+002, 2.924064e+001
1.536495e+002, 2.956269e+001
1.541316e+002, 2.972258e+001
1.546137e+002, 2.944228e+001
1.550958e+002, 2.920652e+001
1.555779e+002, 2.916269e+001
1.560601e+002, 2.934954e+001
1.565422e+002, 2.966227e+001
1.570243e+002, 3.008062e+001
1.575064e+002, 3.061515e+001
1.579885e+002, 3.128625e+001
1.584706e+002, 3.168472e+001
1.589528e+002, 3.252345e+001
1.594349e+002, 3.419232e+001
1.599170e+002, 3.714179e+001
1.603991e+002, 4.022833e+001
1.608812e+002, 4.331486e+001
1.613633e+002, 4.632601e+001
1.618455e+002, 4.906390e+001
1.623276e+002, 5.159513e+001
1.628097e+002, 5.373462e+001
1.632918e+002, 5.534563e+001
1.637739e+002, 5.579007e+001
1.642560e+002, 5.650644e+001
1.647382e+002, 5.782340e+001
1.652203e+002, 5.983226e+001
1.657024e+002, 6.288232e+001
1.661845e+002, 6.807060e+001
1.666666e+002, 7.398135e+001
1.671487e+002, 7.925266e+001
1.676309e+002, 8.276418e+001
1.681130e+002, 8.639776e+001
1.685951e+002, 9.136734e+001
1.690772e+002, 9.753390e+001
1.695593e+002, 1.039502e+002
1.700414e+002, 1.102188e+002
1.705236e+002, 1.163992e+002
1.710057e+002, 1.224779e+002
1.714878e+002, 1.284880e+002
1.719699e+002, 1.344582e+002
1.724520e+002, 1.404190e+002
1.729341e+002, 1.463783e+002
1.734163e+002, 1.520928e+002
1.738984e+002, 1.572027e+002
1.743805e+002, 1.620134e+002
1.748626e+002, 1.668749e+002
1.753447e+002, 1.721824e+002
1.758268e+002, 1.775635e+002
1.763090e+002, 1.825844e+002
1.767911e+002, 1.871992e+002
1.772732e+002, 1.917206e+002
1.777553e+002, 1.954858e+002
1.782374e+002, 1.984311e+002
1.787195e+002, 2.013322e+002
1.792017e+002, 2.045064e+002
1.796838e+002, 2.078895e+002
1.801659e+002, 2.112422e+002
1.806480e+002, 2.145745e+002
1.811301e+002, 2.181591e+002
1.816122e+002, 2.225594e+002
1.820944e+002, 2.275594e+002
1.825765e+002, 2.323303e+002
1.830586e+002, 2.361253e+002
1.835407e+002, 2.395119e+002
1.840228e+002, 2.440579e+002
1.845049e+002, 2.498718e+002
1.849871e+002, 2.560909e+002
1.854692e+002, 2.616450e+002
1.859513e+002, 2.666649e+002
1.864334e+002, 2.715338e+002
1.869155e+002, 2.765452e+002
1.873976e+002, 2.815898e+002
1.878798e+002, 2.863517e+002
1.883619e+002, 2.907712e+002
1.888440e+002, 2.950409e+002
1.893261e+002, 2.994601e+002
1.898082e+002, 3.040297e+002
1.902903e+002, 3.082176e+002
1.907725e+002, 3.115459e+002
1.912546e+002, 3.142180e+002
1.917367e+002, 3.171558e+002
1.922188e+002, 3.204704e+002
1.927009e+002, 3.239126e+002
1.931830e+002, 3.268799e+002
1.936652e+002, 3.293549e+002
1.941473e+002, 3.320712e+002
1.946294e+002, 3.357849e+002
1.951115e+002, 3.403534e+002
1.955936e+002, 3.437940e+002
1.960757e+002, 3.457814e+002
1.965579e+002, 3.469831e+002
1.970400e+002, 3.486905e+002
1.975221e+002, 3.509578e+002
1.980042e+002, 3.531409e+002
1.984863e+002, 3.548011e+002
1.989684e+002, 3.559242e+002
1.994506e+002, 3.573458e+002
1.999327e+002, 3.592198e+002
2.004148e+002, 3.612782e+002
2.008969e+002, 3.628325e+002
2.013790e+002, 3.638003e+002
2.018611e+002, 3.648072e+002
2.023433e+002, 3.663644e+002
2.028254e+002, 3.685593e+002
2.033075e+002, 3.701907e+002
2.037896e+002, 3.709009e+002
2.042717e+002, 3.712131e+002
2.047538e+002, 3.726252e+002
2.052360e+002, 3.754314e+002
2.057181e+002, 3.782202e+002
2.062002e+002, 3.799194e+002
2.066823e+002, 3.802328e+002
2.071644e+002, 3.814436e+002
2.076465e+002, 3.840770e+002
2.081287e+002, 3.875169e+002
2.086108e+002, 3.899191e+002
2.090929e+002, 3.909944e+002
2.095750e+002, 3.918333e+002
2.100571e+002, 3.930874e+002
2.105392e+002, 3.948481e+002
2.110214e+002, 3.966422e+002
2.115035e+002, 3.985269e+002
2.119856e+002, 4.003910e+002
2.124677e+002, 4.018526e+002
2.129498e+002, 4.027967e+002
2.134319e+002, 4.036313e+002
2.139140e+002, 4.046317e+002
2.143962e+002, 4.058759e+002
2.148783e+002, 4.070340e+002
2.153604e+002, 4.080332e+002
2.158425e+002, 4.089354e+002
2.163246e+002, 4.099722e+002
2.168067e+002, 4.112589e+002
2.172889e+002, 4.124697e+002
2.177710e+002, 4.133950e+002
2.182531e+002, 4.139450e+002
2.187352e+002, 4.144359e+002
2.192173e+002, 4.147776e+002
2.196994e+002, 4.150742e+002
2.201816e+002, 4.158810e+002
2.206637e+002, 4.175126e+002
2.211458e+002, 4.191095e+002
2.216279e+002, 4.200205e+002
2.221100e+002, 4.198209e+002
2.225921e+002, 4.201126e+002
2.230743e+002, 4.212928e+002
2.235564e+002, 4.230776e+002
2.240385e+002, 4.241452e+002
2.245206e+002, 4.242173e+002
2.250027e+002, 4.240026e+002
2.254848e+002, 4.239034e+002
2.259670e+002, 4.239302e+002
2.264491e+002, 4.240743e+002
2.269312e+002, 4.243392e+002
2.274133e+002, 4.247275e+002
2.278954e+002, 4.252951e+002
2.283775e+002, 4.262072e+002
2.288597e+002, 4.270490e+002
2.293418e+002, 4.275216e+002
2.298239e+002, 4.274017e+002
2.303060e+002, 4.274135e+002
2.307881e+002, 4.275824e+002
2.312702e+002, 4.279103e+002
2.317524e+002, 4.284562e+002
2.322345e+002, 4.293633e+002
2.327166e+002, 4.302519e+002
2.331987e+002, 4.308731e+002
2.336808e+002, 4.310862e+002
2.341629e+002, 4.313245e+002
2.346451e+002, 4.316697e+002
2.351272e+002, 4.320577e+002
2.356093e+002, 4.321924e+002
2.360914e+002, 4.318513e+002
2.365735e+002, 4.315624e+002
2.370556e+002, 4.316016e+002
2.375378e+002, 4.319708e+002
2.380199e+002, 4.327233e+002
2.385020e+002, 4.341609e+002
2.389841e+002, 4.360109e+002
2.394662e+002, 4.370506e+002
2.399483e+002, 4.368933e+002
2.404305e+002, 4.364857e+002
2.409126e+002, 4.362796e+002
2.413947e+002, 4.361930e+002
2.418768e+002, 4.365577e+002
2.423589e+002, 4.377139e+002
2.428410e+002, 4.393164e+002
2.433232e+002, 4.400316e+002
2.438053e+002, 4.390591e+002
2.442874e+002, 4.382921e+002
2.447695e+002, 4.387886e+002
2.452516e+002, 4.413387e+002
2.457337e+002, 4.433479e+002
2.462159e+002, 4.445700e+002
2.466980e+002, 4.452120e+002
2.471801e+002, 4.459067e+002
2.476622e+002, 4.466186e+002
2.481443e+002, 4.474289e+002
2.486264e+002, 4.483697e+002
2.491086e+002, 4.494699e+002
2.495907e+002, 4.506337e+002
2.500728e+002, 4.518472e+002
2.505549e+002, 4.531306e+002
2.510370e+002, 4.545922e+002
2.515191e+002, 4.565159e+002
2.520013e+002, 4.581890e+002
2.524834e+002, 4.592043e+002
2.529655e+002, 4.590575e+002
2.534476e+002, 4.596156e+002
2.539297e+002, 4.612228e+002
2.544118e+002, 4.633864e+002
2.548940e+002, 4.649821e+002
2.553761e+002, 4.656488e+002
2.558582e+002, 4.663909e+002
2.563403e+002, 4.676789e+002
2.568224e+002, 4.697599e+002
2.573046e+002, 4.715095e+002
2.577867e+002, 4.727754e+002
2.582688e+002, 4.737756e+002
2.587509e+002, 4.749175e+002
2.592330e+002, 4.761996e+002
2.597151e+002, 4.775852e+002
2.601973e+002, 4.791483e+002
2.606794e+002, 4.809903e+002
2.611615e+002, 4.824045e+002
2.616436e+002, 4.832689e+002
2.621257e+002, 4.838033e+002
2.626078e+002, 4.842903e+002
2.630900e+002, 4.845691e+002
2.635721e+002, 4.852092e+002
2.640542e+002, 4.864932e+002
2.645363e+002, 4.885692e+002
2.650184e+002, 4.904804e+002
2.655005e+002, 4.922268e+002
2.659827e+002, 4.938698e+002
2.664648e+002, 4.956269e+002
2.669469e+002, 4.977078e+002
2.674290e+002, 4.992438e+002
2.679111e+002, 4.997365e+002
2.683932e+002, 4.990694e+002
2.688754e+002, 4.992229e+002
2.693575e+002, 5.003611e+002
2.698396e+002, 5.020408e+002
2.703217e+002, 5.038036e+002
2.708038e+002, 5.057386e+002
2.712859e+002, 5.073378e+002
2.717681e+002, 5.083633e+002
2.722502e+002, 5.088266e+002
2.727323e+002, 5.093178e+002
2.732144e+002, 5.097628e+002
2.736965e+002, 5.103623e+002
2.741786e+002, 5.114289e+002
2.746608e+002, 5.130923e+002
2.751429e+002, 5.145609e+002
2.756250e+002, 5.155386e+002
2.761071e+002, 5.161255e+002
2.765892e+002, 5.172435e+002
2.770714e+002, 5.190804e+002
2.775535e+002, 5.208640e+002
2.780356e+002, 5.215880e+002
2.785177e+002, 5.210767e+002
2.789998e+002, 5.213526e+002
2.794819e+002, 5.230637e+002
2.799641e+002, 5.258270e+002
2.804462e+002, 5.280479e+002
2.809283e+002, 5.297623e+002
2.814104e+002, 5.307899e+002
2.818925e+002, 5.306146e+002
2.823746e+002, 5.292126e+002
2.828568e+002, 5.285746e+002
2.833389e+002, 5.292737e+002
2.838210e+002, 5.307654e+002
2.843031e+002, 5.314695e+002
2.847852e+002, 5.313227e+002
2.852673e+002, 5.310654e+002
2.857495e+002, 5.312792e+002
2.862316e+002, 5.319285e+002
2.867137e+002, 5.324750e+002
2.871958e+002, 5.329092e+002
2.876779e+002, 5.331383e+002
2.881600e+002, 5.327592e+002
2.886422e+002, 5.317567e+002
2.891243e+002, 5.309684e+002
2.896064e+002, 5.311678e+002
2.900885e+002, 5.321202e+002
2.905706e+002, 5.325791e+002
2.910527e+002, 5.323287e+002
2.915349e+002, 5.317671e+002
2.920170e+002, 5.315831e+002
2.924991e+002, 5.317275e+002
2.929812e+002, 5.317172e+002
2.934633e+002, 5.311223e+002
2.939454e+002, 5.301470e+002
2.944276e+002, 5.295601e+002
2.949097e+002, 5.295052e+002
2.953918e+002, 5.294117e+002
2.958739e+002, 5.284459e+002
2.963560e+002, 5.267663e+002
2.968381e+002, 5.250640e+002
2.973203e+002, 5.236087e+002
2.978024e+002, 5.223871e+002
2.982845e+002, 5.214269e+002
2.987666e+002, 5.207505e+002
2.992487e+002, 5.201007e+002
2.997308e+002, 5.193010e+002
3.002130e+002, 5.183199e+002
3.006951e+002, 5.170728e+002
3.011772e+002, 5.151785e+002
3.016593e+002, 5.131725e+002
3.021414e+002, 5.118800e+002
3.026235e+002, 5.112978e+002
3.031057e+002, 5.108864e+002
3.035878e+002, 5.103403e+002
3.040699e+002, 5.096412e+002
3.045520e+002, 5.087609e+002
3.050341e+002, 5.076342e+002
3.055162e+002, 5.063828e+002
3.059984e+002, 5.050361e+002
3.064805e+002, 5.036325e+002
3.069626e+002, 5.023418e+002
3.074447e+002, 5.012466e+002
3.079268e+002, 5.003547e+002
3.084089e+002, 4.997368e+002
3.088911e+002, 4.996070e+002
3.093732e+002, 4.994523e+002
3.098553e+002, 4.989266e+002
3.103374e+002, 4.980540e+002
3.108195e+002, 4.968936e+002
3.113016e+002, 4.947997e+002
3.117838e+002, 4.927967e+002
3.122659e+002, 4.919532e+002
3.127480e+002, 4.929811e+002
3.132301e+002, 4.939761e+002
3.137122e+002, 4.938470e+002
3.141943e+002, 4.928633e+002
3.146765e+002, 4.915923e+002
3.151586e+002, 4.898381e+002
3.156407e+002, 4.881996e+002
3.161228e+002, 4.870569e+002
3.166049e+002, 4.865245e+002
3.170870e+002, 4.862477e+002
3.175692e+002, 4.862818e+002
3.180513e+002, 4.864353e+002
3.185334e+002, 4.864390e+002
3.190155e+002, 4.864306e+002
3.194976e+002, 4.860659e+002
3.199797e+002, 4.849426e+002
3.204619e+002, 4.829406e+002
3.209440e+002, 4.814126e+002
3.214261e+002, 4.813967e+002
3.219082e+002, 4.817733e+002
3.223903e+002, 4.814825e+002
3.228724e+002, 4.793606e+002
3.233546e+002, 4.774838e+002
3.238367e+002, 4.765345e+002
3.243188e+002, 4.764847e+002
3.248009e+002, 4.762654e+002
3.252830e+002, 4.755748e+002
3.257651e+002, 4.747536e+002
3.262473e+002, 4.740263e+002
3.267294e+002, 4.736814e+002
3.272115e+002, 4.731434e+002
3.276936e+002, 4.722328e+002
3.281757e+002, 4.710579e+002
3.286578e+002, 4.700905e+002
3.291400e+002, 4.697367e+002
3.296221e+002, 4.692739e+002
3.301042e+002, 4.683757e+002
3.305863e+002, 4.666689e+002
3.310684e+002, 4.651322e+002
3.315505e+002, 4.636824e+002
3.320327e+002, 4.624163e+002
3.325148e+002, 4.615976e+002
3.329969e+002, 4.615320e+002
3.334790e+002, 4.614708e+002
3.339611e+002, 4.611260e+002
3.344432e+002, 4.603824e+002
3.349254e+002, 4.597733e+002
3.354075e+002, 4.594609e+002
3.358896e+002, 4.591290e+002
3.363717e+002, 4.583081e+002
3.368538e+002, 4.568333e+002
3.373359e+002, 4.552552e+002
3.378180e+002, 4.536511e+002
3.383001e+002, 4.520341e+002
3.387823e+002, 4.507701e+002
3.392644e+002, 4.499566e+002
3.397465e+002, 4.493506e+002
3.402286e+002, 4.487878e+002
3.407107e+002, 4.483221e+002
3.411928e+002, 4.476417e+002
3.416750e+002, 4.466211e+002
3.421571e+002, 4.453833e+002
3.426392e+002, 4.444754e+002
3.431213e+002, 4.439358e+002
3.436034e+002, 4.435050e+002
3.440855e+002, 4.431272e+002
3.445677e+002, 4.427892e+002
3.450498e+002, 4.418939e+002
3.455319e+002, 4.401496e+002
3.460140e+002, 4.381930e+002
3.464961e+002, 4.373898e+002
3.469782e+002, 4.376995e+002
3.474604e+002, 4.380625e+002
3.479425e+002, 4.377020e+002
3.484246e+002, 4.368806e+002
3.489067e+002, 4.366897e+002
3.493888e+002, 4.372946e+002
3.498709e+002, 4.379909e+002
3.503531e+002, 4.378639e+002
3.508352e+002, 4.370812e+002
3.513173e+002, 4.362711e+002
3.517994e+002, 4.354414e+002
3.522815e+002, 4.348301e+002
3.527636e+002, 4.350520e+002
3.532458e+002, 4.361012e+002
3.537279e+002, 4.370663e+002
3.542100e+002, 4.371512e+002
3.546921e+002, 4.366245e+002
3.551742e+002, 4.359146e+002
3.556563e+002, 4.348216e+002
3.561385e+002, 4.339400e+002
3.566206e+002, 4.339740e+002
3.571027e+002, 4.347837e+002
3.575848e+002, 4.356727e+002
3.580669e+002, 4.362567e+002
3.585490e+002, 4.367131e+002
3.590312e+002, 4.372365e+002
3.595133e+002, 4.379629e+002
3.599954e+002, 4.385623e+002
3.604775e+002, 4.387301e+002
3.609596e+002, 4.386413e+002
3.614417e+002, 4.386597e+002
3.619239e+002, 4.389329e+002
3.624060e+002, 4.393618e+002
3.628881e+002, 4.399753e+002
3.633702e+002, 4.408496e+002
3.638523e+002, 4.415171e+002
3.643344e+002, 4.417734e+002
3.648166e+002, 4.417626e+002
3.652987e+002, 4.416479e+002
3.657808e+002, 4.408972e+002
3.662629e+002, 4.406210e+002
3.667450e+002, 4.413543e+002
3.672271e+002, 4.430918e+002
3.677093e+002, 4.445432e+002
3.681914e+002, 4.452817e+002
3.686735e+002, 4.458557e+002
3.691556e+002, 4.466222e+002
3.696377e+002, 4.472805e+002
3.701198e+002, 4.485182e+002
3.706020e+002, 4.510460e+002
3.710841e+002, 4.542638e+002
3.715662e+002, 4.559418e+002
3.720483e+002, 4.550044e+002
3.725304e+002, 4.538059e+002
3.730125e+002, 4.533421e+002
3.734947e+002, 4.539819e+002
3.739768e+002, 4.542648e+002
3.744589e+002, 4.539660e+002
3.749410e+002, 4.534928e+002
3.754231e+002, 4.535323e+002
3.759052e+002, 4.542477e+002
3.763874e+002, 4.550446e+002
3.768695e+002, 4.557779e+002
3.773516e+002, 4.564633e+002
3.778337e+002, 4.570541e+002
3.783158e+002, 4.575347e+002
3.787979e+002, 4.580176e+002
3.792801e+002, 4.587274e+002
3.797622e+002, 4.597036e+002
3.802443e+002, 4.602256e+002
3.807264e+002, 4.600184e+002
3.812085e+002, 4.593885e+002
3.816906e+002, 4.590434e+002
3.821728e+002, 4.589749e+002
3.826549e+002, 4.593113e+002
3.831370e+002, 4.604397e+002
3.836191e+002, 4.621024e+002
3.841012e+002, 4.632536e+002
3.845833e+002, 4.637604e+002
3.850655e+002, 4.638289e+002
3.855476e+002, 4.635464e+002
3.860297e+002, 4.630045e+002
3.865118e+002, 4.625670e+002
3.869939e+002, 4.625518e+002
3.874760e+002, 4.626853e+002
3.879582e+002, 4.625178e+002
3.884403e+002, 4.620397e+002
3.889224e+002, 4.615912e+002
3.894045e+002, 4.615987e+002
3.898866e+002, 4.617824e+002
3.903687e+002, 4.617365e+002
3.908509e+002, 4.611891e+002
3.913330e+002, 4.605373e+002
3.918151e+002, 4.599884e+002
3.922972e+002, 4.595548e+002
3.927793e+002, 4.592624e+002
3.932614e+002, 4.595596e+002
3.937436e+002, 4.597285e+002
3.942257e+002, 4.591057e+002
3.947078e+002, 4.570700e+002
3.951899e+002, 4.554862e+002
3.956720e+002, 4.552724e+002
3.961541e+002, 4.558752e+002
3.966363e+002, 4.564075e+002
3.971184e+002, 4.570649e+002
3.976005e+002, 4.572298e+002
3.980826e+002, 4.563653e+002
3.985647e+002, 4.542396e+002
3.990468e+002, 4.529228e+002
3.995290e+002, 4.532865e+002
4.000111e+002, 4.541603e+002
4.004932e+002, 4.546010e+002
4.009753e+002, 4.541141e+002
4.014574e+002, 4.538610e+002
4.019395e+002, 4.540788e+002
4.024217e+002, 4.546410e+002
4.029038e+002, 4.549656e+002
4.033859e+002, 4.551266e+002
4.038680e+002, 4.549454e+002
4.043501e+002, 4.541825e+002
4.048322e+002, 4.524710e+002
4.053144e+002, 4.515295e+002
4.057965e+002, 4.515538e+002
4.062786e+002, 4.521248e+002
4.067607e+002, 4.526580e+002
4.072428e+002, 4.531781e+002
4.077249e+002, 4.535119e+002
4.082071e+002, 4.535411e+002
4.086892e+002, 4.533194e+002
4.091713e+002, 4.531957e+002
4.096534e+002, 4.531819e+002
4.101355e+002, 4.531823e+002
4.106176e+002, 4.530892e+002
4.110998e+002, 4.529205e+002
4.115819e+002, 4.527729e+002
4.120640e+002, 4.526221e+002
4.125461e+002, 4.525690e+002
