##NAMES=Robinsonite
##RRUFFID=R060970
##IDEAL CHEMISTRY=Pb^2+^_4_Sb^3+^_6_S^2-^_13_
##LOCALITY=Mala Zelezna, Zilinsky Kraj, Slovakia
##OWNER=RRUFF
##SOURCE=Michael Scott
##DESCRIPTION=Mass of randomly oriented silvery-gray striated prismatic crystals
##STATUS=The identification of this mineral has been confirmed by single-crystal X-ray diffraction.
##URL=rruff.info/R060970
137.9200, 2123.518
138.4021, 2144.793
138.8842, 2185.499
139.3664, 2246.355
139.8485, 2326.145
140.3306, 2422.040
140.8127, 2540.645
141.2948, 2666.793
141.7769, 2797.528
142.2591, 2930.202
142.7412, 3058.473
143.2233, 3172.902
143.7054, 3278.451
144.1875, 3408.788
144.6696, 3589.152
145.1517, 3765.122
145.6339, 3922.747
146.1160, 4061.273
146.5981, 4180.920
147.0802, 4278.995
147.5623, 4355.999
148.0444, 4432.442
148.5266, 4521.044
149.0087, 4595.017
149.4908, 4644.489
149.9729, 4672.563
150.4550, 4687.371
150.9371, 4695.022
151.4193, 4695.499
151.9014, 4688.945
152.3835, 4672.212
152.8656, 4651.159
153.3477, 4621.040
153.8298, 4586.748
154.3120, 4560.249
154.7941, 4553.892
155.2762, 4571.173
155.7583, 4581.929
156.2404, 4575.560
156.7225, 4572.636
157.2047, 4581.053
157.6868, 4600.699
158.1689, 4627.720
158.6510, 4659.048
159.1331, 4695.794
159.6152, 4731.384
160.0974, 4758.538
160.5795, 4790.726
161.0616, 4838.334
161.5437, 4898.854
162.0258, 4959.793
162.5079, 5007.610
162.9901, 5036.946
163.4722, 5077.083
163.9543, 5140.711
164.4364, 5202.324
164.9185, 5244.553
165.4007, 5268.576
165.8828, 5288.630
166.3649, 5319.616
166.8470, 5364.404
167.3291, 5408.195
167.8112, 5457.648
168.2933, 5501.255
168.7755, 5532.583
169.2576, 5550.924
169.7397, 5557.791
170.2218, 5552.915
170.7039, 5531.483
171.1860, 5520.643
171.6682, 5527.220
172.1503, 5538.292
172.6324, 5548.715
173.1145, 5556.614
173.5966, 5557.908
174.0787, 5546.802
174.5609, 5518.784
175.0430, 5499.967
175.5251, 5494.997
176.0072, 5495.333
176.4893, 5495.185
176.9714, 5493.866
177.4536, 5493.214
177.9357, 5493.890
178.4178, 5495.058
178.8999, 5507.566
179.3820, 5543.360
179.8641, 5581.931
180.3463, 5605.336
180.8284, 5612.352
181.3105, 5617.832
181.7926, 5637.286
182.2747, 5674.156
182.7568, 5701.086
183.2390, 5707.709
183.7211, 5711.300
184.2032, 5724.520
184.6853, 5748.745
185.1674, 5780.218
185.6495, 5816.621
186.1317, 5858.708
186.6138, 5900.373
187.0959, 5947.027
187.5780, 5989.561
188.0601, 6016.667
188.5422, 6028.316
189.0244, 6041.283
189.5065, 6072.127
189.9886, 6121.980
190.4707, 6161.116
190.9528, 6172.598
191.4349, 6184.462
191.9170, 6223.956
192.3992, 6291.513
192.8813, 6361.458
193.3634, 6411.009
193.8455, 6440.771
194.3276, 6481.279
194.8097, 6540.341
195.2919, 6605.342
195.7740, 6668.341
196.2561, 6728.715
196.7382, 6785.170
197.2203, 6833.337
197.7024, 6875.534
198.1846, 6930.613
198.6667, 7022.695
199.1488, 7110.017
199.6309, 7149.233
200.1130, 7144.045
200.5951, 7151.639
201.0773, 7218.415
201.5594, 7335.096
202.0415, 7425.626
202.5236, 7481.718
203.0057, 7518.044
203.4878, 7535.692
203.9700, 7537.513
204.4521, 7545.990
204.9342, 7577.918
205.4163, 7627.942
205.8984, 7666.531
206.3805, 7685.387
206.8627, 7700.076
207.3448, 7721.700
207.8269, 7748.436
208.3090, 7770.103
208.7911, 7779.634
209.2732, 7779.919
209.7554, 7783.159
210.2375, 7796.059
210.7196, 7804.318
211.2017, 7795.675
211.6838, 7774.123
212.1659, 7757.081
212.6480, 7756.017
213.1302, 7762.661
213.6123, 7753.826
214.0944, 7719.377
214.5765, 7686.646
215.0586, 7671.278
215.5407, 7668.566
216.0229, 7665.076
216.5050, 7657.668
216.9871, 7643.177
217.4692, 7614.567
217.9513, 7569.319
218.4334, 7518.916
218.9156, 7462.020
219.3977, 7403.399
219.8798, 7356.003
220.3619, 7327.103
220.8440, 7306.435
221.3261, 7272.765
221.8083, 7222.224
222.2904, 7174.556
222.7725, 7138.660
223.2546, 7109.049
223.7367, 7076.230
224.2188, 7036.965
224.7010, 6994.024
225.1831, 6952.222
225.6652, 6912.239
226.1473, 6869.036
226.6294, 6816.004
227.1115, 6760.520
227.5937, 6714.568
228.0758, 6681.596
228.5579, 6652.561
229.0400, 6614.868
229.5221, 6566.075
230.0042, 6524.551
230.4864, 6495.537
230.9685, 6473.547
231.4506, 6455.700
231.9327, 6441.478
232.4148, 6423.767
232.8969, 6393.665
233.3791, 6348.887
233.8612, 6308.991
234.3433, 6277.570
234.8254, 6249.416
235.3075, 6217.994
235.7896, 6183.501
236.2717, 6155.891
236.7539, 6147.145
237.2360, 6158.320
237.7181, 6149.782
238.2002, 6106.530
238.6823, 6057.197
239.1644, 6017.061
239.6466, 5986.379
240.1287, 5962.189
240.6108, 5944.349
241.0929, 5931.704
241.5750, 5908.063
242.0571, 5860.994
242.5393, 5817.372
243.0214, 5795.377
243.5035, 5786.859
243.9856, 5769.124
244.4677, 5727.891
244.9498, 5668.705
245.4320, 5620.298
245.9141, 5587.167
246.3962, 5557.457
246.8783, 5526.614
247.3604, 5497.615
247.8425, 5478.237
248.3247, 5472.770
248.8068, 5473.313
249.2889, 5458.063
249.7710, 5411.649
250.2531, 5368.700
250.7352, 5333.897
251.2174, 5302.561
251.6995, 5270.856
252.1816, 5237.375
252.6637, 5200.194
253.1458, 5155.584
253.6279, 5090.721
254.1101, 5040.973
254.5922, 5012.736
255.0743, 4994.741
255.5564, 4981.502
256.0385, 4970.511
256.5206, 4957.412
257.0027, 4936.449
257.4849, 4904.743
257.9670, 4874.033
258.4491, 4848.343
258.9312, 4820.286
259.4133, 4782.646
259.8954, 4737.461
260.3776, 4694.663
260.8597, 4664.188
261.3418, 4647.994
261.8239, 4623.735
262.3060, 4581.024
262.7881, 4541.136
263.2703, 4515.704
263.7524, 4498.887
264.2345, 4476.923
264.7166, 4439.310
265.1987, 4388.640
265.6808, 4346.278
266.1630, 4319.914
266.6451, 4293.366
267.1272, 4261.443
267.6093, 4228.010
268.0914, 4198.255
268.5735, 4174.739
269.0557, 4156.266
269.5378, 4140.492
270.0199, 4133.282
270.5020, 4117.376
270.9841, 4086.757
271.4662, 4049.630
271.9484, 4012.310
272.4305, 3976.603
272.9126, 3942.424
273.3947, 3907.923
273.8768, 3870.904
274.3589, 3842.110
274.8411, 3828.853
275.3232, 3820.246
275.8053, 3810.642
276.2874, 3799.310
276.7695, 3788.585
277.2516, 3782.112
277.7338, 3780.063
278.2159, 3773.465
278.6980, 3761.333
279.1801, 3744.256
279.6622, 3717.364
280.1443, 3684.654
280.6265, 3659.835
281.1086, 3660.681
281.5907, 3678.020
282.0728, 3672.288
282.5549, 3630.680
283.0370, 3591.941
283.5192, 3581.832
284.0013, 3589.545
284.4834, 3597.003
284.9655, 3600.597
285.4476, 3598.289
285.9297, 3583.205
286.4119, 3552.847
286.8940, 3527.706
287.3761, 3519.211
287.8582, 3521.886
288.3403, 3527.621
288.8224, 3536.277
289.3046, 3546.477
289.7867, 3555.926
290.2688, 3565.373
290.7509, 3579.690
291.2330, 3601.905
291.7151, 3628.681
292.1972, 3652.792
292.6794, 3671.549
293.1615, 3698.794
293.6436, 3749.036
294.1257, 3810.051
294.6078, 3857.595
295.0899, 3884.467
295.5721, 3905.448
296.0542, 3936.464
296.5363, 3977.732
297.0184, 4027.722
297.5005, 4093.264
297.9826, 4163.126
298.4648, 4228.025
298.9469, 4286.842
299.4290, 4342.747
299.9111, 4397.272
300.3932, 4450.381
300.8753, 4508.801
301.3575, 4572.696
301.8396, 4640.880
302.3217, 4716.450
302.8038, 4795.681
303.2859, 4869.688
303.7680, 4933.069
304.2502, 4988.363
304.7323, 5046.498
305.2144, 5119.886
305.6965, 5180.737
306.1786, 5218.540
306.6607, 5245.630
307.1429, 5279.393
307.6250, 5324.760
308.1071, 5368.181
308.5892, 5384.469
309.0713, 5355.500
309.5534, 5335.408
310.0356, 5333.255
310.5177, 5331.430
310.9998, 5319.792
311.4819, 5297.174
311.9640, 5267.356
312.4461, 5232.161
312.9283, 5191.042
313.4104, 5154.378
313.8925, 5136.761
314.3746, 5108.563
314.8567, 5055.289
315.3388, 4985.057
315.8210, 4913.385
316.3031, 4848.556
316.7852, 4789.506
317.2673, 4732.530
317.7494, 4675.402
318.2315, 4624.924
318.7137, 4585.733
319.1958, 4552.595
319.6779, 4520.842
320.1600, 4489.135
320.6421, 4458.444
321.1242, 4429.285
321.6064, 4401.404
322.0885, 4377.850
322.5706, 4359.104
323.0527, 4345.451
323.5348, 4336.922
324.0169, 4333.427
324.4991, 4333.005
324.9812, 4337.508
325.4633, 4344.028
325.9454, 4344.707
326.4275, 4337.346
326.9096, 4328.303
327.3918, 4325.805
327.8739, 4327.176
328.3560, 4319.954
328.8381, 4299.717
329.3202, 4271.612
329.8023, 4237.041
330.2845, 4197.288
330.7666, 4160.877
331.2487, 4135.767
331.7308, 4115.937
332.2129, 4076.997
332.6950, 4001.295
333.1772, 3932.425
333.6593, 3892.264
334.1414, 3864.948
334.6235, 3824.866
335.1056, 3763.089
335.5877, 3687.838
336.0698, 3611.940
336.5519, 3534.630
337.0341, 3457.801
337.5162, 3377.821
337.9983, 3301.275
338.4804, 3235.717
338.9625, 3179.375
339.4446, 3123.090
339.9268, 3058.321
340.4089, 2984.773
340.8910, 2911.372
341.3731, 2833.903
341.8552, 2761.459
342.3373, 2697.966
342.8195, 2640.790
343.3016, 2585.863
343.7837, 2530.764
344.2658, 2477.297
344.7479, 2430.596
345.2300, 2394.181
345.7122, 2356.628
346.1943, 2313.781
346.6764, 2270.442
347.1585, 2230.091
347.6406, 2193.418
348.1227, 2159.998
348.6049, 2127.423
349.0870, 2096.298
349.5691, 2075.754
350.0512, 2072.460
350.5333, 2072.208
351.0154, 2067.457
351.4976, 2058.100
351.9797, 2043.275
352.4618, 2018.629
352.9439, 1990.075
353.4260, 1964.978
353.9081, 1943.139
354.3903, 1928.441
354.8724, 1927.314
355.3545, 1933.458
355.8366, 1930.299
356.3187, 1913.915
356.8008, 1894.637
357.2830, 1875.418
357.7651, 1857.178
358.2472, 1841.362
358.7293, 1828.344
359.2114, 1818.744
359.6935, 1813.836
360.1757, 1815.188
360.6578, 1816.843
361.1399, 1822.900
361.6220, 1826.006
362.1041, 1818.860
362.5862, 1802.705
363.0684, 1784.554
363.5505, 1769.292
364.0326, 1757.101
364.5147, 1751.698
364.9968, 1758.102
365.4789, 1765.771
365.9611, 1775.181
366.4432, 1783.901
366.9253, 1788.571
367.4074, 1787.842
367.8895, 1784.344
368.3716, 1783.377
368.8538, 1787.289
369.3359, 1786.585
369.8180, 1776.492
370.3001, 1764.618
370.7822, 1753.320
371.2643, 1743.614
371.7465, 1737.386
372.2286, 1736.573
372.7107, 1740.592
373.1928, 1747.988
373.6749, 1761.918
374.1570, 1772.070
374.6392, 1770.785
375.1213, 1762.479
375.6034, 1752.329
376.0855, 1738.221
376.5676, 1727.842
377.0497, 1733.169
377.5319, 1750.710
378.0140, 1759.499
378.4961, 1750.509
378.9782, 1732.672
379.4603, 1720.033
379.9424, 1713.216
380.4246, 1706.099
380.9066, 1693.855
381.3888, 1682.668
381.8709, 1680.530
382.3530, 1687.555
382.8351, 1696.229
383.3172, 1701.014
383.7993, 1701.909
384.2815, 1698.138
384.7636, 1684.299
385.2457, 1672.706
385.7278, 1666.779
386.2099, 1665.262
386.6920, 1668.158
387.1742, 1675.349
387.6563, 1681.655
388.1384, 1674.860
388.6205, 1643.577
389.1026, 1627.449
389.5847, 1640.644
390.0669, 1657.982
390.5490, 1665.051
391.0311, 1662.741
391.5132, 1661.179
391.9953, 1669.792
392.4774, 1685.544
392.9596, 1693.606
393.4417, 1690.703
393.9238, 1687.662
394.4059, 1693.599
394.8880, 1700.924
395.3701, 1698.658
395.8523, 1681.201
396.3344, 1662.191
396.8165, 1654.302
397.2986, 1655.045
397.7807, 1652.409
398.2628, 1641.065
398.7450, 1630.535
399.2271, 1636.415
399.7092, 1659.505
400.1913, 1674.014
400.6734, 1672.640
401.1555, 1663.495
401.6377, 1648.287
402.1198, 1630.022
402.6019, 1619.220
403.0840, 1624.100
403.5661, 1640.655
404.0482, 1648.747
404.5304, 1639.115
405.0125, 1632.598
405.4946, 1635.525
405.9767, 1640.214
406.4588, 1637.053
406.9409, 1624.788
407.4231, 1612.310
407.9052, 1611.036
408.3873, 1622.827
408.8694, 1632.539
409.3515, 1641.056
409.8336, 1646.219
410.3158, 1646.412
410.7979, 1642.834
411.2800, 1636.974
411.7621, 1627.723
412.2442, 1619.617
412.7263, 1622.260
413.2085, 1636.872
413.6906, 1646.739
414.1727, 1643.249
414.6548, 1635.562
415.1369, 1636.450
415.6190, 1647.021
416.1012, 1653.720
416.5833, 1647.538
417.0654, 1635.653
417.5475, 1628.159
418.0296, 1626.057
418.5117, 1625.021
418.9939, 1621.436
419.4760, 1615.874
419.9581, 1614.513
420.4402, 1620.971
420.9223, 1626.712
421.4044, 1628.666
421.8866, 1628.716
422.3687, 1629.860
422.8508, 1632.953
423.3329, 1635.978
423.8150, 1636.022
424.2971, 1632.797
424.7793, 1627.562
425.2614, 1615.138
425.7435, 1605.727
426.2256, 1605.565
426.7077, 1611.568
427.1898, 1616.145
427.6719, 1614.018
428.1541, 1609.804
428.6362, 1615.892
429.1183, 1635.686
429.6004, 1646.996
430.0825, 1636.701
430.5646, 1619.465
431.0468, 1610.130
431.5289, 1609.705
432.0110, 1610.856
432.4931, 1613.751
432.9752, 1614.585
433.4573, 1602.920
433.9395, 1577.550
434.4216, 1558.671
434.9037, 1563.256
435.3858, 1587.529
435.8679, 1600.818
436.3500, 1594.293
436.8322, 1588.814
437.3143, 1591.110
437.7964, 1597.502
438.2785, 1604.154
438.7606, 1609.614
439.2427, 1612.441
439.7249, 1609.677
440.2070, 1598.910
440.6891, 1594.177
441.1712, 1599.526
441.6533, 1607.046
442.1354, 1617.857
442.6176, 1628.362
443.0997, 1632.182
443.5818, 1625.437
444.0639, 1613.147
444.5460, 1602.122
445.0281, 1591.995
445.5103, 1587.474
445.9924, 1591.605
446.4745, 1600.130
446.9566, 1611.098
447.4387, 1624.187
447.9208, 1630.355
448.4030, 1620.593
448.8851, 1605.622
449.3672, 1597.907
449.8493, 1597.574
450.3314, 1599.373
450.8135, 1600.671
451.2957, 1601.533
451.7778, 1602.153
452.2599, 1606.668
452.7420, 1605.322
453.2241, 1589.726
453.7062, 1572.596
454.1884, 1566.454
454.6705, 1572.104
455.1526, 1580.865
455.6347, 1584.887
456.1168, 1584.332
456.5989, 1582.912
457.0811, 1579.021
457.5632, 1576.650
458.0453, 1577.091
458.5274, 1579.366
459.0095, 1582.383
459.4916, 1585.828
459.9738, 1590.126
460.4559, 1597.734
460.9380, 1607.166
461.4201, 1610.006
461.9022, 1603.376
462.3843, 1594.814
462.8665, 1590.722
463.3486, 1590.392
463.8307, 1589.495
464.3128, 1582.738
464.7949, 1580.255
465.2770, 1593.434
465.7592, 1614.313
466.2413, 1625.138
466.7234, 1619.360
467.2055, 1607.063
467.6876, 1604.187
468.1697, 1615.213
468.6519, 1622.111
469.1340, 1624.788
469.6161, 1624.026
470.0982, 1618.142
470.5803, 1609.263
471.0624, 1600.829
471.5445, 1594.225
472.0266, 1590.304
472.5088, 1592.308
472.9909, 1601.639
473.4730, 1606.785
473.9551, 1604.122
474.4372, 1597.241
474.9193, 1588.384
475.4015, 1577.890
475.8836, 1569.483
476.3657, 1563.848
476.8478, 1561.443
477.3299, 1564.456
477.8120, 1571.958
478.2942, 1578.225
478.7763, 1580.224
479.2584, 1579.681
479.7405, 1580.968
480.2226, 1589.717
480.7047, 1590.530
481.1869, 1572.249
481.6690, 1554.439
482.1511, 1553.179
482.6332, 1566.316
483.1153, 1581.120
483.5974, 1589.069
484.0796, 1590.665
484.5617, 1586.339
485.0438, 1571.887
485.5259, 1562.020
486.0080, 1564.406
486.4901, 1570.711
486.9723, 1574.570
487.4544, 1575.428
487.9365, 1577.556
488.4186, 1585.265
488.9007, 1595.145
489.3828, 1601.159
489.8650, 1602.964
490.3471, 1603.654
490.8292, 1605.291
491.3113, 1606.997
491.7934, 1605.466
492.2755, 1598.577
492.7577, 1592.329
493.2398, 1589.856
493.7219, 1586.882
494.2040, 1575.757
494.6861, 1558.383
495.1682, 1547.707
495.6504, 1556.497
496.1325, 1580.870
496.6146, 1592.115
497.0967, 1582.947
497.5788, 1574.000
498.0609, 1570.157
498.5431, 1569.051
499.0252, 1568.886
499.5073, 1569.372
499.9894, 1571.000
500.4715, 1576.362
500.9536, 1582.579
501.4358, 1582.238
501.9179, 1574.444
502.4000, 1567.182
502.8821, 1565.237
503.3642, 1567.584
503.8463, 1570.612
504.3285, 1577.544
504.8106, 1580.207
505.2927, 1572.207
505.7748, 1562.243
506.2569, 1559.753
506.7390, 1564.981
507.2212, 1571.752
507.7033, 1576.072
508.1854, 1576.980
508.6675, 1564.928
509.1496, 1524.844
509.6317, 1500.612
510.1139, 1516.924
510.5960, 1544.466
511.0781, 1557.985
511.5602, 1553.976
512.0423, 1547.038
512.5244, 1544.822
513.0065, 1546.729
513.4886, 1553.891
513.9708, 1566.480
514.4529, 1574.245
514.9350, 1568.580
515.4171, 1555.534
515.8992, 1555.722
516.3813, 1583.627
516.8635, 1598.798
517.3456, 1582.296
517.8277, 1560.657
518.3098, 1559.612
518.7919, 1577.454
519.2740, 1593.299
519.7562, 1590.963
520.2383, 1574.780
520.7204, 1562.454
521.2025, 1554.285
521.6846, 1549.216
522.1667, 1550.148
522.6489, 1552.060
523.1310, 1550.527
523.6131, 1545.573
524.0952, 1542.107
524.5773, 1543.990
525.0594, 1548.007
525.5416, 1550.707
526.0237, 1551.789
526.5058, 1549.410
526.9879, 1541.579
527.4700, 1531.994
527.9521, 1528.877
528.4343, 1537.531
528.9164, 1542.679
529.3985, 1544.786
529.8806, 1543.067
530.3627, 1534.913
530.8448, 1522.533
531.3270, 1510.846
531.8091, 1502.455
532.2912, 1497.000
532.7733, 1495.193
533.2554, 1498.095
533.7375, 1496.159
534.2197, 1482.852
534.7018, 1469.780
535.1839, 1465.120
535.6660, 1468.633
536.1481, 1480.185
536.6302, 1510.070
537.1124, 1538.586
537.5945, 1550.804
538.0766, 1549.842
538.5587, 1541.635
539.0408, 1528.038
539.5229, 1514.983
540.0051, 1510.619
540.4872, 1515.135
540.9693, 1527.624
541.4514, 1566.480
541.9335, 1593.098
542.4156, 1588.303
542.8978, 1566.238
543.3799, 1545.937
543.8620, 1533.639
544.3441, 1527.105
544.8262, 1525.108
545.3083, 1527.161
545.7905, 1532.358
546.2726, 1542.319
546.7547, 1547.986
547.2368, 1540.782
547.7189, 1523.697
548.2010, 1511.638
548.6832, 1501.788
549.1653, 1500.569
549.6474, 1519.948
550.1295, 1542.952
550.6116, 1548.949
551.0938, 1537.084
551.5759, 1523.225
552.0580, 1521.514
552.5401, 1529.096
553.0222, 1527.883
553.5043, 1511.293
553.9865, 1500.933
554.4686, 1511.599
554.9507, 1524.848
555.4328, 1524.999
555.9149, 1511.677
556.3970, 1499.073
556.8792, 1493.737
557.3613, 1492.758
557.8434, 1493.197
558.3255, 1494.941
558.8076, 1498.931
559.2897, 1506.194
559.7719, 1513.390
560.2540, 1514.084
560.7361, 1505.209
561.2182, 1497.722
561.7003, 1486.236
562.1824, 1481.374
562.6646, 1495.818
563.1467, 1518.537
563.6288, 1528.895
564.1109, 1517.293
564.5930, 1497.291
565.0751, 1485.547
565.5573, 1480.979
566.0394, 1472.997
566.5215, 1457.319
567.0036, 1447.903
567.4857, 1461.813
567.9678, 1492.451
568.4500, 1502.132
568.9321, 1464.601
569.4142, 1438.955
569.8963, 1457.273
570.3784, 1487.268
570.8605, 1488.092
571.3427, 1458.412
571.8248, 1431.417
572.3069, 1436.677
572.7890, 1466.862
573.2711, 1485.717
573.7532, 1491.772
574.2354, 1490.181
574.7175, 1473.776
575.1996, 1456.710
575.6817, 1451.952
576.1638, 1459.392
576.6459, 1468.860
577.1281, 1483.023
577.6102, 1492.417
578.0923, 1482.193
578.5744, 1459.017
579.0565, 1444.611
579.5386, 1447.632
580.0208, 1459.105
580.5029, 1466.045
580.9850, 1468.097
581.4671, 1467.067
581.9492, 1460.623
582.4313, 1453.427
582.9134, 1442.773
583.3955, 1433.633
583.8776, 1434.720
584.3597, 1449.278
584.8419, 1463.427
585.3240, 1463.136
585.8061, 1454.112
586.2882, 1450.727
586.7703, 1454.402
587.2524, 1459.873
587.7346, 1465.001
588.2167, 1468.666
588.6988, 1466.966
589.1809, 1453.461
589.6630, 1444.488
590.1451, 1445.606
590.6273, 1446.893
591.1094, 1437.103
591.5915, 1421.723
592.0736, 1417.912
592.5557, 1437.842
593.0378, 1464.977
593.5200, 1470.769
594.0021, 1455.921
594.4842, 1442.727
594.9663, 1434.562
595.4484, 1430.487
595.9305, 1429.922
596.4127, 1433.042
596.8948, 1439.439
597.3769, 1458.767
597.8590, 1469.614
598.3411, 1454.724
598.8232, 1433.714
599.3054, 1432.497
599.7875, 1451.886
600.2696, 1469.046
600.7517, 1463.035
601.2338, 1440.862
601.7159, 1432.076
602.1981, 1440.430
602.6802, 1446.730
603.1623, 1443.385
603.6444, 1438.293
604.1265, 1440.682
604.6086, 1449.926
605.0908, 1456.554
605.5729, 1455.712
606.0550, 1454.094
606.5371, 1457.378
607.0192, 1462.801
607.5013, 1465.118
607.9835, 1462.683
608.4656, 1456.686
608.9477, 1446.854
609.4298, 1433.173
609.9119, 1430.434
610.3940, 1446.884
610.8762, 1458.894
611.3583, 1453.467
611.8404, 1442.240
612.3225, 1436.544
612.8046, 1437.647
613.2867, 1439.411
613.7689, 1439.891
614.2510, 1439.219
614.7331, 1435.520
615.2152, 1430.568
615.6973, 1430.673
616.1794, 1438.736
616.6616, 1450.429
617.1437, 1460.017
617.6258, 1469.129
618.1079, 1467.024
618.5900, 1435.053
619.0721, 1415.651
619.5543, 1436.217
620.0364, 1471.867
620.5185, 1488.646
621.0006, 1478.144
621.4827, 1462.978
621.9648, 1458.598
622.4470, 1457.286
622.9291, 1443.698
623.4112, 1419.988
623.8933, 1406.485
624.3754, 1415.332
624.8575, 1435.481
625.3397, 1441.957
625.8218, 1424.055
626.3039, 1420.615
626.7860, 1453.518
627.2681, 1478.453
627.7502, 1470.785
628.2324, 1446.350
628.7145, 1432.889
629.1966, 1440.295
629.6787, 1449.941
630.1608, 1446.458
630.6429, 1435.785
631.1251, 1428.013
631.6072, 1424.264
632.0893, 1424.452
632.5714, 1429.180
633.0535, 1436.362
633.5356, 1440.308
634.0178, 1440.298
634.4999, 1438.383
634.9820, 1433.234
