##NAMES=Robinsonite
##RRUFFID=R060970
##IDEAL CHEMISTRY=Pb^2+^_4_Sb^3+^_6_S^2-^_13_
##LOCALITY=Mala Zelezna, Zilinsky Kraj, Slovakia
##OWNER=RRUFF
##SOURCE=Michael Scott
##DESCRIPTION=Mass of randomly oriented silvery-gray striated prismatic crystals
##STATUS=The identification of this mineral has been confirmed by single-crystal X-ray diffraction.
##URL=rruff.info/R060970
112.8440, 224.0259
113.3262, 235.0330
113.8083, 248.1894
114.2904, 264.6820
114.7725, 278.8836
115.2546, 286.1350
115.7367, 290.6462
116.2189, 299.4745
116.7010, 320.9546
117.1831, 343.5704
117.6652, 360.3358
118.1473, 367.0951
118.6294, 372.4207
119.1116, 378.5667
119.5937, 386.0458
120.0758, 396.8703
120.5579, 412.8163
121.0400, 432.6241
121.5221, 454.7332
122.0043, 483.7864
122.4864, 511.7206
122.9685, 532.2888
123.4506, 545.4902
123.9327, 553.2961
124.4148, 553.5197
124.8969, 549.2885
125.3791, 547.2917
125.8612, 552.0506
126.3433, 560.5765
126.8254, 569.2094
127.3075, 578.2277
127.7896, 585.3827
128.2718, 585.4099
128.7539, 579.5847
129.2360, 576.2562
129.7181, 583.6779
130.2002, 598.4019
130.6823, 609.1169
131.1645, 613.7473
131.6466, 613.5181
132.1287, 609.0392
132.6108, 599.8904
133.0929, 592.1166
133.5750, 591.9793
134.0572, 599.3606
134.5393, 607.3719
135.0214, 613.9371
135.5035, 619.5513
135.9856, 628.2963
136.4677, 641.0889
136.9499, 654.5968
137.4320, 662.7543
137.9141, 663.7031
138.3962, 668.4589
138.8783, 685.3604
139.3604, 718.3350
139.8426, 734.2252
140.3247, 727.0911
140.8068, 706.9051
141.2889, 696.4517
141.7710, 698.2403
142.2531, 705.0186
142.7353, 714.1774
143.2174, 728.1823
143.6995, 738.0396
144.1816, 741.7039
144.6637, 740.0543
145.1458, 740.0097
145.6280, 742.4810
146.1101, 745.6337
146.5922, 748.2408
147.0743, 751.4833
147.5564, 752.3694
148.0385, 749.1561
148.5207, 740.9457
149.0028, 736.3453
149.4849, 736.3728
149.9670, 739.6896
150.4491, 744.7080
150.9312, 758.6479
151.4134, 767.6758
151.8955, 766.7608
152.3776, 748.7270
152.8597, 738.6942
153.3418, 740.5062
153.8239, 751.0609
154.3061, 764.4635
154.7882, 790.4066
155.2703, 811.2911
155.7524, 819.3486
156.2345, 804.3605
156.7166, 789.6264
157.1988, 776.0858
157.6809, 765.0801
158.1630, 761.7396
158.6451, 773.9161
159.1272, 790.5101
159.6093, 804.4545
160.0915, 815.7300
160.5736, 822.2209
161.0557, 819.5475
161.5378, 808.4208
162.0199, 801.9111
162.5020, 809.9547
162.9841, 823.5850
163.4663, 833.5805
163.9484, 834.4232
164.4305, 832.6649
164.9126, 831.3452
165.3947, 830.6836
165.8768, 830.4368
166.3590, 830.0004
166.8411, 829.9848
167.3232, 831.3479
167.8053, 836.2613
168.2874, 841.7668
168.7695, 845.9722
169.2517, 849.0572
169.7338, 849.5652
170.2159, 843.2462
170.6980, 832.9500
171.1801, 826.1539
171.6622, 831.3971
172.1444, 840.8369
172.6265, 844.8026
173.1086, 838.2014
173.5907, 830.3766
174.0728, 831.6696
174.5549, 840.6418
175.0371, 848.8598
175.5192, 848.2983
176.0013, 843.2927
176.4834, 841.1626
176.9655, 845.3272
177.4476, 852.4543
177.9298, 859.0664
178.4119, 865.1928
178.8940, 869.8105
179.3761, 871.7285
179.8582, 871.4881
180.3403, 870.5536
180.8225, 867.3434
181.3046, 864.2824
181.7867, 867.7777
182.2688, 878.6681
182.7509, 889.3763
183.2330, 890.0223
183.7152, 882.3209
184.1973, 874.7217
184.6794, 873.7891
185.1615, 876.2948
185.6436, 869.3405
186.1257, 848.7335
186.6079, 829.3682
187.0900, 838.3828
187.5721, 873.6808
188.0542, 906.6387
188.5363, 918.3806
189.0184, 912.6594
189.5006, 909.7672
189.9827, 912.5697
190.4648, 917.9462
190.9469, 919.3555
191.4290, 916.6003
191.9111, 913.9246
192.3932, 914.8806
192.8754, 919.1627
193.3575, 922.1880
193.8396, 922.6647
194.3217, 921.8055
194.8038, 922.8423
195.2859, 925.7561
195.7681, 930.8038
196.2502, 941.0985
196.7323, 956.9218
197.2144, 965.3645
197.6965, 961.3062
198.1786, 947.4540
198.6608, 937.5353
199.1429, 931.7844
199.6250, 929.4881
200.1071, 930.5038
200.5892, 935.1354
201.0714, 940.2814
201.5535, 944.2991
202.0356, 947.4029
202.5177, 955.9244
202.9998, 972.2835
203.4819, 989.3168
203.9641, 995.1893
204.4462, 987.3081
204.9283, 980.4326
205.4104, 981.0125
205.8925, 990.1401
206.3746, 994.3680
206.8568, 992.8196
207.3389, 987.5288
207.8210, 981.5563
208.3031, 974.4017
208.7852, 968.2216
209.2673, 963.3629
209.7495, 959.2252
210.2316, 960.3751
210.7137, 969.9392
211.1958, 982.8070
211.6779, 986.4022
212.1600, 978.0728
212.6422, 967.1287
213.1243, 957.9698
213.6064, 950.9630
214.0885, 944.6716
214.5706, 939.0616
215.0527, 934.0472
215.5349, 928.6299
216.0170, 920.4582
216.4991, 916.2281
216.9812, 922.2642
217.4633, 944.8384
217.9454, 958.7929
218.4276, 959.0848
218.9097, 948.3696
219.3918, 942.3765
219.8739, 944.0012
220.3560, 946.1188
220.8381, 943.0545
221.3203, 931.8820
221.8024, 922.8145
222.2845, 916.9736
222.7666, 914.3355
223.2487, 915.8604
223.7308, 925.5325
224.2129, 934.5193
224.6951, 934.8425
225.1772, 922.8192
225.6593, 909.6171
226.1414, 894.5355
226.6235, 877.5309
227.1056, 872.6924
227.5878, 888.6129
228.0699, 907.9200
228.5520, 912.1004
229.0341, 891.3156
229.5162, 874.2470
229.9983, 867.8380
230.4805, 873.3309
230.9626, 876.9083
231.4447, 878.0926
231.9268, 877.7188
232.4089, 876.7628
232.8910, 875.2191
233.3732, 873.1221
233.8553, 870.7346
234.3374, 868.3406
234.8195, 863.6357
235.3016, 854.4572
235.7837, 844.4715
236.2659, 839.3568
236.7480, 842.5594
237.2301, 844.8837
237.7122, 843.0236
238.1943, 835.2661
238.6764, 830.3579
239.1586, 828.2682
239.6407, 829.0419
240.1228, 833.5591
240.6049, 846.5070
241.0870, 855.6852
241.5691, 856.0945
242.0513, 844.2331
242.5334, 834.4728
243.0155, 825.8303
243.4976, 819.6922
243.9797, 819.7137
244.4618, 830.8549
244.9440, 840.2760
245.4261, 842.5125
245.9082, 834.0161
246.3903, 828.0295
246.8724, 826.9113
247.3545, 827.4834
247.8367, 821.7725
248.3188, 806.1119
248.8009, 790.0452
249.2830, 777.3282
249.7651, 768.5357
250.2472, 762.0191
250.7294, 757.3832
251.2115, 755.1718
251.6936, 757.8972
252.1757, 770.9370
252.6578, 780.6724
253.1399, 779.6932
253.6220, 760.8893
254.1042, 749.2764
254.5863, 747.7403
255.0684, 753.2344
255.5505, 756.9152
256.0326, 758.8328
256.5147, 758.8135
256.9969, 756.1467
257.4790, 748.7083
257.9611, 744.4275
258.4432, 745.3359
258.9253, 749.2714
259.4074, 748.8501
259.8896, 743.0076
260.3717, 734.5584
260.8538, 723.0753
261.3359, 703.9849
261.8180, 696.5022
262.3001, 707.7875
262.7823, 730.2838
263.2644, 735.6399
263.7465, 716.2193
264.2286, 694.2207
264.7107, 683.6169
265.1928, 687.4255
265.6750, 691.8555
266.1571, 697.2281
266.6392, 702.1936
267.1213, 701.2169
267.6034, 692.3920
268.0855, 681.8479
268.5677, 672.3098
269.0498, 662.7905
269.5319, 659.2857
270.0140, 664.6884
270.4961, 675.7702
270.9782, 680.7264
271.4604, 678.4547
271.9425, 673.1197
272.4246, 666.0994
272.9067, 656.3763
273.3888, 651.4573
273.8709, 654.0099
274.3531, 661.0759
274.8352, 662.3764
275.3173, 656.7056
275.7994, 649.0746
276.2815, 641.3638
276.7636, 633.1164
277.2458, 631.1015
277.7279, 638.7986
278.2100, 651.6910
278.6921, 655.3756
279.1742, 648.6047
279.6563, 638.2764
280.1385, 627.6573
280.6206, 616.7714
281.1027, 609.6071
281.5848, 607.8972
282.0669, 609.3468
282.5490, 608.0725
283.0312, 604.0093
283.5133, 597.7408
283.9954, 587.8353
284.4775, 574.5151
284.9596, 565.7219
285.4417, 563.1523
285.9239, 564.7920
286.4060, 566.8839
286.8881, 569.5075
287.3702, 570.9734
287.8523, 568.0975
288.3344, 561.8824
288.8166, 561.1694
289.2987, 568.8442
289.7808, 580.1569
290.2629, 585.8862
290.7450, 586.0410
291.2271, 583.8009
291.7093, 580.2346
292.1914, 575.7750
292.6735, 572.1136
293.1556, 569.3382
293.6377, 567.8784
294.1198, 569.1057
294.6020, 572.8473
295.0841, 576.8655
295.5662, 581.5262
296.0483, 585.5076
296.5304, 584.2515
297.0125, 575.8133
297.4947, 564.9859
297.9768, 556.8688
298.4589, 551.6663
298.9410, 550.8107
299.4231, 557.6980
299.9052, 569.2455
300.3873, 579.9945
300.8694, 589.8300
301.3516, 596.8265
301.8337, 597.5634
302.3158, 593.1714
302.7979, 588.0698
303.2800, 583.6930
303.7621, 580.4856
304.2443, 579.4958
304.7264, 581.5153
305.2085, 583.6116
305.6906, 581.5833
306.1727, 577.3018
306.6548, 575.6148
307.1370, 581.0576
307.6191, 589.5419
308.1012, 598.3623
308.5833, 608.4213
309.0654, 613.0508
309.5475, 601.4142
310.0297, 580.8096
310.5118, 565.3845
310.9939, 567.6951
311.4760, 574.3997
311.9581, 574.6118
312.4402, 565.9083
312.9224, 557.3604
313.4045, 553.9639
313.8866, 554.0429
314.3687, 555.0375
314.8508, 556.5757
315.3329, 558.2184
315.8151, 560.3397
316.2972, 563.3528
316.7793, 564.1238
317.2614, 558.2755
317.7435, 550.3161
318.2256, 545.9218
318.7078, 554.8810
319.1899, 560.7751
319.6720, 553.2759
320.1541, 530.0491
320.6362, 514.3082
321.1183, 517.4952
321.6005, 529.7204
322.0826, 540.9954
322.5647, 551.8550
323.0468, 558.9421
323.5289, 559.7794
324.0110, 553.9083
324.4932, 549.5453
324.9753, 549.8076
325.4574, 551.1408
325.9395, 550.7259
326.4216, 545.4852
326.9037, 541.5313
327.3859, 539.6932
327.8680, 539.9881
328.3501, 541.7666
328.8322, 548.9550
329.3143, 554.8805
329.7964, 555.1099
330.2786, 544.7616
330.7607, 535.6151
331.2428, 529.6378
331.7249, 526.1886
332.2070, 520.2810
332.6891, 511.5433
333.1713, 500.7133
333.6534, 487.4901
334.1355, 468.2364
334.6176, 454.6111
335.0997, 448.9682
335.5818, 449.3828
336.0640, 448.9240
336.5461, 447.9006
337.0282, 445.3603
337.5103, 440.6710
337.9924, 433.6781
338.4745, 425.0652
338.9567, 413.9497
339.4388, 401.9782
339.9209, 391.9828
340.4030, 383.6183
340.8851, 379.0047
341.3672, 382.6085
341.8494, 395.0349
342.3315, 395.9490
342.8136, 381.8904
343.2957, 362.1248
343.7778, 351.4201
344.2599, 350.0660
344.7421, 350.6645
345.2242, 351.4380
345.7063, 351.8608
346.1884, 347.9720
346.6705, 339.1278
347.1526, 328.9711
347.6348, 321.0978
348.1169, 315.6064
348.5990, 313.0229
349.0811, 316.2959
349.5632, 321.9809
350.0453, 321.8574
350.5275, 315.6599
351.0096, 308.7255
351.4917, 305.9489
351.9738, 306.2117
352.4559, 306.8519
352.9380, 307.8528
353.4202, 308.1108
353.9023, 305.5824
354.3844, 300.5493
354.8665, 295.7501
355.3486, 293.4174
355.8307, 292.4189
356.3129, 291.2618
356.7950, 289.5605
357.2771, 287.5808
357.7592, 285.1133
358.2413, 282.3991
358.7234, 280.3954
359.2056, 280.7646
359.6877, 281.4091
360.1698, 280.1584
360.6519, 274.3307
361.1340, 270.8297
361.6161, 274.2245
362.0982, 282.1581
362.5804, 289.2604
363.0625, 294.4953
363.5446, 297.8540
364.0267, 298.9988
364.5088, 297.0570
364.9909, 295.2422
365.4731, 294.3308
365.9552, 293.9255
366.4373, 293.4287
366.9194, 292.5922
367.4015, 291.8153
367.8836, 291.4645
368.3658, 291.9442
368.8479, 291.1489
369.3300, 289.0055
369.8121, 285.6012
370.2942, 280.8465
370.7763, 271.5509
371.2585, 265.4240
371.7406, 265.3850
372.2227, 271.3395
372.7048, 272.8991
373.1869, 268.1763
373.6690, 261.3395
374.1512, 254.2951
374.6333, 244.2150
375.1154, 242.8929
375.5975, 255.4547
376.0796, 277.3614
376.5617, 288.7847
377.0439, 287.8705
377.5260, 282.4677
378.0081, 276.7396
378.4902, 270.5880
378.9723, 264.7205
379.4544, 258.3730
379.9366, 253.5088
380.4187, 255.5649
380.9008, 264.7112
381.3829, 272.5532
381.8650, 274.5067
382.3471, 271.4652
382.8293, 265.8733
383.3114, 256.8875
383.7935, 249.5033
384.2756, 251.5628
384.7577, 261.0312
385.2398, 269.4875
385.7220, 274.3136
386.2041, 275.7117
386.6862, 272.5922
387.1683, 264.9451
387.6504, 257.8332
388.1325, 256.3927
388.6147, 258.0004
389.0968, 258.3717
389.5789, 253.8413
390.0610, 249.9001
390.5431, 251.9356
391.0252, 258.9052
391.5074, 265.3300
391.9895, 269.6646
392.4716, 271.5470
392.9537, 270.4205
393.4358, 264.6969
393.9179, 258.5876
394.4001, 252.1915
394.8822, 246.5000
395.3643, 243.8020
395.8464, 247.2992
396.3285, 251.8975
396.8106, 255.3899
397.2928, 257.4297
397.7749, 258.8275
398.2570, 261.3539
398.7391, 262.7964
399.2212, 260.0719
399.7033, 245.7888
400.1855, 235.5222
400.6676, 233.8325
401.1497, 241.5224
401.6318, 245.9130
402.1139, 244.1478
402.5960, 241.9396
403.0782, 244.8329
403.5603, 256.3709
404.0424, 264.1313
404.5245, 265.5560
405.0066, 261.9396
405.4887, 258.8932
405.9709, 256.3753
406.4530, 254.5329
406.9351, 253.5239
407.4172, 253.3707
407.8993, 253.9050
408.3814, 255.7639
408.8636, 257.1767
409.3457, 253.3429
409.8278, 244.4967
410.3099, 238.0536
410.7920, 240.3050
411.2741, 247.9947
411.7563, 250.0350
412.2384, 245.5015
412.7205, 240.2961
413.2026, 241.2928
413.6847, 246.4520
414.1668, 250.3880
414.6490, 249.8855
415.1311, 248.0960
415.6132, 249.9150
416.0953, 254.7181
416.5774, 256.6628
417.0595, 249.6792
417.5417, 238.9303
418.0238, 229.4525
418.5059, 221.4189
418.9880, 216.8159
419.4701, 218.7403
419.9522, 225.1581
420.4344, 230.7738
420.9165, 234.7236
421.3986, 236.5350
421.8807, 235.0490
422.3628, 228.1976
422.8449, 224.4386
423.3270, 227.2510
423.8091, 233.4147
424.2913, 238.9428
424.7734, 244.9465
425.2555, 248.5906
425.7376, 248.9375
426.2197, 245.9062
426.7018, 241.7798
427.1840, 233.3006
427.6661, 227.0453
428.1482, 229.2021
428.6303, 245.5064
429.1124, 255.1794
429.5945, 254.4308
430.0767, 246.4963
430.5588, 241.0971
431.0409, 238.7176
431.5230, 237.1757
432.0051, 235.7028
432.4872, 234.2714
432.9694, 231.1961
433.4515, 225.6561
433.9336, 220.6385
434.4157, 221.0669
434.8978, 226.3120
435.3799, 231.6596
435.8621, 235.8485
436.3442, 238.6735
436.8263, 238.8252
437.3084, 236.4026
437.7905, 234.4351
438.2726, 235.8966
438.7548, 239.3167
439.2369, 242.6723
439.7190, 246.6909
440.2011, 248.4871
440.6832, 241.7119
441.1653, 230.1091
441.6475, 224.7269
442.1296, 241.8817
442.6117, 259.4943
443.0938, 260.6548
443.5759, 238.0554
444.0580, 218.3838
444.5402, 210.5860
445.0223, 210.8138
445.5044, 214.4635
445.9865, 225.3845
446.4686, 234.9012
446.9507, 241.6055
447.4329, 245.4977
447.9150, 244.8203
448.3971, 234.0270
448.8792, 223.5540
449.3613, 220.4043
449.8434, 229.5366
450.3256, 235.1458
450.8077, 235.4531
451.2898, 232.0143
451.7719, 228.5388
452.2540, 225.0064
452.7361, 221.5620
453.2183, 217.5190
453.7004, 212.9446
454.1825, 212.2352
454.6646, 216.1355
455.1467, 221.2335
455.6288, 223.5363
456.1110, 223.3338
456.5931, 222.4741
457.0752, 221.8484
457.5573, 220.6582
458.0394, 215.0010
458.5215, 205.7724
459.0037, 201.3336
459.4858, 213.2619
459.9679, 231.6674
460.4500, 242.4051
460.9321, 242.1187
461.4142, 237.4962
461.8964, 229.7181
462.3785, 221.2425
462.8606, 216.6198
463.3427, 221.0679
463.8248, 226.9483
464.3069, 230.4244
464.7891, 231.2299
465.2712, 231.6805
465.7533, 232.5384
466.2354, 233.1805
466.7175, 233.1080
467.1996, 231.1369
467.6818, 229.8192
468.1639, 229.8295
468.6460, 230.6523
469.1281, 230.5259
469.6102, 229.1822
470.0923, 227.2951
470.5745, 225.1814
471.0566, 222.9790
471.5387, 218.8286
472.0208, 210.3009
472.5029, 203.9438
472.9850, 212.4065
473.4672, 237.1402
473.9493, 250.0705
474.4314, 237.7692
474.9135, 211.6734
475.3956, 206.7236
475.8777, 222.6992
476.3599, 239.2129
476.8420, 238.4237
477.3241, 227.0825
477.8062, 219.7635
478.2883, 219.1482
478.7704, 221.0956
479.2526, 222.3574
479.7347, 223.2098
480.2168, 224.2212
480.6989, 226.7952
481.1810, 228.7283
481.6631, 227.7722
482.1453, 223.9468
482.6274, 221.2006
483.1095, 221.9095
483.5916, 223.9377
484.0737, 225.6496
484.5558, 226.6655
485.0379, 227.4585
485.5201, 229.8191
486.0022, 232.0248
486.4843, 229.4408
486.9664, 217.9975
487.4485, 206.6424
487.9306, 196.7363
488.4128, 187.4724
488.8949, 187.7951
489.3770, 201.5621
489.8591, 218.7239
490.3412, 229.6785
490.8233, 234.3252
491.3055, 233.8714
491.7876, 226.9902
492.2697, 216.6194
492.7518, 208.7781
493.2339, 203.5468
493.7160, 201.9935
494.1982, 208.8015
494.6803, 219.3852
495.1624, 220.5277
495.6445, 210.0539
496.1266, 200.9843
496.6087, 209.9017
497.0909, 227.5925
497.5730, 238.5404
498.0551, 231.0202
498.5372, 220.2178
499.0193, 215.7386
499.5014, 216.4326
499.9836, 217.1451
500.4657, 214.5041
500.9478, 212.2654
501.4299, 213.5191
501.9120, 222.3671
502.3941, 225.4470
502.8763, 214.2119
503.3584, 198.6310
503.8405, 191.9538
504.3226, 201.2526
504.8047, 208.7628
505.2868, 211.1950
505.7690, 208.9922
506.2511, 205.3224
506.7332, 199.3347
507.2153, 193.9697
507.6974, 190.7140
508.1795, 189.5745
508.6617, 192.1602
509.1438, 199.7570
509.6259, 207.9971
510.1080, 210.4108
510.5901, 207.6098
511.0722, 203.0787
511.5544, 196.7518
512.0365, 190.4399
512.5186, 186.9161
513.0007, 186.0281
513.4828, 186.7115
513.9650, 190.0162
514.4471, 193.6551
514.9292, 194.4835
515.4113, 189.8444
515.8934, 187.7371
516.3755, 195.0848
516.8576, 206.7407
517.3397, 214.6611
517.8218, 215.3220
518.3040, 213.4826
518.7861, 208.1545
519.2682, 199.2959
519.7503, 197.3988
520.2324, 210.5710
520.7145, 222.4570
521.1967, 222.0060
521.6788, 201.9425
522.1609, 191.1991
522.6430, 193.2227
523.1251, 201.9878
523.6072, 207.8075
524.0894, 210.6048
524.5715, 211.1959
525.0536, 208.8759
525.5357, 204.8476
526.0178, 204.0828
526.4999, 206.5307
526.9821, 206.4675
527.4642, 194.8489
527.9463, 178.6485
528.4284, 171.3582
528.9105, 176.7901
529.3926, 185.2486
529.8748, 189.6579
530.3569, 191.4945
530.8390, 193.2019
531.3211, 199.0874
531.8032, 201.9619
532.2853, 195.4605
532.7675, 180.5519
533.2496, 171.8672
533.7317, 179.5201
534.2138, 188.8100
534.6959, 191.3610
535.1780, 182.0875
535.6602, 176.2173
536.1423, 174.5502
536.6244, 175.5748
537.1065, 176.8226
537.5886, 177.5297
538.0707, 181.4887
538.5529, 191.4313
539.0350, 205.0003
539.5171, 212.4548
539.9992, 213.6252
540.4813, 211.0914
540.9634, 204.1242
541.4456, 194.8039
541.9277, 189.0725
542.4098, 187.4501
542.8919, 189.6010
543.3740, 200.0138
543.8561, 213.2859
544.3383, 219.8592
544.8204, 209.5105
545.3025, 197.4507
545.7846, 193.0845
546.2667, 194.8264
546.7488, 196.0308
547.2310, 191.5572
547.7131, 188.3459
548.1952, 191.4358
548.6773, 206.4464
549.1594, 211.0692
549.6415, 195.8190
550.1237, 176.4357
550.6058, 169.0225
551.0879, 178.7951
551.5700, 187.2669
552.0521, 192.3352
552.5342, 194.2147
553.0164, 192.3010
553.4985, 186.0636
553.9806, 181.2030
554.4627, 182.2047
554.9448, 187.1643
555.4269, 188.1213
555.9091, 184.8598
556.3912, 181.1044
556.8733, 180.3336
557.3554, 181.3496
557.8375, 182.2511
558.3196, 182.6378
558.8018, 182.6518
559.2839, 182.7168
559.7660, 182.4631
560.2481, 181.1428
560.7302, 174.7287
561.2123, 170.7004
561.6945, 173.3409
562.1766, 183.2128
562.6587, 190.8493
563.1408, 196.7667
563.6229, 199.2505
564.1050, 196.4741
564.5872, 184.5668
565.0693, 177.7708
565.5514, 177.6564
566.0335, 181.0319
566.5156, 183.7251
566.9977, 185.8436
567.4799, 185.0026
567.9620, 178.9200
568.4441, 170.4550
568.9262, 165.8869
569.4083, 165.1797
569.8904, 168.3477
570.3726, 180.4895
570.8547, 194.2584
571.3368, 198.8864
571.8189, 192.2229
572.3010, 185.3712
572.7831, 188.3254
573.2653, 193.6341
573.7474, 193.1020
574.2295, 171.2146
574.7116, 158.1758
575.1937, 169.5132
575.6758, 195.7525
576.1580, 206.5805
576.6401, 188.3578
577.1222, 171.7351
577.6043, 166.6920
578.0864, 173.7448
578.5685, 177.7632
579.0507, 177.8107
579.5328, 177.3960
580.0149, 180.3302
580.4970, 186.2717
580.9791, 189.2827
581.4612, 188.5350
581.9434, 185.1384
582.4255, 177.6435
582.9076, 168.3638
583.3897, 164.3680
583.8718, 175.2327
584.3539, 187.3185
584.8361, 187.5294
585.3182, 177.7380
585.8003, 167.5049
586.2824, 159.3844
586.7645, 153.7917
587.2466, 151.2425
587.7288, 152.2662
588.2109, 154.5520
588.6930, 159.9750
589.1751, 165.2308
589.6572, 167.3517
590.1393, 164.5809
590.6215, 162.5733
591.1036, 162.0750
591.5857, 162.5130
592.0678, 162.1102
592.5499, 160.6364
593.0320, 160.8517
593.5142, 165.0372
593.9963, 171.5929
594.4784, 175.6709
594.9605, 177.3443
595.4426, 177.5602
595.9247, 176.1870
596.4069, 174.1515
596.8890, 173.1113
597.3711, 173.9595
597.8532, 173.1973
598.3353, 165.8677
598.8174, 156.8658
599.2996, 152.1302
599.7817, 155.9290
600.2638, 161.0856
600.7459, 167.2472
601.2280, 173.8483
601.7101, 178.9604
602.1923, 183.0468
602.6744, 184.8568
603.1565, 183.8376
603.6386, 179.9818
604.1207, 173.3055
604.6028, 162.8593
605.0850, 153.5520
605.5671, 150.3424
606.0492, 152.1919
606.5313, 154.2794
607.0134, 155.6731
607.4955, 158.4600
607.9777, 167.3154
608.4598, 178.9764
608.9419, 187.3534
609.4240, 189.4975
609.9061, 187.9992
