##NAMES=Rockbridgeite
##RRUFFID=R070594
##IDEAL CHEMISTRY=(Fe^2+^_0.5_Fe^3+^_0.5_)_2_Fe^3+^_3_(PO_4_)_3_(OH)_5_
##LOCALITY=Llallagua, Bustillos, Potosi, Bolivia
##OWNER=RRUFF
##SOURCE=James Shigley
##DESCRIPTION=Radiating aggregate of black bladed crystals associated with pyrite
##STATUS=The identification of this mineral has been confirmed only by X-ray diffraction
##URL=rruff.info/R070594
132.0134, 1487.271
132.4955, 1492.594
132.9776, 1500.154
133.4597, 1509.304
133.9418, 1525.222
134.4240, 1557.080
134.9061, 1606.541
135.3882, 1645.113
135.8703, 1662.885
136.3524, 1663.635
136.8345, 1678.635
137.3167, 1711.187
137.7988, 1751.683
138.2809, 1789.393
138.7630, 1825.161
139.2451, 1856.304
139.7272, 1882.352
140.2094, 1904.316
140.6915, 1916.325
141.1736, 1914.490
141.6557, 1905.050
142.1378, 1901.516
142.6199, 1905.137
143.1021, 1908.438
143.5842, 1899.615
144.0663, 1888.410
144.5484, 1885.947
145.0305, 1894.490
145.5126, 1912.635
145.9948, 1932.361
146.4769, 1962.546
146.9590, 1987.371
147.4411, 1994.804
147.9232, 1960.621
148.4053, 1938.587
148.8875, 1941.302
149.3696, 1975.800
149.8517, 1994.180
150.3338, 1987.398
150.8159, 1968.373
151.2980, 1951.837
151.7802, 1941.616
152.2623, 1931.080
152.7444, 1916.738
153.2265, 1890.578
153.7086, 1877.244
154.1908, 1894.179
154.6729, 1926.219
155.1550, 1939.466
155.6371, 1913.781
156.1192, 1877.422
156.6013, 1844.961
157.0834, 1816.282
157.5656, 1794.170
158.0477, 1783.151
158.5298, 1781.275
159.0119, 1775.985
159.4940, 1757.383
159.9761, 1736.247
160.4583, 1721.722
160.9404, 1724.132
161.4225, 1727.361
161.9046, 1725.062
162.3867, 1716.890
162.8688, 1705.368
163.3510, 1684.494
163.8331, 1662.214
164.3152, 1649.788
164.7973, 1665.139
165.2794, 1683.475
165.7615, 1686.118
166.2437, 1666.225
166.7258, 1645.830
167.2079, 1639.346
167.6900, 1643.196
168.1721, 1648.439
168.6542, 1650.332
169.1364, 1651.065
169.6185, 1653.430
170.1006, 1660.625
170.5827, 1665.903
171.0648, 1661.687
171.5469, 1649.273
172.0291, 1636.753
172.5112, 1630.647
172.9933, 1627.825
173.4754, 1623.104
173.9575, 1609.531
174.4396, 1596.411
174.9218, 1599.185
175.4039, 1618.324
175.8860, 1634.296
176.3681, 1625.323
176.8502, 1599.098
177.3323, 1575.663
177.8144, 1561.643
178.2966, 1556.280
178.7787, 1562.061
179.2608, 1581.630
179.7429, 1600.474
180.2250, 1597.458
180.7071, 1576.306
181.1893, 1556.164
181.6714, 1551.744
182.1535, 1556.783
182.6356, 1553.586
183.1177, 1537.411
183.5998, 1516.917
184.0820, 1505.443
184.5641, 1502.711
185.0462, 1505.718
185.5283, 1518.200
186.0104, 1536.582
186.4925, 1543.401
186.9747, 1530.339
187.4568, 1506.563
187.9389, 1496.822
188.4210, 1502.209
188.9031, 1509.692
189.3852, 1503.533
189.8674, 1485.472
190.3495, 1474.541
190.8316, 1482.175
191.3137, 1502.342
191.7958, 1504.247
192.2779, 1484.306
192.7601, 1458.671
193.2422, 1449.140
193.7243, 1456.493
194.2064, 1462.628
194.6885, 1458.400
195.1706, 1444.188
195.6528, 1435.812
196.1349, 1435.069
196.6170, 1437.034
197.0991, 1430.887
197.5812, 1415.009
198.0633, 1402.830
198.5455, 1404.622
199.0276, 1421.608
199.5097, 1430.371
199.9918, 1426.242
200.4739, 1415.396
200.9560, 1416.111
201.4381, 1431.333
201.9203, 1447.057
202.4024, 1454.435
202.8845, 1452.991
203.3666, 1446.498
203.8487, 1433.666
204.3308, 1416.305
204.8130, 1403.572
205.2951, 1396.266
205.7772, 1391.797
206.2593, 1387.035
206.7414, 1380.643
207.2235, 1379.986
207.7057, 1388.325
208.1878, 1405.191
208.6699, 1419.356
209.1520, 1432.601
209.6341, 1440.495
210.1162, 1435.924
210.5984, 1413.571
211.0805, 1394.590
211.5626, 1384.377
212.0447, 1383.188
212.5268, 1389.681
213.0089, 1407.967
213.4911, 1430.004
213.9732, 1441.308
214.4553, 1436.508
214.9374, 1433.416
215.4195, 1439.606
215.9016, 1458.467
216.3838, 1474.227
216.8659, 1488.421
217.3480, 1498.683
217.8301, 1497.892
218.3122, 1478.717
218.7943, 1461.914
219.2765, 1457.842
219.7586, 1471.880
220.2407, 1485.064
220.7228, 1498.389
221.2049, 1510.315
221.6870, 1513.975
222.1691, 1503.019
222.6513, 1493.522
223.1334, 1496.364
223.6155, 1518.794
224.0976, 1537.166
224.5797, 1549.751
225.0618, 1556.620
225.5440, 1558.208
226.0261, 1551.167
226.5082, 1542.967
226.9903, 1539.346
227.4724, 1542.012
227.9545, 1545.663
228.4367, 1548.930
228.9188, 1551.857
229.4009, 1559.400
229.8830, 1576.073
230.3651, 1592.652
230.8472, 1599.721
231.3294, 1594.141
231.8115, 1584.521
232.2936, 1569.740
232.7757, 1548.124
233.2578, 1539.273
233.7399, 1551.619
234.2221, 1570.175
234.7042, 1576.705
235.1863, 1566.270
235.6684, 1552.262
236.1505, 1536.886
236.6326, 1518.520
237.1148, 1506.845
237.5969, 1506.381
238.0790, 1509.990
238.5611, 1505.567
239.0432, 1486.266
239.5253, 1469.422
240.0075, 1461.090
240.4896, 1464.009
240.9717, 1467.546
241.4538, 1473.159
241.9359, 1478.746
242.4180, 1479.256
242.9002, 1469.763
243.3823, 1462.387
243.8644, 1463.680
244.3465, 1483.487
244.8286, 1489.372
245.3107, 1475.066
245.7928, 1447.888
246.2750, 1429.250
246.7571, 1422.843
247.2392, 1419.479
247.7213, 1413.656
248.2034, 1399.506
248.6855, 1396.989
249.1677, 1412.859
249.6498, 1441.304
250.1319, 1456.887
250.6140, 1452.700
251.0961, 1445.661
251.5782, 1447.101
252.0604, 1466.005
252.5425, 1472.187
253.0246, 1456.998
253.5067, 1425.680
253.9888, 1408.136
254.4709, 1408.535
254.9531, 1417.117
255.4352, 1429.471
255.9173, 1451.975
256.3994, 1462.361
256.8815, 1452.910
257.3636, 1426.430
257.8458, 1412.956
258.3279, 1415.727
258.8100, 1426.793
259.2921, 1441.779
259.7742, 1465.759
260.2563, 1480.470
260.7385, 1480.450
261.2206, 1466.533
261.7027, 1456.865
262.1848, 1452.333
262.6669, 1450.766
263.1490, 1450.764
263.6312, 1453.422
264.1133, 1454.438
264.5954, 1452.206
265.0775, 1446.880
265.5596, 1443.724
266.0417, 1442.707
266.5239, 1444.022
267.0060, 1449.537
267.4881, 1462.333
267.9702, 1468.575
268.4523, 1459.917
268.9344, 1436.262
269.4166, 1435.732
269.8987, 1466.741
270.3808, 1506.921
270.8629, 1529.539
271.3450, 1531.702
271.8271, 1527.941
272.3093, 1519.335
272.7914, 1505.843
273.2735, 1504.458
273.7556, 1520.060
274.2377, 1539.069
274.7198, 1539.796
275.2020, 1517.945
275.6841, 1503.152
276.1662, 1507.701
276.6483, 1531.429
277.1304, 1551.060
277.6125, 1566.886
278.0946, 1578.137
278.5768, 1582.925
279.0589, 1580.939
279.5410, 1575.976
280.0231, 1568.279
280.5052, 1558.094
280.9873, 1549.648
281.4695, 1542.835
281.9516, 1538.074
282.4337, 1536.723
282.9158, 1538.884
283.3979, 1541.321
283.8800, 1543.045
284.3622, 1543.995
284.8443, 1543.090
285.3264, 1539.717
285.8085, 1536.175
286.2906, 1535.768
286.7727, 1538.464
287.2549, 1542.698
287.7370, 1549.415
288.2191, 1557.673
288.7012, 1562.808
289.1833, 1565.050
289.6654, 1562.957
290.1476, 1548.911
290.6297, 1524.875
291.1118, 1509.398
291.5939, 1520.164
292.0760, 1547.725
292.5581, 1559.454
293.0403, 1551.540
293.5224, 1536.669
294.0045, 1531.521
294.4866, 1534.497
294.9687, 1536.200
295.4508, 1530.534
295.9330, 1520.230
296.4151, 1510.765
296.8972, 1502.169
297.3793, 1496.105
297.8614, 1495.339
298.3435, 1499.097
298.8257, 1504.609
299.3078, 1513.574
299.7899, 1522.547
300.2720, 1524.274
300.7541, 1516.979
301.2362, 1508.445
301.7184, 1507.106
302.2005, 1511.033
302.6826, 1514.707
303.1647, 1516.713
303.6468, 1516.267
304.1289, 1512.001
304.6111, 1503.417
305.0932, 1492.797
305.5753, 1478.245
306.0574, 1462.754
306.5395, 1453.457
307.0216, 1457.639
307.5038, 1467.392
307.9859, 1476.642
308.4680, 1485.672
308.9501, 1490.103
309.4322, 1482.141
309.9143, 1467.530
310.3965, 1457.532
310.8786, 1459.070
311.3607, 1465.772
311.8428, 1474.771
312.3249, 1486.939
312.8070, 1495.181
313.2892, 1490.225
313.7713, 1479.548
314.2534, 1475.484
314.7355, 1494.602
315.2176, 1512.893
315.6997, 1515.773
316.1819, 1498.624
316.6640, 1481.097
317.1461, 1466.162
317.6282, 1456.405
318.1103, 1455.495
318.5924, 1477.089
319.0746, 1497.239
319.5567, 1504.697
320.0388, 1495.771
320.5209, 1487.750
321.0030, 1484.405
321.4851, 1484.283
321.9673, 1485.568
322.4494, 1490.657
322.9315, 1494.568
323.4136, 1495.301
323.8957, 1491.865
324.3778, 1489.509
324.8599, 1486.168
325.3420, 1485.081
325.8242, 1489.954
326.3063, 1512.965
326.7884, 1530.054
327.2705, 1533.236
327.7526, 1518.546
328.2347, 1512.641
328.7169, 1521.023
329.1990, 1535.271
329.6811, 1547.057
330.1632, 1559.029
330.6453, 1564.745
331.1274, 1561.063
331.6096, 1546.878
332.0917, 1536.684
332.5738, 1531.406
333.0559, 1529.302
333.5380, 1529.673
334.0201, 1536.006
334.5023, 1536.943
334.9844, 1527.677
335.4665, 1508.864
335.9486, 1498.532
336.4307, 1498.708
336.9128, 1504.167
337.3950, 1511.581
337.8771, 1522.417
338.3592, 1528.597
338.8413, 1527.023
339.3234, 1519.336
339.8055, 1515.797
340.2877, 1517.767
340.7698, 1519.539
341.2519, 1515.505
341.7340, 1505.380
342.2161, 1494.913
342.6982, 1483.681
343.1804, 1473.662
343.6625, 1472.945
344.1446, 1482.445
344.6267, 1491.622
345.1088, 1490.240
345.5909, 1480.205
346.0731, 1473.730
346.5552, 1474.065
347.0373, 1477.999
347.5194, 1480.493
348.0015, 1481.519
348.4836, 1480.890
348.9658, 1476.153
349.4479, 1469.672
349.9300, 1468.205
350.4121, 1475.110
350.8942, 1482.929
351.3763, 1480.570
351.8585, 1470.152
352.3406, 1461.024
352.8227, 1462.118
353.3048, 1466.802
353.7869, 1464.191
354.2690, 1449.024
354.7512, 1436.620
355.2333, 1444.071
355.7154, 1464.678
356.1975, 1481.704
356.6796, 1485.173
357.1617, 1482.269
357.6439, 1477.556
358.1260, 1470.427
358.6081, 1466.175
359.0902, 1469.559
359.5723, 1477.424
360.0544, 1484.475
360.5366, 1494.039
361.0187, 1498.093
361.5008, 1489.158
361.9829, 1462.808
362.4650, 1443.380
362.9471, 1442.533
363.4293, 1451.088
363.9114, 1457.751
364.3935, 1458.955
364.8756, 1459.090
365.3577, 1460.204
365.8398, 1463.049
366.3220, 1461.999
366.8041, 1448.582
367.2862, 1434.633
367.7683, 1431.526
368.2504, 1451.032
368.7325, 1467.880
369.2146, 1479.276
369.6967, 1485.184
370.1789, 1485.807
370.6610, 1477.799
371.1431, 1467.666
371.6252, 1460.488
372.1073, 1457.849
372.5894, 1454.596
373.0716, 1448.890
373.5537, 1441.763
374.0358, 1440.841
374.5179, 1449.288
375.0000, 1457.248
375.4821, 1455.527
375.9643, 1441.069
376.4464, 1437.163
376.9285, 1449.850
377.4106, 1471.582
377.8927, 1481.434
378.3748, 1478.278
378.8570, 1472.021
379.3391, 1468.735
379.8212, 1467.950
380.3033, 1464.048
380.7854, 1455.497
381.2675, 1446.279
381.7497, 1443.153
382.2318, 1445.632
382.7139, 1449.575
383.1960, 1453.735
383.6781, 1457.682
384.1602, 1461.169
384.6424, 1464.652
385.1245, 1464.944
385.6066, 1456.307
386.0887, 1441.538
386.5708, 1428.222
387.0529, 1420.783
387.5351, 1415.768
388.0172, 1408.662
388.4993, 1399.252
388.9814, 1392.940
389.4635, 1397.111
389.9456, 1405.567
390.4278, 1410.020
390.9099, 1408.136
391.3920, 1401.056
391.8741, 1384.089
392.3562, 1358.925
392.8383, 1342.984
393.3205, 1355.390
393.8026, 1373.296
394.2847, 1378.844
394.7668, 1351.446
395.2489, 1329.620
395.7310, 1326.101
396.2132, 1336.234
396.6953, 1340.065
397.1774, 1322.701
397.6595, 1307.649
398.1416, 1306.743
398.6237, 1337.141
399.1059, 1355.460
399.5880, 1357.692
400.0701, 1348.559
400.5522, 1337.797
401.0343, 1322.786
401.5164, 1309.802
401.9986, 1300.219
402.4807, 1293.084
402.9628, 1294.688
403.4449, 1308.435
403.9270, 1327.063
404.4091, 1341.331
404.8913, 1351.551
405.3734, 1355.259
405.8555, 1349.754
406.3376, 1336.010
406.8197, 1324.928
407.3018, 1316.695
407.7840, 1310.502
408.2661, 1303.978
408.7482, 1297.713
409.2303, 1299.261
409.7124, 1315.584
410.1945, 1337.075
410.6767, 1339.423
411.1588, 1323.691
411.6409, 1307.875
412.1230, 1308.557
412.6051, 1318.646
413.0872, 1323.399
413.5693, 1318.214
414.0515, 1310.011
414.5336, 1303.233
415.0157, 1298.705
415.4978, 1298.852
415.9799, 1308.143
416.4620, 1320.936
416.9442, 1332.187
417.4263, 1340.484
417.9084, 1349.662
418.3905, 1368.262
418.8726, 1387.776
419.3547, 1394.702
419.8369, 1367.109
420.3190, 1341.519
420.8011, 1333.790
421.2832, 1346.684
421.7653, 1362.329
422.2474, 1383.888
422.7296, 1403.456
423.2117, 1414.211
423.6938, 1404.053
424.1759, 1397.978
424.6580, 1400.549
425.1401, 1410.834
425.6223, 1418.932
426.1044, 1424.002
426.5865, 1427.967
427.0686, 1431.908
427.5507, 1435.704
428.0328, 1439.648
428.5150, 1443.326
428.9971, 1447.337
429.4792, 1452.703
429.9613, 1458.964
430.4434, 1468.573
430.9255, 1487.804
431.4077, 1516.063
431.8898, 1525.220
432.3719, 1511.613
432.8540, 1488.974
433.3361, 1473.613
433.8182, 1465.261
434.3004, 1462.075
434.7825, 1464.992
435.2646, 1471.961
435.7467, 1480.121
436.2288, 1489.484
436.7109, 1496.867
437.1931, 1496.786
437.6752, 1493.456
438.1573, 1494.600
438.6394, 1507.239
439.1215, 1518.950
439.6036, 1516.844
440.0858, 1504.355
440.5679, 1494.909
441.0500, 1499.419
441.5321, 1507.029
442.0142, 1509.065
442.4963, 1500.822
442.9785, 1494.576
443.4606, 1497.826
443.9427, 1504.967
444.4248, 1506.328
444.9069, 1482.172
445.3890, 1468.607
445.8712, 1482.853
446.3533, 1534.917
446.8354, 1567.215
447.3175, 1569.041
447.7996, 1558.429
448.2817, 1551.591
448.7639, 1550.404
449.2460, 1549.288
449.7281, 1546.687
450.2102, 1543.362
450.6923, 1545.325
451.1744, 1555.679
451.6566, 1562.963
452.1387, 1555.651
452.6208, 1532.847
453.1029, 1522.177
453.5850, 1530.310
454.0671, 1544.400
454.5493, 1536.849
455.0314, 1509.656
455.5135, 1490.201
455.9956, 1499.137
456.4777, 1524.684
456.9598, 1540.791
457.4420, 1546.086
457.9240, 1546.613
458.4062, 1546.948
458.8883, 1546.544
459.3704, 1544.358
459.8525, 1536.723
460.3346, 1529.873
460.8167, 1530.711
461.2989, 1537.801
461.7810, 1541.719
462.2631, 1533.210
462.7452, 1522.705
463.2273, 1518.840
463.7094, 1531.396
464.1916, 1537.007
464.6737, 1522.851
465.1558, 1498.017
465.6379, 1482.271
466.1200, 1482.039
466.6021, 1487.570
467.0843, 1499.807
467.5664, 1524.462
468.0485, 1528.663
468.5306, 1500.460
469.0127, 1462.500
469.4948, 1437.865
469.9770, 1428.508
470.4591, 1427.485
470.9412, 1436.960
471.4233, 1453.440
471.9054, 1460.005
472.3875, 1455.723
472.8697, 1446.585
473.3518, 1435.623
473.8339, 1423.188
474.3160, 1410.491
474.7981, 1397.182
475.2802, 1385.123
475.7624, 1378.100
476.2445, 1374.998
476.7266, 1371.296
477.2087, 1363.379
477.6908, 1354.305
478.1729, 1347.364
478.6551, 1342.672
479.1372, 1340.071
479.6193, 1341.719
480.1014, 1344.553
480.5835, 1345.041
481.0656, 1342.250
481.5478, 1336.613
482.0299, 1325.055
482.5120, 1309.745
482.9941, 1299.754
483.4762, 1302.394
483.9583, 1306.901
484.4405, 1308.901
484.9226, 1311.096
485.4047, 1303.837
485.8868, 1276.088
486.3689, 1244.186
486.8510, 1233.362
487.3332, 1258.826
487.8153, 1274.573
488.2974, 1264.789
488.7795, 1231.740
489.2616, 1216.341
489.7437, 1222.979
490.2259, 1233.274
490.7080, 1230.480
491.1901, 1215.309
491.6722, 1202.489
492.1543, 1193.672
492.6364, 1188.874
493.1186, 1191.132
493.6007, 1198.881
494.0828, 1202.688
494.5649, 1189.561
495.0470, 1172.441
495.5291, 1173.870
496.0113, 1196.987
496.4934, 1216.147
496.9755, 1206.199
497.4576, 1183.276
497.9397, 1167.885
498.4218, 1173.465
498.9040, 1182.007
499.3861, 1187.860
499.8682, 1190.891
500.3503, 1190.658
500.8324, 1188.263
501.3145, 1181.677
501.7967, 1168.824
502.2788, 1142.270
502.7609, 1124.013
503.2430, 1114.875
503.7251, 1113.496
504.2072, 1118.923
504.6893, 1135.057
505.1714, 1149.183
505.6536, 1158.404
506.1357, 1162.816
506.6178, 1161.863
507.0999, 1153.849
507.5820, 1147.353
508.0641, 1153.525
508.5463, 1169.960
509.0284, 1174.842
509.5105, 1162.106
509.9926, 1143.055
510.4747, 1132.871
510.9568, 1130.269
511.4390, 1130.246
511.9211, 1133.385
512.4032, 1136.007
512.8853, 1131.781
513.3674, 1120.203
513.8495, 1112.617
514.3317, 1120.899
514.8138, 1134.298
515.2959, 1142.062
515.7780, 1135.344
516.2601, 1129.104
516.7422, 1127.971
517.2244, 1130.602
517.7065, 1132.024
518.1886, 1129.973
518.6707, 1128.222
519.1528, 1128.256
519.6349, 1130.787
520.1171, 1132.355
520.5992, 1132.701
521.0813, 1132.395
521.5634, 1132.593
522.0455, 1133.907
522.5276, 1132.081
523.0098, 1124.563
523.4919, 1114.130
523.9740, 1110.243
524.4561, 1112.966
524.9382, 1117.301
525.4203, 1120.278
525.9025, 1122.292
526.3846, 1125.820
526.8667, 1132.226
527.3488, 1134.155
527.8309, 1120.238
528.3130, 1097.383
528.7952, 1078.237
529.2773, 1066.052
529.7594, 1060.425
530.2415, 1064.809
530.7236, 1077.550
531.2057, 1086.184
531.6879, 1083.158
532.1700, 1077.028
532.6521, 1072.666
533.1342, 1070.005
533.6163, 1070.105
534.0984, 1074.511
534.5806, 1080.951
535.0627, 1086.343
535.5448, 1091.150
536.0269, 1093.755
536.5090, 1093.178
536.9911, 1089.849
537.4733, 1087.191
537.9554, 1085.389
538.4375, 1083.534
538.9196, 1078.863
539.4017, 1072.668
539.8839, 1074.510
540.3660, 1088.114
540.8481, 1102.662
541.3302, 1102.653
541.8123, 1092.248
542.2944, 1082.861
542.7766, 1080.092
543.2587, 1080.573
543.7408, 1082.380
544.2229, 1085.299
544.7050, 1087.321
545.1871, 1085.366
545.6693, 1083.398
546.1514, 1084.335
546.6335, 1089.203
547.1156, 1096.117
547.5977, 1109.425
548.0798, 1123.877
548.5620, 1129.169
549.0441, 1119.682
549.5262, 1109.606
550.0083, 1101.476
550.4904, 1095.367
550.9725, 1094.822
551.4547, 1101.365
551.9368, 1109.171
552.4189, 1112.947
552.9010, 1113.092
553.3831, 1116.115
553.8652, 1124.356
554.3474, 1131.719
554.8295, 1126.005
555.3116, 1110.993
555.7937, 1099.865
556.2758, 1100.717
556.7579, 1107.402
557.2401, 1114.894
557.7222, 1123.072
558.2043, 1131.060
558.6864, 1137.682
559.1685, 1144.433
559.6506, 1152.978
560.1328, 1167.118
560.6149, 1176.701
561.0970, 1177.072
561.5791, 1172.261
562.0612, 1169.517
562.5433, 1170.230
563.0255, 1171.083
563.5076, 1171.138
563.9897, 1170.512
564.4718, 1171.360
564.9539, 1174.412
565.4360, 1176.874
565.9182, 1174.555
566.4003, 1168.169
566.8824, 1170.232
567.3645, 1183.904
567.8466, 1200.159
568.3287, 1205.331
568.8109, 1202.711
569.2930, 1202.562
569.7750, 1213.353
570.2571, 1225.734
570.7393, 1228.482
571.2214, 1223.373
571.7035, 1221.669
572.1856, 1234.480
572.6677, 1248.845
573.1498, 1255.285
573.6320, 1247.659
574.1141, 1243.480
574.5962, 1251.326
575.0783, 1261.748
575.5604, 1262.326
576.0425, 1244.632
576.5247, 1232.138
577.0068, 1230.437
577.4889, 1237.058
577.9710, 1240.623
578.4531, 1241.099
578.9352, 1238.710
579.4174, 1232.544
579.8995, 1223.273
580.3816, 1213.665
580.8637, 1203.375
581.3458, 1196.083
581.8279, 1199.930
582.3101, 1209.491
582.7922, 1212.688
583.2743, 1199.099
583.7564, 1186.455
584.2385, 1192.891
584.7206, 1211.548
585.2028, 1221.387
585.6849, 1203.847
586.1670, 1184.399
586.6491, 1176.749
587.1312, 1185.524
587.6133, 1186.909
588.0955, 1173.427
588.5776, 1157.647
589.0597, 1149.646
589.5418, 1152.576
590.0239, 1154.061
590.5060, 1152.053
590.9882, 1148.989
591.4703, 1151.363
591.9524, 1159.354
592.4345, 1165.004
592.9166, 1164.038
593.3987, 1158.554
593.8809, 1152.746
594.3630, 1146.657
594.8451, 1141.511
595.3272, 1137.526
595.8093, 1135.227
596.2914, 1135.590
596.7736, 1139.583
597.2557, 1143.959
597.7378, 1150.627
598.2199, 1155.867
598.7020, 1154.150
599.1841, 1135.168
599.6663, 1119.229
600.1484, 1111.950
600.6305, 1111.841
601.1126, 1109.755
601.5947, 1105.475
602.0768, 1099.643
602.5590, 1091.049
603.0411, 1079.223
603.5232, 1073.739
604.0053, 1075.304
604.4874, 1080.655
604.9695, 1088.282
605.4517, 1097.003
605.9338, 1102.524
606.4159, 1103.427
606.8980, 1101.055
607.3801, 1094.034
607.8622, 1084.574
608.3444, 1079.005
608.8265, 1085.078
609.3086, 1091.946
609.7907, 1091.946
610.2728, 1084.056
610.7549, 1080.407
611.2371, 1090.713
611.7192, 1100.622
612.2013, 1100.727
612.6834, 1083.393
613.1655, 1071.540
613.6476, 1065.377
614.1298, 1064.705
614.6119, 1071.295
615.0940, 1086.249
615.5761, 1097.259
616.0582, 1099.813
616.5403, 1096.663
617.0225, 1094.384
617.5046, 1092.713
617.9867, 1089.061
618.4688, 1078.012
618.9509, 1066.007
619.4330, 1061.419
619.9152, 1065.808
620.3973, 1070.551
620.8794, 1070.836
621.3615, 1069.325
621.8436, 1068.573
622.3257, 1070.884
622.8079, 1071.839
623.2900, 1070.037
623.7721, 1066.759
624.2542, 1064.987
624.7363, 1066.436
625.2184, 1065.447
625.7006, 1058.494
626.1827, 1047.018
626.6648, 1044.917
627.1469, 1053.339
627.6290, 1060.146
628.1111, 1051.491
628.5933, 1034.186
