##NAMES=Rockbridgeite
##RRUFFID=R060858
##IDEAL CHEMISTRY=(Fe^2+^_0.5_Fe^3+^_0.5_)_2_Fe^3+^_3_(PO_4_)_3_(OH)_5_
##LOCALITY=Tip Top mine, Custer County, South Dakota, USA
##OWNER=RRUFF
##SOURCE=Marcus Origlieri
##DESCRIPTION=Dark reddish brown elongated prismatic crystals associated with jahnsite-(CaMnMg), R060213
##STATUS=The identification of this mineral is confirmed by single-crystal X-ray diffraction and chemical analysis.
##URL=rruff.info/R060858
##MEASURED CHEMISTRY=(Fe^2+^_0.62_Mn^2+^_0.33_Mg_0.05_)_Î£=1_Fe^3+^_4.00_(P_1.00_O_4_)_3_(OH)_5_; OH estimated by difference; Fe2+ and Fe3+ by charge balance
165.3335, 181.1445
165.8156, 182.6475
166.2977, 183.6674
166.7798, 183.7365
167.2620, 183.1338
167.7441, 182.1035
168.2262, 180.6153
168.7083, 179.0763
169.1904, 178.8471
169.6725, 181.0189
170.1547, 182.3188
170.6368, 180.4948
171.1189, 176.4943
171.6010, 173.7059
172.0831, 174.2022
172.5652, 176.4386
173.0474, 177.0576
173.5295, 175.5041
174.0116, 173.4104
174.4937, 171.7759
174.9758, 170.5957
175.4579, 170.0069
175.9401, 170.6659
176.4222, 171.6800
176.9043, 171.9865
177.3864, 171.1849
177.8685, 170.1451
178.3506, 170.2367
178.8328, 171.9920
179.3149, 172.9404
179.7970, 171.3753
180.2791, 169.0520
180.7612, 167.4234
181.2433, 167.0179
181.7255, 167.4990
182.2076, 168.3252
182.6897, 170.2229
183.1718, 171.0292
183.6539, 169.4725
184.1360, 167.1347
184.6181, 165.8374
185.1003, 166.5326
185.5824, 168.4048
186.0645, 168.4970
186.5466, 164.3464
187.0287, 161.3606
187.5108, 160.5670
187.9930, 161.2312
188.4751, 162.5534
188.9572, 164.1223
189.4393, 165.8277
189.9214, 167.0142
190.4035, 167.4964
190.8857, 167.6686
191.3678, 167.4962
191.8499, 167.0651
192.3320, 166.5063
192.8141, 165.8988
193.2962, 165.2285
193.7784, 164.3539
194.2605, 162.9517
194.7426, 161.7333
195.2247, 160.7738
195.7068, 160.1609
196.1889, 160.2556
196.6711, 161.5773
197.1532, 163.6573
197.6353, 164.2345
198.1174, 162.0132
198.5995, 159.6423
199.0816, 158.7432
199.5638, 159.1125
200.0459, 159.3605
200.5280, 158.5804
201.0101, 157.0942
201.4922, 155.9700
201.9743, 155.3380
202.4565, 154.9761
202.9386, 154.6269
203.4207, 154.2790
203.9028, 154.3165
204.3849, 155.2078
204.8670, 156.5492
205.3492, 157.8458
205.8313, 159.2679
206.3134, 160.2790
206.7955, 159.8718
207.2776, 157.6544
207.7597, 155.8480
208.2419, 156.3861
208.7240, 157.5131
209.2061, 157.2429
209.6882, 154.4504
210.1703, 151.0029
210.6524, 150.4410
211.1346, 154.0343
211.6167, 157.2758
212.0988, 158.9518
212.5809, 159.5433
213.0630, 159.1831
213.5451, 157.7693
214.0273, 156.0533
214.5094, 155.9078
214.9915, 158.5798
215.4736, 160.5916
215.9557, 161.3625
216.4378, 161.2307
216.9200, 160.2905
217.4021, 158.5490
217.8842, 156.4918
218.3663, 155.5197
218.8484, 156.3472
219.3305, 157.3474
219.8127, 158.7370
220.2948, 160.0256
220.7769, 160.5801
221.2590, 160.1110
221.7411, 159.0444
222.2232, 158.6507
222.7054, 160.0375
223.1875, 160.7841
223.6696, 160.2543
224.1517, 159.1910
224.6338, 158.5029
225.1159, 158.5957
225.5980, 159.1436
226.0802, 159.1992
226.5623, 158.1487
227.0444, 157.3234
227.5265, 156.3631
228.0086, 155.8100
228.4907, 156.7083
228.9729, 159.5759
229.4550, 163.3918
229.9371, 165.4072
230.4192, 164.4455
230.9013, 163.6626
231.3834, 163.6483
231.8656, 164.0710
232.3477, 164.3659
232.8298, 164.2697
233.3119, 164.1438
233.7940, 164.8285
234.2761, 166.3322
234.7583, 168.3333
235.2404, 171.6360
235.7225, 175.2536
236.2046, 177.2477
236.6867, 176.6950
237.1688, 175.0278
237.6510, 174.6958
238.1331, 175.6937
238.6152, 177.1951
239.0973, 179.1392
239.5794, 181.3855
240.0615, 183.8767
240.5437, 187.0118
241.0258, 189.5069
241.5079, 189.5295
241.9900, 187.2217
242.4721, 184.1114
242.9542, 180.1014
243.4364, 175.7516
243.9185, 172.5707
244.4006, 171.0791
244.8827, 170.4492
245.3648, 170.0369
245.8469, 169.8013
246.3290, 169.3681
246.8112, 168.9106
247.2933, 168.1557
247.7754, 165.8727
248.2575, 160.7238
248.7396, 156.0819
249.2217, 155.0823
249.7039, 156.8185
250.1860, 158.2970
250.6681, 157.6731
251.1502, 155.4679
251.6323, 153.5982
252.1144, 152.2702
252.5966, 151.1021
253.0787, 149.6015
253.5608, 148.0458
254.0429, 147.0787
254.5250, 147.3681
255.0071, 148.5502
255.4893, 149.1635
255.9714, 148.8143
256.4535, 148.5114
256.9356, 149.0274
257.4177, 149.8488
257.8998, 150.0738
258.3820, 148.9754
258.8641, 147.0331
259.3462, 145.9576
259.8283, 146.1029
260.3104, 146.6121
260.7925, 147.7466
261.2747, 148.8651
261.7568, 148.9316
262.2389, 147.1897
262.7210, 144.5288
263.2031, 143.6326
263.6852, 145.6043
264.1674, 147.5522
264.6495, 149.0561
265.1316, 150.0811
265.6137, 150.3721
266.0958, 149.7650
266.5779, 148.8653
267.0601, 149.3005
267.5422, 152.4832
268.0243, 154.4119
268.5064, 153.3612
268.9885, 151.6137
269.4706, 151.3946
269.9528, 153.4509
270.4349, 156.5359
270.9170, 158.2141
271.3991, 157.5516
271.8812, 157.2530
272.3633, 157.7698
272.8455, 158.4947
273.3276, 159.0156
273.8097, 159.2148
274.2918, 159.1752
274.7739, 158.9663
275.2560, 158.3338
275.7382, 158.0974
276.2202, 158.0021
276.7024, 158.3880
277.1845, 159.6344
277.6666, 161.7014
278.1487, 164.1182
278.6308, 166.3841
279.1129, 168.6091
279.5951, 170.2336
280.0772, 170.1573
280.5593, 170.5206
281.0414, 172.7506
281.5235, 176.6455
282.0056, 180.9227
282.4878, 184.3740
282.9699, 186.9281
283.4520, 189.2557
283.9341, 191.2950
284.4162, 193.2202
284.8983, 194.9278
285.3805, 196.5589
285.8626, 198.6292
286.3447, 201.7709
286.8268, 205.9151
287.3089, 207.1963
287.7910, 203.1238
288.2732, 199.1232
288.7553, 196.8533
289.2374, 195.7773
289.7195, 194.8252
290.2016, 193.4114
290.6837, 191.4790
291.1659, 188.5786
291.6480, 184.0041
292.1301, 179.3142
292.6122, 174.4050
293.0943, 169.6156
293.5764, 165.2999
294.0586, 161.5875
294.5407, 158.5959
295.0228, 156.6364
295.5049, 157.1864
295.9870, 156.9913
296.4691, 155.6294
296.9513, 153.6008
297.4334, 151.0668
297.9155, 148.1485
298.3976, 145.6136
298.8797, 144.8388
299.3618, 147.3154
299.8440, 148.8476
300.3261, 149.4124
300.8082, 149.0706
301.2903, 147.1703
301.7724, 143.8720
302.2545, 141.0076
302.7367, 140.9316
303.2188, 144.7954
303.7009, 147.0339
304.1830, 147.3249
304.6651, 146.4511
305.1472, 144.1747
305.6294, 140.9199
306.1115, 138.1792
306.5936, 137.3174
307.0757, 138.4614
307.5578, 139.2280
308.0399, 140.1617
308.5221, 140.2814
309.0042, 138.0620
309.4863, 134.5517
309.9684, 132.5740
310.4505, 134.1374
310.9326, 138.6114
311.4148, 141.5435
311.8969, 142.3775
312.3790, 142.6067
312.8611, 142.0601
313.3432, 141.2276
313.8253, 140.9732
314.3075, 141.7334
314.7896, 143.0102
315.2717, 143.5280
315.7538, 143.1442
316.2359, 142.1904
316.7180, 139.5130
317.2001, 136.7905
317.6823, 136.3289
318.1644, 138.7208
318.6465, 141.9649
319.1286, 143.0068
319.6107, 140.4622
320.0928, 138.8887
320.5750, 138.5500
321.0571, 138.9541
321.5392, 140.2718
322.0213, 142.2502
322.5034, 143.6088
322.9855, 142.8499
323.4677, 139.4674
323.9498, 137.7416
324.4319, 138.6587
324.9140, 140.0317
325.3961, 140.7694
325.8782, 141.0011
326.3604, 141.4876
326.8425, 142.8473
327.3246, 144.9368
327.8067, 146.1184
328.2888, 145.6630
328.7709, 145.2714
329.2531, 145.3925
329.7352, 145.8587
330.2173, 146.3452
330.6994, 146.6918
331.1815, 147.0196
331.6636, 147.6638
332.1458, 148.7910
332.6279, 150.0581
333.1100, 152.3255
333.5921, 154.2941
334.0742, 154.1329
334.5563, 151.4947
335.0385, 148.3670
335.5206, 147.8625
336.0027, 152.0481
336.4848, 153.4202
336.9669, 149.8151
337.4490, 145.4285
337.9312, 142.9335
338.4133, 142.4382
338.8954, 142.5517
339.3775, 141.9880
339.8596, 140.6651
340.3417, 139.6770
340.8239, 139.7468
341.3060, 139.3669
341.7881, 137.2258
342.2702, 134.2497
342.7523, 132.5427
343.2344, 133.5448
343.7166, 136.4791
344.1987, 137.5496
344.6808, 133.9760
345.1629, 131.6353
345.6450, 132.1255
346.1271, 133.6850
346.6093, 134.2473
347.0914, 133.0740
347.5735, 131.0651
348.0556, 129.9038
348.5377, 129.8110
349.0198, 130.2678
349.5020, 132.1751
349.9841, 133.8918
350.4662, 133.8739
350.9483, 132.2255
351.4304, 130.5601
351.9125, 130.7913
352.3947, 133.3739
352.8768, 134.8018
353.3589, 134.2430
353.8410, 133.3702
354.3231, 132.5020
354.8052, 131.7761
355.2874, 131.3785
355.7695, 131.5098
356.2516, 132.0029
356.7337, 131.8437
357.2158, 129.9864
357.6979, 128.9263
358.1800, 130.0012
358.6621, 131.6721
359.1443, 131.9485
359.6264, 130.0789
360.1085, 127.5515
360.5906, 127.3306
361.0727, 130.8055
361.5548, 132.9443
362.0370, 132.0845
362.5191, 130.7028
363.0012, 130.1941
363.4833, 130.7297
363.9654, 131.7718
364.4475, 133.0655
364.9297, 134.6834
365.4118, 135.3049
365.8939, 134.3259
366.3760, 132.9221
366.8581, 130.9420
367.3402, 128.9328
367.8224, 128.0039
368.3045, 129.1240
368.7866, 131.5089
369.2687, 132.7532
369.7508, 132.2852
370.2329, 131.9213
370.7151, 132.2816
371.1972, 133.0351
371.6793, 134.0366
372.1614, 135.3028
372.6435, 136.3226
373.1256, 136.0179
373.6078, 134.2109
374.0899, 133.7501
374.5720, 136.9791
375.0541, 140.1652
375.5362, 140.0205
376.0183, 136.8234
376.5005, 133.9386
376.9826, 134.0480
377.4647, 136.3079
377.9468, 137.6741
378.4289, 137.9716
378.9110, 137.3350
379.3932, 135.3861
379.8753, 132.6402
380.3574, 129.9710
380.8395, 127.1547
381.3216, 124.9876
381.8037, 125.1030
382.2859, 127.5667
382.7680, 129.0258
383.2501, 127.2253
383.7322, 124.0815
384.2143, 122.7424
384.6964, 123.6713
385.1786, 124.9924
385.6607, 125.6545
386.1428, 125.8906
386.6249, 126.5131
387.1070, 127.9605
387.5891, 129.1071
388.0713, 128.1005
388.5534, 125.1727
389.0355, 123.0313
389.5176, 122.7319
389.9997, 123.1493
390.4818, 123.3365
390.9640, 123.2113
391.4461, 122.6629
391.9282, 121.3331
392.4103, 119.5580
392.8924, 119.0203
393.3745, 121.0175
393.8567, 122.7193
394.3388, 122.6028
394.8209, 121.4546
395.3030, 120.8696
395.7851, 121.4812
396.2672, 122.6283
396.7494, 123.1935
397.2315, 123.1608
397.7136, 122.4785
398.1957, 120.1887
398.6778, 117.8787
399.1599, 116.9928
399.6420, 117.5694
400.1241, 118.6232
400.6063, 119.3335
401.0884, 119.6992
401.5705, 119.8126
402.0526, 119.7454
402.5347, 119.3933
403.0168, 118.1563
403.4990, 116.7276
403.9811, 116.4313
404.4632, 117.9255
404.9453, 120.2708
405.4274, 121.0870
405.9095, 118.7749
406.3917, 117.6266
406.8738, 118.4657
407.3559, 119.8799
407.8380, 121.2678
408.3201, 122.3153
408.8022, 122.4931
409.2844, 120.9060
409.7665, 117.3484
410.2486, 115.4731
410.7307, 116.6264
411.2128, 118.1211
411.6949, 119.5360
412.1771, 120.6890
412.6592, 121.3992
413.1413, 121.5757
413.6234, 121.2677
414.1055, 120.5418
414.5876, 119.3164
415.0698, 117.9029
415.5519, 115.4824
416.0340, 113.5099
416.5161, 113.3429
416.9982, 115.0366
417.4803, 116.9968
417.9625, 117.7492
418.4446, 117.5075
418.9267, 117.9753
419.4088, 120.0471
419.8909, 121.3819
420.3730, 119.5610
420.8552, 116.0147
421.3373, 113.6681
421.8194, 113.7550
422.3015, 115.1890
422.7836, 117.2501
423.2657, 119.9118
423.7479, 121.4025
424.2300, 120.4383
424.7121, 118.4093
425.1942, 117.6245
425.6763, 118.3428
426.1584, 118.9341
426.6406, 118.2870
427.1227, 117.1777
427.6048, 117.1798
428.0869, 118.6410
428.5690, 120.0037
429.0511, 119.5519
429.5333, 117.3220
430.0154, 116.5281
430.4975, 119.1417
430.9796, 121.3466
431.4617, 120.3492
431.9438, 117.1936
432.4260, 114.6979
432.9081, 114.2282
433.3902, 115.0567
433.8723, 115.4897
434.3544, 115.1488
434.8365, 115.0276
435.3187, 114.9651
435.8008, 115.2607
436.2829, 116.5952
436.7650, 118.7716
437.2471, 120.5118
437.7292, 120.5229
438.2114, 118.7483
438.6935, 117.4955
439.1756, 117.3805
439.6577, 117.1071
440.1398, 116.4320
440.6219, 115.4109
441.1040, 113.8853
441.5862, 111.8019
442.0683, 109.9184
442.5504, 109.8904
443.0325, 112.5955
443.5146, 114.4589
443.9967, 114.7762
444.4789, 114.5074
444.9610, 113.7915
445.4431, 112.8477
445.9252, 112.1904
446.4073, 112.3257
446.8894, 113.0257
447.3716, 113.3791
447.8537, 113.2295
448.3358, 113.1210
448.8179, 113.3887
449.3000, 113.7815
449.7821, 113.9376
450.2643, 113.6818
450.7464, 113.6688
451.2285, 114.9102
451.7106, 117.0390
452.1927, 118.0103
452.6748, 117.0180
453.1570, 115.6090
453.6391, 115.6960
454.1212, 116.8817
454.6033, 117.2007
455.0854, 115.4436
455.5675, 113.1900
456.0497, 111.4685
456.5318, 110.4097
457.0139, 110.6296
457.4960, 112.7969
457.9781, 116.0185
458.4602, 117.8088
458.9424, 117.6533
459.4245, 117.4404
459.9066, 117.8197
460.3887, 118.1139
460.8708, 117.4783
461.3529, 115.8686
461.8351, 113.9831
462.3172, 112.3780
462.7993, 111.0468
463.2814, 110.5488
463.7635, 111.6299
464.2456, 112.6247
464.7278, 113.0563
465.2099, 113.1762
465.6920, 113.3683
466.1741, 113.7813
466.6562, 114.2650
467.1383, 114.6901
467.6205, 115.3410
468.1026, 115.0364
468.5847, 112.3607
469.0668, 109.9568
469.5489, 109.1482
470.0310, 109.6408
470.5132, 110.4651
470.9953, 111.1768
471.4774, 111.6798
471.9595, 111.6114
472.4416, 110.7734
472.9237, 110.1108
473.4059, 110.3181
473.8880, 110.6309
474.3701, 110.0754
474.8522, 108.4976
475.3343, 107.4891
475.8164, 108.8942
476.2986, 111.5605
476.7807, 112.4276
477.2628, 110.8999
477.7449, 108.9337
478.2270, 107.7843
478.7091, 107.4137
479.1913, 107.5013
479.6734, 108.6956
480.1555, 109.6066
480.6376, 109.2222
481.1197, 108.0652
481.6018, 107.2828
482.0839, 107.2654
482.5660, 107.4738
483.0482, 107.0714
483.5303, 105.6619
484.0124, 105.1890
484.4945, 107.2229
484.9766, 108.6667
485.4587, 107.1718
485.9409, 103.7269
486.4230, 100.8451
486.9051, 99.92461
487.3872, 100.5069
487.8693, 101.3375
488.3514, 102.7197
488.8336, 103.7833
489.3157, 104.6037
489.7978, 105.0344
490.2799, 104.7166
490.7620, 103.8236
491.2441, 103.0717
491.7263, 103.1061
492.2084, 103.7548
492.6905, 104.2257
493.1726, 104.5719
493.6547, 104.6098
494.1368, 104.0377
494.6190, 103.2279
495.1011, 102.4376
495.5832, 101.6638
496.0653, 101.2900
496.5474, 102.0309
497.0295, 103.4210
497.5117, 103.9040
497.9938, 103.0731
498.4759, 102.0888
498.9580, 101.9486
499.4401, 102.4935
499.9222, 102.8035
500.4044, 102.3525
500.8865, 102.1397
501.3686, 103.2845
501.8507, 104.9647
502.3328, 105.2068
502.8149, 103.2870
503.2971, 100.7970
503.7792, 100.0266
504.2613, 101.5503
504.7434, 102.8214
505.2255, 104.1274
505.7076, 104.9337
506.1898, 104.5312
506.6719, 103.4836
507.1540, 103.0683
507.6361, 104.0021
508.1182, 105.4313
508.6003, 105.2907
509.0825, 102.9917
509.5646, 100.6961
510.0467, 97.89794
510.5288, 95.76904
511.0109, 95.08500
511.4930, 95.69166
511.9752, 96.89568
512.4573, 98.46802
512.9394, 100.2237
513.4215, 101.7430
513.9036, 103.0110
514.3857, 104.2103
514.8679, 105.7977
515.3500, 107.0284
515.8321, 106.8980
516.3142, 105.2606
516.7963, 103.4294
517.2784, 101.7762
517.7606, 100.3434
518.2427, 99.21291
518.7248, 98.38445
519.2069, 97.72524
519.6890, 97.12304
520.1711, 96.62585
520.6533, 96.51203
521.1354, 97.09616
521.6175, 97.57881
522.0996, 97.57101
522.5817, 97.54774
523.0638, 98.21321
523.5460, 99.53817
524.0281, 100.6891
524.5102, 100.8646
524.9923, 100.0853
525.4744, 98.90707
525.9565, 96.20597
526.4387, 94.65044
526.9208, 95.62987
527.4029, 97.50616
527.8850, 98.66435
528.3671, 98.67964
528.8492, 98.01405
529.3314, 96.65498
529.8135, 94.78278
530.2956, 94.38018
530.7777, 96.24149
531.2598, 98.15685
531.7419, 98.47529
532.2241, 97.99517
532.7062, 98.07903
533.1883, 99.41621
533.6704, 100.4407
534.1525, 99.60380
534.6346, 97.70291
535.1168, 96.73075
535.5989, 97.19460
536.0810, 98.00704
536.5631, 98.14506
537.0452, 97.57081
537.5273, 96.69375
538.0095, 94.45837
538.4916, 93.11630
538.9737, 94.20281
539.4558, 96.46841
539.9379, 98.18360
540.4200, 98.74986
540.9022, 98.45540
541.3843, 97.50843
541.8664, 95.64388
542.3485, 94.63851
542.8306, 95.43929
543.3127, 96.10799
543.7948, 95.84907
544.2769, 95.12601
544.7590, 94.63303
545.2411, 94.61208
545.7233, 94.94975
546.2054, 95.57282
546.6875, 96.46926
547.1696, 97.57254
547.6517, 99.28336
548.1339, 100.4162
548.6160, 98.99704
549.0981, 96.08113
549.5802, 94.77084
550.0623, 97.08511
550.5444, 99.62077
551.0266, 100.1589
551.5087, 99.27161
551.9908, 97.94003
552.4729, 96.40657
552.9550, 95.62376
553.4371, 97.14271
553.9193, 101.7999
554.4014, 103.5557
554.8835, 100.1355
555.3656, 96.77805
555.8477, 95.07051
556.3298, 94.72438
556.8120, 95.52814
557.2941, 97.32435
557.7762, 99.06329
558.2583, 98.90560
558.7404, 96.47733
559.2225, 95.37552
559.7047, 96.86446
560.1868, 98.17075
560.6689, 97.63777
561.1510, 96.16188
561.6331, 95.34626
562.1152, 95.89540
562.5974, 96.57836
563.0795, 96.06690
563.5616, 94.71413
564.0437, 93.74947
564.5258, 93.38415
565.0079, 93.60660
565.4901, 94.71626
565.9722, 96.60810
566.4543, 97.46973
566.9364, 96.07054
567.4185, 95.05578
567.9006, 96.26515
568.3828, 98.15414
568.8649, 98.04404
569.3470, 95.45196
569.8291, 92.82332
570.3112, 93.27285
570.7933, 97.08012
571.2755, 98.92374
571.7576, 97.41265
572.2397, 95.58796
572.7218, 93.31939
573.2039, 91.55380
573.6860, 91.57236
574.1682, 93.65146
574.6503, 96.27805
575.1324, 98.49519
575.6145, 100.1373
576.0966, 100.1430
576.5787, 98.00265
577.0609, 95.98962
577.5430, 95.66025
578.0251, 96.38799
578.5072, 96.57771
578.9893, 95.91641
579.4714, 95.35368
579.9536, 95.53863
580.4357, 95.87086
580.9178, 95.39356
581.3999, 94.12823
581.8820, 93.12424
582.3641, 93.25076
582.8463, 94.26015
583.3284, 94.72544
583.8105, 94.81477
584.2926, 94.03996
584.7747, 90.85395
585.2568, 87.97305
585.7390, 88.00273
586.2211, 90.58593
586.7032, 93.02059
587.1853, 93.15732
587.6674, 91.93175
588.1495, 92.26107
588.6317, 94.61234
589.1138, 95.45034
589.5959, 92.30272
590.0780, 88.41626
590.5601, 88.07008
591.0422, 91.18901
591.5244, 93.35132
592.0065, 92.36938
592.4886, 90.51805
592.9707, 89.68073
593.4528, 89.75925
593.9349, 90.10888
594.4171, 90.45284
594.8992, 90.89876
595.3813, 91.69523
595.8634, 93.16753
596.3455, 94.00708
596.8276, 94.19739
597.3098, 93.87260
597.7919, 92.34163
598.2740, 90.52613
598.7561, 90.20139
599.2382, 92.16062
599.7203, 94.48379
600.2025, 94.12512
600.6846, 91.18962
601.1667, 89.88439
601.6488, 91.48697
602.1309, 93.02632
602.6130, 91.85818
603.0952, 89.25261
603.5773, 87.82228
604.0594, 88.39784
604.5415, 89.22498
605.0236, 89.36207
605.5057, 89.19893
605.9879, 89.28873
606.4700, 89.73183
606.9521, 90.47816
607.4342, 91.55868
607.9163, 92.87680
608.3984, 93.69789
608.8806, 93.31345
609.3627, 93.40313
609.8448, 95.26491
610.3269, 96.77463
610.8090, 95.71043
611.2911, 92.45547
611.7733, 89.52619
612.2554, 88.74203
612.7375, 89.39051
613.2196, 89.94762
613.7017, 90.43151
614.1838, 90.59624
614.6660, 90.07332
615.1481, 89.55980
615.6302, 90.05441
616.1123, 91.47498
616.5944, 92.56372
617.0765, 92.95643
617.5587, 93.04271
618.0408, 92.97161
618.5229, 92.80820
619.0050, 92.71394
619.4871, 92.73964
619.9692, 92.63825
620.4514, 91.91309
620.9335, 90.29487
621.4156, 90.12292
621.8977, 93.58672
622.3798, 95.90092
622.8619, 95.23495
623.3441, 93.09396
623.8262, 90.87631
624.3083, 88.96913
624.7904, 87.91963
625.2725, 88.57256
625.7546, 90.40571
626.2367, 92.27911
626.7188, 94.23062
627.2009, 95.00166
627.6830, 93.35094
628.1652, 90.57661
628.6473, 89.92493
629.1294, 92.31283
629.6115, 93.49081
630.0936, 91.69374
630.5757, 89.46572
631.0579, 88.47835
631.5400, 88.64952
632.0221, 89.53170
632.5042, 90.93311
632.9863, 92.17326
633.4684, 91.65372
633.9506, 88.76994
634.4327, 87.15632
634.9148, 87.79417
635.3969, 88.74584
635.8790, 89.04325
636.3611, 88.97766
636.8433, 89.08910
637.3254, 89.59113
637.8075, 90.02527
638.2896, 90.27734
638.7717, 90.17031
639.2538, 88.91886
639.7360, 86.49625
640.2181, 84.79932
640.7002, 85.31194
641.1823, 87.47115
641.6644, 88.99341
642.1465, 89.39520
642.6287, 89.78336
643.1108, 89.95447
643.5929, 90.29955
644.0750, 91.49454
644.5571, 93.10348
645.0392, 93.80434
645.5214, 92.64932
646.0035, 90.93762
646.4856, 91.34480
646.9677, 93.85648
647.4498, 94.63342
647.9319, 92.22483
648.4141, 89.58254
648.8962, 89.39207
649.3783, 91.01723
649.8604, 92.05210
650.3425, 91.68430
650.8246, 91.55515
651.3068, 92.92260
651.7889, 94.55961
652.2710, 94.49534
652.7531, 92.79933
653.2352, 91.64776
653.7173, 92.88845
654.1995, 95.78374
654.6816, 97.10676
655.1637, 95.91003
655.6458, 95.40124
656.1279, 96.58630
656.6100, 98.19466
