##NAMES=Rodalquilarite
##RRUFFID=R061063
##IDEAL CHEMISTRY=H_3_Fe^3+^_2_(Te^4+^O_3_)_4_Cl
##LOCALITY=Wendy open pit, Tambo mine, El Indio deposit, Elqui Province, Coquimbo Region, Chile
##OWNER=RRUFF
##SOURCE=Bob Jenkins
##DESCRIPTION=Grass bladed crystals on quartz found with alunite
##STATUS=The identification of this mineral has been confirmed by single-crystal X-ray diffraction.
##URL=rruff.info/R061063
124.8969, 6556.552
125.3791, 6929.301
125.8612, 7314.364
126.3433, 7723.644
126.8254, 8150.973
127.3075, 8606.216
127.7896, 9122.428
128.2718, 9713.314
128.7539, 10377.97
129.2360, 11120.67
129.7181, 11943.30
130.2002, 12827.91
130.6823, 13758.61
131.1645, 14735.45
131.6466, 15760.88
132.1287, 16848.96
132.6108, 17998.98
133.0929, 19156.99
133.5750, 20317.35
134.0572, 21489.83
134.5393, 22686.40
135.0214, 23902.47
135.5035, 25137.26
135.9856, 26383.56
136.4677, 27645.90
136.9498, 28924.97
137.4320, 30240.28
137.9141, 31603.53
138.3962, 32958.38
138.8783, 34376.24
139.3604, 35720.73
139.8425, 36823.38
140.3247, 37786.30
140.8068, 38254.79
141.2889, 38132.00
141.7710, 37459.64
142.2531, 35976.37
142.7352, 33409.93
143.2174, 30090.44
143.6995, 26890.92
144.1816, 23719.65
144.6637, 20828.53
145.1458, 18401.82
145.6279, 16508.68
146.1101, 14922.06
146.5922, 13671.02
147.0743, 12749.07
147.5564, 11949.76
148.0385, 11290.83
148.5206, 10748.42
149.0028, 10311.96
149.4849, 10041.08
149.9670, 9809.048
150.4491, 9601.310
150.9312, 9415.845
151.4133, 9266.210
151.8955, 9166.714
152.3776, 9101.002
152.8597, 9048.219
153.3418, 9001.452
153.8239, 8974.008
154.3060, 8969.319
154.7882, 8988.709
155.2703, 9029.982
155.7524, 9106.773
156.2345, 9205.732
156.7166, 9296.872
157.1987, 9332.866
157.6808, 9387.089
158.1630, 9498.171
158.6451, 9707.412
159.1272, 9926.278
159.6093, 10124.11
160.0914, 10308.02
160.5735, 10511.40
161.0557, 10745.59
161.5378, 11002.99
162.0199, 11278.90
162.5020, 11542.52
162.9841, 11845.95
163.4662, 12212.00
163.9484, 12640.02
164.4305, 13109.29
164.9126, 13610.54
165.3947, 14147.53
165.8768, 14724.72
166.3589, 15353.88
166.8411, 16016.66
167.3232, 16702.86
167.8053, 17409.31
168.2874, 18161.47
168.7695, 18996.57
169.2516, 19888.97
169.7338, 20790.50
170.2159, 21688.68
170.6980, 22582.36
171.1801, 23472.07
171.6622, 24365.09
172.1443, 25250.30
172.6265, 26108.63
173.1086, 26952.39
173.5907, 27802.07
174.0728, 28720.80
174.5549, 29651.50
175.0370, 30509.01
175.5192, 31280.25
176.0013, 31962.42
176.4834, 32575.81
176.9655, 33112.00
177.4476, 33494.27
177.9297, 33670.31
178.4118, 33655.48
178.8940, 33476.21
179.3761, 33084.13
179.8582, 32569.21
180.3403, 32039.93
180.8224, 31491.87
181.3046, 30999.76
181.7867, 30593.63
182.2688, 30284.64
182.7509, 30117.59
183.2330, 30123.68
183.7151, 30279.13
184.1973, 30536.25
184.6794, 30894.18
185.1615, 31343.63
185.6436, 31885.46
186.1257, 32516.91
186.6078, 33183.92
187.0900, 33909.64
187.5721, 34659.87
188.0542, 35359.59
188.5363, 36031.63
189.0184, 36597.99
189.5005, 36987.32
189.9827, 37195.74
190.4648, 37165.23
190.9469, 36827.48
191.4290, 36205.09
191.9111, 35428.45
192.3932, 34475.87
192.8754, 33409.71
193.3575, 32322.19
193.8396, 31197.90
194.3217, 30121.60
194.8038, 29133.21
195.2859, 28233.26
195.7681, 27446.19
196.2502, 26785.40
196.7323, 26233.18
197.2144, 25750.02
197.6965, 25344.84
198.1786, 24971.11
198.6607, 24603.02
199.1429, 24239.80
199.6250, 23874.17
200.1071, 23514.53
200.5892, 23149.05
201.0713, 22712.06
201.5534, 22196.49
202.0356, 21631.39
202.5177, 21038.35
202.9998, 20408.42
203.4819, 19795.01
203.9640, 19203.84
204.4461, 18635.12
204.9283, 18155.31
205.4104, 17777.66
205.8925, 17464.67
206.3746, 17169.14
206.8567, 16884.86
207.3388, 16642.58
207.8210, 16469.20
208.3031, 16368.21
208.7852, 16251.89
209.2673, 16128.40
209.7494, 15981.34
210.2315, 15783.50
210.7137, 15529.30
211.1958, 15239.48
211.6779, 14921.56
212.1600, 14566.53
212.6421, 14215.66
213.1242, 13866.96
213.6064, 13522.02
214.0885, 13184.13
214.5706, 12837.38
215.0527, 12526.86
215.5348, 12270.72
216.0169, 12077.83
216.4991, 11923.23
216.9812, 11804.57
217.4633, 11724.54
217.9454, 11689.84
218.4275, 11707.68
218.9096, 11757.89
219.3917, 11829.34
219.8739, 11916.02
220.3560, 12040.17
220.8381, 12207.48
221.3202, 12412.95
221.8023, 12644.84
222.2844, 12909.77
222.7666, 13192.77
223.2487, 13486.63
223.7308, 13780.86
224.2129, 14110.00
224.6950, 14488.96
225.1771, 14911.28
225.6593, 15307.17
226.1414, 15670.46
226.6235, 16019.36
227.1056, 16369.95
227.5877, 16717.12
228.0698, 17073.66
228.5520, 17462.99
229.0341, 17875.55
229.5162, 18224.81
229.9983, 18502.75
230.4804, 18721.47
230.9625, 18896.41
231.4447, 19044.55
231.9268, 19113.70
232.4089, 19098.10
232.8910, 18997.58
233.3731, 18811.49
233.8552, 18526.85
234.3374, 18170.45
234.8195, 17767.24
235.3016, 17299.61
235.7837, 16817.23
236.2658, 16323.59
236.7479, 15816.89
237.2301, 15324.28
237.7122, 14834.54
238.1943, 14370.60
238.6764, 13953.14
239.1585, 13596.71
239.6406, 13265.73
240.1227, 12953.94
240.6049, 12657.77
241.0870, 12396.61
241.5691, 12176.00
242.0512, 11985.80
242.5333, 11812.02
243.0154, 11646.18
243.4976, 11510.82
243.9797, 11415.20
244.4618, 11365.80
244.9439, 11321.18
245.4260, 11270.14
245.9081, 11231.16
246.3903, 11231.91
246.8724, 11283.57
247.3545, 11355.48
247.8366, 11440.68
248.3187, 11539.21
248.8008, 11647.38
249.2830, 11765.22
249.7651, 11893.86
250.2472, 12034.63
250.7293, 12195.93
251.2114, 12357.41
251.6935, 12511.40
252.1757, 12651.55
252.6578, 12807.89
253.1399, 12985.19
253.6220, 13174.94
254.1041, 13361.21
254.5862, 13544.56
255.0684, 13724.77
255.5505, 13904.92
256.0326, 14090.75
256.5147, 14262.10
256.9968, 14430.91
257.4789, 14580.28
257.9611, 14677.98
258.4432, 14727.16
258.9253, 14718.55
259.4074, 14648.03
259.8895, 14512.29
260.3716, 14316.24
260.8538, 14042.99
261.3359, 13719.71
261.8180, 13403.72
262.3001, 13086.71
262.7822, 12788.84
263.2643, 12510.94
263.7465, 12249.01
264.2286, 12031.70
264.7107, 11868.81
265.1928, 11747.44
265.6749, 11642.99
266.1570, 11545.00
266.6392, 11487.93
267.1213, 11495.26
267.6034, 11584.68
268.0855, 11661.71
268.5676, 11713.03
269.0497, 11762.38
269.5318, 11864.46
270.0139, 12030.47
270.4961, 12215.38
270.9782, 12404.88
271.4603, 12600.33
271.9424, 12785.33
272.4245, 12950.71
272.9066, 13114.50
273.3888, 13319.97
273.8709, 13576.59
274.3530, 13835.82
274.8351, 14069.95
275.3172, 14275.60
275.7993, 14486.73
276.2815, 14708.47
276.7636, 14930.57
277.2457, 15140.96
277.7278, 15344.85
278.2099, 15508.36
278.6920, 15616.12
279.1742, 15667.72
279.6563, 15666.43
280.1384, 15609.68
280.6205, 15502.88
281.1026, 15342.74
281.5847, 15123.92
282.0669, 14898.61
282.5490, 14696.06
283.0311, 14515.38
283.5132, 14318.27
283.9953, 14094.96
284.4774, 13870.61
284.9596, 13685.21
285.4417, 13537.63
285.9238, 13433.84
286.4059, 13382.03
286.8880, 13379.67
287.3701, 13408.42
287.8523, 13470.99
288.3344, 13555.05
288.8165, 13639.23
289.2986, 13724.33
289.7807, 13822.84
290.2628, 13930.60
290.7450, 14054.65
291.2271, 14225.68
291.7092, 14448.35
292.1913, 14708.89
292.6734, 14998.93
293.1555, 15314.96
293.6377, 15636.23
294.1198, 15933.93
294.6019, 16232.16
295.0840, 16590.38
295.5661, 17013.02
296.0482, 17496.76
296.5304, 18041.55
297.0125, 18639.84
297.4946, 19303.94
297.9767, 20035.35
298.4588, 20831.31
298.9409, 21680.38
299.4231, 22572.64
299.9052, 23538.88
300.3873, 24573.87
300.8694, 25688.56
301.3515, 26897.79
301.8336, 28223.58
302.3158, 29635.79
302.7979, 31068.05
303.2800, 32529.13
303.7621, 34010.29
304.2442, 35533.10
304.7263, 37070.26
305.2085, 38638.91
305.6906, 40229.07
306.1727, 41837.32
306.6548, 43503.97
307.1369, 45219.00
307.6190, 46909.34
308.1012, 48501.84
308.5833, 50008.27
309.0654, 51496.96
309.5475, 53081.09
310.0296, 54574.19
310.5117, 55884.06
310.9938, 57000.77
311.4760, 57878.30
311.9581, 58524.21
312.4402, 58914.29
312.9223, 59019.19
313.4044, 58742.30
313.8865, 58256.52
314.3687, 57620.34
314.8508, 56840.26
315.3329, 55988.26
315.8150, 55062.83
316.2971, 54091.16
316.7792, 53121.77
317.2614, 52149.25
317.7435, 51189.57
318.2256, 50260.69
318.7077, 49357.60
319.1898, 48441.38
319.6719, 47463.49
320.1541, 46472.91
320.6362, 45513.52
321.1183, 44660.58
321.6004, 43757.18
322.0825, 42741.55
322.5646, 41632.95
323.0468, 40537.47
323.5289, 39457.89
324.0110, 38408.91
324.4931, 37394.57
324.9752, 36431.73
325.4573, 35498.84
325.9395, 34566.45
326.4216, 33660.36
326.9037, 32845.30
327.3858, 32148.31
327.8679, 31525.92
328.3500, 30954.56
328.8322, 30387.89
329.3143, 29950.32
329.7964, 29650.35
330.2785, 29480.99
330.7606, 29430.36
331.2427, 29512.43
331.7249, 29698.85
332.2070, 29979.11
332.6891, 30361.54
333.1712, 30825.86
333.6533, 31388.48
334.1354, 32026.93
334.6176, 32713.79
335.0997, 33458.17
335.5818, 34237.20
336.0639, 35047.79
336.5460, 35895.48
337.0281, 36779.04
337.5103, 37718.65
337.9924, 38687.51
338.4745, 39640.86
338.9566, 40592.54
339.4387, 41504.49
339.9208, 42378.46
340.4030, 43210.12
340.8851, 44007.79
341.3672, 44812.17
341.8493, 45498.34
342.3314, 45964.67
342.8135, 46211.73
343.2957, 46189.30
343.7778, 45891.66
344.2599, 45316.57
344.7420, 44403.11
345.2241, 43155.58
345.7062, 41660.54
346.1884, 39957.94
346.6705, 38056.37
347.1526, 36115.90
347.6347, 34143.56
348.1168, 32175.06
348.5989, 30305.13
349.0811, 28556.34
349.5632, 26916.68
350.0453, 25397.52
350.5274, 24007.11
351.0095, 22741.61
351.4916, 21612.50
351.9737, 20609.32
352.4558, 19743.50
352.9380, 19002.41
353.4201, 18327.42
353.9022, 17684.25
354.3843, 17085.75
354.8664, 16550.03
355.3485, 16084.99
355.8307, 15672.04
356.3128, 15306.21
356.7949, 14987.45
357.2770, 14706.55
357.7591, 14481.53
358.2412, 14279.02
358.7234, 14065.38
359.2055, 13829.87
359.6876, 13627.08
360.1697, 13494.97
360.6518, 13412.20
361.1339, 13344.98
361.6161, 13296.19
362.0982, 13248.21
362.5803, 13188.49
363.0624, 13114.74
363.5445, 13055.04
364.0266, 13012.22
364.5088, 12989.77
364.9909, 12991.29
365.4730, 13044.17
365.9551, 13093.41
366.4372, 13117.76
366.9193, 13119.41
367.4015, 13147.16
367.8836, 13204.38
368.3657, 13290.55
368.8478, 13405.26
369.3299, 13577.66
369.8120, 13741.37
370.2942, 13881.34
370.7763, 14007.53
371.2584, 14159.33
371.7405, 14349.62
372.2226, 14549.69
372.7047, 14744.53
373.1869, 14910.54
373.6690, 15125.38
374.1511, 15400.20
374.6332, 15714.23
375.1153, 16025.72
375.5974, 16329.37
376.0796, 16635.58
376.5617, 16941.31
377.0438, 17237.89
377.5259, 17593.35
378.0080, 18017.11
378.4901, 18474.54
378.9723, 18900.75
379.4544, 19294.04
379.9365, 19736.97
380.4186, 20269.14
380.9007, 20876.05
381.3828, 21432.46
381.8650, 21936.46
382.3471, 22482.01
382.8292, 23177.03
383.3113, 24001.74
383.7934, 24833.71
384.2755, 25637.12
384.7577, 26449.83
385.2398, 27343.92
385.7219, 28314.10
386.2040, 29316.62
386.6861, 30321.13
387.1682, 31345.00
387.6504, 32422.98
388.1325, 33584.61
388.6146, 34776.67
389.0967, 35941.40
389.5788, 37114.82
390.0609, 38361.11
390.5431, 39781.86
391.0252, 41243.90
391.5073, 42655.07
391.9894, 43989.58
392.4715, 45327.70
392.9536, 46685.58
393.4357, 48063.86
393.9178, 49474.90
394.4000, 50953.43
394.8821, 52424.24
395.3642, 53849.09
395.8463, 55225.60
396.3284, 56619.89
396.8105, 58079.40
397.2927, 59529.78
397.7748, 60909.87
398.2569, 62194.44
398.7390, 63425.66
399.2211, 64594.71
399.7032, 65704.74
400.1854, 66770.59
400.6675, 67826.22
401.1496, 68805.30
401.6317, 69688.09
402.1138, 70452.52
402.5959, 71148.62
403.0781, 71768.16
403.5602, 72325.13
404.0423, 72839.70
404.5244, 73296.20
405.0065, 73754.28
405.4886, 74256.78
405.9708, 74810.32
406.4529, 75279.52
406.9350, 75659.75
407.4171, 75954.25
407.8992, 76170.62
408.3813, 76309.59
408.8635, 76345.46
409.3456, 76293.89
409.8277, 76126.89
410.3098, 75776.63
410.7919, 75241.83
411.2740, 74484.02
411.7562, 73464.10
412.2383, 72178.53
412.7204, 70666.63
413.2025, 68906.29
413.6846, 66930.92
414.1667, 64780.34
414.6489, 62459.06
415.1310, 60005.95
415.6131, 57359.48
416.0952, 54636.42
416.5773, 52035.40
417.0594, 49538.18
417.5416, 47161.54
418.0237, 44872.85
418.5058, 42687.76
418.9879, 40661.98
419.4700, 38807.26
419.9521, 37103.39
420.4343, 35521.35
420.9164, 34081.68
421.3985, 32757.36
421.8806, 31538.54
422.3627, 30426.50
422.8448, 29404.64
423.3270, 28483.92
423.8091, 27650.50
424.2912, 26918.43
424.7733, 26288.21
425.2554, 25709.08
425.7375, 25172.33
426.2197, 24701.76
426.7018, 24306.35
427.1839, 24006.58
427.6660, 23732.79
428.1481, 23470.37
428.6302, 23241.77
429.1124, 23079.49
429.5945, 22995.64
430.0766, 22941.01
430.5587, 22898.32
431.0408, 22869.93
431.5229, 22889.81
432.0051, 22959.90
432.4872, 23071.71
432.9693, 23224.33
433.4514, 23416.47
433.9335, 23623.81
434.4156, 23838.07
434.8977, 24070.42
435.3799, 24348.39
435.8620, 24669.26
436.3441, 25006.67
436.8262, 25336.17
437.3083, 25669.68
437.7904, 26023.39
438.2726, 26397.35
438.7547, 26799.40
439.2368, 27263.24
439.7189, 27758.17
440.2010, 28227.60
440.6831, 28624.38
441.1653, 28997.57
441.6474, 29382.26
442.1295, 29777.65
442.6116, 30153.89
443.0937, 30512.59
443.5758, 30838.20
444.0580, 31120.02
444.5401, 31373.23
445.0222, 31556.75
445.5043, 31650.27
445.9864, 31667.89
446.4685, 31650.40
446.9507, 31618.98
447.4328, 31538.03
447.9149, 31391.75
448.3970, 31169.19
448.8791, 30920.59
449.3612, 30654.56
449.8434, 30358.33
450.3255, 30011.01
450.8076, 29597.83
451.2897, 29179.01
451.7718, 28769.68
452.2539, 28366.55
452.7361, 27924.97
453.2182, 27425.12
453.7003, 26946.78
454.1824, 26558.60
454.6645, 26257.97
455.1466, 25933.82
455.6288, 25561.83
456.1109, 25183.71
456.5930, 24849.84
457.0751, 24563.90
457.5572, 24338.43
458.0393, 24203.81
458.5215, 24128.46
459.0036, 24068.72
459.4857, 24023.05
459.9678, 23985.86
460.4499, 23930.95
460.9320, 23887.53
461.4142, 23898.85
461.8963, 24006.51
462.3784, 24140.92
462.8605, 24262.34
463.3426, 24377.35
463.8247, 24505.53
464.3069, 24651.76
464.7890, 24815.47
465.2711, 25000.14
465.7532, 25216.34
466.2353, 25424.60
466.7174, 25618.09
467.1996, 25798.72
467.6817, 25968.98
468.1638, 26139.13
468.6459, 26288.21
469.1280, 26418.12
469.6101, 26527.21
470.0923, 26597.58
470.5744, 26641.89
471.0565, 26624.91
471.5386, 26514.84
472.0207, 26299.57
472.5028, 26056.99
472.9850, 25800.09
473.4671, 25507.55
473.9492, 25124.46
474.4313, 24647.11
474.9134, 24160.40
475.3955, 23710.06
475.8776, 23279.88
476.3597, 22824.29
476.8419, 22341.53
477.3240, 21843.93
477.8061, 21319.04
478.2882, 20790.10
478.7703, 20303.95
479.2524, 19881.56
479.7346, 19491.80
480.2167, 19113.54
480.6988, 18744.35
481.1809, 18382.87
481.6630, 18013.45
482.1451, 17660.74
482.6273, 17345.44
483.1094, 17075.69
483.5915, 16807.34
484.0736, 16503.72
484.5557, 16204.13
485.0378, 15951.30
485.5200, 15816.19
486.0021, 15654.46
486.4842, 15430.63
486.9663, 15156.25
487.4484, 14905.59
487.9305, 14679.47
488.4127, 14480.86
488.8948, 14316.03
489.3769, 14199.78
489.8590, 14064.93
490.3411, 13904.77
490.8232, 13736.43
491.3054, 13580.67
491.7875, 13438.43
492.2696, 13304.00
492.7517, 13171.56
493.2338, 13046.18
493.7159, 12943.68
494.1981, 12864.14
494.6802, 12785.11
495.1623, 12690.17
495.6444, 12584.16
496.1265, 12474.07
496.6086, 12356.71
497.0908, 12246.70
497.5729, 12152.32
498.0550, 12074.10
498.5371, 12010.73
499.0192, 11980.07
499.5013, 11949.77
499.9835, 11900.22
500.4656, 11831.62
500.9477, 11764.32
501.4298, 11702.70
501.9119, 11646.39
502.3940, 11594.41
502.8762, 11546.58
503.3583, 11503.52
503.8404, 11464.52
504.3225, 11429.94
504.8046, 11401.95
505.2867, 11386.88
505.7689, 11365.75
506.2510, 11329.99
506.7331, 11279.88
507.2152, 11240.09
507.6973, 11212.65
508.1794, 11189.82
508.6616, 11167.07
509.1437, 11144.17
509.6258, 11113.52
510.1079, 11069.98
510.5900, 11027.32
511.0721, 11013.95
511.5543, 11023.48
512.0364, 11026.40
512.5185, 10997.64
513.0006, 10958.80
513.4827, 10936.44
513.9648, 10931.17
514.4470, 10931.56
514.9291, 10938.38
515.4112, 10943.01
515.8933, 10936.02
516.3754, 10904.80
516.8575, 10876.67
517.3397, 10857.14
517.8218, 10847.23
518.3039, 10848.75
518.7860, 10884.94
519.2681, 10909.99
519.7502, 10908.07
520.2324, 10876.39
520.7145, 10845.22
521.1966, 10813.58
521.6787, 10783.89
522.1608, 10757.16
522.6429, 10732.77
523.1251, 10713.80
523.6072, 10698.97
524.0893, 10692.07
524.5714, 10709.34
525.0535, 10750.96
525.5356, 10778.24
526.0178, 10762.71
526.4999, 10720.96
526.9820, 10699.31
527.4641, 10698.04
527.9462, 10697.09
528.4283, 10673.42
528.9105, 10641.74
529.3926, 10624.08
529.8747, 10630.34
530.3568, 10641.85
530.8389, 10653.21
531.3210, 10660.88
531.8032, 10658.35
532.2853, 10633.02
532.7674, 10606.92
533.2495, 10587.16
533.7316, 10573.98
534.2137, 10569.53
534.6959, 10589.26
535.1780, 10605.86
535.6601, 10600.81
536.1422, 10551.35
536.6243, 10532.90
537.1064, 10559.52
537.5885, 10607.36
538.0706, 10630.04
538.5527, 10621.35
539.0349, 10624.53
539.5170, 10661.59
539.9991, 10720.17
540.4812, 10750.19
540.9633, 10751.37
541.4454, 10751.15
541.9276, 10775.90
542.4097, 10813.71
542.8918, 10839.15
543.3739, 10845.32
543.8560, 10851.27
544.3381, 10875.12
544.8203, 10909.36
545.3024, 10941.21
545.7845, 10963.75
546.2666, 10984.79
546.7487, 11008.50
547.2308, 11034.21
547.7130, 11058.19
548.1951, 11075.33
548.6772, 11094.04
549.1593, 11118.94
549.6414, 11152.81
550.1235, 11184.66
550.6057, 11211.16
551.0878, 11238.78
551.5699, 11277.09
552.0520, 11329.48
552.5341, 11377.90
553.0162, 11418.21
553.4984, 11452.75
553.9805, 11486.19
554.4626, 11518.52
554.9447, 11555.10
555.4268, 11606.12
555.9089, 11662.34
556.3911, 11696.43
556.8732, 11706.17
557.3553, 11722.10
557.8374, 11772.71
558.3195, 11844.48
558.8016, 11919.67
559.2838, 12001.38
559.7659, 12074.23
560.2480, 12124.83
560.7301, 12160.79
561.2122, 12197.99
561.6943, 12238.65
562.1765, 12282.69
562.6586, 12324.78
563.1407, 12363.58
563.6228, 12430.07
564.1049, 12547.08
564.5870, 12662.54
565.0692, 12739.45
565.5513, 12768.02
566.0334, 12797.57
566.5155, 12829.17
566.9976, 12865.55
567.4797, 12910.78
567.9619, 12964.73
568.4440, 13031.91
568.9261, 13117.41
569.4082, 13213.38
569.8903, 13314.11
570.3724, 13415.04
570.8546, 13498.54
571.3367, 13523.68
571.8188, 13540.88
572.3009, 13606.01
572.7830, 13733.69
573.2651, 13858.67
573.7473, 13940.80
574.2294, 14010.13
574.7115, 14094.62
575.1936, 14230.49
575.6757, 14347.18
576.1578, 14419.20
576.6400, 14467.62
577.1221, 14546.48
577.6042, 14669.71
578.0863, 14797.76
578.5684, 14912.45
579.0505, 15015.25
579.5327, 15137.29
580.0148, 15279.28
580.4969, 15434.92
580.9790, 15603.97
581.4611, 15784.25
581.9432, 15956.40
582.4254, 16112.95
582.9075, 16272.19
583.3896, 16455.95
583.8717, 16657.63
584.3538, 16859.69
584.8359, 17036.90
585.3181, 17227.72
585.8002, 17466.50
586.2823, 17742.03
586.7644, 18014.04
587.2465, 18247.49
587.7286, 18492.33
588.2108, 18772.39
588.6929, 19095.41
589.1750, 19433.80
589.6571, 19782.80
590.1392, 20151.82
590.6213, 20554.73
591.1035, 20996.54
591.5856, 21449.80
592.0677, 21903.18
592.5498, 22378.21
593.0319, 22925.69
593.5140, 23543.31
593.9962, 24180.33
594.4783, 24790.57
594.9604, 25413.03
595.4425, 26112.85
595.9246, 26883.20
596.4067, 27716.68
596.8889, 28641.65
597.3710, 29610.89
597.8531, 30562.44
598.3352, 31470.40
598.8173, 32427.25
599.2994, 33464.42
599.7816, 34572.89
600.2637, 35729.68
600.7458, 36935.61
601.2279, 38209.49
601.7100, 39541.76
602.1921, 40927.90
602.6743, 42329.63
603.1564, 43718.20
603.6385, 45166.11
604.1206, 46719.43
604.6027, 48349.98
605.0848, 49961.77
605.5670, 51545.37
606.0491, 53130.30
606.5312, 54800.29
607.0133, 56486.52
607.4954, 58080.65
607.9775, 59554.67
608.4597, 60935.19
608.9418, 62292.32
609.4239, 63538.17
609.9060, 64547.16
610.3881, 65339.05
610.8702, 65835.02
611.3524, 66009.15
611.8345, 65870.77
612.3166, 65437.42
612.7987, 64626.52
613.2808, 63594.29
613.7629, 62353.45
614.2451, 60890.07
614.7272, 59407.10
615.2093, 57881.65
615.6914, 56402.80
616.1735, 55027.50
616.6556, 53758.05
617.1378, 52643.41
617.6199, 51685.76
618.1020, 50885.23
618.5840, 50247.50
619.0662, 49768.14
619.5483, 49430.34
620.0304, 49239.68
620.5125, 49178.72
620.9946, 49244.50
621.4767, 49428.91
