##NAMES=Rodalquilarite
##RRUFFID=R061063
##IDEAL CHEMISTRY=H_3_Fe^3+^_2_(Te^4+^O_3_)_4_Cl
##LOCALITY=Wendy open pit, Tambo mine, El Indio deposit, Elqui Province, Coquimbo Region, Chile
##OWNER=RRUFF
##SOURCE=Bob Jenkins
##DESCRIPTION=Grass bladed crystals on quartz found with alunite
##STATUS=The identification of this mineral has been confirmed by single-crystal X-ray diffraction.
##URL=rruff.info/R061063
133.5810, 3887.942
134.0632, 4090.726
134.5453, 4323.264
135.0274, 4585.740
135.5095, 4878.492
135.9916, 5201.149
136.4737, 5555.852
136.9559, 5942.765
137.4380, 6355.798
137.9201, 6822.966
138.4022, 7382.958
138.8843, 7969.272
139.3664, 8569.844
139.8486, 9169.688
140.3307, 9697.705
140.8128, 10041.53
141.2949, 10184.09
141.7770, 10124.11
142.2591, 9762.089
142.7413, 9239.324
143.2234, 8667.889
143.7055, 8082.046
144.1876, 7518.406
144.6697, 7044.078
145.1518, 6667.991
145.6340, 6359.642
146.1161, 6137.821
146.5982, 5976.200
147.0803, 5844.648
147.5624, 5734.869
148.0445, 5639.706
148.5267, 5543.776
149.0088, 5443.767
149.4909, 5350.682
149.9730, 5267.827
150.4551, 5193.445
150.9372, 5123.699
151.4194, 5055.908
151.9015, 4993.749
152.3836, 4945.885
152.8657, 4916.481
153.3478, 4888.668
153.8299, 4856.553
154.3121, 4821.223
154.7942, 4782.141
155.2763, 4732.711
155.7584, 4687.805
156.2405, 4678.329
156.7226, 4712.850
157.2048, 4759.973
157.6869, 4806.550
158.1690, 4853.134
158.6511, 4902.596
159.1332, 4953.539
159.6153, 5010.264
160.0975, 5079.636
160.5796, 5167.491
161.0617, 5257.066
161.5438, 5331.242
162.0259, 5393.244
162.5080, 5470.849
162.9902, 5579.510
163.4723, 5710.360
163.9544, 5842.077
164.4365, 5968.514
164.9186, 6104.578
165.4007, 6262.158
165.8829, 6440.931
166.3650, 6628.912
166.8471, 6816.763
167.3292, 7013.836
167.8113, 7231.760
168.2934, 7470.182
168.7756, 7730.881
169.2577, 8021.120
169.7398, 8341.591
170.2219, 8664.117
170.7040, 8973.343
171.1861, 9279.889
171.6683, 9599.729
172.1504, 9938.961
172.6325, 10283.31
173.1146, 10622.18
173.5967, 10957.04
174.0788, 11277.46
174.5610, 11585.15
175.0431, 11875.37
175.5252, 12147.68
176.0073, 12417.78
176.4894, 12640.82
176.9715, 12764.07
177.4537, 12781.53
177.9358, 12741.38
178.4179, 12645.30
178.9000, 12504.98
179.3821, 12317.33
179.8642, 12062.84
180.3464, 11799.75
180.8285, 11595.77
181.3106, 11454.42
181.7927, 11351.93
182.2748, 11299.90
182.7569, 11275.09
183.2391, 11256.00
183.7212, 11230.50
184.2033, 11226.34
184.6854, 11286.65
185.1675, 11421.69
185.6496, 11568.67
186.1318, 11718.44
186.6139, 11862.54
187.0960, 11997.11
187.5781, 12125.07
188.0602, 12231.65
188.5423, 12298.95
189.0245, 12324.43
189.5066, 12319.91
189.9887, 12289.30
190.4708, 12229.58
190.9529, 12127.21
191.4350, 11972.83
191.9172, 11798.84
192.3993, 11634.71
192.8814, 11472.77
193.3635, 11359.47
193.8456, 11341.16
194.3277, 11363.57
194.8099, 11384.74
195.2920, 11391.13
195.7741, 11410.50
196.2562, 11487.42
196.7383, 11635.72
197.2204, 11776.06
197.7026, 11890.61
198.1847, 11984.15
198.6668, 12064.99
199.1489, 12138.25
199.6310, 12177.48
200.1131, 12151.20
200.5953, 12056.56
201.0774, 11912.46
201.5595, 11693.13
202.0416, 11439.93
202.5237, 11167.87
203.0058, 10876.19
203.4880, 10600.08
203.9701, 10383.19
204.4522, 10230.87
204.9343, 10095.52
205.4164, 9970.386
205.8985, 9857.495
206.3807, 9759.658
206.8628, 9676.967
207.3449, 9607.485
207.8270, 9561.007
208.3091, 9542.845
208.7912, 9491.968
209.2734, 9386.845
209.7555, 9247.643
210.2376, 9082.612
210.7197, 8892.942
211.2018, 8690.264
211.6839, 8485.786
212.1660, 8279.725
212.6482, 8066.162
213.1303, 7827.585
213.6124, 7597.593
214.0945, 7397.217
214.5766, 7228.661
215.0587, 7083.673
215.5409, 6957.114
216.0230, 6849.297
216.5051, 6765.034
216.9872, 6712.595
217.4693, 6679.919
217.9514, 6654.954
218.4336, 6638.696
218.9157, 6641.178
219.3978, 6670.435
219.8799, 6725.634
220.3620, 6798.519
220.8441, 6887.883
221.3263, 6998.958
221.8084, 7136.007
222.2905, 7296.441
222.7726, 7465.058
223.2547, 7630.003
223.7368, 7795.098
224.2190, 7980.843
224.7011, 8198.375
225.1832, 8423.986
225.6653, 8642.545
226.1474, 8856.094
226.6295, 9072.080
227.1117, 9291.681
227.5938, 9515.530
228.0759, 9756.369
228.5580, 10036.06
229.0401, 10285.49
229.5222, 10455.46
230.0044, 10564.58
230.4865, 10646.38
230.9686, 10728.42
231.4507, 10790.13
231.9328, 10789.35
232.4149, 10721.31
232.8971, 10602.42
233.3792, 10423.43
233.8613, 10203.41
234.3434, 9966.428
234.8255, 9715.016
235.3076, 9454.732
235.7898, 9188.923
236.2719, 8915.575
236.7540, 8646.144
237.2361, 8374.598
237.7182, 8112.816
238.2003, 7878.797
238.6825, 7681.796
239.1646, 7509.100
239.6467, 7348.427
240.1288, 7198.996
240.6109, 7072.148
241.0930, 6984.396
241.5752, 6918.625
242.0573, 6840.657
242.5394, 6733.554
243.0215, 6637.106
243.5036, 6584.313
243.9857, 6571.496
244.4679, 6571.541
244.9500, 6576.879
245.4321, 6587.511
245.9142, 6599.481
246.3963, 6606.481
246.8784, 6629.989
247.3606, 6685.984
247.8427, 6768.096
248.3248, 6856.092
248.8069, 6938.990
249.2890, 7032.092
249.7711, 7162.746
250.2533, 7331.300
250.7354, 7516.715
251.2175, 7712.977
251.6996, 7919.334
252.1817, 8139.147
252.6638, 8374.975
253.1460, 8614.032
253.6281, 8838.105
254.1102, 9044.588
254.5923, 9256.459
255.0744, 9503.172
255.5565, 9747.123
256.0387, 9947.618
256.5208, 10096.87
257.0029, 10200.79
257.4850, 10267.28
257.9671, 10294.07
258.4492, 10256.85
258.9314, 10134.08
259.4135, 9961.348
259.8956, 9759.831
260.3777, 9532.445
260.8598, 9280.688
261.3419, 8997.854
261.8241, 8684.188
262.3062, 8383.404
262.7883, 8085.808
263.2704, 7810.481
263.7525, 7560.848
264.2346, 7339.511
264.7168, 7149.144
265.1989, 6992.443
265.6810, 6867.681
266.1631, 6768.170
266.6452, 6703.655
267.1273, 6648.448
267.6095, 6593.006
268.0916, 6542.959
268.5737, 6508.331
269.0558, 6494.242
269.5379, 6497.592
270.0201, 6508.721
270.5022, 6523.311
270.9843, 6552.590
271.4664, 6598.591
271.9485, 6658.865
272.4306, 6733.086
272.9128, 6820.367
273.3949, 6916.700
273.8770, 7014.989
274.3591, 7121.291
274.8412, 7218.299
275.3233, 7298.130
275.8055, 7375.435
276.2876, 7466.181
276.7697, 7569.917
277.2518, 7667.203
277.7339, 7735.630
278.2160, 7770.782
278.6982, 7793.174
279.1803, 7817.058
279.6624, 7815.717
280.1445, 7769.087
280.6266, 7684.285
281.1087, 7584.900
281.5909, 7487.483
282.0730, 7391.933
282.5551, 7300.101
283.0372, 7209.102
283.5193, 7125.066
284.0014, 7046.616
284.4836, 6976.698
284.9657, 6921.089
285.4478, 6885.440
285.9299, 6864.083
286.4120, 6841.450
286.8941, 6814.959
287.3763, 6793.457
287.8584, 6776.586
288.3405, 6767.302
288.8226, 6769.746
289.3047, 6785.806
289.7868, 6812.387
290.2690, 6846.700
290.7511, 6889.151
291.2332, 6935.200
291.7153, 6978.689
292.1974, 7029.217
292.6795, 7097.608
293.1617, 7186.116
293.6438, 7279.099
294.1259, 7360.517
294.6080, 7434.041
295.0901, 7520.985
295.5722, 7625.940
296.0544, 7745.420
296.5365, 7874.478
297.0186, 8012.666
297.5007, 8167.987
297.9828, 8341.464
298.4649, 8535.208
298.9471, 8753.700
299.4292, 9000.113
299.9113, 9265.726
300.3934, 9541.915
300.8755, 9831.636
301.3576, 10148.81
301.8398, 10496.17
302.3219, 10869.72
302.8040, 11262.00
303.2861, 11675.18
303.7682, 12124.68
304.2503, 12626.97
304.7325, 13174.16
305.2146, 13726.36
305.6967, 14286.73
306.1788, 14846.45
306.6609, 15403.94
307.1430, 15962.01
307.6252, 16532.94
308.1073, 17120.73
308.5894, 17714.02
309.0715, 18280.99
309.5536, 18853.79
310.0357, 19354.37
310.5179, 19765.69
311.0000, 20114.73
311.4821, 20428.50
311.9642, 20712.37
312.4463, 20949.46
312.9284, 21114.52
313.4106, 21192.45
313.8927, 21250.62
314.3748, 21303.58
314.8569, 21328.38
315.3390, 21302.78
315.8211, 21237.09
316.3033, 21161.84
316.7854, 21100.54
317.2675, 21051.27
317.7496, 20988.69
318.2317, 20914.03
318.7138, 20821.94
319.1960, 20730.94
319.6781, 20617.15
320.1602, 20446.75
320.6423, 20201.71
321.1244, 19901.65
321.6065, 19582.51
322.0887, 19237.96
322.5708, 18894.96
323.0529, 18566.68
323.5350, 18237.37
324.0171, 17891.44
324.4992, 17525.81
324.9814, 17163.86
325.4635, 16826.45
325.9456, 16510.49
326.4277, 16206.20
326.9098, 15894.04
327.3919, 15621.05
327.8741, 15419.98
328.3562, 15285.69
328.8383, 15195.21
329.3204, 15139.69
329.8025, 15121.56
330.2846, 15135.75
330.7668, 15177.36
331.2489, 15285.92
331.7310, 15489.79
332.2131, 15789.43
332.6952, 16166.37
333.1773, 16621.75
333.6595, 17151.63
334.1415, 17754.77
334.6237, 18429.67
335.1058, 19160.61
335.5879, 19937.64
336.0700, 20769.86
336.5521, 21691.23
337.0342, 22754.92
337.5164, 23796.56
337.9985, 24776.03
338.4806, 25723.41
338.9627, 26697.54
339.4448, 27704.61
339.9269, 28677.91
340.4091, 29540.34
340.8912, 30296.15
341.3733, 30899.40
341.8554, 31447.87
342.3375, 31783.52
342.8196, 31836.04
343.3018, 31604.12
343.7839, 31104.23
344.2660, 30335.56
344.7481, 29313.41
345.2302, 28156.89
345.7123, 26800.03
346.1945, 25392.71
346.6766, 23896.44
347.1587, 22387.52
347.6408, 20937.39
348.1229, 19565.11
348.6050, 18278.50
349.0872, 17081.21
349.5693, 15962.06
350.0514, 14963.77
350.5335, 14141.26
351.0156, 13415.55
351.4977, 12750.32
351.9799, 12138.41
352.4620, 11577.43
352.9441, 11065.38
353.4262, 10601.44
353.9083, 10190.99
354.3904, 9841.006
354.8726, 9524.865
355.3547, 9233.108
355.8368, 8962.051
356.3189, 8712.705
356.8010, 8489.690
357.2831, 8283.907
357.7653, 8083.125
358.2474, 7890.125
358.7295, 7724.265
359.2116, 7600.673
359.6937, 7503.575
360.1758, 7388.043
360.6580, 7237.094
361.1401, 7104.824
361.6222, 7015.711
362.1043, 6949.311
362.5864, 6877.430
363.0685, 6793.517
363.5507, 6714.886
364.0328, 6664.095
364.5149, 6649.291
364.9970, 6628.288
365.4791, 6598.137
365.9612, 6565.298
366.4434, 6524.158
366.9255, 6482.533
367.4076, 6458.903
367.8897, 6466.615
368.3718, 6499.343
368.8539, 6527.460
369.3361, 6550.095
369.8182, 6568.607
370.3003, 6575.179
370.7824, 6582.358
371.2645, 6603.481
371.7466, 6642.079
372.2288, 6687.710
372.7109, 6726.603
373.1930, 6757.866
373.6751, 6796.485
374.1572, 6847.440
374.6393, 6902.765
375.1215, 6960.438
375.6036, 7018.475
376.0857, 7070.108
376.5678, 7097.339
377.0499, 7120.920
377.5320, 7180.585
378.0142, 7279.592
378.4963, 7388.214
378.9784, 7496.042
379.4605, 7599.910
379.9426, 7691.477
380.4247, 7759.734
380.9069, 7832.995
381.3890, 7923.569
381.8711, 8029.556
382.3532, 8150.222
382.8353, 8286.872
383.3174, 8429.897
383.7996, 8565.030
384.2817, 8686.230
384.7638, 8820.673
385.2459, 8978.354
385.7280, 9140.668
386.2101, 9288.720
386.6923, 9429.351
387.1744, 9585.780
387.6565, 9775.964
388.1386, 9995.867
388.6207, 10217.51
389.1028, 10439.29
389.5850, 10663.38
390.0671, 10880.95
390.5492, 11104.13
391.0313, 11349.51
391.5134, 11620.42
391.9955, 11903.04
392.4777, 12177.08
392.9598, 12441.04
393.4419, 12721.42
393.9240, 13039.57
394.4061, 13353.19
394.8882, 13625.81
395.3704, 13867.60
395.8525, 14116.59
396.3346, 14397.25
396.8167, 14693.25
397.2988, 14974.42
397.7809, 15239.76
398.2631, 15510.86
398.7452, 15804.51
399.2273, 16107.13
399.7094, 16387.42
400.1915, 16629.03
400.6736, 16879.81
401.1558, 17151.63
401.6379, 17447.65
402.1200, 17772.00
402.6021, 18127.78
403.0842, 18508.91
403.5663, 18911.95
404.0485, 19348.54
404.5306, 19752.11
405.0127, 20092.72
405.4948, 20437.37
405.9769, 20832.22
406.4590, 21252.59
406.9412, 21646.20
407.4233, 21983.10
407.9054, 22276.42
408.3875, 22562.10
408.8696, 22880.72
409.3517, 23101.54
409.8339, 23216.33
410.3160, 23229.90
410.7981, 23134.39
411.2802, 22932.13
411.7623, 22644.66
412.2444, 22292.30
412.7266, 21872.09
413.2087, 21349.19
413.6908, 20702.94
414.1729, 19999.77
414.6550, 19257.51
415.1371, 18489.71
415.6193, 17702.45
416.1014, 16876.39
416.5835, 16066.40
417.0656, 15312.96
417.5477, 14611.65
418.0298, 13947.50
418.5120, 13306.97
418.9941, 12709.98
419.4762, 12188.04
419.9583, 11762.56
420.4404, 11353.24
420.9225, 10944.26
421.4047, 10559.49
421.8868, 10217.19
422.3689, 9914.576
422.8510, 9637.198
423.3331, 9377.535
423.8152, 9134.288
424.2974, 8908.034
424.7795, 8693.088
425.2616, 8508.434
425.7437, 8367.535
426.2258, 8248.333
426.7079, 8132.076
427.1901, 8014.831
427.6722, 7903.346
428.1543, 7800.436
428.6364, 7707.241
429.1185, 7634.957
429.6006, 7589.149
430.0828, 7556.044
430.5649, 7528.988
431.0470, 7507.480
431.5291, 7490.653
432.0112, 7473.758
432.4933, 7466.831
432.9755, 7481.515
433.4576, 7514.311
433.9397, 7550.184
434.4218, 7582.613
434.9039, 7619.831
435.3860, 7674.864
435.8682, 7749.911
436.3503, 7837.884
436.8324, 7950.834
437.3145, 8067.055
437.7966, 8165.886
438.2787, 8252.421
438.7609, 8347.604
439.2430, 8468.142
439.7251, 8607.398
440.2072, 8735.322
440.6893, 8850.284
441.1714, 8956.007
441.6536, 9049.465
442.1357, 9137.715
442.6178, 9230.007
443.0999, 9326.534
443.5820, 9413.961
444.0641, 9476.329
444.5463, 9517.435
445.0284, 9563.043
445.5105, 9622.215
445.9926, 9666.706
446.4747, 9675.095
446.9568, 9656.354
447.4390, 9624.272
447.9211, 9582.184
448.4032, 9525.695
448.8853, 9449.349
449.3674, 9356.881
449.8495, 9254.310
450.3317, 9143.921
450.8138, 9026.569
451.2959, 8902.806
451.7780, 8770.181
452.2601, 8643.821
452.7422, 8526.086
453.2244, 8412.867
453.7065, 8297.467
454.1886, 8185.594
454.6707, 8090.483
455.1528, 8020.685
455.6349, 7964.157
456.1171, 7888.911
456.5992, 7780.522
457.0813, 7694.363
457.5634, 7648.925
458.0455, 7619.836
458.5276, 7599.405
459.0098, 7584.550
459.4919, 7567.113
459.9740, 7536.809
460.4561, 7502.248
460.9382, 7476.144
461.4203, 7457.642
461.9025, 7463.610
462.3846, 7513.271
462.8667, 7586.589
463.3488, 7632.712
463.8309, 7633.698
464.3130, 7652.414
464.7952, 7722.099
465.2773, 7809.945
465.7594, 7881.827
466.2415, 7932.459
466.7236, 7970.404
467.2057, 8001.795
467.6879, 8026.948
468.1700, 8053.969
468.6521, 8089.235
469.1342, 8118.182
469.6163, 8149.258
470.0984, 8167.464
470.5806, 8156.996
471.0627, 8113.824
471.5448, 8046.942
472.0269, 7958.820
472.5090, 7851.344
472.9911, 7753.016
473.4733, 7670.607
473.9554, 7585.542
474.4375, 7481.473
474.9196, 7365.695
475.4017, 7253.183
475.8839, 7148.731
476.3660, 7044.380
476.8481, 6931.021
477.3302, 6814.092
477.8123, 6708.904
478.2944, 6620.394
478.7766, 6536.053
479.2587, 6440.114
479.7408, 6327.396
480.2229, 6229.894
480.7050, 6154.658
481.1871, 6084.720
481.6693, 6013.084
482.1514, 5942.794
482.6335, 5881.003
483.1156, 5831.356
483.5977, 5786.847
484.0798, 5735.191
484.5620, 5674.651
485.0441, 5617.823
485.5262, 5564.299
486.0083, 5517.375
486.4904, 5481.890
486.9725, 5454.955
487.4547, 5426.645
487.9368, 5393.635
488.4189, 5357.417
488.9010, 5316.597
489.3831, 5273.175
489.8652, 5237.450
490.3474, 5214.453
490.8295, 5196.922
491.3116, 5173.329
491.7937, 5141.891
492.2758, 5108.672
492.7579, 5070.411
493.2401, 5033.553
493.7222, 5001.434
494.2043, 4973.583
494.6864, 4947.630
495.1685, 4922.242
495.6506, 4898.216
496.1328, 4878.330
496.6149, 4864.619
497.0970, 4846.684
497.5791, 4815.701
498.0612, 4786.629
498.5433, 4770.506
499.0254, 4765.632
499.5075, 4762.233
499.9897, 4760.806
500.4718, 4755.441
500.9539, 4733.444
501.4360, 4698.074
501.9181, 4672.398
502.4002, 4667.722
502.8824, 4674.462
503.3645, 4676.292
503.8466, 4674.575
504.3287, 4663.521
504.8108, 4629.514
505.2929, 4597.928
505.7751, 4584.229
506.2572, 4586.640
506.7393, 4599.095
507.2214, 4619.786
507.7035, 4641.039
508.1856, 4641.292
508.6678, 4613.923
509.1499, 4589.877
509.6320, 4573.550
510.1141, 4563.119
510.5962, 4559.161
511.0783, 4560.541
511.5605, 4561.706
512.0426, 4560.873
512.5247, 4558.188
513.0068, 4551.087
513.4890, 4541.148
513.9711, 4539.855
514.4532, 4554.849
514.9353, 4572.181
515.4174, 4564.962
515.8995, 4514.254
516.3817, 4486.374
516.8638, 4501.476
517.3459, 4520.372
517.8280, 4518.063
518.3101, 4501.882
518.7922, 4494.077
519.2744, 4507.712
519.7565, 4528.607
520.2386, 4525.440
520.7207, 4493.026
521.2028, 4469.346
521.6849, 4464.981
522.1671, 4466.166
522.6492, 4462.070
523.1313, 4454.040
523.6134, 4447.998
524.0955, 4446.405
524.5776, 4447.048
525.0598, 4449.531
525.5419, 4452.878
526.0240, 4454.129
526.5061, 4452.260
526.9882, 4448.023
527.4703, 4442.035
527.9525, 4432.811
528.4346, 4427.775
528.9167, 4429.324
529.3988, 4432.048
529.8809, 4434.500
530.3630, 4436.616
530.8452, 4438.214
531.3273, 4439.108
531.8094, 4440.843
532.2915, 4449.124
532.7736, 4463.090
533.2557, 4461.375
533.7379, 4432.958
534.2200, 4406.226
534.7021, 4407.649
535.1842, 4428.883
535.6663, 4442.480
536.1484, 4438.834
536.6306, 4434.672
537.1127, 4435.629
537.5948, 4441.697
538.0769, 4456.190
538.5590, 4478.717
539.0411, 4498.512
539.5233, 4503.545
540.0054, 4493.668
540.4875, 4486.745
540.9696, 4480.406
541.4517, 4480.983
541.9338, 4495.419
542.4160, 4513.998
542.8981, 4528.491
543.3802, 4537.008
543.8623, 4537.948
544.3444, 4519.811
544.8265, 4495.238
545.3087, 4497.246
545.7908, 4528.973
546.2729, 4564.721
546.7550, 4592.349
547.2371, 4611.593
547.7192, 4620.678
548.2014, 4614.848
548.6835, 4608.351
549.1656, 4597.874
549.6477, 4590.976
550.1298, 4595.015
550.6119, 4608.589
551.0941, 4624.820
551.5762, 4639.066
552.0583, 4652.702
552.5404, 4670.805
553.0225, 4695.569
553.5046, 4713.954
553.9868, 4718.752
554.4689, 4720.147
554.9510, 4727.013
555.4331, 4738.807
555.9152, 4751.309
556.3973, 4763.725
556.8795, 4775.925
557.3616, 4785.959
557.8437, 4795.705
558.3258, 4810.359
558.8079, 4831.969
559.2900, 4857.642
559.7722, 4884.781
560.2543, 4915.954
560.7364, 4935.525
561.2185, 4929.765
561.7006, 4926.793
562.1827, 4934.952
562.6649, 4950.613
563.1470, 4968.747
563.6291, 4988.118
564.1112, 5008.241
564.5933, 5029.569
565.0754, 5051.368
565.5576, 5070.706
566.0397, 5087.050
566.5218, 5103.099
567.0039, 5121.266
567.4860, 5140.464
567.9681, 5155.623
568.4503, 5152.501
568.9324, 5166.209
569.4145, 5220.508
569.8966, 5279.375
570.3787, 5308.373
570.8608, 5310.855
571.3430, 5315.506
571.8251, 5343.493
572.3072, 5385.743
572.7893, 5417.160
573.2714, 5435.682
573.7535, 5454.561
574.2357, 5472.808
574.7178, 5497.182
575.1999, 5537.519
575.6820, 5591.643
576.1641, 5641.633
576.6462, 5673.669
577.1284, 5709.291
577.6105, 5770.847
578.0926, 5844.952
578.5747, 5901.698
579.0568, 5932.225
579.5389, 5955.727
580.0211, 5996.573
580.5032, 6055.834
580.9852, 6118.717
581.4673, 6188.411
581.9495, 6257.600
582.4316, 6320.821
582.9137, 6383.679
583.3958, 6452.029
583.8779, 6526.674
584.3600, 6609.834
584.8422, 6707.097
585.3243, 6812.000
585.8064, 6917.991
586.2885, 7023.536
586.7706, 7117.355
587.2527, 7189.238
587.7349, 7252.797
588.2170, 7341.967
588.6991, 7458.804
589.1812, 7599.297
589.6633, 7775.684
590.1454, 7960.983
590.6276, 8138.001
591.1097, 8312.681
591.5918, 8498.964
592.0739, 8699.521
592.5560, 8923.283
593.0381, 9188.939
593.5203, 9489.246
594.0024, 9788.006
594.4845, 10076.71
594.9666, 10382.32
595.4487, 10726.23
595.9308, 11107.07
596.4130, 11526.20
596.8951, 11964.98
597.3772, 12461.13
597.8593, 13026.28
598.3414, 13645.99
598.8235, 14305.86
599.3057, 15008.69
599.7878, 15768.63
600.2699, 16596.31
600.7520, 17489.80
601.2341, 18445.84
601.7162, 19463.28
602.1984, 20536.15
602.6805, 21653.72
603.1626, 22833.38
603.6447, 24106.58
604.1268, 25470.13
604.6089, 26869.68
605.0911, 28349.19
605.5732, 29813.48
606.0553, 31235.91
606.5374, 32600.23
607.0195, 33889.78
607.5016, 35098.87
607.9838, 36213.17
608.4659, 37255.33
608.9480, 38204.88
609.4301, 38896.59
609.9122, 39354.98
610.3943, 39488.39
610.8765, 39228.00
611.3586, 38626.61
611.8407, 37749.45
612.3228, 36580.87
612.8049, 35291.30
613.2870, 33896.39
613.7692, 32428.24
614.2513, 30865.77
614.7334, 29249.22
615.2155, 27681.49
615.6976, 26198.35
616.1797, 24803.11
616.6619, 23503.97
617.1440, 22296.74
617.6261, 21213.10
618.1082, 20265.20
618.5903, 19436.02
619.0724, 18756.32
619.5546, 18175.63
620.0367, 17631.49
620.5188, 17109.78
621.0009, 16667.06
621.4830, 16355.06
621.9651, 16116.74
622.4473, 15888.75
622.9294, 15677.19
623.4115, 15530.83
623.8936, 15476.80
624.3757, 15484.23
624.8578, 15492.65
625.3400, 15496.67
625.8221, 15521.88
626.3042, 15566.50
626.7863, 15637.05
627.2684, 15725.91
627.7505, 15843.23
628.2327, 16011.59
628.7148, 16245.99
629.1969, 16493.71
629.6790, 16720.10
630.1611, 16944.12
