##NAMES=Roeblingite
##RRUFFID=R140328
##IDEAL CHEMISTRY=Pb^2+^_2_Ca_6_Mn^2+^(Si_3_O_9_)_2_(S^6+^O_4_)_2_(OH)_2_&#183;4H_2_O
##LOCALITY=LÃ¥ngban, Varmland, Sweden
##OWNER=RRUFF
##SOURCE=Benjamin N. Schumer
##DESCRIPTION=Tabular, colorless crystals
##STATUS=The identification of this mineral has been confirmed by single-crystal X-ray diffraction.
##URL=rruff.info/R140328
90.23535, 294.7099
90.71747, 293.6061
91.19958, 293.2280
91.68170, 293.8018
92.16382, 294.9637
92.64594, 296.5993
93.12805, 295.7055
93.61017, 291.0016
94.09229, 285.5972
94.57440, 280.4236
95.05651, 276.7724
95.53863, 275.3094
96.02074, 274.9586
96.50286, 274.8824
96.98498, 274.5400
97.46709, 273.3958
97.94921, 272.2287
98.43133, 270.2815
98.91344, 269.2298
99.39556, 269.5276
99.87768, 270.9381
100.3598, 272.9425
100.8419, 275.1999
101.3240, 277.9114
101.8061, 281.3528
102.2883, 286.2363
102.7704, 291.3545
103.2525, 295.2024
103.7346, 297.4271
104.2167, 300.2563
104.6988, 305.5628
105.1810, 312.3002
105.6631, 319.0527
106.1452, 324.8856
106.6273, 330.1979
107.1094, 336.7517
107.5915, 345.2100
108.0737, 354.2206
108.5558, 363.8535
109.0379, 373.6524
109.5200, 382.6418
110.0021, 390.5679
110.4842, 398.1198
110.9664, 400.5354
111.4485, 396.1727
111.9306, 388.6227
112.4127, 378.3325
112.8948, 365.9576
113.3769, 352.7513
113.8591, 340.5348
114.3412, 328.7075
114.8233, 319.2533
115.3054, 312.1777
115.7875, 307.2528
116.2696, 304.4420
116.7517, 303.7582
117.2339, 304.7846
117.7160, 306.7157
118.1981, 309.0842
118.6802, 312.8551
119.1623, 318.6641
119.6444, 326.1376
120.1266, 334.4678
120.6087, 343.7278
121.0908, 353.2607
121.5729, 362.2167
122.0550, 371.4642
122.5371, 378.6796
123.0193, 381.9006
123.5014, 381.0660
123.9835, 376.9004
124.4656, 367.9308
124.9477, 356.3506
125.4298, 343.3711
125.9120, 328.9424
126.3941, 314.0652
126.8762, 301.0856
127.3583, 290.0960
127.8404, 281.1432
128.3225, 274.1635
128.8047, 268.7783
129.2868, 264.5475
129.7689, 261.2014
130.2510, 258.7472
130.7331, 257.3304
131.2152, 257.0837
131.6974, 257.8316
132.1795, 259.6281
132.6616, 262.4333
133.1437, 266.1536
133.6258, 270.7272
134.1079, 276.2275
134.5901, 282.5267
135.0722, 289.2853
135.5543, 296.9140
136.0364, 305.5989
136.5185, 315.3559
137.0006, 326.1665
137.4828, 337.9959
137.9649, 351.1089
138.4470, 364.5029
138.9291, 379.5925
139.4112, 394.4112
139.8933, 406.9074
140.3755, 416.6736
140.8576, 423.6812
141.3397, 426.8392
141.8218, 426.5551
142.3039, 425.8152
142.7860, 424.5199
143.2681, 423.4282
143.7503, 425.2738
144.2324, 430.9208
144.7145, 439.8589
145.1966, 451.9384
145.6787, 467.0692
146.1608, 482.2820
146.6430, 496.7124
147.1251, 510.9680
147.6072, 518.5452
148.0893, 517.3440
148.5714, 509.1139
149.0535, 492.5667
149.5357, 467.8481
150.0178, 438.4999
150.4999, 409.3025
150.9820, 378.4397
151.4641, 351.5483
151.9462, 328.6439
152.4284, 309.1269
152.9105, 292.5958
153.3926, 278.9603
153.8747, 267.9199
154.3568, 258.8239
154.8389, 252.6718
155.3211, 247.6685
155.8032, 243.8477
156.2853, 241.0518
156.7674, 239.3312
157.2495, 238.7621
157.7316, 239.0163
158.2138, 238.6967
158.6959, 237.8787
159.1780, 236.5152
159.6601, 234.8866
160.1422, 232.7262
160.6243, 229.3325
161.1065, 224.1765
161.5886, 217.4968
162.0707, 210.8396
162.5528, 204.2392
163.0349, 197.6573
163.5170, 190.8777
163.9991, 183.9585
164.4813, 177.6005
164.9634, 172.2254
165.4455, 167.8085
165.9276, 164.1112
166.4097, 161.2304
166.8918, 158.9504
167.3740, 157.0836
167.8561, 155.6492
168.3382, 154.5572
168.8203, 153.6500
169.3024, 153.0753
169.7845, 153.1375
170.2667, 154.1274
170.7488, 155.7227
171.2309, 157.1712
171.7130, 158.3183
172.1951, 159.6122
172.6772, 161.3518
173.1594, 163.3083
173.6415, 165.1599
174.1236, 166.6856
174.6057, 167.9500
175.0878, 169.3340
175.5699, 171.0222
176.0521, 172.6258
176.5342, 174.0320
177.0163, 175.2811
177.4984, 176.3949
177.9805, 177.3352
178.4626, 178.0987
178.9448, 179.4476
179.4269, 181.7924
179.9090, 184.3119
180.3911, 186.9443
180.8732, 189.5752
181.3553, 191.9495
181.8375, 193.7848
182.3196, 194.9580
182.8017, 196.8642
183.2838, 200.2276
183.7659, 203.5110
184.2480, 206.2550
184.7301, 208.2995
185.2123, 209.4143
185.6944, 209.3784
186.1765, 208.0328
186.6586, 205.7607
187.1407, 202.3955
187.6228, 198.3068
188.1050, 193.5371
188.5871, 188.1496
189.0692, 182.6252
189.5513, 177.3862
190.0334, 172.4555
190.5155, 167.6680
190.9977, 162.7913
191.4798, 158.1751
191.9619, 154.2647
192.4440, 151.1669
192.9261, 148.4465
193.4082, 145.4867
193.8904, 142.4737
194.3725, 140.2883
194.8546, 139.9299
195.3367, 140.4586
195.8188, 139.8826
196.3009, 137.6189
196.7831, 135.1741
197.2652, 133.4606
197.7473, 132.3926
198.2294, 131.9097
198.7115, 132.1575
199.1936, 133.0075
199.6758, 133.9063
200.1579, 134.8233
200.6400, 135.8341
201.1221, 136.9032
201.6042, 138.0693
202.0863, 139.4075
202.5685, 140.8997
203.0506, 142.5644
203.5327, 144.7009
204.0148, 147.5769
204.4969, 150.6982
204.9790, 154.0903
205.4612, 157.5779
205.9433, 160.8350
206.4254, 163.5391
206.9075, 165.6623
207.3896, 167.7794
207.8717, 170.1910
208.3539, 172.3158
208.8360, 174.1612
209.3181, 175.5762
209.8002, 176.2722
210.2823, 175.9580
210.7644, 174.5705
211.2466, 172.7141
211.7287, 170.2288
212.2108, 167.4861
212.6929, 164.4327
213.1750, 161.2044
213.6571, 158.0528
214.1393, 155.1927
214.6214, 152.6134
215.1035, 150.4683
215.5856, 148.5823
216.0677, 147.1579
216.5498, 146.3593
217.0320, 146.1436
217.5141, 146.2919
217.9962, 146.6075
218.4783, 147.0938
218.9604, 147.9594
219.4425, 149.1582
219.9247, 150.7185
220.4068, 152.7038
220.8889, 155.0954
221.3710, 157.7518
221.8531, 160.5085
222.3352, 163.4024
222.8174, 166.8793
223.2995, 171.2797
223.7816, 176.0054
224.2637, 180.7961
224.7458, 185.6054
225.2279, 190.0626
225.7100, 193.9024
226.1922, 197.0590
226.6743, 199.6515
227.1564, 201.5662
227.6385, 202.9815
228.1206, 203.9529
228.6027, 204.4755
229.0849, 204.7710
229.5670, 204.8826
230.0491, 204.8820
230.5312, 204.9684
231.0133, 205.0037
231.4954, 205.2365
231.9776, 205.8990
232.4597, 206.9814
232.9418, 208.5648
233.4239, 211.0044
233.9060, 213.9535
234.3881, 216.9022
234.8703, 219.5249
235.3524, 222.2640
235.8345, 225.7523
236.3166, 230.0925
236.7987, 234.8582
237.2808, 239.9227
237.7630, 245.2847
238.2451, 251.0386
238.7272, 257.2271
239.2093, 263.8049
239.6914, 270.5882
240.1735, 277.4850
240.6557, 285.0070
241.1378, 294.1566
241.6199, 303.6677
242.1020, 312.3870
242.5841, 319.9081
243.0662, 326.4391
243.5484, 332.5114
244.0305, 338.5738
244.5126, 342.8127
244.9947, 345.2577
245.4768, 345.6135
245.9589, 343.4819
246.4410, 338.7130
246.9232, 331.5128
247.4053, 321.6359
247.8874, 307.6040
248.3695, 294.4601
248.8516, 283.2338
249.3337, 273.0573
249.8159, 263.1932
250.2980, 253.4198
250.7801, 244.3315
251.2622, 236.8821
251.7443, 231.5053
252.2264, 227.0122
252.7086, 223.1390
253.1907, 220.0176
253.6728, 217.7862
254.1549, 216.4668
254.6370, 215.8808
255.1191, 215.7761
255.6013, 216.1926
256.0834, 217.0750
256.5655, 218.3750
257.0476, 220.0577
257.5297, 222.1095
258.0118, 224.5245
258.4940, 227.3138
258.9761, 230.4901
259.4582, 234.0548
259.9403, 238.0789
260.4224, 242.7297
260.9045, 247.6426
261.3867, 252.5967
261.8688, 257.5807
262.3509, 262.6548
262.8330, 267.9358
263.3151, 273.5009
263.7972, 279.0080
264.2794, 284.2749
264.7615, 289.6272
265.2436, 295.1250
265.7257, 300.8174
266.2078, 306.8317
266.6899, 313.3022
267.1721, 320.2478
267.6542, 327.4970
268.1363, 334.9415
268.6184, 342.7029
269.1005, 350.8649
269.5826, 359.3850
270.0648, 368.2787
270.5469, 377.8036
271.0290, 387.9935
271.5111, 395.6822
271.9932, 400.3102
272.4753, 403.5925
272.9575, 406.2888
273.4396, 408.2482
273.9217, 408.9300
274.4038, 407.9977
274.8859, 405.4535
275.3680, 401.1314
275.8501, 394.3825
276.3322, 387.0406
276.8144, 379.2596
277.2965, 371.3085
277.7786, 363.6866
278.2607, 356.6187
278.7428, 350.1425
279.2249, 344.4625
279.7071, 339.2824
280.1892, 335.0082
280.6713, 331.9394
281.1534, 329.8205
281.6355, 328.2406
282.1176, 327.0468
282.5998, 326.2195
283.0819, 325.7361
283.5640, 325.2760
284.0461, 325.6297
284.5282, 327.2025
285.0103, 329.6237
285.4925, 332.4318
285.9746, 335.5093
286.4567, 338.7513
286.9388, 341.9952
287.4209, 345.1309
287.9030, 348.5677
288.3852, 352.3965
288.8673, 356.5322
289.3494, 360.9083
289.8315, 365.5191
290.3136, 370.1778
290.7957, 374.5767
291.2779, 378.5805
291.7600, 383.3968
292.2421, 390.2831
292.7242, 397.3962
293.2063, 403.2415
293.6884, 407.6253
294.1706, 410.3813
294.6527, 411.2793
295.1348, 410.1458
295.6169, 407.6656
296.0990, 403.5965
296.5811, 398.3774
297.0633, 392.1017
297.5454, 384.8691
298.0275, 377.1750
298.5096, 369.3462
298.9917, 361.3159
299.4738, 352.8829
299.9560, 344.2704
300.4381, 335.1376
300.9202, 324.7495
301.4023, 313.4404
301.8844, 302.6101
302.3665, 293.0522
302.8487, 284.3838
303.3308, 275.2907
303.8129, 265.3024
304.2950, 255.6162
304.7771, 246.5476
305.2592, 238.1658
305.7414, 230.6870
306.2235, 224.2607
306.7056, 218.6793
307.1877, 213.5650
307.6698, 208.7019
308.1519, 204.7549
308.6341, 202.1622
309.1162, 200.5855
309.5983, 199.5020
310.0804, 198.7864
310.5625, 198.5343
311.0446, 199.0027
311.5268, 200.1783
312.0089, 201.5702
312.4910, 203.0332
312.9731, 204.6873
313.4552, 206.6193
313.9373, 208.8293
314.4195, 211.5082
314.9016, 214.9628
315.3837, 219.1793
315.8658, 223.4584
316.3479, 227.7822
316.8300, 232.1212
317.3121, 236.4745
317.7943, 240.8486
318.2764, 245.1558
318.7585, 249.3922
319.2406, 253.4835
319.7227, 257.2963
320.2048, 260.8299
320.6870, 264.1156
321.1691, 267.4466
321.6512, 270.6107
322.1333, 272.9380
322.6154, 274.1491
323.0975, 274.2405
323.5797, 273.1992
324.0618, 270.9425
324.5439, 268.0450
325.0260, 264.5879
325.5081, 260.6469
325.9902, 256.2689
326.4724, 251.4152
326.9545, 246.2988
327.4366, 241.1304
327.9187, 235.8241
328.4008, 230.9153
328.8829, 226.4823
329.3651, 222.5249
329.8472, 219.0540
330.3293, 216.0706
330.8114, 213.5334
331.2935, 211.3628
331.7756, 209.6030
332.2578, 208.4764
332.7399, 208.5613
333.2220, 208.8535
333.7041, 208.7131
334.1862, 208.1046
334.6683, 207.1776
335.1505, 206.0595
335.6326, 204.6912
336.1147, 202.8397
336.5968, 200.7452
337.0789, 197.9816
337.5610, 194.1288
338.0432, 189.4563
338.5253, 184.5771
339.0074, 179.7334
339.4895, 174.9623
339.9716, 170.3666
340.4537, 165.6567
340.9359, 161.5961
341.4180, 158.5027
341.9001, 156.0715
342.3822, 153.9266
342.8643, 151.9676
343.3464, 150.3377
343.8286, 149.2697
344.3107, 148.9696
344.7928, 148.7429
345.2749, 148.4761
345.7570, 148.3599
346.2391, 148.4706
346.7213, 148.8464
347.2034, 149.6269
347.6855, 150.9870
348.1676, 152.9697
348.6497, 154.7893
349.1318, 156.4612
349.6140, 157.9861
350.0961, 159.1463
350.5782, 160.1395
351.0603, 161.4509
351.5424, 163.3922
352.0245, 165.7830
352.5067, 167.8694
352.9888, 169.1936
353.4709, 170.7760
353.9530, 173.0568
354.4351, 175.5318
354.9172, 177.7075
355.3994, 179.3956
355.8815, 180.5620
356.3636, 181.0758
356.8457, 180.1286
357.3278, 180.2385
357.8099, 181.9731
358.2920, 184.2308
358.7741, 186.1505
359.2563, 187.7455
359.7384, 189.6618
360.2205, 192.5666
360.7026, 196.5455
361.1847, 200.7200
361.6668, 205.0269
362.1490, 209.5649
362.6311, 214.1730
363.1132, 219.0718
363.5953, 224.6006
364.0774, 230.9989
364.5595, 238.1207
365.0417, 245.3377
365.5238, 252.3833
366.0059, 259.9366
366.4880, 268.1236
366.9701, 276.7679
367.4522, 285.7379
367.9344, 294.9461
368.4165, 304.3927
368.8986, 314.1487
369.3807, 324.3146
369.8628, 334.4893
370.3449, 345.2625
370.8271, 355.5694
371.3092, 365.1543
371.7913, 373.8228
372.2734, 381.4300
372.7555, 387.6698
373.2376, 392.5622
373.7198, 397.0970
374.2019, 400.7373
374.6840, 404.6971
375.1661, 408.8045
375.6482, 413.5864
376.1303, 419.6964
376.6125, 427.4268
377.0946, 436.8192
377.5767, 448.1578
378.0588, 461.8519
378.5409, 476.3731
379.0230, 491.9537
379.5052, 507.8041
379.9873, 523.6862
380.4694, 539.5258
380.9515, 554.3949
381.4336, 567.7420
381.9157, 579.5720
382.3979, 588.5478
382.8800, 594.9730
383.3621, 597.4661
383.8442, 595.7572
384.3263, 589.9971
384.8084, 580.6683
385.2906, 566.9335
385.7727, 550.0588
386.2548, 532.3990
386.7369, 513.6564
387.2190, 495.3757
387.7011, 477.5345
388.1833, 460.9322
388.6654, 446.9210
389.1475, 435.9081
389.6296, 427.2635
390.1117, 420.5432
390.5938, 415.7207
391.0760, 412.8458
391.5581, 412.0663
392.0402, 413.2025
392.5223, 416.1325
393.0044, 420.9113
393.4865, 426.0333
393.9687, 431.3286
394.4508, 436.4639
394.9329, 441.0139
395.4150, 444.9997
395.8971, 447.9980
396.3792, 449.9819
396.8614, 450.6725
397.3435, 448.7816
397.8256, 443.7324
398.3077, 436.5217
398.7898, 427.6953
399.2719, 417.2442
399.7540, 404.7461
400.2361, 389.6338
400.7183, 372.9233
401.2004, 357.7012
401.6825, 343.6504
402.1646, 331.2768
402.6467, 320.8453
403.1288, 312.0453
403.6110, 304.5952
404.0931, 298.4526
404.5752, 293.6725
405.0573, 290.3207
405.5394, 288.4510
406.0215, 288.2465
406.5037, 290.0002
406.9858, 292.8892
407.4679, 296.8136
407.9500, 301.5541
408.4321, 306.6845
408.9142, 311.9680
409.3964, 317.5163
409.8785, 323.9309
410.3606, 331.6294
410.8427, 339.7307
411.3248, 348.2056
411.8069, 357.0139
412.2891, 365.8714
412.7712, 374.8140
413.2533, 384.5533
413.7354, 396.0501
414.2175, 409.5704
414.6996, 424.0255
415.1818, 439.3966
415.6639, 455.6967
416.1460, 472.4875
416.6281, 490.2873
417.1102, 509.9422
417.5923, 532.2458
418.0745, 556.7275
418.5566, 582.0637
419.0387, 607.6282
419.5208, 635.2506
420.0029, 665.8356
420.4850, 698.2188
420.9672, 731.5428
421.4493, 765.5847
421.9314, 799.8053
422.4135, 834.2637
422.8956, 868.7881
423.3777, 901.6118
423.8599, 934.5566
424.3420, 962.4141
424.8241, 983.6908
425.3062, 997.9134
425.7883, 1002.831
426.2704, 996.7421
426.7526, 981.1316
427.2347, 957.7255
427.7168, 926.3199
428.1989, 888.4229
428.6810, 842.8359
429.1631, 791.9620
429.6453, 741.9149
430.1274, 692.2319
430.6095, 644.3652
431.0916, 598.2613
431.5737, 554.8117
432.0558, 515.6061
432.5380, 481.2914
433.0201, 450.8326
433.5022, 423.2816
433.9843, 398.9199
434.4664, 377.3687
434.9485, 359.2294
435.4307, 343.3701
435.9128, 329.3853
436.3949, 317.1469
436.8770, 306.5018
437.3591, 297.4173
437.8412, 289.7582
438.3234, 283.1956
438.8055, 277.9301
439.2876, 273.5331
439.7697, 270.0763
440.2518, 267.4403
440.7339, 265.6030
441.2160, 264.5357
441.6982, 264.1350
442.1803, 264.3593
442.6624, 265.3025
443.1445, 266.2028
443.6266, 267.2608
444.1087, 268.0658
444.5909, 268.4194
445.0730, 268.4421
445.5551, 268.4249
446.0372, 268.5597
446.5193, 268.4969
447.0014, 267.3070
447.4836, 264.5148
447.9657, 262.0109
448.4478, 260.5005
448.9299, 259.1087
449.4120, 256.9553
449.8941, 254.1592
450.3763, 252.0011
450.8584, 251.5312
451.3405, 252.5235
451.8226, 254.1078
452.3047, 256.3408
452.7868, 258.9626
453.2690, 261.7023
453.7511, 264.7675
454.2332, 268.5566
454.7153, 273.2086
455.1974, 278.4633
455.6795, 284.2156
456.1617, 290.4149
456.6438, 296.9189
457.1259, 303.6549
457.6080, 310.7801
458.0901, 318.6541
458.5722, 327.2426
459.0544, 335.9469
459.5365, 344.6186
460.0186, 353.3651
460.5007, 362.5143
460.9828, 371.9274
461.4649, 380.8554
461.9471, 388.8651
462.4292, 396.0784
462.9113, 403.1797
463.3934, 410.4216
463.8755, 417.2339
464.3576, 423.0355
464.8398, 428.7183
465.3219, 435.2785
465.8040, 442.8771
466.2861, 450.8867
466.7682, 458.8734
467.2503, 467.1571
467.7325, 472.8417
468.2146, 476.5079
468.6967, 476.8272
469.1788, 473.2149
469.6609, 466.0061
470.1430, 455.5140
470.6252, 441.8322
471.1073, 425.5699
471.5894, 407.5410
472.0715, 387.5224
472.5536, 366.8058
473.0357, 344.0835
473.5179, 322.0898
474.0000, 302.1518
474.4821, 284.3940
474.9642, 268.3048
475.4463, 253.8320
475.9284, 240.8707
476.4106, 229.0518
476.8927, 218.4223
477.3748, 208.9509
477.8569, 200.8909
478.3390, 193.9276
478.8211, 187.4811
479.3033, 181.5023
479.7854, 176.1791
480.2675, 171.7642
480.7496, 168.0349
481.2317, 164.6400
481.7138, 161.5276
482.1959, 158.5523
482.6780, 155.4899
483.1602, 152.3849
483.6423, 149.9138
484.1244, 148.4019
484.6065, 147.1313
485.0886, 145.7351
485.5707, 144.3921
486.0529, 143.5275
486.5350, 143.2912
487.0171, 143.2688
487.4992, 142.7398
487.9813, 141.3251
488.4634, 140.4484
488.9456, 140.3008
489.4277, 140.4122
489.9098, 140.5484
490.3919, 140.7594
490.8740, 141.2160
491.3561, 142.0292
491.8383, 143.1269
492.3204, 144.2765
492.8025, 145.3512
493.2846, 146.8185
493.7667, 148.8570
494.2488, 151.2585
494.7310, 153.9906
495.2131, 157.0064
495.6952, 160.1297
496.1773, 163.2591
496.6594, 166.3800
497.1415, 169.4205
497.6237, 172.3667
498.1058, 175.3030
498.5879, 178.2260
499.0700, 181.2297
499.5521, 184.4337
500.0342, 187.8088
500.5164, 191.4962
500.9985, 195.5422
501.4806, 199.9767
501.9627, 204.9108
502.4448, 210.3564
502.9269, 216.2819
503.4091, 222.6763
503.8912, 229.6081
504.3733, 236.6931
504.8554, 243.5986
505.3375, 250.9981
505.8196, 259.2469
506.3018, 268.1184
506.7839, 277.2735
507.2660, 286.5814
507.7481, 295.9790
508.2302, 305.2220
508.7123, 314.0437
509.1945, 323.7101
509.6766, 335.0579
510.1587, 346.3905
510.6408, 357.6678
511.1229, 368.4083
511.6050, 378.2370
512.0872, 387.3469
512.5693, 394.2241
513.0514, 396.3165
513.5335, 393.5529
514.0156, 386.4919
514.4977, 374.1492
514.9799, 358.2507
515.4620, 339.6001
515.9441, 318.6473
516.4262, 298.1519
516.9083, 278.5971
517.3904, 260.4174
517.8726, 243.9583
518.3547, 229.2572
518.8368, 216.7773
519.3189, 207.0235
519.8010, 199.2701
520.2831, 192.1807
520.7653, 185.5710
521.2474, 179.8481
521.7295, 175.3897
522.2116, 171.6534
522.6937, 168.2895
523.1758, 165.2394
523.6580, 162.4686
524.1401, 159.9601
524.6222, 157.7385
525.1043, 155.8868
525.5864, 154.5961
526.0685, 153.4566
526.5507, 152.4247
527.0328, 151.5180
527.5149, 150.7716
527.9970, 150.1788
528.4791, 149.6924
528.9612, 149.3259
529.4434, 149.0400
529.9255, 148.5695
530.4076, 147.8477
530.8897, 147.0990
531.3718, 146.3019
531.8539, 145.5854
532.3361, 145.1272
532.8182, 144.9882
533.3003, 144.8698
533.7824, 144.5314
534.2645, 144.0817
534.7466, 143.7679
535.2288, 143.6288
535.7109, 143.5178
536.1930, 143.3280
536.6751, 143.0713
537.1572, 142.8345
537.6393, 142.6851
538.1215, 142.4711
538.6036, 142.0815
539.0857, 141.6343
539.5678, 141.2459
540.0499, 140.9539
540.5320, 140.7968
541.0142, 140.8556
541.4963, 141.1443
541.9784, 141.1687
542.4604, 140.5098
542.9426, 140.0876
543.4247, 140.2966
543.9068, 140.7355
544.3889, 140.9390
544.8710, 140.7870
545.3531, 140.5241
545.8353, 140.3423
546.3174, 140.2536
546.7995, 140.4708
547.2816, 141.1925
547.7637, 141.8189
548.2458, 141.7176
548.7280, 141.3261
549.2101, 141.4158
549.6922, 142.3697
550.1743, 143.2669
550.6564, 143.3621
551.1385, 143.0159
551.6207, 143.0323
552.1028, 143.5864
552.5849, 144.2107
553.0670, 144.4468
553.5491, 144.2935
554.0313, 144.3430
554.5134, 144.7853
554.9955, 145.1727
555.4776, 145.2704
555.9597, 145.2993
556.4418, 145.5927
556.9240, 146.2080
557.4061, 146.8445
557.8882, 147.1726
558.3703, 147.1863
558.8524, 146.9935
559.3345, 146.2298
559.8167, 145.8010
560.2988, 146.1291
560.7809, 146.8609
561.2630, 147.6199
561.7451, 148.3210
562.2272, 148.9207
562.7094, 149.3990
563.1915, 149.7458
563.6736, 149.8683
564.1557, 149.7041
564.6378, 149.5860
565.1199, 149.7753
565.6021, 150.2135
566.0842, 150.5998
566.5663, 150.9762
567.0484, 151.2421
567.5305, 151.3431
568.0126, 151.3238
568.4948, 151.2444
568.9769, 151.1136
569.4590, 150.8875
569.9411, 150.5141
570.4232, 150.0015
570.9053, 149.5366
571.3875, 149.0632
571.8696, 148.7209
572.3517, 148.5351
572.8338, 148.4788
573.3159, 148.6265
573.7980, 148.9400
574.2802, 149.1219
574.7623, 148.7899
575.2444, 148.0966
575.7265, 147.7314
576.2086, 147.7960
576.6907, 147.7583
577.1729, 147.2620
577.6550, 146.5785
578.1371, 146.1257
578.6192, 145.9197
579.1013, 145.9040
579.5834, 146.2884
580.0656, 146.7151
580.5477, 146.6695
581.0298, 146.1948
581.5119, 145.8200
581.9940, 145.8940
582.4761, 146.2838
582.9583, 146.5475
583.4404, 146.8366
583.9225, 146.7393
584.4046, 145.9200
584.8867, 145.0130
585.3688, 144.4243
585.8510, 144.1303
586.3331, 143.9037
586.8152, 143.6035
587.2973, 143.2812
587.7794, 142.9860
