##NAMES=Roeblingite
##RRUFFID=R140328
##IDEAL CHEMISTRY=Pb^2+^_2_Ca_6_Mn^2+^(Si_3_O_9_)_2_(S^6+^O_4_)_2_(OH)_2_&#183;4H_2_O
##LOCALITY=LÃ¥ngban, Varmland, Sweden
##OWNER=RRUFF
##SOURCE=Benjamin N. Schumer
##DESCRIPTION=Tabular, colorless crystals
##STATUS=The identification of this mineral has been confirmed by single-crystal X-ray diffraction.
##URL=rruff.info/R140328
189.1598, 298.1279
189.6419, 312.9530
190.1240, 327.1198
190.6061, 340.8378
191.0883, 353.0970
191.5704, 363.2679
192.0525, 371.4853
192.5346, 378.0943
193.0167, 382.8911
193.4988, 386.0447
193.9810, 387.2478
194.4631, 386.1211
194.9452, 384.8753
195.4273, 383.1249
195.9094, 380.8939
196.3915, 380.6409
196.8737, 383.0883
197.3558, 387.6456
197.8379, 392.3178
198.3200, 396.9209
198.8021, 402.3493
199.2842, 409.3793
199.7664, 418.0542
200.2485, 427.5123
200.7306, 437.7438
201.2127, 448.6618
201.6948, 460.0779
202.1769, 472.0648
202.6591, 484.4065
203.1412, 496.8037
203.6233, 509.3395
204.1054, 521.9174
204.5875, 534.8273
205.0696, 547.9031
205.5518, 559.3655
206.0339, 568.9720
206.5160, 577.5920
206.9981, 586.3670
207.4802, 595.5726
207.9623, 603.3008
208.4445, 608.8617
208.9266, 612.3610
209.4087, 615.9211
209.8908, 620.0754
210.3729, 623.4042
210.8550, 624.1149
211.3372, 621.6102
211.8193, 618.6409
212.3014, 615.8159
212.7835, 613.1592
213.2656, 610.2364
213.7477, 606.9355
214.2299, 603.5076
214.7120, 599.9774
215.1941, 595.6354
215.6762, 593.0731
216.1583, 593.3245
216.6404, 596.5472
217.1226, 599.0804
217.6047, 600.3239
218.0868, 601.5805
218.5689, 604.5654
219.0510, 609.9189
219.5331, 615.5207
220.0153, 620.8138
220.4974, 625.7258
220.9795, 631.5021
221.4616, 638.5257
221.9437, 646.0775
222.4258, 653.3206
222.9080, 659.7933
223.3901, 666.8943
223.8722, 675.0463
224.3543, 684.5187
224.8364, 693.4380
225.3185, 701.8892
225.8007, 709.5963
226.2828, 716.3717
226.7649, 722.3532
227.2470, 726.9946
227.7291, 729.9637
228.2112, 731.1864
228.6934, 731.5917
229.1755, 731.1676
229.6576, 729.9388
230.1397, 727.8242
230.6218, 724.1844
231.1039, 720.7921
231.5861, 718.1256
232.0682, 716.2040
232.5503, 714.7141
233.0324, 713.8194
233.5145, 713.2523
233.9966, 712.4593
234.4788, 710.3798
234.9609, 710.0369
235.4430, 712.5684
235.9251, 718.4398
236.4072, 724.0139
236.8893, 729.6750
237.3715, 734.7239
237.8536, 737.8707
238.3357, 736.8270
238.8178, 737.9936
239.2999, 743.8787
239.7820, 755.4055
240.2642, 763.9518
240.7463, 767.9738
241.2284, 770.2888
241.7105, 774.3398
242.1926, 780.8894
242.6747, 787.7429
243.1569, 794.4852
243.6390, 801.2005
244.1211, 807.2867
244.6032, 813.0121
245.0853, 817.9286
245.5674, 821.5967
246.0496, 824.3021
246.5317, 825.2692
247.0138, 824.3336
247.4959, 821.4697
247.9780, 816.8967
248.4601, 809.8928
248.9423, 801.9048
249.4244, 794.4265
249.9065, 787.3935
250.3886, 781.0228
250.8707, 775.3014
251.3528, 770.2680
251.8350, 766.1340
252.3171, 763.0909
252.7992, 760.7772
253.2813, 758.9122
253.7634, 757.7305
254.2455, 756.4679
254.7277, 754.7302
255.2098, 752.4769
255.6919, 751.4162
256.1740, 751.8785
256.6561, 753.0833
257.1382, 754.3176
257.6204, 755.5548
258.1025, 756.8782
258.5846, 758.2485
259.0667, 759.6789
259.5488, 761.3606
260.0309, 763.1548
260.5131, 765.3603
260.9952, 768.3203
261.4773, 772.4075
261.9594, 776.2795
262.4415, 779.5867
262.9236, 782.4428
263.4058, 785.5763
263.8879, 788.9097
264.3700, 792.7241
264.8521, 797.5681
265.3342, 803.8956
265.8163, 809.5129
266.2985, 813.6786
266.7806, 816.7806
267.2627, 821.2985
267.7448, 827.5806
268.2269, 834.4774
268.7090, 841.1702
269.1912, 847.6680
269.6733, 854.1186
270.1554, 860.3788
270.6375, 866.6506
271.1196, 873.6617
271.6017, 881.6482
272.0839, 889.6713
272.5660, 896.9241
273.0481, 903.3564
273.5302, 909.6746
274.0123, 916.2850
274.4944, 922.6833
274.9766, 927.2578
275.4587, 929.6613
275.9408, 931.6120
276.4229, 933.9580
276.9050, 936.7098
277.3871, 939.9730
277.8693, 943.9213
278.3514, 948.2107
278.8335, 951.8271
279.3156, 954.5990
279.7977, 957.9313
280.2798, 962.7372
280.7620, 968.9784
281.2441, 975.5261
281.7262, 982.3746
282.2083, 989.4000
282.6904, 995.9629
283.1725, 1001.931
283.6547, 1009.203
284.1368, 1018.767
284.6189, 1030.466
285.1010, 1044.120
285.5831, 1060.378
286.0652, 1076.736
286.5474, 1089.034
287.0295, 1097.352
287.5116, 1105.541
287.9937, 1114.998
288.4758, 1125.764
288.9579, 1137.457
289.4401, 1150.219
289.9222, 1163.739
290.4043, 1177.820
290.8864, 1192.419
291.3685, 1207.236
291.8506, 1222.192
292.3328, 1237.247
292.8149, 1252.237
293.2970, 1267.349
293.7791, 1281.105
294.2612, 1293.120
294.7433, 1302.795
295.2255, 1307.401
295.7076, 1305.616
296.1897, 1298.395
296.6718, 1287.003
297.1539, 1271.545
297.6360, 1253.354
298.1182, 1232.751
298.6003, 1210.366
299.0824, 1187.055
299.5645, 1162.067
300.0466, 1137.269
300.5287, 1115.271
301.0109, 1095.961
301.4930, 1077.788
301.9751, 1059.480
302.4572, 1041.727
302.9393, 1026.219
303.4214, 1013.531
303.9036, 1002.431
304.3857, 991.7836
304.8678, 981.6526
305.3499, 972.0211
305.8320, 962.4922
306.3141, 953.6978
306.7963, 946.5810
307.2784, 941.3000
307.7605, 937.4457
308.2426, 934.9767
308.7247, 933.6696
309.2068, 932.9957
309.6890, 932.7449
310.1711, 932.9457
310.6532, 933.5756
311.1353, 934.5758
311.6174, 936.1891
312.0995, 938.8147
312.5817, 942.0908
313.0638, 945.4709
313.5459, 948.3701
314.0280, 951.6080
314.5101, 955.8573
314.9922, 961.2020
315.4744, 966.6696
315.9565, 971.5628
316.4386, 976.4128
316.9207, 981.7559
317.4028, 987.7411
317.8849, 994.3596
318.3671, 1001.943
318.8492, 1010.493
319.3313, 1018.667
319.8134, 1025.949
320.2955, 1032.752
320.7776, 1039.317
321.2598, 1045.386
321.7419, 1051.606
322.2240, 1058.831
322.7061, 1066.612
323.1882, 1072.655
323.6703, 1076.125
324.1525, 1078.000
324.6346, 1078.738
325.1167, 1077.498
325.5988, 1076.366
326.0809, 1076.055
326.5630, 1076.041
327.0452, 1074.864
327.5273, 1071.399
328.0094, 1067.690
328.4915, 1064.371
328.9736, 1061.391
329.4557, 1058.994
329.9379, 1056.974
330.4200, 1055.600
330.9021, 1055.341
331.3842, 1056.656
331.8663, 1058.445
332.3484, 1060.455
332.8306, 1062.625
333.3127, 1065.103
333.7948, 1068.013
334.2769, 1071.119
334.7590, 1074.271
335.2411, 1077.990
335.7233, 1080.716
336.2054, 1082.360
336.6875, 1082.882
337.1696, 1081.051
337.6517, 1076.322
338.1339, 1070.358
338.6160, 1064.663
339.0981, 1059.458
339.5802, 1053.123
340.0623, 1044.935
340.5444, 1035.671
341.0266, 1028.413
341.5087, 1023.209
341.9908, 1019.179
342.4729, 1015.844
342.9550, 1013.214
343.4371, 1010.993
343.9193, 1009.165
344.4014, 1007.732
344.8835, 1006.573
345.3656, 1005.694
345.8477, 1005.717
346.3298, 1007.202
346.8120, 1009.923
347.2941, 1012.894
347.7762, 1016.160
348.2583, 1019.537
348.7404, 1022.872
349.2225, 1026.166
349.7047, 1029.386
350.1868, 1032.254
350.6689, 1035.146
351.1510, 1039.005
351.6331, 1043.790
352.1152, 1048.504
352.5974, 1052.095
353.0795, 1055.045
353.5616, 1058.229
354.0437, 1061.778
354.5258, 1065.767
355.0079, 1070.734
355.4901, 1076.406
355.9722, 1081.651
356.4543, 1085.213
356.9364, 1088.257
357.4185, 1092.093
357.9006, 1097.184
358.3828, 1102.459
358.8649, 1106.522
359.3470, 1110.335
359.8291, 1115.868
360.3112, 1125.304
360.7933, 1135.718
361.2755, 1145.129
361.7576, 1153.034
362.2397, 1162.265
362.7218, 1173.907
363.2039, 1187.423
363.6860, 1202.217
364.1682, 1217.323
364.6503, 1234.613
365.1324, 1254.842
365.6145, 1278.061
366.0966, 1301.824
366.5787, 1324.571
367.0609, 1348.463
367.5430, 1374.884
368.0251, 1405.946
368.5072, 1437.437
368.9893, 1468.550
369.4714, 1499.639
369.9536, 1531.070
370.4357, 1563.153
370.9178, 1595.408
371.3999, 1627.520
371.8820, 1660.347
372.3641, 1691.553
372.8463, 1721.502
373.3284, 1749.250
373.8105, 1773.145
374.2926, 1791.486
374.7747, 1809.796
375.2568, 1829.254
375.7390, 1849.927
376.2211, 1873.160
376.7032, 1898.893
377.1853, 1927.786
377.6674, 1961.758
378.1495, 2001.390
378.6317, 2042.005
379.1138, 2082.933
379.5959, 2124.378
380.0780, 2169.961
380.5601, 2220.068
381.0422, 2267.728
381.5244, 2308.854
382.0065, 2343.874
382.4886, 2374.026
382.9707, 2401.127
383.4528, 2419.466
383.9349, 2421.953
384.4171, 2408.841
384.8992, 2382.525
385.3813, 2341.706
385.8634, 2289.092
386.3455, 2225.911
386.8276, 2152.110
387.3098, 2075.759
387.7919, 2000.479
388.2740, 1926.963
388.7561, 1856.881
389.2382, 1788.734
389.7203, 1725.275
390.2025, 1669.274
390.6846, 1620.777
391.1667, 1578.686
391.6488, 1544.844
392.1309, 1516.358
392.6130, 1490.731
393.0952, 1467.625
393.5773, 1447.748
394.0594, 1432.227
394.5415, 1420.297
395.0236, 1410.532
395.5057, 1404.093
395.9879, 1398.371
396.4700, 1392.720
396.9521, 1387.298
397.4342, 1380.604
397.9163, 1371.273
398.3984, 1361.124
398.8806, 1351.813
399.3627, 1345.401
399.8448, 1337.569
400.3269, 1327.035
400.8090, 1314.235
401.2911, 1302.887
401.7733, 1293.323
402.2554, 1284.695
402.7375, 1276.527
403.2196, 1268.558
403.7017, 1261.674
404.1838, 1255.936
404.6660, 1251.307
405.1481, 1247.880
405.6302, 1245.694
406.1123, 1244.497
406.5944, 1244.291
407.0765, 1245.060
407.5587, 1246.425
408.0408, 1248.446
408.5229, 1250.823
409.0050, 1253.029
409.4871, 1255.122
409.9692, 1258.110
410.4514, 1262.099
410.9335, 1267.225
411.4156, 1274.309
411.8977, 1283.139
412.3798, 1292.058
412.8619, 1299.766
413.3441, 1306.713
413.8262, 1313.818
414.3083, 1321.201
414.7904, 1328.798
415.2725, 1335.823
415.7546, 1343.082
416.2368, 1352.424
416.7189, 1366.153
417.2010, 1381.113
417.6831, 1394.539
418.1652, 1406.441
418.6473, 1419.658
419.1295, 1435.796
419.6116, 1453.801
420.0937, 1472.444
420.5758, 1491.079
421.0579, 1511.117
421.5400, 1534.522
422.0222, 1559.855
422.5043, 1584.237
422.9864, 1606.846
423.4685, 1628.238
423.9506, 1649.260
424.4327, 1670.760
424.9149, 1688.715
425.3970, 1703.322
425.8791, 1714.211
426.3612, 1721.233
426.8433, 1725.430
427.3254, 1723.884
427.8076, 1715.691
428.2897, 1701.160
428.7718, 1682.895
429.2539, 1660.697
429.7360, 1635.614
430.2181, 1607.529
430.7003, 1575.586
431.1824, 1546.188
431.6645, 1519.692
432.1466, 1495.739
432.6287, 1474.155
433.1108, 1455.128
433.5930, 1438.591
434.0751, 1424.962
434.5572, 1413.805
435.0393, 1403.677
435.5214, 1394.619
436.0035, 1386.794
436.4857, 1380.565
436.9678, 1375.799
437.4499, 1372.017
437.9320, 1369.126
438.4141, 1367.155
438.8962, 1366.276
439.3784, 1366.354
439.8605, 1367.010
440.3426, 1367.718
440.8247, 1369.101
441.3068, 1372.148
441.7889, 1377.072
442.2711, 1381.489
442.7532, 1383.481
443.2353, 1384.623
443.7174, 1386.554
444.1995, 1390.438
444.6816, 1394.418
445.1638, 1397.915
445.6459, 1401.042
446.1280, 1404.494
446.6101, 1409.427
447.0922, 1413.830
447.5743, 1416.642
448.0565, 1416.802
448.5386, 1418.031
449.0207, 1421.120
449.5028, 1424.777
449.9849, 1427.064
450.4670, 1426.808
450.9492, 1427.911
451.4313, 1431.449
451.9134, 1437.137
452.3955, 1442.737
452.8776, 1447.981
453.3597, 1453.757
453.8419, 1460.497
454.3240, 1468.157
454.8061, 1477.404
455.2882, 1488.369
455.7703, 1500.513
456.2524, 1512.785
456.7346, 1525.409
457.2167, 1538.656
457.6988, 1553.509
458.1809, 1568.872
458.6630, 1582.843
459.1451, 1595.397
459.6273, 1608.346
460.1094, 1623.759
460.5915, 1639.971
461.0736, 1654.998
461.5557, 1669.046
462.0378, 1680.784
462.5200, 1688.650
463.0021, 1693.729
463.4842, 1697.943
463.9663, 1702.287
464.4484, 1705.792
464.9305, 1707.699
465.4127, 1707.922
465.8948, 1708.029
466.3769, 1708.002
466.8590, 1708.183
467.3411, 1708.821
467.8232, 1710.560
468.3054, 1712.011
468.7875, 1713.926
469.2696, 1715.376
469.7517, 1714.147
470.2338, 1710.465
470.7159, 1703.591
471.1981, 1692.906
471.6802, 1678.303
472.1623, 1662.023
472.6444, 1643.791
473.1265, 1625.163
473.6086, 1607.797
474.0908, 1591.681
474.5729, 1576.474
475.0550, 1562.042
475.5371, 1548.577
476.0192, 1536.200
476.5013, 1524.938
476.9835, 1515.500
477.4656, 1509.122
477.9477, 1504.400
478.4298, 1498.930
478.9119, 1492.574
479.3940, 1486.602
479.8762, 1482.056
480.3583, 1478.480
480.8404, 1475.265
481.3225, 1472.181
481.8046, 1469.479
482.2867, 1467.447
482.7689, 1465.940
483.2510, 1464.553
483.7331, 1462.647
484.2152, 1461.318
484.6973, 1461.319
485.1794, 1463.072
485.6616, 1464.272
486.1437, 1464.575
486.6258, 1464.339
487.1079, 1463.692
487.5900, 1461.458
488.0721, 1460.940
488.5543, 1463.021
489.0364, 1466.776
489.5185, 1469.530
490.0006, 1470.963
490.4827, 1472.224
490.9648, 1473.552
491.4470, 1474.977
491.9291, 1477.651
492.4112, 1481.808
492.8933, 1486.023
493.3754, 1488.536
493.8575, 1489.783
494.3397, 1491.697
494.8218, 1494.940
495.3039, 1498.589
495.7860, 1501.005
496.2681, 1502.638
496.7502, 1504.981
497.2324, 1509.403
497.7145, 1514.584
498.1966, 1519.144
498.6787, 1523.037
499.1608, 1527.389
499.6429, 1533.525
500.1251, 1539.997
500.6072, 1545.624
501.0893, 1548.942
501.5714, 1552.905
502.0535, 1558.802
502.5356, 1565.766
503.0178, 1571.849
503.4999, 1575.764
503.9820, 1580.137
504.4641, 1585.522
504.9462, 1591.931
505.4283, 1599.328
505.9105, 1608.239
506.3926, 1617.309
506.8747, 1625.385
507.3568, 1632.234
507.8389, 1639.615
508.3210, 1647.531
508.8032, 1656.092
509.2853, 1665.977
509.7674, 1677.050
510.2495, 1687.103
510.7316, 1694.757
511.2137, 1701.045
511.6959, 1708.708
512.1780, 1717.504
512.6601, 1725.379
513.1422, 1731.104
513.6243, 1734.864
514.1064, 1737.072
514.5886, 1738.054
515.0707, 1736.579
515.5528, 1730.922
516.0349, 1722.612
516.5170, 1713.776
516.9991, 1704.599
517.4813, 1695.556
517.9634, 1686.011
518.4455, 1676.329
518.9276, 1669.231
519.4097, 1666.575
519.8918, 1665.340
520.3740, 1664.483
520.8561, 1664.045
521.3382, 1663.747
521.8203, 1663.383
522.3024, 1663.343
522.7845, 1664.242
523.2667, 1666.269
523.7488, 1667.948
524.2309, 1668.787
524.7130, 1669.235
525.1951, 1670.483
525.6772, 1672.529
526.1594, 1674.806
526.6415, 1677.305
527.1236, 1679.796
527.6057, 1681.564
528.0878, 1682.588
528.5699, 1683.674
529.0521, 1685.444
529.5342, 1687.699
530.0163, 1690.177
530.4984, 1692.771
530.9805, 1695.631
531.4626, 1699.147
531.9448, 1702.935
532.4269, 1706.236
532.9090, 1708.037
533.3911, 1710.084
533.8732, 1713.250
534.3553, 1717.569
534.8375, 1721.105
535.3196, 1723.092
535.8017, 1724.913
536.2838, 1727.421
536.7659, 1731.236
537.2480, 1733.795
537.7302, 1734.470
538.2123, 1734.682
538.6944, 1736.894
539.1765, 1741.335
539.6586, 1744.819
540.1407, 1746.185
540.6229, 1746.330
541.1050, 1747.485
541.5871, 1749.538
542.0692, 1751.124
542.5513, 1750.695
543.0334, 1749.589
543.5156, 1749.884
543.9977, 1751.766
544.4798, 1754.245
544.9619, 1756.975
545.4440, 1759.764
545.9261, 1762.334
546.4083, 1763.870
546.8904, 1766.174
547.3725, 1770.803
547.8546, 1776.486
548.3367, 1780.645
548.8188, 1781.261
549.3010, 1781.952
549.7831, 1783.445
550.2652, 1785.727
550.7473, 1788.677
551.2294, 1792.506
551.7115, 1796.668
552.1937, 1801.117
552.6758, 1806.011
553.1579, 1809.887
553.6400, 1812.634
554.1221, 1814.618
554.6042, 1815.797
555.0864, 1816.424
555.5685, 1818.071
556.0506, 1821.475
556.5327, 1825.737
557.0148, 1829.607
557.4969, 1833.201
557.9791, 1837.027
558.4612, 1841.959
558.9433, 1846.767
559.4254, 1850.026
559.9075, 1851.618
560.3896, 1853.718
560.8718, 1858.193
561.3539, 1862.888
561.8360, 1866.157
562.3181, 1866.397
562.8002, 1867.334
563.2823, 1869.367
563.7645, 1872.167
564.2466, 1875.374
564.7287, 1879.496
565.2108, 1882.813
565.6929, 1884.480
566.1750, 1885.097
566.6572, 1887.798
567.1393, 1892.875
567.6214, 1897.753
568.1035, 1900.512
568.5856, 1901.741
569.0677, 1903.795
569.5499, 1906.721
570.0320, 1910.338
570.5141, 1915.553
570.9962, 1921.031
571.4783, 1924.384
571.9604, 1924.184
572.4426, 1923.564
572.9247, 1924.286
573.4068, 1926.038
573.8889, 1928.280
574.3710, 1931.992
574.8531, 1935.034
575.3353, 1936.220
575.8174, 1935.727
576.2995, 1936.255
576.7816, 1938.862
577.2637, 1941.328
577.7458, 1942.515
578.2280, 1941.991
578.7101, 1942.386
579.1922, 1943.685
579.6743, 1945.930
580.1564, 1949.899
580.6385, 1955.399
581.1207, 1958.953
581.6028, 1959.368
582.0849, 1958.840
582.5670, 1961.197
583.0491, 1965.487
583.5313, 1968.747
584.0134, 1968.184
584.4955, 1966.915
584.9776, 1967.778
585.4597, 1970.532
585.9418, 1973.717
586.4240, 1977.766
586.9061, 1981.156
587.3882, 1982.606
587.8703, 1981.088
588.3524, 1981.069
588.8345, 1984.106
589.3167, 1988.169
589.7988, 1991.715
590.2809, 1994.415
590.7630, 1997.329
591.2451, 2000.455
591.7272, 2003.944
592.2094, 2008.284
592.6915, 2013.507
593.1736, 2018.551
593.6557, 2022.864
594.1378, 2026.898
594.6199, 2032.042
595.1021, 2038.097
595.5842, 2043.742
596.0663, 2047.398
596.5484, 2050.533
597.0305, 2055.068
597.5126, 2061.197
597.9948, 2067.402
598.4769, 2072.643
598.9590, 2077.622
599.4411, 2083.060
599.9232, 2090.037
600.4053, 2095.954
600.8875, 2098.887
601.3696, 2101.063
601.8517, 2105.666
602.3338, 2113.874
602.8159, 2122.206
603.2980, 2130.385
603.7802, 2138.156
604.2623, 2144.856
604.7444, 2150.394
605.2265, 2155.094
605.7086, 2158.668
606.1907, 2161.489
606.6729, 2165.409
607.1550, 2170.354
607.6371, 2174.330
608.1192, 2175.225
608.6013, 2174.342
609.0834, 2173.351
609.5656, 2172.600
610.0477, 2171.453
610.5298, 2169.484
611.0119, 2167.012
611.4940, 2164.369
611.9761, 2161.454
612.4583, 2158.721
612.9404, 2156.366
613.4225, 2154.280
613.9046, 2152.075
614.3867, 2149.582
614.8688, 2147.430
615.3510, 2145.537
615.8331, 2144.086
616.3152, 2144.490
616.7973, 2146.854
617.2794, 2149.603
617.7615, 2151.420
618.2437, 2152.720
618.7258, 2155.136
619.2079, 2158.790
619.6900, 2161.888
620.1721, 2161.878
620.6542, 2160.808
621.1364, 2161.394
621.6185, 2164.974
622.1006, 2168.686
622.5827, 2171.178
623.0648, 2173.145
623.5469, 2175.546
624.0291, 2178.922
624.5112, 2182.427
624.9933, 2185.980
625.4754, 2189.667
625.9575, 2193.609
626.4396, 2197.874
626.9218, 2202.414
627.4039, 2207.506
627.8860, 2212.913
628.3681, 2216.933
628.8502, 2219.516
629.3323, 2221.861
629.8145, 2224.798
630.2966, 2228.114
630.7787, 2231.590
631.2608, 2235.222
631.7429, 2238.534
632.2250, 2241.119
632.7072, 2243.182
633.1893, 2244.985
633.6714, 2246.567
634.1535, 2247.843
634.6356, 2248.595
635.1177, 2249.055
635.5999, 2249.616
636.0820, 2250.274
636.5641, 2251.040
637.0462, 2251.851
637.5283, 2252.798
638.0104, 2254.335
638.4926, 2256.621
638.9747, 2258.619
639.4568, 2259.374
639.9389, 2259.615
640.4210, 2261.880
640.9031, 2266.138
641.3853, 2271.148
641.8674, 2277.177
642.3495, 2282.913
642.8316, 2285.854
643.3137, 2285.361
643.7958, 2286.474
644.2780, 2292.903
644.7601, 2301.431
645.2422, 2309.202
645.7243, 2315.047
646.2064, 2321.097
646.6885, 2326.917
647.1707, 2333.282
647.6528, 2341.312
648.1349, 2351.692
648.6170, 2361.542
649.0991, 2370.118
649.5812, 2378.195
650.0634, 2387.868
650.5455, 2399.156
651.0276, 2411.079
651.5097, 2423.104
651.9918, 2435.711
652.4739, 2449.780
652.9561, 2465.073
653.4382, 2481.402
653.9203, 2499.640
654.4024, 2517.840
654.8845, 2534.530
655.3666, 2549.300
655.8488, 2564.844
656.3309, 2580.391
656.8130, 2598.025
657.2951, 2619.114
657.7772, 2644.972
658.2593, 2670.548
658.7415, 2694.989
659.2236, 2720.534
659.7057, 2749.958
660.1878, 2783.080
660.6699, 2818.100
661.1520, 2854.486
661.6342, 2891.640
662.1163, 2929.046
662.5984, 2966.401
663.0805, 3003.016
663.5626, 3041.284
664.0447, 3075.922
664.5269, 3104.235
665.0090, 3125.888
665.4911, 3140.759
665.9732, 3152.139
666.4553, 3153.434
666.9374, 3140.452
667.4196, 3114.009
667.9017, 3082.100
668.3838, 3042.792
668.8659, 3001.231
669.3480, 2958.821
669.8301, 2915.616
670.3123, 2874.243
670.7944, 2834.286
671.2765, 2798.394
671.7586, 2769.095
672.2407, 2745.020
672.7228, 2723.751
673.2050, 2704.797
673.6871, 2688.104
674.1692, 2673.571
674.6513, 2660.959
675.1334, 2650.230
675.6155, 2642.092
676.0977, 2634.420
676.5798, 2627.146
677.0619, 2620.045
677.5440, 2612.654
678.0261, 2603.817
678.5082, 2597.454
678.9904, 2594.729
679.4725, 2594.617
679.9546, 2594.725
680.4367, 2595.085
680.9188, 2595.038
681.4009, 2594.175
681.8831, 2592.862
682.3652, 2591.278
682.8473, 2589.672
683.3294, 2589.281
683.8115, 2592.385
684.2936, 2595.774
684.7758, 2596.206
685.2579, 2593.531
685.7400, 2593.470
686.2221, 2599.633
686.7042, 2607.009
