##NAMES=Roeblingite
##RRUFFID=R070713
##IDEAL CHEMISTRY=Pb^2+^_2_Ca_6_Mn^2+^(Si_3_O_9_)_2_(S^6+^O_4_)_2_(OH)_2_&#183;4H_2_O
##LOCALITY=Parker Shaft, Franklin mine, Franklin, Franklin Mining District, Sussex County, New Jersey, USA
##OWNER=RRUFF
##SOURCE=Michael Scott
##DESCRIPTION=Milky white massive fragment
##STATUS=The identification of this mineral has been confirmed by X-ray diffraction.
##URL=rruff.info/R070713
105.0599, 2392.454
105.5421, 2438.883
106.0242, 2494.303
106.5063, 2555.354
106.9884, 2643.937
107.4705, 2721.851
107.9526, 2767.548
108.4348, 2780.102
108.9169, 2776.558
109.3990, 2781.343
109.8811, 2796.730
110.3632, 2818.299
110.8453, 2845.734
111.3275, 2878.339
111.8096, 2919.344
112.2917, 2970.023
112.7738, 3024.178
113.2559, 3057.130
113.7380, 3056.014
114.2202, 3050.180
114.7023, 3046.833
115.1844, 3043.352
115.6665, 3031.512
116.1486, 3002.782
116.6307, 2960.765
117.1129, 2935.393
117.5950, 2933.813
118.0771, 2942.382
118.5592, 2953.849
119.0413, 2968.050
119.5234, 2980.725
120.0056, 2980.645
120.4877, 2974.246
120.9698, 2983.262
121.4519, 3026.665
121.9340, 3089.731
122.4161, 3138.854
122.8982, 3171.041
123.3804, 3186.675
123.8625, 3191.936
124.3446, 3185.970
124.8267, 3164.326
125.3088, 3119.491
125.7909, 3049.934
126.2731, 2978.752
126.7552, 2904.324
127.2373, 2831.517
127.7194, 2760.021
128.2015, 2690.434
128.6837, 2628.963
129.1658, 2584.535
129.6479, 2561.019
130.1300, 2549.733
130.6121, 2556.385
131.0942, 2569.228
131.5764, 2576.664
132.0585, 2573.546
132.5406, 2565.451
133.0227, 2572.198
133.5048, 2615.912
133.9869, 2651.250
134.4691, 2674.090
134.9512, 2684.973
135.4333, 2684.056
135.9154, 2670.242
136.3975, 2644.350
136.8796, 2622.719
137.3618, 2605.902
137.8439, 2591.797
138.3260, 2580.217
138.8081, 2570.841
139.2902, 2562.297
139.7723, 2553.413
140.2545, 2544.247
140.7366, 2535.861
141.2187, 2524.057
141.7008, 2514.986
142.1829, 2517.958
142.6650, 2536.514
143.1472, 2556.980
143.6293, 2565.770
144.1114, 2564.941
144.5935, 2560.405
145.0756, 2551.832
145.5577, 2540.914
146.0399, 2532.962
146.5220, 2527.880
147.0041, 2527.833
147.4862, 2533.134
147.9683, 2543.771
148.4504, 2559.399
148.9326, 2582.480
149.4147, 2614.372
149.8968, 2640.805
150.3789, 2642.250
150.8610, 2648.217
151.3431, 2678.185
151.8252, 2736.095
152.3074, 2807.273
152.7895, 2866.915
153.2716, 2902.544
153.7537, 2954.930
154.2358, 3033.799
154.7179, 3126.049
155.2001, 3223.331
155.6822, 3322.617
156.1643, 3421.133
156.6464, 3510.147
157.1285, 3566.923
157.6106, 3641.903
158.0928, 3743.652
158.5749, 3865.619
159.0570, 4000.482
159.5391, 4144.522
160.0212, 4297.069
160.5033, 4443.865
160.9855, 4566.718
161.4676, 4702.931
161.9497, 4863.346
162.4318, 5046.860
162.9139, 5249.734
163.3960, 5472.548
163.8782, 5716.493
164.3603, 5947.880
164.8424, 6181.702
165.3245, 6394.999
165.8066, 6591.997
166.2887, 6769.307
166.7709, 6874.827
167.2530, 6847.156
167.7351, 6683.720
168.2172, 6480.183
168.6993, 6235.678
169.1814, 5959.398
169.6636, 5653.705
170.1457, 5312.403
170.6278, 4967.829
171.1099, 4646.056
171.5920, 4343.672
172.0741, 4066.648
172.5563, 3818.199
173.0384, 3596.337
173.5205, 3397.103
174.0026, 3215.758
174.4847, 3064.288
174.9668, 2946.192
175.4490, 2860.238
175.9311, 2798.255
176.4132, 2760.248
176.8953, 2745.483
177.3774, 2734.567
177.8595, 2730.093
178.3417, 2723.833
178.8238, 2714.520
179.3059, 2701.313
179.7880, 2676.393
180.2701, 2626.912
180.7522, 2545.500
181.2344, 2469.355
181.7165, 2408.529
182.1986, 2351.697
182.6807, 2290.571
183.1628, 2223.330
183.6449, 2156.520
184.1271, 2101.970
184.6092, 2066.530
185.0913, 2030.660
185.5734, 1989.223
186.0555, 1948.069
186.5376, 1912.237
187.0198, 1883.711
187.5019, 1860.994
187.9840, 1839.557
188.4661, 1817.081
188.9482, 1799.574
189.4303, 1788.884
189.9125, 1782.681
190.3946, 1779.591
190.8767, 1779.153
191.3588, 1779.679
191.8409, 1772.922
192.3230, 1747.740
192.8052, 1727.663
193.2873, 1721.166
193.7694, 1722.410
194.2515, 1721.617
194.7336, 1713.187
195.2157, 1697.467
195.6979, 1676.432
196.1800, 1644.413
196.6621, 1614.198
197.1442, 1591.447
197.6263, 1574.636
198.1084, 1558.334
198.5906, 1538.104
199.0727, 1514.894
199.5548, 1498.225
200.0369, 1489.785
200.5190, 1485.711
201.0011, 1483.246
201.4833, 1482.628
201.9654, 1486.976
202.4475, 1500.525
202.9296, 1522.289
203.4117, 1540.130
203.8938, 1547.965
204.3760, 1555.349
204.8581, 1571.535
205.3402, 1597.410
205.8223, 1625.665
206.3044, 1649.790
206.7865, 1671.498
207.2687, 1696.957
207.7508, 1728.907
208.2329, 1764.582
208.7150, 1801.416
209.1971, 1840.075
209.6792, 1876.585
210.1614, 1903.027
210.6435, 1924.090
211.1256, 1951.561
211.6077, 1996.264
212.0898, 2049.575
212.5719, 2090.046
213.0541, 2108.726
213.5362, 2131.179
214.0183, 2174.475
214.5004, 2234.112
214.9825, 2301.125
215.4646, 2371.208
215.9468, 2444.825
216.4289, 2524.908
216.9110, 2623.939
217.3931, 2711.150
217.8752, 2775.911
218.3573, 2818.561
218.8395, 2839.947
219.3216, 2841.906
219.8037, 2824.159
220.2858, 2780.204
220.7679, 2692.128
221.2500, 2594.277
221.7322, 2501.424
222.2143, 2412.867
222.6964, 2323.506
223.1785, 2227.607
223.6606, 2124.633
224.1427, 2026.660
224.6249, 1922.055
225.1070, 1834.483
225.5891, 1779.007
226.0712, 1751.039
226.5533, 1733.236
227.0354, 1709.551
227.5176, 1678.316
227.9997, 1653.510
228.4818, 1642.648
228.9639, 1632.111
229.4460, 1617.418
229.9281, 1598.181
230.4103, 1575.719
230.8924, 1550.437
231.3745, 1520.411
231.8566, 1496.069
232.3387, 1485.055
232.8208, 1472.752
233.3030, 1450.245
233.7851, 1418.508
234.2672, 1386.012
234.7493, 1362.602
235.2314, 1351.992
235.7135, 1337.099
236.1957, 1309.897
236.6778, 1285.516
237.1599, 1274.242
237.6420, 1275.517
238.1241, 1280.479
238.6062, 1278.557
239.0884, 1265.967
239.5705, 1259.097
240.0526, 1260.529
240.5347, 1264.511
241.0168, 1266.836
241.4989, 1267.541
241.9811, 1270.407
242.4632, 1280.464
242.9453, 1301.763
243.4274, 1317.711
243.9095, 1325.638
244.3916, 1331.010
244.8738, 1336.587
245.3559, 1343.037
245.8380, 1350.788
246.3201, 1361.461
246.8022, 1379.558
247.2843, 1383.655
247.7665, 1365.775
248.2486, 1341.010
248.7307, 1318.699
249.2128, 1300.528
249.6949, 1284.495
250.1770, 1268.227
250.6592, 1251.028
251.1413, 1236.803
251.6234, 1230.167
252.1055, 1223.249
252.5876, 1209.054
253.0697, 1187.179
253.5519, 1162.937
254.0340, 1141.750
254.5161, 1123.711
254.9982, 1111.084
255.4803, 1105.012
255.9624, 1103.453
256.4445, 1106.556
256.9267, 1113.860
257.4088, 1121.406
257.8909, 1124.610
258.3730, 1121.939
258.8551, 1123.164
259.3372, 1134.114
259.8194, 1145.200
260.3015, 1146.143
260.7836, 1136.419
261.2657, 1127.211
261.7478, 1130.057
262.2299, 1147.358
262.7121, 1161.778
263.1942, 1167.983
263.6763, 1174.541
264.1584, 1191.935
264.6405, 1220.374
265.1227, 1245.559
265.6048, 1252.357
266.0869, 1239.070
266.5690, 1233.926
267.0511, 1240.724
267.5332, 1253.659
268.0154, 1267.965
268.4975, 1283.327
268.9796, 1302.442
269.4617, 1328.619
269.9438, 1362.141
270.4259, 1393.136
270.9081, 1421.090
271.3902, 1446.634
271.8723, 1469.256
272.3544, 1489.274
272.8365, 1509.605
273.3186, 1534.183
273.8008, 1561.710
274.2829, 1581.408
274.7650, 1587.242
275.2471, 1589.589
275.7292, 1597.733
276.2113, 1611.165
276.6935, 1620.658
277.1756, 1618.504
277.6577, 1606.199
278.1398, 1597.805
278.6219, 1594.243
279.1040, 1593.803
279.5862, 1595.277
280.0683, 1598.731
280.5504, 1604.785
281.0325, 1613.391
281.5146, 1625.420
281.9967, 1641.870
282.4789, 1659.208
282.9610, 1684.024
283.4431, 1725.324
283.9252, 1780.253
284.4073, 1831.687
284.8894, 1869.855
285.3716, 1898.394
285.8537, 1929.993
286.3358, 1959.671
286.8179, 1998.144
287.3000, 2056.671
287.7821, 2130.869
288.2643, 2202.243
288.7464, 2263.633
289.2285, 2316.385
289.7106, 2365.026
290.1927, 2407.983
290.6748, 2449.975
291.1570, 2495.681
291.6391, 2542.694
292.1212, 2584.756
292.6033, 2622.116
293.0854, 2649.114
293.5675, 2654.867
294.0497, 2638.946
294.5318, 2609.643
295.0139, 2570.061
295.4960, 2519.559
295.9781, 2454.825
296.4602, 2372.505
296.9424, 2280.210
297.4245, 2189.271
297.9066, 2096.366
298.3887, 2015.023
298.8708, 1957.691
299.3529, 1913.160
299.8351, 1860.320
300.3172, 1791.823
300.7993, 1720.255
301.2814, 1663.507
301.7635, 1621.949
302.2456, 1583.973
302.7278, 1551.051
303.2099, 1519.090
303.6920, 1481.748
304.1741, 1437.319
304.6562, 1391.717
305.1383, 1349.456
305.6205, 1310.307
306.1026, 1280.401
306.5847, 1270.350
307.0668, 1264.712
307.5489, 1244.933
308.0310, 1208.655
308.5132, 1172.047
308.9953, 1149.880
309.4774, 1143.180
309.9595, 1138.697
310.4416, 1138.531
310.9237, 1138.610
311.4059, 1134.783
311.8880, 1127.278
312.3701, 1120.391
312.8522, 1116.870
313.3343, 1117.105
313.8164, 1120.619
314.2986, 1129.690
314.7807, 1139.808
315.2628, 1147.052
315.7449, 1152.536
316.2270, 1161.648
316.7091, 1178.470
317.1913, 1201.469
317.6734, 1221.301
318.1555, 1235.384
318.6376, 1249.656
319.1197, 1263.352
319.6018, 1278.845
320.0840, 1303.336
320.5661, 1341.823
321.0482, 1388.582
321.5303, 1423.404
322.0124, 1439.917
322.4945, 1455.513
322.9767, 1474.715
323.4588, 1494.984
323.9409, 1512.346
324.4230, 1525.249
324.9051, 1535.298
325.3872, 1545.720
325.8694, 1556.489
326.3515, 1567.633
326.8336, 1580.989
327.3157, 1593.762
327.7978, 1603.673
328.2799, 1610.009
328.7621, 1612.217
329.2442, 1608.517
329.7263, 1592.708
330.2084, 1587.628
330.6905, 1600.190
331.1726, 1617.931
331.6548, 1632.944
332.1369, 1643.917
332.6190, 1653.526
333.1011, 1665.580
333.5832, 1682.767
334.0653, 1685.532
334.5475, 1663.942
335.0296, 1639.985
335.5117, 1627.015
335.9938, 1621.826
336.4759, 1611.915
336.9580, 1587.382
337.4402, 1548.436
337.9223, 1507.793
338.4044, 1457.357
338.8865, 1414.156
339.3686, 1384.754
339.8507, 1365.262
340.3329, 1349.894
340.8150, 1335.652
341.2971, 1321.555
341.7792, 1302.974
342.2613, 1270.035
342.7434, 1245.355
343.2256, 1235.040
343.7077, 1232.504
344.1898, 1230.404
344.6719, 1225.874
345.1540, 1221.691
345.6361, 1222.872
346.1183, 1227.326
346.6004, 1242.415
347.0825, 1276.421
347.5646, 1313.793
348.0467, 1342.151
348.5288, 1359.463
349.0110, 1374.751
349.4931, 1400.317
349.9752, 1439.967
350.4573, 1475.046
350.9394, 1504.313
351.4215, 1529.882
351.9037, 1548.479
352.3858, 1562.926
352.8679, 1582.229
353.3500, 1616.738
353.8321, 1665.735
354.3142, 1706.797
354.7964, 1731.414
355.2785, 1757.966
355.7606, 1793.189
356.2427, 1835.599
356.7248, 1882.066
357.2069, 1930.767
357.6891, 1982.083
358.1712, 2038.595
358.6533, 2105.872
359.1354, 2166.136
359.6175, 2206.456
360.0996, 2238.428
360.5818, 2275.106
361.0639, 2321.536
361.5460, 2371.821
362.0281, 2419.093
362.5102, 2463.741
362.9923, 2503.646
363.4745, 2538.846
363.9566, 2567.974
364.4387, 2589.930
364.9208, 2604.702
365.4029, 2611.458
365.8850, 2606.087
366.3672, 2590.813
366.8493, 2578.540
367.3314, 2575.290
367.8135, 2570.794
368.2956, 2549.592
368.7777, 2513.336
369.2599, 2487.302
369.7420, 2487.214
370.2241, 2502.540
370.7062, 2515.582
371.1883, 2523.904
371.6704, 2532.880
372.1526, 2544.730
372.6347, 2560.647
373.1168, 2587.253
373.5989, 2628.988
374.0810, 2679.127
374.5631, 2732.790
375.0453, 2790.087
375.5274, 2851.941
376.0095, 2918.310
376.4916, 2990.607
376.9737, 3073.650
377.4558, 3171.105
377.9380, 3273.971
378.4201, 3380.605
378.9022, 3490.435
379.3843, 3599.667
379.8664, 3705.819
380.3485, 3815.510
380.8307, 3941.860
381.3128, 4101.684
381.7949, 4247.778
382.2770, 4369.832
382.7591, 4481.259
383.2412, 4595.603
383.7234, 4714.854
384.2055, 4828.122
384.6876, 4922.396
385.1697, 4996.293
385.6518, 5055.411
386.1339, 5091.526
386.6161, 5123.346
387.0982, 5161.381
387.5803, 5203.480
388.0624, 5241.952
388.5445, 5272.430
389.0266, 5294.211
389.5088, 5299.113
389.9909, 5264.059
390.4730, 5237.896
390.9551, 5232.185
391.4372, 5238.882
391.9193, 5250.232
392.4015, 5263.230
392.8836, 5272.747
393.3657, 5271.873
393.8478, 5270.684
394.3299, 5232.134
394.8120, 5133.337
395.2942, 5010.882
395.7763, 4891.742
396.2584, 4778.340
396.7405, 4649.329
397.2226, 4476.325
397.7047, 4259.702
398.1869, 4044.988
398.6690, 3832.806
399.1511, 3625.680
399.6332, 3423.653
400.1153, 3228.027
400.5974, 3040.766
401.0796, 2859.035
401.5617, 2687.637
402.0438, 2539.743
402.5259, 2420.036
403.0080, 2305.182
403.4901, 2175.433
403.9723, 2044.756
404.4544, 1936.812
404.9365, 1860.473
405.4186, 1799.304
405.9007, 1746.099
406.3828, 1698.872
406.8650, 1644.692
407.3471, 1574.300
407.8292, 1501.519
408.3113, 1447.474
408.7934, 1411.854
409.2755, 1389.435
409.7577, 1385.245
410.2398, 1391.066
410.7219, 1397.281
411.2040, 1402.126
411.6861, 1404.547
412.1682, 1401.897
412.6504, 1392.936
413.1325, 1393.393
413.6146, 1407.381
414.0967, 1426.518
414.5788, 1446.409
415.0609, 1467.481
415.5431, 1491.984
416.0252, 1521.290
416.5073, 1555.165
416.9894, 1593.119
417.4715, 1634.797
417.9536, 1681.663
418.4358, 1736.880
418.9179, 1795.971
419.4000, 1852.500
419.8821, 1905.105
420.3642, 1960.956
420.8463, 2033.324
421.3285, 2131.551
421.8106, 2219.780
422.2927, 2294.632
422.7748, 2362.785
423.2569, 2427.775
423.7390, 2488.900
424.2212, 2543.934
424.7033, 2594.168
425.1854, 2637.027
425.6675, 2656.608
426.1496, 2648.265
426.6317, 2622.308
427.1139, 2580.768
427.5960, 2527.147
428.0781, 2464.675
428.5602, 2394.363
429.0423, 2317.211
429.5244, 2230.408
430.0066, 2133.557
430.4887, 2045.544
430.9708, 1974.707
431.4529, 1912.538
431.9350, 1846.374
432.4171, 1775.259
432.8993, 1715.000
433.3814, 1675.967
433.8635, 1652.157
434.3456, 1632.123
434.8277, 1614.164
435.3098, 1602.452
435.7920, 1600.021
436.2741, 1607.656
436.7562, 1624.406
437.2383, 1659.056
437.7204, 1694.672
438.2025, 1720.880
438.6847, 1739.862
439.1668, 1759.395
439.6489, 1783.706
440.1310, 1809.791
440.6131, 1829.379
441.0952, 1838.528
441.5774, 1846.696
442.0595, 1852.802
442.5416, 1859.062
443.0237, 1868.348
443.5058, 1880.693
443.9879, 1893.229
444.4701, 1904.177
444.9522, 1915.224
445.4343, 1912.167
445.9164, 1882.323
446.3985, 1850.947
446.8806, 1826.518
447.3628, 1806.327
447.8449, 1784.636
448.3270, 1758.408
448.8091, 1728.318
449.2912, 1694.556
449.7733, 1654.581
450.2555, 1618.327
450.7376, 1589.490
451.2197, 1564.718
451.7018, 1541.891
452.1839, 1520.819
452.6660, 1501.466
453.1482, 1481.520
453.6303, 1462.641
454.1124, 1453.999
454.5945, 1459.710
455.0766, 1468.842
455.5587, 1468.267
456.0409, 1462.854
456.5230, 1468.909
457.0051, 1496.526
457.4872, 1532.256
457.9693, 1566.479
458.4514, 1599.015
458.9336, 1629.478
459.4157, 1658.312
459.8978, 1684.181
460.3799, 1702.047
460.8620, 1705.459
461.3441, 1714.345
461.8262, 1739.888
462.3083, 1768.499
462.7905, 1784.909
463.2726, 1786.818
463.7547, 1782.536
464.2368, 1779.860
464.7189, 1778.301
465.2010, 1782.781
465.6832, 1801.992
466.1653, 1817.548
466.6474, 1822.620
467.1295, 1820.184
467.6116, 1815.322
468.0938, 1810.439
468.5759, 1805.518
469.0580, 1801.827
469.5401, 1802.661
470.0222, 1795.217
470.5043, 1770.313
470.9865, 1741.505
471.4686, 1721.404
471.9507, 1709.041
472.4328, 1686.185
472.9149, 1629.036
473.3970, 1549.390
473.8792, 1492.408
474.3613, 1466.134
474.8434, 1444.336
475.3255, 1411.858
475.8076, 1371.460
476.2897, 1327.136
476.7719, 1271.775
477.2540, 1222.489
477.7361, 1195.725
478.2182, 1185.107
478.7003, 1171.176
479.1824, 1147.039
479.6646, 1118.226
480.1467, 1093.069
480.6288, 1071.756
481.1109, 1053.701
481.5930, 1035.995
482.0751, 1023.891
482.5573, 1022.344
483.0394, 1030.325
483.5215, 1043.664
484.0036, 1060.352
484.4857, 1078.948
484.9678, 1089.498
485.4500, 1080.173
485.9321, 1078.546
486.4142, 1091.179
486.8963, 1111.130
487.3784, 1133.647
487.8605, 1156.813
488.3427, 1177.700
488.8248, 1192.697
489.3069, 1201.621
489.7890, 1208.447
490.2711, 1212.995
490.7532, 1215.831
491.2354, 1219.836
491.7175, 1222.639
492.1996, 1218.512
492.6817, 1203.117
493.1638, 1182.065
493.6459, 1159.444
494.1281, 1135.653
494.6102, 1117.911
495.0923, 1112.179
495.5744, 1109.995
496.0565, 1094.491
496.5386, 1062.010
497.0208, 1035.188
497.5029, 1024.497
497.9850, 1018.736
498.4671, 1004.359
498.9492, 981.6202
499.4313, 962.8159
499.9135, 958.6277
500.3956, 967.7416
500.8777, 972.3688
501.3598, 965.8412
501.8419, 962.8241
502.3240, 968.9722
502.8062, 978.3251
503.2883, 984.1193
503.7704, 984.3837
504.2525, 982.2253
504.7346, 979.0580
505.2167, 973.0395
505.6989, 980.7813
506.1810, 1018.641
506.6631, 1051.885
507.1452, 1058.018
507.6273, 1047.660
508.1094, 1044.610
508.5916, 1058.409
509.0737, 1084.839
509.5558, 1124.939
510.0379, 1177.715
510.5200, 1217.425
511.0021, 1231.531
511.4843, 1232.547
511.9664, 1240.202
512.4485, 1256.176
512.9306, 1266.140
513.4127, 1260.650
513.8948, 1251.188
514.3770, 1254.095
514.8591, 1267.181
515.3412, 1269.412
515.8233, 1244.972
516.3054, 1197.786
516.7875, 1153.704
517.2697, 1109.278
517.7518, 1072.326
518.2339, 1051.068
518.7160, 1033.249
519.1981, 1004.622
519.6802, 963.4818
520.1624, 922.6074
520.6445, 897.7441
521.1266, 889.4142
521.6087, 875.0606
522.0908, 848.8851
522.5729, 825.4602
523.0551, 811.5862
523.5372, 804.1635
524.0193, 798.8686
524.5014, 795.0608
524.9835, 791.3530
525.4656, 786.6071
525.9478, 780.8420
526.4299, 774.4019
526.9120, 767.9778
527.3941, 759.3440
527.8762, 742.6139
528.3583, 717.0104
528.8405, 703.2642
529.3226, 718.7926
529.8047, 733.0106
530.2868, 719.1884
530.7689, 686.9194
531.2510, 665.1838
531.7332, 669.2357
532.2153, 689.0387
532.6974, 700.0367
533.1795, 697.0165
533.6616, 694.3326
534.1437, 692.1625
534.6259, 690.5045
535.1080, 690.1894
535.5901, 690.5632
536.0722, 689.2742
536.5543, 683.0842
537.0364, 674.8978
537.5186, 675.4877
538.0007, 688.0098
538.4828, 697.2745
538.9649, 695.4132
539.4470, 688.5768
539.9291, 682.0707
540.4113, 675.3219
540.8934, 675.3067
541.3755, 689.7934
541.8576, 711.5308
542.3397, 731.7101
542.8218, 748.9617
543.3040, 757.4762
543.7861, 749.8062
544.2682, 729.2436
544.7503, 724.4544
545.2324, 749.7729
545.7145, 770.7260
546.1967, 776.6756
546.6788, 776.9564
547.1609, 782.5178
547.6430, 795.2778
548.1251, 808.1137
548.6072, 810.6885
549.0894, 802.2244
549.5715, 809.2938
550.0536, 845.5109
550.5357, 877.9897
551.0178, 892.4239
551.4999, 897.1837
551.9821, 903.3428
552.4642, 913.8359
552.9463, 926.8829
553.4284, 942.0624
553.9105, 958.6792
554.3926, 974.9689
554.8748, 991.9193
555.3569, 1003.295
555.8390, 1001.202
556.3211, 985.6752
556.8032, 973.9196
557.2853, 968.3333
557.7675, 964.3221
558.2496, 962.4661
558.7317, 960.0989
559.2138, 951.7747
559.6959, 935.7510
560.1780, 917.1132
560.6602, 903.5577
561.1423, 896.0009
561.6244, 889.9641
562.1065, 888.4115
562.5886, 885.5152
563.0707, 877.9312
563.5529, 867.7856
564.0350, 859.6531
564.5171, 856.6226
564.9992, 853.0577
565.4813, 837.7953
565.9634, 812.0496
566.4456, 797.0429
566.9277, 801.7130
567.4098, 810.9332
567.8919, 807.4786
568.3740, 792.8611
568.8561, 780.4725
569.3383, 770.4982
569.8204, 764.8899
570.3025, 767.0710
570.7846, 774.4889
571.2667, 781.7852
571.7488, 786.7921
572.2310, 789.1879
572.7131, 787.8408
573.1952, 780.2902
573.6773, 775.6461
574.1594, 773.9734
574.6415, 774.9409
575.1237, 780.5986
575.6058, 788.6133
576.0879, 793.5353
576.5700, 791.1783
577.0521, 788.6490
577.5342, 799.3788
578.0164, 823.4545
578.4985, 843.1172
578.9806, 852.8622
579.4627, 858.8856
579.9448, 868.0642
580.4269, 879.8907
580.9091, 889.0580
581.3912, 888.0386
581.8733, 889.9523
582.3554, 908.1609
582.8375, 936.5665
583.3196, 958.2106
583.8018, 965.6534
584.2839, 968.6084
584.7660, 985.0353
585.2481, 1022.908
585.7302, 1051.292
586.2123, 1056.892
586.6945, 1066.985
587.1766, 1096.542
587.6587, 1138.702
588.1408, 1178.799
588.6229, 1209.818
589.1050, 1237.008
589.5872, 1269.324
590.0693, 1306.535
590.5514, 1335.391
591.0335, 1347.386
591.5156, 1361.113
591.9977, 1402.133
592.4799, 1465.680
592.9620, 1514.184
593.4441, 1536.035
593.9262, 1547.893
594.4083, 1556.777
594.8904, 1563.115
595.3726, 1567.649
595.8547, 1570.580
596.3368, 1569.214
596.8189, 1558.717
597.3010, 1536.642
597.7831, 1517.306
598.2653, 1507.894
598.7474, 1493.631
599.2295, 1464.661
599.7116, 1429.452
600.1937, 1401.178
600.6758, 1385.333
601.1580, 1374.084
