##NAMES=Romarchite
##RRUFFID=R080006
##IDEAL CHEMISTRY=SnO
##LOCALITY=Boundary Falls, Winnipeg River, Ontario, Canada
##OWNER=RRUFF
##SOURCE=Royal Ontario Museum
##DESCRIPTION=Incrusted lustrous black crystals, reported to be fine-grained psuedomorphs of an unknown phase. Co-type material.
##STATUS=The identification of this mineral has been confirmed by X-ray diffraction and chemical analysis
##URL=rruff.info/R080006
##MEASURED CHEMISTRY=Sn_1.00_O
125.3655, 445.3765
125.8476, 445.0602
126.3298, 443.9436
126.8119, 441.9398
127.2940, 440.2746
127.7761, 439.7274
128.2582, 439.3844
128.7404, 438.5860
129.2225, 437.1544
129.7046, 435.6346
130.1867, 435.0558
130.6688, 436.2165
131.1509, 436.8175
131.6331, 436.4335
132.1152, 435.5045
132.5973, 434.3377
133.0794, 433.0787
133.5615, 431.8073
134.0436, 430.8867
134.5258, 430.9166
135.0079, 430.6670
135.4900, 429.6151
135.9721, 428.1876
136.4542, 427.1619
136.9363, 427.0990
137.4185, 427.9189
137.9006, 428.2509
138.3827, 428.1127
138.8648, 427.6092
139.3469, 426.4815
139.8290, 424.8706
140.3112, 423.5492
140.7933, 423.3000
141.2754, 423.9975
141.7575, 424.2152
142.2396, 423.5269
142.7217, 422.5003
143.2039, 421.7128
143.6860, 421.2178
144.1681, 420.8758
144.6502, 420.6261
145.1323, 420.4438
145.6144, 420.2870
146.0966, 420.2028
146.5787, 420.1388
147.0608, 419.9273
147.5429, 419.5369
148.0250, 419.0039
148.5071, 418.1084
148.9893, 417.0483
149.4714, 416.3631
149.9535, 416.7783
150.4356, 418.4316
150.9177, 419.3344
151.3998, 418.6028
151.8820, 417.7603
152.3641, 417.2737
152.8462, 417.2006
153.3283, 417.3933
153.8104, 417.7401
154.2925, 418.4015
154.7747, 418.7451
155.2568, 418.7672
155.7389, 418.5575
156.2210, 417.9987
156.7031, 417.1415
157.1852, 416.3184
157.6673, 416.0586
158.1495, 416.7593
158.6316, 417.4279
159.1137, 418.1027
159.5958, 418.7311
160.0779, 419.2672
160.5600, 419.6973
161.0422, 420.0204
161.5243, 420.1926
162.0064, 420.0795
162.4885, 420.1358
162.9706, 420.7256
163.4527, 421.5420
163.9349, 421.8797
164.4170, 421.2744
164.8991, 420.3599
165.3812, 420.3625
165.8633, 421.4917
166.3454, 422.7559
166.8276, 423.7423
167.3097, 424.4412
167.7918, 424.7341
168.2739, 424.0843
168.7560, 423.3614
169.2381, 423.6832
169.7203, 425.3900
170.2024, 427.3901
170.6845, 428.4902
171.1666, 428.5089
171.6487, 428.6747
172.1308, 429.4994
172.6130, 430.6061
173.0951, 431.7349
173.5772, 432.8001
174.0593, 433.8900
174.5414, 435.2135
175.0235, 436.9634
175.5057, 438.5210
175.9878, 439.7259
176.4699, 440.7246
176.9520, 441.5642
177.4341, 442.2392
177.9162, 442.9349
178.3984, 444.2885
178.8805, 447.3017
179.3626, 449.6919
179.8447, 450.6916
180.3268, 451.0778
180.8089, 451.8533
181.2911, 453.5918
181.7732, 456.0970
182.2553, 458.2755
182.7374, 459.8423
183.2195, 461.4118
183.7016, 463.1401
184.1838, 464.9533
184.6659, 466.6794
185.1480, 468.1978
185.6301, 469.5515
186.1122, 471.1577
186.5943, 473.0897
187.0765, 475.1191
187.5586, 477.2958
188.0407, 479.5273
188.5228, 481.5421
189.0049, 483.1065
189.4870, 484.2681
189.9692, 485.5356
190.4513, 487.0190
190.9334, 488.5045
191.4155, 489.8369
191.8976, 491.0171
192.3797, 492.1732
192.8619, 493.2828
193.3440, 494.4531
193.8261, 495.9494
194.3082, 498.2162
194.7903, 500.5436
195.2724, 502.1164
195.7546, 502.8529
196.2367, 503.3776
196.7188, 504.1090
197.2009, 504.8698
197.6830, 505.3811
198.1651, 505.4255
198.6473, 505.2686
199.1294, 505.4483
199.6115, 506.1955
200.0936, 506.6857
200.5757, 506.4786
201.0578, 505.8314
201.5400, 505.0513
202.0221, 504.3375
202.5042, 503.5410
202.9863, 502.1316
203.4684, 499.6000
203.9505, 497.2875
204.4327, 495.7035
204.9148, 494.5419
205.3969, 493.4088
205.8790, 492.1139
206.3611, 490.6437
206.8432, 488.8958
207.3254, 486.7166
207.8075, 484.3983
208.2896, 482.1467
208.7717, 479.7924
209.2538, 477.0276
209.7359, 473.6377
210.2181, 469.6948
210.7002, 465.9900
211.1823, 462.4160
211.6644, 459.2212
212.1465, 456.9213
212.6286, 455.0092
213.1108, 452.5540
213.5929, 448.8592
214.0750, 444.0582
214.5571, 440.2431
215.0392, 438.2711
215.5213, 436.2432
216.0035, 433.4749
216.4856, 430.2432
216.9677, 427.2697
217.4498, 425.0489
217.9319, 423.5254
218.4140, 421.7091
218.8962, 419.4038
219.3783, 417.0958
219.8604, 414.9014
220.3425, 412.8417
220.8246, 410.9505
221.3067, 409.2672
221.7889, 407.7675
222.2710, 406.2143
222.7531, 404.4889
223.2352, 402.8286
223.7173, 401.3651
224.1994, 400.0761
224.6816, 398.8337
225.1637, 397.5624
225.6458, 396.2825
226.1279, 395.0584
226.6100, 393.8780
227.0921, 392.7623
227.5743, 391.6524
228.0564, 390.5732
228.5385, 389.7813
229.0206, 389.6971
229.5027, 389.8747
229.9848, 389.3385
230.4670, 387.5940
230.9491, 385.7082
231.4312, 384.6332
231.9133, 384.3708
232.3954, 384.2249
232.8775, 384.0492
233.3597, 383.7148
233.8418, 383.0394
234.3239, 381.9145
234.8060, 380.6060
235.2881, 379.2609
235.7702, 377.8366
236.2524, 376.7823
236.7345, 376.5403
237.2166, 376.6399
237.6987, 376.7732
238.1808, 376.9251
238.6629, 376.8965
239.1451, 376.2940
239.6272, 374.9514
240.1093, 373.9245
240.5914, 373.8436
241.0735, 374.0315
241.5556, 374.0774
242.0378, 373.8836
242.5199, 373.5179
243.0020, 373.0009
243.4841, 372.2475
243.9662, 371.6674
244.4483, 371.5218
244.9305, 371.4431
245.4126, 371.2169
245.8947, 370.7909
246.3768, 370.2138
246.8589, 369.4436
247.3410, 368.2523
247.8232, 367.6052
248.3053, 368.0201
248.7874, 368.6548
249.2695, 369.1077
249.7516, 369.2666
250.2337, 369.1443
250.7159, 368.6571
251.1980, 367.5098
251.6801, 366.8279
252.1622, 367.1605
252.6443, 367.5049
253.1264, 367.1985
253.6086, 366.2137
254.0907, 365.0446
254.5728, 364.3180
255.0549, 364.2072
255.5370, 364.0154
256.0191, 363.5910
256.5013, 363.2184
256.9834, 363.0923
257.4655, 363.2009
257.9476, 363.3814
258.4297, 363.4648
258.9118, 363.4462
259.3940, 363.3284
259.8761, 362.9625
260.3582, 362.6416
260.8403, 362.6384
261.3224, 362.8721
261.8045, 362.9602
262.2867, 362.4782
262.7688, 361.2635
263.2509, 360.6286
263.7330, 361.0594
264.2151, 361.4928
264.6972, 361.3799
265.1794, 360.7960
265.6615, 360.1502
266.1436, 359.7649
266.6257, 359.6471
267.1078, 359.6964
267.5899, 360.3555
268.0721, 360.7256
268.5542, 360.1659
269.0363, 358.9460
269.5184, 357.8691
270.0005, 357.5225
270.4826, 357.8466
270.9648, 357.9533
271.4469, 357.6578
271.9290, 357.3882
272.4111, 357.3514
272.8932, 357.4676
273.3753, 357.5589
273.8575, 357.5484
274.3396, 357.4073
274.8217, 356.9639
275.3038, 354.5540
275.7859, 355.7398
276.2680, 356.2981
276.7502, 356.2624
277.2323, 353.8544
277.7144, 354.5099
278.1965, 353.9377
278.6786, 353.3151
279.1607, 354.4018
279.6429, 352.3388
280.1250, 353.3984
280.6071, 353.2115
281.0892, 353.5951
281.5713, 352.7434
282.0534, 352.2732
282.5356, 353.0387
283.0177, 353.1200
283.4998, 352.5734
283.9819, 353.0651
284.4640, 353.3026
284.9461, 353.1618
285.4283, 352.5570
285.9104, 351.8263
286.3925, 351.4504
286.8746, 351.4332
287.3567, 351.5156
287.8388, 351.8299
288.3210, 352.1431
288.8031, 352.1314
289.2852, 351.7246
289.7673, 351.1210
290.2494, 350.4962
290.7315, 349.8488
291.2137, 349.1862
291.6958, 348.2773
292.1779, 347.4753
292.6600, 347.1800
293.1421, 347.4334
293.6242, 348.0366
294.1064, 349.1136
294.5885, 350.4716
295.0706, 351.1161
295.5527, 350.4228
296.0348, 349.3409
296.5169, 348.5755
296.9991, 348.1446
297.4812, 348.0566
297.9633, 348.5858
298.4454, 349.4005
298.9275, 349.5199
299.4096, 348.4514
299.8918, 347.1956
300.3739, 346.4160
300.8560, 346.0686
301.3381, 345.8516
301.8202, 345.6161
302.3023, 345.4561
302.7845, 345.5436
303.2666, 345.9753
303.7487, 346.4193
304.2308, 346.7698
304.7129, 346.9983
305.1950, 346.9933
305.6772, 346.6932
306.1593, 346.1677
306.6414, 345.4258
307.1235, 344.4086
307.6056, 343.6570
308.0877, 343.6581
308.5699, 344.0799
309.0520, 344.0707
309.5341, 343.3076
310.0162, 342.4566
310.4983, 342.4061
310.9804, 343.0222
311.4626, 343.4762
311.9447, 343.3488
312.4268, 342.9517
312.9089, 342.8014
313.3910, 342.9973
313.8731, 343.1758
314.3553, 342.9722
314.8374, 342.4909
315.3195, 342.0550
315.8016, 341.6983
316.2837, 341.4297
316.7658, 341.2962
317.2480, 341.3023
317.7301, 341.2922
318.2122, 341.0952
318.6943, 340.8416
319.1764, 340.8688
319.6585, 341.5543
320.1407, 342.0854
320.6228, 341.6307
321.1049, 340.3388
321.5870, 339.2734
322.0691, 338.8935
322.5512, 339.0225
323.0334, 339.3774
323.5155, 340.1683
323.9976, 340.5395
324.4797, 339.6525
324.9618, 337.9344
325.4439, 336.7169
325.9261, 336.4374
326.4082, 336.6347
326.8903, 336.7393
327.3724, 336.7498
327.8545, 336.7846
328.3366, 336.8923
328.8188, 337.0452
329.3009, 337.2355
329.7830, 337.4861
330.2651, 337.6459
330.7472, 337.4818
331.2293, 337.0600
331.7115, 336.7477
332.1936, 336.6515
332.6757, 336.6713
333.1578, 336.7281
333.6399, 336.8180
334.1220, 336.9069
334.6042, 337.0270
335.0863, 337.1149
335.5684, 336.9901
336.0505, 336.6535
336.5326, 336.0992
337.0147, 335.0433
337.4969, 333.6618
337.9790, 332.7970
338.4611, 332.9453
338.9432, 333.7301
339.4253, 334.3149
339.9074, 334.6857
340.3896, 334.9315
340.8717, 335.1543
341.3538, 335.2674
341.8359, 335.0282
342.3180, 334.3042
342.8001, 333.4396
343.2823, 332.9146
343.7644, 332.7319
344.2465, 332.6720
344.7286, 332.7867
345.2107, 332.9579
345.6928, 333.1155
346.1750, 333.2469
346.6571, 333.1813
347.1392, 332.6624
347.6213, 331.6833
348.1034, 331.1256
348.5855, 331.3258
349.0677, 331.6621
349.5498, 331.7956
350.0319, 331.7170
350.5140, 331.4415
350.9961, 330.8998
351.4782, 330.2105
351.9604, 329.9402
352.4425, 330.5312
352.9246, 330.9321
353.4067, 330.6000
353.8888, 329.8940
354.3709, 329.5230
354.8531, 329.7915
355.3352, 330.3023
355.8173, 330.2617
356.2994, 329.3080
356.7815, 328.6521
357.2636, 328.5724
357.7458, 328.7398
358.2279, 328.8506
358.7100, 328.8481
359.1921, 328.8587
359.6742, 329.0821
360.1563, 329.6356
360.6385, 329.5473
361.1206, 328.1342
361.6027, 326.7650
362.0848, 326.2437
362.5669, 326.4365
363.0490, 326.7351
363.5312, 326.7168
364.0133, 326.4451
364.4954, 326.4518
364.9775, 327.1102
365.4596, 327.5856
365.9417, 327.6862
366.4239, 327.5127
366.9060, 327.1556
367.3881, 326.6524
367.8702, 326.1079
368.3523, 325.7261
368.8344, 325.4424
369.3166, 325.4695
369.7987, 326.2910
370.2808, 327.0627
370.7629, 326.9384
371.2450, 325.9431
371.7271, 324.9529
372.2093, 325.0080
372.6914, 326.3829
373.1735, 327.0209
373.6556, 326.2303
374.1377, 325.4434
374.6198, 325.2963
375.1020, 325.5459
375.5841, 325.6193
376.0662, 325.1426
376.5483, 324.2134
377.0304, 323.2604
377.5125, 321.8407
377.9947, 321.0952
378.4768, 321.6611
378.9589, 322.7065
379.4410, 323.4306
379.9231, 323.5656
380.4052, 323.3578
380.8874, 323.1326
381.3695, 322.8344
381.8516, 322.7064
382.3337, 322.7938
382.8158, 323.0316
383.2979, 323.5992
383.7801, 324.3614
384.2622, 324.8348
384.7443, 324.5300
385.2264, 323.5125
385.7085, 322.5377
386.1906, 321.3532
386.6728, 320.6213
387.1549, 320.9391
387.6370, 321.7369
388.1191, 322.1125
388.6012, 321.5848
389.0833, 320.6501
389.5655, 320.2061
390.0476, 320.3514
390.5297, 320.5399
391.0118, 320.7463
391.4939, 320.8294
391.9760, 320.5879
392.4582, 319.9874
392.9403, 319.3993
393.4224, 319.1241
393.9045, 319.1261
394.3866, 319.2169
394.8687, 319.4467
395.3509, 319.6295
395.8330, 319.5934
396.3151, 319.3885
396.7972, 319.1670
397.2793, 319.0277
397.7614, 318.8867
398.2436, 318.4634
398.7257, 317.7093
399.2078, 317.4097
399.6899, 318.3802
400.1720, 319.9706
400.6541, 320.7449
401.1363, 320.3341
401.6184, 319.6910
402.1005, 319.3692
402.5826, 319.2552
403.0647, 318.9728
403.5468, 318.3388
404.0290, 317.6930
404.5111, 317.6019
404.9932, 318.1057
405.4753, 318.5085
405.9574, 318.5970
406.4395, 318.5809
406.9217, 318.6563
407.4038, 318.8380
407.8859, 319.0783
408.3680, 319.4225
408.8501, 319.8121
409.3322, 319.6021
409.8144, 317.3984
410.2965, 318.7159
410.7786, 319.4060
411.2607, 319.5022
411.7428, 317.2259
412.2249, 318.0132
412.7071, 317.5727
413.1892, 317.0819
413.6713, 318.3003
414.1534, 316.3691
414.6355, 317.5605
415.1176, 317.5053
415.5998, 318.0207
416.0819, 317.3007
416.5640, 316.9623
417.0461, 317.8596
417.5282, 318.0727
418.0103, 316.7931
418.4925, 315.9399
418.9746, 315.3256
419.4567, 315.4865
419.9388, 316.0396
420.4209, 316.4378
420.9030, 316.4308
421.3852, 316.1948
421.8673, 316.1203
422.3494, 316.3737
422.8315, 316.3535
423.3136, 315.6373
423.7957, 314.9298
424.2779, 314.7393
424.7600, 315.0288
425.2421, 315.3392
425.7242, 315.2341
426.2063, 314.7696
426.6884, 314.4907
427.1706, 314.4379
427.6527, 314.5172
428.1348, 314.8900
428.6169, 315.2977
429.0990, 315.3309
429.5811, 314.7751
430.0633, 313.9886
430.5454, 313.3363
431.0275, 312.8156
431.5096, 312.5887
431.9917, 312.8492
432.4738, 313.2912
432.9560, 313.5497
433.4381, 313.6275
433.9202, 313.7887
434.4023, 314.3939
434.8844, 315.0943
435.3665, 315.1895
435.8487, 314.5683
436.3308, 313.7978
436.8129, 313.2216
437.2950, 312.8368
437.7771, 312.5653
438.2592, 312.3989
438.7414, 312.3485
439.2235, 312.5756
439.7056, 312.9236
440.1877, 312.9481
440.6698, 312.4410
441.1519, 311.7619
441.6341, 311.5242
442.1162, 311.9637
442.5983, 312.1546
443.0804, 311.7789
443.5625, 311.3480
444.0446, 311.3307
444.5268, 311.6717
445.0089, 311.9241
445.4910, 311.7288
445.9731, 311.1461
446.4552, 310.7598
446.9373, 310.5822
447.4195, 310.5896
447.9016, 310.9960
448.3837, 311.4877
448.8658, 311.7416
449.3479, 311.6554
449.8300, 311.3114
450.3122, 310.7599
450.7943, 309.8698
451.2764, 309.2652
451.7585, 309.0264
452.2406, 309.0091
452.7227, 309.4189
453.2049, 310.0090
453.6870, 310.2242
454.1691, 309.6159
454.6512, 308.5928
455.1333, 308.2896
455.6154, 309.0072
456.0976, 309.5456
456.5797, 309.2417
457.0618, 308.7785
457.5439, 308.7076
458.0260, 309.1043
458.5081, 309.5698
458.9903, 309.9200
459.4724, 310.1083
459.9545, 309.8873
460.4366, 309.0903
460.9187, 308.2729
461.4008, 307.8871
461.8830, 307.8059
462.3651, 307.7413
462.8472, 307.5811
463.3293, 307.4908
463.8114, 307.7218
464.2935, 308.1555
464.7756, 308.3327
465.2578, 308.0475
465.7399, 307.5282
466.2220, 307.1325
466.7041, 306.8489
467.1862, 306.7130
467.6683, 306.8751
468.1505, 307.0802
468.6326, 307.0900
469.1147, 306.9218
469.5968, 306.7645
470.0789, 306.7551
470.5610, 306.8664
471.0432, 306.9220
471.5253, 306.8320
472.0074, 306.7958
472.4895, 307.1222
472.9716, 307.3589
473.4537, 306.9182
473.9359, 305.7375
474.4180, 304.3854
474.9001, 303.5122
475.3822, 303.1404
475.8643, 303.1028
476.3464, 303.8264
476.8286, 304.4375
477.3107, 304.5816
477.7928, 304.4450
478.2749, 304.3740
478.7570, 304.5538
479.2391, 304.7437
479.7213, 304.4737
480.2034, 303.6714
480.6855, 303.0114
481.1676, 302.6357
481.6497, 302.4636
482.1318, 302.4672
482.6140, 302.6219
483.0961, 302.7642
483.5782, 302.8091
484.0603, 302.7970
484.5424, 302.8182
485.0245, 302.8791
485.5067, 302.8385
485.9888, 302.5851
486.4709, 302.1943
486.9530, 301.8533
487.4351, 301.4969
487.9172, 301.3242
488.3994, 301.6163
488.8815, 302.0430
489.3636, 302.1192
489.8457, 301.7645
490.3278, 301.2817
490.8099, 300.9386
491.2921, 300.7384
491.7742, 300.6465
492.2563, 300.6753
492.7384, 300.7773
493.2205, 301.1156
493.7026, 301.4596
494.1848, 301.4321
494.6669, 300.9060
495.1490, 300.1841
495.6311, 299.7144
496.1132, 299.5029
496.5953, 299.5339
497.0775, 300.2414
497.5596, 300.7804
498.0417, 300.7968
498.5238, 300.3780
499.0059, 299.7066
499.4880, 298.7700
499.9702, 297.8366
500.4523, 297.5278
500.9344, 297.9508
501.4165, 298.3028
501.8986, 298.3210
502.3807, 298.2135
502.8629, 298.2125
503.3450, 298.3122
503.8271, 298.2720
504.3092, 297.8280
504.7913, 297.2383
505.2734, 296.9089
505.7556, 296.8616
506.2377, 296.9125
506.7198, 296.9698
507.2019, 297.0466
507.6840, 297.2086
508.1661, 297.6653
508.6483, 297.8120
509.1304, 297.2412
509.6125, 296.4077
510.0946, 295.8114
510.5767, 295.5378
511.0588, 295.4254
511.5410, 295.3295
512.0231, 295.2498
512.5052, 295.2631
512.9873, 295.5402
513.4694, 295.7043
513.9515, 295.5600
514.4337, 295.3206
514.9158, 295.3265
515.3979, 295.6403
515.8800, 295.8611
516.3621, 295.2901
516.8442, 293.7863
517.3264, 293.0316
517.8085, 293.4855
518.2906, 294.1398
518.7727, 294.7070
519.2548, 295.1127
519.7369, 295.1969
520.2191, 294.8176
520.7012, 294.3332
521.1833, 294.2263
521.6654, 294.4258
522.1475, 294.3130
522.6296, 293.5972
523.1118, 292.8244
523.5939, 292.7491
524.0760, 293.2541
524.5581, 293.4273
525.0402, 292.7850
525.5223, 292.0565
526.0045, 291.7472
526.4866, 291.7852
526.9687, 291.9423
527.4508, 292.1337
527.9329, 292.3105
528.4150, 292.3830
528.8972, 292.3391
529.3793, 292.2011
529.8614, 291.9150
530.3435, 291.5928
530.8256, 291.1970
531.3077, 290.8181
531.7899, 290.6994
532.2720, 291.0256
532.7541, 291.5229
533.2362, 291.3799
533.7183, 290.2198
534.2004, 289.4871
534.6826, 289.8041
535.1647, 290.3244
535.6468, 290.7307
536.1289, 290.9370
536.6110, 290.7524
537.0931, 289.7343
537.5753, 288.4167
538.0574, 287.8541
538.5395, 288.0728
539.0216, 288.4524
539.5037, 288.8659
539.9858, 289.1825
540.4680, 289.1519
540.9501, 288.7222
541.4322, 288.3247
541.9143, 288.0441
542.3964, 287.8771
542.8785, 287.8878
543.3607, 288.0357
543.8428, 288.1318
544.3249, 288.0561
544.8070, 287.8376
545.2891, 287.5771
545.7712, 286.9962
546.2534, 286.7764
546.7355, 287.2622
547.2176, 287.8615
547.6997, 288.1585
548.1818, 288.1289
548.6639, 287.9619
549.1461, 287.7973
549.6282, 287.6137
550.1103, 287.2996
550.5924, 286.7609
551.0745, 286.3281
551.5566, 286.2424
552.0388, 286.2094
552.5209, 285.8929
553.0030, 285.2873
553.4851, 284.9261
553.9672, 285.3433
554.4493, 286.1255
554.9315, 286.5503
555.4136, 286.5813
555.8957, 286.3970
556.3778, 286.0160
556.8599, 285.5468
557.3420, 285.3047
557.8242, 285.3788
558.3063, 285.4263
558.7884, 285.3782
559.2705, 285.2794
559.7526, 285.1531
560.2347, 285.0112
560.7169, 284.8543
561.1990, 284.6642
561.6811, 284.4891
562.1632, 284.5947
562.6453, 285.3514
563.1274, 285.7314
563.6096, 285.2850
564.0917, 284.7296
564.5738, 284.6145
565.0559, 284.9229
565.5380, 285.2489
566.0201, 285.3222
566.5023, 285.2003
566.9844, 285.0378
567.4665, 284.8459
567.9486, 284.5346
568.4307, 283.9726
568.9128, 283.3631
569.3950, 282.9944
569.8771, 282.8844
570.3592, 282.7924
570.8413, 282.5269
571.3234, 282.3189
571.8055, 282.5029
572.2877, 283.0086
572.7698, 283.4334
573.2519, 283.5554
573.7340, 283.4537
574.2161, 283.3271
574.6982, 283.1710
575.1804, 282.9877
575.6625, 282.7725
576.1446, 282.5321
576.6267, 282.1633
577.1088, 281.7702
577.5909, 281.6281
578.0731, 281.9410
578.5552, 282.4696
579.0373, 282.6635
579.5194, 282.4584
580.0015, 282.2802
580.4836, 282.3065
580.9658, 282.2784
581.4479, 281.8696
581.9300, 281.2044
582.4121, 280.8255
582.8942, 281.2693
583.3763, 281.8077
583.8585, 281.5269
584.3406, 280.6907
584.8227, 280.4160
585.3048, 281.1870
585.7869, 282.1329
586.2690, 281.9608
586.7512, 280.2880
587.2333, 279.4101
587.7154, 279.8379
588.1975, 280.4480
588.6796, 280.9170
589.1617, 281.2062
589.6439, 281.2746
590.1260, 281.1164
590.6081, 280.8744
591.0902, 280.7025
591.5723, 280.5816
592.0544, 280.7621
592.5366, 281.6763
593.0187, 282.2418
593.5008, 281.7296
593.9829, 280.6563
594.4650, 279.7591
594.9471, 279.2098
595.4293, 278.8652
595.9114, 278.7151
596.3935, 278.6808
596.8756, 278.5148
597.3577, 278.1693
597.8398, 278.0215
598.3220, 278.4747
598.8041, 279.3827
599.2862, 279.7246
599.7683, 278.8824
600.2504, 278.3903
600.7325, 278.7793
601.2147, 279.4318
601.6968, 279.9085
602.1789, 280.0805
602.6610, 279.8271
603.1431, 278.9491
603.6252, 277.6717
604.1074, 277.0467
604.5895, 277.3112
605.0716, 277.6047
605.5537, 277.6726
606.0358, 277.7269
606.5179, 278.0041
607.0001, 278.4608
607.4822, 278.7240
607.9643, 278.4586
608.4464, 278.0056
608.9285, 277.7824
609.4106, 277.7587
609.8928, 277.7664
610.3749, 277.7720
610.8570, 277.6700
611.3391, 277.2394
611.8212, 276.2914
612.3033, 275.8068
612.7855, 276.1780
613.2676, 276.5775
613.7497, 276.6644
614.2318, 276.5228
614.7139, 276.2838
615.1960, 276.0047
615.6782, 275.7761
616.1603, 275.8007
616.6424, 276.1017
617.1245, 276.0528
617.6066, 275.3515
618.0887, 274.8141
618.5709, 274.9827
619.0530, 275.5040
619.5351, 275.9565
620.0172, 276.3188
620.4993, 276.4355
