##NAMES=Romarchite
##RRUFFID=R080006
##IDEAL CHEMISTRY=SnO
##LOCALITY=Boundary Falls, Winnipeg River, Ontario, Canada
##OWNER=RRUFF
##SOURCE=Royal Ontario Museum
##DESCRIPTION=Incrusted lustrous black crystals, reported to be fine-grained psuedomorphs of an unknown phase. Co-type material.
##STATUS=The identification of this mineral has been confirmed by X-ray diffraction and chemical analysis
##URL=rruff.info/R080006
##MEASURED CHEMISTRY=Sn_1.00_O
121.3690, 219.8999
121.8511, 220.4382
122.3332, 221.8329
122.8154, 223.2971
123.2975, 224.4969
123.7796, 225.5283
124.2617, 226.4475
124.7438, 227.1415
125.2259, 227.9612
125.7081, 229.3874
126.1902, 231.1790
126.6723, 231.7402
127.1544, 230.9192
127.6365, 229.8671
128.1186, 229.0362
128.6008, 228.5337
129.0829, 228.2819
129.5650, 228.3749
130.0471, 228.7809
130.5292, 228.9433
131.0113, 228.3231
131.4935, 227.0495
131.9756, 225.6046
132.4577, 223.9578
132.9398, 222.2854
133.4219, 221.1817
133.9040, 220.6615
134.3862, 220.4427
134.8683, 220.3735
135.3504, 220.4467
135.8325, 220.2659
136.3146, 219.4756
136.7967, 218.1971
137.2789, 217.7839
137.7610, 218.4474
138.2431, 219.4444
138.7252, 219.8449
139.2073, 219.6241
139.6894, 218.9536
140.1716, 217.7431
140.6537, 215.8605
141.1358, 214.3821
141.6179, 213.3462
142.1000, 212.6347
142.5821, 212.0569
143.0643, 211.6284
143.5464, 211.2879
144.0285, 211.0069
144.5106, 210.7813
144.9927, 210.6377
145.4748, 210.6295
145.9570, 210.6949
146.4391, 210.6466
146.9212, 210.3828
147.4033, 210.1274
147.8854, 209.9983
148.3675, 210.2439
148.8497, 210.2162
149.3318, 209.7211
149.8139, 208.8812
150.2960, 208.3154
150.7781, 208.2292
151.2602, 208.2643
151.7424, 208.2290
152.2245, 208.1081
152.7066, 207.9325
153.1887, 207.7030
153.6708, 207.4199
154.1529, 207.0788
154.6351, 206.5987
155.1172, 206.1011
155.5993, 205.6678
156.0814, 205.5147
156.5635, 205.2102
157.0456, 204.4514
157.5278, 203.2472
158.0099, 202.5533
158.4920, 202.9045
158.9741, 203.6880
159.4562, 204.3584
159.9383, 204.5423
160.4205, 204.8218
160.9026, 205.5307
161.3847, 206.7224
161.8668, 207.6511
162.3489, 207.9102
162.8310, 207.8162
163.3132, 207.7365
163.7953, 207.5741
164.2774, 207.6249
164.7595, 208.1087
165.2416, 209.0935
165.7237, 210.1243
166.2059, 210.9180
166.6880, 211.6254
167.1701, 212.4773
167.6522, 213.8597
168.1343, 215.2360
168.6164, 216.0987
169.0986, 216.2537
169.5807, 216.5627
170.0628, 217.7367
170.5449, 219.4771
171.0270, 221.1938
171.5091, 222.6104
171.9913, 223.8609
172.4734, 225.0560
172.9555, 226.2024
173.4376, 227.3503
173.9197, 228.4990
174.4018, 229.6793
174.8840, 230.9686
175.3661, 232.3652
175.8482, 233.8974
176.3303, 235.6099
176.8124, 237.5416
177.2945, 239.5910
177.7767, 241.6329
178.2588, 243.7048
178.7409, 245.8758
179.2230, 248.3181
179.7051, 250.8997
180.1872, 253.2925
180.6694, 255.3521
181.1515, 257.4117
181.6336, 259.9445
182.1157, 262.9059
182.5978, 265.9673
183.0799, 268.8838
183.5621, 271.7531
184.0442, 274.8054
184.5263, 278.1853
185.0084, 281.6739
185.4905, 284.9101
185.9726, 287.8934
186.4547, 290.9647
186.9369, 294.5228
187.4190, 298.4550
187.9011, 302.0894
188.3832, 305.1985
188.8653, 308.0740
189.3474, 311.3672
189.8296, 315.1162
190.3117, 319.0897
190.7938, 323.1666
191.2759, 327.3383
191.7580, 331.5164
192.2401, 335.7671
192.7223, 340.0101
193.2044, 344.0720
193.6865, 347.9928
194.1686, 351.7182
194.6507, 354.9391
195.1328, 357.6923
195.6150, 360.9922
196.0971, 365.3041
196.5792, 370.2585
197.0613, 374.3391
197.5434, 377.4135
198.0255, 380.1856
198.5077, 383.3152
198.9898, 386.8399
199.4719, 390.0686
199.9540, 392.7931
200.4361, 395.0756
200.9182, 397.4161
201.4004, 399.9205
201.8825, 402.1254
202.3646, 403.5728
202.8467, 404.2267
203.3288, 404.3495
203.8109, 403.8942
204.2931, 402.9274
204.7752, 402.1164
205.2573, 401.6659
205.7394, 400.8895
206.2215, 398.9951
206.7036, 395.8643
207.1858, 392.3346
207.6679, 388.5390
208.1500, 384.4900
208.6321, 380.4536
209.1142, 376.5716
209.5963, 372.4369
210.0785, 367.5351
210.5606, 361.7457
211.0427, 355.7448
211.5248, 349.5975
212.0069, 343.3102
212.4890, 337.1283
212.9712, 331.0638
213.4533, 325.0637
213.9354, 319.1415
214.4175, 313.2294
214.8996, 307.4440
215.3817, 301.7354
215.8639, 296.1504
216.3460, 290.7584
216.8281, 285.6109
217.3102, 280.5603
217.7923, 275.4741
218.2744, 270.2109
218.7566, 265.1466
219.2387, 260.4527
219.7208, 256.0857
220.2029, 252.0158
220.6850, 248.4153
221.1671, 244.9471
221.6493, 241.2467
222.1314, 237.0446
222.6135, 233.1395
223.0956, 229.7581
223.5777, 226.8581
224.0598, 224.4852
224.5420, 222.9215
225.0241, 221.5513
225.5062, 219.6311
225.9883, 216.8294
226.4704, 214.2122
226.9525, 212.1477
227.4347, 210.6428
227.9168, 208.7674
228.3989, 206.1918
228.8810, 203.5972
229.3631, 201.8062
229.8452, 201.3058
230.3274, 200.6075
230.8095, 199.3721
231.2916, 197.5806
231.7737, 195.7856
232.2558, 193.9106
232.7379, 192.1118
233.2201, 190.5664
233.7022, 189.3048
234.1843, 188.2570
234.6664, 187.5423
235.1485, 187.1767
235.6306, 186.3616
236.1128, 184.8033
236.5949, 183.0835
237.0770, 181.7553
237.5591, 181.0073
238.0412, 180.2872
238.5233, 179.5000
239.0055, 178.6427
239.4876, 177.8308
239.9697, 177.0041
240.4518, 176.2816
240.9339, 175.8067
241.4160, 175.7954
241.8982, 175.6068
242.3803, 175.0935
242.8624, 174.2626
243.3445, 173.4458
243.8266, 172.4817
244.3087, 171.7030
244.7909, 171.4714
245.2730, 172.2784
245.7551, 172.6185
246.2372, 172.0735
246.7193, 170.7354
247.2014, 169.9289
247.6836, 169.9799
248.1657, 170.1729
248.6478, 169.9480
249.1299, 169.0808
249.6120, 168.2748
250.0941, 167.5891
250.5762, 167.0276
251.0584, 166.6636
251.5405, 166.7140
252.0226, 166.6798
252.5047, 166.1332
252.9868, 164.6594
253.4689, 163.6743
253.9511, 163.5214
254.4332, 164.0154
254.9153, 164.0852
255.3974, 163.6024
255.8795, 162.9047
256.3617, 162.1476
256.8438, 161.1745
257.3259, 160.5632
257.8080, 160.4890
258.2901, 160.8011
258.7722, 160.9075
259.2544, 160.7504
259.7365, 160.4799
260.2186, 160.1176
260.7007, 159.5349
261.1828, 159.2728
261.6649, 159.4890
262.1471, 159.9984
262.6292, 160.2428
263.1113, 160.1200
263.5934, 159.9270
264.0755, 159.7972
264.5576, 159.7245
265.0398, 159.7417
265.5219, 159.8995
266.0040, 160.1159
266.4861, 160.2230
266.9682, 160.2412
267.4503, 160.1021
267.9325, 159.7119
268.4146, 158.9617
268.8967, 158.4579
269.3788, 158.2378
269.8609, 158.2305
270.3430, 158.3603
270.8252, 158.6981
271.3073, 158.9360
271.7894, 158.8906
272.2715, 158.5211
272.7536, 158.3304
273.2357, 158.3833
273.7179, 158.5188
274.2000, 158.4688
274.6821, 158.1828
275.1642, 157.9265
275.6463, 157.7912
276.1284, 157.7760
276.6106, 157.8185
277.0927, 157.9494
277.5748, 158.0704
278.0569, 158.0464
278.5390, 157.8648
279.0211, 157.6492
279.5032, 157.4021
279.9854, 157.1437
280.4675, 157.0557
280.9496, 157.1752
281.4317, 157.3467
281.9138, 157.3775
282.3959, 157.2605
282.8781, 157.2367
283.3602, 157.4480
283.8423, 157.7902
284.3244, 157.7782
284.8065, 157.3778
285.2886, 156.8430
285.7708, 156.3944
286.2529, 156.0247
286.7350, 155.5735
287.2171, 154.8744
287.6992, 154.1607
288.1813, 154.2596
288.6635, 155.2137
289.1456, 156.1567
289.6277, 156.2977
290.1098, 155.7616
290.5919, 155.4151
291.0740, 155.4541
291.5562, 155.6524
292.0383, 155.5458
292.5204, 155.1466
293.0025, 154.7368
293.4846, 154.4780
293.9667, 154.3540
294.4489, 154.3118
294.9310, 154.3521
295.4131, 154.4618
295.8952, 154.7647
296.3773, 155.1977
296.8594, 155.3597
297.3416, 154.7310
297.8237, 153.6978
298.3058, 153.2208
298.7879, 153.4379
299.2700, 153.8379
299.7521, 153.8001
300.2343, 153.4390
300.7164, 153.1217
301.1985, 153.0127
301.6806, 153.0559
302.1627, 153.2002
302.6448, 153.4507
303.1270, 153.6942
303.6091, 153.7912
304.0912, 153.8040
304.5733, 153.8680
305.0554, 154.1804
305.5375, 154.4923
306.0197, 154.4375
306.5018, 154.0384
306.9839, 153.6900
307.4660, 153.8692
307.9481, 154.2419
308.4302, 154.3142
308.9124, 153.6113
309.3945, 152.8736
309.8766, 152.8558
310.3587, 153.4177
310.8408, 153.8208
311.3229, 153.3752
311.8051, 152.6581
312.2872, 152.3035
312.7693, 152.7039
313.2514, 153.0762
313.7335, 152.7465
314.2156, 151.9834
314.6978, 151.5665
315.1799, 152.3285
315.6620, 153.2792
316.1441, 153.6691
316.6262, 153.2209
317.1083, 152.6415
317.5905, 152.1161
318.0726, 151.6728
318.5547, 151.3549
319.0368, 151.3582
319.5189, 151.3501
320.0010, 151.1210
320.4832, 150.5864
320.9653, 150.1723
321.4474, 150.1260
321.9295, 150.2225
322.4116, 150.1988
322.8937, 149.8103
323.3759, 149.4782
323.8580, 149.4061
324.3401, 149.6227
324.8222, 149.6369
325.3043, 148.9598
325.7864, 148.2805
326.2686, 148.1302
326.7507, 149.4101
327.2328, 150.2798
327.7149, 150.2565
328.1970, 149.4421
328.6791, 148.9863
329.1613, 149.2027
329.6434, 149.5445
330.1255, 149.7327
330.6076, 149.5111
331.0897, 149.5103
331.5718, 149.8868
332.0540, 150.4868
332.5361, 150.8845
333.0182, 151.0963
333.5003, 151.0876
333.9824, 150.7836
334.4645, 149.9903
334.9467, 149.5092
335.4288, 149.4812
335.9109, 149.6696
336.3930, 149.6633
336.8751, 149.3286
337.3572, 149.1211
337.8394, 149.2555
338.3215, 149.7588
338.8036, 149.9152
339.2857, 149.5997
339.7678, 149.1543
340.2499, 148.9219
340.7321, 148.9151
341.2142, 149.0843
341.6963, 149.4876
342.1784, 150.0501
342.6605, 150.4126
343.1426, 150.5550
343.6248, 150.5735
344.1069, 150.5151
344.5890, 150.3830
345.0711, 150.2254
345.5532, 150.0218
346.0353, 149.8358
346.5175, 149.8328
346.9996, 150.0101
347.4817, 150.2093
347.9638, 150.4825
348.4459, 150.7227
348.9280, 150.4044
349.4102, 149.3748
349.8923, 148.2807
350.3744, 148.0483
350.8565, 148.5046
351.3386, 148.9759
351.8207, 149.1734
352.3029, 149.1753
352.7850, 149.1174
353.2671, 149.0025
353.7492, 147.6943
354.2313, 148.9662
354.7134, 149.6460
355.1956, 149.7654
355.6777, 147.6463
356.1598, 148.4178
356.6419, 148.0309
357.1240, 147.5965
357.6061, 148.7749
358.0883, 146.9814
358.5704, 148.1342
359.0525, 148.1108
359.5346, 148.6258
360.0167, 147.9752
360.4988, 147.6845
360.9810, 148.5599
361.4631, 148.7896
361.9452, 148.0048
362.4273, 148.5540
362.9094, 146.7197
363.3915, 146.9770
363.8737, 148.1366
364.3558, 147.4104
364.8379, 147.9809
365.3200, 148.0575
365.8021, 145.8898
366.2842, 146.2551
366.7664, 146.2521
367.2485, 146.7667
367.7306, 147.0842
368.2127, 147.0389
368.6948, 146.8262
369.1769, 146.5764
369.6591, 146.2797
370.1412, 145.9655
370.6233, 145.5674
371.1054, 145.1416
371.5875, 144.9062
372.0696, 144.9721
372.5518, 145.0963
373.0339, 145.1807
373.5160, 145.2065
373.9981, 145.2336
374.4802, 145.2095
374.9623, 145.2277
375.4445, 145.5383
375.9266, 146.4033
376.4087, 146.8107
376.8908, 146.2698
377.3729, 144.8263
377.8550, 144.0336
378.3372, 144.0420
378.8193, 144.3185
379.3014, 144.3599
379.7835, 144.1562
380.2656, 143.9209
380.7477, 143.6374
381.2299, 143.3977
381.7120, 143.5257
382.1941, 144.0283
382.6762, 144.4775
383.1583, 144.5578
383.6404, 144.3380
384.1226, 144.0582
384.6047, 143.7208
385.0868, 143.4025
385.5689, 143.1726
386.0510, 143.0366
386.5331, 143.0086
387.0153, 143.2491
387.4974, 143.5392
387.9795, 143.4648
388.4616, 143.0248
388.9437, 142.6916
389.4258, 142.9891
389.9080, 143.5867
390.3901, 144.0123
390.8722, 144.1161
391.3543, 144.0110
391.8364, 143.6127
392.3185, 143.0271
392.8007, 142.6310
393.2828, 142.7093
393.7649, 142.9750
394.2470, 143.2493
394.7291, 143.5261
395.2112, 143.7375
395.6934, 143.9411
396.1755, 144.0437
396.6576, 143.9075
397.1397, 142.9239
397.6218, 142.2384
398.1039, 142.3929
398.5861, 143.5011
399.0682, 144.3012
399.5503, 144.4666
400.0324, 144.4034
400.5145, 144.4154
400.9966, 144.7005
401.4788, 144.7834
401.9609, 144.5103
402.4430, 144.0014
402.9251, 143.7356
403.4072, 143.8517
403.8893, 144.0034
404.3714, 144.0562
404.8535, 144.0215
405.3357, 143.8077
405.8178, 143.3174
406.2999, 142.7786
406.7820, 142.5354
407.2641, 142.6251
407.7462, 142.7971
408.2284, 143.0136
408.7105, 143.2510
409.1926, 143.3847
409.6747, 143.3995
410.1568, 143.4260
410.6389, 143.6354
411.1211, 143.9798
411.6032, 144.1773
412.0853, 144.1536
412.5674, 144.0232
413.0495, 143.9179
413.5316, 143.8450
414.0138, 143.8392
414.4959, 144.0226
414.9780, 144.2480
415.4601, 144.2300
415.9422, 143.9355
416.4243, 143.6893
416.9065, 143.8416
417.3886, 144.1918
417.8707, 144.4378
418.3528, 144.3562
418.8349, 144.2502
419.3170, 144.3396
419.7992, 144.5827
420.2813, 144.7803
420.7634, 144.8570
421.2455, 144.8526
421.7276, 144.7731
422.2097, 144.5547
422.6919, 144.4166
423.1740, 144.5471
423.6561, 144.7606
424.1382, 144.7746
424.6203, 144.1096
425.1024, 143.6801
425.5846, 143.8248
426.0667, 144.5855
426.5488, 145.1368
427.0309, 145.4391
427.5130, 145.5724
427.9951, 145.5682
428.4773, 145.3089
428.9594, 145.1779
429.4415, 145.2531
429.9236, 145.4493
430.4057, 145.5726
430.8878, 145.6465
431.3700, 145.5727
431.8521, 145.2299
432.3342, 144.6192
432.8163, 144.2497
433.2984, 144.1473
433.7805, 144.1999
434.2627, 144.2924
434.7448, 144.4279
435.2269, 144.6554
435.7090, 145.0563
436.1911, 145.4872
436.6732, 145.6198
437.1554, 145.4838
437.6375, 145.3194
438.1196, 145.2453
438.6017, 145.2563
439.0838, 145.3668
439.5659, 145.5943
440.0481, 145.8292
440.5302, 146.0711
441.0123, 146.2459
441.4944, 146.2296
441.9765, 145.5706
442.4586, 145.0395
442.9408, 145.3046
443.4229, 146.2559
443.9050, 146.9592
444.3871, 146.7649
444.8692, 146.3639
445.3513, 146.2391
445.8335, 146.7805
446.3156, 147.0374
446.7977, 146.5023
447.2798, 145.6282
447.7619, 145.2178
448.2440, 145.7796
448.7262, 146.3188
449.2083, 146.6304
449.6904, 146.7095
450.1725, 146.6828
450.6546, 146.4758
451.1367, 146.2565
451.6189, 146.1712
452.1010, 146.2827
452.5831, 146.3088
453.0652, 146.2009
453.5473, 146.0194
454.0294, 145.9018
454.5116, 145.8556
454.9937, 145.8096
455.4758, 145.6747
455.9579, 145.4963
456.4400, 145.5751
456.9221, 145.9346
457.4043, 146.3288
457.8864, 146.5398
458.3685, 146.5935
458.8506, 146.5621
459.3327, 146.4330
459.8148, 146.2748
460.2970, 146.1838
460.7791, 146.1355
461.2612, 146.0522
461.7433, 145.7515
462.2254, 145.4844
462.7076, 145.5475
463.1897, 146.0015
463.6718, 146.3697
464.1539, 146.2194
464.6360, 145.9404
465.1181, 145.9231
465.6003, 146.7168
466.0824, 147.3013
466.5645, 147.2733
467.0466, 146.7932
467.5287, 146.4812
468.0108, 146.5792
468.4930, 146.6996
468.9751, 146.7178
469.4572, 146.6335
469.9393, 146.4166
470.4214, 145.8724
470.9035, 145.3729
471.3857, 145.4019
471.8678, 146.2070
472.3499, 146.7392
472.8320, 146.7539
473.3141, 146.4034
473.7962, 146.2047
474.2784, 146.1705
474.7605, 146.2038
475.2426, 146.2043
475.7247, 146.2086
476.2068, 146.5290
476.6889, 147.2424
477.1711, 147.8702
477.6532, 147.7526
478.1353, 145.9711
478.6174, 147.2943
479.0995, 148.0253
479.5816, 148.1959
480.0638, 146.1280
480.5459, 146.9508
481.0280, 146.6151
481.5101, 146.2319
481.9922, 147.4615
482.4743, 145.7192
482.9565, 146.9232
483.4386, 146.9511
483.9207, 147.5173
484.4028, 146.9179
484.8849, 146.6785
485.3670, 147.6050
485.8492, 147.8860
486.3313, 147.1524
486.8134, 147.7528
487.2955, 145.9698
487.7776, 147.2356
488.2597, 147.8394
488.7419, 148.0383
489.2240, 147.7447
489.7061, 147.4455
490.1882, 147.0733
490.6703, 146.7960
491.1524, 146.8885
491.6346, 147.4275
492.1167, 147.7045
492.5988, 147.4913
493.0809, 147.0208
493.5630, 146.8761
494.0451, 147.0486
494.5273, 147.3596
495.0094, 147.8405
495.4915, 148.3618
495.9736, 148.6237
496.4557, 148.6063
496.9378, 148.4372
497.4200, 148.0023
497.9021, 147.5440
498.3842, 147.4802
498.8663, 148.2581
499.3484, 149.0000
499.8305, 149.0141
500.3127, 148.5532
500.7948, 148.2574
501.2769, 148.7289
501.7590, 149.1029
502.2411, 148.8740
502.7232, 147.8929
503.2054, 147.1407
503.6875, 146.8000
504.1696, 146.7094
504.6517, 146.7703
505.1338, 147.0939
505.6159, 147.3749
506.0981, 147.6169
506.5802, 147.7927
507.0623, 147.8309
507.5444, 147.7053
508.0265, 147.5114
508.5086, 147.2080
508.9908, 146.8394
509.4729, 146.8520
509.9550, 147.2917
510.4371, 147.7524
510.9192, 147.8080
511.4013, 147.5710
511.8835, 147.4932
512.3655, 147.6864
512.8477, 147.9175
513.3298, 147.8469
513.8119, 147.6015
514.2940, 147.4807
514.7761, 147.8596
515.2582, 148.2341
515.7404, 148.0984
516.2225, 147.5331
516.7046, 147.1567
517.1867, 147.3617
517.6688, 147.7649
518.1509, 148.1590
518.6331, 148.6091
519.1152, 148.8108
519.5973, 148.4551
520.0794, 147.9163
520.5615, 147.6798
521.0436, 148.0225
521.5258, 148.2244
522.0079, 148.1315
522.4900, 147.8039
522.9721, 147.5189
523.4542, 147.2605
523.9363, 147.1036
524.4185, 147.0965
524.9006, 147.2400
525.3827, 147.5267
525.8648, 148.0083
526.3469, 148.3936
526.8290, 148.1925
527.3112, 147.5894
527.7933, 147.3069
528.2754, 147.6055
528.7575, 148.1325
529.2396, 148.6567
529.7217, 149.0940
530.2039, 149.1906
530.6860, 148.3507
531.1681, 147.4740
531.6502, 147.3322
532.1323, 147.9399
532.6144, 148.3693
533.0966, 148.0980
533.5787, 147.6167
534.0608, 147.2547
534.5429, 147.0067
535.0250, 146.9717
535.5071, 147.2761
535.9893, 147.7520
536.4714, 148.1940
536.9535, 148.7756
537.4356, 148.9594
537.9177, 148.4448
538.3998, 147.4061
538.8820, 147.0116
539.3641, 147.3831
539.8462, 147.8548
540.3283, 148.0574
540.8104, 148.0081
541.2925, 147.7547
541.7747, 147.2631
542.2568, 146.8149
542.7389, 146.7314
543.2210, 146.9236
543.7031, 147.2042
544.1852, 147.6043
544.6674, 147.9394
545.1495, 148.0148
545.6316, 147.8888
546.1137, 147.7060
546.5958, 147.5230
547.0779, 147.3092
547.5601, 146.9825
548.0422, 146.5345
548.5243, 146.2847
549.0064, 146.2432
549.4885, 146.4638
549.9706, 147.0399
550.4528, 148.6185
550.9349, 149.2657
551.4170, 148.4954
551.8991, 147.1853
552.3812, 146.7068
552.8633, 147.3173
553.3455, 147.6732
553.8276, 147.3133
554.3097, 146.5536
554.7918, 146.5312
555.2739, 147.2461
555.7560, 147.9155
556.2382, 148.0250
556.7203, 147.7570
557.2024, 147.4358
557.6845, 147.0714
558.1666, 146.8474
558.6487, 147.0371
559.1309, 147.4165
559.6130, 147.7024
560.0951, 147.8306
560.5772, 147.8491
561.0593, 147.6935
561.5414, 147.4556
562.0236, 147.2999
562.5057, 147.2418
562.9878, 147.2912
563.4699, 147.5571
563.9520, 147.9970
564.4341, 148.1661
564.9163, 147.9374
565.3984, 147.6124
565.8805, 147.2978
566.3626, 146.9641
566.8447, 146.8468
567.3268, 146.9988
567.8090, 147.2128
568.2911, 147.2505
568.7732, 147.1291
569.2553, 146.9815
569.7374, 146.7991
570.2195, 146.6756
570.7017, 146.8250
571.1838, 147.1568
571.6659, 147.3808
572.1480, 147.2733
572.6301, 147.0606
573.1122, 146.9488
573.5944, 146.9224
574.0765, 146.8246
574.5586, 146.3674
575.0407, 145.9795
575.5228, 145.9778
576.0049, 146.6252
576.4871, 147.0200
576.9692, 146.9176
577.4513, 146.6452
577.9334, 146.4910
578.4155, 146.4636
578.8976, 146.5553
579.3798, 146.8133
579.8619, 147.1541
580.3440, 147.3520
580.8261, 147.3941
581.3082, 147.4651
581.7903, 147.7305
582.2725, 148.0564
582.7546, 147.9527
583.2367, 147.4545
583.7188, 147.0105
584.2009, 147.0172
584.6830, 147.2499
585.1652, 147.4381
585.6473, 147.5513
586.1294, 147.5834
586.6115, 147.4552
587.0936, 147.2762
587.5757, 147.1628
588.0579, 147.0708
588.5400, 147.1304
589.0221, 147.5010
589.5042, 148.0278
589.9863, 148.3605
590.4684, 148.4640
590.9506, 148.4124
591.4327, 148.1446
591.9148, 147.7083
592.3969, 147.5573
592.8790, 147.7420
593.3611, 148.0011
593.8433, 148.2008
594.3254, 148.3382
594.8075, 148.3702
595.2896, 148.2813
595.7717, 148.2429
596.2538, 148.5708
596.7360, 149.0414
597.2181, 149.2106
597.7002, 148.8106
598.1823, 148.4210
598.6644, 148.5323
599.1465, 148.9014
599.6287, 149.1113
600.1108, 148.7837
600.5929, 148.5268
601.0750, 148.5874
601.5571, 148.9238
602.0392, 149.1379
602.5214, 149.1668
603.0035, 149.1485
603.4856, 149.1018
603.9677, 149.0111
604.4498, 149.1169
604.9319, 149.4618
605.4141, 149.8674
605.8962, 150.1759
606.3783, 150.3982
606.8604, 150.6016
607.3425, 150.8136
607.8246, 150.9333
608.3068, 150.6763
608.7889, 150.2436
609.2710, 150.0886
609.7531, 150.6365
610.2352, 151.2042
610.7173, 151.2538
611.1995, 150.9644
611.6816, 150.8245
612.1637, 151.2072
612.6458, 151.5618
613.1279, 151.6365
613.6100, 151.4119
614.0922, 151.3291
614.5743, 151.4948
615.0564, 151.6631
615.5385, 151.6642
616.0206, 151.4359
616.5027, 151.4376
