##NAMES=Romerite
##RRUFFID=R060238
##IDEAL CHEMISTRY=Fe^2+^Fe^3+^_2_(S^6+^O_4_)_4_&#183;14H_2_O
##LOCALITY=Dexter no. 7 mine, Calf Mesa, San Rafael Swell, Emery County, Utah, USA
##OWNER=RRUFF
##SOURCE=University of Arizona Mineral Museum
##DESCRIPTION=Orange color massive blebs associated with voltaite and coquimbite
##STATUS=The identification of this mineral has been confirmed by single-crystal X-ray diffraction.
##URL=rruff.info/R060238
150.8323, 1345.550
151.3145, 1363.801
151.7966, 1382.484
152.2787, 1399.947
152.7608, 1413.869
153.2429, 1429.910
153.7250, 1449.892
154.2072, 1472.448
154.6893, 1493.745
155.1714, 1506.808
155.6535, 1510.698
156.1356, 1515.026
156.6177, 1519.671
157.0999, 1527.102
157.5820, 1538.868
158.0641, 1554.093
158.5462, 1569.208
159.0283, 1581.581
159.5104, 1594.547
159.9926, 1610.269
160.4747, 1627.854
160.9568, 1649.472
161.4389, 1677.403
161.9210, 1710.555
162.4031, 1743.982
162.8853, 1774.328
163.3674, 1804.316
163.8495, 1836.433
164.3316, 1871.516
164.8137, 1908.782
165.2958, 1948.063
165.7780, 1989.478
166.2601, 2031.993
166.7422, 2076.976
167.2243, 2122.788
167.7064, 2166.733
168.1885, 2209.099
168.6707, 2248.865
169.1528, 2285.925
169.6349, 2320.572
170.1170, 2350.540
170.5991, 2375.467
171.0812, 2395.084
171.5634, 2408.566
172.0455, 2415.551
172.5276, 2416.602
173.0097, 2412.474
173.4918, 2403.306
173.9739, 2388.281
174.4561, 2366.334
174.9382, 2337.892
175.4203, 2303.739
175.9024, 2264.156
176.3845, 2219.534
176.8666, 2169.900
177.3488, 2114.427
177.8309, 2056.301
178.3130, 1997.659
178.7951, 1938.416
179.2772, 1880.682
179.7593, 1823.721
180.2415, 1769.002
180.7236, 1718.189
181.2057, 1671.332
181.6878, 1628.475
182.1699, 1588.984
182.6520, 1553.380
183.1342, 1520.352
183.6163, 1489.064
184.0984, 1459.849
184.5805, 1435.033
185.0626, 1415.265
185.5447, 1398.974
186.0269, 1383.179
186.5090, 1367.975
186.9911, 1354.247
187.4732, 1342.967
187.9553, 1333.746
188.4374, 1325.169
188.9196, 1316.531
189.4017, 1308.766
189.8838, 1303.975
190.3659, 1302.161
190.8480, 1302.194
191.3301, 1303.821
191.8123, 1306.881
192.2944, 1309.361
192.7765, 1310.319
193.2586, 1310.806
193.7407, 1314.234
194.2228, 1320.882
194.7050, 1328.462
195.1871, 1335.224
195.6692, 1341.178
196.1513, 1346.820
196.6334, 1352.372
197.1155, 1357.642
197.5977, 1362.295
198.0798, 1366.548
198.5619, 1369.180
199.0440, 1368.680
199.5261, 1364.906
200.0082, 1360.338
200.4904, 1355.678
200.9725, 1350.698
201.4546, 1343.867
201.9367, 1335.137
202.4188, 1324.626
202.9009, 1311.759
203.3831, 1295.892
203.8652, 1281.694
204.3473, 1270.772
204.8294, 1262.776
205.3115, 1253.471
205.7936, 1242.161
206.2758, 1231.029
206.7579, 1222.305
207.2400, 1216.229
207.7221, 1211.844
208.2042, 1208.931
208.6863, 1207.496
209.1685, 1207.699
209.6506, 1209.464
210.1327, 1212.984
210.6148, 1218.704
211.0969, 1226.927
211.5790, 1236.156
212.0612, 1246.170
212.5433, 1256.894
213.0254, 1267.997
213.5075, 1279.526
213.9896, 1291.406
214.4717, 1303.473
214.9538, 1316.020
215.4360, 1328.242
215.9181, 1340.288
216.4002, 1352.140
216.8823, 1362.248
217.3644, 1370.077
217.8465, 1376.752
218.3287, 1383.965
218.8108, 1392.511
219.2929, 1399.804
219.7750, 1405.032
220.2571, 1407.967
220.7392, 1411.079
221.2214, 1414.566
221.7035, 1418.070
222.1856, 1421.264
222.6677, 1424.294
223.1498, 1426.629
223.6319, 1427.633
224.1141, 1426.884
224.5962, 1428.301
225.0783, 1432.928
225.5604, 1438.763
226.0425, 1443.033
226.5246, 1444.469
227.0068, 1446.762
227.4889, 1451.095
227.9710, 1457.921
228.4531, 1464.130
228.9352, 1469.651
229.4173, 1474.613
229.8995, 1479.160
230.3816, 1483.687
230.8637, 1487.158
231.3458, 1489.093
231.8279, 1489.282
232.3100, 1489.507
232.7922, 1490.012
233.2743, 1490.366
233.7564, 1489.990
234.2385, 1488.671
234.7206, 1486.994
235.2027, 1484.888
235.6849, 1482.132
236.1670, 1480.452
236.6491, 1480.174
237.1312, 1480.715
237.6133, 1481.189
238.0954, 1480.699
238.5776, 1481.705
239.0597, 1484.803
239.5418, 1490.010
240.0239, 1496.879
240.5060, 1505.167
240.9881, 1515.309
241.4703, 1527.923
241.9524, 1543.408
242.4345, 1560.555
242.9166, 1578.741
243.3987, 1597.816
243.8808, 1619.839
244.3630, 1645.660
244.8451, 1673.861
245.3272, 1702.639
245.8093, 1731.227
246.2914, 1761.977
246.7735, 1796.010
247.2557, 1833.799
247.7378, 1871.337
248.2199, 1907.711
248.7020, 1944.997
249.1841, 1985.669
249.6662, 2031.045
250.1484, 2077.152
250.6305, 2123.280
251.1126, 2168.953
251.5947, 2215.677
252.0768, 2263.342
252.5589, 2311.467
253.0411, 2359.566
253.5232, 2407.123
254.0053, 2454.593
254.4874, 2501.981
254.9695, 2549.482
255.4516, 2597.035
255.9338, 2644.185
256.4159, 2691.945
256.8980, 2741.218
257.3801, 2794.642
257.8622, 2844.371
258.3444, 2888.784
258.8265, 2928.162
259.3086, 2963.120
259.7907, 2992.955
260.2728, 3018.559
260.7549, 3040.205
261.2371, 3058.212
261.7192, 3072.007
262.2013, 3081.701
262.6834, 3087.207
263.1655, 3086.816
263.6476, 3080.215
264.1298, 3068.140
264.6119, 3050.880
265.0940, 3028.571
265.5761, 3000.917
266.0582, 2967.663
266.5403, 2929.242
267.0225, 2886.234
267.5046, 2837.411
267.9867, 2787.038
268.4688, 2738.591
268.9509, 2692.317
269.4330, 2644.822
269.9152, 2595.516
270.3973, 2544.552
270.8794, 2494.273
271.3615, 2444.808
271.8436, 2395.854
272.3257, 2348.272
272.8079, 2301.900
273.2900, 2256.570
273.7721, 2211.574
274.2542, 2167.636
274.7363, 2126.335
275.2184, 2088.032
275.7006, 2051.356
276.1827, 2016.496
276.6648, 1983.383
277.1469, 1950.903
277.6290, 1918.701
278.1111, 1887.403
278.5933, 1858.640
279.0754, 1832.323
279.5575, 1807.417
280.0396, 1783.360
280.5217, 1760.337
281.0038, 1737.908
281.4860, 1716.124
281.9681, 1694.731
282.4502, 1673.166
282.9323, 1651.365
283.4144, 1630.061
283.8965, 1609.571
284.3787, 1590.026
284.8608, 1570.576
285.3429, 1550.889
285.8250, 1532.204
286.3071, 1517.259
286.7892, 1505.968
287.2714, 1493.871
287.7535, 1477.928
288.2356, 1459.035
288.7177, 1443.319
289.1998, 1430.875
289.6819, 1420.170
290.1641, 1410.117
290.6462, 1400.550
291.1283, 1389.990
291.6104, 1377.186
292.0925, 1363.100
292.5746, 1351.287
293.0568, 1341.849
293.5389, 1332.655
294.0210, 1321.830
294.5031, 1309.520
294.9852, 1296.303
295.4673, 1281.832
295.9495, 1266.962
296.4316, 1254.309
296.9137, 1243.833
297.3958, 1232.712
297.8779, 1217.904
298.3600, 1200.671
298.8422, 1183.842
299.3243, 1168.428
299.8064, 1153.398
300.2885, 1137.049
300.7706, 1119.614
301.2527, 1102.072
301.7349, 1085.676
302.2170, 1069.660
302.6991, 1053.047
303.1812, 1035.261
303.6633, 1017.117
304.1454, 999.3733
304.6276, 982.0184
305.1097, 964.5876
305.5918, 946.3677
306.0739, 928.2318
306.5560, 911.8251
307.0381, 897.7175
307.5203, 883.8141
308.0024, 867.6818
308.4845, 850.3295
308.9666, 834.1221
309.4487, 821.1114
309.9308, 809.2369
310.4130, 796.8344
310.8951, 783.6469
311.3772, 770.6697
311.8593, 758.4421
312.3414, 747.0196
312.8235, 736.3129
313.3057, 726.7909
313.7878, 717.4775
314.2699, 707.7318
314.7520, 697.5372
315.2341, 687.2623
315.7162, 675.8123
316.1984, 664.8582
316.6805, 656.4029
317.1626, 654.3177
317.6447, 651.7338
318.1268, 645.2746
318.6089, 635.1044
319.0911, 625.6767
319.5732, 618.5703
320.0553, 612.7125
320.5374, 607.3535
321.0195, 602.5643
321.5016, 597.9473
321.9838, 593.6071
322.4659, 589.4432
322.9480, 584.9612
323.4301, 579.3698
323.9122, 573.9057
324.3943, 569.3328
324.8765, 566.7932
325.3586, 563.5380
325.8407, 558.5153
326.3228, 552.5537
326.8049, 547.7518
327.2870, 544.9177
327.7692, 542.7177
328.2513, 540.7856
328.7334, 539.4210
329.2155, 537.6794
329.6976, 535.4081
330.1797, 532.7994
330.6619, 530.1489
331.1440, 527.0307
331.6261, 524.4286
332.1082, 522.8683
332.5903, 522.6776
333.0724, 521.3544
333.5546, 518.2413
334.0367, 514.5908
334.5188, 511.7852
335.0009, 510.0616
335.4830, 508.5706
335.9651, 507.0241
336.4473, 505.4848
336.9294, 505.0535
337.4115, 506.1328
337.8936, 507.5275
338.3757, 508.3541
338.8578, 508.5959
339.3399, 508.4018
339.8221, 507.7320
340.3042, 506.6784
340.7863, 505.3421
341.2684, 503.5281
341.7505, 502.3172
342.2326, 502.6088
342.7148, 504.3877
343.1969, 506.0357
343.6790, 507.5068
344.1611, 508.6385
344.6432, 508.8552
345.1253, 508.1645
345.6075, 507.7076
346.0896, 508.3943
346.5717, 509.8391
347.0538, 510.1757
347.5359, 509.2088
348.0180, 508.0869
348.5002, 508.1475
348.9823, 509.2072
349.4644, 510.5368
349.9465, 512.1009
350.4286, 513.6497
350.9107, 514.6368
351.3929, 515.0856
351.8750, 515.5963
352.3571, 516.7447
352.8392, 518.3032
353.3213, 519.7989
353.8034, 520.8817
354.2856, 522.2044
354.7677, 524.9872
355.2498, 528.7922
355.7319, 531.8715
356.2140, 532.3713
356.6961, 531.9933
357.1783, 532.4486
357.6604, 534.1187
358.1425, 536.3325
358.6246, 539.3184
359.1067, 542.5163
359.5888, 544.8775
360.0710, 544.5004
360.5531, 544.2338
361.0352, 545.9799
361.5173, 550.1190
361.9994, 554.2985
362.4815, 557.8234
362.9637, 560.8552
363.4458, 563.5679
363.9279, 565.7891
364.4100, 567.9406
364.8921, 569.9081
365.3742, 571.7611
365.8564, 574.1536
366.3385, 577.5877
366.8206, 581.3381
367.3027, 584.9700
367.7848, 588.4637
368.2669, 591.8530
368.7491, 595.1076
369.2312, 598.2433
369.7133, 601.2108
370.1954, 603.9168
370.6775, 606.5826
371.1596, 609.2362
371.6418, 611.8124
372.1239, 614.6439
372.6060, 617.7039
373.0881, 621.0191
373.5702, 624.7977
374.0523, 629.5236
374.5345, 633.5709
375.0166, 636.1451
375.4987, 637.2914
375.9808, 640.0148
376.4629, 644.8333
376.9450, 650.1278
377.4272, 654.2421
377.9093, 656.9437
378.3914, 660.8436
378.8735, 666.9886
379.3556, 674.1822
379.8377, 679.0612
380.3199, 681.4560
380.8020, 683.2390
381.2841, 685.3538
381.7662, 687.8457
382.2483, 690.8636
382.7304, 694.5002
383.2126, 698.5281
383.6947, 702.6776
384.1768, 707.0068
384.6589, 711.6952
385.1410, 717.0941
385.6231, 722.8882
386.1053, 728.6992
386.5874, 734.4998
387.0695, 740.2786
387.5516, 746.3987
388.0337, 752.5033
388.5158, 757.8910
388.9980, 761.8367
389.4801, 765.6059
389.9622, 770.1577
390.4443, 775.3630
390.9264, 780.8217
391.4085, 787.3448
391.8907, 793.3737
392.3728, 797.3583
392.8549, 798.0858
393.3370, 799.0792
393.8191, 802.1456
394.3012, 806.3961
394.7834, 810.3337
395.2655, 814.1230
395.7476, 816.9639
396.2297, 818.4144
396.7118, 818.3445
397.1939, 817.7485
397.6761, 816.6645
398.1582, 815.1746
398.6403, 813.3482
399.1224, 811.4229
399.6045, 808.8848
400.0866, 805.6440
400.5688, 801.7283
401.0509, 797.4210
401.5330, 792.8525
402.0151, 787.7272
402.4972, 781.7714
402.9793, 774.4030
403.4615, 767.7901
403.9436, 762.3729
404.4257, 757.3856
404.9078, 751.5522
405.3899, 744.6030
405.8720, 737.6732
406.3542, 730.8878
406.8363, 724.2919
407.3184, 719.1273
407.8005, 715.5707
408.2826, 712.5394
408.7647, 708.8170
409.2469, 704.5095
409.7290, 700.8995
410.2111, 698.3089
410.6932, 696.4071
411.1753, 694.4362
411.6574, 692.4789
412.1396, 691.1392
412.6217, 691.0463
413.1038, 691.8138
413.5859, 692.4973
414.0680, 692.8741
414.5501, 694.0959
415.0323, 697.7629
415.5144, 703.0374
415.9965, 708.3715
416.4786, 712.6892
416.9607, 717.0294
417.4428, 722.3129
417.9250, 728.4271
418.4071, 734.7753
418.8892, 741.1441
419.3713, 747.4871
419.8534, 753.5746
420.3355, 758.7709
420.8177, 764.7907
421.2998, 773.0598
421.7819, 782.5726
422.2640, 791.3571
422.7461, 798.3183
423.2282, 804.9719
423.7104, 811.8029
424.1925, 818.7104
424.6746, 826.2742
425.1567, 835.4113
425.6388, 844.6599
426.1209, 852.7966
426.6031, 859.0500
427.0852, 865.2853
427.5673, 871.3593
428.0494, 877.5428
428.5315, 885.3239
429.0136, 895.3422
429.4958, 905.3366
429.9779, 913.7510
430.4600, 920.2429
430.9421, 927.2792
431.4242, 934.7068
431.9063, 943.0380
432.3885, 953.2547
432.8706, 965.2887
433.3527, 977.6276
433.8348, 989.5763
434.3169, 1001.486
434.7990, 1014.234
435.2812, 1027.769
435.7633, 1042.518
436.2454, 1058.825
436.7275, 1076.434
437.2096, 1095.303
437.6917, 1115.748
438.1739, 1136.636
438.6560, 1155.904
439.1381, 1174.544
439.6202, 1195.178
440.1023, 1220.101
440.5844, 1246.923
441.0666, 1274.255
441.5487, 1301.762
442.0308, 1329.698
442.5129, 1358.186
442.9950, 1387.119
443.4771, 1416.395
443.9593, 1446.759
444.4414, 1476.636
444.9235, 1506.838
445.4056, 1536.468
445.8877, 1563.397
446.3698, 1585.142
446.8520, 1605.918
447.3341, 1627.744
447.8162, 1651.575
448.2983, 1672.915
448.7804, 1690.882
449.2625, 1706.800
449.7447, 1721.718
450.2268, 1735.281
450.7089, 1748.826
451.1910, 1762.100
451.6731, 1775.480
452.1552, 1791.184
452.6374, 1809.548
453.1195, 1827.992
453.6016, 1844.246
454.0837, 1858.320
454.5658, 1874.670
455.0479, 1893.592
455.5301, 1914.411
456.0122, 1936.645
456.4943, 1960.224
456.9764, 1982.630
457.4585, 2002.944
457.9406, 2021.921
458.4228, 2042.235
458.9049, 2063.346
459.3870, 2081.782
459.8691, 2093.233
460.3512, 2100.992
460.8333, 2109.551
461.3155, 2120.970
461.7976, 2130.117
462.2797, 2133.514
462.7618, 2132.435
463.2439, 2129.032
463.7260, 2123.094
464.2082, 2115.898
464.6903, 2108.569
465.1724, 2101.148
465.6545, 2091.186
466.1366, 2075.761
466.6187, 2059.291
467.1009, 2044.709
467.5830, 2032.536
468.0651, 2021.525
468.5472, 2012.000
469.0293, 2003.646
469.5114, 1995.708
469.9936, 1987.839
470.4757, 1981.202
470.9578, 1976.479
471.4399, 1973.642
471.9220, 1970.231
472.4041, 1966.215
472.8863, 1961.822
473.3684, 1956.935
473.8505, 1951.586
474.3326, 1947.416
474.8147, 1944.857
475.2968, 1943.197
475.7790, 1941.284
476.2611, 1939.160
476.7432, 1937.192
477.2253, 1936.238
477.7074, 1935.288
478.1895, 1932.809
478.6717, 1928.776
479.1538, 1923.512
479.6359, 1916.689
480.1180, 1908.984
480.6001, 1901.398
481.0822, 1895.158
481.5644, 1887.423
482.0465, 1876.416
482.5286, 1862.859
483.0107, 1848.300
483.4928, 1833.074
483.9749, 1817.031
484.4571, 1800.402
484.9392, 1783.277
485.4213, 1764.229
485.9034, 1743.543
486.3855, 1720.561
486.8676, 1694.511
487.3498, 1664.143
487.8319, 1632.555
488.3140, 1599.734
488.7961, 1565.920
489.2782, 1531.996
489.7603, 1498.523
490.2425, 1463.938
490.7246, 1427.510
491.2067, 1389.397
491.6888, 1352.713
492.1709, 1317.681
492.6530, 1284.005
493.1352, 1252.220
493.6173, 1221.748
494.0994, 1190.308
494.5815, 1157.353
495.0636, 1124.348
495.5457, 1093.293
496.0279, 1064.134
496.5100, 1036.813
496.9921, 1011.548
497.4742, 987.6063
497.9563, 964.3964
498.4384, 941.6927
498.9206, 919.7800
499.4027, 897.9916
499.8848, 877.3359
500.3669, 858.1552
500.8490, 841.4104
501.3311, 825.0253
501.8133, 808.1086
502.2954, 791.2043
502.7775, 775.2872
503.2596, 760.7860
503.7417, 746.5630
504.2238, 732.4401
504.7060, 718.4202
505.1881, 704.8088
505.6702, 691.3074
506.1523, 678.8646
506.6344, 668.3673
507.1165, 660.1235
507.5987, 651.8414
508.0808, 643.5486
508.5629, 635.1569
509.0450, 626.5143
509.5271, 617.6470
510.0092, 608.8722
510.4914, 600.0588
510.9735, 591.4774
511.4556, 583.7462
511.9377, 576.8432
512.4199, 569.9828
512.9020, 562.0350
513.3841, 554.1036
513.8662, 547.8771
514.3483, 543.9845
514.8304, 539.7952
515.3126, 533.0954
515.7947, 525.3366
516.2768, 518.2723
516.7589, 512.4007
517.2410, 507.3304
517.7231, 503.1366
518.2053, 499.7068
518.6874, 496.5049
519.1695, 494.1961
519.6516, 491.4523
520.1337, 487.7729
520.6158, 482.9275
521.0980, 478.0233
521.5801, 472.6328
522.0622, 467.7415
522.5443, 464.6596
523.0264, 463.8599
523.5085, 461.9493
523.9907, 458.0983
524.4728, 453.2438
524.9549, 449.1783
525.4370, 445.8866
525.9191, 443.3122
526.4012, 442.1342
526.8834, 441.4612
527.3655, 439.1431
527.8476, 435.2111
528.3297, 431.0668
528.8118, 427.5343
529.2939, 424.5764
529.7761, 422.3062
530.2582, 421.1729
530.7403, 419.7559
531.2224, 416.5820
531.7045, 412.7398
532.1866, 410.0278
532.6688, 410.2226
533.1509, 410.2907
533.6330, 409.0153
534.1151, 406.4604
534.5972, 404.6984
535.0793, 404.4283
535.5615, 404.2755
536.0436, 403.6809
536.5257, 402.7422
537.0078, 400.8146
537.4899, 397.3821
537.9720, 393.7954
538.4542, 391.9813
538.9363, 392.0361
539.4184, 392.0621
539.9005, 391.6545
540.3826, 390.9540
540.8647, 390.4347
541.3469, 390.0126
541.8290, 389.0243
542.3111, 386.4355
542.7932, 383.3052
543.2753, 381.1258
543.7574, 379.9466
544.2396, 379.4708
544.7217, 380.1300
545.2038, 381.0968
545.6859, 381.5137
546.1680, 380.9503
546.6501, 380.2382
547.1323, 379.7241
547.6144, 379.2300
548.0965, 378.4398
548.5786, 376.4457
549.0607, 375.1282
549.5428, 375.2665
550.0250, 376.6485
550.5071, 376.9312
550.9892, 375.6107
551.4713, 374.1080
551.9534, 373.2412
552.4355, 373.1049
552.9177, 372.5565
553.3998, 371.4605
553.8819, 370.3708
554.3640, 370.0185
554.8461, 370.2918
555.3282, 370.5451
555.8104, 370.5458
556.2925, 370.5779
556.7746, 371.2391
557.2567, 372.2929
557.7388, 373.0032
558.2209, 372.7891
558.7031, 372.2143
559.1852, 371.3577
559.6673, 370.2897
560.1494, 370.1480
560.6315, 372.8243
561.1136, 375.6186
561.5958, 376.6337
562.0779, 374.2987
562.5600, 372.7272
563.0421, 372.3412
563.5242, 372.7084
564.0063, 373.3957
564.4885, 374.6755
564.9706, 375.6036
565.4527, 375.9637
565.9348, 375.8647
566.4169, 375.4978
566.8990, 374.7717
567.3812, 374.5416
567.8633, 375.4276
568.3454, 377.1779
568.8275, 379.1272
569.3096, 381.2666
569.7917, 382.9957
570.2739, 383.4254
570.7560, 383.2011
571.2381, 383.3285
571.7202, 384.1199
572.2023, 384.9839
572.6844, 385.5527
573.1666, 385.9604
573.6487, 386.4187
574.1308, 386.7417
574.6129, 387.3918
575.0950, 388.8033
575.5771, 390.7857
576.0593, 392.1479
576.5414, 392.0324
577.0235, 392.3120
577.5056, 393.7413
577.9877, 396.4116
578.4698, 399.4795
578.9520, 403.2939
579.4341, 406.6336
579.9162, 408.0113
580.3983, 407.5767
580.8804, 407.6103
581.3625, 408.3433
581.8447, 409.8593
582.3268, 412.9333
582.8089, 416.9333
583.2910, 420.1748
583.7731, 421.3097
584.2552, 421.9521
584.7373, 423.4982
585.2194, 425.7777
585.7015, 428.1469
586.1837, 430.2154
586.6658, 432.3683
587.1479, 434.7630
587.6300, 437.3543
588.1121, 440.5241
588.5942, 444.9315
589.0764, 449.4806
589.5585, 453.3651
590.0406, 455.8510
590.5227, 459.5453
591.0048, 465.0134
591.4869, 471.1573
591.9691, 476.2574
592.4512, 480.2351
592.9333, 483.9295
593.4154, 487.4058
593.8975, 490.9069
594.3796, 494.6941
594.8618, 498.8383
595.3439, 503.9575
595.8260, 511.4530
596.3081, 519.4998
596.7902, 526.1529
597.2723, 531.3488
597.7545, 536.0707
598.2366, 540.0594
598.7187, 544.2191
599.2008, 549.3152
599.6829, 555.8130
600.1650, 562.5023
600.6472, 569.8849
601.1293, 576.9918
601.6114, 582.5919
602.0935, 585.6880
602.5756, 589.3441
603.0577, 594.4608
603.5399, 600.1339
604.0220, 603.9128
604.5041, 605.6183
604.9862, 607.0252
605.4683, 608.7528
605.9504, 610.7968
606.4326, 613.6350
606.9147, 617.1379
607.3968, 619.7031
607.8789, 619.1218
608.3610, 617.3818
608.8431, 617.2255
609.3253, 619.2747
609.8074, 620.7064
610.2895, 619.6713
610.7716, 617.4301
611.2537, 615.1735
611.7358, 613.5070
612.2180, 611.4208
612.7001, 608.6404
613.1822, 605.4341
613.6643, 602.0220
614.1464, 597.9376
614.6285, 594.9101
615.1107, 593.7026
615.5928, 593.7793
616.0749, 593.0195
616.5570, 591.4532
617.0391, 588.8183
617.5212, 584.0522
618.0034, 578.2252
618.4855, 574.2513
618.9676, 572.1249
619.4497, 570.5203
619.9318, 568.9127
620.4139, 566.9877
620.8961, 564.1490
621.3782, 559.7712
621.8603, 556.0994
622.3424, 554.9373
622.8245, 554.6412
623.3066, 553.3242
623.7888, 548.8975
624.2709, 545.6934
624.7530, 544.4963
625.2351, 544.6373
625.7172, 544.5682
626.1993, 544.1981
626.6815, 543.8554
627.1636, 543.4445
627.6457, 543.1779
628.1278, 544.1409
628.6099, 546.3360
629.0920, 548.7794
629.5742, 550.8617
630.0563, 552.7357
630.5384, 554.3760
631.0205, 555.7836
631.5026, 558.2252
631.9847, 563.3384
632.4669, 569.5319
632.9490, 575.3125
633.4311, 580.0536
633.9132, 585.0225
634.3953, 590.3788
634.8774, 596.2076
635.3596, 602.6996
635.8417, 610.1310
636.3238, 617.7226
636.8059, 625.3563
637.2880, 633.1321
637.7701, 641.2282
638.2523, 649.6484
638.7344, 658.8655
639.2165, 669.4344
639.6986, 680.8590
640.1807, 691.3971
640.6628, 701.2411
641.1450, 711.3791
641.6271, 722.7527
642.1092, 734.6543
642.5913, 746.3270
643.0734, 757.8199
643.5555, 768.4612
644.0377, 777.2740
644.5198, 785.6943
645.0019, 794.8162
645.4840, 805.5115
645.9661, 815.3715
646.4482, 824.1829
