##NAMES=Romerite
##RRUFFID=R060820
##IDEAL CHEMISTRY=Fe^2+^Fe^3+^_2_(S^6+^O_4_)_4_&#183;14H_2_O
##LOCALITY=Alcaparrosa mine, Tierra Amarilla, Chile
##OWNER=RRUFF
##SOURCE=Bob Jenkins
##DESCRIPTION=Reddish-brown isolated grains associated with copiapite, R060821
##STATUS=The identification of this mineral has been confirmed by single-crystal X-ray diffraction.
##URL=rruff.info/R060820
111.398, 2715.261
111.880, 2986.130
112.363, 3296.569
112.845, 3629.223
113.327, 3954.234
113.809, 4264.582
114.291, 4572.724
114.773, 4881.099
115.255, 5187.558
115.737, 5502.227
116.219, 5818.261
116.702, 6140.978
117.184, 6486.707
117.666, 6868.099
118.148, 7277.442
118.630, 7704.670
119.112, 8151.660
119.594, 8615.666
120.076, 9098.039
120.559, 9598.104
121.041, 10104.970
121.523, 10626.500
122.005, 11154.330
122.487, 11671.520
122.969, 12181.920
123.451, 12677.850
123.933, 13151.390
124.415, 13601.680
124.898, 14033.310
125.380, 14445.970
125.862, 14842.660
126.344, 15233.590
126.826, 15619.350
127.308, 16001.410
127.790, 16383.930
128.272, 16768.939
128.755, 17142.760
129.237, 17478.600
129.719, 17778.551
130.201, 18067.160
130.683, 18371.689
131.165, 18681.779
131.647, 18963.000
132.129, 19201.410
132.611, 19407.119
133.094, 19604.920
133.576, 19795.859
134.058, 19968.990
134.540, 20111.461
135.022, 20224.020
135.504, 20313.141
135.986, 20383.199
136.468, 20432.789
136.951, 20450.039
137.433, 20430.680
137.915, 20387.891
138.397, 20340.740
138.879, 20292.391
139.361, 20227.740
139.843, 20138.520
140.325, 20021.119
140.807, 19898.971
141.290, 19770.010
141.772, 19637.711
142.254, 19509.471
142.736, 19398.609
143.218, 19270.221
143.700, 19103.600
144.182, 18884.320
144.664, 18660.760
145.146, 18443.391
145.629, 18223.971
146.111, 17970.740
146.593, 17669.051
147.075, 17344.770
147.557, 17021.369
148.039, 16694.510
148.521, 16366.710
149.003, 16030.110
149.486, 15685.710
149.968, 15359.780
150.450, 15059.260
150.932, 14771.080
151.414, 14487.930
151.896, 14185.030
152.378, 13907.560
152.860, 13670.300
153.342, 13478.470
153.824, 13290.620
154.307, 13104.600
154.789, 12920.450
155.271, 12740.000
155.753, 12544.900
156.235, 12371.590
156.717, 12234.770
157.199, 12141.530
157.682, 12064.180
158.164, 11986.360
158.646, 11919.850
159.128, 11887.340
159.610, 11897.540
160.092, 11941.170
160.574, 12016.140
161.056, 12134.770
161.538, 12261.330
162.020, 12373.580
162.503, 12480.490
162.985, 12612.400
163.467, 12780.410
163.949, 12977.590
164.431, 13198.880
164.913, 13450.860
165.395, 13718.060
165.877, 14002.250
166.360, 14300.150
166.842, 14589.260
167.324, 14844.490
167.806, 15088.390
168.288, 15349.420
168.770, 15669.790
169.252, 15988.910
169.734, 16265.750
170.217, 16498.320
170.699, 16704.490
171.181, 16902.891
171.663, 17081.301
172.145, 17223.439
172.627, 17335.430
173.109, 17400.500
173.591, 17397.850
174.073, 17324.221
174.555, 17205.199
175.038, 17074.600
175.520, 16917.340
176.002, 16700.770
176.484, 16385.801
176.966, 16007.590
177.448, 15607.550
177.930, 15185.250
178.413, 14751.410
178.895, 14302.970
179.377, 13840.480
179.859, 13390.880
180.341, 12949.100
180.823, 12523.170
181.305, 12139.810
181.787, 11802.970
182.269, 11500.420
182.751, 11203.500
183.234, 10917.120
183.716, 10661.630
184.198, 10458.740
184.680, 10301.700
185.162, 10171.440
185.644, 10069.690
186.126, 9985.261
186.608, 9885.729
187.091, 9771.706
187.573, 9678.928
188.055, 9647.512
188.537, 9669.344
189.019, 9694.259
189.501, 9708.571
189.983, 9719.489
190.465, 9749.059
190.947, 9798.584
191.430, 9853.985
191.912, 9899.998
192.394, 9936.968
192.876, 9978.798
193.358, 10028.180
193.840, 10085.030
194.322, 10155.220
194.804, 10242.520
195.286, 10327.670
195.769, 10387.130
196.251, 10420.780
196.733, 10447.610
197.215, 10475.310
197.697, 10503.030
198.179, 10521.670
198.661, 10533.460
199.143, 10531.240
199.626, 10502.260
200.108, 10443.970
200.590, 10375.320
201.072, 10302.150
201.554, 10224.400
202.036, 10137.290
202.518, 10036.260
203.000, 9932.291
203.482, 9842.880
203.965, 9768.855
204.447, 9704.028
204.929, 9648.660
205.411, 9603.756
205.893, 9552.209
206.375, 9483.963
206.857, 9418.838
207.339, 9401.002
207.822, 9439.917
208.304, 9497.583
208.786, 9556.036
209.268, 9613.756
209.750, 9681.521
210.232, 9757.541
210.714, 9845.639
211.196, 9961.498
211.678, 10115.340
212.161, 10274.690
212.643, 10416.830
213.125, 10532.810
213.607, 10672.930
214.089, 10853.100
214.571, 11056.810
215.053, 11221.290
215.535, 11321.160
216.018, 11425.920
216.500, 11584.960
216.982, 11818.720
217.464, 12033.570
217.946, 12221.850
218.428, 12383.690
218.910, 12531.820
219.392, 12676.730
219.874, 12791.030
220.357, 12849.410
220.839, 12820.690
221.321, 12814.620
221.803, 12846.570
222.285, 12912.200
222.767, 12983.990
223.249, 13063.950
223.731, 13147.440
224.214, 13230.920
224.696, 13318.390
225.178, 13399.890
225.660, 13476.070
226.142, 13546.160
226.624, 13608.880
227.106, 13663.820
227.588, 13710.690
228.070, 13746.190
228.553, 13760.190
229.035, 13784.810
229.517, 13836.820
229.999, 13914.630
230.481, 13940.570
230.963, 13895.730
231.445, 13819.590
231.927, 13746.130
232.410, 13678.600
232.892, 13608.260
233.374, 13538.220
233.856, 13468.760
234.338, 13373.890
234.820, 13240.810
235.302, 13093.920
235.784, 12954.590
236.266, 12821.680
236.749, 12699.330
237.231, 12595.310
237.713, 12510.460
238.195, 12409.240
238.677, 12273.840
239.159, 12138.890
239.641, 12041.170
240.123, 11996.450
240.605, 11959.120
241.088, 11917.550
241.570, 11869.770
242.052, 11843.890
242.534, 11843.330
243.016, 11861.420
243.498, 11888.490
243.980, 11910.060
244.462, 11966.930
244.945, 12079.950
245.427, 12255.360
245.909, 12399.880
246.391, 12494.140
246.873, 12573.580
247.355, 12679.560
247.837, 12826.950
248.319, 12972.970
248.801, 13108.400
249.284, 13229.730
249.766, 13353.120
250.248, 13478.580
250.730, 13606.900
251.212, 13741.320
251.694, 13893.170
252.176, 14031.460
252.658, 14147.910
253.141, 14239.770
253.623, 14335.780
254.105, 14439.720
254.587, 14545.240
255.069, 14648.950
255.551, 14760.900
256.033, 14851.100
256.515, 14909.650
256.997, 14933.870
257.480, 14952.890
257.962, 14963.720
258.444, 14972.010
258.926, 14990.670
259.408, 15039.910
259.890, 15050.650
260.372, 14993.720
260.854, 14860.650
261.336, 14754.010
261.819, 14681.800
262.301, 14623.350
262.783, 14553.460
263.265, 14464.920
263.747, 14382.120
264.229, 14314.750
264.711, 14264.820
265.193, 14193.640
265.676, 14094.180
266.158, 13985.760
266.640, 13888.670
267.122, 13804.650
267.604, 13729.580
268.086, 13660.980
268.568, 13598.380
269.050, 13560.930
269.532, 13555.890
270.015, 13564.840
270.497, 13571.850
270.979, 13581.280
271.461, 13568.560
271.943, 13503.910
272.425, 13440.199
272.907, 13419.961
273.389, 13389.175
273.871, 13348.404
274.354, 13267.735
274.836, 13238.587
275.318, 13188.790
275.800, 13138.141
276.282, 13116.240
276.764, 13060.540
277.246, 12906.660
277.728, 12794.640
278.211, 12710.630
278.693, 12659.690
279.175, 12582.970
279.657, 12454.750
280.139, 12287.060
280.621, 12152.390
281.103, 12055.330
281.585, 11973.130
282.068, 11889.130
282.550, 11804.200
283.032, 11695.670
283.514, 11548.680
283.996, 11375.920
284.478, 11228.450
284.960, 11108.360
285.442, 11001.430
285.924, 10902.660
286.406, 10810.370
286.889, 10709.080
287.371, 10586.930
287.853, 10458.390
288.335, 10368.600
288.817, 10319.570
289.299, 10282.880
289.781, 10236.180
290.263, 10181.210
290.746, 10128.160
291.228, 10081.830
291.710, 10035.970
292.192, 9975.294
292.674, 9900.394
293.156, 9821.491
293.638, 9747.389
294.120, 9676.409
294.603, 9600.286
295.085, 9514.432
295.567, 9426.713
296.049, 9356.747
296.531, 9302.820
297.013, 9238.507
297.495, 9136.370
297.977, 9011.063
298.459, 8890.914
298.942, 8781.475
299.424, 8680.776
299.906, 8593.385
300.388, 8516.472
300.870, 8430.982
301.352, 8315.671
301.834, 8186.278
302.316, 8072.884
302.798, 7981.199
303.281, 7899.396
303.763, 7822.164
304.245, 7745.658
304.727, 7654.949
305.209, 7530.141
305.691, 7391.435
306.173, 7264.809
306.655, 7154.769
307.138, 7047.867
307.620, 6927.269
308.102, 6800.284
308.584, 6686.171
309.066, 6603.388
309.548, 6532.900
310.030, 6459.063
310.512, 6380.663
310.994, 6299.234
311.477, 6216.271
311.959, 6131.974
312.441, 6045.344
312.923, 5947.726
313.405, 5854.074
313.887, 5778.083
314.369, 5720.977
314.851, 5665.220
315.333, 5599.585
315.816, 5530.881
316.298, 5467.882
316.780, 5417.170
317.262, 5368.836
317.744, 5315.822
318.226, 5257.360
318.708, 5208.965
319.190, 5186.557
319.672, 5172.281
320.155, 5149.306
320.637, 5104.228
321.119, 5058.688
321.601, 5017.373
322.083, 4980.300
322.565, 4949.940
323.047, 4931.897
323.530, 4917.652
324.012, 4901.276
324.494, 4879.254
324.976, 4857.873
325.458, 4837.044
325.940, 4817.226
326.422, 4800.393
326.904, 4787.756
327.386, 4777.325
327.868, 4768.096
328.351, 4766.204
328.833, 4757.744
329.315, 4738.010
329.797, 4711.056
330.279, 4690.139
330.761, 4678.427
331.243, 4669.527
331.725, 4660.864
332.208, 4651.339
332.690, 4644.351
333.172, 4640.735
333.654, 4639.463
334.136, 4639.377
334.618, 4645.338
335.100, 4643.937
335.582, 4625.482
336.065, 4580.915
336.547, 4561.688
337.029, 4575.223
337.511, 4606.233
337.993, 4632.769
338.475, 4656.831
338.957, 4669.923
339.439, 4664.376
339.921, 4640.166
340.404, 4632.510
340.886, 4644.789
341.368, 4665.619
341.850, 4683.992
342.332, 4700.076
342.814, 4711.057
343.296, 4714.094
343.778, 4711.659
344.260, 4713.970
344.743, 4721.323
345.225, 4732.681
345.707, 4748.766
346.189, 4768.970
346.671, 4788.134
347.153, 4805.528
347.635, 4821.013
348.117, 4830.368
348.599, 4834.139
349.082, 4845.541
349.564, 4882.659
350.046, 4934.922
350.528, 4973.059
351.010, 4987.458
351.492, 4996.077
351.974, 5025.671
352.457, 5070.899
352.939, 5110.267
353.421, 5125.810
353.903, 5130.045
354.385, 5139.498
354.867, 5156.588
355.349, 5176.995
355.831, 5194.272
356.313, 5212.357
356.796, 5239.325
357.278, 5289.718
357.760, 5343.375
358.242, 5385.697
358.724, 5415.540
359.206, 5438.378
359.688, 5450.952
360.170, 5460.173
360.652, 5474.236
361.135, 5496.749
361.617, 5523.826
362.099, 5555.198
362.581, 5590.487
363.063, 5626.028
363.545, 5660.670
364.027, 5694.938
364.509, 5729.220
364.991, 5766.459
365.474, 5800.743
365.956, 5827.991
366.438, 5850.513
366.920, 5877.102
367.402, 5907.354
367.884, 5943.429
368.366, 5986.962
368.848, 6047.564
369.331, 6101.292
369.813, 6142.651
370.295, 6177.473
370.777, 6217.596
371.259, 6271.541
371.741, 6319.664
372.223, 6353.378
372.705, 6366.590
373.188, 6392.024
373.670, 6436.069
374.152, 6485.686
374.634, 6522.956
375.116, 6541.035
375.598, 6565.345
376.080, 6605.734
376.562, 6660.103
377.044, 6699.833
377.526, 6718.761
378.009, 6738.975
378.491, 6786.304
378.973, 6862.213
379.455, 6926.516
379.937, 6966.962
380.419, 6994.624
380.901, 7039.816
381.384, 7103.809
381.866, 7169.426
382.348, 7223.787
382.830, 7269.497
383.312, 7316.635
383.794, 7364.630
384.276, 7418.089
384.758, 7486.554
385.240, 7567.441
385.723, 7650.530
386.205, 7732.968
386.687, 7812.608
387.169, 7884.108
387.651, 7945.417
388.133, 8010.748
388.615, 8100.825
389.097, 8202.939
389.579, 8294.109
390.062, 8351.373
390.544, 8405.883
391.026, 8484.678
391.508, 8585.350
391.990, 8679.219
392.472, 8748.563
392.954, 8807.095
393.436, 8868.362
393.918, 8949.255
394.401, 9015.288
394.883, 9040.869
395.365, 9040.363
395.847, 9058.619
396.329, 9142.054
396.811, 9219.970
397.293, 9254.544
397.775, 9212.253
398.258, 9191.162
398.740, 9224.860
399.222, 9278.640
399.704, 9298.716
400.186, 9256.277
400.668, 9213.151
401.150, 9183.794
401.632, 9169.861
402.114, 9154.463
402.597, 9144.329
403.079, 9125.681
403.561, 9083.564
404.043, 9008.433
404.525, 8936.229
405.007, 8871.782
405.489, 8813.980
405.971, 8761.354
406.453, 8713.977
406.936, 8669.166
407.418, 8622.002
407.900, 8572.111
408.382, 8538.072
408.864, 8522.888
409.346, 8519.764
409.828, 8516.920
410.310, 8514.824
410.793, 8520.448
411.275, 8542.335
411.757, 8574.353
412.239, 8595.525
412.721, 8604.471
413.203, 8619.465
413.685, 8664.923
414.167, 8729.264
414.650, 8787.050
415.132, 8820.123
415.614, 8851.171
416.096, 8907.125
416.578, 8983.554
417.060, 9056.781
417.542, 9095.464
418.024, 9131.219
418.506, 9194.867
418.988, 9305.098
419.471, 9416.704
419.953, 9503.079
420.435, 9576.777
420.917, 9663.931
421.399, 9788.533
421.881, 9914.570
422.363, 10029.760
422.845, 10133.760
423.328, 10222.140
423.810, 10275.000
424.292, 10320.490
424.774, 10385.200
425.256, 10499.770
425.738, 10597.510
426.220, 10664.620
426.702, 10705.310
427.185, 10753.490
427.667, 10811.720
428.149, 10873.200
428.631, 10933.640
429.113, 10992.490
429.595, 11053.680
430.077, 11117.120
430.559, 11183.080
431.041, 11250.080
431.524, 11315.380
432.006, 11396.840
432.488, 11512.210
432.970, 11654.360
433.452, 11757.360
433.934, 11813.450
434.416, 11878.470
434.898, 12017.530
435.380, 12218.060
435.863, 12426.520
436.345, 12636.070
436.827, 12838.930
437.309, 13008.160
437.791, 13151.930
438.273, 13310.430
438.755, 13513.000
439.237, 13743.620
439.720, 13980.990
440.202, 14218.830
440.684, 14475.320
441.166, 14775.160
441.648, 15099.050
442.130, 15420.760
442.612, 15723.170
443.094, 16027.340
443.576, 16337.480
444.059, 16655.250
444.541, 16985.680
445.023, 17336.881
445.505, 17697.000
445.987, 18062.561
446.469, 18438.609
446.951, 18808.369
447.433, 19169.410
447.915, 19523.721
448.398, 19878.699
448.880, 20235.930
449.362, 20587.279
449.844, 20933.539
450.326, 21271.811
450.808, 21603.119
451.290, 21927.551
451.772, 22244.689
452.254, 22557.740
452.737, 22867.131
453.219, 23176.301
453.701, 23487.779
454.183, 23799.830
454.665, 24094.920
455.147, 24375.199
455.629, 24642.020
456.112, 24907.141
456.594, 25162.449
457.076, 25386.320
457.558, 25569.301
458.040, 25730.301
458.522, 25893.211
459.004, 26051.260
459.486, 26179.689
459.968, 26276.461
460.451, 26334.010
460.933, 26334.090
461.415, 26277.971
461.897, 26212.410
462.379, 26184.990
462.861, 26151.381
463.343, 26065.221
463.825, 25864.840
464.307, 25680.131
464.790, 25554.740
465.272, 25477.760
465.754, 25414.490
466.236, 25383.529
466.718, 25342.279
467.200, 25269.289
467.682, 25148.980
468.164, 25050.801
468.647, 24981.641
469.129, 24928.100
469.611, 24878.631
470.093, 24836.670
470.575, 24790.301
471.057, 24741.961
471.539, 24686.660
472.021, 24599.520
472.503, 24474.990
472.986, 24337.811
473.468, 24212.109
473.950, 24095.070
474.432, 23935.980
474.914, 23727.830
475.396, 23496.141
475.878, 23270.881
476.360, 23050.990
476.842, 22828.930
477.325, 22611.020
477.807, 22386.939
478.289, 22141.820
478.771, 21877.109
479.253, 21601.820
479.735, 21319.010
480.217, 21029.961
480.699, 20732.211
481.181, 20421.689
481.664, 20118.189
482.146, 19833.801
482.628, 19563.529
483.110, 19294.240
483.592, 19042.010
484.074, 18769.891
484.556, 18453.080
485.039, 18092.891
485.521, 17741.711
486.003, 17403.400
486.485, 17076.230
486.967, 16761.039
487.449, 16482.750
487.931, 16177.280
488.413, 15832.690
488.895, 15464.750
489.378, 15102.360
489.860, 14738.910
490.342, 14395.770
490.824, 14085.330
491.306, 13803.190
491.788, 13504.900
492.270, 13184.720
492.752, 12865.320
493.234, 12566.850
493.717, 12287.700
494.199, 12013.800
494.681, 11737.800
495.163, 11473.400
495.645, 11244.410
496.127, 11042.010
496.609, 10831.400
497.091, 10573.660
497.573, 10312.120
498.056, 10087.260
498.538, 9904.984
499.020, 9730.418
499.502, 9547.249
499.984, 9363.298
500.466, 9187.503
500.948, 9030.658
501.430, 8875.196
501.913, 8714.879
502.395, 8554.216
502.877, 8404.132
503.359, 8274.701
503.841, 8148.246
504.323, 8016.050
504.805, 7876.927
505.287, 7748.443
505.770, 7633.273
506.252, 7524.988
506.734, 7418.349
507.216, 7312.524
507.698, 7213.493
508.180, 7124.351
508.662, 7040.671
509.144, 6950.963
509.626, 6855.355
510.108, 6759.916
510.591, 6665.074
511.073, 6573.356
511.555, 6495.176
512.037, 6431.731
512.519, 6365.096
513.001, 6266.783
513.483, 6156.981
513.966, 6068.231
514.448, 6021.933
514.930, 5982.980
515.412, 5929.280
515.894, 5864.982
516.376, 5802.798
516.858, 5748.037
517.340, 5695.083
517.822, 5640.747
518.305, 5583.814
518.787, 5530.328
519.269, 5475.592
519.751, 5427.865
520.233, 5395.832
520.715, 5398.226
521.197, 5380.935
521.679, 5331.433
522.161, 5262.123
522.644, 5190.049
523.126, 5192.465
523.608, 5176.797
524.090, 5144.022
524.572, 5042.903
525.054, 5030.042
525.536, 4981.797
526.018, 4932.118
526.500, 4931.672
526.983, 4840.494
527.465, 4839.268
527.947, 4802.139
528.429, 4781.429
528.911, 4717.796
529.393, 4718.137
529.875, 4718.156
530.357, 4707.643
530.839, 4689.209
531.322, 4663.983
531.804, 4632.132
532.286, 4594.470
532.768, 4541.388
533.250, 4488.778
533.732, 4448.698
534.214, 4431.266
534.696, 4414.313
535.179, 4396.060
535.661, 4378.230
536.143, 4365.333
536.625, 4363.700
537.107, 4352.949
537.589, 4322.854
538.071, 4276.588
538.553, 4246.922
539.036, 4236.586
539.518, 4231.179
540.000, 4218.658
540.482, 4200.795
540.964, 4187.174
541.446, 4178.835
541.928, 4174.182
542.410, 4174.167
542.892, 4176.336
543.375, 4174.645
543.857, 4165.515
544.339, 4152.128
544.821, 4133.772
545.303, 4111.970
545.785, 4095.467
546.267, 4098.889
546.749, 4101.261
547.231, 4086.782
547.714, 4044.256
548.196, 4012.992
548.678, 4002.979
549.160, 4004.573
549.642, 4008.703
550.124, 4026.332
550.606, 4026.720
551.088, 3999.831
551.570, 3953.798
552.053, 3917.034
552.535, 3888.874
553.017, 3871.689
553.499, 3871.781
553.981, 3886.529
554.463, 3891.974
554.945, 3887.551
555.427, 3878.510
555.909, 3867.565
556.392, 3856.269
556.874, 3849.317
557.356, 3850.680
557.838, 3850.893
558.320, 3835.665
558.802, 3812.690
559.284, 3799.364
559.766, 3812.451
560.249, 3828.869
560.731, 3839.278
561.213, 3843.111
561.695, 3839.620
562.177, 3812.515
562.659, 3790.058
563.141, 3790.464
563.623, 3834.131
564.106, 3856.403
564.588, 3843.251
565.070, 3820.841
565.552, 3829.634
566.034, 3876.597
566.516, 3922.605
566.998, 3964.089
567.480, 3994.755
567.963, 3989.515
568.445, 3949.265
568.927, 3906.022
569.409, 3878.389
569.891, 3861.826
570.373, 3846.203
570.855, 3830.559
571.337, 3822.404
571.819, 3834.046
572.302, 3853.947
572.784, 3867.871
573.266, 3866.582
573.748, 3866.612
574.230, 3873.327
574.712, 3885.789
575.194, 3901.904
575.676, 3933.726
576.158, 3955.819
576.641, 3957.742
577.123, 3939.807
577.605, 3932.546
578.087, 3937.530
578.569, 3950.413
579.051, 3972.533
579.533, 4005.050
580.015, 4021.695
580.497, 4016.448
580.980, 4009.074
581.462, 4029.206
581.944, 4070.988
582.426, 4110.155
582.908, 4137.336
583.390, 4158.957
583.872, 4180.960
584.354, 4203.396
584.836, 4226.505
585.319, 4246.987
585.801, 4270.976
586.283, 4304.710
586.765, 4349.651
587.247, 4392.049
587.729, 4424.292
588.211, 4455.482
588.693, 4492.271
589.176, 4534.214
589.658, 4582.731
590.140, 4639.289
590.622, 4701.713
591.104, 4766.467
591.586, 4834.835
592.068, 4900.840
592.550, 4961.484
593.032, 5019.305
593.515, 5083.705
593.997, 5154.817
594.479, 5224.914
594.961, 5286.414
595.443, 5344.521
595.925, 5405.843
596.407, 5470.655
596.890, 5543.661
597.372, 5636.178
597.854, 5734.515
598.336, 5823.236
598.818, 5888.982
599.300, 5957.830
599.782, 6037.055
600.264, 6123.952
600.746, 6213.740
601.229, 6321.489
601.711, 6410.151
602.193, 6465.315
602.675, 6491.475
603.157, 6533.165
603.639, 6595.993
604.121, 6658.229
604.603, 6709.025
605.085, 6748.668
605.568, 6781.264
606.050, 6808.339
606.532, 6820.314
607.014, 6802.731
607.496, 6763.247
607.978, 6716.062
608.460, 6660.600
608.942, 6607.784
609.424, 6579.026
609.907, 6558.251
610.389, 6515.449
610.871, 6417.567
611.353, 6316.856
611.835, 6233.673
612.317, 6166.775
612.799, 6097.975
613.281, 6028.807
613.763, 5954.224
614.246, 5870.658
614.728, 5776.194
615.210, 5685.418
615.692, 5600.551
616.174, 5514.583
616.656, 5416.375
617.138, 5308.319
617.620, 5214.691
618.103, 5139.537
618.585, 5077.782
619.067, 5032.303
619.549, 4994.064
620.031, 4940.058
620.513, 4833.989
620.995, 4729.215
621.477, 4668.772
621.959, 4645.350
622.442, 4617.700
622.924, 4570.250
