##NAMES=Romeite
##RRUFFID=R060736
##IDEAL CHEMISTRY=(Ca,Fe^2+^,Mn^2+^,Na)_2_(Sb^5+^,Ti^4+^)_2_O_6_(O,OH,F)
##LOCALITY=Le Cetine di Cotorniano, Chiusdino, Siena Province, Tuscany, Italy
##OWNER=RRUFF
##SOURCE=Michael Scott
##DESCRIPTION=Brown octahedra associated with brizziite, R060611
##STATUS=The identification of this mineral is confirmed by single-crystal X-ray diffraction and chemical analysis.
##URL=rruff.info/R060736
##MEASURED CHEMISTRY=dark core: (Ca_1.06_Na_0.70_Fe^2+^_0.18_Mg_0.06_)_Σ=2_Sb^5+^_2.00_O_6_((OH)_0.70_O_0.30_)_Σ=1_; trace amounts of F; OH estimated by charge balance; rim: (Na_1.10_Sb^3+^_0.64_Fe^3+^_0.10_Mg_0.07_Ca_0.06_Mn_0.02_Pb_0.01_)_Σ=2_Sb^5+^_2.00_O_6_(OH); 
143.7051, 7601.137
144.1872, 7920.873
144.6693, 8210.715
145.1514, 8508.021
145.6335, 8835.344
146.1157, 9157.193
146.5978, 9452.564
147.0799, 9712.409
147.5620, 9930.267
148.0441, 10095.33
148.5262, 10181.69
149.0084, 10239.85
149.4905, 10271.34
149.9726, 10275.69
150.4547, 10248.29
150.9368, 10187.34
151.4189, 10103.67
151.9010, 10021.01
152.3832, 9943.843
152.8653, 9861.854
153.3474, 9773.655
153.8295, 9681.006
154.3116, 9581.800
154.7937, 9474.793
155.2759, 9367.794
155.7580, 9283.347
156.2401, 9214.506
156.7222, 9174.293
157.2043, 9179.403
157.6864, 9211.744
158.1686, 9244.167
158.6507, 9264.944
159.1328, 9279.849
159.6149, 9304.925
160.0970, 9333.771
160.5791, 9378.890
161.0613, 9450.343
161.5434, 9539.672
162.0255, 9630.521
162.5076, 9714.214
162.9897, 9797.019
163.4718, 9897.461
163.9540, 10028.88
164.4361, 10151.16
164.9182, 10249.02
165.4003, 10327.33
165.8824, 10396.32
166.3645, 10459.08
166.8467, 10515.81
167.3288, 10567.37
167.8109, 10616.47
168.2930, 10657.39
168.7751, 10684.60
169.2572, 10701.29
169.7394, 10717.99
170.2215, 10743.00
170.7036, 10765.82
171.1857, 10764.18
171.6678, 10730.38
172.1499, 10691.56
172.6321, 10657.31
173.1142, 10628.17
173.5963, 10607.47
174.0784, 10601.39
174.5605, 10599.95
175.0426, 10583.32
175.5248, 10546.51
176.0069, 10507.64
176.4890, 10470.93
176.9711, 10438.58
177.4532, 10420.19
177.9353, 10421.44
178.4175, 10438.32
178.8996, 10462.81
179.3817, 10498.71
179.8638, 10531.59
180.3459, 10545.65
180.8280, 10545.47
181.3102, 10560.09
181.7923, 10610.84
182.2744, 10671.19
182.7565, 10698.34
183.2386, 10682.12
183.7207, 10665.88
184.2029, 10677.88
184.6850, 10715.38
185.1671, 10761.42
185.6492, 10816.80
186.1313, 10872.67
186.6134, 10918.17
187.0956, 10951.63
187.5777, 10980.25
188.0598, 11009.66
188.5419, 11038.91
189.0240, 11060.12
189.5061, 11061.80
189.9883, 11063.63
190.4704, 11092.85
190.9525, 11154.90
191.4346, 11209.21
191.9167, 11216.85
192.3988, 11185.30
192.8810, 11171.07
193.3631, 11195.15
193.8452, 11236.24
194.3273, 11272.52
194.8094, 11303.62
195.2915, 11330.73
195.7737, 11354.08
196.2558, 11373.95
196.7379, 11392.00
197.2200, 11408.94
197.7021, 11423.63
198.1842, 11434.49
198.6664, 11441.52
199.1485, 11449.24
199.6306, 11463.24
200.1127, 11481.67
200.5948, 11494.96
201.0770, 11506.65
201.5591, 11504.47
202.0412, 11472.21
202.5233, 11412.26
203.0054, 11360.48
203.4875, 11348.05
203.9697, 11365.66
204.4518, 11367.50
204.9339, 11340.51
205.4160, 11304.63
205.8981, 11274.66
206.3802, 11250.10
206.8624, 11229.02
207.3445, 11210.43
207.8266, 11194.46
208.3087, 11181.98
208.7908, 11174.93
209.2729, 11168.36
209.7551, 11156.02
210.2372, 11140.03
210.7193, 11129.19
211.2014, 11131.64
211.6835, 11142.90
212.1656, 11149.83
212.6478, 11151.96
213.1299, 11148.84
213.6120, 11134.59
214.0941, 11114.51
214.5762, 11102.90
215.0583, 11113.43
215.5405, 11136.72
216.0226, 11150.63
216.5047, 11154.12
216.9868, 11149.85
217.4689, 11135.57
217.9510, 11115.43
218.4332, 11097.13
218.9153, 11080.47
219.3974, 11068.75
219.8795, 11072.76
220.3616, 11099.89
220.8437, 11119.28
221.3259, 11110.10
221.8080, 11081.49
222.2901, 11043.31
222.7722, 10990.98
223.2543, 10936.04
223.7364, 10896.17
224.2186, 10873.87
224.7007, 10852.69
225.1828, 10821.07
225.6649, 10785.84
226.1470, 10757.02
226.6291, 10740.81
227.1113, 10726.43
227.5934, 10697.05
228.0755, 10651.00
228.5576, 10616.72
229.0397, 10621.33
229.5218, 10638.43
230.0040, 10629.92
230.4861, 10581.77
230.9682, 10527.19
231.4503, 10494.45
231.9324, 10482.85
232.4145, 10477.77
232.8967, 10473.00
233.3788, 10473.83
233.8609, 10488.21
234.3430, 10520.67
234.8251, 10551.90
235.3072, 10565.56
235.7894, 10565.11
236.2715, 10569.47
236.7536, 10585.56
237.2357, 10607.32
237.7178, 10625.97
238.1999, 10640.64
238.6821, 10658.01
239.1642, 10682.77
239.6463, 10712.90
240.1284, 10744.23
240.6105, 10777.94
241.0926, 10808.21
241.5748, 10824.29
242.0569, 10826.86
242.5390, 10835.97
243.0211, 10865.38
243.5032, 10904.61
243.9853, 10935.64
244.4675, 10955.32
244.9496, 10968.62
245.4317, 10975.05
245.9138, 10976.27
246.3959, 10989.14
246.8780, 11025.39
247.3602, 11071.28
247.8423, 11112.22
248.3244, 11146.68
248.8065, 11176.75
249.2886, 11207.06
249.7707, 11234.88
250.2529, 11245.01
250.7350, 11216.08
251.2171, 11183.21
251.6992, 11174.67
252.1813, 11189.86
252.6634, 11212.83
253.1456, 11235.69
253.6277, 11257.34
254.1098, 11273.60
254.5919, 11275.18
255.0740, 11280.22
255.5561, 11301.89
256.0382, 11335.53
256.5204, 11365.89
257.0025, 11384.73
257.4846, 11395.16
257.9667, 11408.39
258.4488, 11429.02
258.9309, 11445.99
259.4131, 11453.60
259.8952, 11455.89
260.3773, 11459.64
260.8594, 11467.46
261.3415, 11478.25
261.8236, 11489.88
262.3058, 11502.83
262.7879, 11515.83
263.2700, 11535.70
263.7521, 11552.67
264.2342, 11551.67
264.7163, 11529.43
265.1985, 11502.54
265.6806, 11494.75
266.1627, 11517.94
266.6448, 11531.02
267.1269, 11521.95
267.6090, 11511.85
268.0912, 11523.06
268.5733, 11553.55
269.0554, 11576.80
269.5375, 11562.76
270.0196, 11501.12
270.5017, 11468.30
270.9839, 11476.32
271.4660, 11495.31
271.9481, 11522.53
272.4302, 11550.49
272.9123, 11563.07
273.3944, 11545.29
273.8766, 11500.55
274.3587, 11482.24
274.8408, 11514.36
275.3229, 11547.69
275.8050, 11574.46
276.2871, 11595.73
276.7693, 11611.96
277.2514, 11622.63
277.7335, 11632.70
278.2156, 11659.33
278.6977, 11722.72
279.1798, 11772.02
279.6620, 11796.55
280.1441, 11808.52
280.6262, 11814.27
281.1083, 11816.80
281.5904, 11825.90
282.0725, 11862.95
282.5547, 11947.22
283.0368, 12005.40
283.5189, 12013.35
284.0010, 12008.58
284.4831, 12008.44
284.9652, 12016.53
285.4474, 12031.46
285.9295, 12058.98
286.4116, 12101.48
286.8937, 12119.07
287.3758, 12095.42
287.8579, 12061.05
288.3401, 12021.25
288.8222, 11981.92
289.3043, 11956.69
289.7864, 11961.67
290.2685, 11987.65
290.7506, 11997.43
291.2328, 11983.85
291.7149, 11968.23
292.1970, 11961.53
292.6791, 11959.54
293.1612, 11956.50
293.6433, 11951.61
294.1255, 11943.24
294.6076, 11928.05
295.0897, 11905.29
295.5718, 11880.78
296.0539, 11849.85
296.5360, 11822.19
297.0182, 11810.17
297.5003, 11817.73
297.9824, 11832.29
298.4645, 11848.53
298.9466, 11864.96
299.4287, 11873.01
299.9109, 11867.35
300.3930, 11856.21
300.8751, 11850.69
301.3572, 11850.97
301.8393, 11850.57
302.3214, 11844.60
302.8036, 11837.23
303.2857, 11838.72
303.7678, 11852.30
304.2499, 11860.29
304.7320, 11839.26
305.2141, 11788.98
305.6963, 11759.38
306.1784, 11776.98
306.6605, 11798.80
307.1426, 11791.53
307.6247, 11756.73
308.1068, 11714.07
308.5890, 11676.54
309.0711, 11642.52
309.5532, 11600.96
310.0353, 11536.52
310.5174, 11482.92
310.9995, 11460.91
311.4817, 11454.77
311.9638, 11437.33
312.4459, 11396.57
312.9280, 11341.95
313.4101, 11295.39
313.8922, 11260.11
314.3744, 11229.80
314.8565, 11208.53
315.3386, 11189.91
315.8207, 11169.53
316.3028, 11146.20
316.7849, 11120.28
317.2671, 11091.51
317.7492, 11059.09
318.2313, 11028.45
318.7134, 10955.81
319.1955, 10912.59
319.6776, 10893.27
320.1598, 10867.54
320.6419, 10835.76
321.1240, 10779.78
321.6061, 10755.05
322.0882, 10717.79
322.5703, 10680.03
323.0525, 10659.69
323.5346, 10607.23
324.0167, 10586.62
324.4988, 10553.29
324.9809, 10525.79
325.4630, 10485.69
325.9452, 10449.47
326.4273, 10425.86
326.9094, 10395.27
327.3915, 10353.72
327.8736, 10326.58
328.3557, 10273.68
328.8379, 10243.39
329.3200, 10222.85
329.8021, 10147.27
330.2842, 10104.68
330.7663, 10058.46
331.2484, 10006.16
331.7306, 9949.100
332.2127, 9884.167
332.6948, 9814.688
333.1769, 9751.533
333.6590, 9707.270
334.1411, 9666.576
334.6233, 9610.005
335.1054, 9537.390
335.5875, 9462.724
336.0696, 9394.044
336.5517, 9329.961
337.0338, 9263.450
337.5160, 9185.309
337.9981, 9116.506
338.4802, 9075.700
338.9623, 9050.170
339.4444, 9010.038
339.9265, 8942.441
340.4087, 8865.956
340.8908, 8813.009
341.3729, 8793.776
341.8550, 8777.469
342.3371, 8768.745
342.8192, 8758.655
343.3014, 8738.119
343.7835, 8707.225
344.2656, 8673.434
344.7477, 8643.421
345.2298, 8617.280
345.7119, 8593.907
346.1941, 8576.872
346.6762, 8558.209
347.1583, 8530.917
347.6404, 8500.893
348.1225, 8479.859
348.6046, 8475.020
349.0868, 8478.297
349.5689, 8466.612
350.0510, 8433.198
350.5331, 8397.700
351.0152, 8357.552
351.4973, 8320.248
351.9795, 8297.378
352.4616, 8289.411
352.9437, 8276.984
353.4258, 8231.478
353.9079, 8153.172
354.3900, 8100.332
354.8722, 8095.184
355.3543, 8094.372
355.8364, 8069.407
356.3185, 8026.462
356.8006, 7984.036
357.2827, 7952.690
357.7649, 7926.011
358.2470, 7894.137
358.7291, 7857.172
359.2112, 7814.010
359.6933, 7757.414
360.1754, 7696.788
360.6576, 7651.435
361.1397, 7624.458
361.6218, 7608.263
362.1039, 7604.271
362.5860, 7607.801
363.0681, 7608.521
363.5503, 7603.561
364.0324, 7594.258
364.5145, 7581.681
364.9966, 7564.475
365.4787, 7549.218
365.9608, 7529.625
366.4430, 7516.992
366.9251, 7526.487
367.4072, 7553.571
367.8893, 7575.146
368.3714, 7571.507
368.8535, 7546.199
369.3357, 7542.543
369.8178, 7574.487
370.2999, 7612.438
370.7820, 7658.976
371.2641, 7706.162
371.7462, 7743.998
372.2284, 7768.972
372.7105, 7787.740
373.1926, 7811.155
373.6747, 7840.730
374.1568, 7869.940
374.6389, 7897.227
375.1211, 7924.973
375.6032, 7953.778
376.0853, 7983.984
376.5674, 8017.046
377.0495, 8057.011
377.5316, 8100.682
378.0138, 8132.648
378.4959, 8145.863
378.9780, 8166.249
379.4601, 8216.701
379.9422, 8279.922
380.4243, 8332.577
380.9065, 8366.544
381.3886, 8397.363
381.8707, 8435.891
382.3528, 8481.974
382.8349, 8536.863
383.3170, 8605.292
383.7992, 8673.456
384.2813, 8715.152
384.7634, 8726.365
385.2455, 8755.671
385.7276, 8827.453
386.2097, 8910.469
386.6919, 8974.355
387.1740, 9019.222
387.6561, 9064.122
388.1382, 9122.888
388.6203, 9194.555
389.1024, 9266.402
389.5846, 9330.255
390.0667, 9403.613
390.5488, 9499.123
391.0309, 9602.200
391.5130, 9693.782
391.9951, 9767.529
392.4773, 9835.064
392.9594, 9915.773
393.4415, 10017.53
393.9236, 10106.03
394.4057, 10168.79
394.8878, 10228.09
395.3700, 10286.78
395.8521, 10349.56
396.3342, 10427.37
396.8163, 10535.81
397.2984, 10658.80
397.7805, 10748.28
398.2627, 10794.96
398.7448, 10840.06
399.2269, 10902.48
399.7090, 10971.53
400.1911, 11036.57
400.6732, 11096.39
401.1554, 11151.50
401.6375, 11199.94
402.1196, 11243.95
402.6017, 11287.70
403.0838, 11331.17
403.5659, 11379.61
404.0481, 11441.22
404.5302, 11516.75
405.0123, 11586.03
405.4944, 11647.50
405.9765, 11702.96
406.4586, 11753.33
406.9408, 11799.04
407.4229, 11840.11
407.9050, 11876.45
408.3871, 11909.17
408.8692, 11940.96
409.3513, 11970.18
409.8335, 12001.19
410.3156, 12040.89
410.7977, 12077.48
411.2798, 12097.71
411.7619, 12103.12
412.2440, 12109.61
412.7262, 12133.10
413.2083, 12172.65
413.6904, 12208.07
414.1725, 12240.55
414.6546, 12266.09
415.1367, 12280.40
415.6189, 12288.83
416.1010, 12302.51
416.5831, 12329.82
417.0652, 12345.70
417.5473, 12309.99
418.0294, 12229.04
418.5116, 12172.85
418.9937, 12165.90
419.4758, 12175.60
419.9579, 12163.01
420.4400, 12130.36
420.9221, 12108.20
421.4043, 12120.12
421.8864, 12133.92
422.3685, 12113.72
422.8506, 12064.90
423.3327, 12022.27
423.8148, 12007.08
424.2970, 12012.60
424.7791, 12014.40
425.2612, 12020.14
425.7433, 12012.02
426.2254, 11977.60
426.7076, 11935.51
427.1897, 11905.42
427.6718, 11888.59
428.1539, 11869.35
428.6360, 11829.05
429.1181, 11766.95
429.6003, 11715.55
430.0824, 11673.55
430.5645, 11645.52
431.0466, 11645.80
431.5287, 11655.37
432.0108, 11644.46
432.4930, 11598.74
432.9751, 11546.51
433.4572, 11527.60
433.9393, 11539.58
434.4214, 11539.92
434.9035, 11517.30
435.3857, 11483.61
435.8678, 11441.94
436.3499, 11394.58
436.8320, 11369.99
437.3141, 11387.64
437.7962, 11422.21
438.2784, 11455.73
438.7605, 11486.72
439.2426, 11512.26
439.7247, 11529.12
440.2068, 11542.88
440.6889, 11569.28
441.1711, 11615.61
441.6532, 11665.24
442.1353, 11718.06
442.6174, 11773.97
443.0995, 11839.31
443.5816, 11910.35
444.0638, 11968.20
444.5459, 11990.13
445.0280, 11981.69
445.5101, 12009.64
445.9922, 12094.04
446.4743, 12182.93
446.9565, 12264.85
447.4386, 12340.22
447.9207, 12408.96
448.4028, 12470.60
448.8849, 12529.76
449.3670, 12587.43
449.8492, 12645.34
450.3313, 12714.24
450.8134, 12798.61
451.2955, 12885.56
451.7776, 12966.78
452.2597, 13042.18
452.7419, 13112.05
453.2240, 13178.22
453.7061, 13237.34
454.1882, 13289.57
454.6703, 13333.21
455.1524, 13362.49
455.6346, 13374.77
456.1167, 13379.20
456.5988, 13393.39
457.0809, 13434.17
457.5630, 13438.80
458.0451, 13378.91
458.5273, 13314.82
459.0093, 13276.11
459.4915, 13257.98
459.9736, 13245.18
460.4557, 13230.97
460.9378, 13211.11
461.4199, 13173.75
461.9020, 13114.75
462.3842, 13054.94
462.8663, 13001.77
463.3484, 12947.96
463.8305, 12887.12
464.3126, 12819.45
464.7947, 12751.04
465.2769, 12677.00
465.7590, 12608.24
466.2411, 12570.09
466.7232, 12561.77
467.2053, 12536.65
467.6874, 12460.93
468.1696, 12353.07
468.6517, 12279.05
469.1338, 12250.90
469.6159, 12233.01
470.0980, 12224.06
470.5801, 12220.92
471.0623, 12222.15
471.5444, 12226.59
472.0265, 12231.31
472.5086, 12232.74
472.9907, 12231.55
473.4728, 12237.14
473.9550, 12242.43
474.4371, 12266.74
474.9192, 12313.96
475.4013, 12380.08
475.8834, 12464.91
476.3655, 12568.62
476.8477, 12677.00
477.3298, 12778.51
477.8119, 12874.93
478.2940, 12965.02
478.7761, 13042.11
479.2582, 13141.17
479.7404, 13295.06
480.2225, 13496.41
480.7046, 13691.31
481.1867, 13867.35
481.6688, 14051.06
482.1509, 14241.27
482.6331, 14449.26
483.1152, 14693.70
483.5973, 14977.74
484.0794, 15286.68
484.5615, 15601.78
485.0436, 15921.17
485.5258, 16253.65
486.0079, 16580.34
486.4900, 16939.53
486.9721, 17335.02
487.4542, 17772.16
487.9363, 18270.08
488.4185, 18837.56
488.9006, 19429.96
489.3827, 19983.54
489.8648, 20503.79
490.3469, 21065.05
490.8290, 21683.32
491.3112, 22338.72
491.7933, 23025.71
492.2754, 23737.41
492.7575, 24461.43
493.2396, 25186.17
493.7217, 25936.34
494.2039, 26738.33
494.6860, 27577.19
495.1681, 28435.63
495.6502, 29302.27
496.1323, 30177.11
496.6144, 31047.82
497.0966, 31920.32
497.5787, 32778.11
498.0608, 33611.88
498.5429, 34442.92
499.0250, 35282.62
499.5071, 36121.84
499.9893, 36949.66
500.4714, 37766.46
500.9535, 38534.11
501.4356, 39187.49
501.9177, 39726.94
502.3998, 40272.91
502.8820, 40880.60
503.3641, 41438.25
503.8462, 41859.51
504.3283, 42159.05
504.8104, 42358.80
505.2925, 42438.81
505.7747, 42445.76
506.2568, 42426.53
506.7389, 42355.55
507.2210, 42170.63
507.7031, 41851.68
508.1852, 41433.77
508.6674, 40966.66
509.1495, 40451.64
509.6316, 39870.71
510.1137, 39200.14
510.5958, 38488.62
511.0779, 37723.66
511.5601, 36934.75
512.0422, 36170.13
512.5243, 35448.91
513.0064, 34748.22
513.4885, 34040.91
513.9706, 33327.14
514.4528, 32608.52
514.9349, 31872.68
515.4170, 31155.27
515.8991, 30493.94
516.3812, 29878.81
516.8633, 29279.46
517.3455, 28691.08
517.8276, 28123.84
518.3097, 27596.43
518.7918, 27092.16
519.2739, 26583.38
519.7560, 26061.66
520.2382, 25548.00
520.7203, 25070.92
521.2024, 24634.56
521.6845, 24202.78
522.1666, 23778.74
522.6487, 23358.61
523.1309, 22933.61
523.6130, 22515.22
524.0951, 22112.70
524.5772, 21730.53
525.0593, 21358.31
525.5414, 20975.77
526.0236, 20592.04
526.5057, 20254.98
526.9878, 19977.75
527.4699, 19713.16
527.9520, 19429.86
528.4341, 19134.05
528.9163, 18853.68
529.3984, 18590.44
529.8805, 18340.52
530.3626, 18101.28
530.8447, 17874.87
531.3268, 17666.17
531.8090, 17474.50
532.2911, 17284.65
532.7732, 17079.97
533.2553, 16865.03
533.7374, 16691.23
534.2195, 16590.96
534.7017, 16474.75
535.1838, 16303.04
535.6659, 16117.98
536.1480, 15956.08
536.6301, 15822.30
537.1122, 15698.21
537.5944, 15572.01
538.0765, 15448.53
538.5586, 15342.98
539.0407, 15254.40
539.5228, 15148.64
540.0049, 15003.61
540.4871, 14832.45
540.9692, 14665.13
541.4513, 14495.28
541.9334, 14342.75
542.4155, 14225.21
542.8976, 14109.80
543.3798, 13971.16
543.8619, 13814.38
544.3440, 13659.02
544.8261, 13518.29
545.3082, 13384.85
545.7903, 13246.55
546.2725, 13105.46
546.7546, 12945.34
547.2367, 12747.93
547.7188, 12548.11
548.2009, 12382.22
548.6830, 12242.57
549.1652, 12087.41
549.6473, 11889.28
550.1294, 11687.72
550.6115, 11516.61
551.0936, 11365.25
551.5757, 11205.66
552.0579, 11029.36
552.5400, 10844.84
553.0221, 10661.01
553.5042, 10475.50
553.9863, 10310.08
554.4684, 10198.51
554.9506, 10071.07
555.4327, 9889.175
555.9148, 9689.561
556.3969, 9523.374
556.8790, 9405.901
557.3611, 9297.087
557.8433, 9159.349
558.3254, 9000.758
558.8075, 8848.094
559.2896, 8703.872
559.7717, 8564.441
560.2538, 8430.347
560.7360, 8298.833
561.2181, 8160.791
561.7002, 7996.138
562.1823, 7858.147
562.6644, 7776.109
563.1465, 7708.845
563.6287, 7627.774
564.1108, 7528.425
564.5929, 7413.142
565.0750, 7278.964
565.5571, 7138.996
566.0392, 7035.891
566.5214, 6979.386
567.0035, 6916.001
567.4856, 6829.811
567.9677, 6737.085
568.4498, 6652.139
568.9319, 6574.245
569.4141, 6497.686
569.8962, 6404.583
570.3783, 6327.140
570.8604, 6308.782
571.3425, 6323.303
571.8246, 6306.652
572.3068, 6238.324
572.7889, 6155.262
573.2710, 6106.637
573.7531, 6098.748
574.2352, 6073.725
574.7173, 6011.299
575.1995, 5957.171
575.6816, 5926.914
576.1637, 5909.337
576.6458, 5892.690
577.1279, 5874.473
577.6100, 5852.006
578.0922, 5823.469
578.5743, 5789.172
579.0564, 5746.272
579.5385, 5694.906
580.0206, 5649.121
580.5027, 5617.378
580.9849, 5595.902
581.4670, 5575.235
581.9491, 5559.003
582.4312, 5537.087
582.9133, 5503.182
583.3954, 5469.191
583.8776, 5439.867
584.3597, 5416.779
584.8418, 5403.446
585.3239, 5404.245
585.8060, 5405.923
586.2881, 5385.354
586.7703, 5343.358
587.2524, 5301.083
587.7345, 5258.616
588.2166, 5225.151
588.6987, 5213.423
589.1808, 5219.455
589.6630, 5214.322
590.1451, 5182.853
590.6272, 5157.840
591.1093, 5154.361
591.5914, 5160.312
592.0735, 5162.807
592.5557, 5159.450
593.0378, 5153.147
593.5199, 5144.735
594.0020, 5136.494
594.4841, 5082.382
594.9662, 5094.339
595.4484, 5099.892
595.9305, 5099.389
596.4126, 5074.684
596.8947, 5081.229
597.3768, 5075.251
597.8589, 5068.760
598.3411, 5079.703
598.8232, 5101.215
599.3053, 5122.581
599.7874, 5153.453
600.2695, 5180.524
600.7516, 5199.002
601.2338, 5206.470
601.7159, 5195.370
602.1980, 5162.886
602.6801, 5158.871
603.1622, 5206.394
603.6443, 5246.897
604.1265, 5255.205
604.6086, 5251.267
605.0907, 5257.762
605.5728, 5278.527
606.0549, 5295.991
606.5370, 5289.730
607.0192, 5281.232
607.5013, 5304.495
607.9834, 5354.621
608.4655, 5397.309
608.9476, 5415.592
609.4297, 5422.390
609.9119, 5442.792
610.3940, 5482.792
610.8761, 5517.770
611.3582, 5544.673
611.8403, 5569.769
612.3224, 5592.511
612.8046, 5615.718
613.2867, 5644.588
613.7688, 5681.658
614.2509, 5717.999
614.7330, 5741.287
615.2151, 5759.942
615.6973, 5794.166
616.1794, 5845.104
616.6615, 5898.929
617.1436, 5948.482
617.6257, 5992.230
618.1078, 6024.501
618.5900, 6035.214
619.0721, 6052.002
619.5542, 6078.575
620.0363, 6107.200
620.5184, 6130.788
621.0005, 6153.543
621.4827, 6186.982
621.9648, 6239.029
622.4469, 6290.646
622.9290, 6315.934
623.4111, 6322.996
623.8932, 6340.734
624.3754, 6373.849
624.8575, 6410.882
625.3396, 6442.751
625.8217, 6472.153
626.3038, 6511.208
626.7859, 6581.354
627.2681, 6632.057
627.7502, 6641.820
628.2323, 6648.457
628.7144, 6676.769
629.1965, 6724.643
629.6786, 6780.021
630.1608, 6839.736
630.6429, 6896.008
631.1250, 6931.637
631.6071, 6952.228
632.0892, 6994.504
632.5714, 7069.189
633.0535, 7140.867
