##NAMES=Romerite
##RRUFFID=R060238
##IDEAL CHEMISTRY=Fe^2+^Fe^3+^_2_(S^6+^O_4_)_4_&#183;14H_2_O
##LOCALITY=Dexter no. 7 mine, Calf Mesa, San Rafael Swell, Emery County, Utah, USA
##OWNER=RRUFF
##SOURCE=University of Arizona Mineral Museum
##DESCRIPTION=Orange color massive blebs associated with voltaite and coquimbite
##STATUS=The identification of this mineral has been confirmed by single-crystal X-ray diffraction.
##URL=rruff.info/R060238
153.3740, 828.4412
153.8561, 830.4387
154.3383, 831.8250
154.8204, 832.1699
155.3025, 832.1245
155.7846, 832.6590
156.2667, 833.5709
156.7488, 835.6447
157.2310, 839.3761
157.7131, 844.0236
158.1952, 848.7478
158.6773, 853.0291
159.1594, 857.3527
159.6415, 863.6664
160.1237, 874.8909
160.6058, 884.7906
161.0879, 890.8182
161.5700, 895.1364
162.0521, 900.7358
162.5342, 909.5261
163.0164, 921.3984
163.4985, 933.8781
163.9806, 948.1146
164.4627, 961.8154
164.9448, 974.1746
165.4269, 985.4622
165.9091, 996.1562
166.3912, 1006.709
166.8733, 1017.073
167.3554, 1026.826
167.8375, 1036.134
168.3196, 1044.870
168.8018, 1053.290
169.2839, 1061.301
169.7660, 1068.006
170.2481, 1072.779
170.7302, 1075.349
171.2123, 1075.820
171.6945, 1073.964
172.1766, 1070.125
172.6587, 1064.826
173.1408, 1058.211
173.6229, 1049.443
174.1050, 1036.522
174.5872, 1020.562
175.0693, 1004.119
175.5514, 988.3662
176.0335, 972.4834
176.5156, 954.8641
176.9977, 934.8197
177.4799, 913.8019
177.9620, 892.6705
178.4441, 871.4141
178.9262, 850.2432
179.4083, 828.5798
179.8904, 806.6464
180.3726, 787.1685
180.8547, 770.9261
181.3368, 756.6536
181.8189, 744.1273
182.3010, 732.9788
182.7831, 722.4943
183.2653, 711.8763
183.7474, 701.0148
184.2295, 691.7040
184.7116, 685.1083
185.1937, 679.2266
185.6758, 673.2998
186.1580, 667.4599
186.6401, 662.3954
187.1222, 658.9268
187.6043, 657.4658
188.0864, 655.8479
188.5685, 653.2708
189.0507, 651.1927
189.5328, 650.7587
190.0149, 651.7917
190.4970, 652.9772
190.9791, 652.6496
191.4612, 649.7578
191.9434, 648.7230
192.4255, 650.3693
192.9076, 652.9911
193.3897, 655.6661
193.8718, 658.1593
194.3539, 660.5429
194.8361, 662.9101
195.3182, 665.3141
195.8003, 667.5419
196.2824, 669.9414
196.7645, 671.9866
197.2466, 673.2009
197.7288, 673.4776
198.2109, 672.9547
198.6930, 671.5577
199.1751, 669.1306
199.6572, 667.0208
200.1393, 665.9868
200.6215, 665.2312
201.1036, 663.4078
201.5857, 659.9614
202.0678, 656.2577
202.5499, 654.2432
203.0320, 653.7574
203.5142, 653.1237
203.9963, 651.6319
204.4784, 649.5624
204.9605, 647.2940
205.4426, 644.2287
205.9247, 642.2792
206.4069, 643.9268
206.8890, 648.6935
207.3711, 653.1279
207.8532, 654.5275
208.3353, 653.6794
208.8174, 654.5904
209.2996, 658.4592
209.7817, 663.5764
210.2638, 668.8032
210.7459, 674.0690
211.2280, 679.2768
211.7101, 684.1061
212.1923, 688.5743
212.6744, 693.8392
213.1565, 700.4993
213.6386, 707.5145
214.1207, 714.3967
214.6028, 721.1091
215.0850, 727.9005
215.5671, 735.4453
216.0492, 744.1447
216.5313, 750.5744
217.0134, 752.3468
217.4955, 753.6537
217.9777, 755.8619
218.4598, 759.0859
218.9419, 762.9063
219.4240, 766.9408
219.9061, 771.2177
220.3882, 775.5864
220.8704, 780.7730
221.3525, 785.4675
221.8346, 788.9051
222.3167, 791.1964
222.7988, 792.9974
223.2809, 794.8654
223.7631, 796.5788
224.2452, 799.4346
224.7273, 804.6015
225.2094, 809.6791
225.6915, 813.3274
226.1736, 815.6005
226.6558, 817.5134
227.1379, 820.2036
227.6200, 824.0522
228.1021, 826.7816
228.5842, 827.5406
229.0663, 828.0701
229.5485, 829.6229
230.0306, 832.1022
230.5127, 834.3149
230.9948, 834.9877
231.4769, 833.7473
231.9590, 832.8994
232.4412, 833.0761
232.9233, 833.1266
233.4054, 831.8802
233.8875, 829.4600
234.3696, 827.4113
234.8517, 827.3430
235.3339, 829.5547
235.8160, 830.9850
236.2981, 830.6924
236.7802, 830.3159
237.2623, 830.5797
237.7444, 831.6487
238.2266, 834.3419
238.7087, 839.8063
239.1908, 848.0001
239.6729, 855.6734
240.1550, 862.6439
240.6371, 869.0696
241.1193, 874.3232
241.6014, 878.4491
242.0835, 883.7454
242.5656, 892.2901
243.0477, 903.6267
243.5298, 915.4293
244.0120, 927.5684
244.4941, 940.0134
244.9762, 952.3204
245.4583, 964.4719
245.9404, 978.0120
246.4225, 994.9855
246.9047, 1013.985
247.3868, 1031.843
247.8689, 1047.756
248.3510, 1062.743
248.8331, 1077.773
249.3152, 1092.869
249.7974, 1108.020
250.2795, 1122.691
250.7616, 1137.735
251.2437, 1154.247
251.7258, 1172.965
252.2079, 1192.559
252.6901, 1211.967
253.1722, 1231.158
253.6543, 1249.549
254.1364, 1266.125
254.6185, 1281.847
255.1006, 1297.738
255.5828, 1314.070
256.0649, 1330.245
256.5470, 1345.484
257.0291, 1359.764
257.5112, 1373.293
257.9933, 1386.467
258.4755, 1398.723
258.9576, 1409.763
259.4397, 1419.479
259.9218, 1427.593
260.4039, 1434.115
260.8860, 1439.338
261.3682, 1441.298
261.8503, 1438.552
262.3324, 1432.742
262.8145, 1424.086
263.2966, 1412.685
263.7787, 1399.731
264.2609, 1386.475
264.7430, 1373.027
265.2251, 1358.596
265.7072, 1344.062
266.1893, 1327.752
266.6714, 1307.874
267.1536, 1284.570
267.6357, 1260.325
268.1178, 1237.778
268.5999, 1217.464
269.0820, 1196.031
269.5641, 1170.875
270.0463, 1146.518
270.5284, 1125.522
271.0105, 1107.556
271.4926, 1090.355
271.9747, 1071.799
272.4568, 1051.612
272.9390, 1031.819
273.4211, 1011.746
273.9032, 992.7118
274.3853, 975.4729
274.8674, 959.6252
275.3495, 944.3604
275.8317, 928.7716
276.3138, 912.8959
276.7959, 898.2299
277.2780, 886.0867
277.7601, 874.0613
278.2422, 861.6152
278.7244, 848.8726
279.2065, 836.3290
279.6886, 824.3777
280.1707, 812.9177
280.6528, 801.0960
281.1349, 787.4598
281.6171, 775.1381
282.0992, 765.5731
282.5813, 757.5704
283.0634, 749.3583
283.5455, 739.9601
284.0276, 729.5765
284.5098, 719.0629
284.9919, 707.2009
285.4740, 696.8226
285.9561, 689.3571
286.4382, 683.1497
286.9203, 676.1104
287.4025, 667.3146
287.8846, 657.6434
288.3667, 649.5402
288.8488, 644.7445
289.3309, 639.1193
289.8130, 631.4955
290.2952, 623.4785
290.7773, 616.7418
291.2594, 611.8058
291.7415, 607.5813
292.2236, 602.0752
292.7057, 594.3293
293.1879, 586.8460
293.6700, 579.4510
294.1521, 572.3898
294.6342, 566.3823
295.1163, 561.3234
295.5984, 555.8919
296.0806, 548.1104
296.5627, 536.4617
297.0448, 526.9319
297.5269, 520.3709
298.0090, 514.8428
298.4911, 509.9395
298.9733, 505.1995
299.4554, 499.6309
299.9375, 492.0603
300.4196, 481.9797
300.9017, 473.2130
301.3839, 466.5861
301.8660, 460.2013
302.3481, 453.0866
302.8302, 445.4647
303.3123, 438.1308
303.7944, 431.7049
304.2766, 426.1588
304.7587, 420.0738
305.2408, 412.3324
305.7229, 405.2478
306.2050, 399.9330
306.6871, 395.6652
307.1693, 391.1015
307.6514, 385.4576
308.1335, 379.0305
308.6156, 373.3501
309.0977, 369.4023
309.5798, 365.0550
310.0620, 359.6132
310.5441, 353.7978
311.0262, 348.5020
311.5083, 344.0697
311.9904, 340.2602
312.4725, 336.5694
312.9547, 332.4737
313.4368, 329.2580
313.9189, 327.5978
314.4010, 326.3799
314.8831, 324.8447
315.3652, 322.7352
315.8474, 319.8990
316.3295, 316.0386
316.8116, 310.4492
317.2937, 305.6432
317.7758, 301.1674
318.2579, 297.6893
318.7401, 296.4513
319.2222, 297.0065
319.7043, 297.1648
320.1864, 294.5639
320.6685, 288.6158
321.1506, 284.8004
321.6328, 284.8451
322.1149, 284.9542
322.5970, 283.2866
323.0791, 280.4070
323.5612, 278.0780
324.0433, 277.6146
324.5255, 278.7459
325.0076, 278.5124
325.4897, 275.3548
325.9718, 272.5946
326.4539, 271.3118
326.9360, 270.6676
327.4182, 269.2340
327.9003, 266.2906
328.3824, 262.5998
328.8645, 260.3143
329.3466, 260.7011
329.8287, 260.8965
330.3109, 260.6216
330.7930, 260.1991
331.2751, 260.0040
331.7572, 260.1155
332.2393, 260.2287
332.7214, 259.8281
333.2036, 258.5246
333.6857, 257.6080
334.1678, 257.7461
334.6499, 257.6766
335.1320, 256.2615
335.6141, 253.6891
336.0963, 251.2262
336.5784, 250.1841
337.0605, 250.7305
337.5426, 251.2401
338.0247, 251.1556
338.5068, 251.5899
338.9890, 253.4419
339.4711, 256.1100
339.9532, 258.3705
340.4353, 259.4225
340.9174, 259.3843
341.3995, 259.0331
341.8817, 258.1170
342.3638, 257.1662
342.8459, 255.9638
343.3280, 254.8772
343.8101, 254.3797
344.2922, 254.6723
344.7744, 255.4638
345.2565, 256.1891
345.7386, 257.0861
346.2207, 257.4029
346.7028, 256.3815
347.1849, 255.3432
347.6671, 255.6470
348.1492, 257.3341
348.6313, 258.9367
349.1134, 258.3505
349.5955, 254.7700
350.0776, 252.5789
350.5598, 252.7732
351.0419, 253.5025
351.5240, 254.2684
352.0061, 254.9618
352.4882, 255.5472
352.9703, 255.9397
353.4525, 256.1823
353.9346, 256.7068
354.4167, 257.6941
354.8988, 258.7441
355.3809, 259.8011
355.8630, 260.8277
356.3452, 261.7960
356.8273, 262.7105
357.3094, 263.5031
357.7915, 264.0218
358.2736, 264.2362
358.7557, 264.2379
359.2379, 263.6676
359.7200, 263.1382
360.2021, 263.2487
360.6842, 264.1042
361.1663, 265.0741
361.6484, 265.2025
362.1306, 264.3391
362.6127, 264.4894
363.0948, 266.6734
363.5769, 269.2062
364.0590, 271.4242
364.5411, 273.2247
365.0233, 274.4381
365.5054, 274.5926
365.9875, 274.0020
366.4696, 274.0512
366.9517, 274.9043
367.4338, 276.1066
367.9160, 277.6391
368.3981, 279.2933
368.8802, 280.7168
369.3623, 281.6635
369.8444, 282.5210
370.3265, 284.0031
370.8087, 286.2295
371.2908, 288.0708
371.7729, 288.9784
372.2550, 289.3468
372.7371, 289.4560
373.2192, 289.2638
373.7014, 289.2846
374.1835, 289.9949
374.6656, 291.2670
375.1477, 292.6116
375.6298, 294.0973
376.1119, 295.3230
376.5941, 295.5967
377.0762, 295.1266
377.5583, 295.1740
378.0404, 296.5900
378.5225, 298.6300
379.0046, 300.2188
379.4868, 301.2674
379.9689, 302.1316
380.4510, 302.9273
380.9331, 303.7387
381.4152, 304.8190
381.8973, 306.5388
382.3795, 308.1276
382.8616, 308.7924
383.3437, 308.8133
383.8258, 309.3478
384.3079, 310.9472
384.7900, 313.1842
385.2722, 315.2603
385.7543, 317.1516
386.2364, 319.0224
386.7185, 321.0885
387.2006, 323.0796
387.6827, 324.6119
388.1649, 325.6087
388.6470, 326.3370
389.1291, 327.0561
389.6112, 327.7672
390.0933, 328.3927
390.5754, 328.6697
391.0576, 329.0932
391.5397, 330.0078
392.0218, 331.3418
392.5039, 332.8991
392.9860, 334.6389
393.4681, 336.4092
393.9503, 337.4118
394.4324, 337.1135
394.9145, 336.7783
395.3966, 336.7420
395.8787, 336.7031
396.3608, 336.2241
396.8430, 335.1875
397.3251, 333.9521
397.8072, 333.0795
398.2893, 332.8180
398.7714, 332.2326
399.2535, 331.3892
399.7357, 330.2216
400.2178, 328.3828
400.6999, 326.1264
401.1820, 324.1708
401.6641, 323.0747
402.1462, 322.7886
402.6284, 322.6046
403.1105, 323.1669
403.5926, 323.0213
404.0747, 321.2487
404.5568, 318.9087
405.0389, 317.3154
405.5211, 316.9762
406.0032, 317.2262
406.4853, 316.8742
406.9674, 315.6569
407.4495, 314.6388
407.9316, 313.6781
408.4138, 313.1418
408.8959, 313.3058
409.3780, 314.1363
409.8601, 315.3823
410.3422, 317.0292
410.8243, 318.9876
411.3065, 320.5509
411.7886, 321.6126
412.2707, 322.4393
412.7528, 322.7279
413.2349, 322.9916
413.7170, 324.0369
414.1992, 326.2838
414.6813, 329.0836
415.1634, 331.5098
415.6455, 333.5247
416.1276, 335.9459
416.6097, 339.4780
417.0919, 343.0962
417.5740, 345.6115
418.0561, 346.9857
418.5382, 348.4753
419.0203, 350.7045
419.5024, 353.5301
419.9846, 356.8246
420.4667, 360.7249
420.9488, 364.3655
421.4309, 366.5359
421.9130, 367.8049
422.3951, 370.3097
422.8773, 375.2532
423.3594, 380.6542
423.8415, 385.6006
424.3236, 389.9633
424.8057, 393.0592
425.2878, 394.2645
425.7700, 394.6953
426.2521, 396.8370
426.7342, 401.1290
427.2163, 405.5023
427.6984, 410.1747
428.1805, 414.4681
428.6627, 417.2326
429.1448, 418.4991
429.6269, 419.9415
430.1090, 423.1573
430.5911, 428.2662
431.0732, 433.2231
431.5554, 438.2237
432.0375, 442.9161
432.5196, 446.7200
433.0017, 450.2460
433.4838, 454.5766
433.9659, 460.2091
434.4481, 466.5948
434.9302, 472.5399
435.4123, 477.4382
435.8944, 482.9760
436.3765, 489.0188
436.8586, 495.7133
437.3408, 503.2969
437.8229, 511.6595
438.3050, 520.3565
438.7871, 529.1091
439.2692, 537.9077
439.7513, 546.4913
440.2335, 554.2245
440.7156, 562.7258
441.1977, 572.9166
441.6798, 583.9295
442.1619, 594.7473
442.6440, 605.0964
443.1262, 614.9083
443.6083, 624.0286
444.0904, 632.3998
444.5725, 640.8273
445.0546, 649.6771
445.5367, 658.3409
446.0189, 666.6546
446.5010, 674.4965
446.9831, 681.1978
447.4652, 685.9675
447.9473, 689.4798
448.4294, 692.9063
448.9116, 696.2693
449.3937, 699.5151
449.8758, 702.4210
450.3579, 705.2558
450.8400, 708.5576
451.3221, 712.4003
451.8043, 716.5944
452.2864, 721.0349
452.7685, 725.7523
453.2506, 730.9283
453.7327, 736.6926
454.2148, 742.3854
454.6970, 747.0649
455.1791, 750.4699
455.6612, 754.8147
456.1433, 760.9899
456.6254, 767.3394
457.1075, 773.3365
457.5897, 778.7292
458.0718, 783.0616
458.5539, 786.0526
459.0360, 787.9887
459.5181, 789.8116
460.0002, 793.6436
460.4824, 794.3111
460.9645, 789.3279
461.4466, 782.8536
461.9287, 778.4249
462.4108, 776.2818
462.8929, 774.1951
463.3751, 769.8847
463.8572, 763.3303
464.3393, 757.2490
464.8214, 752.3196
465.3035, 747.0223
465.7856, 741.0418
466.2678, 734.4532
466.7499, 726.9645
467.2320, 718.3605
467.7141, 710.0417
468.1962, 704.4760
468.6783, 701.9495
469.1605, 698.6812
469.6426, 693.2687
470.1247, 687.8448
470.6068, 683.8199
471.0889, 681.0730
471.5710, 678.9933
472.0532, 678.1901
472.5353, 677.4855
473.0174, 674.6424
473.4995, 669.5657
473.9816, 664.7458
474.4637, 661.4718
474.9459, 659.1313
475.4280, 656.2015
475.9101, 652.1279
476.3922, 649.2011
476.8743, 649.9034
477.3564, 651.6379
477.8386, 650.3658
478.3207, 645.4561
478.8028, 639.4955
479.2849, 634.7969
479.7670, 631.3584
480.2491, 627.4656
480.7313, 622.6642
481.2134, 617.9714
481.6955, 614.3151
482.1776, 610.8402
482.6597, 606.2320
483.1418, 600.0347
483.6240, 592.6994
484.1061, 584.9877
484.5882, 576.7065
485.0703, 568.5863
485.5524, 560.8763
486.0345, 553.0436
486.5167, 545.2870
486.9988, 537.2411
487.4809, 528.0583
487.9630, 516.9698
488.4451, 504.9820
488.9272, 494.7195
489.4094, 487.0176
489.8915, 478.4716
490.3736, 467.3969
490.8557, 455.6622
491.3378, 444.1500
491.8199, 433.0669
492.3021, 422.5630
492.7842, 412.5365
493.2663, 403.2388
493.7484, 395.6710
494.2305, 390.1379
494.7126, 384.5177
495.1948, 377.5070
495.6769, 369.4642
496.1590, 361.3741
496.6411, 352.9585
497.1232, 345.0011
497.6053, 337.7900
498.0875, 331.2991
498.5696, 325.6540
499.0517, 320.9167
499.5338, 316.4044
500.0159, 311.3339
500.4980, 305.6111
500.9802, 300.8439
501.4623, 297.8351
501.9444, 294.7601
502.4265, 290.6392
502.9086, 286.0307
503.3907, 282.0181
503.8729, 279.0111
504.3550, 276.2944
504.8371, 272.5700
505.3192, 267.3446
505.8013, 262.4251
506.2834, 256.9651
506.7656, 252.6089
507.2477, 250.6694
507.7298, 250.4358
508.2119, 250.2961
508.6940, 249.4341
509.1761, 248.0267
509.6583, 246.4795
510.1404, 244.8727
510.6225, 242.6330
511.1046, 239.1317
511.5867, 235.3422
512.0688, 231.9322
512.5510, 228.9632
513.0331, 226.7025
513.5152, 225.5461
513.9973, 225.0561
514.4794, 224.8898
514.9615, 224.9968
515.4437, 224.4990
515.9258, 222.7361
516.4079, 220.1436
516.8900, 218.0360
517.3721, 216.4985
517.8542, 215.1467
518.3364, 213.7813
518.8185, 212.6284
519.3006, 212.0743
519.7827, 212.0719
520.2648, 212.1193
520.7469, 211.8400
521.2291, 211.2183
521.7112, 210.0033
522.1933, 206.8964
522.6754, 204.7973
523.1575, 204.7909
523.6396, 205.5692
524.1218, 206.0284
524.6039, 205.8432
525.0860, 205.0343
525.5681, 203.0830
526.0502, 200.0552
526.5323, 198.9435
527.0145, 201.0469
527.4966, 202.8288
527.9787, 202.3974
528.4608, 200.7219
528.9429, 198.9831
529.4250, 197.3209
529.9072, 196.0961
530.3893, 196.0821
530.8714, 196.7879
531.3535, 196.3313
531.8356, 194.0897
532.3177, 191.8521
532.7999, 191.4260
533.2820, 192.7430
533.7641, 193.4937
534.2462, 193.2270
534.7283, 192.8222
535.2104, 192.5267
535.6926, 192.4032
536.1747, 192.7538
536.6568, 193.6456
537.1389, 194.3279
537.6210, 193.6008
538.1031, 190.8717
538.5853, 189.3567
539.0674, 190.2195
539.5495, 190.9854
540.0316, 190.5105
540.5137, 189.4638
540.9958, 189.1944
541.4780, 190.3244
541.9601, 191.5644
542.4422, 190.5036
542.9243, 186.8797
543.4064, 184.6828
543.8885, 184.8967
544.3707, 186.0651
544.8528, 187.6364
545.3349, 189.3214
545.8170, 190.3141
546.2991, 190.0016
546.7813, 189.3029
547.2634, 189.1073
547.7455, 189.2761
548.2276, 189.2111
548.7097, 188.6830
549.1918, 188.0116
549.6740, 187.5638
550.1561, 187.3470
550.6382, 187.4697
551.1203, 188.3124
551.6024, 189.1226
552.0845, 189.5049
552.5667, 189.5612
553.0488, 189.5484
553.5309, 189.5773
554.0130, 189.5315
554.4951, 189.1074
554.9772, 187.9841
555.4594, 187.4685
555.9415, 187.8842
556.4236, 188.6227
556.9057, 189.8353
557.3878, 191.1506
557.8699, 191.8837
558.3521, 191.6473
558.8342, 190.9649
559.3163, 190.3938
559.7984, 189.9492
560.2805, 190.0939
560.7626, 191.3976
561.2448, 192.5190
561.7269, 191.5405
562.2090, 189.0191
562.6911, 187.6196
563.1732, 188.6209
563.6553, 190.1416
564.1375, 190.9993
564.6196, 191.4167
565.1017, 192.1030
565.5838, 193.3229
566.0659, 194.4441
566.5480, 194.4449
567.0302, 192.8150
567.5123, 192.3482
567.9944, 193.6196
568.4765, 195.2574
568.9586, 197.2387
569.4407, 199.1128
569.9229, 200.1561
570.4050, 200.1014
570.8871, 199.5710
571.3692, 199.4522
571.8513, 199.7715
572.3334, 199.8965
572.8156, 199.5389
573.2977, 199.3613
573.7798, 199.7716
574.2619, 200.6157
574.7440, 201.7021
575.2261, 203.2409
575.7083, 204.5014
576.1904, 204.6341
576.6725, 204.0983
577.1546, 203.9187
577.6367, 204.3033
578.1188, 205.3529
578.6010, 207.4486
579.0831, 210.5747
579.5652, 212.2028
580.0473, 210.9646
580.5294, 210.1068
581.0115, 210.8476
581.4937, 212.2537
581.9758, 213.0509
582.4579, 213.0530
582.9400, 213.2906
583.4221, 215.0428
583.9042, 218.2134
584.3864, 220.4678
584.8685, 221.3415
585.3506, 222.1373
585.8327, 223.3211
586.3148, 224.6459
586.7969, 225.8433
587.2791, 226.8706
587.7612, 227.9304
588.2433, 228.8512
588.7254, 229.9890
589.2075, 232.3456
589.6896, 235.9926
590.1718, 239.3727
590.6539, 241.4849
591.1360, 242.7226
591.6181, 244.2680
592.1002, 246.1686
592.5823, 248.2331
593.0645, 250.6068
593.5466, 253.0065
594.0287, 254.8773
594.5108, 256.5083
594.9929, 259.0887
595.4750, 263.5581
595.9572, 268.9777
596.4393, 272.4428
596.9214, 273.2275
597.4035, 274.1166
597.8856, 275.2861
598.3677, 276.8766
598.8499, 279.1015
599.3320, 281.8509
599.8141, 284.7656
600.2962, 287.9175
600.7783, 290.9241
601.2604, 293.0810
601.7426, 294.5676
602.2247, 296.7636
602.7068, 300.4151
603.1889, 303.7520
603.6710, 304.3896
604.1531, 301.8669
604.6353, 300.4610
605.1174, 300.5257
605.5995, 301.2918
606.0816, 303.4609
606.5637, 305.7593
607.0458, 305.9688
607.5280, 303.5941
608.0101, 300.6604
608.4922, 299.6835
608.9743, 300.7387
609.4564, 301.7480
609.9385, 303.1789
610.4207, 303.7658
610.9028, 302.7562
611.3849, 300.8795
611.8670, 298.9829
612.3491, 297.2433
612.8312, 295.0509
613.3134, 290.9036
613.7955, 286.4153
614.2776, 285.3386
614.7597, 287.8011
615.2418, 289.3312
615.7239, 287.1039
616.2061, 282.4847
616.6882, 279.2769
617.1703, 278.3887
617.6524, 277.1804
618.1345, 274.8874
618.6166, 272.7923
619.0988, 272.2497
619.5809, 272.6575
620.0630, 272.2151
620.5451, 269.8530
621.0272, 266.6591
621.5093, 264.9731
621.9915, 265.0779
622.4736, 264.6894
622.9557, 263.2741
623.4378, 261.6240
623.9199, 260.1323
624.4020, 258.8278
624.8842, 257.7965
625.3663, 257.0095
625.8484, 256.5695
626.3305, 256.8389
626.8126, 257.4500
627.2947, 257.6595
627.7769, 257.3192
628.2590, 256.6365
628.7411, 255.6336
629.2232, 254.4218
629.7053, 254.3889
630.1874, 256.3244
630.6696, 258.5118
631.1517, 261.0243
631.6338, 263.5820
632.1159, 266.0209
632.5980, 268.2942
633.0801, 270.3373
633.5623, 271.9413
634.0444, 273.4326
634.5265, 275.6839
635.0086, 278.7501
635.4907, 281.6819
635.9728, 284.0760
636.4550, 286.3968
636.9371, 289.2342
637.4192, 292.5444
637.9013, 295.7652
638.3834, 298.7812
638.8655, 301.7301
639.3477, 304.4727
639.8298, 307.2628
640.3119, 310.6967
640.7940, 314.9098
641.2761, 319.1801
641.7582, 322.6454
642.2404, 325.2743
642.7225, 328.2928
643.2046, 332.5833
643.6867, 335.8269
644.1688, 336.3462
644.6509, 336.3275
645.1331, 338.1737
645.6152, 342.0858
646.0973, 345.7711
646.5794, 347.6070
647.0615, 348.4792
647.5436, 350.1089
648.0258, 352.3453
648.5079, 353.2445
648.9900, 351.7964
