##NAMES=Romeite
##RRUFFID=R060323
##IDEAL CHEMISTRY=(Ca,Fe^2+^,Mn^2+^,Na)_2_(Sb^5+^,Ti^4+^)_2_O_6_(O,OH,F)
##LOCALITY=Praborna mine, Aosta Valley, St. Marcel, Italy
##OWNER=RRUFF
##SOURCE=Michael Scott
##DESCRIPTION=Yellowish-brown octahedra, associated with red piemontite, R060905. Note that this is a fluorine rich phase.
##STATUS=The identification of this mineral is confirmed by single-crystal X-ray diffraction and chemical analysis.
##URL=rruff.info/R060323
##MEASURED CHEMISTRY=dark: (Ca_1.44_[box]_0.25_Na_0.24_Fe^2+^_0.05_Mn^2+^_0.02_)_Σ=2_(Sb^5+^_1.74_Ti^4+^_0.26_)_Σ=2_O_6_(F_0.65_(OH)_0.35_)_Σ=1_ ; light: (Ca_1.33_[box]_0.32_Na_0.26_Fe^2+^_0.06_Mn^2+^_0.03_)_Σ=2_(Sb^5+^_1.90_Ti^4+^_0.10_)_Σ=2_O_6_(F_0.56_(OH)_0.44_)_Σ=1
90.01007, 0.0000000E+00
90.49219, 32.26807
90.97430, 33.13517
91.45642, 33.44459
91.93854, 32.55360
92.42065, 31.29313
92.90277, 31.01988
93.38489, 31.96444
93.86700, 33.21491
94.34912, 33.73444
94.83124, 33.59433
95.31335, 33.17926
95.79547, 32.37270
96.27759, 31.38857
96.75970, 31.20039
97.24182, 32.20428
97.72394, 33.74668
98.20605, 34.32326
98.68817, 33.83590
99.17029, 33.18507
99.65240, 33.22695
100.1345, 34.03809
100.6166, 34.35170
101.0988, 33.73071
101.5809, 32.33276
102.0630, 31.50451
102.5451, 31.36880
103.0272, 31.57051
103.5093, 31.78324
103.9915, 32.09783
104.4736, 32.16644
104.9557, 31.73966
105.4378, 30.60607
105.9199, 30.20980
106.4020, 30.93255
106.8842, 32.20258
107.3663, 33.05124
107.8484, 33.34734
108.3305, 33.36314
108.8126, 33.16843
109.2947, 32.62369
109.7769, 32.10015
110.2590, 31.60843
110.7411, 31.13757
111.2232, 30.66715
111.7053, 29.98121
112.1874, 29.44606
112.6696, 29.23256
113.1517, 29.74666
113.6338, 30.16334
114.1159, 30.40670
114.5980, 30.47407
115.0801, 30.35380
115.5623, 29.36310
116.0444, 28.50985
116.5265, 28.57233
117.0086, 31.00993
117.4907, 33.29869
117.9728, 34.44088
118.4550, 34.38091
118.9371, 33.98750
119.4192, 33.32651
119.9013, 32.62414
120.3834, 32.17976
120.8655, 32.15150
121.3477, 32.40148
121.8298, 32.92238
122.3119, 33.77254
122.7940, 34.56067
123.2761, 35.13514
123.7582, 35.45087
124.2404, 35.40759
124.7225, 34.31918
125.2046, 33.05851
125.6867, 32.79824
126.1688, 33.90406
126.6509, 35.54171
127.1331, 36.86269
127.6152, 37.93165
128.0973, 39.06979
128.5794, 40.47089
129.0615, 42.10368
129.5436, 43.86029
130.0258, 45.62397
130.5079, 47.60541
130.9900, 50.23644
131.4721, 53.49416
131.9542, 57.20266
132.4363, 61.34355
132.9185, 65.86602
133.4006, 70.32542
133.8827, 74.12302
134.3648, 77.81538
134.8469, 83.97615
135.3290, 92.90846
135.8112, 103.0223
136.2933, 112.1460
136.7754, 120.1853
137.2575, 129.2920
137.7396, 140.0313
138.2217, 152.2296
138.7039, 166.9902
139.1860, 185.1061
139.6681, 204.5805
140.1502, 222.7135
140.6323, 238.9695
141.1144, 255.0795
141.5966, 271.9099
142.0787, 289.7485
142.5608, 306.6402
143.0429, 322.5353
143.5250, 337.4828
144.0071, 351.3999
144.4893, 363.8305
144.9714, 375.7750
145.4535, 387.3216
145.9356, 397.6006
146.4177, 409.4809
146.8998, 423.3181
147.3820, 438.8437
147.8641, 455.5576
148.3462, 472.8736
148.8283, 491.7127
149.3104, 512.8312
149.7925, 537.4338
150.2747, 562.6249
150.7568, 587.9272
151.2389, 613.3588
151.7210, 639.2287
152.2031, 665.5070
152.6852, 691.9684
153.1674, 718.7712
153.6495, 748.8977
154.1316, 775.9977
154.6137, 797.8055
155.0958, 814.1966
155.5779, 832.0233
156.0601, 854.0627
156.5422, 877.0296
157.0243, 897.8542
157.5064, 915.3500
157.9885, 931.2664
158.4706, 945.6246
158.9528, 958.2463
159.4349, 971.0876
159.9170, 984.2695
160.3991, 998.0471
160.8812, 1012.715
161.3633, 1028.917
161.8455, 1045.578
162.3276, 1062.169
162.8097, 1078.243
163.2918, 1095.127
163.7739, 1113.322
164.2560, 1131.307
164.7382, 1141.509
165.2203, 1148.512
165.7024, 1156.780
166.1845, 1167.547
166.6666, 1181.203
167.1487, 1196.544
167.6309, 1215.931
168.1130, 1236.813
168.5951, 1253.412
169.0772, 1260.186
169.5593, 1263.376
170.0414, 1268.240
170.5236, 1276.080
171.0057, 1284.782
171.4878, 1293.853
171.9699, 1302.866
172.4520, 1310.320
172.9341, 1314.335
173.4163, 1316.810
173.8984, 1319.842
174.3805, 1323.651
174.8626, 1328.482
175.3447, 1335.734
175.8268, 1344.770
176.3090, 1352.664
176.7911, 1356.323
177.2732, 1357.680
177.7553, 1359.756
178.2374, 1363.181
178.7195, 1367.773
179.2017, 1374.155
179.6838, 1382.124
180.1659, 1389.205
180.6480, 1392.854
181.1301, 1394.204
181.6122, 1395.945
182.0944, 1398.706
182.5765, 1402.352
183.0586, 1407.133
183.5407, 1412.952
184.0228, 1418.735
184.5049, 1423.027
184.9871, 1426.322
185.4692, 1430.292
185.9513, 1436.156
186.4334, 1442.799
186.9155, 1447.529
187.3976, 1450.215
187.8798, 1452.324
188.3619, 1455.551
188.8440, 1459.688
189.3261, 1463.156
189.8082, 1464.964
190.2903, 1465.724
190.7725, 1468.094
191.2546, 1472.444
191.7367, 1476.614
192.2188, 1477.344
192.7009, 1474.871
193.1830, 1473.663
193.6652, 1476.554
194.1473, 1482.552
194.6294, 1484.756
195.1115, 1482.495
195.5936, 1478.712
196.0757, 1477.113
196.5579, 1477.741
197.0400, 1479.160
197.5221, 1481.284
198.0042, 1484.003
198.4863, 1485.442
198.9684, 1485.312
199.4506, 1484.550
199.9327, 1484.592
200.4148, 1485.533
200.8969, 1486.410
201.3790, 1486.935
201.8611, 1487.107
202.3433, 1486.529
202.8254, 1484.851
203.3075, 1482.928
203.7896, 1482.484
204.2717, 1483.836
204.7538, 1484.904
205.2360, 1484.861
205.7181, 1483.662
206.2002, 1481.492
206.6823, 1477.908
207.1644, 1473.873
207.6465, 1471.388
208.1287, 1470.959
208.6108, 1470.427
209.0929, 1468.852
209.5750, 1466.099
210.0571, 1462.980
210.5392, 1459.109
211.0214, 1455.260
211.5035, 1453.473
211.9856, 1454.797
212.4677, 1455.415
212.9498, 1452.988
213.4319, 1446.232
213.9140, 1442.232
214.3962, 1442.117
214.8783, 1444.080
215.3604, 1443.686
215.8425, 1439.745
216.3246, 1436.055
216.8067, 1434.594
217.2889, 1436.337
217.7710, 1436.833
218.2531, 1435.630
218.7352, 1433.300
219.2173, 1431.145
219.6994, 1429.138
220.1816, 1427.305
220.6637, 1425.609
221.1458, 1423.998
221.6279, 1422.797
222.1100, 1422.547
222.5921, 1422.533
223.0743, 1420.522
223.5564, 1415.145
224.0385, 1410.274
224.5206, 1408.057
225.0027, 1409.851
225.4848, 1410.575
225.9670, 1409.694
226.4491, 1407.876
226.9312, 1406.878
227.4133, 1407.124
227.8954, 1407.510
228.3775, 1407.494
228.8597, 1406.831
229.3418, 1406.295
229.8239, 1405.952
230.3060, 1405.660
230.7881, 1405.038
231.2702, 1403.757
231.7524, 1402.531
232.2345, 1401.686
232.7166, 1401.312
233.1987, 1401.086
233.6808, 1401.451
234.1629, 1401.853
234.6451, 1400.631
235.1272, 1396.739
235.6093, 1392.862
236.0914, 1390.372
236.5735, 1390.502
237.0556, 1389.184
237.5378, 1385.365
238.0199, 1380.462
238.5020, 1378.207
238.9841, 1380.099
239.4662, 1382.434
239.9483, 1383.756
240.4305, 1384.065
240.9126, 1383.207
241.3947, 1380.358
241.8768, 1376.570
242.3589, 1374.550
242.8410, 1375.163
243.3232, 1376.148
243.8053, 1376.523
244.2874, 1375.864
244.7695, 1375.602
245.2516, 1375.998
245.7337, 1376.683
246.2159, 1376.773
246.6980, 1375.823
247.1801, 1375.003
247.6622, 1374.813
248.1443, 1375.529
248.6264, 1376.106
249.1086, 1376.322
249.5907, 1376.530
250.0728, 1377.375
250.5549, 1378.681
251.0370, 1380.932
251.5191, 1384.709
252.0013, 1390.984
252.4834, 1395.251
252.9655, 1396.682
253.4476, 1396.535
253.9297, 1397.048
254.4118, 1398.278
254.8940, 1400.007
255.3761, 1402.218
255.8582, 1405.027
256.3403, 1407.910
256.8224, 1410.912
257.3046, 1413.970
257.7867, 1416.845
258.2688, 1419.326
258.7509, 1422.193
259.2330, 1425.932
259.7151, 1430.921
260.1973, 1434.679
260.6794, 1436.483
261.1615, 1437.730
261.6436, 1440.585
262.1257, 1445.904
262.6078, 1450.785
263.0900, 1454.028
263.5721, 1455.375
264.0542, 1457.799
264.5363, 1461.405
265.0184, 1465.943
265.5005, 1471.531
265.9827, 1478.707
266.4648, 1485.131
266.9469, 1489.770
267.4290, 1492.537
267.9111, 1496.463
268.3932, 1502.063
268.8754, 1507.959
269.3575, 1512.582
269.8396, 1515.784
270.3217, 1518.379
270.8038, 1520.267
271.2859, 1521.555
271.7681, 1524.017
272.2502, 1528.043
272.7323, 1532.461
273.2144, 1535.703
273.6965, 1537.388
274.1786, 1540.191
274.6608, 1545.382
275.1429, 1552.357
275.6250, 1556.525
276.1071, 1557.182
276.5892, 1557.059
277.0714, 1558.426
277.5535, 1561.346
278.0356, 1565.368
278.5177, 1570.967
278.9998, 1577.483
279.4819, 1581.972
279.9641, 1584.190
280.4462, 1585.657
280.9283, 1587.385
281.4104, 1589.362
281.8925, 1591.901
282.3746, 1595.303
282.8568, 1599.108
283.3389, 1601.791
283.8210, 1603.191
284.3031, 1604.634
284.7852, 1607.160
285.2673, 1610.670
285.7495, 1614.031
286.2316, 1617.054
286.7137, 1619.860
287.1958, 1622.739
287.6779, 1625.678
288.1600, 1628.473
288.6422, 1631.345
289.1243, 1634.127
289.6064, 1635.319
290.0885, 1634.466
290.5706, 1632.897
291.0527, 1632.744
291.5349, 1633.953
292.0170, 1635.543
292.4991, 1637.203
292.9812, 1638.875
293.4633, 1640.552
293.9454, 1642.500
294.4276, 1643.483
294.9097, 1640.958
295.3918, 1635.583
295.8739, 1630.836
296.3560, 1628.608
296.8381, 1628.187
297.3203, 1628.319
297.8024, 1629.057
298.2845, 1629.474
298.7666, 1628.788
299.2487, 1627.010
299.7308, 1624.162
300.2130, 1619.160
300.6951, 1613.497
301.1772, 1609.823
301.6593, 1608.155
302.1414, 1606.868
302.6235, 1604.508
303.1057, 1601.542
303.5878, 1599.015
304.0699, 1598.101
304.5520, 1597.131
305.0341, 1593.638
305.5162, 1587.928
305.9984, 1582.377
306.4805, 1579.025
306.9626, 1576.829
307.4447, 1574.490
307.9268, 1571.954
308.4089, 1568.665
308.8911, 1563.647
309.3732, 1557.250
309.8553, 1550.964
310.3374, 1545.251
310.8195, 1540.238
311.3016, 1536.100
311.7838, 1532.830
312.2659, 1530.548
312.7480, 1530.674
313.2301, 1532.029
313.7122, 1531.680
314.1943, 1526.497
314.6765, 1520.272
315.1586, 1515.759
315.6407, 1513.748
316.1228, 1512.124
316.6049, 1510.091
317.0870, 1507.773
317.5692, 1505.406
318.0513, 1502.904
318.5334, 1500.453
319.0155, 1498.149
319.4976, 1495.974
319.9797, 1493.793
320.4619, 1491.125
320.9440, 1488.527
321.4261, 1486.654
321.9082, 1486.067
322.3903, 1485.785
322.8724, 1485.955
323.3546, 1486.596
323.8367, 1486.011
324.3188, 1482.412
324.8009, 1478.292
325.2830, 1475.600
325.7651, 1475.396
326.2473, 1475.745
326.7294, 1477.046
327.2115, 1479.060
327.6936, 1479.811
328.1757, 1477.461
328.6578, 1475.104
329.1400, 1474.288
329.6221, 1476.930
330.1042, 1478.506
330.5863, 1478.357
331.0684, 1477.083
331.5505, 1476.469
332.0327, 1476.816
332.5148, 1477.408
332.9969, 1477.931
333.4790, 1478.172
333.9611, 1478.851
334.4432, 1480.154
334.9254, 1481.771
335.4075, 1483.075
335.8896, 1483.650
336.3717, 1484.834
336.8538, 1487.519
337.3359, 1492.081
337.8180, 1494.001
338.3001, 1491.988
338.7823, 1489.336
339.2644, 1490.339
339.7465, 1496.116
340.2286, 1500.650
340.7107, 1502.253
341.1928, 1501.339
341.6750, 1500.489
342.1571, 1499.550
342.6392, 1499.130
343.1213, 1500.281
343.6034, 1503.025
344.0855, 1504.181
344.5677, 1502.635
345.0498, 1499.774
345.5319, 1499.268
346.0140, 1501.195
346.4961, 1503.333
346.9782, 1503.943
347.4604, 1503.453
347.9425, 1504.002
348.4246, 1506.003
348.9067, 1508.528
349.3888, 1510.726
349.8709, 1512.488
350.3531, 1513.122
350.8352, 1511.526
351.3173, 1508.761
351.7994, 1506.903
352.2815, 1506.086
352.7636, 1505.542
353.2458, 1504.336
353.7279, 1502.845
354.2100, 1501.905
354.6921, 1502.589
355.1742, 1503.437
355.6563, 1502.791
356.1385, 1500.740
356.6206, 1498.304
357.1027, 1494.982
357.5848, 1492.101
358.0669, 1491.416
358.5490, 1494.952
359.0312, 1498.430
359.5133, 1499.020
359.9954, 1497.310
360.4775, 1495.175
360.9596, 1494.294
361.4417, 1492.771
361.9239, 1488.754
362.4060, 1480.640
362.8881, 1473.915
363.3702, 1471.757
363.8523, 1472.064
364.3344, 1471.613
364.8166, 1469.306
365.2987, 1466.248
365.7808, 1462.714
366.2629, 1458.627
366.7450, 1454.770
367.2271, 1451.021
367.7093, 1447.702
368.1914, 1445.094
368.6735, 1444.262
369.1556, 1443.006
369.6377, 1440.934
370.1198, 1438.127
370.6020, 1435.330
371.0841, 1431.968
371.5662, 1429.137
372.0483, 1427.493
372.5304, 1427.649
373.0125, 1427.897
373.4947, 1428.810
373.9768, 1429.575
374.4589, 1427.879
374.9410, 1422.107
375.4231, 1417.181
375.9052, 1415.204
376.3874, 1416.605
376.8695, 1417.547
377.3516, 1417.900
377.8337, 1418.040
378.3158, 1418.492
378.7979, 1419.315
379.2801, 1420.036
379.7622, 1420.568
380.2443, 1420.894
380.7264, 1420.763
381.2085, 1420.072
381.6906, 1419.621
382.1728, 1420.157
382.6549, 1421.568
383.1370, 1423.189
383.6191, 1425.007
384.1012, 1426.812
384.5833, 1428.231
385.0655, 1429.308
385.5476, 1430.381
386.0297, 1431.860
386.5118, 1433.438
386.9939, 1434.484
387.4760, 1434.874
387.9582, 1435.219
388.4403, 1436.138
388.9224, 1437.448
389.4045, 1438.755
389.8866, 1439.984
390.3687, 1441.096
390.8509, 1441.871
391.3330, 1442.353
391.8151, 1443.123
392.2972, 1444.781
392.7793, 1446.757
393.2614, 1448.507
393.7436, 1449.713
394.2257, 1450.882
394.7078, 1452.013
395.1899, 1453.244
395.6720, 1454.929
396.1541, 1457.716
396.6363, 1460.580
397.1184, 1463.037
397.6005, 1464.957
398.0826, 1466.766
398.5647, 1469.092
399.0468, 1471.165
399.5290, 1472.048
400.0111, 1470.103
400.4932, 1468.667
400.9753, 1468.182
401.4574, 1468.651
401.9395, 1470.167
402.4217, 1473.767
402.9038, 1477.313
403.3859, 1479.240
403.8680, 1478.601
404.3501, 1478.550
404.8322, 1479.310
405.3144, 1480.767
405.7965, 1482.744
406.2786, 1485.452
406.7607, 1488.006
407.2428, 1489.990
407.7249, 1491.396
408.2071, 1492.744
408.6892, 1494.148
409.1713, 1495.165
409.6534, 1495.006
410.1355, 1493.733
410.6176, 1492.581
411.0998, 1491.868
411.5819, 1491.538
412.0640, 1491.157
412.5461, 1490.770
413.0282, 1491.409
413.5103, 1495.211
413.9925, 1500.435
414.4746, 1503.133
414.9567, 1501.991
415.4388, 1500.209
415.9209, 1501.498
416.4030, 1504.794
416.8852, 1507.484
417.3673, 1508.099
417.8494, 1507.632
418.3315, 1506.764
418.8136, 1505.537
419.2957, 1504.099
419.7779, 1501.962
420.2600, 1499.908
420.7421, 1498.758
421.2242, 1499.203
421.7063, 1500.112
422.1884, 1501.529
422.6706, 1503.226
423.1527, 1504.381
423.6348, 1503.778
424.1169, 1503.424
424.5990, 1504.553
425.0811, 1508.838
425.5633, 1510.946
426.0454, 1508.871
426.5275, 1505.328
427.0096, 1503.715
427.4917, 1504.868
427.9738, 1506.791
428.4560, 1509.619
428.9381, 1513.253
429.4202, 1514.773
429.9023, 1513.220
430.3844, 1511.275
430.8665, 1510.981
431.3487, 1512.627
431.8308, 1514.005
432.3129, 1514.712
432.7950, 1515.303
433.2771, 1517.130
433.7592, 1520.215
434.2414, 1523.204
434.7235, 1525.300
435.2056, 1526.749
435.6877, 1528.640
436.1698, 1530.993
436.6519, 1533.338
437.1341, 1535.168
437.6162, 1536.591
438.0983, 1537.943
438.5804, 1539.345
439.0625, 1540.687
439.5446, 1541.888
440.0268, 1542.947
440.5089, 1543.836
440.9910, 1544.097
441.4731, 1544.463
441.9552, 1545.882
442.4373, 1548.732
442.9195, 1551.072
443.4016, 1551.003
443.8837, 1550.170
444.3658, 1550.574
444.8479, 1553.890
445.3300, 1557.446
445.8122, 1560.076
446.2943, 1561.959
446.7764, 1565.005
447.2585, 1571.312
447.7406, 1577.440
448.2227, 1581.605
448.7049, 1582.550
449.1870, 1583.868
449.6691, 1585.775
450.1512, 1587.943
450.6333, 1589.753
451.1154, 1590.857
451.5976, 1592.386
452.0797, 1594.723
452.5618, 1597.809
453.0439, 1600.693
453.5260, 1603.224
454.0081, 1605.830
454.4903, 1609.015
454.9724, 1612.738
455.4545, 1615.898
455.9366, 1618.143
456.4187, 1620.171
456.9008, 1623.218
457.3830, 1627.206
457.8651, 1631.160
458.3472, 1634.389
458.8293, 1637.410
459.3114, 1641.731
459.7935, 1647.302
460.2757, 1652.118
460.7578, 1653.458
461.2399, 1653.321
461.7220, 1654.571
462.2041, 1658.641
462.6862, 1663.099
463.1684, 1666.205
463.6505, 1668.500
464.1326, 1671.176
464.6147, 1675.024
465.0968, 1679.114
465.5789, 1683.090
466.0611, 1687.000
466.5432, 1690.145
467.0253, 1691.535
467.5074, 1692.506
467.9895, 1694.166
468.4716, 1697.027
468.9538, 1700.043
469.4359, 1703.183
469.9180, 1706.418
470.4001, 1709.687
470.8822, 1713.031
471.3643, 1716.372
471.8465, 1719.960
472.3286, 1723.988
472.8107, 1726.069
473.2928, 1725.476
473.7749, 1724.744
474.2570, 1727.211
474.7392, 1732.859
475.2213, 1737.488
475.7034, 1739.640
476.1855, 1740.932
476.6676, 1745.335
477.1497, 1752.499
477.6319, 1758.972
478.1140, 1761.094
478.5961, 1761.706
479.0782, 1765.929
479.5603, 1774.270
480.0424, 1783.584
480.5246, 1791.223
481.0067, 1798.256
481.4888, 1806.238
481.9709, 1816.440
482.4530, 1826.886
482.9352, 1835.473
483.4173, 1843.275
483.8994, 1853.700
484.3815, 1870.316
484.8636, 1887.881
485.3457, 1903.524
485.8279, 1916.141
486.3100, 1930.550
486.7921, 1947.128
487.2742, 1965.685
487.7563, 1986.283
488.2384, 2009.154
488.7206, 2033.913
489.2027, 2060.680
489.6848, 2089.267
490.1669, 2118.366
490.6490, 2146.968
491.1311, 2178.459
491.6133, 2213.877
492.0954, 2253.355
492.5775, 2297.176
493.0596, 2345.422
493.5417, 2396.872
494.0238, 2450.351
494.5060, 2505.980
494.9881, 2563.194
495.4702, 2620.300
495.9523, 2680.545
496.4344, 2747.539
496.9165, 2820.832
497.3987, 2898.409
497.8808, 2980.540
498.3629, 3066.473
498.8450, 3155.458
499.3271, 3248.187
499.8092, 3343.848
500.2914, 3443.568
500.7735, 3545.750
501.2556, 3651.669
501.7377, 3761.276
502.2198, 3873.213
502.7019, 3988.827
503.1841, 4107.084
503.6662, 4225.942
504.1483, 4345.905
504.6304, 4468.054
505.1125, 4592.531
505.5946, 4719.789
506.0768, 4844.346
506.5589, 4963.189
507.0410, 5082.647
507.5231, 5208.544
508.0052, 5341.458
508.4873, 5474.905
508.9695, 5606.351
509.4516, 5736.985
509.9337, 5868.109
510.4158, 5999.670
510.8979, 6130.112
511.3800, 6261.463
511.8622, 6391.427
512.3443, 6518.469
512.8264, 6641.235
513.3085, 6755.202
513.7906, 6856.874
514.2728, 6947.287
514.7549, 7030.097
515.2370, 7110.252
515.7191, 7169.783
516.2012, 7198.195
516.6833, 7198.447
517.1655, 7175.701
517.6476, 7133.042
518.1297, 7066.343
518.6118, 6974.370
519.0939, 6857.193
519.5760, 6714.900
520.0582, 6538.717
520.5403, 6345.251
521.0224, 6142.318
521.5045, 5926.356
521.9866, 5707.262
522.4688, 5481.233
522.9509, 5256.057
523.4330, 5036.485
523.9151, 4821.380
524.3972, 4617.151
524.8793, 4426.229
525.3615, 4248.715
525.8436, 4082.535
526.3257, 3927.059
526.8078, 3783.050
527.2899, 3650.925
527.7720, 3528.689
528.2542, 3413.415
528.7363, 3305.366
529.2184, 3204.932
529.7005, 3115.354
530.1826, 3034.043
530.6647, 2957.889
531.1469, 2887.321
531.6290, 2820.832
532.1111, 2758.800
532.5932, 2700.731
533.0753, 2645.855
533.5574, 2594.702
534.0396, 2545.396
534.5217, 2495.943
535.0038, 2446.534
535.4859, 2401.617
535.9680, 2364.468
536.4501, 2329.034
536.9323, 2291.693
537.4144, 2250.111
537.8965, 2212.275
538.3786, 2179.135
538.8607, 2148.733
539.3428, 2118.983
539.8250, 2089.632
540.3071, 2061.022
540.7892, 2033.568
541.2713, 2006.972
541.7534, 1981.563
542.2355, 1957.313
542.7177, 1933.920
543.1998, 1909.932
543.6819, 1886.837
544.1640, 1867.437
544.6461, 1851.997
545.1282, 1837.935
545.6104, 1823.943
546.0925, 1810.300
546.5746, 1797.284
547.0567, 1784.526
547.5388, 1773.012
548.0209, 1764.179
548.5031, 1756.885
548.9852, 1748.417
549.4673, 1735.637
549.9494, 1724.581
550.4315, 1717.487
550.9136, 1714.333
551.3958, 1709.208
551.8779, 1700.791
552.3600, 1692.624
552.8421, 1687.250
553.3242, 1685.066
553.8063, 1681.711
554.2885, 1676.659
554.7706, 1671.384
555.2527, 1668.242
555.7348, 1666.856
556.2169, 1664.809
556.6990, 1661.106
557.1812, 1656.777
557.6633, 1652.846
558.1454, 1649.446
558.6275, 1647.084
559.1096, 1647.153
559.5917, 1647.646
560.0739, 1646.976
560.5560, 1645.025
561.0381, 1642.557
561.5202, 1638.822
562.0023, 1635.370
562.4844, 1633.436
562.9666, 1634.985
563.4487, 1635.301
563.9308, 1633.233
564.4129, 1630.179
564.8950, 1628.189
565.3771, 1627.321
565.8593, 1627.462
566.3414, 1628.937
566.8235, 1631.340
567.3056, 1633.252
567.7877, 1634.787
568.2698, 1634.809
568.7520, 1631.165
569.2341, 1625.283
569.7162, 1623.036
570.1983, 1624.795
570.6804, 1627.376
571.1625, 1627.882
571.6447, 1627.221
572.1268, 1626.900
572.6089, 1627.521
573.0910, 1628.059
573.5731, 1627.798
574.0552, 1627.032
574.5374, 1626.262
575.0195, 1626.164
575.5016, 1625.606
575.9837, 1623.607
576.4658, 1620.414
576.9479, 1618.863
577.4301, 1619.869
577.9122, 1621.526
