##NAMES=Romeite
##RRUFFID=R060736
##IDEAL CHEMISTRY=(Ca,Fe^2+^,Mn^2+^,Na)_2_(Sb^5+^,Ti^4+^)_2_O_6_(O,OH,F)
##LOCALITY=Le Cetine di Cotorniano, Chiusdino, Siena Province, Tuscany, Italy
##OWNER=RRUFF
##SOURCE=Michael Scott
##DESCRIPTION=Brown octahedra associated with brizziite, R060611
##STATUS=The identification of this mineral is confirmed by single-crystal X-ray diffraction and chemical analysis.
##URL=rruff.info/R060736
##MEASURED CHEMISTRY=dark core: (Ca_1.06_Na_0.70_Fe^2+^_0.18_Mg_0.06_)_Σ=2_Sb^5+^_2.00_O_6_((OH)_0.70_O_0.30_)_Σ=1_; trace amounts of F; OH estimated by charge balance; rim: (Na_1.10_Sb^3+^_0.64_Fe^3+^_0.10_Mg_0.07_Ca_0.06_Mn_0.02_Pb_0.01_)_Σ=2_Sb^5+^_2.00_O_6_(OH); 
132.130, 6995.030
132.612, 7002.193
133.094, 7013.794
133.576, 7018.982
134.058, 7018.991
134.540, 7035.944
135.022, 7075.819
135.504, 7132.543
135.986, 7189.424
136.469, 7247.516
136.951, 7300.286
137.433, 7343.425
137.915, 7376.976
138.397, 7398.277
138.879, 7405.159
139.361, 7398.356
139.843, 7388.359
140.326, 7375.790
140.808, 7359.422
141.290, 7336.446
141.772, 7304.180
142.254, 7273.042
142.736, 7246.365
143.218, 7224.654
143.700, 7203.032
144.182, 7179.911
144.665, 7157.471
145.147, 7140.495
145.629, 7133.332
146.111, 7124.806
146.593, 7110.693
147.075, 7087.496
147.557, 7064.511
148.039, 7041.868
148.521, 7019.267
149.004, 6995.507
149.486, 6966.740
149.968, 6940.188
150.450, 6918.764
150.932, 6904.576
151.414, 6893.750
151.896, 6887.953
152.378, 6886.728
152.861, 6885.529
153.343, 6885.586
153.825, 6885.543
154.307, 6884.660
154.789, 6879.134
155.271, 6877.305
155.753, 6883.841
156.235, 6898.907
156.717, 6909.125
157.200, 6905.171
157.682, 6898.024
158.164, 6897.816
158.646, 6916.688
159.128, 6933.785
159.610, 6939.938
160.092, 6932.670
160.574, 6925.876
161.057, 6925.053
161.539, 6926.655
162.021, 6925.933
162.503, 6912.562
162.985, 6901.981
163.467, 6906.488
163.949, 6934.302
164.431, 6953.930
164.913, 6946.914
165.396, 6920.950
165.878, 6891.473
166.360, 6861.866
166.842, 6833.991
167.324, 6809.786
167.806, 6791.038
168.288, 6773.789
168.770, 6752.939
169.253, 6730.852
169.735, 6714.737
170.217, 6710.596
170.699, 6714.321
171.181, 6722.212
171.663, 6737.270
172.145, 6751.514
172.627, 6754.354
173.109, 6747.900
173.592, 6745.658
174.074, 6759.820
174.556, 6783.994
175.038, 6808.097
175.520, 6834.590
176.002, 6855.556
176.484, 6855.250
176.966, 6834.425
177.449, 6815.268
177.931, 6817.638
178.413, 6836.124
178.895, 6858.135
179.377, 6884.968
179.859, 6910.540
180.341, 6920.821
180.823, 6914.598
181.305, 6907.815
181.788, 6919.001
182.270, 6944.342
182.752, 6969.637
183.234, 6986.760
183.716, 6998.998
184.198, 7014.239
184.680, 7032.848
185.162, 7053.377
185.645, 7080.603
186.127, 7089.962
186.609, 7106.920
187.091, 7122.034
187.573, 7135.404
188.055, 7141.798
188.537, 7157.198
189.019, 7168.988
189.501, 7182.566
189.984, 7192.052
190.466, 7197.598
190.948, 7213.808
191.430, 7238.692
191.912, 7252.974
192.394, 7251.587
192.876, 7243.563
193.358, 7250.025
193.840, 7272.145
194.323, 7293.314
194.805, 7299.457
195.287, 7291.147
195.769, 7288.161
196.251, 7293.980
196.733, 7306.382
197.215, 7321.548
197.697, 7341.446
198.180, 7354.620
198.662, 7346.714
199.144, 7315.667
199.626, 7296.077
200.108, 7295.747
200.590, 7311.175
201.072, 7328.720
201.554, 7350.469
202.036, 7367.524
202.519, 7367.667
203.001, 7347.014
203.483, 7335.309
203.965, 7321.672
204.447, 7338.955
204.929, 7348.732
205.411, 7351.407
205.893, 7325.708
206.376, 7336.648
206.858, 7332.905
207.340, 7328.560
207.822, 7336.572
208.304, 7348.991
208.786, 7350.200
209.268, 7337.046
209.750, 7318.463
210.232, 7303.613
210.714, 7292.305
211.197, 7287.223
211.679, 7291.299
212.161, 7305.525
212.643, 7315.028
213.125, 7318.181
213.607, 7318.974
214.089, 7323.287
214.572, 7333.625
215.054, 7340.946
215.536, 7341.924
216.018, 7335.622
216.500, 7328.234
216.982, 7318.869
217.464, 7308.714
217.946, 7298.538
218.428, 7285.612
218.911, 7278.267
219.393, 7282.074
219.875, 7301.870
220.357, 7308.595
220.839, 7297.104
221.321, 7276.215
221.803, 7260.736
222.285, 7253.728
222.767, 7247.050
223.250, 7237.990
223.732, 7225.922
224.214, 7215.052
224.696, 7209.567
225.178, 7203.325
225.660, 7181.054
226.142, 7130.305
226.624, 7085.302
227.107, 7061.528
227.589, 7068.739
228.071, 7069.300
228.553, 7059.294
229.035, 7043.682
229.517, 7034.374
229.999, 7032.659
230.481, 7034.606
230.963, 7039.354
231.445, 7050.058
231.928, 7056.475
232.410, 7060.217
232.892, 7059.281
233.374, 7045.585
233.856, 7036.985
234.338, 7053.022
234.820, 7063.078
235.303, 7067.476
235.785, 7049.266
236.267, 7059.853
236.749, 7065.611
237.231, 7093.957
237.713, 7116.820
238.195, 7134.498
238.677, 7138.970
239.159, 7151.928
239.641, 7165.987
240.124, 7181.869
240.606, 7199.158
241.088, 7216.249
241.570, 7230.551
242.052, 7248.039
242.534, 7272.452
243.016, 7308.885
243.498, 7340.682
243.981, 7363.337
244.463, 7380.860
244.945, 7409.705
245.427, 7461.525
245.909, 7508.174
246.391, 7532.564
246.873, 7516.168
247.355, 7517.853
247.837, 7546.989
248.320, 7595.402
248.802, 7634.683
249.284, 7665.750
249.766, 7685.817
250.248, 7690.643
250.730, 7667.129
251.212, 7660.165
251.694, 7679.576
252.176, 7717.136
252.659, 7742.049
253.141, 7748.774
253.623, 7752.088
254.105, 7759.672
254.587, 7771.850
255.069, 7783.458
255.551, 7802.922
256.033, 7820.479
256.516, 7836.235
256.998, 7844.779
257.480, 7862.631
257.962, 7876.753
258.444, 7890.722
258.926, 7909.884
259.408, 7919.479
259.890, 7938.561
260.372, 7953.853
260.855, 7968.268
261.337, 7986.850
261.819, 8000.263
262.301, 8005.686
262.783, 8014.962
263.265, 8031.388
263.747, 8051.137
264.229, 8062.483
264.711, 8063.165
265.194, 8059.751
265.676, 8053.698
266.158, 8041.911
266.640, 8041.690
267.122, 8060.456
267.604, 8088.546
268.086, 8092.894
268.569, 8061.363
269.051, 8036.672
269.533, 8049.403
270.015, 8112.269
270.497, 8149.271
270.979, 8150.153
271.461, 8127.974
271.943, 8114.529
272.425, 8111.126
272.908, 8112.638
273.390, 8116.713
273.872, 8123.331
274.354, 8132.899
274.836, 8146.212
275.318, 8161.792
275.800, 8177.087
276.282, 8192.426
276.764, 8205.509
277.247, 8213.301
277.729, 8214.821
278.211, 8223.319
278.693, 8242.318
279.175, 8264.085
279.657, 8269.962
280.139, 8256.903
280.621, 8248.605
281.103, 8256.385
281.586, 8280.133
282.068, 8318.201
282.550, 8378.739
283.032, 8437.729
283.514, 8442.926
283.996, 8390.536
284.478, 8347.714
284.960, 8358.827
285.443, 8417.844
285.925, 8444.351
286.407, 8430.240
286.889, 8401.810
287.371, 8401.514
287.853, 8428.404
288.335, 8448.326
288.817, 8436.876
289.299, 8402.085
289.782, 8391.574
290.264, 8411.177
290.746, 8434.280
291.228, 8421.631
291.710, 8377.479
292.192, 8336.336
292.674, 8317.916
293.156, 8314.405
293.638, 8300.187
294.121, 8273.802
294.603, 8246.987
295.085, 8236.034
295.567, 8237.127
296.049, 8233.755
296.531, 8220.578
297.013, 8198.598
297.496, 8164.399
297.978, 8117.873
298.460, 8075.801
298.942, 8057.615
299.424, 8057.524
299.906, 8060.608
300.388, 8065.202
300.870, 8067.531
301.352, 8059.238
301.835, 8040.316
302.317, 8021.301
302.799, 8014.524
303.281, 8012.986
303.763, 8002.964
304.245, 7971.098
304.727, 7935.478
305.209, 7918.999
305.691, 7919.580
306.174, 7920.152
306.656, 7908.906
307.138, 7890.173
307.620, 7869.716
308.102, 7847.226
308.584, 7825.985
309.066, 7812.790
309.548, 7805.123
310.030, 7790.944
310.513, 7758.553
310.995, 7718.288
311.477, 7679.832
311.959, 7642.379
312.441, 7612.286
312.923, 7600.578
313.405, 7601.226
313.887, 7595.355
314.370, 7570.465
314.852, 7537.766
315.334, 7505.342
315.816, 7475.225
316.298, 7444.629
316.780, 7411.669
317.262, 7377.225
317.744, 7342.797
318.226, 7307.947
318.709, 7274.577
319.191, 7242.609
319.673, 7209.400
320.155, 7185.207
320.637, 7189.139
321.119, 7201.594
321.601, 7190.154
322.083, 7117.712
322.565, 7045.278
323.048, 6995.650
323.530, 6975.176
324.012, 6959.227
324.494, 6948.632
324.976, 6939.137
325.458, 6925.527
325.940, 6908.349
326.422, 6885.743
326.905, 6854.695
327.387, 6812.841
327.869, 6776.438
328.351, 6746.889
328.833, 6722.375
329.315, 6701.327
329.797, 6692.236
330.279, 6676.061
330.762, 6649.546
331.244, 6612.606
331.726, 6570.409
332.208, 6516.193
332.690, 6462.991
333.172, 6420.556
333.654, 6393.672
334.136, 6369.449
334.618, 6348.396
335.100, 6329.368
335.583, 6304.614
336.065, 6273.259
336.547, 6237.613
337.029, 6196.623
337.511, 6146.014
337.993, 6104.614
338.475, 6074.750
338.957, 6054.046
339.440, 6037.973
339.922, 6028.514
340.404, 6016.090
340.886, 5996.555
341.368, 5970.210
341.850, 5931.143
342.332, 5874.204
342.814, 5814.819
343.297, 5788.413
343.779, 5797.102
344.261, 5795.536
344.743, 5750.538
345.225, 5671.342
345.707, 5628.234
346.189, 5626.264
346.671, 5638.067
347.153, 5630.652
347.635, 5606.572
348.118, 5582.601
348.600, 5560.964
349.082, 5544.468
349.564, 5547.580
350.046, 5571.055
350.528, 5584.193
351.010, 5545.785
351.492, 5475.687
351.975, 5420.661
352.457, 5400.418
352.939, 5396.949
353.421, 5393.258
353.903, 5388.530
354.385, 5377.209
354.867, 5349.810
355.349, 5315.652
355.832, 5287.300
356.314, 5270.268
356.796, 5255.160
357.278, 5236.581
357.760, 5214.557
358.242, 5189.374
358.724, 5154.562
359.206, 5120.515
359.688, 5095.498
360.171, 5082.137
360.653, 5073.135
361.135, 5068.185
361.617, 5064.775
362.099, 5058.859
362.581, 5049.518
363.063, 5036.795
363.545, 5017.665
364.027, 4989.780
364.510, 4970.315
364.992, 4970.370
365.474, 4978.089
365.956, 4981.378
366.438, 4972.685
366.920, 4965.208
367.402, 4958.596
367.884, 4952.981
368.366, 4959.566
368.849, 4996.371
369.331, 5034.207
369.813, 5054.210
370.295, 5036.912
370.777, 5030.477
371.259, 5041.939
371.741, 5067.009
372.224, 5088.076
372.706, 5103.047
373.188, 5116.783
373.670, 5131.148
374.152, 5145.420
374.634, 5161.084
375.116, 5175.292
375.598, 5192.834
376.080, 5227.066
376.562, 5284.556
377.045, 5333.934
377.527, 5359.446
378.009, 5361.239
378.491, 5367.314
378.973, 5376.335
379.455, 5393.573
379.937, 5429.089
380.419, 5483.048
380.902, 5535.696
381.384, 5584.545
381.866, 5627.345
382.348, 5650.425
382.830, 5652.984
383.312, 5663.199
383.794, 5714.279
384.276, 5793.290
384.759, 5861.471
385.241, 5907.119
385.723, 5942.633
386.205, 5978.287
386.687, 6015.468
387.169, 6061.526
387.651, 6130.252
388.133, 6205.973
388.615, 6270.002
389.098, 6318.619
389.580, 6357.630
390.062, 6380.035
390.544, 6396.699
391.026, 6426.864
391.508, 6492.195
391.990, 6563.852
392.472, 6622.672
392.954, 6666.718
393.437, 6715.006
393.919, 6787.599
394.401, 6863.298
394.883, 6923.420
395.365, 6942.417
395.847, 6965.836
396.329, 7008.792
396.811, 7068.708
397.293, 7127.275
397.776, 7179.647
398.258, 7230.819
398.740, 7283.875
399.222, 7343.275
399.704, 7398.129
400.186, 7448.539
400.668, 7494.154
401.151, 7533.640
401.633, 7560.570
402.115, 7590.121
402.597, 7626.916
403.079, 7671.050
403.561, 7724.207
404.043, 7793.384
404.525, 7863.546
405.007, 7916.997
405.490, 7952.674
405.972, 7974.754
406.454, 7977.495
406.936, 7967.259
407.418, 7981.692
407.900, 8024.854
408.382, 8073.761
408.864, 8112.560
409.346, 8141.517
409.828, 8163.427
410.311, 8177.000
410.793, 8186.445
411.275, 8196.613
411.757, 8208.128
412.239, 8225.180
412.721, 8258.942
413.203, 8298.376
413.685, 8320.067
414.168, 8321.388
414.650, 8313.892
415.132, 8305.598
415.614, 8296.254
416.096, 8285.656
416.578, 8267.996
417.060, 8252.793
417.542, 8254.086
418.025, 8269.223
418.507, 8273.563
418.989, 8240.261
419.471, 8197.688
419.953, 8169.824
420.435, 8169.247
420.917, 8174.508
421.399, 8183.350
421.881, 8193.248
422.364, 8197.682
422.846, 8205.853
423.328, 8199.534
423.810, 8164.423
424.292, 8080.809
424.774, 8027.575
425.256, 8033.194
425.738, 8058.995
426.220, 8061.803
426.703, 8029.468
427.185, 7993.157
427.667, 7957.587
428.149, 7922.594
428.631, 7885.606
429.113, 7841.063
429.595, 7803.131
430.077, 7784.605
430.560, 7788.950
431.042, 7789.507
431.524, 7782.947
432.006, 7772.545
432.488, 7765.516
432.970, 7762.096
433.452, 7758.014
433.934, 7752.246
434.417, 7744.391
434.899, 7729.250
435.381, 7705.489
435.863, 7684.987
436.345, 7686.642
436.827, 7702.539
437.309, 7708.851
437.791, 7689.729
438.273, 7665.376
438.755, 7659.846
439.238, 7670.905
439.720, 7686.761
440.202, 7709.180
440.684, 7728.021
441.166, 7728.626
441.648, 7698.105
442.130, 7678.363
442.612, 7704.202
443.095, 7753.532
443.577, 7788.496
444.059, 7778.872
444.541, 7769.338
445.023, 7778.645
445.505, 7809.290
445.987, 7840.642
446.469, 7879.656
446.952, 7912.333
447.434, 7927.515
447.916, 7898.261
448.398, 7889.037
448.880, 7910.614
449.362, 7955.239
449.844, 7996.121
450.326, 8031.322
450.808, 8066.006
451.290, 8102.798
451.773, 8141.938
452.255, 8179.705
452.737, 8217.907
453.219, 8251.130
453.701, 8269.603
454.183, 8272.450
454.665, 8279.522
455.147, 8298.155
455.630, 8323.903
456.112, 8347.968
456.594, 8370.099
457.076, 8383.637
457.558, 8375.921
458.040, 8356.493
458.522, 8352.527
459.004, 8376.896
459.487, 8388.567
459.969, 8325.280
460.451, 8217.570
460.933, 8132.561
461.415, 8126.607
461.897, 8139.527
462.379, 8124.628
462.861, 8080.532
463.343, 8046.713
463.826, 8046.244
464.308, 8061.553
464.790, 8078.578
465.272, 8110.744
465.754, 8123.829
466.236, 8100.074
466.718, 8051.270
467.200, 8012.060
467.682, 7985.002
468.165, 7967.700
468.647, 7958.651
469.129, 7956.656
469.611, 7970.865
470.093, 8014.300
470.575, 8059.293
471.057, 8072.044
471.539, 8039.376
472.022, 8023.032
472.504, 8038.738
472.986, 8076.620
473.468, 8098.527
473.950, 8101.397
474.432, 8115.974
474.914, 8164.201
475.396, 8241.374
475.878, 8323.603
476.361, 8414.679
476.843, 8505.739
477.325, 8596.794
477.807, 8687.850
478.289, 8778.910
478.771, 8869.965
479.253, 8961.043
479.735, 9052.104
480.217, 9143.158
480.700, 9234.214
481.182, 9325.276
481.664, 9407.454
482.146, 9525.773
482.628, 9688.258
483.110, 9858.981
483.592, 10017.020
484.074, 10176.750
484.556, 10361.690
485.039, 10592.780
485.521, 10829.600
486.003, 11060.690
486.485, 11285.640
486.967, 11524.820
487.449, 11778.900
487.931, 12043.210
488.414, 12316.110
488.896, 12598.070
489.378, 12880.760
489.860, 13160.090
490.342, 13446.980
490.824, 13771.620
491.306, 14139.140
491.788, 14517.020
492.270, 14894.870
492.753, 15273.800
493.235, 15679.180
493.717, 16105.010
494.199, 16541.230
494.681, 16979.211
495.163, 17416.410
495.645, 17859.039
496.127, 18303.430
496.609, 18755.561
497.092, 19213.240
497.574, 19673.381
498.056, 20132.760
498.538, 20594.400
499.020, 21046.660
499.502, 21467.461
499.984, 21858.650
500.466, 22264.070
500.948, 22745.760
501.431, 23219.830
501.913, 23615.199
502.395, 23852.961
502.877, 24094.240
503.359, 24367.461
503.841, 24649.150
504.323, 24889.750
504.805, 25086.891
505.288, 25242.721
505.770, 25362.900
506.252, 25449.490
506.734, 25466.920
507.216, 25409.580
507.698, 25294.961
508.180, 25125.619
508.662, 24901.881
509.145, 24684.240
509.627, 24492.461
510.109, 24294.480
510.591, 24028.250
511.073, 23700.789
511.555, 23353.369
512.037, 23005.971
512.519, 22651.631
513.001, 22278.551
513.484, 21885.400
513.966, 21500.029
514.448, 21141.230
514.930, 20800.490
515.412, 20469.641
515.894, 20153.170
516.376, 19833.500
516.858, 19491.000
517.341, 19142.119
517.823, 18825.381
518.305, 18573.311
518.787, 18331.170
519.269, 18086.391
519.751, 17839.689
520.233, 17573.381
520.715, 17273.119
521.197, 16976.000
521.680, 16713.580
522.162, 16497.109
522.644, 16276.390
523.126, 16047.480
523.608, 15815.810
524.090, 15593.740
524.572, 15379.850
525.054, 15173.140
525.536, 14963.300
526.019, 14758.560
526.501, 14588.580
526.983, 14454.420
527.465, 14327.760
527.947, 14182.960
528.429, 14032.300
528.911, 13890.650
529.393, 13764.620
529.875, 13642.390
530.358, 13513.840
530.840, 13384.220
531.322, 13259.940
531.804, 13135.570
532.286, 13025.520
532.768, 12947.140
533.250, 12897.800
533.732, 12836.800
534.214, 12747.610
534.697, 12653.490
535.179, 12564.510
535.661, 12478.910
536.143, 12405.420
536.625, 12352.590
537.107, 12305.840
537.589, 12242.410
538.071, 12157.770
538.554, 12080.310
539.036, 12020.010
539.518, 11971.910
540.000, 11918.870
540.482, 11861.360
540.964, 11800.080
541.446, 11734.150
541.928, 11664.300
542.411, 11593.610
542.893, 11523.330
543.375, 11444.490
543.857, 11346.330
544.339, 11235.960
544.821, 11122.740
545.303, 10999.810
545.785, 10884.090
546.268, 10793.970
546.750, 10719.520
547.232, 10628.830
547.714, 10500.770
548.196, 10366.540
548.678, 10237.670
549.160, 10118.420
549.642, 9989.453
550.124, 9843.575
550.606, 9695.043
551.089, 9555.543
551.571, 9426.524
552.053, 9303.077
552.535, 9190.647
553.017, 9078.652
553.499, 8940.063
553.981, 8774.305
554.463, 8614.588
554.945, 8479.301
555.428, 8359.043
555.910, 8231.542
556.392, 8097.695
556.874, 7963.608
557.356, 7832.288
557.838, 7704.637
558.320, 7580.156
558.802, 7455.494
559.284, 7343.761
559.767, 7264.925
560.249, 7199.565
560.731, 7118.822
561.213, 7007.425
561.695, 6887.156
562.177, 6749.745
562.659, 6601.220
563.141, 6487.064
563.624, 6430.272
564.106, 6381.679
564.588, 6321.859
565.070, 6251.072
565.552, 6168.238
566.034, 6068.887
566.516, 5966.239
566.998, 5872.195
567.481, 5787.052
567.963, 5706.211
568.445, 5626.354
568.927, 5553.417
569.409, 5501.695
569.891, 5466.455
570.373, 5426.049
570.855, 5360.916
571.338, 5290.260
571.820, 5239.417
572.302, 5206.687
572.784, 5168.473
573.266, 5105.054
573.748, 5035.832
574.230, 4974.397
574.712, 4925.948
575.194, 4880.384
575.677, 4839.591
576.159, 4799.580
576.641, 4754.313
577.123, 4692.840
577.605, 4645.699
578.087, 4623.823
578.569, 4619.735
579.051, 4600.651
579.533, 4564.234
580.016, 4524.354
580.498, 4485.879
580.980, 4449.663
581.462, 4423.795
581.944, 4409.453
582.426, 4392.570
582.908, 4353.136
583.390, 4303.028
583.872, 4264.194
584.355, 4245.176
584.837, 4230.989
585.319, 4210.511
585.801, 4187.105
586.283, 4167.050
586.765, 4158.606
587.247, 4147.929
587.729, 4127.435
588.211, 4097.705
588.694, 4073.893
589.176, 4061.568
589.658, 4049.870
590.140, 4033.045
590.622, 4008.583
591.104, 3989.875
591.586, 3977.631
592.068, 3970.134
592.551, 3967.580
593.033, 3969.721
593.515, 3968.774
593.997, 3963.464
594.479, 3953.736
594.961, 3934.122
595.443, 3908.685
595.925, 3892.090
596.407, 3900.385
596.890, 3914.991
597.372, 3916.779
597.854, 3906.977
598.336, 3901.947
598.818, 3916.984
599.300, 3933.913
599.782, 3939.810
600.265, 3926.906
600.747, 3918.619
601.229, 3919.846
601.711, 3924.379
602.193, 3925.251
602.675, 3918.937
603.157, 3918.380
603.639, 3926.975
604.121, 3941.057
604.604, 3952.156
605.086, 3960.230
605.568, 3966.573
606.050, 3970.946
606.532, 3974.277
607.014, 3977.262
607.496, 3980.217
607.978, 3988.032
608.460, 4008.008
608.943, 4032.838
609.425, 4055.193
609.907, 4074.778
610.389, 4089.028
610.871, 4092.454
611.353, 4091.776
611.835, 4094.330
612.317, 4097.475
612.799, 4109.232
613.282, 4136.624
613.764, 4172.018
614.246, 4195.018
614.728, 4199.714
615.210, 4207.599
615.692, 4227.270
616.174, 4256.666
616.656, 4281.880
617.138, 4302.902
617.621, 4320.344
618.103, 4330.640
618.585, 4338.321
619.067, 4355.475
619.549, 4384.017
620.031, 4414.484
620.513, 4444.003
620.995, 4469.353
621.477, 4486.064
621.960, 4483.830
622.442, 4484.958
622.924, 4494.229
623.406, 4512.180
623.888, 4540.678
624.370, 4595.598
624.852, 4641.674
625.334, 4671.135
625.817, 4685.112
626.299, 4689.910
626.781, 4680.648
627.263, 4677.833
627.745, 4698.529
628.227, 4739.422
628.709, 4768.201
629.191, 4783.364
629.674, 4795.495
630.156, 4814.062
630.638, 4836.878
631.120, 4860.006
631.602, 4882.895
632.084, 4905.230
632.566, 4927.128
633.048, 4948.317
633.531, 4968.503
634.013, 4982.216
634.495, 5000.197
634.977, 5029.587
635.459, 5066.990
635.941, 5094.712
636.423, 5106.767
636.905, 5119.362
637.387, 5139.879
637.870, 5167.858
638.352, 5188.288
638.834, 5200.241
639.316, 5210.107
639.798, 5222.072
640.280, 5236.308
640.762, 5252.594
641.244, 5270.759
641.726, 5293.218
642.209, 5328.027
642.691, 5367.259
643.173, 5397.879
643.655, 5403.773
644.137, 5417.096
644.619, 5460.465
