##NAMES=Romerite
##RRUFFID=R060820
##IDEAL CHEMISTRY=Fe^2+^Fe^3+^_2_(S^6+^O_4_)_4_&#183;14H_2_O
##LOCALITY=Alcaparrosa mine, Tierra Amarilla, Chile
##OWNER=RRUFF
##SOURCE=Bob Jenkins
##DESCRIPTION=Reddish-brown isolated grains associated with copiapite, R060821
##STATUS=The identification of this mineral has been confirmed by single-crystal X-ray diffraction.
##URL=rruff.info/R060820
123.938, 1191.888
124.420, 1319.275
124.902, 1464.277
125.385, 1623.990
125.867, 1789.094
126.349, 1961.593
126.831, 2132.818
127.313, 2296.536
127.795, 2451.834
128.277, 2600.934
128.760, 2748.687
129.242, 2894.489
129.724, 3028.483
130.206, 3157.125
130.688, 3264.201
131.170, 3339.183
131.652, 3380.425
132.134, 3392.727
132.616, 3377.229
133.098, 3331.108
133.581, 3272.155
134.063, 3191.883
134.545, 3106.941
135.027, 3024.352
135.509, 2945.827
135.991, 2876.444
136.473, 2823.597
136.956, 2788.867
137.438, 2767.579
137.920, 2756.389
138.402, 2757.699
138.884, 2773.879
139.366, 2805.756
139.848, 2852.821
140.330, 2914.477
140.812, 2989.847
141.294, 3083.531
141.777, 3199.973
142.259, 3328.334
142.741, 3458.911
143.223, 3587.199
143.705, 3717.458
144.187, 3862.698
144.669, 4037.312
145.151, 4205.868
145.634, 4364.482
146.116, 4515.280
146.598, 4665.264
147.080, 4817.574
147.562, 4964.023
148.044, 5077.340
148.526, 5129.750
149.008, 5177.974
149.490, 5227.572
149.973, 5276.055
150.455, 5324.571
150.937, 5374.663
151.419, 5418.639
151.901, 5421.661
152.383, 5353.772
152.865, 5276.690
153.347, 5198.035
153.829, 5115.087
154.312, 5023.173
154.794, 4918.770
155.276, 4802.805
155.758, 4677.733
156.240, 4535.771
156.722, 4394.383
157.204, 4241.964
157.686, 4092.641
158.169, 3971.322
158.651, 3893.724
159.133, 3854.443
159.615, 3820.097
160.097, 3783.521
160.579, 3757.695
161.061, 3745.010
161.543, 3745.867
162.025, 3761.008
162.508, 3791.120
162.990, 3836.030
163.472, 3892.881
163.954, 3963.860
164.436, 4041.392
164.918, 4123.330
165.400, 4209.441
165.883, 4303.063
166.365, 4408.029
166.847, 4520.139
167.329, 4617.398
167.811, 4692.972
168.293, 4762.741
168.775, 4831.111
169.257, 4898.666
169.739, 4968.430
170.221, 5045.701
170.704, 5124.689
171.186, 5181.930
171.668, 5213.144
172.150, 5229.551
172.632, 5234.857
173.114, 5229.613
173.596, 5215.689
174.078, 5194.231
174.561, 5163.939
175.043, 5123.970
175.525, 5071.048
176.007, 5012.662
176.489, 4951.912
176.971, 4888.785
177.453, 4824.094
177.935, 4757.637
178.417, 4689.595
178.900, 4620.855
179.382, 4548.293
179.864, 4477.441
180.346, 4410.757
180.828, 4348.273
181.310, 4290.482
181.792, 4237.163
182.274, 4189.363
182.757, 4147.447
183.239, 4114.079
183.721, 4083.242
184.203, 4050.637
184.685, 4016.707
185.167, 3984.364
185.649, 3952.605
186.131, 3925.553
186.613, 3910.489
187.096, 3913.880
187.578, 3919.786
188.060, 3918.287
188.542, 3909.679
189.024, 3895.551
189.506, 3870.442
189.988, 3844.315
190.470, 3835.533
190.952, 3853.698
191.435, 3873.181
191.917, 3870.883
192.399, 3849.949
192.881, 3837.849
193.363, 3846.245
193.845, 3871.003
194.327, 3904.375
194.809, 3952.659
195.292, 3994.538
195.774, 4005.876
196.256, 3991.482
196.738, 3991.763
197.220, 4028.490
197.702, 4082.577
198.184, 4126.068
198.666, 4159.027
199.148, 4180.361
199.631, 4181.706
200.113, 4166.750
200.595, 4161.326
201.077, 4179.691
201.559, 4205.999
202.041, 4216.570
202.523, 4207.611
203.005, 4200.813
203.488, 4211.832
203.970, 4237.894
204.452, 4264.665
204.934, 4289.999
205.416, 4312.093
205.898, 4326.072
206.380, 4330.221
206.862, 4342.210
207.344, 4370.192
207.827, 4414.092
208.309, 4474.349
208.791, 4553.257
209.273, 4647.004
209.755, 4748.652
210.237, 4857.354
210.719, 4976.551
211.201, 5107.386
211.684, 5249.375
212.166, 5406.733
212.648, 5586.412
213.130, 5770.984
213.612, 5948.444
214.094, 6118.307
214.576, 6276.233
215.058, 6408.919
215.540, 6528.141
216.023, 6561.000
216.505, 6632.865
216.987, 6695.261
217.469, 6748.708
217.951, 6766.350
218.433, 6830.213
218.915, 6875.554
219.397, 6920.134
219.880, 6990.503
220.362, 7013.361
220.844, 7083.321
221.326, 7134.475
221.808, 7194.236
222.290, 7235.359
222.772, 7281.748
223.254, 7321.015
223.736, 7384.407
224.219, 7473.981
224.701, 7574.420
225.183, 7683.168
225.665, 7794.885
226.147, 7891.536
226.629, 7958.654
227.111, 8014.465
227.593, 8081.946
228.076, 8162.705
228.558, 8241.521
229.040, 8312.585
229.522, 8373.017
230.004, 8417.039
230.486, 8443.502
230.968, 8453.292
231.450, 8445.193
231.932, 8419.372
232.415, 8383.312
232.897, 8343.089
233.379, 8292.910
233.861, 8223.581
234.343, 8130.207
234.825, 8023.271
235.307, 7904.762
235.789, 7776.922
236.271, 7652.254
236.754, 7536.927
237.236, 7429.427
237.718, 7324.993
238.200, 7219.797
238.682, 7124.415
239.164, 7047.735
239.646, 6985.909
240.128, 6924.254
240.611, 6853.732
241.093, 6787.719
241.575, 6751.371
242.057, 6747.441
242.539, 6754.019
243.021, 6768.989
243.503, 6788.425
243.985, 6802.264
244.467, 6805.444
244.950, 6810.630
245.432, 6838.247
245.914, 6888.928
246.396, 6946.813
246.878, 7008.469
247.360, 7076.074
247.842, 7156.284
248.324, 7250.717
248.807, 7346.230
249.289, 7427.204
249.771, 7492.564
250.253, 7554.895
250.735, 7613.632
251.217, 7670.751
251.699, 7726.989
252.181, 7772.333
252.663, 7812.085
253.146, 7846.212
253.628, 7874.713
254.110, 7897.587
254.592, 7914.835
255.074, 7926.459
255.556, 7932.455
256.038, 7932.824
256.520, 7927.567
257.003, 7916.683
257.485, 7900.174
257.967, 7878.034
258.449, 7850.270
258.931, 7816.882
259.413, 7777.869
259.895, 7733.226
260.377, 7682.955
260.859, 7624.691
261.342, 7565.255
261.824, 7508.413
262.306, 7460.651
262.788, 7407.283
263.270, 7339.618
263.752, 7267.316
264.234, 7200.307
264.716, 7142.447
265.198, 7096.131
265.681, 7067.231
266.163, 7070.658
266.645, 7070.638
267.127, 7067.511
267.609, 7060.957
268.091, 7047.662
268.573, 7028.307
269.056, 7010.507
269.538, 7005.236
270.020, 7018.074
270.502, 7027.504
270.984, 7033.365
271.466, 7036.805
271.948, 7041.125
272.430, 7044.537
272.912, 7040.131
273.395, 7019.785
273.877, 6981.447
274.359, 6951.062
274.841, 6943.365
275.323, 6929.042
275.805, 6898.258
276.287, 6854.081
276.769, 6803.559
277.251, 6751.029
277.734, 6696.392
278.216, 6639.905
278.698, 6587.813
279.180, 6523.847
279.662, 6442.739
280.144, 6349.738
280.626, 6250.946
281.108, 6148.976
281.591, 6042.743
282.073, 5928.170
282.555, 5803.321
283.037, 5677.125
283.519, 5547.234
284.001, 5419.303
284.483, 5299.625
284.965, 5189.300
285.447, 5080.443
285.930, 4961.597
286.412, 4832.090
286.894, 4706.221
287.376, 4578.452
287.858, 4463.063
288.340, 4374.281
288.822, 4309.538
289.304, 4244.807
289.786, 4160.818
290.269, 4061.751
290.751, 3967.840
291.233, 3877.437
291.715, 3798.361
292.197, 3738.113
292.679, 3692.281
293.161, 3651.580
293.643, 3619.362
294.125, 3587.391
294.608, 3540.185
295.090, 3475.952
295.572, 3409.996
296.054, 3348.598
296.536, 3292.839
297.018, 3244.641
297.500, 3209.356
297.983, 3175.659
298.465, 3132.512
298.947, 3082.233
299.429, 3038.563
299.911, 3009.797
300.393, 2988.526
300.875, 2958.887
301.357, 2918.686
301.839, 2877.685
302.322, 2840.151
302.804, 2803.978
303.286, 2766.091
303.768, 2725.651
304.250, 2682.051
304.732, 2631.885
305.214, 2570.493
305.696, 2523.964
306.178, 2510.383
306.661, 2501.450
307.143, 2469.973
307.625, 2415.734
308.107, 2361.190
308.589, 2326.027
309.071, 2311.546
309.553, 2291.181
310.035, 2260.004
310.517, 2229.313
311.000, 2204.847
311.482, 2184.220
311.964, 2161.882
312.446, 2134.764
312.928, 2103.689
313.410, 2071.814
313.892, 2034.148
314.374, 2002.046
314.857, 1976.227
315.339, 1956.481
315.821, 1943.703
316.303, 1937.855
316.785, 1935.946
317.267, 1935.117
317.749, 1940.490
318.231, 1932.763
318.714, 1899.176
319.196, 1863.372
319.678, 1837.510
320.160, 1821.875
320.642, 1810.051
321.124, 1795.587
321.606, 1778.923
322.088, 1769.654
322.570, 1774.518
323.052, 1778.079
323.535, 1771.009
324.017, 1758.831
324.499, 1751.449
324.981, 1754.510
325.463, 1763.738
325.945, 1772.575
326.427, 1781.922
326.909, 1786.609
327.392, 1780.809
327.874, 1770.962
328.356, 1764.078
328.838, 1762.132
329.320, 1759.316
329.802, 1748.694
330.284, 1732.348
330.766, 1721.365
331.249, 1719.405
331.731, 1722.152
332.213, 1724.535
332.695, 1726.518
333.177, 1730.834
333.659, 1743.602
334.141, 1756.704
334.623, 1758.128
335.105, 1746.670
335.588, 1732.965
336.070, 1724.265
336.552, 1721.022
337.034, 1722.136
337.516, 1733.674
337.998, 1743.451
338.480, 1742.762
338.962, 1735.499
339.444, 1731.657
339.927, 1736.429
340.409, 1746.747
340.891, 1754.080
341.373, 1753.285
341.855, 1756.048
342.337, 1764.319
342.819, 1775.422
343.302, 1787.641
343.784, 1800.225
344.266, 1812.551
344.748, 1823.799
345.230, 1833.997
345.712, 1842.992
346.194, 1852.057
346.676, 1858.850
347.158, 1857.459
347.641, 1852.822
348.123, 1856.729
348.605, 1878.931
349.087, 1914.158
349.569, 1939.154
350.051, 1949.473
350.533, 1957.307
351.015, 1963.434
351.497, 1970.369
351.980, 1980.865
352.462, 1995.820
352.944, 2013.558
353.426, 2034.325
353.908, 2058.220
354.390, 2076.091
354.872, 2084.911
355.354, 2087.971
355.836, 2084.309
356.319, 2075.342
356.801, 2076.215
357.283, 2105.429
357.765, 2145.649
358.247, 2163.349
358.729, 2154.025
359.211, 2142.175
359.693, 2145.201
360.176, 2160.282
360.658, 2172.088
361.140, 2177.272
361.622, 2181.987
362.104, 2187.462
362.586, 2194.958
363.068, 2209.257
363.550, 2233.528
364.033, 2261.171
364.515, 2278.458
364.997, 2274.714
365.479, 2280.969
365.961, 2307.753
366.443, 2339.077
366.925, 2362.737
367.407, 2376.874
367.889, 2385.754
368.371, 2392.583
368.854, 2396.966
369.336, 2405.686
369.818, 2424.078
370.300, 2441.272
370.782, 2458.502
371.264, 2471.751
371.746, 2472.571
372.228, 2455.685
372.711, 2432.303
373.193, 2428.697
373.675, 2453.162
374.157, 2472.729
374.639, 2478.120
375.121, 2478.648
375.603, 2479.336
376.085, 2480.881
376.568, 2482.219
377.050, 2482.008
377.532, 2480.779
378.014, 2481.521
378.496, 2486.020
378.978, 2488.823
379.460, 2481.424
379.942, 2469.400
380.424, 2465.540
380.907, 2481.162
381.389, 2498.279
381.871, 2498.302
382.353, 2484.907
382.835, 2476.483
383.317, 2481.567
383.799, 2494.515
384.281, 2502.735
384.763, 2501.638
385.246, 2508.338
385.728, 2532.602
386.210, 2562.135
386.692, 2585.335
387.174, 2600.445
387.656, 2610.365
388.138, 2616.003
388.620, 2616.304
389.103, 2632.547
389.585, 2679.603
390.067, 2725.100
390.549, 2762.600
391.031, 2792.101
391.513, 2811.437
391.995, 2819.309
392.477, 2825.179
392.960, 2850.490
393.442, 2904.918
393.924, 2950.676
394.406, 2975.510
394.888, 2996.322
395.370, 3024.982
395.852, 3060.429
396.334, 3090.452
396.816, 3103.554
397.298, 3104.055
397.781, 3106.359
398.263, 3110.371
398.745, 3116.979
399.227, 3132.391
399.709, 3149.396
400.191, 3153.676
400.673, 3133.831
401.155, 3116.062
401.638, 3126.293
402.120, 3153.625
402.602, 3164.416
403.084, 3146.811
403.566, 3116.202
404.048, 3094.016
404.530, 3084.467
405.012, 3065.928
405.495, 2985.125
405.977, 2937.205
406.459, 2921.099
406.941, 2910.296
407.423, 2916.190
407.905, 2918.032
408.387, 2916.038
408.869, 2898.722
409.351, 2901.192
409.834, 2895.732
410.316, 2889.947
410.798, 2895.201
411.280, 2887.473
411.762, 2886.349
412.244, 2900.091
412.726, 2914.919
413.208, 2930.843
413.690, 2944.136
414.173, 2948.551
414.655, 2959.006
415.137, 2981.752
415.619, 3015.332
416.101, 3057.214
416.583, 3109.770
417.065, 3166.378
417.547, 3221.478
418.030, 3274.539
418.512, 3319.370
418.994, 3350.226
419.476, 3375.899
419.958, 3411.599
420.440, 3458.666
420.922, 3504.487
421.404, 3547.924
421.887, 3587.630
422.369, 3620.162
422.851, 3646.502
423.333, 3674.476
423.815, 3710.989
424.297, 3754.636
424.779, 3790.044
425.261, 3813.763
425.743, 3833.826
426.225, 3855.110
426.708, 3871.412
427.190, 3875.205
427.672, 3864.703
428.154, 3845.197
428.636, 3821.377
429.118, 3792.181
429.600, 3767.817
430.082, 3757.693
430.565, 3741.264
431.047, 3701.612
431.529, 3649.853
432.011, 3609.938
432.493, 3595.805
432.975, 3591.988
433.457, 3573.636
433.939, 3541.784
434.422, 3526.281
434.904, 3543.261
435.386, 3573.592
435.868, 3588.006
436.350, 3584.634
436.832, 3585.740
437.314, 3595.317
437.796, 3612.913
438.278, 3638.491
438.761, 3671.771
439.243, 3712.675
439.725, 3761.720
440.207, 3817.515
440.689, 3873.480
441.171, 3928.677
441.653, 3984.838
442.135, 4034.585
442.617, 4089.597
443.100, 4164.239
443.582, 4259.542
444.064, 4361.459
444.546, 4456.763
445.028, 4545.424
445.510, 4626.217
445.992, 4697.114
446.474, 4763.118
446.957, 4819.233
447.439, 4874.168
447.921, 4943.750
448.403, 5038.953
448.885, 5135.267
449.367, 5206.296
449.849, 5256.212
450.331, 5304.670
450.814, 5356.594
451.296, 5408.949
451.778, 5456.491
452.260, 5499.096
452.742, 5547.460
453.224, 5599.792
453.706, 5660.822
454.188, 5736.258
454.670, 5822.967
455.152, 5914.783
455.635, 6009.389
456.117, 6101.959
456.599, 6179.884
457.081, 6227.170
457.563, 6288.361
458.045, 6376.456
458.527, 6466.507
459.009, 6548.613
459.492, 6619.544
459.974, 6676.477
460.456, 6718.187
460.938, 6744.309
461.420, 6751.420
461.902, 6734.848
462.384, 6716.292
462.866, 6702.384
463.349, 6691.871
463.831, 6686.073
464.313, 6687.414
464.795, 6679.115
465.277, 6643.061
465.759, 6596.000
466.241, 6563.484
466.723, 6548.447
467.205, 6541.852
467.688, 6536.642
468.170, 6533.671
468.652, 6541.727
469.134, 6576.993
469.616, 6601.809
470.098, 6595.739
470.580, 6582.096
471.062, 6593.383
471.544, 6633.658
472.027, 6671.775
472.509, 6673.166
472.991, 6636.856
473.473, 6584.730
473.955, 6507.833
474.437, 6427.414
474.919, 6346.261
475.401, 6269.453
475.884, 6205.982
476.366, 6161.320
476.848, 6120.586
477.330, 6067.340
477.812, 6006.072
478.294, 5954.373
478.776, 5915.424
479.258, 5888.236
479.741, 5875.772
480.223, 5878.314
480.705, 5871.083
481.187, 5842.568
481.669, 5815.841
482.151, 5810.124
482.633, 5811.899
483.115, 5795.368
483.597, 5750.950
484.079, 5691.943
484.562, 5638.981
485.044, 5595.279
485.526, 5546.018
486.008, 5495.225
486.490, 5433.881
486.972, 5351.892
487.454, 5257.470
487.936, 5166.614
488.419, 5087.540
488.901, 5012.917
489.383, 4936.208
489.865, 4857.020
490.347, 4763.957
490.829, 4648.546
491.311, 4528.287
491.793, 4424.500
492.276, 4335.979
492.758, 4241.505
493.240, 4134.805
493.722, 4024.935
494.204, 3915.494
494.686, 3808.150
495.168, 3702.965
495.650, 3599.552
496.132, 3503.588
496.615, 3426.839
497.097, 3381.959
497.579, 3326.302
498.061, 3249.835
498.543, 3172.700
499.025, 3106.233
499.507, 3046.403
499.989, 2980.618
500.471, 2897.390
500.954, 2814.826
501.436, 2768.120
501.918, 2757.495
502.400, 2737.806
502.882, 2694.556
503.364, 2641.905
503.846, 2593.447
504.328, 2548.797
504.811, 2511.552
505.293, 2489.206
505.775, 2468.557
506.257, 2440.457
506.739, 2406.185
507.221, 2369.260
507.703, 2330.930
508.185, 2293.506
508.668, 2261.340
509.150, 2235.310
509.632, 2212.825
510.114, 2198.594
510.596, 2183.132
511.078, 2161.086
511.560, 2134.541
512.042, 2108.293
512.524, 2083.763
513.006, 2062.608
513.489, 2048.540
513.971, 2041.309
514.453, 2032.868
514.935, 2021.619
515.417, 2007.988
515.899, 1989.998
516.381, 1968.097
516.864, 1952.049
517.346, 1948.630
517.828, 1946.043
518.310, 1934.937
518.792, 1919.525
519.274, 1910.615
519.756, 1912.454
520.238, 1916.405
520.720, 1907.793
521.203, 1881.924
521.685, 1860.989
522.167, 1845.359
522.649, 1834.739
523.131, 1832.902
523.613, 1835.232
524.095, 1833.038
524.577, 1821.394
525.059, 1810.103
525.542, 1814.090
526.024, 1829.189
526.506, 1833.061
526.988, 1819.141
527.470, 1801.733
527.952, 1793.823
528.434, 1795.344
528.916, 1795.171
529.398, 1793.236
529.881, 1789.760
530.363, 1785.423
530.845, 1779.378
531.327, 1768.363
531.809, 1752.454
532.291, 1738.618
532.773, 1736.636
533.255, 1746.858
533.737, 1749.219
534.220, 1735.854
534.702, 1727.320
535.184, 1737.534
535.666, 1753.586
536.148, 1757.719
536.630, 1744.136
537.112, 1734.176
537.594, 1746.733
538.077, 1771.369
538.559, 1788.980
539.041, 1797.314
539.523, 1802.024
540.005, 1806.771
540.487, 1811.118
540.969, 1812.824
541.451, 1805.744
541.933, 1804.317
542.416, 1815.901
542.898, 1828.952
543.380, 1833.554
543.862, 1829.909
544.344, 1824.780
544.826, 1823.019
545.308, 1823.595
545.791, 1824.353
546.273, 1826.045
546.755, 1822.659
547.237, 1803.835
547.719, 1787.347
548.201, 1799.122
548.683, 1839.847
549.165, 1868.892
549.647, 1867.787
550.130, 1857.152
550.612, 1850.317
551.094, 1848.172
551.576, 1850.404
552.058, 1856.938
552.540, 1867.054
553.022, 1880.320
553.504, 1899.117
553.987, 1913.544
554.469, 1916.855
554.951, 1922.504
555.433, 1940.035
555.915, 1962.391
556.397, 1975.901
556.879, 1974.021
557.361, 1968.322
557.843, 1970.783
558.326, 1979.094
558.808, 1984.991
559.290, 1986.835
559.772, 1987.319
560.254, 1986.886
560.736, 1986.314
561.218, 1996.233
561.700, 2028.142
562.182, 2054.253
562.665, 2068.297
563.147, 2074.303
563.629, 2073.932
564.111, 2069.039
564.593, 2064.737
565.075, 2065.571
565.557, 2070.478
566.039, 2075.198
566.521, 2079.679
567.004, 2083.991
567.486, 2086.975
567.968, 2090.828
568.450, 2099.483
568.932, 2113.478
569.414, 2123.592
569.896, 2119.574
570.378, 2117.037
570.860, 2131.417
571.343, 2158.346
571.825, 2183.665
572.307, 2201.142
572.789, 2215.785
573.271, 2237.753
573.753, 2272.403
574.235, 2294.371
574.718, 2295.398
575.200, 2292.670
575.682, 2290.738
576.164, 2290.289
576.646, 2291.729
577.128, 2294.672
577.610, 2301.356
578.092, 2318.105
578.574, 2339.099
579.057, 2349.053
579.539, 2345.883
580.021, 2342.118
580.503, 2346.198
580.985, 2357.807
581.467, 2375.257
581.949, 2411.604
582.431, 2436.290
582.914, 2441.247
583.396, 2438.987
583.878, 2433.047
584.360, 2427.793
584.842, 2433.806
585.324, 2462.297
585.806, 2500.163
586.288, 2521.802
586.770, 2527.624
587.253, 2533.214
587.735, 2541.004
588.217, 2553.732
588.699, 2576.373
589.181, 2609.697
589.663, 2638.436
590.145, 2657.185
590.627, 2677.227
591.109, 2708.029
591.592, 2740.765
592.074, 2760.063
592.556, 2763.896
593.038, 2768.595
593.520, 2792.198
594.002, 2832.655
594.484, 2873.479
594.966, 2914.859
595.448, 2954.970
595.931, 2988.518
596.413, 3023.388
596.895, 3071.954
597.377, 3136.714
597.859, 3197.585
598.341, 3243.815
598.823, 3287.737
599.305, 3339.872
599.788, 3398.182
600.270, 3455.715
600.752, 3509.634
601.234, 3561.153
601.716, 3612.075
602.198, 3662.079
602.680, 3713.567
603.162, 3769.741
603.644, 3823.301
604.127, 3873.572
604.609, 3918.575
605.091, 3956.099
605.573, 3986.810
606.055, 4006.773
606.537, 4008.386
607.019, 4000.813
607.502, 3998.284
607.984, 4000.655
608.466, 3997.294
608.948, 3981.341
609.430, 3955.591
609.912, 3929.234
610.394, 3910.696
610.876, 3872.248
611.358, 3789.101
611.841, 3707.693
612.323, 3657.543
612.805, 3625.792
613.287, 3579.330
613.769, 3501.354
614.251, 3417.484
614.733, 3348.746
615.215, 3291.304
615.697, 3238.558
616.180, 3189.062
616.662, 3132.040
617.144, 3056.646
617.626, 2967.292
618.108, 2890.357
618.590, 2830.513
619.072, 2776.462
619.554, 2733.693
620.036, 2690.713
620.519, 2639.969
621.001, 2581.957
621.483, 2520.083
621.965, 2450.964
622.447, 2385.563
622.929, 2340.248
623.411, 2310.355
623.893, 2278.197
624.375, 2239.455
624.858, 2199.717
625.340, 2164.189
625.822, 2132.605
626.304, 2103.436
626.786, 2084.815
627.268, 2057.977
627.750, 2010.467
628.232, 1961.284
628.715, 1925.860
629.197, 1905.016
629.679, 1892.056
630.161, 1884.669
630.643, 1880.986
631.125, 1882.196
631.607, 1886.222
632.089, 1877.336
632.571, 1849.352
633.054, 1816.581
633.536, 1793.471
634.018, 1780.271
634.500, 1771.311
634.982, 1766.650
635.464, 1765.924
635.946, 1768.595
636.429, 1775.483
636.911, 1790.498
637.393, 1811.971
637.875, 1829.743
638.357, 1836.449
638.839, 1835.502
639.321, 1827.914
639.803, 1815.588
640.285, 1817.759
640.768, 1842.336
641.250, 1875.014
641.732, 1899.569
642.214, 1915.561
642.696, 1930.030
643.178, 1936.769
643.660, 1949.834
644.142, 1978.898
644.625, 2011.617
645.107, 2035.372
645.589, 2048.903
646.071, 2059.836
646.553, 2071.423
647.035, 2084.962
647.517, 2102.482
647.999, 2123.973
648.481, 2150.780
