##NAMES=Rongibbsite
##RRUFFID=R100031
##IDEAL CHEMISTRY=Pb^2+^_2_(AlSi_4_)O_11_(OH)
##LOCALITY=A prospect near Evening Star mine, Bighorn Mountains, Maricopa County, Arizona
##OWNER=RRUFF
##SOURCE=Ron Gibbs
##DESCRIPTION=Radiating, bladed to prismatic colorless crystals, type sample
##STATUS=The identification of this mineral is confirmed by single-crystal X-ray diffraction and chemical analysis.
##URL=rruff.info/R100031
##MEASURED CHEMISTRY=Pb_2.05_(Al_1.11_Si_3.89_)_Î£=5.00_O_11_(OH)
90.60547, 1742.410
91.08759, 1655.801
91.56970, 1623.691
92.05182, 1641.266
92.53394, 1713.068
93.01605, 1801.459
93.49817, 1899.760
93.98029, 2006.949
94.46240, 2107.224
94.94452, 2211.605
95.42664, 2293.892
95.90874, 2345.745
96.39086, 2368.088
96.87298, 2361.428
97.35509, 2319.918
97.83721, 2230.947
98.31933, 2140.993
98.80145, 2043.890
99.28356, 1952.718
99.76568, 1876.453
100.2478, 1817.508
100.7299, 1772.966
101.2120, 1736.815
101.6941, 1712.673
102.1763, 1693.189
102.6584, 1682.407
103.1405, 1674.971
103.6226, 1664.036
104.1047, 1645.780
104.5868, 1620.446
105.0690, 1590.686
105.5511, 1560.452
106.0332, 1523.402
106.5153, 1473.765
106.9974, 1412.661
107.4795, 1348.674
107.9617, 1286.101
108.4438, 1225.516
108.9259, 1168.803
109.4080, 1116.224
109.8901, 1067.360
110.3722, 1021.206
110.8544, 977.4914
111.3365, 937.9684
111.8186, 904.3827
112.3007, 875.2682
112.7828, 848.1669
113.2649, 821.7507
113.7471, 796.0053
114.2292, 772.4492
114.7113, 752.1582
115.1934, 733.0963
115.6755, 714.0169
116.1576, 695.2070
116.6397, 677.7216
117.1219, 662.5306
117.6040, 649.6892
118.0861, 639.2608
118.5682, 632.1364
119.0503, 626.2307
119.5324, 620.2567
120.0146, 613.9821
120.4967, 608.0900
120.9788, 603.7686
121.4609, 601.7899
121.9430, 600.5671
122.4251, 600.7335
122.9073, 601.4420
123.3894, 601.7067
123.8715, 601.1268
124.3536, 599.9813
124.8357, 598.7933
125.3178, 596.8875
125.8000, 596.1191
126.2821, 597.6301
126.7642, 601.0036
127.2463, 604.6608
127.7284, 607.9127
128.2105, 611.0817
128.6927, 614.8040
129.1748, 619.4356
129.6569, 624.0827
130.1390, 627.7095
130.6211, 630.1111
131.1032, 632.7269
131.5854, 637.1388
132.0675, 641.7840
132.5496, 645.2181
133.0317, 646.9802
133.5138, 647.1471
133.9959, 645.7974
134.4781, 642.2175
134.9602, 638.0686
135.4423, 634.0654
135.9244, 629.8326
136.4065, 624.7283
136.8886, 618.1646
137.3708, 610.2999
137.8529, 603.9439
138.3350, 600.3242
138.8171, 597.0598
139.2992, 593.3990
139.7813, 589.6140
140.2635, 586.5128
140.7456, 584.9271
141.2277, 585.1447
141.7098, 584.1341
142.1919, 581.6189
142.6740, 578.4135
143.1561, 574.7578
143.6383, 570.7517
144.1204, 566.5517
144.6025, 562.1240
145.0846, 557.3643
145.5667, 553.8331
146.0488, 552.6602
146.5310, 552.2772
147.0131, 551.0148
147.4952, 548.5212
147.9773, 545.4707
148.4594, 542.5522
148.9415, 539.7396
149.4237, 536.6776
149.9058, 533.0929
150.3879, 529.1484
150.8700, 525.3049
151.3521, 521.4411
151.8342, 517.9637
152.3164, 515.0738
152.7985, 512.7559
153.2806, 510.8066
153.7627, 509.1885
154.2448, 507.9030
154.7269, 506.6233
155.2091, 505.2387
155.6912, 503.9111
156.1733, 502.4891
156.6554, 501.0501
157.1375, 500.1039
157.6196, 500.3247
158.1018, 502.0049
158.5839, 504.0732
159.0660, 506.9764
159.5481, 509.8541
160.0302, 511.9844
160.5123, 513.2564
160.9945, 514.2688
161.4766, 516.0656
161.9587, 519.1991
162.4408, 522.4176
162.9229, 525.4957
163.4050, 528.7355
163.8871, 532.4025
164.3693, 536.6066
164.8514, 541.2341
165.3335, 546.0394
165.8156, 550.9891
166.2977, 556.1413
166.7798, 561.5558
167.2620, 567.1938
167.7441, 572.9503
168.2262, 578.7556
168.7083, 584.7102
169.1904, 590.9897
169.6725, 597.2526
170.1547, 604.2480
170.6368, 612.4817
171.1189, 621.7292
171.6010, 631.2224
172.0831, 640.6200
172.5652, 650.0742
173.0474, 660.0032
173.5295, 670.5098
174.0116, 681.2391
174.4937, 691.5020
174.9758, 701.3204
175.4579, 712.2819
175.9401, 725.8043
176.4222, 740.5895
176.9043, 755.1309
177.3864, 769.1163
177.8685, 783.0831
178.3506, 797.7487
178.8328, 813.1571
179.3149, 829.2664
179.7970, 846.1429
180.2791, 863.6736
180.7612, 881.4747
181.2433, 899.3582
181.7255, 918.0430
182.2076, 939.3038
182.6897, 964.2971
183.1718, 989.9634
183.6539, 1014.959
184.1360, 1040.402
184.6181, 1067.477
185.1003, 1096.840
185.5824, 1127.900
186.0645, 1158.211
186.5466, 1186.387
187.0287, 1215.709
187.5108, 1246.483
187.9930, 1278.441
188.4751, 1311.186
188.9572, 1344.320
189.4393, 1378.896
189.9214, 1412.949
190.4035, 1450.202
190.8857, 1487.417
191.3678, 1525.116
191.8499, 1562.260
192.3320, 1597.333
192.8141, 1629.390
193.2962, 1658.605
193.7784, 1686.521
194.2605, 1715.497
194.7426, 1741.166
195.2247, 1761.884
195.7068, 1778.089
196.1889, 1791.153
196.6711, 1801.645
197.1532, 1809.514
197.6353, 1815.646
198.1174, 1819.705
198.5995, 1822.573
199.0816, 1824.630
199.5638, 1825.884
200.0459, 1826.431
200.5280, 1826.501
201.0101, 1825.698
201.4922, 1823.542
201.9743, 1820.668
202.4565, 1815.776
202.9386, 1808.688
203.4207, 1799.486
203.9028, 1785.483
204.3849, 1766.235
204.8670, 1740.358
205.3492, 1705.724
205.8313, 1660.920
206.3134, 1608.486
206.7955, 1550.757
207.2776, 1487.029
207.7597, 1421.247
208.2419, 1353.187
208.7240, 1284.586
209.2061, 1216.911
209.6882, 1149.743
210.1703, 1085.382
210.6524, 1028.005
211.1346, 979.2966
211.6167, 934.5287
212.0988, 891.6671
212.5809, 851.8870
213.0630, 816.3669
213.5451, 785.8986
214.0273, 759.5230
214.5094, 735.3944
214.9915, 713.8638
215.4736, 694.2733
215.9557, 676.3561
216.4378, 659.9012
216.9200, 644.5645
217.4021, 630.2827
217.8842, 617.0775
218.3663, 605.2584
218.8484, 595.7159
219.3305, 586.4568
219.8127, 576.8096
220.2948, 567.4296
220.7769, 559.0313
221.2590, 551.9404
221.7411, 545.8856
222.2232, 540.0815
222.7054, 535.0490
223.1875, 529.6346
223.6696, 523.1559
224.1517, 516.4679
224.6338, 510.5536
225.1159, 505.8263
225.5980, 502.0897
226.0802, 498.7976
226.5623, 497.0843
227.0444, 494.4653
227.5265, 490.0866
228.0086, 484.8907
228.4907, 479.9946
228.9729, 475.8429
229.4550, 472.4320
229.9371, 469.9193
230.4192, 469.1286
230.9013, 467.8924
231.3834, 465.5392
231.8656, 462.6225
232.3477, 459.9066
232.8298, 457.6651
233.3119, 455.8251
233.7940, 454.3195
234.2761, 453.3209
234.7583, 452.1611
235.2404, 450.4297
235.7225, 448.4654
236.2046, 446.8756
236.6867, 445.8943
237.1688, 445.2504
237.6510, 444.5146
238.1331, 443.7208
238.6152, 442.7713
239.0973, 441.6267
239.5794, 440.3006
240.0615, 438.7794
240.5437, 436.9676
241.0258, 435.1352
241.5079, 433.5080
241.9900, 432.0329
242.4721, 431.1025
242.9542, 431.1811
243.4364, 431.9402
243.9185, 432.5848
244.4006, 433.0353
244.8827, 433.1916
245.3648, 432.9466
245.8469, 432.3409
246.3290, 431.5379
246.8112, 430.3915
247.2933, 429.0905
247.7754, 428.1993
248.2575, 427.8593
248.7396, 427.8546
249.2217, 428.0355
249.7039, 428.3771
250.1860, 428.8150
250.6681, 429.4864
251.1502, 430.2548
251.6323, 430.6203
252.1144, 430.5011
252.5966, 430.0298
253.0787, 428.9671
253.5608, 427.6433
254.0429, 426.8232
254.5250, 427.2660
255.0071, 428.5707
255.4893, 429.1327
255.9714, 428.5557
256.4535, 427.8283
256.9356, 427.2331
257.4177, 426.8328
257.8998, 426.7610
258.3820, 427.2010
258.8641, 427.9734
259.3462, 428.4483
259.8283, 428.5493
260.3104, 428.4411
260.7925, 428.1386
261.2747, 427.7120
261.7568, 427.1897
262.2389, 426.5121
262.7210, 425.8756
263.2031, 425.8605
263.6852, 426.6539
264.1674, 427.8232
264.6495, 429.5235
265.1316, 431.3705
265.6137, 432.9536
266.0958, 434.0941
266.5779, 434.9095
267.0601, 435.5646
267.5422, 435.4987
268.0243, 436.3677
268.5064, 438.7156
268.9885, 441.7656
269.4706, 444.8763
269.9528, 447.8155
270.4349, 450.6960
270.9170, 453.7397
271.3991, 456.9921
271.8812, 460.2963
272.3633, 463.4630
272.8455, 466.7682
273.3276, 470.1764
273.8097, 473.7785
274.2918, 478.0117
274.7739, 483.7150
275.2560, 491.9882
275.7382, 499.4144
276.2202, 505.6544
276.7024, 511.5046
277.1845, 517.1845
277.6666, 522.9022
278.1487, 529.1238
278.6308, 536.6334
279.1129, 546.2482
279.5951, 554.1885
280.0772, 559.5806
280.5593, 564.4014
281.0414, 570.0201
281.5235, 576.2172
282.0056, 581.6613
282.4878, 585.0208
282.9699, 586.0749
283.4520, 586.6393
283.9341, 587.3435
284.4162, 587.0698
284.8983, 585.1650
285.3805, 581.8604
285.8626, 577.8687
286.3447, 573.7701
286.8268, 569.5660
287.3089, 564.0246
287.7910, 556.0479
288.2732, 548.0557
288.7553, 540.7753
289.2374, 534.0034
289.7195, 527.3861
290.2016, 520.7327
290.6837, 514.0128
291.1659, 506.8366
291.6480, 498.4000
292.1301, 490.4930
292.6122, 483.6085
293.0943, 477.3761
293.5764, 471.3091
294.0586, 465.1577
294.5407, 458.9886
295.0228, 452.9552
295.5049, 446.7738
295.9870, 441.1025
296.4691, 436.3820
296.9513, 432.0062
297.4334, 427.1128
297.9155, 421.4806
298.3976, 415.8836
298.8797, 411.7046
299.3618, 410.2685
299.8440, 407.7952
300.3261, 403.1181
300.8082, 398.1743
301.2903, 394.5734
301.7724, 392.5935
302.2545, 391.3155
302.7367, 389.6961
303.2188, 387.6637
303.7009, 385.4962
304.1830, 382.9148
304.6651, 380.4219
305.1472, 378.4074
305.6294, 376.8263
306.1115, 375.2777
306.5936, 373.3644
307.0757, 371.0345
307.5578, 369.4062
308.0399, 368.9013
308.5221, 368.5385
309.0042, 367.9374
309.4863, 367.1319
309.9684, 366.3096
310.4505, 365.6030
310.9326, 364.9756
311.4148, 364.1809
311.8969, 363.0654
312.3790, 361.9863
312.8611, 361.0166
313.3432, 360.1436
313.8253, 359.2713
314.3075, 358.3411
314.7896, 357.5198
315.2717, 357.2548
315.7538, 357.9700
316.2359, 358.6388
316.7180, 359.4453
317.2001, 360.0536
317.6823, 359.9766
318.1644, 359.0912
318.6465, 357.8600
319.1286, 356.9540
319.6107, 356.4802
320.0928, 356.1525
320.5750, 356.0336
321.0571, 356.0064
321.5392, 356.0478
322.0213, 356.1210
322.5034, 356.0683
322.9855, 355.6655
323.4677, 354.7877
323.9498, 354.5511
324.4319, 355.7540
324.9140, 356.7557
325.3961, 356.5330
325.8782, 355.3537
326.3604, 354.1765
326.8425, 353.6707
327.3246, 353.7789
327.8067, 353.8369
328.2888, 353.9085
328.7709, 353.8752
329.2531, 353.6450
329.7352, 353.3042
330.2173, 352.9416
330.6994, 352.5886
331.1815, 352.3339
331.6636, 352.4196
332.1458, 353.2824
332.6279, 353.9619
333.1100, 354.5213
333.5921, 354.8377
334.0742, 354.5067
334.5563, 353.4995
335.0385, 352.6205
335.5206, 353.1429
336.0027, 356.0180
336.4848, 357.8485
336.9669, 357.7017
337.4490, 357.3723
337.9312, 358.3529
338.4133, 360.4904
338.8954, 362.2999
339.3775, 362.2900
339.8596, 360.2416
340.3417, 359.1209
340.8239, 359.3233
341.3060, 359.8953
341.7881, 360.7430
342.2702, 361.6958
342.7523, 362.4548
343.2344, 362.8084
343.7166, 362.8843
344.1987, 363.3034
344.6808, 364.5173
345.1629, 365.5792
345.6450, 366.2449
346.1271, 366.7763
346.6093, 367.5176
347.0914, 368.5803
347.5735, 369.7482
348.0556, 370.6247
348.5377, 371.3429
349.0198, 371.4674
349.5020, 370.1494
349.9841, 368.9507
350.4662, 369.0605
350.9483, 370.5188
351.4304, 372.4895
351.9125, 374.1021
352.3947, 375.3101
352.8768, 376.4554
353.3589, 377.7454
353.8410, 378.7668
354.3231, 379.1503
354.8052, 379.1476
355.2874, 379.2327
355.7695, 379.6845
356.2516, 380.5253
356.7337, 381.9518
357.2158, 384.7153
357.6979, 387.0414
358.1800, 388.2280
358.6621, 389.0084
359.1443, 390.3221
359.6264, 392.5327
360.1085, 394.9423
360.5906, 396.0899
361.0727, 395.0678
361.5548, 395.1900
362.0370, 397.8839
362.5191, 400.9144
363.0012, 402.9172
363.4833, 403.7936
363.9654, 404.2664
364.4475, 404.9363
364.9297, 405.7913
365.4118, 407.0501
365.8939, 409.0537
366.3760, 411.1083
366.8581, 413.2242
367.3402, 415.1627
367.8224, 416.4228
368.3045, 416.4888
368.7866, 415.8482
369.2687, 416.0342
369.7508, 417.5052
370.2329, 418.7935
370.7151, 419.2791
371.1972, 419.4183
371.6793, 419.6348
372.1614, 420.0488
372.6435, 420.5501
373.1256, 421.1796
373.6078, 421.9923
374.0899, 422.1564
374.5720, 421.3547
375.0541, 419.9025
375.5362, 417.8820
376.0183, 415.3597
376.5005, 412.8282
376.9826, 410.6009
377.4647, 408.6140
377.9468, 406.6249
378.4289, 404.6179
378.9110, 402.6061
379.3932, 401.0307
379.8753, 399.4356
380.3574, 396.7641
380.8395, 391.8521
381.3216, 386.4826
381.8037, 382.9593
382.2859, 381.3046
382.7680, 380.0116
383.2501, 378.6555
383.7322, 377.1436
384.2143, 375.3245
384.6964, 373.1286
385.1786, 370.9053
385.6607, 368.8736
386.1428, 366.9884
386.6249, 365.0900
387.1070, 363.1213
387.5891, 361.2183
388.0713, 359.5355
388.5534, 358.0553
389.0355, 356.7261
389.5176, 355.6422
389.9997, 354.6402
390.4818, 353.4072
390.9640, 351.9659
391.4461, 350.9467
391.9282, 350.9384
392.4103, 351.7007
392.8924, 351.8760
393.3745, 350.4854
393.8567, 349.6214
394.3388, 351.0238
394.8209, 353.4283
395.3030, 354.0904
395.7851, 351.8446
396.2672, 348.3492
396.7494, 346.5216
397.2315, 347.0708
397.7136, 347.7137
398.1957, 348.7662
398.6778, 349.6048
399.1599, 349.4185
399.6420, 348.3073
400.1241, 347.3311
400.6063, 347.4737
401.0884, 348.7768
401.5705, 349.8304
402.0526, 350.6615
402.5347, 351.2635
403.0168, 351.3870
403.4990, 351.3336
403.9811, 351.5947
404.4632, 352.4088
404.9453, 353.5771
405.4274, 354.5871
405.9095, 355.0300
406.3917, 356.0369
406.8738, 358.0679
407.3559, 360.2972
407.8380, 362.1144
408.3201, 363.4721
408.8022, 364.7482
409.2844, 366.3150
409.7665, 368.1728
410.2486, 370.2188
410.7307, 372.8853
411.2128, 375.2472
411.6949, 376.9671
412.1771, 378.2137
412.6592, 379.1641
413.1413, 379.8083
413.6234, 380.5314
414.1055, 382.1768
414.5876, 384.8980
415.0698, 388.1167
415.5519, 392.5478
416.0340, 396.8495
416.5161, 400.0320
416.9982, 402.0166
417.4803, 403.4486
417.9625, 404.6571
418.4446, 405.7095
418.9267, 407.1962
419.4088, 409.4882
419.8909, 411.5970
420.3730, 412.9593
420.8552, 413.6887
421.3373, 413.8810
421.8194, 413.1685
422.3015, 412.3470
422.7836, 412.4366
423.2657, 413.4276
423.7479, 414.6120
424.2300, 415.9721
424.7121, 417.1265
425.1942, 417.4230
425.6763, 416.6686
426.1584, 416.0800
426.6406, 416.5943
427.1227, 417.4963
427.6048, 417.3745
428.0869, 415.9248
428.5690, 414.4185
429.0511, 414.1812
429.5333, 415.1967
430.0154, 415.3256
430.4975, 413.8970
430.9796, 412.2035
431.4617, 410.7670
431.9438, 409.6398
432.4260, 408.9552
432.9081, 408.8340
433.3902, 408.9809
433.8723, 408.7136
434.3544, 408.0919
434.8365, 406.8918
435.3187, 404.3959
435.8008, 401.7850
436.2829, 400.1712
436.7650, 399.5829
437.2471, 399.2030
437.7292, 398.2736
438.2114, 396.7758
438.6935, 395.3363
439.1756, 393.6816
439.6577, 392.3969
440.1398, 392.0662
440.6219, 392.0493
441.1040, 391.4651
441.5862, 389.9483
442.0683, 387.9059
442.5504, 385.8974
443.0325, 383.5406
443.5146, 382.4004
443.9967, 383.9432
444.4789, 385.6276
444.9610, 385.9064
445.4431, 385.0439
445.9252, 384.4283
446.4073, 385.1344
446.8894, 386.8616
447.3716, 388.4183
447.8537, 389.6239
448.3358, 391.1058
448.8179, 393.4865
449.3000, 396.1445
449.7821, 398.2080
450.2643, 399.2702
450.7464, 400.8223
451.2285, 404.4690
451.7106, 409.8365
452.1927, 414.9397
452.6748, 419.2714
453.1570, 423.4449
453.6391, 427.9581
454.1212, 432.7870
454.6033, 438.0450
455.0854, 443.8779
455.5675, 450.0333
456.0497, 456.4063
456.5318, 462.9380
457.0139, 469.5236
457.4960, 476.1840
457.9781, 482.7797
458.4602, 488.9704
458.9424, 494.9490
459.4245, 500.2491
459.9066, 505.0204
460.3887, 508.9222
460.8708, 511.5252
461.3529, 512.8085
461.8351, 513.1848
462.3172, 513.0886
462.7993, 512.5480
463.2814, 510.5590
463.7635, 506.9471
464.2456, 502.2090
464.7278, 495.9945
465.2099, 488.8326
465.6920, 481.2538
466.1741, 473.4531
466.6562, 465.7544
467.1383, 458.7976
467.6205, 452.8672
468.1026, 446.6051
468.5847, 438.9318
469.0668, 431.8530
469.5489, 426.5951
470.0310, 422.7501
470.5132, 419.1410
470.9953, 415.0209
471.4774, 410.6713
471.9595, 406.6720
472.4416, 402.8707
472.9237, 400.0327
473.4059, 399.8490
473.8880, 399.9116
474.3701, 397.5783
474.8522, 392.4810
475.3343, 387.7381
475.8164, 385.3911
476.2986, 384.9122
476.7807, 385.2104
477.2628, 386.3150
477.7449, 387.3808
478.2270, 387.6483
478.7091, 387.3315
479.1913, 387.3617
479.6734, 387.4387
480.1555, 388.2521
480.6376, 390.2123
481.1197, 393.1634
481.6018, 396.9530
482.0839, 401.5740
482.5660, 406.5204
483.0482, 411.2064
483.5303, 415.7391
484.0124, 419.3694
484.4945, 421.2789
484.9766, 423.1040
485.4587, 425.8257
485.9409, 429.1944
486.4230, 432.6175
486.9051, 435.8357
487.3872, 438.5270
487.8693, 439.6767
488.3514, 438.5825
488.8336, 437.2035
489.3157, 436.5206
489.7978, 435.0101
490.2799, 431.2321
490.7620, 425.4679
491.2441, 419.3930
491.7263, 414.3398
492.2084, 410.1057
492.6905, 405.7575
493.1726, 401.3849
493.6547, 396.7100
494.1368, 391.3900
494.6190, 385.8575
495.1011, 380.4541
495.5832, 375.2140
496.0653, 370.3537
496.5474, 366.3978
497.0295, 362.9975
497.5117, 358.9890
497.9938, 354.0330
498.4759, 349.1444
498.9580, 345.0387
499.4401, 341.6860
499.9222, 338.7883
500.4044, 336.7254
500.8865, 334.6944
501.3686, 332.0809
501.8507, 329.2120
502.3328, 326.7722
502.8149, 325.0118
503.2971, 323.5512
503.7792, 321.8363
504.2613, 319.6748
504.7434, 317.9383
505.2255, 316.8331
505.7076, 315.9028
506.1898, 315.0293
506.6719, 314.1521
507.1540, 313.1886
507.6361, 312.0897
508.1182, 310.9389
508.6003, 309.9554
509.0825, 309.2291
509.5646, 308.4255
510.0467, 307.2631
510.5288, 306.2305
511.0109, 305.6909
511.4930, 305.5441
511.9752, 305.3697
512.4573, 304.8482
512.9394, 304.1599
513.4215, 303.7942
513.9036, 303.8319
514.3857, 303.6476
514.8679, 302.7547
515.3500, 301.7003
515.8321, 301.1857
516.3142, 301.2633
516.7963, 301.5204
517.2784, 302.0768
517.7606, 302.5711
518.2427, 302.3322
518.7248, 301.3477
519.2069, 300.4567
519.6890, 300.2731
520.1711, 300.6146
520.6533, 300.5719
521.1354, 299.9234
521.6175, 299.2533
522.0996, 298.1906
522.5817, 297.4172
523.0638, 298.0189
523.5460, 299.9278
524.0281, 301.7201
524.5102, 301.9315
524.9923, 300.6216
525.4744, 299.9130
525.9565, 300.4394
526.4387, 300.7631
526.9208, 300.3688
527.4029, 299.7562
527.8850, 299.3786
528.3671, 299.3671
528.8492, 299.7320
529.3314, 300.7255
529.8135, 302.2414
530.2956, 303.1604
530.7777, 303.1339
531.2598, 303.1017
531.7419, 303.7754
532.2241, 304.8030
532.7062, 305.6196
533.1883, 306.0105
533.6704, 306.4034
534.1525, 307.1201
534.6346, 308.0547
535.1168, 308.9955
535.5989, 309.9020
536.0810, 310.7155
536.5631, 311.3178
537.0452, 311.6971
537.5273, 312.3676
538.0095, 313.7741
538.4916, 314.9506
538.9737, 315.3262
539.4558, 315.3228
539.9379, 315.6661
540.4200, 316.5639
540.9022, 317.5126
541.3843, 317.8182
541.8664, 317.4212
542.3485, 316.7211
542.8306, 315.5276
543.3127, 314.2254
543.7948, 312.8897
544.2769, 311.5392
544.7590, 310.1920
545.2411, 308.8499
545.7233, 307.5252
546.2054, 306.1507
546.6875, 304.7487
547.1696, 303.7988
547.6517, 303.5628
548.1339, 303.4280
548.6160, 302.8653
549.0981, 301.9917
549.5802, 301.0879
550.0623, 299.8150
550.5444, 298.9435
551.0266, 299.1828
551.5087, 300.1786
551.9908, 301.2690
552.4729, 302.2774
552.9550, 302.8663
553.4371, 302.5103
553.9193, 300.9560
554.4014, 299.9989
554.8835, 300.3133
555.3656, 300.3937
555.8477, 299.4390
556.3298, 297.9861
556.8120, 296.8432
557.2941, 296.3032
557.7762, 296.1271
558.2583, 296.0526
558.7404, 296.1178
559.2225, 295.9511
559.7047, 295.3157
560.1868, 294.7449
560.6689, 294.6290
561.1510, 294.7016
561.6331, 294.4422
562.1152, 293.5461
562.5974, 292.7055
563.0795, 292.6982
563.5616, 293.2983
564.0437, 293.7121
564.5258, 293.7930
565.0079, 293.6200
565.4901, 293.1991
565.9722, 292.5428
566.4543, 291.9876
566.9364, 291.7075
567.4185, 291.3331
567.9006, 290.5276
568.3828, 289.6200
568.8649, 289.0515
569.3470, 288.9444
569.8291, 289.1853
570.3112, 289.7236
570.7933, 290.6025
571.2755, 291.0205
571.7576, 290.4437
572.2397, 290.0700
572.7218, 290.4975
573.2039, 291.1146
573.6860, 291.0863
574.1682, 290.2264
574.6503, 289.4142
575.1324, 289.5562
575.6145, 290.4657
576.0966, 291.2958
576.5787, 291.9388
577.0609, 292.7507
577.5430, 294.3274
578.0251, 296.0788
578.5072, 296.5066
578.9893, 294.7043
579.4714, 293.5580
579.9536, 294.7743
580.4357, 296.9329
580.9178, 298.2619
581.3999, 298.5972
581.8820, 298.8169
582.3641, 299.5647
582.8463, 300.7868
583.3284, 302.1888
583.8105, 304.2895
584.2926, 305.8032
584.7747, 306.0178
