##NAMES=Rongibbsite
##RRUFFID=R100031
##IDEAL CHEMISTRY=Pb^2+^_2_(AlSi_4_)O_11_(OH)
##LOCALITY=A prospect near Evening Star mine, Bighorn Mountains, Maricopa County, Arizona
##OWNER=RRUFF
##SOURCE=Ron Gibbs
##DESCRIPTION=Radiating, bladed to prismatic colorless crystals, type sample
##STATUS=The identification of this mineral is confirmed by single-crystal X-ray diffraction and chemical analysis.
##URL=rruff.info/R100031
##MEASURED CHEMISTRY=Pb_2.05_(Al_1.11_Si_3.89_)_Î£=5.00_O_11_(OH)
91.03516, 27.60247
91.51727, 26.47107
91.99939, 27.42748
92.48151, 29.82687
92.96362, 31.84297
93.44574, 32.29115
93.92786, 31.72652
94.40997, 31.35739
94.89210, 31.32330
95.37421, 31.31338
95.85633, 30.81563
96.33845, 29.84801
96.82056, 28.80728
97.30268, 27.87636
97.78480, 27.06716
98.26691, 26.49453
98.74903, 26.24010
99.23115, 26.18594
99.71326, 25.94965
100.1954, 25.46524
100.6775, 25.06011
101.1596, 25.04747
101.6417, 25.51536
102.1239, 25.96032
102.6060, 26.33975
103.0881, 26.64627
103.5702, 26.69097
104.0523, 26.41695
104.5344, 25.95171
105.0166, 25.39950
105.4987, 24.68230
105.9808, 24.01633
106.4629, 23.38078
106.9450, 22.66875
107.4271, 22.47801
107.9093, 23.24820
108.3914, 24.38263
108.8735, 24.99465
109.3556, 24.47932
109.8377, 23.99521
110.3198, 23.91273
110.8020, 24.66416
111.2841, 24.98416
111.7662, 24.56188
112.2483, 23.67633
112.7304, 22.94676
113.2125, 22.25944
113.6947, 21.87161
114.1768, 21.94846
114.6589, 23.13645
115.1410, 23.95833
115.6231, 23.77077
116.1052, 22.84526
116.5874, 22.20822
117.0695, 22.50619
117.5516, 23.09073
118.0337, 23.46418
118.5158, 23.41732
118.9980, 23.19656
119.4801, 22.80105
119.9622, 22.25664
120.4443, 21.84043
120.9264, 21.68573
121.4085, 21.75298
121.8907, 21.99475
122.3728, 22.84961
122.8549, 23.58751
123.3370, 23.42739
123.8191, 22.31395
124.3012, 21.16590
124.7834, 20.62078
125.2655, 20.58389
125.7476, 20.85390
126.2297, 21.71618
126.7118, 22.70855
127.1939, 23.08238
127.6761, 22.71829
128.1582, 22.10412
128.6403, 21.72496
129.1224, 21.55964
129.6045, 21.50603
130.0867, 21.41319
130.5688, 21.37480
131.0509, 21.69882
131.5330, 22.44016
132.0151, 23.49553
132.4972, 24.84456
132.9794, 26.48806
133.4615, 27.98675
133.9436, 28.64791
134.4257, 28.60145
134.9078, 29.63946
135.3899, 32.31739
135.8721, 35.99276
136.3542, 38.82260
136.8363, 40.63230
137.3184, 42.38126
137.8005, 44.79640
138.2826, 47.95553
138.7648, 51.32769
139.2469, 54.62176
139.7290, 58.01896
140.2111, 62.65817
140.6932, 68.73910
141.1753, 75.76597
141.6575, 83.46693
142.1396, 92.50439
142.6217, 100.5778
143.1038, 106.8872
143.5859, 111.3671
144.0681, 116.5738
144.5502, 122.7497
145.0323, 129.4738
145.5144, 136.4282
145.9965, 143.7639
146.4786, 151.0287
146.9608, 157.8901
147.4429, 164.2742
147.9250, 171.0163
148.4071, 178.1999
148.8892, 185.7293
149.3713, 193.3006
149.8535, 200.7046
150.3356, 208.4558
150.8177, 216.6289
151.2998, 224.9471
151.7819, 234.2779
152.2640, 245.5428
152.7462, 257.7690
153.2283, 268.9963
153.7104, 278.2859
154.1925, 287.2424
154.6746, 296.6273
155.1567, 308.0754
155.6389, 316.9581
156.1210, 320.9692
156.6031, 321.9243
157.0852, 324.3518
157.5673, 331.5605
158.0495, 338.7522
158.5316, 343.5216
159.0137, 343.7934
159.4958, 343.9238
159.9779, 344.9545
160.4600, 346.7212
160.9422, 348.6872
161.4243, 350.1234
161.9064, 352.0137
162.3885, 355.0186
162.8706, 359.7143
163.3527, 365.1135
163.8349, 370.6705
164.3170, 376.5374
164.7991, 383.4415
165.2812, 392.0547
165.7633, 401.7169
166.2454, 411.8166
166.7276, 421.5802
167.2097, 432.2646
167.6918, 445.1283
168.1739, 459.8732
168.6560, 474.9775
169.1381, 489.4465
169.6203, 503.5936
170.1024, 514.5469
170.5845, 524.1351
171.0666, 534.3151
171.5487, 545.3379
172.0309, 557.1164
172.5130, 569.1159
172.9951, 581.2586
173.4772, 593.3315
173.9593, 605.0364
174.4414, 615.3987
174.9236, 625.7353
175.4057, 637.2625
175.8878, 650.0746
176.3699, 663.5861
176.8520, 677.9069
177.3341, 692.6867
177.8163, 707.2253
178.2984, 720.3723
178.7805, 733.2543
179.2626, 747.7116
179.7447, 763.5780
180.2268, 780.1557
180.7090, 796.0881
181.1911, 811.8455
181.6732, 828.7773
182.1553, 847.4019
182.6374, 867.5846
183.1195, 888.6123
183.6017, 910.7656
184.0838, 933.5331
184.5659, 956.8773
185.0480, 980.6981
185.5301, 1005.742
186.0123, 1033.091
186.4944, 1061.963
186.9765, 1088.601
187.4586, 1112.751
187.9407, 1136.133
188.4228, 1161.768
188.9050, 1189.274
189.3871, 1216.023
189.8692, 1240.358
190.3513, 1262.464
190.8334, 1283.964
191.3155, 1304.920
191.7977, 1325.006
192.2798, 1344.198
192.7619, 1362.525
193.2440, 1378.402
193.7261, 1390.885
194.2082, 1400.103
194.6904, 1408.244
195.1725, 1415.884
195.6546, 1421.712
196.1367, 1422.599
196.6188, 1418.368
197.1009, 1412.184
197.5831, 1406.015
198.0652, 1399.797
198.5473, 1390.808
199.0294, 1378.382
199.5115, 1363.829
199.9937, 1349.760
200.4758, 1336.480
200.9579, 1322.777
201.4400, 1307.966
201.9221, 1291.940
202.4042, 1276.359
202.8864, 1261.871
203.3685, 1247.303
203.8506, 1230.070
204.3327, 1210.398
204.8148, 1187.895
205.2969, 1162.559
205.7791, 1134.514
206.2612, 1102.660
206.7433, 1066.370
207.2254, 1026.702
207.7075, 986.0890
208.1896, 944.1926
208.6718, 902.0309
209.1539, 859.0193
209.6360, 814.8564
210.1181, 773.3261
210.6002, 734.5463
211.0823, 698.5558
211.5645, 665.5540
212.0466, 635.5801
212.5287, 608.2022
213.0108, 583.2696
213.4929, 560.7148
213.9750, 540.2735
214.4572, 521.9906
214.9393, 505.8146
215.4214, 491.1208
215.9035, 477.9312
216.3856, 466.0448
216.8678, 455.6220
217.3499, 446.6063
217.8320, 438.7566
218.3141, 432.2782
218.7962, 426.9234
219.2783, 422.0513
219.7605, 417.7196
220.2426, 413.8124
220.7247, 410.3762
221.2068, 407.6180
221.6889, 404.7206
222.1710, 401.5167
222.6532, 398.1933
223.1353, 395.4186
223.6174, 393.1752
224.0995, 391.4715
224.5816, 390.3754
225.0637, 390.1131
225.5459, 389.8805
226.0280, 389.6899
226.5101, 389.5082
226.9922, 389.2440
227.4743, 388.9077
227.9564, 388.4709
228.4386, 387.8007
228.9207, 386.4637
229.4028, 386.0117
229.8849, 386.8445
230.3670, 388.4739
230.8492, 389.5251
231.3313, 389.6274
231.8134, 389.6955
232.2955, 390.1289
232.7776, 390.9511
233.2597, 392.0919
233.7419, 393.6311
234.2240, 395.4784
234.7061, 397.3085
235.1882, 398.8752
235.6703, 400.8043
236.1524, 403.5779
236.6346, 408.1698
237.1167, 411.2988
237.5988, 412.4807
238.0809, 412.3994
238.5630, 412.6212
239.0451, 413.1938
239.5273, 413.9867
240.0094, 414.9561
240.4915, 416.1333
240.9736, 417.3813
241.4557, 418.6564
241.9378, 420.0144
242.4200, 421.6392
242.9021, 423.9352
243.3842, 425.8783
243.8663, 426.9600
244.3484, 426.6924
244.8306, 427.0207
245.3127, 428.0437
245.7948, 429.6035
246.2769, 431.4839
246.7590, 433.9448
247.2411, 436.2365
247.7233, 437.8145
248.2054, 437.9957
248.6875, 440.1564
249.1696, 445.1163
249.6517, 451.4811
250.1338, 456.9076
250.6160, 460.7349
251.0981, 464.8416
251.5802, 469.8230
252.0623, 475.8789
252.5444, 481.9135
253.0265, 487.7417
253.5087, 493.6644
253.9908, 500.0999
254.4729, 507.5807
254.9550, 514.5906
255.4371, 520.6907
255.9192, 525.7500
256.4014, 530.6906
256.8835, 536.1624
257.3656, 540.8683
257.8477, 543.5249
258.3298, 544.3657
258.8120, 542.6028
259.2941, 537.8914
259.7762, 530.1222
260.2583, 520.4406
260.7404, 508.0224
261.2225, 494.5861
261.7047, 481.4448
262.1868, 468.2767
262.6689, 456.1475
263.1510, 445.2136
263.6331, 435.5475
264.1152, 426.4791
264.5974, 417.9391
265.0795, 410.1966
265.5616, 404.0292
266.0437, 400.0131
266.5258, 395.2341
267.0079, 388.5137
267.4901, 380.2899
267.9722, 375.3583
268.4543, 374.8365
268.9364, 375.2868
269.4185, 373.7230
269.9006, 369.5376
270.3828, 365.9789
270.8649, 363.4175
271.3470, 361.8441
271.8291, 361.2436
272.3112, 361.7579
272.7933, 362.8399
273.2755, 364.1252
273.7576, 365.6054
274.2397, 367.2542
274.7218, 368.9903
275.2039, 370.9142
275.6860, 373.3955
276.1682, 376.5470
276.6503, 379.9182
277.1324, 383.2911
277.6145, 386.6439
278.0966, 389.9839
278.5787, 393.3356
279.0609, 396.6576
279.5430, 400.0216
280.0251, 403.4955
280.5072, 406.5633
280.9893, 409.0384
281.4715, 410.9071
281.9536, 411.9527
282.4357, 412.0599
282.9178, 411.5459
283.3999, 411.2628
283.8820, 411.2860
284.3642, 410.0419
284.8463, 406.3319
285.3284, 400.3410
285.8105, 394.5730
286.2926, 389.0314
286.7747, 383.6105
287.2569, 378.3611
287.7390, 373.2554
288.2211, 367.6491
288.7032, 361.0091
289.1853, 353.6161
289.6674, 346.5870
290.1496, 339.9019
290.6317, 333.5058
291.1138, 327.4385
291.5959, 321.6376
292.0780, 315.8686
292.5602, 310.0054
293.0423, 304.0965
293.5244, 298.1653
294.0065, 292.2314
294.4886, 286.5271
294.9707, 281.1637
295.4529, 276.1294
295.9350, 271.5086
296.4171, 267.3390
296.8992, 263.5026
297.3813, 259.9433
297.8634, 256.6538
298.3456, 253.3550
298.8277, 249.6778
299.3098, 245.8732
299.7919, 242.5779
300.2740, 240.1177
300.7561, 237.9136
301.2383, 235.2681
301.7204, 232.2431
302.2025, 229.2947
302.6846, 226.4737
303.1667, 223.9563
303.6488, 221.9779
304.1310, 220.6376
304.6131, 219.7035
305.0952, 219.2542
305.5773, 219.0875
306.0594, 218.6587
306.5415, 217.4506
307.0237, 215.9452
307.5058, 214.5634
307.9879, 213.3303
308.4700, 212.3829
308.9521, 211.9672
309.4343, 211.8906
309.9164, 211.8008
310.3985, 211.5943
310.8806, 211.2811
311.3627, 210.8342
311.8448, 210.2474
312.3270, 209.6601
312.8091, 209.1351
313.2912, 208.6623
313.7733, 208.2298
314.2554, 207.2361
314.7375, 206.7977
315.2197, 207.9384
315.7018, 210.4539
316.1839, 212.5389
316.6660, 213.2884
317.1481, 213.3158
317.6302, 213.1069
318.1124, 212.7072
318.5945, 212.1849
319.0766, 211.2443
319.5587, 210.1219
320.0408, 209.6177
320.5229, 210.5619
321.0051, 211.7857
321.4872, 212.6359
321.9693, 212.8198
322.4514, 212.9711
322.9335, 213.2670
323.4156, 213.6115
323.8978, 213.8190
324.3799, 213.6669
324.8620, 213.5394
325.3441, 213.5234
325.8262, 213.5464
326.3083, 213.9328
326.7905, 214.8669
327.2726, 216.1302
327.7547, 217.4397
328.2368, 219.4900
328.7189, 220.8578
329.2010, 220.9042
329.6832, 219.4265
330.1653, 218.8922
330.6474, 219.9014
331.1295, 221.4223
331.6116, 222.6697
332.0938, 223.7997
332.5759, 224.3670
333.0580, 223.9098
333.5401, 222.6732
334.0222, 222.5647
334.5043, 224.0271
334.9865, 226.0001
335.4686, 227.9498
335.9507, 230.0203
336.4328, 231.6637
336.9149, 232.7589
337.3970, 233.4737
337.8792, 234.1379
338.3613, 234.6365
338.8434, 235.4337
339.3255, 236.8852
339.8076, 239.1358
340.2898, 240.9289
340.7719, 242.1428
341.2540, 243.1436
341.7361, 244.5002
342.2182, 246.2143
342.7003, 248.0554
343.1825, 249.9063
343.6646, 251.8065
344.1467, 253.9591
344.6288, 256.4318
345.1109, 258.9043
345.5930, 260.8566
346.0752, 262.3687
346.5573, 264.5665
347.0394, 268.0035
347.5215, 272.0567
348.0036, 275.6045
348.4857, 278.6236
348.9679, 280.9911
349.4500, 281.9369
349.9321, 282.1327
350.4142, 283.6051
350.8963, 286.8702
351.3784, 290.9704
351.8606, 294.9044
352.3427, 298.6358
352.8248, 302.1145
353.3069, 304.9024
353.7890, 307.5336
354.2711, 310.9476
354.7533, 315.2915
355.2354, 319.6061
355.7175, 322.7523
356.1996, 325.2998
356.6817, 328.2414
357.1638, 332.4138
357.6460, 336.8282
358.1281, 340.7194
358.6102, 344.1051
359.0923, 347.5753
359.5744, 351.7161
360.0565, 355.9530
360.5387, 359.6944
361.0208, 362.2185
361.5029, 364.9319
361.9850, 368.5435
362.4671, 372.8439
362.9492, 377.1466
363.4314, 381.6546
363.9135, 385.7827
364.3956, 389.0750
364.8777, 390.9794
365.3598, 393.2683
365.8419, 396.4082
366.3241, 400.1348
366.8062, 404.0358
367.2883, 408.7274
367.7704, 412.9380
368.2526, 416.1684
368.7347, 418.2132
369.2168, 420.4663
369.6989, 423.4822
370.1810, 426.3978
370.6631, 428.5377
371.1453, 429.6997
371.6274, 430.3806
372.1095, 430.6028
372.5916, 430.3809
373.0737, 429.9046
373.5558, 429.5692
374.0380, 428.3887
374.5201, 425.7181
375.0022, 421.2785
375.4843, 416.3169
375.9664, 410.7113
376.4485, 404.7462
376.9307, 398.9291
377.4128, 393.4480
377.8949, 387.5240
378.3770, 380.8746
378.8591, 373.5476
379.3412, 365.7286
379.8234, 357.4063
380.3055, 348.8638
380.7876, 340.4276
381.2697, 332.0459
381.7518, 324.0960
382.2339, 316.7774
382.7161, 309.8962
383.1982, 302.6776
383.6803, 295.2105
384.1624, 288.2607
384.6445, 282.7220
385.1266, 278.1933
385.6088, 273.7150
386.0909, 269.1802
386.5730, 264.5935
387.0551, 259.7219
387.5372, 254.8237
388.0193, 250.5524
388.5015, 247.6003
388.9836, 245.3114
389.4657, 243.1374
389.9478, 241.0577
390.4299, 238.7529
390.9120, 235.5305
391.3942, 232.0949
391.8763, 229.3682
392.3584, 228.2612
392.8405, 227.3665
393.3226, 225.8468
393.8047, 223.8761
394.2869, 222.2493
394.7690, 221.3645
395.2511, 220.8600
395.7332, 220.5497
396.2154, 220.5210
396.6975, 220.4429
397.1796, 220.0511
397.6617, 219.5965
398.1438, 219.5083
398.6259, 220.5305
399.1081, 221.2528
399.5902, 221.0556
400.0723, 219.6990
400.5544, 219.0775
401.0365, 219.6017
401.5186, 220.5530
402.0008, 221.3256
402.4829, 221.6967
402.9650, 222.3195
403.4471, 223.3345
403.9292, 224.6567
404.4113, 225.8840
404.8935, 226.9424
405.3756, 228.0903
405.8577, 229.5017
406.3398, 231.2070
406.8219, 232.8289
407.3040, 234.3013
407.7862, 235.8231
408.2683, 237.8097
408.7504, 240.2818
409.2325, 242.6106
409.7146, 244.4606
410.1967, 246.0269
410.6789, 248.2099
411.1610, 251.0383
411.6431, 253.8309
412.1252, 255.7122
412.6073, 257.0554
413.0894, 258.9644
413.5716, 261.7373
414.0537, 264.8605
414.5358, 267.8802
415.0179, 270.7318
415.5000, 273.3125
415.9821, 275.4915
416.4643, 277.3686
416.9464, 279.0317
417.4285, 280.4738
417.9106, 281.6919
418.3927, 282.6368
418.8748, 283.3696
419.3570, 283.9473
419.8391, 284.2303
420.3212, 284.5226
420.8033, 285.2116
421.2854, 286.1171
421.7675, 286.4093
422.2497, 285.0258
422.7318, 283.5746
423.2139, 283.0220
423.6960, 284.1393
424.1781, 284.7116
424.6602, 284.3701
425.1424, 283.3863
425.6245, 282.1318
426.1066, 280.1632
426.5887, 278.5346
427.0709, 277.7108
427.5530, 277.6891
428.0351, 276.8590
428.5172, 274.8915
428.9993, 272.5429
429.4814, 270.2555
429.9636, 267.9321
430.4457, 266.0622
430.9278, 264.7687
431.4099, 263.8658
431.8920, 262.8950
432.3741, 261.7964
432.8563, 261.0460
433.3384, 261.3934
433.8205, 262.4750
434.3026, 261.4955
434.7847, 258.2516
435.2668, 254.5649
435.7490, 252.1709
436.2311, 250.8520
436.7132, 249.9746
437.1953, 249.5474
437.6774, 249.2326
438.1595, 248.7943
438.6417, 248.1389
439.1238, 246.8753
439.6059, 243.9281
440.0880, 240.6840
440.5701, 238.7938
441.0522, 238.6019
441.5344, 238.5476
442.0165, 237.5527
442.4986, 236.1587
442.9807, 235.0327
443.4628, 234.2971
443.9449, 233.9655
444.4271, 234.2891
444.9092, 235.1282
445.3913, 235.7096
445.8734, 235.3461
446.3555, 235.0438
446.8376, 235.3038
447.3198, 236.3322
447.8019, 237.6046
448.2840, 239.3149
448.7661, 241.1588
449.2482, 242.6899
449.7303, 243.6449
450.2125, 244.6997
450.6946, 245.9275
451.1767, 247.3548
451.6588, 249.2826
452.1409, 251.8266
452.6230, 254.6381
453.1052, 257.3552
453.5873, 259.9533
454.0694, 263.2288
454.5515, 267.4361
455.0337, 271.9268
455.5158, 275.3204
455.9979, 277.7350
456.4800, 280.4916
456.9621, 284.5043
457.4442, 289.1774
457.9264, 293.2555
458.4085, 296.7284
458.8906, 299.6859
459.3727, 302.1353
459.8548, 304.1057
460.3369, 305.5620
460.8191, 306.4460
461.3012, 306.9923
461.7833, 307.7175
462.2654, 308.2436
462.7475, 307.7851
463.2296, 305.6920
463.7118, 302.7676
464.1939, 299.3653
464.6760, 295.4767
465.1581, 291.2589
465.6402, 286.2048
466.1223, 281.1973
466.6045, 276.9254
467.0866, 274.8520
467.5687, 271.8196
468.0508, 266.7399
468.5329, 260.6570
469.0150, 255.8388
469.4972, 252.8681
469.9793, 250.3734
470.4614, 248.0732
470.9435, 245.9862
471.4256, 243.6332
471.9077, 240.7115
472.3899, 238.1360
472.8720, 236.9554
473.3541, 237.3037
473.8362, 237.2334
474.3183, 236.2962
474.8004, 235.0902
475.2826, 234.8378
475.7647, 235.4889
476.2468, 236.3431
476.7289, 236.8798
477.2110, 237.4004
477.6931, 238.6402
478.1753, 240.6043
478.6574, 242.8059
479.1395, 245.0231
479.6216, 247.1705
480.1037, 249.0095
480.5858, 250.0484
481.0680, 251.5970
481.5501, 254.6521
482.0322, 258.8707
482.5143, 263.5207
482.9964, 269.2195
483.4786, 274.5103
483.9607, 278.5832
484.4428, 281.2823
484.9249, 283.8824
485.4070, 286.7250
485.8892, 289.4645
486.3713, 291.8720
486.8534, 294.4996
487.3355, 295.9538
487.8176, 295.9593
488.2997, 294.8501
488.7819, 293.3379
489.2640, 291.5123
489.7461, 289.0524
490.2282, 285.9229
490.7103, 282.0792
491.1924, 277.0177
491.6746, 270.4132
492.1567, 263.7907
492.6388, 258.8812
493.1209, 255.3709
493.6030, 250.9873
494.0851, 245.1527
494.5673, 238.9245
495.0494, 233.9460
495.5315, 229.9238
496.0136, 225.9884
496.4957, 221.5858
496.9778, 217.1141
497.4600, 212.8423
497.9421, 208.7912
498.4242, 204.9573
498.9063, 201.1712
499.3884, 197.6684
499.8705, 194.6419
500.3527, 192.3137
500.8348, 190.0713
501.3169, 187.6054
501.7990, 185.1679
502.2811, 183.0981
502.7632, 181.7446
503.2454, 180.4900
503.7275, 179.2063
504.2096, 177.9033
504.6917, 176.6346
505.1738, 175.5189
505.6559, 174.3027
506.1381, 172.7339
506.6202, 170.5255
507.1023, 169.2497
507.5844, 169.1990
508.0665, 169.5591
508.5486, 169.2116
509.0308, 168.1371
509.5129, 167.0288
509.9950, 165.9358
510.4771, 165.0358
510.9592, 165.0020
511.4413, 165.7157
511.9235, 166.0687
512.4056, 164.7617
512.8877, 162.8736
513.3698, 162.2256
513.8519, 163.0361
514.3340, 163.7553
514.8162, 163.1591
515.2983, 161.8551
515.7804, 160.5544
516.2625, 159.2964
516.7446, 158.3000
517.2267, 157.9563
517.7089, 157.9586
518.1910, 157.5521
518.6731, 156.1249
519.1552, 154.6882
519.6373, 153.5936
520.1194, 152.8543
520.6016, 152.2586
521.0837, 151.9741
521.5658, 151.6522
522.0479, 150.9226
522.5300, 149.4927
523.0121, 148.7942
523.4943, 149.0981
523.9764, 149.9354
524.4585, 150.5512
524.9406, 150.9350
525.4227, 151.1311
525.9048, 151.1238
526.3870, 150.9536
526.8691, 150.6095
527.3513, 150.1141
527.8334, 149.8114
528.3155, 150.1076
528.7976, 150.6909
529.2797, 151.0234
529.7618, 150.9654
530.2440, 151.1291
530.7261, 152.4360
531.2082, 154.0663
531.6903, 154.9480
532.1724, 153.5119
532.6545, 152.5764
533.1367, 153.4058
533.6188, 155.5280
534.1009, 157.2723
534.5830, 157.9599
535.0651, 158.6391
535.5472, 159.6632
536.0294, 161.1046
536.5115, 162.4718
536.9936, 163.8804
537.4757, 165.0559
537.9578, 165.5582
538.4399, 165.1623
538.9221, 165.7053
539.4042, 167.7102
539.8863, 170.1574
540.3684, 171.2998
540.8505, 171.1945
541.3326, 170.5158
541.8148, 169.5038
542.2969, 168.1157
542.7790, 166.1030
543.2611, 163.5356
543.7432, 160.9115
544.2253, 158.3705
544.7075, 156.0491
545.1896, 154.2151
545.6717, 153.0228
546.1538, 151.6379
546.6359, 149.2467
547.1180, 146.6153
547.6002, 144.5891
548.0823, 143.7891
548.5644, 143.1171
549.0465, 142.4112
549.5286, 141.6888
550.0107, 141.0086
550.4929, 140.3967
550.9750, 139.7871
551.4571, 139.1729
551.9392, 138.5510
552.4213, 137.7940
552.9034, 136.8118
553.3856, 135.9587
553.8677, 135.7077
554.3498, 135.9767
554.8319, 135.6773
555.3140, 134.5944
555.7961, 133.3217
556.2783, 132.5465
556.7604, 132.2074
557.2425, 132.1756
557.7246, 132.7180
558.2067, 133.2198
558.6888, 132.9381
559.1710, 132.0776
559.6531, 131.3302
560.1352, 131.3690
560.6173, 131.3627
561.0994, 130.6163
561.5815, 128.9202
562.0637, 127.8573
562.5458, 128.4483
563.0279, 129.3207
563.5100, 129.4617
563.9921, 128.3237
564.4742, 127.3833
564.9564, 126.6191
565.4385, 126.1054
565.9206, 126.0880
566.4027, 126.7043
566.8848, 127.1191
567.3669, 127.0742
567.8491, 126.6658
568.3312, 126.0923
568.8133, 125.3669
569.2954, 124.7890
569.7775, 124.6308
570.2596, 124.7344
570.7418, 124.8178
571.2239, 124.8635
571.7060, 124.9563
572.1881, 125.2650
572.6702, 125.6100
573.1523, 125.8025
573.6345, 125.8134
574.1166, 125.6304
574.5987, 125.0328
575.0808, 124.2827
575.5629, 123.8063
576.0450, 123.7053
576.5272, 123.8772
577.0093, 124.4668
577.4914, 125.3691
577.9735, 125.8653
578.4556, 125.7713
578.9377, 125.6474
579.4199, 125.8437
579.9020, 126.3706
580.3841, 126.3622
580.8662, 125.6688
581.3483, 125.2417
581.8304, 126.4948
582.3126, 128.8755
582.7947, 130.3286
583.2768, 130.2360
583.7589, 129.8553
584.2410, 130.5777
584.7231, 131.9906
585.2053, 133.2780
