##NAMES=Rosasite
##RRUFFID=R100077
##IDEAL CHEMISTRY=Cu^2+^Zn^2+^CO_3_(OH)_2_
##LOCALITY=79 mine, Hayden, Gila County, Arizona, USA
##OWNER=RRUFF
##SOURCE=Mark Ascher
##DESCRIPTION=Elongated, prismatic but curved, aqua blue crystals, associated with colorless hemimorphite and white granular smithsonite
##STATUS=The identification of this mineral has been confirmed by single-crystal X-ray diffraction.
##URL=rruff.info/R100077
91.53320, 134.5466
92.01532, 137.1440
92.49744, 137.7236
92.97955, 137.1700
93.46167, 135.0749
93.94379, 132.6997
94.42590, 131.3398
94.90802, 130.1876
95.39014, 127.9668
95.87225, 124.4919
96.35437, 120.9096
96.83649, 117.1807
97.31860, 113.8310
97.80072, 111.6229
98.28284, 111.1610
98.76495, 111.8162
99.24707, 110.9473
99.72919, 106.6118
100.2113, 102.9778
100.6934, 101.4689
101.1755, 101.4451
101.6577, 101.4917
102.1398, 100.2619
102.6219, 97.29388
103.1040, 95.52194
103.5861, 95.48240
104.0682, 95.81277
104.5504, 95.84527
105.0325, 95.44839
105.5146, 94.83542
105.9967, 94.29438
106.4788, 93.91644
106.9609, 93.32391
107.4431, 92.23255
107.9252, 90.97405
108.4073, 89.98035
108.8894, 89.37880
109.3715, 89.12624
109.8536, 89.19048
110.3358, 89.62048
110.8179, 90.05720
111.3000, 90.26295
111.7821, 90.26685
112.2642, 90.35591
112.7463, 90.67258
113.2285, 91.11592
113.7106, 91.55261
114.1927, 91.92242
114.6748, 92.38633
115.1569, 93.22751
115.6390, 94.65208
116.1212, 95.94298
116.6033, 96.59846
117.0854, 97.14156
117.5675, 98.14088
118.0496, 99.92735
118.5317, 102.3127
119.0139, 104.3849
119.4960, 106.1796
119.9781, 107.5434
120.4602, 108.1437
120.9423, 108.3075
121.4244, 108.5786
121.9066, 109.3925
122.3887, 110.8014
122.8708, 112.0551
123.3529, 113.2109
123.8350, 114.2152
124.3171, 115.0865
124.7993, 115.8035
125.2814, 116.2448
125.7635, 116.2067
126.2456, 115.5306
126.7277, 115.2596
127.2098, 115.6959
127.6920, 116.4152
128.1741, 116.9928
128.6562, 117.3388
129.1383, 117.5618
129.6204, 117.8768
130.1025, 118.2817
130.5847, 118.3658
131.0668, 117.7137
131.5489, 116.5540
132.0310, 115.6999
132.5131, 115.4340
132.9952, 115.4189
133.4774, 115.4177
133.9595, 115.4192
134.4416, 115.2724
134.9237, 114.7582
135.4058, 113.8024
135.8879, 112.9885
136.3701, 112.8244
136.8522, 112.5870
137.3343, 111.9065
137.8164, 110.6764
138.2985, 108.9596
138.7806, 106.7255
139.2628, 103.3036
139.7449, 100.6312
140.2270, 99.42280
140.7091, 98.65891
141.1912, 97.34469
141.6733, 95.04027
142.1555, 92.11707
142.6376, 89.88836
143.1197, 89.34365
143.6018, 88.43374
144.0839, 86.67142
144.5660, 84.43233
145.0482, 82.32299
145.5303, 80.70722
146.0124, 79.51730
146.4945, 78.20399
146.9766, 76.60469
147.4587, 75.07315
147.9409, 73.88651
148.4230, 72.95518
148.9051, 71.84875
149.3872, 70.16635
149.8693, 68.02969
150.3514, 66.21365
150.8336, 64.85430
151.3157, 63.74514
151.7978, 62.71621
152.2799, 61.75815
152.7620, 60.88178
153.2441, 60.14399
153.7263, 59.49158
154.2084, 58.83217
154.6905, 58.17059
155.1726, 57.48293
155.6547, 56.62822
156.1368, 55.34208
156.6190, 54.41143
157.1011, 54.39488
157.5832, 54.98022
158.0653, 55.57790
158.5474, 55.86342
159.0295, 55.84461
159.5117, 55.61008
159.9938, 54.80676
160.4759, 54.13056
160.9580, 53.85944
161.4401, 53.93153
161.9222, 54.15041
162.4044, 54.36370
162.8865, 54.58417
163.3686, 54.72345
163.8507, 54.78344
164.3328, 54.77036
164.8149, 54.61718
165.2971, 54.36020
165.7792, 54.12829
166.2613, 54.05419
166.7434, 54.10960
167.2255, 54.48063
167.7076, 55.50529
168.1898, 56.57268
168.6719, 57.21336
169.1540, 57.34905
169.6361, 57.26879
170.1182, 57.36703
170.6003, 57.70779
171.0825, 58.09537
171.5646, 58.58491
172.0467, 59.09290
172.5288, 59.51677
173.0109, 59.82277
173.4930, 60.06872
173.9752, 60.33661
174.4573, 60.61924
174.9394, 60.93812
175.4215, 61.37043
175.9036, 61.84455
176.3857, 62.20514
176.8679, 62.42163
177.3500, 62.47889
177.8321, 62.29164
178.3142, 61.81902
178.7963, 61.50425
179.2784, 61.77723
179.7606, 62.54741
180.2427, 63.04580
180.7248, 62.90058
181.2069, 62.53819
181.6890, 62.29101
182.1711, 62.18060
182.6533, 62.22514
183.1354, 62.54098
183.6175, 63.18862
184.0996, 63.62865
184.5817, 63.60817
185.0638, 63.41040
185.5460, 63.15100
186.0281, 62.85958
186.5102, 62.55499
186.9923, 62.27870
187.4744, 62.07658
187.9565, 61.77309
188.4387, 61.32146
188.9208, 60.79066
189.4029, 60.23220
189.8850, 59.65843
190.3671, 59.04902
190.8492, 58.32775
191.3314, 57.27925
191.8135, 56.50023
192.2956, 56.32129
192.7777, 56.25110
193.2598, 55.75303
193.7419, 54.63365
194.2241, 53.24728
194.7062, 52.45044
195.1883, 53.18718
195.6704, 53.44379
196.1525, 52.75378
196.6346, 51.69878
197.1168, 50.99474
197.5989, 50.96276
198.0810, 51.34310
198.5631, 51.38277
199.0452, 50.83201
199.5273, 50.29883
200.0095, 49.78881
200.4916, 49.36921
200.9737, 49.18398
201.4558, 49.33331
201.9379, 49.68416
202.4200, 49.87339
202.9022, 50.00500
203.3843, 49.87206
203.8664, 49.05895
204.3485, 47.87305
204.8306, 47.26993
205.3127, 47.90874
205.7949, 49.09958
206.2770, 49.27993
206.7591, 48.06065
207.2412, 46.78228
207.7233, 46.26617
208.2054, 46.40181
208.6876, 46.53337
209.1697, 46.44334
209.6518, 46.16602
210.1339, 45.79357
210.6160, 45.32927
211.0981, 44.77259
211.5803, 44.00066
212.0624, 43.01302
212.5445, 42.30711
213.0266, 42.28642
213.5087, 42.51031
213.9908, 42.53987
214.4730, 42.27829
214.9551, 42.01324
215.4372, 42.18428
215.9193, 42.91670
216.4014, 43.30737
216.8836, 42.65652
217.3657, 41.80900
217.8478, 41.31855
218.3299, 41.32235
218.8120, 41.57412
219.2941, 41.80714
219.7763, 42.09032
220.2584, 42.11153
220.7405, 41.63544
221.2226, 41.00642
221.7047, 40.37313
222.1868, 39.79043
222.6690, 39.36994
223.1511, 39.35981
223.6332, 40.06459
224.1153, 40.47922
224.5974, 40.45919
225.0795, 40.20034
225.5617, 39.78401
226.0438, 39.25049
226.5259, 38.67089
227.0080, 38.13540
227.4901, 37.47422
227.9722, 37.22015
228.4544, 37.77651
228.9365, 38.45020
229.4186, 38.64410
229.9007, 38.21401
230.3828, 37.50971
230.8649, 37.15223
231.3471, 37.50030
231.8292, 37.62749
232.3113, 37.37685
232.7934, 37.01775
233.2755, 36.79585
233.7576, 36.77154
234.2398, 36.78990
234.7219, 36.58517
235.2040, 35.89877
235.6861, 35.45497
236.1682, 35.49212
236.6503, 35.63730
237.1325, 35.51332
237.6146, 35.03004
238.0967, 34.42844
238.5788, 34.06404
239.0609, 34.03159
239.5430, 34.05932
240.0252, 34.14812
240.5073, 34.29081
240.9894, 34.59049
241.4715, 35.06994
241.9536, 35.39390
242.4357, 34.98076
242.9179, 33.54864
243.4000, 32.66901
243.8821, 32.97107
244.3642, 33.67615
244.8463, 33.88727
245.3284, 33.40992
245.8106, 32.76508
246.2927, 32.61356
246.7748, 32.98022
247.2569, 33.15845
247.7390, 33.05654
248.2211, 32.70770
248.7033, 32.07146
249.1854, 31.10748
249.6675, 30.10622
250.1496, 29.25300
250.6317, 28.55687
251.1138, 28.28237
251.5960, 28.85682
252.0781, 29.72620
252.5602, 30.20207
253.0423, 30.20584
253.5244, 29.90794
254.0065, 29.19865
254.4887, 28.25954
254.9708, 27.62859
255.4529, 27.75123
255.9350, 28.13380
256.4171, 27.94365
256.8992, 26.98777
257.3813, 26.23768
257.8635, 26.77245
258.3456, 27.96711
258.8277, 28.79186
259.3098, 28.82735
259.7919, 28.40900
260.2740, 27.93062
260.7562, 27.34751
261.2383, 26.89804
261.7204, 26.76462
262.2025, 26.83747
262.6846, 27.03437
263.1667, 27.41553
263.6489, 27.80885
264.1310, 27.97788
264.6131, 27.90382
265.0952, 27.68535
265.5773, 27.18909
266.0594, 26.64026
266.5416, 26.25664
267.0237, 26.11057
267.5058, 26.10915
267.9879, 26.12661
268.4700, 26.15032
268.9521, 26.25363
269.4343, 26.58425
269.9164, 26.94265
270.3985, 27.16768
270.8806, 27.21601
271.3627, 27.17948
271.8448, 27.21491
272.3270, 27.37776
272.8091, 27.32150
273.2912, 26.53770
273.7733, 25.77566
274.2554, 25.50710
274.7375, 25.81052
275.2197, 26.44378
275.7018, 27.39112
276.1839, 28.82777
276.6660, 29.41152
277.1481, 27.80344
277.6302, 26.09963
278.1124, 25.37165
278.5945, 25.66467
279.0766, 26.33603
279.5587, 26.87207
280.0408, 27.29602
280.5229, 27.39069
281.0051, 26.79154
281.4872, 26.14310
281.9693, 25.61918
282.4514, 25.26619
282.9335, 25.12535
283.4156, 25.26993
283.8978, 25.70526
284.3799, 26.17752
284.8620, 26.85341
285.3441, 27.38820
285.8262, 27.68468
286.3083, 27.74950
286.7905, 27.57647
287.2726, 27.05430
287.7547, 26.26599
288.2368, 26.06769
288.7189, 27.22654
289.2010, 28.07483
289.6832, 27.97883
290.1653, 27.32853
290.6474, 26.71462
291.1295, 26.47304
291.6116, 26.52623
292.0938, 26.55493
292.5759, 26.42105
293.0580, 26.47945
293.5401, 26.98928
294.0222, 27.63639
294.5043, 28.07556
294.9865, 28.15259
295.4686, 27.95612
295.9507, 27.65778
296.4328, 27.03323
296.9149, 26.73254
297.3970, 27.02474
297.8792, 27.51460
298.3613, 27.89265
298.8434, 28.05804
299.3255, 28.06569
299.8076, 27.98036
300.2897, 27.71265
300.7719, 27.55869
301.2540, 27.56653
301.7361, 27.64673
302.2182, 27.75310
302.7003, 27.87346
303.1824, 28.01163
303.6646, 28.15167
304.1467, 28.24444
304.6288, 28.52629
305.1109, 29.35876
305.5930, 30.05796
306.0751, 30.16584
306.5573, 29.79275
307.0394, 29.42621
307.5215, 29.53762
308.0036, 30.17306
308.4857, 30.62127
308.9678, 30.76348
309.4500, 30.82596
309.9321, 30.81864
310.4142, 30.78052
310.8963, 30.80437
311.3784, 30.99208
311.8605, 31.27708
312.3427, 31.11364
312.8248, 29.56721
313.3069, 28.68055
313.7890, 29.28849
314.2711, 30.61722
314.7532, 31.66951
315.2354, 31.94452
315.7175, 31.68342
316.1996, 31.58854
316.6817, 31.94630
317.1638, 31.99788
317.6459, 31.36633
318.1281, 30.58668
318.6102, 30.18353
319.0923, 30.30841
319.5744, 30.66059
320.0565, 30.72453
320.5386, 30.31322
321.0208, 30.04397
321.5029, 30.07681
321.9850, 30.13409
322.4671, 29.95952
322.9492, 29.57363
323.4313, 29.27123
323.9135, 29.43612
324.3956, 30.21338
324.8777, 30.71720
325.3598, 30.87803
325.8419, 30.83041
326.3240, 30.48067
326.8062, 29.94305
327.2883, 29.48987
327.7704, 29.37451
328.2525, 29.56370
328.7346, 29.44793
329.2167, 28.61686
329.6989, 27.93490
330.1810, 27.69112
330.6631, 27.70877
331.1452, 27.74685
331.6273, 27.69065
332.1094, 27.52133
332.5916, 27.14391
333.0737, 26.30712
333.5558, 25.70255
334.0379, 25.57708
334.5200, 25.63200
335.0021, 25.56530
335.4843, 25.28264
335.9664, 24.96646
336.4485, 25.00773
336.9306, 25.69908
337.4127, 25.85944
337.8948, 24.85882
338.3770, 23.71330
338.8591, 22.90368
339.3412, 22.52436
339.8233, 22.52563
340.3055, 23.01535
340.7876, 24.07817
341.2697, 24.76036
341.7518, 25.08259
342.2339, 24.93918
342.7160, 23.90151
343.1982, 22.34596
343.6803, 21.13053
344.1624, 20.92183
344.6445, 21.50576
345.1266, 21.79788
345.6087, 21.60903
346.0909, 21.42568
346.5730, 21.41331
347.0551, 21.49723
347.5372, 21.57132
348.0193, 21.58045
348.5014, 21.60448
348.9836, 21.85744
349.4657, 22.47850
349.9478, 22.85382
350.4299, 22.53848
350.9120, 22.09086
351.3941, 21.95016
351.8763, 22.19298
352.3584, 22.49621
352.8405, 22.52010
353.3226, 22.25725
353.8047, 21.97491
354.2868, 21.59631
354.7690, 21.33061
355.2511, 21.42688
355.7332, 21.78660
356.2153, 21.99777
356.6974, 21.64159
357.1795, 20.89692
357.6617, 20.46160
358.1438, 20.39122
358.6259, 20.54597
359.1080, 21.00505
359.5901, 21.59309
360.0722, 22.04463
360.5544, 22.31161
361.0365, 22.34692
361.5186, 21.99888
362.0007, 21.21552
362.4828, 20.45170
362.9649, 19.65862
363.4471, 19.13522
363.9292, 19.34104
364.4113, 20.48444
364.8934, 21.63118
365.3755, 22.04965
365.8576, 21.83581
366.3398, 21.47551
366.8219, 20.95488
367.3040, 20.50653
367.7861, 20.45630
368.2682, 20.75968
368.7503, 20.94320
369.2325, 20.66044
369.7146, 20.18446
370.1967, 20.00445
370.6788, 20.19212
371.1609, 20.49305
371.6430, 20.78741
372.1252, 21.04299
372.6073, 21.14702
373.0894, 20.89819
373.5715, 20.64053
374.0536, 20.74478
374.5357, 21.13558
375.0179, 21.31089
375.5000, 20.88859
375.9821, 20.23201
376.4642, 20.26314
376.9463, 21.35223
377.4284, 22.18262
377.9106, 22.05811
378.3927, 21.40270
378.8748, 20.90210
379.3569, 20.72921
379.8390, 20.81738
380.3211, 21.19429
380.8033, 21.97638
381.2854, 22.30108
381.7675, 21.53662
382.2496, 20.69977
382.7317, 20.71714
383.2138, 21.55429
383.6960, 22.42872
384.1781, 22.74047
384.6602, 22.53706
385.1423, 22.56846
385.6244, 23.33406
386.1065, 23.73788
386.5887, 23.07062
387.0708, 21.86126
387.5529, 21.01631
388.0350, 20.93776
388.5171, 21.35629
388.9992, 21.68783
389.4814, 21.96426
389.9635, 22.08032
390.4456, 21.89678
390.9277, 21.64788
391.4098, 21.48166
391.8919, 21.44043
392.3741, 21.53890
392.8562, 21.81358
393.3383, 22.30107
393.8204, 22.69237
394.3025, 23.09097
394.7846, 23.29689
395.2668, 23.11308
395.7489, 22.69919
396.2310, 22.33378
396.7131, 22.17629
397.1952, 22.19082
397.6773, 22.26942
398.1595, 22.55302
398.6416, 22.65634
399.1237, 22.27682
399.6058, 21.87146
400.0879, 21.87482
400.5700, 22.36793
401.0522, 23.03950
401.5343, 23.58605
402.0164, 24.03521
402.4985, 24.16457
402.9806, 23.68393
403.4627, 23.13001
403.9449, 22.57914
404.4270, 22.13202
404.9091, 22.02721
405.3912, 22.61459
405.8733, 23.55062
406.3554, 23.60036
406.8376, 22.24618
407.3197, 21.30498
407.8018, 22.02950
408.2839, 23.28307
408.7660, 23.89137
409.2481, 23.52198
409.7303, 22.82800
410.2124, 22.45481
410.6945, 22.37876
411.1766, 22.20647
411.6587, 21.79842
412.1408, 21.34052
412.6230, 20.89694
413.1051, 20.49848
413.5872, 20.42737
414.0693, 21.12977
414.5514, 22.11104
415.0335, 22.54614
415.5157, 22.35672
415.9978, 21.97370
416.4799, 21.54049
416.9620, 21.14828
417.4441, 21.05066
417.9262, 21.52618
418.4084, 21.93913
418.8905, 21.85500
419.3726, 21.42664
419.8547, 21.06503
420.3368, 20.93011
420.8189, 20.84335
421.3011, 20.44368
421.7832, 19.55966
422.2653, 19.10749
422.7474, 19.58177
423.2295, 20.26032
423.7116, 20.48947
424.1938, 20.25465
424.6759, 19.98230
425.1580, 20.02628
425.6401, 20.35660
426.1222, 20.40814
426.6043, 19.85287
427.0865, 19.44472
427.5686, 19.42597
428.0507, 19.64836
428.5328, 19.90852
429.0149, 20.12765
429.4970, 20.33987
429.9792, 20.63815
430.4613, 21.24475
430.9434, 21.42853
431.4255, 20.87243
431.9076, 20.25027
432.3897, 19.96786
432.8719, 19.97849
433.3540, 19.97329
433.8361, 19.68055
434.3182, 19.16809
434.8003, 18.94860
435.2824, 19.28039
435.7646, 19.51511
436.2467, 19.42929
436.7288, 19.20723
437.2109, 19.03797
437.6930, 18.98063
438.1751, 18.97728
438.6573, 19.01200
439.1394, 19.10190
439.6215, 18.94657
440.1036, 18.18343
440.5857, 17.53049
441.0678, 17.55407
441.5500, 18.10077
442.0321, 18.56948
442.5142, 18.57888
442.9963, 18.35050
443.4784, 18.30808
443.9605, 18.47983
444.4427, 18.62333
444.9248, 18.65745
445.4069, 18.56056
445.8890, 18.26105
446.3711, 17.61982
446.8532, 17.15485
447.3354, 17.33881
447.8175, 17.88495
448.2996, 18.16341
448.7817, 18.02259
449.2638, 17.67113
449.7459, 17.23618
450.2281, 16.71004
450.7102, 16.54827
451.1923, 17.13898
451.6744, 17.76883
452.1565, 18.15047
452.6386, 18.21020
453.1208, 17.65288
453.6029, 16.21007
454.0850, 14.43019
454.5671, 13.84673
455.0492, 15.97754
455.5313, 17.26404
456.0135, 16.98656
456.4956, 16.30757
456.9777, 16.21997
457.4598, 16.79998
457.9419, 17.41709
458.4240, 17.42793
458.9062, 16.81888
459.3883, 16.58879
459.8704, 17.26259
460.3525, 17.73292
460.8346, 17.63813
461.3167, 17.25043
461.7989, 16.89148
462.2810, 16.68063
462.7631, 16.60540
463.2452, 16.68048
463.7273, 16.93919
464.2094, 17.15054
464.6916, 17.28208
465.1737, 17.35771
465.6558, 17.38063
466.1379, 17.35858
466.6200, 17.31392
467.1021, 17.22446
467.5843, 17.13550
468.0664, 17.14643
468.5485, 17.26714
469.0306, 17.42351
469.5127, 17.64077
469.9948, 17.83735
470.4770, 17.88171
470.9591, 17.73764
471.4412, 17.56220
471.9233, 17.43974
472.4054, 17.33751
472.8875, 17.15775
473.3697, 16.87360
473.8518, 16.66842
474.3339, 16.73954
474.8160, 17.08715
475.2981, 17.33206
475.7802, 17.43910
476.2624, 17.48325
476.7445, 17.52713
477.2266, 17.52780
477.7087, 17.36361
478.1908, 16.98180
478.6729, 16.53489
479.1551, 16.30710
479.6372, 16.43107
480.1193, 16.46733
480.6014, 16.21553
481.0835, 16.06617
481.5656, 16.32873
482.0478, 16.89020
482.5299, 17.42059
483.0120, 17.70675
483.4941, 17.79027
483.9762, 17.80784
484.4583, 17.72725
484.9405, 17.64543
485.4226, 17.53408
485.9047, 17.46020
486.3868, 17.48630
486.8689, 17.61637
487.3510, 17.79486
487.8332, 18.02314
488.3153, 18.27188
488.7974, 18.40546
489.2795, 18.41679
489.7616, 18.31599
490.2437, 17.98139
490.7259, 17.56661
491.2080, 17.31571
491.6901, 17.32158
492.1722, 17.40265
492.6543, 17.39911
493.1364, 17.36542
493.6186, 17.51655
494.1007, 17.95895
494.5828, 18.37468
495.0649, 18.36210
495.5470, 17.86976
496.0291, 17.48482
496.5113, 17.11503
496.9934, 16.95868
497.4755, 17.38995
497.9576, 18.12458
498.4397, 18.42551
498.9218, 17.91654
499.4040, 16.99400
499.8861, 16.56895
500.3682, 17.13409
500.8503, 17.29368
501.3324, 16.70773
501.8145, 16.05599
502.2967, 15.74471
502.7788, 15.74961
503.2609, 15.83750
503.7430, 15.85501
504.2251, 15.82030
504.7072, 15.80877
505.1894, 15.84616
505.6715, 15.84675
506.1536, 15.61021
506.6357, 15.44571
507.1178, 15.66629
507.5999, 16.29122
508.0821, 16.95701
508.5642, 17.50021
509.0463, 17.87541
509.5284, 17.89852
510.0105, 17.49899
510.4926, 17.00296
510.9748, 16.52112
511.4569, 16.11294
511.9390, 15.91658
512.4211, 16.06346
512.9032, 16.19824
513.3853, 16.12416
513.8674, 15.92814
514.3495, 15.74938
514.8317, 15.61784
515.3138, 15.52789
515.7959, 15.49734
516.2780, 15.53989
516.7601, 15.39985
517.2422, 14.72519
517.7244, 14.29072
518.2065, 14.47248
518.6886, 15.01820
519.1707, 15.67729
519.6528, 16.33092
520.1349, 16.74682
520.6171, 16.45064
521.0992, 15.15769
521.5813, 14.31416
522.0634, 14.11193
522.5455, 14.20611
523.0276, 14.66965
523.5098, 15.31472
523.9919, 15.82896
524.4740, 16.08231
524.9561, 16.13390
525.4382, 16.08859
525.9203, 15.94847
526.4025, 15.53122
526.8846, 14.55439
527.3667, 13.61249
527.8488, 13.33150
528.3309, 13.62042
528.8130, 13.92583
529.2952, 14.12667
529.7773, 14.24494
530.2594, 14.19029
530.7415, 14.03753
531.2236, 14.19046
531.7057, 14.91365
532.1879, 15.78239
532.6700, 15.94544
533.1521, 14.95440
533.6342, 14.25649
534.1163, 13.91158
534.5984, 13.83856
535.0806, 14.14965
535.5627, 14.69772
536.0448, 15.13374
536.5269, 15.23718
537.0090, 15.09574
537.4911, 14.98168
537.9733, 14.97102
538.4554, 14.81275
538.9375, 14.15230
539.4196, 13.60901
539.9017, 13.66091
540.3839, 14.22517
540.8660, 14.82183
541.3481, 15.25163
541.8302, 15.44737
542.3123, 15.07109
542.7944, 14.01220
543.2766, 13.38486
543.7587, 13.86106
544.2408, 14.81212
544.7229, 15.33758
545.2050, 15.41436
545.6871, 15.33250
546.1693, 15.01347
546.6514, 14.69308
547.1335, 14.68754
547.6156, 14.96909
548.0977, 15.23470
548.5798, 15.30501
549.0620, 15.21837
549.5441, 15.10459
550.0262, 14.90004
550.5083, 14.75472
550.9904, 14.74503
551.4725, 14.73699
551.9547, 14.60924
552.4368, 14.37940
552.9189, 14.15683
553.4010, 14.02625
553.8831, 13.96385
554.3652, 13.84518
554.8474, 13.56333
555.3295, 13.49765
555.8116, 14.10194
556.2937, 14.71096
556.7758, 14.76268
557.2579, 14.26109
557.7401, 13.76320
558.2222, 13.57621
558.7043, 13.60935
559.1864, 13.82355
559.6685, 14.21711
560.1506, 14.29528
560.6328, 13.67923
561.1149, 12.73330
561.5970, 12.28385
562.0791, 12.47328
562.5612, 12.59341
563.0433, 12.24171
563.5255, 11.97281
564.0076, 12.45287
564.4897, 13.51568
564.9718, 14.36196
565.4539, 14.46382
565.9360, 14.03411
566.4182, 13.78695
566.9003, 13.81699
567.3824, 13.85378
567.8645, 13.84366
568.3466, 13.86242
568.8287, 14.05152
569.3109, 14.33088
569.7930, 14.40497
570.2751, 13.97620
570.7572, 13.34746
571.2393, 13.22618
571.7214, 13.66109
572.2036, 14.02517
572.6857, 14.18465
573.1678, 14.11204
573.6499, 13.63327
574.1320, 12.76243
574.6141, 12.23834
575.0963, 12.52591
575.5784, 13.03402
576.0605, 13.28175
576.5426, 13.30458
577.0247, 13.27874
577.5068, 13.27221
577.9890, 13.33634
578.4711, 13.60031
578.9532, 14.29628
579.4353, 14.58357
579.9174, 14.08017
580.3995, 13.60298
580.8817, 13.56939
581.3638, 13.85090
581.8459, 14.19714
582.3280, 14.50911
582.8101, 14.68200
583.2922, 14.41693
583.7744, 13.65917
584.2565, 13.31923
584.7386, 13.79010
585.2207, 14.30902
585.7029, 14.31069
586.1850, 13.94470
586.6671, 13.56893
587.1492, 13.19220
587.6313, 12.93116
