##NAMES=Rosasite
##RRUFFID=R100077
##IDEAL CHEMISTRY=Cu^2+^Zn^2+^CO_3_(OH)_2_
##LOCALITY=79 mine, Hayden, Gila County, Arizona, USA
##OWNER=RRUFF
##SOURCE=Mark Ascher
##DESCRIPTION=Elongated, prismatic but curved, aqua blue crystals, associated with colorless hemimorphite and white granular smithsonite
##STATUS=The identification of this mineral has been confirmed by single-crystal X-ray diffraction.
##URL=rruff.info/R100077
90.97430, 30.26541
91.45642, 30.45368
91.93854, 29.87266
92.42065, 29.07983
92.90277, 29.02014
93.38489, 29.87655
93.86700, 30.89619
94.34912, 31.22065
94.83124, 30.91017
95.31335, 30.28973
95.79547, 29.14873
96.27759, 27.74994
96.75970, 27.26932
97.24182, 28.16661
97.72394, 29.69753
98.20605, 30.18912
98.68817, 29.54636
99.17029, 28.63261
99.65240, 28.12795
100.1345, 28.06311
100.6166, 27.91324
101.0988, 27.50446
101.5809, 26.89689
102.0630, 26.63354
102.5451, 26.84161
103.0272, 27.16343
103.5093, 27.24661
103.9915, 27.12232
104.4736, 26.64406
104.9557, 25.48457
105.4378, 23.27375
105.9199, 22.58164
106.4020, 24.34445
106.8842, 27.16292
107.3663, 28.60419
107.8484, 27.76955
108.3305, 26.58013
108.8126, 25.68808
109.2947, 25.41045
109.7769, 24.90211
110.2590, 23.95259
110.7411, 22.73196
111.2232, 21.79460
111.7053, 21.21552
112.1874, 20.87343
112.6696, 20.72018
113.1517, 21.04465
113.6338, 21.24170
114.1159, 21.21885
114.5980, 20.99116
115.0801, 20.66420
115.5623, 19.63412
116.0444, 18.81780
116.5265, 18.92301
117.0086, 21.46543
117.4907, 23.79682
117.9728, 24.90164
118.4550, 24.72481
118.9371, 24.05527
119.4192, 22.65916
119.9013, 21.09833
120.3834, 20.11223
120.8655, 20.41160
121.3477, 21.13231
121.8298, 21.74732
122.3119, 22.24010
122.7940, 22.48391
123.2761, 22.17430
123.7582, 21.52909
124.2404, 21.03336
124.7225, 20.84803
125.2046, 20.99087
125.6867, 21.57377
126.1688, 22.76289
126.6509, 24.02869
127.1331, 24.62833
127.6152, 24.70785
128.0973, 24.99308
128.5794, 26.14116
129.0615, 27.86858
129.5436, 29.42588
130.0258, 30.41022
130.5079, 31.41620
130.9900, 33.59345
131.4721, 36.92254
131.9542, 40.80786
132.4363, 44.88351
132.9185, 49.12588
133.4006, 53.30568
133.8827, 57.03469
134.3648, 60.67897
134.8469, 65.93128
135.3290, 72.93233
135.8112, 80.96016
136.2933, 89.08035
136.7754, 97.29154
137.2575, 106.1248
137.7396, 115.5555
138.2217, 125.4533
138.7039, 137.3946
139.1860, 151.7399
139.6681, 167.6028
140.1502, 184.1351
140.6323, 201.3302
141.1144, 218.6800
141.5966, 236.3175
142.0787, 254.5495
142.5608, 271.2728
143.0429, 286.4026
143.5250, 300.0499
144.0071, 312.1837
144.4893, 322.0563
144.9714, 331.4577
145.4535, 340.9162
145.9356, 349.9870
146.4177, 360.2479
146.8998, 372.2059
147.3820, 385.4520
147.8641, 398.8530
148.3462, 412.3700
148.8283, 425.9088
149.3104, 439.6668
149.7925, 455.8447
150.2747, 469.2531
150.7568, 479.0234
151.2389, 485.3400
151.7210, 490.0991
152.2031, 494.5359
152.6852, 496.6526
153.1674, 495.2382
153.6495, 487.4229
154.1316, 478.9952
154.6137, 470.8625
155.0958, 463.0623
155.5779, 454.3477
156.0601, 443.6909
156.5422, 432.4326
157.0243, 421.8430
157.5064, 412.3597
157.9885, 403.3610
158.4706, 394.7288
158.9528, 386.4695
159.4349, 378.4440
159.9170, 369.8684
160.3991, 361.7285
160.8812, 355.1639
161.3633, 351.5938
161.8455, 348.7944
162.3276, 345.6814
162.8097, 341.9977
163.2918, 338.9821
163.7739, 337.2825
164.2560, 336.2165
164.7382, 333.2344
165.2203, 328.9018
165.7024, 325.7944
166.1845, 325.2554
166.6666, 327.9144
167.1487, 331.4300
167.6309, 334.6841
168.1130, 337.8794
168.5951, 341.3856
169.0772, 345.0290
169.5593, 349.2579
170.0414, 354.5479
170.5236, 361.2466
171.0057, 368.3836
171.4878, 375.5607
171.9699, 382.7468
172.4520, 389.6845
172.9341, 395.8607
173.4163, 401.9162
173.8984, 408.6324
174.3805, 416.3864
174.8626, 424.5210
175.3447, 432.9187
175.8268, 441.4579
176.3090, 449.5938
176.7911, 456.0484
177.2732, 461.9467
177.7553, 469.1489
178.2374, 478.6270
178.7195, 489.0614
179.2017, 498.6021
179.6838, 507.4530
180.1659, 516.7247
180.6480, 527.0502
181.1301, 538.4618
181.6122, 551.3251
182.0944, 565.9557
182.5765, 581.8846
183.0586, 598.5534
183.5407, 615.6778
184.0228, 634.2673
184.5049, 655.3688
184.9871, 678.6666
185.4692, 702.2499
185.9513, 726.1425
186.4334, 749.8347
186.9155, 772.8734
187.3976, 795.1703
187.8798, 816.6757
188.3619, 838.6783
188.8440, 860.7098
189.3261, 878.2723
189.8082, 890.3622
190.2903, 896.9823
190.7725, 898.6295
191.2546, 895.5041
191.7367, 886.5291
192.2188, 869.1508
192.7009, 843.5383
193.1830, 815.4365
193.6652, 786.9703
194.1473, 757.6788
194.6294, 725.3175
195.1115, 688.9007
195.5936, 652.6544
196.0757, 622.5147
196.5579, 598.6152
197.0400, 576.3219
197.5221, 553.4857
198.0042, 530.3831
198.4863, 510.0552
198.9684, 492.8870
199.4506, 477.8466
199.9327, 463.4850
200.4148, 449.5822
200.8969, 437.6069
201.3790, 428.5587
201.8611, 422.5855
202.3433, 416.0792
202.8254, 408.5560
203.3075, 401.2231
203.7896, 396.5811
204.2717, 395.0785
204.7538, 393.7794
205.2360, 391.3702
205.7181, 387.6965
206.2002, 384.3472
206.6823, 381.4396
207.1644, 378.7127
207.6465, 375.5934
208.1287, 371.9598
208.6108, 368.4811
209.0929, 365.7116
209.5750, 363.9811
210.0571, 361.0448
210.5392, 356.5088
211.0214, 351.1164
211.5035, 346.2946
211.9856, 342.0824
212.4677, 338.4653
212.9498, 335.5217
213.4319, 333.4156
213.9140, 331.4306
214.3962, 329.6319
214.8783, 327.8914
215.3604, 325.9108
215.8425, 323.5395
216.3246, 321.2130
216.8067, 319.0124
217.2889, 316.8009
217.7710, 315.3047
218.2531, 314.8637
218.7352, 314.9666
219.2173, 314.3507
219.6994, 312.7608
220.1816, 310.9207
220.6637, 309.0419
221.1458, 306.9349
221.6279, 305.3545
222.1100, 304.4562
222.5921, 304.0310
223.0743, 303.5186
223.5564, 302.9126
224.0385, 302.2534
224.5206, 301.5679
225.0027, 300.8287
225.4848, 300.0907
225.9670, 299.1612
226.4491, 298.3062
226.9312, 298.3311
227.4133, 299.8087
227.8954, 301.2378
228.3775, 301.8666
228.8597, 301.3609
229.3418, 300.9593
229.8239, 301.1117
230.3060, 301.2483
230.7881, 299.6655
231.2702, 295.3943
231.7524, 290.8075
232.2345, 287.0789
232.7166, 284.7230
233.1987, 281.8971
233.6808, 278.6746
234.1629, 274.9785
234.6451, 270.4635
235.1272, 264.8487
235.6093, 258.8976
236.0914, 252.8362
236.5735, 246.2518
237.0556, 240.5241
237.5378, 235.7567
238.0199, 231.8205
238.5020, 228.4593
238.9841, 225.9239
239.4662, 223.5424
239.9483, 221.0156
240.4305, 218.2841
240.9126, 215.5868
241.3947, 212.8286
241.8768, 210.1276
242.3589, 207.8216
242.8410, 206.1796
243.3232, 204.5124
243.8053, 202.4548
244.2874, 199.5295
244.7695, 197.3989
245.2516, 196.4089
245.7337, 196.0619
246.2159, 195.2651
246.6980, 193.9229
247.1801, 192.2795
247.6622, 190.3601
248.1443, 187.9846
248.6264, 185.8507
249.1086, 184.0897
249.5907, 182.4949
250.0728, 180.6273
250.5549, 178.3643
251.0370, 176.0374
251.5191, 173.8322
252.0013, 171.9753
252.4834, 169.4810
252.9655, 166.0383
253.4476, 162.1649
253.9297, 158.8732
254.4118, 156.5086
254.8940, 154.1338
255.3761, 151.3049
255.8582, 147.7121
256.3403, 144.9011
256.8224, 143.0978
257.3046, 141.8995
257.7867, 140.7084
258.2688, 139.5361
258.7509, 138.3347
259.2330, 137.1281
259.7151, 135.9436
260.1973, 134.5296
260.6794, 132.7799
261.1615, 130.9372
261.6436, 129.3870
262.1257, 128.1447
262.6078, 127.1281
263.0900, 126.3547
263.5721, 125.8383
264.0542, 125.3387
264.5363, 124.7874
265.0184, 124.3253
265.5005, 124.1943
265.9827, 124.5782
266.4648, 124.7359
266.9469, 124.2997
267.4290, 123.2430
267.9111, 122.9228
268.3932, 123.6505
268.8754, 124.6348
269.3575, 124.8972
269.8396, 124.1980
270.3217, 123.7016
270.8038, 123.8874
271.2859, 124.6831
271.7681, 124.3704
272.2502, 122.4151
272.7323, 120.4603
273.2144, 120.4122
273.6965, 122.6305
274.1786, 124.8111
274.6608, 126.6202
275.1429, 128.0132
275.6250, 128.6186
276.1071, 128.2680
276.5892, 127.6161
277.0714, 127.0696
277.5535, 126.5553
278.0356, 126.8363
278.5177, 128.3138
278.9998, 130.6299
279.4819, 132.3161
279.9641, 133.3284
280.4462, 133.9674
280.9283, 134.2451
281.4104, 134.1301
281.8925, 134.6277
282.3746, 136.0280
282.8568, 138.0346
283.3389, 139.8102
283.8210, 141.3243
284.3031, 142.8382
284.7852, 144.5561
285.2673, 146.4513
285.7495, 148.3057
286.2316, 150.0252
286.7137, 151.7802
287.1958, 154.0484
287.6779, 156.8465
288.1600, 159.5671
288.6422, 161.7942
289.1243, 163.5998
289.6064, 165.2890
290.0885, 166.8276
290.5706, 168.4631
291.0527, 170.6725
291.5349, 173.4261
292.0170, 176.2828
292.4991, 178.9993
292.9812, 181.6255
293.4633, 184.2042
293.9454, 186.7333
294.4276, 189.3157
294.9097, 191.9570
295.3918, 194.7050
295.8739, 197.7731
296.3560, 201.4326
296.8381, 205.4615
297.3203, 209.1340
297.8024, 212.3617
298.2845, 215.7521
298.7666, 220.4839
299.2487, 225.9760
299.7308, 230.5824
300.2130, 232.8741
300.6951, 234.1434
301.1772, 236.5021
301.6593, 239.9354
302.1414, 243.8225
302.6235, 247.5376
303.1057, 251.3039
303.5878, 255.5017
304.0699, 260.7227
304.5520, 266.1311
305.0341, 270.6179
305.5162, 274.2726
305.9984, 278.0374
306.4805, 282.6252
306.9626, 287.7029
307.4447, 292.6868
307.9268, 297.2896
308.4089, 302.0110
308.8911, 307.2585
309.3732, 312.9987
309.8553, 319.1042
310.3374, 326.1061
310.8195, 333.1676
311.3016, 339.1833
311.7838, 343.3035
312.2659, 347.6635
312.7480, 353.9820
313.2301, 361.5837
313.7122, 368.9144
314.1943, 374.7210
314.6765, 380.4130
315.1586, 387.2015
315.6407, 395.6215
316.1228, 403.7872
316.6049, 410.5870
317.0870, 416.5397
317.5692, 422.3981
318.0513, 428.5402
318.5334, 434.6235
319.0155, 440.2492
319.4976, 445.2877
319.9797, 450.9485
320.4619, 458.0086
320.9440, 465.7907
321.4261, 473.4425
321.9082, 480.3834
322.3903, 487.5903
322.8724, 495.7487
323.3546, 504.8992
323.8367, 513.0929
324.3188, 519.6053
324.8009, 525.2571
325.2830, 530.6073
325.7651, 535.1827
326.2473, 540.1452
326.7294, 546.3279
327.2115, 553.4291
327.6936, 559.0292
328.1757, 562.3584
328.6578, 564.5663
329.1400, 566.2266
329.6221, 567.5779
330.1042, 568.0514
330.5863, 567.9885
331.0684, 567.0367
331.5505, 564.2031
332.0327, 559.0439
332.5148, 552.4902
332.9969, 544.7620
333.4790, 535.8732
333.9611, 526.1730
334.4432, 515.5480
334.9254, 504.1234
335.4075, 492.3344
335.8896, 480.3324
336.3717, 467.4407
336.8538, 453.2871
337.3359, 437.5519
337.8180, 422.8079
338.3001, 409.4660
338.7823, 396.5255
339.2644, 382.9040
339.7465, 368.1880
340.2286, 354.2863
340.7107, 342.0498
341.1928, 331.0355
341.6750, 319.1597
342.1571, 305.8949
342.6392, 293.1016
343.1213, 282.4226
343.6034, 273.9774
344.0855, 265.3085
344.5677, 255.8533
345.0498, 246.2068
345.5319, 238.2665
346.0140, 232.0817
346.4961, 226.2195
346.9782, 219.6193
347.4604, 212.4685
347.9425, 205.9736
348.4246, 200.1930
348.9067, 195.0529
349.3888, 190.6462
349.8709, 186.8624
350.3531, 183.0781
350.8352, 178.8237
351.3173, 174.4080
351.7994, 170.4053
352.2815, 166.8759
352.7636, 163.4934
353.2458, 159.7612
353.7279, 155.9396
354.2100, 152.5982
354.6921, 150.1921
355.1742, 148.2135
355.6563, 146.1492
356.1385, 144.0138
356.6206, 141.8835
357.1027, 139.5891
357.5848, 137.4144
358.0669, 135.7024
358.5490, 134.8159
359.0312, 134.0132
359.5133, 132.8365
359.9954, 131.3570
360.4775, 129.7846
360.9596, 128.0362
361.4417, 126.3512
361.9239, 124.7775
362.4060, 123.1374
362.8881, 122.1624
363.3702, 122.7613
363.8523, 124.0781
364.3344, 124.8004
364.8166, 123.8990
365.2987, 122.9278
365.7808, 122.5179
366.2629, 122.7623
366.7450, 122.9995
367.2271, 123.1942
367.7093, 123.3068
368.1914, 123.3028
368.6735, 122.8350
369.1556, 122.6356
369.6377, 122.7990
370.1198, 123.3125
370.6020, 124.1190
371.0841, 125.5122
371.5662, 126.9305
372.0483, 128.0473
372.5304, 128.6486
373.0125, 129.3634
373.4947, 130.1907
373.9768, 131.1348
374.4589, 132.2420
374.9410, 133.5949
375.4231, 134.9445
375.9052, 136.1753
376.3874, 137.2566
376.8695, 138.5142
377.3516, 140.0053
377.8337, 141.5997
378.3158, 143.1957
378.7979, 144.8041
379.2801, 146.3707
379.7622, 147.8516
380.2443, 149.2863
380.7264, 150.8410
381.2085, 152.4744
381.6906, 154.4763
382.1728, 157.3748
382.6549, 161.0070
383.1370, 164.1094
383.6191, 166.3756
384.1012, 168.2404
384.5833, 170.5663
385.0655, 173.2722
385.5476, 175.7294
386.0297, 177.2037
386.5118, 178.3050
386.9939, 180.2031
387.4760, 183.0247
387.9582, 186.3445
388.4403, 190.3817
388.9224, 194.6436
389.4045, 198.0869
389.8866, 199.4664
390.3687, 200.4523
390.8509, 202.6028
391.3330, 205.8089
391.8151, 208.8705
392.2972, 210.7032
392.7793, 212.1900
393.2614, 214.2119
393.7436, 217.3057
394.2257, 220.4842
394.7078, 223.1748
395.1899, 225.5995
395.6720, 228.3405
396.1541, 231.4536
396.6363, 235.0299
397.1184, 239.1924
397.6005, 244.1347
398.0826, 249.0943
398.5647, 253.5524
399.0468, 258.1068
399.5290, 263.4820
400.0111, 270.2032
400.4932, 277.2442
400.9753, 284.3957
401.4574, 291.6916
401.9395, 299.4403
402.4217, 307.9983
402.9038, 316.6953
403.3859, 325.1766
403.8680, 333.7142
404.3501, 341.4146
404.8322, 348.1469
405.3144, 353.9974
405.7965, 359.0782
406.2786, 363.5370
406.7607, 366.8458
407.2428, 368.6678
407.7249, 368.9802
408.2071, 368.6737
408.6892, 367.8913
409.1713, 366.0844
409.6534, 362.4560
410.1355, 357.0526
410.6176, 350.5682
411.0998, 342.7580
411.5819, 334.2425
412.0640, 326.4325
412.5461, 319.3792
413.0282, 312.6640
413.5103, 306.1261
413.9925, 299.7752
414.4746, 293.5346
414.9567, 287.3490
415.4388, 281.3646
415.9209, 275.4144
416.4030, 269.7227
416.8852, 264.6774
417.3673, 261.0978
417.8494, 257.9161
418.3315, 253.9338
418.8136, 249.1021
419.2957, 244.9156
419.7779, 242.8757
420.2600, 241.6519
420.7421, 239.9452
421.2242, 236.5036
421.7063, 233.4206
422.1884, 231.6547
422.6706, 230.8540
423.1527, 229.6127
423.6348, 227.1594
424.1169, 224.5788
424.5990, 222.3551
425.0811, 220.7289
425.5633, 219.0307
426.0454, 217.0259
426.5275, 215.0304
427.0096, 213.4570
427.4917, 212.7873
427.9738, 211.8078
428.4560, 210.0954
428.9381, 207.6914
429.4202, 205.9995
429.9023, 205.4597
430.3844, 204.8539
430.8665, 203.2433
431.3487, 200.4675
431.8308, 197.6294
432.3129, 194.7881
432.7950, 191.9748
433.2771, 189.3232
433.7592, 186.8585
434.2414, 184.4411
434.7235, 181.9630
435.2056, 179.4760
435.6877, 177.1845
436.1698, 175.0973
436.6519, 173.1820
437.1341, 171.6101
437.6162, 170.2231
438.0983, 168.5803
438.5804, 166.6025
439.0625, 164.2673
439.5446, 161.2300
440.0268, 157.7212
440.5089, 154.5798
440.9910, 152.6061
441.4731, 151.0412
441.9552, 149.0901
442.4373, 146.5659
442.9195, 144.3147
443.4016, 143.1886
443.8837, 142.4456
444.3658, 141.1837
444.8479, 138.6053
445.3300, 136.0027
445.8122, 133.4723
446.2943, 131.1263
446.7764, 129.6376
447.2585, 130.1742
447.7406, 130.7716
448.2227, 130.4331
448.7049, 128.7371
449.1870, 126.8716
449.6691, 124.4374
450.1512, 122.0411
450.6333, 120.8107
451.1154, 121.4148
451.5976, 121.7264
452.0797, 121.1547
452.5618, 119.7525
453.0439, 118.0972
453.5260, 115.9751
454.0081, 114.3551
454.4903, 114.4160
454.9724, 116.1237
455.4545, 116.9522
455.9366, 116.3424
456.4187, 115.2545
456.9008, 115.5495
457.3830, 117.0370
457.8651, 118.2038
458.3472, 118.0777
458.8293, 117.2499
459.3114, 116.7100
459.7935, 116.4734
460.2757, 116.4736
460.7578, 116.6173
461.2399, 116.9807
461.7220, 117.7241
462.2041, 119.1701
462.6862, 120.5356
463.1684, 121.1650
463.6505, 121.3268
464.1326, 121.6279
464.6147, 122.3834
465.0968, 123.2824
465.5789, 124.1334
466.0611, 124.8960
466.5432, 125.8170
467.0253, 126.9257
467.5074, 128.2155
467.9895, 129.6767
468.4716, 131.5212
468.9538, 133.3025
469.4359, 135.0795
469.9180, 136.7614
470.4001, 137.9795
470.8822, 138.3277
471.3643, 138.9285
471.8465, 140.3296
472.3286, 142.6311
472.8107, 144.7056
473.2928, 146.5012
473.7749, 148.1468
474.2570, 149.7585
474.7392, 151.3371
475.2213, 152.7803
475.7034, 154.0550
476.1855, 155.1967
476.6676, 156.2837
477.1497, 157.3143
477.6319, 158.2310
478.1140, 158.8403
478.5961, 159.3705
479.0782, 160.2996
479.5603, 161.6899
480.0424, 163.0134
480.5246, 163.5996
481.0067, 163.9143
481.4888, 164.6197
481.9709, 166.0869
482.4530, 167.8181
482.9352, 170.0022
483.4173, 172.3246
483.8994, 173.7913
484.3815, 172.8560
484.8636, 171.9807
485.3457, 172.4267
485.8279, 174.6251
486.3100, 176.8531
486.7921, 178.8370
487.2742, 180.8596
487.7563, 183.2160
488.2384, 186.2170
488.7206, 189.0209
489.2027, 191.4066
489.6848, 193.5484
490.1669, 196.0015
490.6490, 198.7151
491.1311, 201.8368
491.6133, 205.4472
492.0954, 209.5556
492.5775, 213.8357
493.0596, 218.2345
493.5417, 222.9519
494.0238, 228.4678
494.5060, 234.5859
494.9881, 240.2152
495.4702, 244.7442
495.9523, 249.1183
496.4344, 254.6688
496.9165, 261.1847
497.3987, 267.8449
497.8808, 273.9914
498.3629, 280.2589
498.8450, 287.2668
499.3271, 295.1338
499.8092, 303.4023
500.2914, 312.7567
500.7735, 321.9868
501.2556, 330.1827
501.7377, 335.7097
502.2198, 341.7317
502.7019, 349.8162
503.1841, 358.9704
503.6662, 366.5444
504.1483, 371.8307
504.6304, 376.1712
505.1125, 379.9130
505.5946, 383.0997
506.0768, 385.4435
506.5589, 387.3925
507.0410, 387.8065
507.5231, 385.5616
508.0052, 380.4170
508.4873, 374.3168
508.9695, 367.5453
509.4516, 359.7487
509.9337, 351.3203
510.4158, 341.6096
510.8979, 331.2404
511.3800, 319.9146
511.8622, 308.1049
512.3443, 296.5321
512.8264, 285.3084
513.3085, 274.7421
513.7906, 265.1416
514.2728, 256.3460
514.7549, 248.1102
515.2370, 240.3100
515.7191, 233.3059
516.2012, 227.8372
516.6833, 223.2228
517.1655, 218.3213
517.6476, 211.8068
518.1297, 205.9090
518.6118, 201.6603
519.0939, 198.9356
519.5760, 196.1061
520.0582, 193.2858
520.5403, 190.0796
521.0224, 186.2661
521.5045, 181.4651
521.9866, 177.1270
522.4688, 173.4204
522.9509, 169.9856
523.4330, 166.3682
523.9151, 162.5706
524.3972, 158.5189
524.8793, 154.1030
525.3615, 149.5545
525.8436, 145.5131
526.3257, 141.9541
526.8078, 138.3448
527.2899, 134.1864
527.7720, 129.7352
528.2542, 125.6208
528.7363, 121.8891
529.2184, 118.3567
529.7005, 114.7845
530.1826, 111.3919
530.6647, 108.5310
531.1469, 106.5956
531.6290, 104.7620
532.1111, 102.6783
532.5932, 100.3796
533.0753, 97.94849
533.5574, 95.07509
534.0396, 92.37128
534.5217, 90.00144
535.0038, 88.00211
535.4859, 86.27282
535.9680, 85.01209
536.4501, 83.83325
536.9323, 82.50637
537.4144, 80.91253
537.8965, 79.47891
538.3786, 78.26584
538.8607, 77.14565
539.3428, 75.94935
539.8250, 74.66053
540.3071, 73.36706
540.7892, 72.04711
541.2713, 70.78837
541.7534, 69.99743
542.2355, 69.62034
542.7177, 69.08379
543.1998, 67.59716
543.6819, 65.86681
544.1640, 65.17632
544.6461, 65.66646
545.1282, 66.11033
545.6104, 65.56686
546.0925, 64.53433
546.5746, 63.55398
547.0567, 62.63383
547.5388, 61.98124
548.0209, 61.88650
548.5031, 62.10588
548.9852, 62.10025
549.4673, 61.64321
549.9494, 61.10173
550.4315, 60.50308
550.9136, 59.84839
551.3958, 59.44104
551.8779, 59.44007
552.3600, 59.41819
552.8421, 59.03915
553.3242, 58.24197
553.8063, 57.68053
554.2885, 57.40947
554.7706, 57.30002
555.2527, 57.17266
555.7348, 57.04615
556.2169, 57.06014
556.6990, 57.35046
557.1812, 57.67904
557.6633, 57.73523
558.1454, 57.54211
558.6275, 57.18464
559.1096, 56.52060
559.5917, 55.84552
560.0739, 55.44345
560.5560, 55.33513
561.0381, 55.22484
561.5202, 55.01330
562.0023, 54.74228
562.4844, 54.43975
562.9666, 54.06050
563.4487, 53.72014
563.9308, 53.36033
564.4129, 53.06751
564.8950, 53.00301
565.3771, 53.29848
565.8593, 53.53511
566.3414, 53.65916
566.8235, 53.64735
567.3056, 53.34650
567.7877, 52.72333
568.2698, 52.06048
568.7520, 51.44300
569.2341, 50.91365
569.7162, 50.79507
570.1983, 51.14149
570.6804, 51.19859
571.1625, 49.78158
571.6447, 47.72729
572.1268, 46.44884
572.6089, 46.55617
573.0910, 46.88763
573.5731, 46.89003
574.0552, 46.57312
574.5374, 45.95277
575.0195, 44.45845
575.5016, 43.24714
575.9837, 42.85516
576.4658, 43.21796
576.9479, 43.37675
577.4301, 43.20858
577.9122, 42.95119
578.3943, 42.66893
578.8764, 42.32885
579.3585, 42.20849
579.8406, 42.41533
580.3228, 42.60240
580.8049, 42.30128
581.2870, 41.55107
581.7691, 41.07523
582.2512, 41.07311
582.7333, 41.21838
583.2155, 41.00233
583.6975, 40.52195
584.1796, 40.07122
584.6617, 39.58322
585.1439, 39.33723
585.6260, 39.90244
586.1081, 41.06443
586.5902, 41.74391
587.0723, 41.07348
