##NAMES=Rosasite
##RRUFFID=R050294
##IDEAL CHEMISTRY=Cu^2+^Zn^2+^CO_3_(OH)_2_
##LOCALITY=79 mine, 4th level, Hayden, Gila County, Arizona, USA
##OWNER=RRUFF
##SOURCE=George Godas, John Callahan
##DESCRIPTION=Green botryoidal crust associated with intergrown smithsonite
##STATUS=The identification of this mineral has been confirmed by X-ray diffraction and chemical analysis
##URL=rruff.info/R050294
##MEASURED CHEMISTRY=(Cu_1.24_Zn_0.76_)_Î£=2_(CO_3_)(OH)_2_
114.0488, 57.90910
114.5309, 61.04435
115.0130, 63.39256
115.4951, 66.13123
115.9772, 69.76953
116.4594, 74.32079
116.9415, 78.90406
117.4236, 83.04955
117.9057, 87.10989
118.3878, 91.44347
118.8699, 96.30289
119.3521, 101.4277
119.8342, 106.8937
120.3163, 112.7577
120.7984, 118.3549
121.2805, 123.4263
121.7626, 127.9476
122.2448, 131.8773
122.7269, 135.1501
123.2090, 137.8441
123.6911, 139.9655
124.1732, 141.4557
124.6553, 142.6220
125.1375, 143.4238
125.6196, 144.0485
126.1017, 145.0887
126.5838, 147.0727
127.0659, 149.6844
127.5480, 152.3796
128.0302, 155.1090
128.5123, 157.8728
128.9944, 160.5935
129.4765, 163.2947
129.9586, 166.1975
130.4407, 169.5636
130.9229, 173.2953
131.4050, 176.9497
131.8871, 180.1566
132.3692, 183.3977
132.8513, 187.8228
133.3334, 193.1884
133.8156, 198.1337
134.2977, 202.0140
134.7798, 205.5462
135.2619, 209.6531
135.7440, 214.6850
136.2261, 220.3961
136.7083, 226.3027
137.1904, 232.6478
137.6725, 238.5553
138.1546, 243.1874
138.6367, 246.4855
139.1188, 249.0979
139.6010, 251.2469
140.0831, 252.9357
140.5652, 253.8497
141.0473, 253.8674
141.5294, 253.3232
142.0115, 252.6773
142.4937, 252.0582
142.9758, 251.0108
143.4579, 249.2190
143.9400, 246.4000
144.4221, 244.1962
144.9042, 242.5679
145.3864, 241.5366
145.8685, 241.2798
146.3506, 242.6160
146.8327, 243.6015
147.3148, 243.6015
147.7969, 242.3296
148.2791, 240.7374
148.7612, 238.8914
149.2433, 236.7415
149.7254, 234.1102
150.2075, 230.5763
150.6896, 226.9562
151.1718, 223.6054
151.6539, 221.1707
152.1360, 218.0690
152.6181, 213.7278
153.1002, 208.6182
153.5823, 204.1679
154.0645, 201.1196
154.5466, 198.2268
155.0287, 194.9147
155.5108, 190.6723
155.9929, 186.4785
156.4750, 182.3577
156.9572, 178.3605
157.4393, 174.8060
157.9214, 171.8916
158.4035, 169.3167
158.8856, 166.8839
159.3677, 164.3278
159.8499, 162.1187
160.3320, 160.5675
160.8141, 159.5757
161.2962, 158.5524
161.7783, 156.9418
162.2604, 155.3851
162.7426, 154.4108
163.2247, 154.8368
163.7068, 155.2963
164.1889, 155.0315
164.6710, 154.1022
165.1531, 153.3952
165.6353, 153.5279
166.1174, 154.0467
166.5995, 154.4631
167.0816, 154.1468
167.5637, 154.0053
168.0458, 154.7335
168.5280, 156.3299
169.0101, 158.0914
169.4922, 159.5978
169.9743, 160.9704
170.4564, 162.3696
170.9385, 163.4054
171.4207, 164.7636
171.9028, 167.2932
172.3849, 171.0616
172.8670, 174.9182
173.3491, 177.7656
173.8312, 180.0979
174.3134, 182.8748
174.7955, 186.9092
175.2776, 191.4273
175.7597, 195.4253
176.2418, 198.8309
176.7239, 202.1854
177.2061, 206.1596
177.6882, 210.5937
178.1703, 214.9695
178.6524, 218.9590
179.1345, 222.8063
179.6166, 226.9038
180.0988, 231.3532
180.5809, 235.8449
181.0630, 240.0179
181.5451, 243.9604
182.0272, 247.8464
182.5093, 251.5472
182.9915, 255.3129
183.4736, 259.7404
183.9557, 264.9851
184.4378, 270.6049
184.9199, 276.1979
185.4020, 281.6806
185.8842, 287.2164
186.3663, 292.8847
186.8484, 298.6619
187.3305, 304.2050
187.8126, 309.4951
188.2947, 314.6908
188.7769, 320.4048
189.2590, 326.5815
189.7411, 331.9846
190.2232, 335.7373
190.7053, 338.0252
191.1874, 340.1830
191.6696, 342.4193
192.1517, 344.4254
192.6338, 345.9073
193.1159, 346.8954
193.5980, 346.6631
194.0801, 344.8795
194.5623, 341.5616
195.0444, 336.5562
195.5265, 329.7899
196.0086, 321.4557
196.4907, 311.8231
196.9728, 300.8484
197.4550, 288.9484
197.9371, 275.9930
198.4192, 261.9565
198.9013, 248.4310
199.3834, 235.4888
199.8655, 223.2462
200.3477, 211.7531
200.8298, 201.0191
201.3119, 191.1278
201.7940, 182.0162
202.2761, 173.6774
202.7582, 166.2243
203.2404, 159.7787
203.7225, 154.1400
204.2046, 148.7504
204.6867, 143.5645
205.1688, 138.7611
205.6509, 134.4815
206.1331, 130.6985
206.6152, 127.5188
207.0973, 125.1565
207.5794, 123.2969
208.0615, 120.9098
208.5436, 117.8120
209.0258, 114.6565
209.5079, 111.8218
209.9900, 109.3140
210.4721, 107.1406
210.9542, 105.3286
211.4363, 103.8410
211.9185, 102.5956
212.4006, 101.6736
212.8827, 100.8071
213.3648, 99.84772
213.8469, 98.74960
214.3290, 97.66579
214.8112, 96.52196
215.2933, 95.42144
215.7754, 94.71974
216.2575, 94.51023
216.7396, 94.52106
217.2217, 94.63509
217.7038, 94.92371
218.1860, 95.08778
218.6681, 95.06496
219.1502, 94.90954
219.6323, 94.79726
220.1144, 94.67693
220.5965, 94.69054
221.0787, 94.97781
221.5608, 95.73420
222.0429, 96.21253
222.5250, 96.23762
223.0071, 95.96745
223.4892, 96.00375
223.9714, 96.51704
224.4535, 97.07038
224.9356, 97.39735
225.4177, 97.29980
225.8998, 97.45573
226.3819, 97.93448
226.8641, 98.68560
227.3462, 99.54981
227.8283, 100.6412
228.3104, 101.6689
228.7925, 102.4928
229.2746, 103.1717
229.7568, 103.5287
230.2389, 103.5476
230.7210, 103.2456
231.2031, 102.6502
231.6852, 101.6245
232.1673, 100.5093
232.6495, 99.48999
233.1316, 98.67994
233.6137, 97.70663
234.0958, 96.51940
234.5779, 95.18417
235.0600, 93.90096
235.5422, 92.66755
236.0243, 91.46911
236.5064, 90.28519
236.9885, 89.06087
237.4706, 87.98255
237.9527, 87.12926
238.4349, 86.41356
238.9170, 85.60830
239.3991, 84.57827
239.8812, 83.66049
240.3633, 83.01728
240.8454, 82.78098
241.3276, 82.49978
241.8097, 82.20509
242.2918, 81.85757
242.7739, 81.34877
243.2560, 80.53450
243.7381, 79.78174
244.2203, 79.22968
244.7024, 78.91856
245.1845, 78.70732
245.6666, 78.66489
246.1487, 78.68999
246.6308, 78.56242
247.1130, 78.12741
247.5951, 77.79398
248.0772, 77.74628
248.5593, 78.10378
249.0414, 78.30135
249.5235, 78.27665
250.0057, 78.13026
250.4878, 78.03399
250.9699, 78.04435
251.4520, 77.99986
251.9341, 77.81712
252.4162, 77.43584
252.8984, 77.21317
253.3805, 77.19022
253.8626, 77.29477
254.3447, 77.42683
254.8268, 77.60176
255.3089, 77.77869
255.7911, 77.95797
256.2732, 78.15036
256.7553, 78.23246
257.2374, 78.06030
257.7195, 77.92135
258.2017, 78.23783
258.6838, 79.30821
259.1659, 80.14283
259.6480, 80.36157
260.1301, 79.91904
260.6122, 80.07961
261.0944, 81.10496
261.5765, 82.41394
262.0586, 83.34896
262.5407, 83.69910
263.0228, 84.27800
263.5049, 85.40304
263.9871, 87.04125
264.4692, 87.99165
264.9513, 87.91132
265.4334, 87.70641
265.9155, 88.29915
266.3976, 89.95606
266.8798, 91.46545
267.3619, 92.55425
267.8440, 93.29253
268.3261, 94.15108
268.8082, 95.11480
269.2903, 96.22412
269.7725, 97.48328
270.2546, 98.84750
270.7367, 100.5200
271.2188, 102.6542
271.7009, 105.0779
272.1830, 107.0225
272.6652, 108.2822
273.1473, 109.5871
273.6294, 111.4920
274.1115, 114.0887
274.5936, 116.7290
275.0757, 119.3515
275.5579, 121.9978
276.0400, 124.6561
276.5221, 127.2685
277.0042, 130.1206
277.4863, 133.4514
277.9684, 137.2957
278.4506, 141.0564
278.9327, 144.5518
279.4148, 148.1206
279.8969, 152.5575
280.3790, 157.9463
280.8611, 163.6138
281.3433, 169.0802
281.8254, 174.3783
282.3075, 180.4584
282.7896, 187.4976
283.2717, 195.0748
283.7538, 202.5797
284.2360, 210.0104
284.7181, 217.4497
285.2002, 224.7194
285.6823, 231.9143
286.1644, 240.0575
286.6465, 249.2138
287.1287, 258.7910
287.6108, 267.8748
288.0929, 276.5094
288.5750, 285.5382
289.0571, 295.2823
289.5392, 305.7110
290.0214, 316.4626
290.5035, 327.4681
290.9856, 338.9482
291.4677, 351.2085
291.9498, 364.2227
292.4319, 377.3813
292.9141, 390.5404
293.3962, 403.8270
293.8783, 417.5013
294.3604, 431.5077
294.8425, 446.0109
295.3246, 461.6139
295.8068, 478.0710
296.2889, 494.1600
296.7710, 509.5516
297.2531, 524.7661
297.7352, 540.9269
298.2173, 557.7858
298.6995, 573.8736
299.1816, 588.2881
299.6637, 601.0506
300.1458, 611.8939
300.6279, 620.9335
301.1100, 627.9187
301.5922, 633.0625
302.0743, 636.0160
302.5564, 635.4047
303.0385, 630.1653
303.5206, 620.9490
304.0027, 608.3184
304.4849, 592.2509
304.9670, 573.5944
305.4491, 552.8148
305.9312, 530.1962
306.4133, 506.4109
306.8954, 480.8669
307.3776, 454.7933
307.8597, 429.7296
308.3418, 405.5582
308.8239, 382.3203
309.3060, 359.9131
309.7881, 338.2458
310.2703, 317.8949
310.7524, 298.9415
311.2345, 281.1815
311.7166, 264.6012
312.1987, 249.2060
312.6808, 235.2964
313.1630, 223.3604
313.6451, 212.7408
314.1272, 202.6282
314.6093, 192.7704
315.0914, 183.4752
315.5735, 174.9758
316.0557, 167.2570
316.5378, 160.2447
317.0199, 154.0866
317.5020, 148.5424
317.9841, 143.3727
318.4662, 138.7607
318.9484, 134.3361
319.4305, 129.9480
319.9126, 125.6575
320.3947, 121.6247
320.8768, 117.8246
321.3589, 114.3480
321.8411, 111.2218
322.3232, 108.4709
322.8053, 106.1004
323.2874, 104.3887
323.7695, 103.0098
324.2516, 101.4476
324.7338, 99.25275
325.2159, 97.20328
325.6980, 95.55952
326.1801, 94.39537
326.6622, 93.33635
327.1443, 92.54825
327.6265, 91.76358
328.1086, 90.70598
328.5907, 88.97239
329.0728, 87.42881
329.5549, 86.25540
330.0370, 85.45210
330.5192, 84.63839
331.0013, 83.84326
331.4834, 83.00829
331.9655, 82.08244
332.4476, 81.02798
332.9297, 79.93768
333.4119, 78.79272
333.8940, 77.61774
334.3761, 76.57911
334.8582, 75.90097
335.3403, 75.04052
335.8224, 73.63462
336.3046, 71.35204
336.7867, 69.52738
337.2688, 68.32197
337.7509, 67.47089
338.2330, 66.39075
338.7151, 65.00646
339.1973, 63.65147
339.6794, 62.42833
340.1615, 61.34838
340.6436, 60.41515
341.1257, 59.69176
341.6078, 59.00158
342.0899, 58.12467
342.5721, 57.07175
343.0542, 55.89011
343.5363, 54.49702
344.0184, 53.00668
344.5005, 51.95493
344.9826, 51.39679
345.4648, 50.93850
345.9469, 50.21627
346.4290, 49.25695
346.9111, 48.34492
347.3932, 47.50837
347.8753, 46.76902
348.3575, 46.21838
348.8396, 45.84661
349.3217, 45.52418
349.8038, 45.25002
350.2859, 44.95923
350.7680, 44.45088
351.2502, 43.65460
351.7323, 42.81927
352.2144, 42.23112
352.6965, 41.83751
353.1786, 41.49692
353.6607, 41.16715
354.1429, 40.83746
354.6250, 40.52784
355.1071, 40.24314
355.5892, 39.86218
356.0713, 39.15010
356.5534, 38.31222
357.0356, 37.65246
357.5177, 37.37044
357.9998, 37.22880
358.4819, 37.11145
358.9640, 37.00969
359.4461, 36.87677
359.9283, 36.65783
360.4104, 36.41303
360.8925, 36.18963
361.3746, 35.98965
361.8567, 35.82606
362.3388, 35.77724
362.8210, 35.77018
363.3031, 35.63886
363.7852, 35.13956
364.2673, 34.65771
364.7494, 34.40674
365.2315, 34.49207
365.7137, 34.49996
366.1958, 34.26274
366.6779, 33.93687
367.1600, 33.70413
367.6421, 33.59644
368.1242, 33.57159
368.6064, 33.64521
369.0885, 33.82285
369.5706, 33.99227
370.0527, 34.20576
370.5348, 34.37233
371.0169, 34.42162
371.4991, 34.20317
371.9812, 34.12562
372.4633, 34.26006
372.9454, 34.55375
373.4275, 34.84548
373.9096, 35.23797
374.3918, 35.45340
374.8739, 35.26956
375.3560, 34.50516
375.8381, 34.18555
376.3202, 34.44869
376.8023, 34.98043
377.2845, 35.28220
377.7666, 35.29586
378.2487, 35.38580
378.7308, 35.69082
379.2129, 36.17952
379.6950, 36.60601
380.1772, 36.96100
380.6593, 37.31899
381.1414, 37.75950
381.6235, 38.27244
382.1056, 38.81709
382.5877, 39.41530
383.0699, 39.99265
383.5520, 40.31092
384.0341, 40.40860
384.5162, 40.64637
384.9983, 41.37387
385.4804, 42.39408
385.9626, 43.30302
386.4447, 44.06183
386.9268, 44.70325
387.4089, 45.19670
387.8910, 45.59846
388.3731, 46.02394
388.8553, 46.46801
389.3374, 46.99594
389.8195, 47.67721
390.3016, 48.49970
390.7837, 49.41317
391.2658, 50.45564
391.7480, 51.53363
392.2301, 52.54703
392.7122, 53.42306
393.1943, 54.29210
393.6764, 55.17585
394.1585, 56.09454
394.6407, 57.08571
395.1228, 57.97820
395.6049, 59.09555
396.0870, 60.70709
396.5691, 63.05336
397.0512, 65.17459
397.5334, 66.72495
398.0155, 68.01206
398.4976, 69.40026
398.9797, 70.90292
399.4618, 72.54632
399.9439, 74.35538
400.4261, 76.32765
400.9082, 78.37151
401.3903, 80.60889
401.8724, 82.79959
402.3545, 84.80692
402.8366, 86.61528
403.3188, 88.23861
403.8009, 89.72384
404.2830, 91.00374
404.7651, 91.88180
405.2472, 92.27782
405.7293, 92.48145
406.2115, 92.63565
406.6936, 92.74717
407.1757, 92.57207
407.6578, 92.12225
408.1399, 91.35043
408.6220, 90.15282
409.1042, 88.53459
409.5863, 86.65791
410.0684, 84.35463
410.5505, 81.98851
411.0326, 80.56718
411.5147, 80.04815
411.9969, 79.31953
412.4790, 77.23135
412.9611, 74.34787
413.4432, 72.08250
413.9253, 70.66603
414.4074, 69.62021
414.8896, 68.56818
415.3717, 67.48797
415.8538, 66.33214
416.3359, 64.92780
416.8180, 63.54258
417.3001, 62.46125
417.7823, 61.66978
418.2644, 60.97770
418.7465, 60.13459
419.2286, 59.37933
419.7107, 58.97962
420.1928, 59.38858
420.6750, 59.63265
421.1571, 59.22660
421.6392, 58.36421
422.1213, 57.55767
422.6034, 56.85778
423.0855, 56.31633
423.5677, 56.01667
424.0498, 56.09530
424.5319, 55.95302
425.0140, 55.36108
425.4961, 54.61353
425.9782, 54.01354
426.4604, 53.77536
426.9425, 53.36620
427.4246, 52.62846
427.9067, 51.62370
428.3888, 50.83570
428.8709, 50.33767
429.3531, 49.92867
429.8352, 49.51755
430.3173, 49.13018
430.7994, 48.63118
431.2815, 48.00772
431.7636, 47.28698
432.2458, 46.49021
432.7279, 45.60931
433.2100, 44.77669
433.6921, 44.02494
434.1742, 43.35614
434.6563, 42.84044
435.1385, 42.47670
435.6206, 42.09680
436.1027, 41.54190
436.5848, 40.85690
437.0669, 40.14564
437.5490, 39.39725
438.0312, 38.70242
438.5133, 38.21772
438.9954, 37.87173
439.4775, 37.46524
439.9596, 36.79021
440.4417, 36.07676
440.9239, 35.52962
441.4060, 35.16089
441.8881, 34.87533
442.3702, 34.73863
442.8523, 34.60765
443.3344, 34.33852
443.8166, 33.69341
444.2987, 33.13908
444.7808, 32.80910
445.2629, 32.67699
445.7450, 32.66588
446.2271, 32.88628
446.7093, 33.11518
447.1914, 33.30153
447.6735, 33.49894
448.1556, 33.45009
448.6377, 32.97747
449.1198, 32.37887
449.6020, 31.94320
450.0841, 31.69599
450.5662, 31.58746
451.0483, 31.67738
451.5304, 31.89879
452.0125, 31.92730
452.4947, 31.70398
452.9768, 31.47034
453.4589, 31.33599
453.9410, 31.30070
454.4231, 31.42974
454.9052, 31.77365
455.3874, 32.12301
455.8695, 32.16278
456.3516, 31.93596
456.8337, 31.76360
457.3158, 31.78022
457.7979, 31.88409
458.2801, 31.86421
458.7622, 31.74275
459.2443, 31.67577
459.7264, 31.87121
460.2085, 32.14700
460.6906, 32.22275
461.1728, 32.00991
461.6549, 31.82872
462.1370, 32.01319
462.6191, 32.35532
463.1012, 32.54597
463.5833, 32.29368
464.0655, 32.03028
464.5476, 31.94135
465.0297, 32.01778
465.5118, 32.14621
465.9939, 32.30796
466.4760, 32.50333
466.9582, 32.74338
467.4403, 33.13826
467.9224, 33.37882
468.4045, 33.31223
468.8866, 33.15104
469.3687, 33.21864
469.8509, 33.68960
470.3330, 34.06196
470.8151, 34.15701
471.2972, 34.02131
471.7793, 34.17039
472.2614, 34.68364
472.7436, 35.27074
473.2257, 35.76735
473.7078, 36.17569
474.1899, 36.41931
474.6720, 36.46093
475.1541, 36.42956
475.6363, 36.50502
476.1184, 36.67711
476.6005, 36.88103
477.0826, 37.08141
477.5647, 37.30317
478.0468, 37.59947
478.5290, 37.96571
479.0111, 38.36049
479.4932, 38.86571
479.9753, 39.33546
480.4574, 39.57185
480.9395, 39.48745
481.4217, 39.34318
481.9038, 39.18245
482.3859, 39.09013
482.8680, 39.19569
483.3501, 39.80698
483.8322, 40.36497
484.3144, 40.66640
484.7965, 40.71356
485.2786, 40.67863
485.7607, 40.40757
486.2428, 40.20097
486.7249, 40.20710
487.2071, 40.48041
487.6892, 40.85640
488.1713, 41.39678
488.6534, 41.99658
489.1355, 42.50441
489.6176, 42.88740
490.0998, 43.27465
490.5819, 43.65739
491.0640, 44.07973
491.5461, 44.82377
492.0282, 45.94339
492.5103, 47.02132
492.9925, 47.62064
493.4746, 47.88475
493.9567, 48.55869
494.4388, 49.75807
494.9209, 51.08208
495.4030, 52.06080
495.8852, 52.80980
496.3673, 53.65398
496.8494, 54.79086
497.3315, 55.98769
497.8136, 56.92085
498.2957, 57.69007
498.7779, 58.66847
499.2600, 60.14222
499.7421, 61.84621
500.2242, 63.68642
500.7063, 65.76579
501.1884, 67.53388
501.6706, 68.58359
502.1527, 69.34142
502.6348, 70.21815
503.1169, 71.37640
503.5990, 72.53118
504.0811, 73.78224
504.5633, 75.01467
505.0454, 75.80029
505.5275, 75.97595
506.0096, 75.96350
506.4917, 75.94534
506.9738, 75.94114
507.4560, 75.66936
507.9381, 75.10050
508.4202, 74.34318
508.9023, 73.50405
509.3844, 72.58047
509.8665, 71.52427
510.3487, 70.32037
510.8308, 68.99187
511.3129, 67.56072
511.7950, 66.03347
512.2772, 64.43945
512.7593, 62.64746
513.2414, 60.87842
513.7235, 59.38109
514.2056, 58.15577
514.6877, 57.07379
515.1699, 56.18545
515.6520, 55.33318
516.1341, 54.35899
516.6162, 53.14478
517.0983, 51.96544
517.5804, 50.85632
518.0626, 49.84129
518.5447, 48.95966
519.0268, 48.46826
519.5089, 47.83681
519.9910, 46.88897
520.4731, 45.64858
520.9553, 44.52931
521.4374, 43.54079
521.9195, 42.67693
522.4016, 41.96373
522.8837, 41.44701
523.3658, 40.87297
523.8480, 40.22933
524.3301, 39.54876
524.8122, 38.88780
525.2943, 38.24645
525.7764, 37.57241
526.2585, 36.85688
526.7407, 36.09574
527.2228, 35.21838
527.7049, 34.24775
528.1870, 33.34522
528.6691, 32.65153
529.1512, 32.04472
529.6334, 31.36198
530.1155, 30.58181
530.5976, 29.85520
531.0797, 29.32129
531.5618, 28.85140
532.0439, 28.32282
532.5261, 27.64096
533.0082, 26.98069
533.4903, 26.33004
533.9724, 25.72971
534.4545, 25.25205
534.9366, 24.98021
535.4188, 24.75193
535.9009, 24.57588
536.3830, 24.44778
536.8651, 24.14917
537.3472, 23.61952
537.8293, 23.04173
538.3115, 22.51737
538.7936, 22.04475
539.2757, 21.69152
539.7578, 21.48849
540.2399, 21.33521
540.7220, 21.04886
541.2042, 20.67095
541.6863, 20.43768
542.1684, 20.52390
542.6505, 20.66540
543.1326, 20.43012
543.6147, 19.90354
544.0969, 19.40438
544.5790, 19.14073
545.0611, 18.97811
545.5432, 18.82620
546.0253, 18.67917
546.5074, 18.50802
546.9896, 18.23640
547.4717, 17.97340
547.9538, 17.81010
548.4359, 17.90015
548.9180, 17.90016
549.4001, 17.69720
549.8823, 17.41511
550.3644, 17.27643
550.8465, 17.39060
551.3286, 17.43564
551.8107, 17.30118
552.2928, 17.02107
552.7750, 16.83112
553.2571, 16.72237
553.7392, 16.73907
554.2213, 17.04757
554.7034, 17.55320
555.1855, 17.66864
555.6677, 17.33217
556.1498, 16.85819
556.6319, 16.49665
557.1140, 16.25402
557.5961, 16.16939
558.0782, 16.34555
558.5604, 16.52742
559.0425, 16.47311
559.5246, 16.26723
560.0067, 16.09759
560.4888, 16.03905
560.9709, 16.03692
561.4531, 16.10139
561.9352, 16.23059
562.4173, 16.29012
562.8994, 16.29676
563.3815, 16.19813
563.8636, 15.93388
564.3458, 15.36212
564.8279, 15.02645
565.3100, 14.99910
565.7921, 15.11215
566.2742, 15.17932
566.7563, 15.20659
567.2385, 15.11736
567.7206, 14.84269
568.2027, 14.50850
568.6848, 14.42950
569.1669, 14.57433
569.6490, 14.71871
570.1312, 14.78983
570.6133, 14.76728
571.0954, 14.57917
571.5775, 14.23278
572.0596, 13.89425
572.5417, 13.64479
573.0239, 13.46072
573.5060, 13.32527
573.9881, 13.23202
574.4702, 13.19201
574.9523, 13.34485
575.4344, 13.50266
575.9166, 13.42155
576.3987, 12.65420
576.8808, 12.23553
577.3629, 12.45903
577.8450, 13.08871
578.3271, 13.31204
578.8093, 12.98904
579.2914, 12.67737
579.7735, 12.64469
580.2556, 12.84059
580.7377, 12.83570
581.2198, 12.61095
581.7020, 12.38990
582.1841, 12.42323
582.6662, 12.59488
583.1483, 12.59645
583.6304, 12.35737
584.1125, 12.11359
584.5947, 12.10744
585.0768, 12.22193
585.5589, 12.28571
586.0410, 12.21120
586.5231, 12.10805
587.0052, 12.00662
587.4873, 11.91050
587.9694, 11.83072
588.4515, 11.82515
588.9337, 11.77680
589.4158, 11.63181
589.8979, 11.38931
590.3800, 11.19557
590.8621, 11.02341
591.3442, 10.94766
591.8264, 11.07823
592.3085, 11.44111
592.7906, 11.58628
593.2727, 11.47167
593.7548, 11.23850
594.2369, 10.97184
594.7191, 10.70987
595.2012, 10.62496
595.6833, 10.82243
596.1654, 11.08256
596.6475, 11.16691
597.1296, 11.12587
597.6118, 11.07850
598.0939, 11.06716
598.5760, 11.07443
599.0581, 11.11279
599.5402, 11.17314
600.0223, 11.18526
600.5045, 11.09781
600.9866, 10.98941
601.4687, 10.89401
601.9508, 10.81478
602.4329, 10.73598
602.9150, 10.65797
603.3972, 10.58064
603.8793, 10.48215
604.3614, 10.34980
604.8435, 10.35199
605.3256, 10.55461
605.8077, 10.78899
606.2899, 10.73382
606.7720, 10.45279
607.2541, 10.25422
607.7362, 10.32346
608.2183, 10.45600
608.7004, 10.39095
609.1826, 10.17817
