##NAMES=Roscherite
##RRUFFID=R070308
##IDEAL CHEMISTRY=Ca_2_Mn^2+^_5_Be_4_(PO_4_)_6_(OH)_4_&#183;6H_2_O
##LOCALITY=Black Mountain Quarry, Rumford, Oxford County, Maine, USA
##OWNER=RRUFF
##SOURCE=James Shigley
##DESCRIPTION=Reddish brown prismatic crystals associated with white albite. The color is a thin coating of something. Based on cell parameters, we cannot exclude greifensteinite as the identification, without chemical analysis.
##STATUS=The identification of this mineral has been confirmed only by single crystal X-ray diffraction.
##URL=rruff.info/R070308
167.3026, 9539.144
167.7847, 9632.427
168.2668, 9725.344
168.7490, 9807.087
169.2311, 9878.970
169.7132, 9936.267
170.1953, 9966.619
170.6774, 9983.589
171.1595, 10009.70
171.6417, 10065.23
172.1238, 10132.37
172.6059, 10162.21
173.0880, 10136.10
173.5701, 10109.28
174.0522, 10114.72
174.5344, 10133.80
175.0165, 10139.07
175.4986, 10114.09
175.9807, 10068.68
176.4628, 10027.70
176.9449, 9987.632
177.4271, 9959.860
177.9092, 9955.182
178.3913, 9961.856
178.8734, 9964.449
179.3555, 9955.612
179.8376, 9937.642
180.3197, 9916.115
180.8019, 9886.477
181.2840, 9861.697
181.7661, 9844.006
182.2482, 9833.004
182.7303, 9828.248
183.2124, 9829.300
183.6946, 9836.769
184.1767, 9854.373
184.6588, 9892.146
185.1409, 9922.027
185.6230, 9937.264
186.1051, 9941.723
186.5873, 9937.334
187.0694, 9923.045
187.5515, 9905.896
188.0336, 9905.886
188.5157, 9934.962
188.9978, 9961.266
189.4800, 9976.829
189.9621, 9986.859
190.4442, 9996.201
190.9263, 10006.69
191.4084, 10018.77
191.8905, 10032.16
192.3727, 10039.99
192.8548, 10063.08
193.3369, 10126.28
193.8190, 10193.98
194.3011, 10226.70
194.7832, 10208.27
195.2654, 10164.66
195.7475, 10152.83
196.2296, 10191.30
196.7117, 10228.44
197.1938, 10258.65
197.6759, 10284.25
198.1581, 10305.82
198.6402, 10323.81
199.1223, 10340.87
199.6044, 10362.14
200.0865, 10389.99
200.5686, 10417.66
201.0508, 10443.02
201.5329, 10468.96
202.0150, 10499.70
202.4971, 10535.86
202.9792, 10570.78
203.4613, 10591.85
203.9435, 10587.96
204.4256, 10595.37
204.9077, 10619.58
205.3898, 10650.99
205.8719, 10685.18
206.3540, 10720.43
206.8362, 10755.06
207.3183, 10787.06
207.8004, 10815.76
208.2825, 10842.70
208.7646, 10871.37
209.2467, 10896.04
209.7289, 10916.32
210.2110, 10930.36
210.6931, 10932.73
211.1752, 10912.81
211.6573, 10859.67
212.1395, 10825.23
212.6216, 10828.19
213.1037, 10832.68
213.5858, 10820.00
214.0679, 10791.16
214.5500, 10759.03
215.0322, 10735.22
215.5143, 10719.79
215.9964, 10713.27
216.4785, 10738.08
216.9606, 10750.92
217.4427, 10724.60
217.9249, 10669.61
218.4070, 10617.51
218.8891, 10595.13
219.3712, 10603.24
219.8533, 10612.30
220.3354, 10627.70
220.8176, 10638.66
221.2997, 10643.64
221.7818, 10641.79
222.2639, 10631.40
222.7460, 10610.29
223.2281, 10579.51
223.7103, 10552.27
224.1924, 10526.44
224.6745, 10507.20
225.1566, 10495.55
225.6387, 10491.04
226.1208, 10495.57
226.6030, 10511.95
227.0851, 10534.18
227.5672, 10536.19
228.0493, 10500.23
228.5314, 10466.58
229.0135, 10437.11
229.4957, 10415.33
229.9778, 10407.77
230.4599, 10417.90
230.9420, 10436.76
231.4241, 10441.32
231.9062, 10420.12
232.3884, 10403.88
232.8705, 10397.17
233.3526, 10395.96
233.8347, 10398.45
234.3168, 10403.76
234.7989, 10408.47
235.2811, 10405.47
235.7632, 10388.82
236.2453, 10378.66
236.7274, 10374.61
237.2095, 10377.91
237.6916, 10393.10
238.1738, 10419.48
238.6559, 10447.65
239.1380, 10463.98
239.6201, 10462.88
240.1022, 10471.01
240.5843, 10505.65
241.0665, 10536.33
241.5486, 10545.31
242.0307, 10534.09
242.5128, 10518.05
242.9949, 10510.39
243.4770, 10511.30
243.9592, 10518.63
244.4413, 10540.84
244.9234, 10561.83
245.4055, 10573.20
245.8876, 10578.11
246.3697, 10585.98
246.8519, 10607.42
247.3340, 10639.28
247.8161, 10650.68
248.2982, 10622.23
248.7803, 10598.72
249.2624, 10601.12
249.7446, 10617.41
250.2267, 10626.42
250.7088, 10613.43
251.1909, 10589.57
251.6730, 10589.65
252.1551, 10628.39
252.6373, 10661.34
253.1194, 10671.46
253.6015, 10670.26
254.0836, 10668.95
254.5657, 10671.11
255.0478, 10676.25
255.5300, 10684.19
256.0121, 10695.69
256.4942, 10707.11
256.9763, 10712.75
257.4584, 10720.68
257.9406, 10741.81
258.4227, 10779.08
258.9048, 10812.36
259.3869, 10819.62
259.8690, 10799.95
260.3511, 10773.58
260.8333, 10736.66
261.3154, 10700.47
261.7975, 10671.56
262.2796, 10650.41
262.7617, 10636.14
263.2438, 10630.65
263.7260, 10632.47
264.2081, 10632.85
264.6902, 10629.84
265.1723, 10626.97
265.6544, 10628.88
266.1365, 10633.58
266.6187, 10634.05
267.1008, 10621.40
267.5829, 10603.30
268.0650, 10597.90
268.5471, 10609.37
269.0292, 10621.29
269.5114, 10626.25
269.9935, 10623.64
270.4756, 10609.41
270.9577, 10571.38
271.4398, 10530.43
271.9219, 10514.47
272.4041, 10524.31
272.8862, 10528.90
273.3683, 10504.86
273.8504, 10469.91
274.3325, 10459.83
274.8146, 10490.87
275.2968, 10520.23
275.7789, 10511.51
276.2610, 10474.61
276.7431, 10450.88
277.2252, 10457.37
277.7073, 10480.50
278.1895, 10500.55
278.6716, 10520.07
279.1537, 10527.72
279.6358, 10510.43
280.1179, 10480.52
280.6000, 10459.27
281.0822, 10451.64
281.5643, 10450.58
282.0464, 10447.47
282.5285, 10441.65
283.0106, 10442.37
283.4927, 10457.00
283.9749, 10474.62
284.4570, 10484.77
284.9391, 10486.96
285.4212, 10488.53
285.9033, 10497.21
286.3854, 10512.25
286.8676, 10513.34
287.3497, 10481.75
287.8318, 10455.64
288.3139, 10458.16
288.7960, 10481.67
289.2781, 10505.25
289.7603, 10517.98
290.2424, 10521.00
290.7245, 10518.40
291.2066, 10504.75
291.6887, 10492.60
292.1708, 10485.47
292.6530, 10480.25
293.1351, 10472.92
293.6172, 10462.10
294.0993, 10449.35
294.5814, 10437.51
295.0635, 10427.01
295.5457, 10416.61
296.0278, 10408.76
296.5099, 10399.34
296.9920, 10379.26
297.4741, 10351.27
297.9562, 10332.98
298.4384, 10346.41
298.9205, 10399.72
299.4026, 10427.58
299.8847, 10400.34
300.3668, 10378.02
300.8489, 10390.21
301.3311, 10423.46
301.8131, 10445.11
302.2953, 10431.13
302.7774, 10390.92
303.2595, 10373.51
303.7416, 10397.03
304.2237, 10417.65
304.7058, 10428.34
305.1880, 10430.95
305.6701, 10425.19
306.1522, 10410.59
306.6343, 10394.64
307.1164, 10390.65
307.5985, 10402.00
308.0807, 10412.83
308.5628, 10417.15
309.0449, 10422.45
309.5270, 10439.59
310.0091, 10467.11
310.4912, 10483.56
310.9734, 10460.96
311.4555, 10404.09
311.9376, 10367.65
312.4197, 10366.07
312.9018, 10370.67
313.3839, 10359.55
313.8661, 10339.44
314.3482, 10328.49
314.8303, 10342.31
315.3124, 10366.98
315.7945, 10375.36
316.2766, 10364.07
316.7588, 10356.46
317.2409, 10369.88
317.7230, 10393.44
318.2051, 10408.98
318.6872, 10412.27
319.1693, 10410.88
319.6515, 10408.66
320.1336, 10405.98
320.6157, 10404.02
321.0978, 10402.23
321.5799, 10402.88
322.0620, 10413.14
322.5442, 10436.30
323.0263, 10448.54
323.5084, 10433.34
323.9905, 10407.67
324.4726, 10391.70
324.9547, 10388.82
325.4369, 10397.24
325.9190, 10419.46
326.4011, 10457.46
326.8832, 10475.96
327.3653, 10452.76
327.8474, 10431.26
328.3296, 10440.91
328.8117, 10473.67
329.2938, 10501.14
329.7759, 10505.46
330.2580, 10493.94
330.7401, 10499.66
331.2223, 10553.37
331.7044, 10586.22
332.1865, 10577.08
332.6686, 10550.09
333.1507, 10530.03
333.6328, 10524.76
334.1150, 10527.59
334.5971, 10530.03
335.0792, 10536.03
335.5613, 10530.10
336.0434, 10493.68
336.5255, 10463.07
337.0077, 10465.74
337.4898, 10493.14
337.9719, 10512.98
338.4540, 10495.01
338.9361, 10445.84
339.4182, 10427.94
339.9004, 10472.94
340.3825, 10502.57
340.8646, 10480.44
341.3467, 10436.50
341.8288, 10409.14
342.3109, 10413.85
342.7931, 10434.16
343.2752, 10447.43
343.7573, 10453.29
344.2394, 10454.66
344.7215, 10448.49
345.2036, 10440.89
345.6858, 10434.95
346.1679, 10431.09
346.6500, 10432.99
347.1321, 10452.69
347.6142, 10479.81
348.0963, 10479.29
348.5785, 10437.56
349.0606, 10399.96
349.5427, 10415.55
350.0248, 10465.66
350.5069, 10494.61
350.9890, 10467.21
351.4712, 10435.39
351.9533, 10449.58
352.4354, 10500.84
352.9175, 10541.61
353.3996, 10548.93
353.8817, 10532.62
354.3639, 10515.66
354.8460, 10492.85
355.3281, 10479.80
355.8102, 10485.08
356.2923, 10499.68
356.7744, 10515.68
357.2566, 10530.77
357.7387, 10540.13
358.2208, 10535.51
358.7029, 10510.02
359.1850, 10511.16
359.6671, 10563.97
360.1493, 10614.35
360.6314, 10638.32
361.1135, 10640.82
361.5956, 10635.77
362.0777, 10630.89
362.5598, 10626.14
363.0420, 10619.98
363.5241, 10598.80
364.0062, 10599.82
364.4883, 10648.47
364.9704, 10705.30
365.4525, 10733.85
365.9347, 10727.86
366.4168, 10713.56
366.8989, 10723.00
367.3810, 10758.34
367.8631, 10781.36
368.3452, 10781.14
368.8274, 10779.51
369.3095, 10786.40
369.7916, 10800.53
370.2737, 10818.78
370.7558, 10843.01
371.2379, 10867.85
371.7201, 10877.44
372.2022, 10868.20
372.6843, 10880.05
373.1664, 10951.67
373.6485, 11040.44
374.1306, 11076.75
374.6128, 11042.24
375.0949, 11014.06
375.5770, 11044.95
376.0591, 11108.25
376.5412, 11146.61
377.0233, 11145.78
377.5055, 11141.04
377.9876, 11174.25
378.4697, 11250.73
378.9518, 11293.71
379.4339, 11265.01
379.9160, 11236.01
380.3982, 11256.11
380.8803, 11312.01
381.3624, 11360.38
381.8445, 11376.89
382.3266, 11373.01
382.8087, 11383.87
383.2909, 11418.14
383.7730, 11457.27
384.2551, 11502.48
384.7372, 11551.10
385.2193, 11600.96
385.7014, 11651.77
386.1836, 11705.73
386.6657, 11768.05
387.1478, 11839.77
387.6299, 11894.58
388.1120, 11911.10
388.5941, 11935.70
389.0763, 11987.13
389.5584, 12055.26
390.0405, 12121.67
390.5226, 12177.18
391.0047, 12233.62
391.4868, 12318.24
391.9690, 12435.84
392.4511, 12531.57
392.9332, 12575.72
393.4153, 12605.18
393.8974, 12659.17
394.3795, 12737.94
394.8617, 12806.07
395.3438, 12839.13
395.8259, 12852.93
396.3080, 12873.02
396.7901, 12901.66
397.2722, 12933.94
397.7544, 12968.98
398.2365, 13004.70
398.7186, 13032.31
399.2007, 13056.33
399.6828, 13067.34
400.1649, 13055.65
400.6471, 13029.92
401.1292, 13007.07
401.6113, 12992.55
402.0934, 12973.50
402.5755, 12929.12
403.0576, 12848.09
403.5398, 12775.91
404.0219, 12712.45
404.5040, 12655.91
404.9861, 12609.69
405.4682, 12569.48
405.9503, 12525.94
406.4325, 12472.47
406.9146, 12412.82
407.3967, 12360.98
407.8788, 12318.39
408.3609, 12281.17
408.8430, 12261.15
409.3252, 12237.33
409.8073, 12183.71
410.2894, 12099.34
410.7715, 12023.74
411.2536, 12005.14
411.7357, 12028.98
412.2179, 12016.72
412.7000, 11951.17
413.1821, 11878.94
413.6642, 11832.13
414.1463, 11801.61
414.6284, 11772.04
415.1106, 11740.11
415.5927, 11708.73
416.0748, 11685.21
416.5569, 11664.62
417.0390, 11629.46
417.5211, 11571.82
418.0033, 11504.80
418.4854, 11445.74
418.9675, 11392.87
419.4496, 11357.54
419.9317, 11361.58
420.4138, 11366.10
420.8960, 11343.79
421.3781, 11297.95
421.8602, 11244.12
422.3423, 11190.26
422.8244, 11140.12
423.3065, 11110.92
423.7887, 11122.75
424.2708, 11124.42
424.7529, 11101.73
425.2350, 11073.66
425.7171, 11056.92
426.1992, 11053.10
426.6814, 11050.64
427.1635, 11036.78
427.6456, 11012.79
428.1277, 10997.42
428.6098, 10998.67
429.0919, 10993.04
429.5741, 10961.64
430.0562, 10917.58
430.5383, 10878.62
431.0204, 10845.96
431.5025, 10825.61
431.9846, 10830.05
432.4668, 10852.23
432.9489, 10867.66
433.4310, 10870.61
433.9131, 10863.03
434.3952, 10841.47
434.8773, 10803.16
435.3595, 10785.80
435.8416, 10819.56
436.3237, 10849.53
436.8058, 10838.77
437.2879, 10796.36
437.7701, 10747.69
438.2522, 10705.02
438.7343, 10668.71
439.2164, 10639.64
439.6985, 10615.33
440.1806, 10603.88
440.6628, 10617.24
441.1449, 10631.98
441.6270, 10631.28
442.1091, 10616.97
442.5912, 10602.51
443.0733, 10598.36
443.5555, 10601.84
444.0376, 10603.56
444.5197, 10604.96
445.0018, 10600.43
445.4839, 10577.06
445.9660, 10552.25
446.4482, 10544.49
446.9303, 10557.49
447.4124, 10576.12
447.8945, 10595.90
448.3766, 10613.86
448.8587, 10625.35
449.3409, 10630.18
449.8230, 10621.61
450.3051, 10586.24
450.7872, 10529.79
451.2693, 10506.68
451.7514, 10549.94
452.2336, 10585.47
452.7157, 10581.45
453.1978, 10557.81
453.6799, 10540.39
454.1620, 10537.27
454.6441, 10545.25
455.1263, 10563.84
455.6084, 10599.20
456.0905, 10610.06
456.5726, 10554.81
457.0547, 10517.35
457.5368, 10543.00
458.0190, 10598.65
458.5011, 10626.26
458.9832, 10597.34
459.4653, 10551.90
459.9474, 10549.56
460.4295, 10590.98
460.9117, 10631.38
461.3938, 10667.03
461.8759, 10692.58
462.3580, 10700.89
462.8401, 10694.60
463.3222, 10686.33
463.8044, 10677.99
464.2865, 10670.23
464.7686, 10664.13
465.2507, 10659.23
465.7328, 10654.13
466.2149, 10648.44
466.6971, 10641.26
467.1792, 10630.49
467.6613, 10611.76
468.1434, 10598.91
468.6255, 10597.19
469.1076, 10596.68
469.5898, 10593.09
470.0719, 10585.37
470.5540, 10571.48
471.0361, 10548.55
471.5182, 10522.68
472.0003, 10512.70
472.4825, 10524.53
472.9646, 10536.32
473.4467, 10547.13
473.9288, 10553.63
474.4109, 10549.78
474.8930, 10537.06
475.3752, 10528.59
475.8573, 10540.01
476.3394, 10557.27
476.8215, 10551.58
477.3036, 10522.13
477.7857, 10499.08
478.2679, 10500.09
478.7500, 10514.95
479.2321, 10519.70
479.7142, 10515.22
480.1963, 10501.12
480.6784, 10463.81
481.1606, 10425.92
481.6427, 10408.64
482.1248, 10412.37
482.6069, 10425.82
483.0890, 10441.63
483.5711, 10458.92
484.0533, 10473.45
484.5354, 10486.80
485.0175, 10494.35
485.4996, 10494.04
485.9817, 10489.51
486.4638, 10481.40
486.9460, 10470.88
487.4281, 10463.21
487.9102, 10464.41
488.3923, 10471.51
488.8744, 10474.68
489.3565, 10472.83
489.8387, 10473.71
490.3208, 10487.35
490.8029, 10502.63
491.2850, 10493.91
491.7671, 10447.04
492.2492, 10417.18
492.7314, 10443.25
493.2135, 10484.82
493.6956, 10494.56
494.1777, 10469.53
494.6598, 10433.20
495.1419, 10399.93
495.6241, 10373.05
496.1062, 10375.08
496.5883, 10452.04
497.0704, 10492.50
497.5525, 10460.68
498.0346, 10407.13
498.5168, 10370.96
498.9989, 10357.61
499.4810, 10352.35
499.9631, 10349.21
500.4452, 10344.22
500.9273, 10315.39
501.4095, 10252.76
501.8916, 10208.49
502.3737, 10208.77
502.8558, 10239.71
503.3379, 10283.47
503.8200, 10348.27
504.3022, 10388.84
504.7843, 10371.04
505.2664, 10329.80
505.7485, 10304.16
506.2306, 10296.56
506.7127, 10290.65
507.1949, 10273.76
507.6770, 10252.12
508.1591, 10253.54
508.6412, 10301.34
509.1233, 10338.73
509.6054, 10361.04
510.0876, 10373.71
510.5697, 10377.38
511.0518, 10374.42
511.5339, 10371.27
512.0161, 10373.56
512.4982, 10378.38
512.9803, 10375.67
513.4624, 10363.22
513.9445, 10357.02
514.4266, 10364.71
514.9088, 10379.81
515.3909, 10395.21
515.8730, 10411.39
516.3551, 10422.34
516.8372, 10426.43
517.3193, 10424.41
517.8015, 10408.12
518.2836, 10384.35
518.7657, 10381.27
519.2478, 10416.41
519.7299, 10469.69
520.2120, 10491.88
520.6942, 10459.22
521.1763, 10440.63
521.6584, 10443.57
522.1405, 10451.87
522.6226, 10465.77
523.1047, 10477.73
523.5869, 10467.60
524.0690, 10414.61
524.5511, 10356.99
525.0332, 10370.74
525.5153, 10455.25
525.9974, 10512.39
526.4796, 10517.04
526.9617, 10490.38
527.4438, 10437.39
527.9259, 10363.09
528.4080, 10322.20
528.8901, 10346.47
529.3723, 10382.39
529.8544, 10405.07
530.3365, 10415.28
530.8186, 10414.90
531.3007, 10404.82
531.7828, 10389.47
532.2650, 10374.91
532.7471, 10361.62
533.2292, 10345.43
533.7113, 10310.37
534.1934, 10291.47
534.6755, 10312.89
535.1577, 10351.24
535.6398, 10373.64
536.1219, 10369.68
536.6040, 10359.70
537.0861, 10364.12
537.5682, 10377.81
538.0504, 10381.54
538.5325, 10371.31
539.0146, 10365.00
539.4967, 10377.04
539.9788, 10403.43
540.4609, 10423.73
540.9431, 10441.91
541.4252, 10449.69
541.9073, 10429.24
542.3894, 10408.06
542.8715, 10421.32
543.3536, 10465.43
543.8358, 10500.92
544.3179, 10493.15
544.8000, 10454.63
545.2821, 10442.00
545.7642, 10464.84
546.2463, 10487.33
546.7285, 10500.61
547.2106, 10510.04
547.6927, 10519.24
548.1748, 10528.37
548.6569, 10536.91
549.1390, 10543.73
549.6211, 10550.40
550.1032, 10556.25
550.5853, 10562.86
551.0674, 10578.38
551.5496, 10607.57
552.0317, 10640.24
552.5138, 10659.39
552.9959, 10659.31
553.4780, 10665.14
553.9601, 10683.67
554.4423, 10700.00
554.9244, 10705.31
555.4065, 10705.36
555.8886, 10710.56
556.3707, 10724.94
556.8528, 10739.96
557.3350, 10741.94
557.8171, 10733.43
558.2992, 10738.90
558.7813, 10767.09
559.2634, 10788.27
559.7455, 10777.99
560.2277, 10745.88
560.7098, 10724.69
561.1919, 10719.63
561.6740, 10716.74
562.1561, 10718.61
562.6382, 10716.29
563.1204, 10691.83
563.6025, 10649.93
564.0846, 10620.53
564.5667, 10627.49
565.0488, 10660.01
565.5309, 10673.28
566.0131, 10654.38
566.4952, 10648.87
566.9773, 10679.53
567.4594, 10714.10
567.9415, 10732.40
568.4236, 10736.17
568.9058, 10738.26
569.3879, 10743.09
569.8700, 10749.49
570.3521, 10753.26
570.8342, 10757.28
571.3163, 10772.30
571.7985, 10802.05
572.2806, 10839.90
572.7627, 10879.72
573.2448, 10923.34
573.7269, 10952.44
574.2090, 10955.25
574.6912, 10958.69
575.1733, 10970.52
575.6554, 10985.89
576.1375, 10999.25
576.6196, 11009.34
577.1017, 11018.33
577.5839, 11029.75
578.0660, 11041.66
578.5481, 11048.78
579.0302, 11051.62
579.5123, 11043.85
579.9944, 11019.19
580.4766, 10985.17
580.9587, 10957.03
581.4408, 10937.24
581.9229, 10912.00
582.4050, 10880.96
582.8871, 10842.78
583.3693, 10784.35
583.8514, 10719.77
584.3335, 10679.75
584.8156, 10678.89
585.2977, 10696.06
585.7798, 10700.02
586.2620, 10690.31
586.7441, 10670.30
587.2262, 10629.38
587.7083, 10595.69
588.1904, 10598.16
588.6725, 10614.87
589.1547, 10607.79
589.6368, 10563.05
590.1189, 10517.83
590.6010, 10483.04
591.0831, 10461.53
591.5652, 10464.05
592.0474, 10486.62
592.5295, 10505.04
593.0116, 10502.00
593.4937, 10487.23
593.9758, 10492.10
594.4579, 10526.93
594.9401, 10556.83
595.4222, 10574.68
595.9043, 10590.69
596.3864, 10607.70
596.8685, 10626.88
597.3506, 10651.40
597.8328, 10686.88
598.3149, 10719.16
598.7970, 10737.63
599.2791, 10742.79
599.7612, 10732.10
600.2433, 10704.97
600.7255, 10677.26
601.2076, 10662.13
601.6897, 10658.38
602.1718, 10656.10
602.6539, 10654.85
603.1360, 10655.88
603.6182, 10676.12
604.1003, 10685.44
604.5824, 10654.00
605.0645, 10588.38
605.5466, 10521.38
606.0287, 10466.35
606.5109, 10427.07
606.9930, 10421.71
607.4751, 10443.57
607.9572, 10435.25
608.4393, 10376.88
608.9214, 10306.82
609.4036, 10263.82
609.8857, 10248.00
610.3678, 10223.72
610.8499, 10181.48
611.3320, 10143.76
611.8141, 10121.33
612.2963, 10102.34
612.7784, 10066.64
613.2605, 10018.09
613.7426, 9989.990
614.2247, 10019.49
614.7068, 10077.32
615.1890, 10085.67
615.6711, 10042.08
616.1532, 10003.60
616.6353, 9985.141
617.1174, 9980.409
617.5995, 9986.530
618.0817, 10003.79
618.5638, 10013.63
619.0459, 10005.64
619.5280, 10001.32
620.0101, 10014.29
620.4922, 10032.96
620.9744, 10040.83
621.4565, 10036.06
621.9386, 10031.29
622.4207, 10037.00
622.9028, 10052.19
623.3849, 10079.33
623.8671, 10124.76
624.3492, 10142.08
624.8313, 10099.52
625.3134, 10043.15
625.7955, 10030.72
626.2776, 10059.32
626.7598, 10087.31
627.2419, 10108.58
627.7240, 10128.38
628.2061, 10157.27
628.6882, 10182.92
629.1703, 10179.27
629.6525, 10144.88
630.1346, 10114.92
630.6167, 10131.01
631.0988, 10180.00
631.5809, 10181.30
632.0630, 10118.63
632.5452, 10072.06
633.0273, 10069.67
633.5094, 10090.02
633.9915, 10121.96
634.4736, 10163.71
634.9557, 10167.29
635.4379, 10078.58
635.9200, 9996.197
636.4021, 9987.896
636.8842, 10017.67
637.3663, 10027.78
637.8484, 10004.75
638.3306, 9972.958
638.8127, 9957.985
639.2948, 9955.181
639.7769, 9934.283
640.2590, 9889.102
640.7411, 9847.084
641.2233, 9812.054
641.7054, 9787.685
642.1875, 9780.391
642.6696, 9788.740
643.1517, 9795.751
643.6339, 9800.173
644.1160, 9800.002
644.5981, 9794.456
645.0802, 9783.479
645.5623, 9763.229
646.0444, 9735.013
646.5266, 9711.390
647.0087, 9705.288
647.4908, 9712.876
647.9729, 9717.169
648.4550, 9718.861
648.9371, 9713.699
649.4193, 9695.207
649.9014, 9675.318
650.3835, 9665.270
650.8656, 9664.077
651.3477, 9665.271
651.8298, 9668.076
652.3120, 9672.682
652.7941, 9682.464
653.2762, 9692.520
653.7583, 9697.260
654.2404, 9695.298
654.7225, 9685.752
655.2047, 9665.485
655.6868, 9640.377
656.1689, 9632.496
656.6510, 9645.352
657.1331, 9653.228
657.6152, 9647.146
658.0974, 9639.894
658.5795, 9646.752
659.0616, 9663.398
659.5437, 9669.849
