##NAMES=Roscherite
##RRUFFID=R070308
##IDEAL CHEMISTRY=Ca_2_Mn^2+^_5_Be_4_(PO_4_)_6_(OH)_4_&#183;6H_2_O
##LOCALITY=Black Mountain Quarry, Rumford, Oxford County, Maine, USA
##OWNER=RRUFF
##SOURCE=James Shigley
##DESCRIPTION=Reddish brown prismatic crystals associated with white albite. The color is a thin coating of something. Based on cell parameters, we cannot exclude greifensteinite as the identification, without chemical analysis.
##STATUS=The identification of this mineral has been confirmed only by single crystal X-ray diffraction.
##URL=rruff.info/R070308
157.3757, 12024.43
157.8578, 12082.29
158.3399, 12159.98
158.8221, 12236.56
159.3042, 12299.10
159.7863, 12330.39
160.2684, 12360.94
160.7505, 12404.49
161.2326, 12458.96
161.7148, 12505.30
162.1969, 12518.07
162.6790, 12525.73
163.1611, 12555.50
163.6432, 12635.08
164.1253, 12724.31
164.6075, 12803.26
165.0896, 12871.25
165.5717, 12936.65
166.0538, 13000.27
166.5359, 13064.95
167.0180, 13134.83
167.5002, 13211.86
167.9823, 13295.12
168.4644, 13390.54
168.9465, 13502.20
169.4286, 13600.66
169.9107, 13653.66
170.3929, 13676.81
170.8750, 13704.36
171.3571, 13763.81
171.8392, 13831.81
172.3213, 13881.87
172.8034, 13907.11
173.2856, 13924.53
173.7677, 13952.74
174.2498, 13987.27
174.7319, 14012.40
175.2140, 14014.42
175.6961, 14002.13
176.1783, 13987.07
176.6604, 13968.25
177.1425, 13953.13
177.6246, 13954.21
178.1067, 13969.44
178.5888, 13985.53
179.0710, 13990.10
179.5531, 13988.30
180.0352, 13991.92
180.5173, 14005.66
180.9994, 14024.13
181.4815, 14039.56
181.9637, 14052.06
182.4458, 14061.11
182.9279, 14059.98
183.4100, 14053.36
183.8921, 14059.00
184.3742, 14084.34
184.8564, 14124.18
185.3385, 14170.73
185.8206, 14225.41
186.3027, 14274.13
186.7848, 14300.26
187.2669, 14306.02
187.7491, 14308.98
188.2312, 14307.99
188.7133, 14308.56
189.1954, 14335.38
189.6775, 14391.77
190.1596, 14459.05
190.6418, 14521.90
191.1239, 14579.72
191.6060, 14621.30
192.0881, 14635.74
192.5702, 14626.38
193.0524, 14619.37
193.5345, 14612.12
194.0166, 14613.84
194.4987, 14645.63
194.9808, 14709.73
195.4629, 14770.06
195.9451, 14807.26
196.4272, 14822.28
196.9093, 14834.94
197.3914, 14841.67
197.8735, 14852.67
198.3556, 14896.87
198.8378, 14981.43
199.3199, 15052.98
199.8020, 15072.25
200.2841, 15034.16
200.7662, 15017.47
201.2483, 15028.85
201.7305, 15062.05
202.2126, 15106.50
202.6947, 15166.46
203.1768, 15221.85
203.6589, 15259.21
204.1410, 15275.92
204.6232, 15289.29
205.1053, 15296.19
205.5874, 15302.73
206.0695, 15332.42
206.5516, 15392.14
207.0337, 15456.94
207.5159, 15514.12
207.9980, 15565.26
208.4801, 15593.32
208.9622, 15584.18
209.4443, 15550.53
209.9264, 15561.22
210.4086, 15635.38
210.8907, 15715.68
211.3728, 15754.86
211.8549, 15741.33
212.3370, 15726.36
212.8191, 15713.24
213.3013, 15703.63
213.7834, 15713.92
214.2655, 15753.92
214.7476, 15798.19
215.2297, 15823.14
215.7118, 15821.81
216.1940, 15821.35
216.6761, 15827.82
217.1582, 15840.67
217.6403, 15845.63
218.1224, 15836.59
218.6045, 15827.71
219.0867, 15835.59
219.5688, 15871.84
220.0509, 15896.62
220.5330, 15896.83
221.0151, 15871.68
221.4972, 15859.66
221.9794, 15861.72
222.4615, 15875.68
222.9436, 15902.41
223.4257, 15953.50
223.9078, 15992.99
224.3899, 16006.00
224.8721, 15988.85
225.3542, 15997.50
225.8363, 16043.04
226.3184, 16103.89
226.8005, 16158.61
227.2827, 16216.11
227.7648, 16248.42
228.2469, 16238.01
228.7290, 16174.75
229.2111, 16150.14
229.6932, 16184.21
230.1754, 16240.96
230.6575, 16273.00
231.1396, 16267.00
231.6217, 16259.19
232.1038, 16258.06
232.5859, 16263.49
233.0681, 16276.96
233.5502, 16302.43
234.0323, 16332.99
234.5144, 16359.66
234.9965, 16383.82
235.4786, 16400.99
235.9608, 16404.50
236.4429, 16385.45
236.9250, 16395.47
237.4071, 16448.84
237.8892, 16522.44
238.3713, 16580.32
238.8535, 16618.61
239.3356, 16647.49
239.8177, 16668.47
240.2998, 16678.78
240.7819, 16691.80
241.2640, 16707.69
241.7462, 16726.38
242.2283, 16748.43
242.7104, 16776.63
243.1925, 16803.53
243.6746, 16826.09
244.1567, 16842.40
244.6389, 16861.19
245.1210, 16882.72
245.6031, 16906.49
246.0852, 16931.04
246.5673, 16954.08
247.0494, 16981.84
247.5316, 17017.07
248.0137, 17061.78
248.4958, 17110.30
248.9779, 17176.75
249.4600, 17238.73
249.9421, 17245.12
250.4243, 17154.06
250.9064, 17082.64
251.3885, 17081.75
251.8706, 17182.35
252.3527, 17248.03
252.8348, 17260.48
253.3170, 17249.32
253.7991, 17276.06
254.2812, 17367.96
254.7633, 17444.82
255.2454, 17469.47
255.7275, 17419.88
256.2097, 17401.06
256.6918, 17426.50
257.1739, 17473.62
257.6560, 17498.97
258.1381, 17490.56
258.6202, 17485.14
259.1024, 17497.06
259.5845, 17529.64
260.0666, 17567.62
260.5487, 17619.46
261.0308, 17670.17
261.5129, 17689.73
261.9951, 17664.13
262.4772, 17640.49
262.9593, 17638.42
263.4414, 17662.83
263.9235, 17687.13
264.4056, 17716.09
264.8878, 17740.69
265.3699, 17739.98
265.8520, 17700.96
266.3341, 17674.03
266.8162, 17686.95
267.2983, 17750.62
267.7805, 17779.36
268.2626, 17759.31
268.7447, 17719.38
269.2268, 17712.56
269.7089, 17748.55
270.1910, 17782.62
270.6732, 17793.71
271.1553, 17777.80
271.6374, 17779.63
272.1195, 17803.90
272.6016, 17839.05
273.0837, 17865.39
273.5659, 17881.26
274.0480, 17897.51
274.5301, 17921.00
275.0122, 17952.24
275.4943, 17970.76
275.9764, 17972.39
276.4586, 17969.17
276.9407, 17979.83
277.4228, 18005.54
277.9049, 18033.82
278.3870, 18062.73
278.8691, 18091.81
279.3513, 18108.78
279.8334, 18111.71
280.3155, 18107.50
280.7976, 18099.19
281.2798, 18085.98
281.7619, 18090.01
282.2440, 18130.78
282.7261, 18200.89
283.2082, 18240.87
283.6903, 18246.17
284.1725, 18238.02
284.6546, 18239.48
285.1367, 18250.42
285.6188, 18267.88
286.1009, 18293.09
286.5830, 18324.21
287.0652, 18354.25
287.5473, 18383.21
288.0294, 18409.54
288.5115, 18428.64
288.9936, 18441.83
289.4757, 18459.70
289.9579, 18491.40
290.4400, 18529.03
290.9221, 18548.37
291.4042, 18548.18
291.8863, 18545.27
292.3684, 18556.34
292.8506, 18579.20
293.3327, 18605.34
293.8148, 18640.02
294.2969, 18671.97
294.7790, 18670.78
295.2611, 18636.34
295.7433, 18606.24
296.2254, 18617.97
296.7075, 18660.56
297.1896, 18703.74
297.6717, 18746.52
298.1538, 18779.69
298.6360, 18781.92
299.1181, 18755.55
299.6002, 18728.19
300.0823, 18719.50
300.5644, 18724.80
301.0465, 18734.90
301.5287, 18746.02
302.0108, 18762.60
302.4929, 18795.54
302.9750, 18841.71
303.4571, 18881.20
303.9392, 18894.56
304.4214, 18895.30
304.9035, 18902.79
305.3856, 18925.80
305.8677, 18949.68
306.3498, 18956.09
306.8319, 18950.67
307.3141, 18953.59
307.7962, 18995.34
308.2783, 19042.45
308.7604, 19056.98
309.2425, 19013.75
309.7246, 18975.04
310.2068, 18991.59
310.6889, 19045.14
311.1710, 19088.42
311.6531, 19078.01
312.1352, 19061.20
312.6173, 19077.39
313.0995, 19145.08
313.5816, 19209.40
314.0637, 19238.08
314.5458, 19246.16
315.0279, 19262.22
315.5100, 19325.87
315.9922, 19378.78
316.4743, 19380.54
316.9564, 19310.76
317.4385, 19255.24
317.9206, 19248.48
318.4027, 19271.48
318.8849, 19297.71
319.3670, 19317.36
319.8491, 19341.37
320.3312, 19377.00
320.8133, 19428.07
321.2954, 19471.23
321.7776, 19503.23
322.2597, 19525.02
322.7418, 19537.63
323.2239, 19529.62
323.7060, 19523.98
324.1881, 19523.25
324.6703, 19526.90
325.1524, 19544.19
325.6345, 19580.76
326.1166, 19628.43
326.5987, 19681.41
327.0808, 19773.69
327.5630, 19830.79
328.0451, 19826.95
328.5272, 19766.08
329.0093, 19733.97
329.4914, 19747.82
329.9735, 19775.38
330.4557, 19796.00
330.9378, 19803.96
331.4199, 19815.07
331.9020, 19831.63
332.3841, 19852.49
332.8662, 19873.32
333.3484, 19898.87
333.8305, 19916.87
334.3126, 19915.32
334.7947, 19878.98
335.2768, 19871.62
335.7589, 19904.13
336.2411, 19963.06
336.7232, 20019.23
337.2053, 20075.80
337.6874, 20119.09
338.1695, 20141.36
338.6516, 20140.78
339.1338, 20129.47
339.6159, 20100.46
340.0980, 20072.28
340.5801, 20085.35
341.0622, 20145.50
341.5443, 20193.97
342.0265, 20195.00
342.5086, 20156.44
342.9907, 20158.12
343.4728, 20206.85
343.9549, 20269.09
344.4370, 20299.84
344.9192, 20302.59
345.4013, 20313.11
345.8834, 20355.84
346.3655, 20411.83
346.8476, 20420.17
347.3297, 20379.33
347.8119, 20335.76
348.2940, 20326.89
348.7761, 20349.74
349.2582, 20399.13
349.7403, 20496.79
350.2225, 20597.50
350.7046, 20625.53
351.1867, 20589.18
351.6688, 20550.43
352.1509, 20560.18
352.6331, 20594.46
353.1152, 20613.35
353.5973, 20594.23
354.0794, 20583.62
354.5615, 20644.63
355.0436, 20752.94
355.5258, 20834.46
356.0079, 20811.91
356.4900, 20765.05
356.9721, 20771.13
357.4542, 20859.67
357.9363, 20941.13
358.4185, 20946.36
358.9006, 20912.53
359.3827, 20903.99
359.8648, 20984.32
360.3469, 21065.89
360.8290, 21096.46
361.3112, 21063.91
361.7933, 21037.56
362.2754, 21038.32
362.7575, 21056.92
363.2396, 21083.41
363.7217, 21127.80
364.2039, 21167.27
364.6860, 21189.86
365.1681, 21195.31
365.6502, 21215.24
366.1323, 21274.02
366.6144, 21335.95
367.0966, 21376.28
367.5787, 21351.16
368.0608, 21357.46
368.5429, 21424.66
369.0250, 21535.73
369.5071, 21599.64
369.9893, 21578.32
370.4714, 21554.00
370.9535, 21570.78
371.4356, 21662.56
371.9177, 21715.14
372.3998, 21708.98
372.8820, 21672.14
373.3641, 21669.55
373.8462, 21714.32
374.3283, 21758.95
374.8104, 21777.60
375.2925, 21765.44
375.7747, 21791.15
376.2568, 21865.21
376.7389, 21956.74
377.2210, 22032.04
377.7031, 22092.29
378.1852, 22116.51
378.6674, 22081.70
379.1495, 22006.70
379.6316, 21969.97
380.1137, 21973.20
380.5958, 22002.34
381.0779, 22062.07
381.5601, 22143.23
382.0422, 22192.42
382.5243, 22184.74
383.0064, 22157.74
383.4885, 22177.72
383.9706, 22239.60
384.4528, 22304.27
384.9349, 22347.87
385.4170, 22376.59
385.8991, 22397.27
386.3812, 22405.53
386.8633, 22424.23
387.3455, 22485.02
387.8276, 22572.87
388.3097, 22654.54
388.7918, 22716.76
389.2739, 22762.91
389.7560, 22786.31
390.2382, 22783.31
390.7203, 22796.08
391.2024, 22869.90
391.6845, 22964.17
392.1666, 23033.02
392.6487, 23021.76
393.1309, 23018.74
393.6130, 23071.91
394.0951, 23175.47
394.5772, 23255.50
395.0593, 23270.27
395.5414, 23270.18
396.0236, 23286.52
396.5057, 23334.41
396.9878, 23386.27
397.4699, 23460.66
397.9520, 23539.85
398.4341, 23566.78
398.9163, 23483.51
399.3984, 23408.09
399.8805, 23387.25
400.3626, 23446.78
400.8447, 23482.87
401.3268, 23480.53
401.8090, 23465.79
402.2911, 23480.02
402.7732, 23540.43
403.2553, 23584.35
403.7374, 23593.20
404.2195, 23568.54
404.7017, 23532.26
405.1838, 23475.10
405.6659, 23431.23
406.1480, 23445.12
406.6301, 23518.07
407.1122, 23563.18
407.5944, 23558.68
408.0765, 23523.75
408.5586, 23504.44
409.0407, 23500.32
409.5228, 23493.13
410.0049, 23458.85
410.4871, 23412.02
410.9692, 23399.20
411.4513, 23431.77
411.9334, 23471.49
412.4155, 23467.24
412.8976, 23433.50
413.3798, 23412.18
413.8619, 23442.91
414.3440, 23483.52
414.8261, 23480.71
415.3082, 23433.71
415.7903, 23397.29
416.2725, 23414.98
416.7546, 23459.94
417.2367, 23502.92
417.7188, 23542.38
418.2009, 23568.57
418.6830, 23573.51
419.1652, 23560.33
419.6473, 23540.40
420.1294, 23503.71
420.6115, 23471.34
421.0937, 23455.04
421.5758, 23462.52
422.0579, 23473.65
422.5400, 23485.61
423.0221, 23499.70
423.5042, 23518.45
423.9864, 23547.77
424.4685, 23575.12
424.9506, 23601.86
425.4327, 23629.15
425.9148, 23632.22
426.3969, 23587.88
426.8791, 23545.74
427.3612, 23553.86
427.8433, 23630.92
428.3254, 23700.11
428.8075, 23752.49
429.2896, 23788.97
429.7718, 23809.38
430.2539, 23811.83
430.7360, 23808.82
431.2181, 23807.77
431.7002, 23808.27
432.1823, 23800.71
432.6645, 23780.92
433.1466, 23765.50
433.6287, 23782.54
434.1108, 23826.40
434.5929, 23869.66
435.0750, 23902.52
435.5572, 23926.73
436.0393, 23941.43
436.5214, 23947.19
437.0035, 23955.89
437.4856, 23992.22
437.9677, 24032.69
438.4499, 24040.28
438.9320, 23985.68
439.4141, 23930.05
439.8962, 23916.77
440.3783, 23936.50
440.8604, 23964.76
441.3426, 23998.35
441.8247, 24031.39
442.3068, 24060.72
442.7889, 24085.86
443.2710, 24107.86
443.7531, 24133.98
444.2353, 24154.30
444.7174, 24158.29
445.1995, 24116.59
445.6816, 24088.78
446.1637, 24080.56
446.6458, 24092.43
447.1280, 24134.95
447.6101, 24239.86
448.0922, 24340.70
448.5743, 24397.58
449.0564, 24391.39
449.5385, 24393.27
450.0207, 24406.87
450.5028, 24427.68
450.9849, 24450.90
451.4670, 24479.39
451.9491, 24494.06
452.4312, 24478.47
452.9134, 24439.18
453.3955, 24428.25
453.8776, 24447.47
454.3597, 24481.71
454.8418, 24520.15
455.3239, 24562.11
455.8061, 24602.42
456.2882, 24638.31
456.7703, 24675.37
457.2524, 24732.55
457.7345, 24801.70
458.2166, 24850.54
458.6988, 24839.42
459.1809, 24807.65
459.6630, 24797.74
460.1451, 24815.74
460.6272, 24842.33
461.1093, 24878.65
461.5915, 24912.28
462.0736, 24926.88
462.5557, 24881.34
463.0378, 24850.94
463.5199, 24877.70
464.0020, 24952.61
464.4842, 25007.21
464.9663, 25007.41
465.4484, 24997.96
465.9305, 25002.85
466.4126, 25035.13
466.8947, 25060.74
467.3769, 25079.75
467.8590, 25092.00
468.3411, 25094.52
468.8232, 25074.45
469.3053, 25071.27
469.7874, 25101.84
470.2696, 25163.49
470.7517, 25206.80
471.2338, 25229.82
471.7159, 25240.37
472.1980, 25235.54
472.6801, 25216.25
473.1623, 25223.55
473.6444, 25268.54
474.1265, 25331.97
474.6086, 25392.49
475.0907, 25447.03
475.5728, 25475.70
476.0550, 25438.94
476.5371, 25379.63
477.0192, 25376.07
477.5013, 25431.47
477.9834, 25488.56
478.4655, 25493.22
478.9477, 25476.21
479.4298, 25479.23
479.9119, 25539.47
480.3940, 25591.32
480.8761, 25585.52
481.3582, 25542.09
481.8404, 25518.66
482.3225, 25538.64
482.8046, 25579.06
483.2867, 25637.97
483.7688, 25730.19
484.2509, 25788.50
484.7331, 25775.72
485.2152, 25742.56
485.6973, 25735.95
486.1794, 25768.38
486.6615, 25807.45
487.1436, 25856.28
487.6258, 25908.85
488.1079, 25931.37
488.5900, 25911.25
489.0721, 25895.50
489.5542, 25916.54
490.0363, 25974.90
490.5185, 26014.73
491.0006, 26033.33
491.4827, 26036.52
491.9648, 26016.75
492.4470, 25981.75
492.9291, 25977.27
493.4112, 26039.05
493.8933, 26122.41
494.3754, 26156.18
494.8575, 26145.97
495.3397, 26125.16
495.8218, 26103.07
496.3039, 26087.84
496.7860, 26083.62
497.2681, 26085.21
497.7502, 26119.93
498.2324, 26259.26
498.7145, 26424.54
499.1966, 26511.44
499.6787, 26401.67
500.1608, 26295.85
500.6429, 26261.65
501.1251, 26295.46
501.6072, 26316.75
502.0893, 26297.82
502.5714, 26284.91
503.0535, 26300.93
503.5356, 26359.07
504.0178, 26416.81
504.4999, 26483.32
504.9820, 26540.38
505.4641, 26552.33
505.9462, 26507.46
506.4283, 26479.30
506.9105, 26495.44
507.3926, 26543.02
507.8747, 26569.53
508.3568, 26574.03
508.8389, 26576.33
509.3210, 26589.64
509.8032, 26612.30
510.2853, 26640.83
510.7674, 26675.69
511.2495, 26712.55
511.7316, 26751.10
512.2137, 26788.27
512.6959, 26817.32
513.1780, 26822.31
513.6601, 26829.56
514.1422, 26859.63
514.6243, 26909.54
515.1064, 26957.76
515.5886, 27008.14
516.0707, 27045.74
516.5528, 27056.95
517.0349, 27016.55
517.5170, 26999.38
517.9991, 27036.89
518.4813, 27092.04
518.9634, 27115.92
519.4455, 27080.44
519.9276, 27062.49
520.4097, 27082.77
520.8918, 27134.55
521.3740, 27175.22
521.8561, 27201.67
522.3382, 27227.28
522.8203, 27265.97
523.3024, 27315.72
523.7845, 27342.33
524.2667, 27339.24
524.7488, 27331.21
525.2309, 27354.21
525.7130, 27399.25
526.1951, 27433.04
526.6772, 27427.27
527.1594, 27421.15
527.6415, 27473.94
528.1236, 27571.71
528.6057, 27654.47
529.0878, 27687.85
529.5699, 27692.38
530.0521, 27674.98
530.5342, 27627.90
531.0163, 27598.39
531.4984, 27609.27
531.9805, 27641.81
532.4626, 27676.03
532.9448, 27726.65
533.4269, 27757.34
533.9090, 27751.97
534.3911, 27722.39
534.8732, 27713.38
535.3553, 27723.73
535.8375, 27757.59
536.3196, 27824.38
536.8017, 27927.49
537.2838, 28008.96
537.7659, 28068.43
538.2480, 28109.82
538.7302, 28131.63
539.2123, 28136.79
539.6944, 28141.57
540.1765, 28143.92
540.6586, 28157.71
541.1407, 28217.89
541.6229, 28310.50
542.1050, 28386.27
542.5871, 28408.95
543.0692, 28409.48
543.5513, 28408.59
544.0334, 28407.70
544.5156, 28419.04
544.9977, 28454.23
545.4798, 28500.64
545.9619, 28548.39
546.4440, 28599.28
546.9261, 28646.03
547.4083, 28686.55
547.8904, 28722.64
548.3725, 28757.30
548.8546, 28793.92
549.3367, 28822.70
549.8188, 28832.12
550.3010, 28826.78
550.7831, 28870.97
551.2652, 28981.38
551.7473, 29085.93
552.2294, 29119.26
552.7115, 29090.66
553.1937, 29095.90
553.6758, 29147.95
554.1579, 29211.39
554.6400, 29237.13
555.1221, 29238.21
555.6042, 29252.53
556.0864, 29310.48
556.5685, 29370.70
557.0506, 29387.84
557.5327, 29371.62
558.0148, 29357.77
558.4969, 29366.21
558.9791, 29380.50
559.4612, 29390.98
559.9433, 29395.94
560.4254, 29400.42
560.9075, 29398.53
561.3896, 29400.51
561.8718, 29416.40
562.3539, 29465.91
562.8360, 29494.49
563.3181, 29488.18
563.8002, 29463.07
564.2823, 29461.36
564.7645, 29489.91
565.2466, 29509.93
565.7287, 29494.38
566.2108, 29456.76
566.6929, 29474.41
567.1750, 29549.54
567.6572, 29627.03
568.1393, 29650.69
568.6214, 29644.27
569.1035, 29654.15
569.5856, 29689.07
570.0677, 29735.10
570.5499, 29792.26
571.0320, 29850.94
571.5141, 29896.37
571.9962, 29893.16
572.4783, 29905.48
572.9604, 29980.12
573.4426, 30100.28
573.9247, 30180.32
574.4068, 30162.07
574.8889, 30140.88
575.3710, 30154.53
575.8531, 30210.90
576.3353, 30262.55
576.8174, 30318.62
577.2995, 30355.68
577.7816, 30336.48
578.2637, 30252.18
578.7458, 30213.96
579.2280, 30250.91
579.7101, 30316.86
580.1922, 30329.86
580.6743, 30296.75
581.1564, 30256.14
581.6385, 30219.88
582.1207, 30189.38
582.6028, 30168.51
583.0849, 30156.69
583.5670, 30147.99
584.0491, 30130.43
584.5313, 30120.07
585.0134, 30135.08
585.4955, 30191.44
585.9776, 30229.32
586.4597, 30220.15
586.9418, 30189.99
587.4240, 30167.98
587.9061, 30154.03
588.3882, 30150.36
588.8703, 30162.67
589.3524, 30183.93
589.8345, 30188.89
590.3167, 30169.50
590.7988, 30165.65
591.2809, 30204.72
591.7630, 30275.05
592.2451, 30310.68
592.7272, 30310.38
593.2094, 30305.02
593.6915, 30327.82
594.1736, 30362.30
594.6557, 30369.71
595.1378, 30334.50
595.6199, 30311.64
596.1021, 30360.10
596.5842, 30442.28
597.0663, 30504.79
597.5485, 30510.53
598.0306, 30513.28
598.5127, 30527.86
598.9948, 30552.92
599.4769, 30582.39
599.9590, 30635.09
600.4412, 30668.67
600.9233, 30657.33
601.4054, 30594.99
601.8875, 30590.70
602.3696, 30664.69
602.8517, 30747.30
603.3339, 30775.37
603.8160, 30753.21
604.2981, 30729.10
604.7802, 30705.88
605.2623, 30691.22
605.7444, 30700.92
606.2266, 30727.82
606.7087, 30751.98
607.1908, 30761.01
607.6729, 30770.18
608.1550, 30796.63
608.6371, 30834.20
609.1193, 30863.72
609.6014, 30868.46
610.0835, 30870.88
610.5656, 30884.75
611.0477, 30914.20
611.5298, 30927.91
612.0120, 30912.80
612.4941, 30893.79
612.9762, 30887.24
613.4583, 30895.80
613.9404, 30905.76
614.4225, 30913.31
614.9047, 30927.99
615.3868, 30971.81
615.8689, 31042.08
616.3510, 31099.63
616.8331, 31136.64
617.3152, 31150.49
617.7974, 31126.05
618.2795, 31071.84
618.7616, 31019.84
619.2437, 30973.69
619.7258, 30947.02
620.2079, 30952.99
620.6901, 30992.16
621.1722, 31044.77
621.6543, 31117.96
622.1364, 31192.81
622.6185, 31256.59
623.1006, 31308.35
623.5828, 31350.78
624.0649, 31382.84
624.5470, 31406.53
625.0291, 31420.14
625.5112, 31419.05
625.9933, 31434.50
626.4755, 31476.73
626.9576, 31531.91
627.4397, 31575.64
627.9218, 31607.63
628.4039, 31625.55
628.8860, 31604.85
629.3682, 31581.76
629.8503, 31618.54
630.3324, 31706.91
630.8145, 31783.28
631.2966, 31786.17
631.7787, 31779.98
632.2609, 31822.33
632.7430, 31945.73
633.2251, 32017.45
633.7072, 31963.32
634.1893, 31876.02
634.6714, 31830.94
635.1536, 31841.21
635.6357, 31868.09
636.1178, 31918.88
636.5999, 31974.13
637.0820, 31992.26
637.5641, 31971.42
638.0463, 31957.03
638.5284, 31970.22
639.0105, 31993.23
639.4926, 31983.22
639.9747, 31946.63
640.4568, 31920.93
640.9390, 31942.82
641.4211, 31976.72
641.9032, 31984.58
642.3853, 31963.74
642.8674, 31954.22
643.3495, 31987.65
643.8317, 32027.48
644.3138, 32047.01
644.7959, 32021.57
645.2780, 32018.29
645.7601, 32046.47
646.2422, 32088.55
646.7244, 32124.87
647.2065, 32153.91
647.6886, 32184.84
648.1707, 32222.61
648.6528, 32257.81
649.1349, 32264.12
649.6171, 32246.34
