##NAMES=Roselite-beta
##RRUFFID=R150065
##IDEAL CHEMISTRY=Ca_2_Co^2+^(As^5+^O_4_)_2_&#183;2H_2_O
##LOCALITY=Bou Azzer, Morocco
##OWNER=RRUFF
##SOURCE=Bob Jenkins
##DESCRIPTION=Rose-red granular aggregates
##STATUS=The identification of this mineral has been confirmed only by single crystal X-ray diffraction.
##URL=rruff.info/R150065
90.74744, 122.7073
91.22955, 126.1470
91.71167, 132.6752
92.19379, 141.9953
92.67590, 153.7017
93.15802, 164.5866
93.64014, 171.7004
94.12225, 176.0423
94.60437, 180.1169
95.08649, 184.1066
95.56860, 188.3771
96.05072, 194.5641
96.53284, 202.9342
97.01495, 211.5106
97.49707, 218.3544
97.97919, 223.5428
98.46130, 228.2463
98.94342, 232.6446
99.42554, 236.8082
99.90765, 241.7260
100.3898, 247.8534
100.8719, 253.9229
101.3540, 257.9162
101.8361, 259.4258
102.3182, 260.7003
102.8004, 262.1669
103.2825, 263.1749
103.7646, 266.6148
104.2467, 271.7638
104.7288, 279.3950
105.2109, 291.1334
105.6931, 305.4341
106.1752, 325.4821
106.6573, 352.7047
107.1394, 386.0873
107.6215, 427.0414
108.1036, 475.6115
108.5858, 531.3516
109.0679, 592.8754
109.5500, 679.4548
110.0321, 758.5742
110.5142, 812.5745
110.9963, 860.8529
111.4785, 865.3815
111.9606, 806.0300
112.4427, 685.8701
112.9248, 574.9501
113.4069, 476.4152
113.8890, 393.6635
114.3712, 328.3461
114.8533, 287.2442
115.3354, 257.7303
115.8175, 237.4288
116.2996, 226.1401
116.7817, 219.0549
117.2639, 215.4479
117.7460, 214.5825
118.2281, 215.5388
118.7102, 218.9330
119.1923, 223.3512
119.6744, 228.5678
120.1566, 235.0919
120.6387, 239.9436
121.1208, 242.8008
121.6029, 242.7047
122.0850, 237.6094
122.5671, 223.0014
123.0493, 204.3928
123.5314, 186.9749
124.0135, 171.2092
124.4956, 157.5685
124.9777, 147.1880
125.4598, 139.6059
125.9420, 133.3098
126.4241, 127.4313
126.9062, 122.1525
127.3883, 117.8425
127.8704, 114.6845
128.3525, 112.3840
128.8347, 110.5727
129.3168, 109.2438
129.7989, 108.3751
130.2810, 108.1759
130.7631, 108.4863
131.2452, 108.6405
131.7274, 108.4503
132.2095, 108.0074
132.6916, 107.5804
133.1737, 107.1842
133.6558, 106.6762
134.1379, 105.7512
134.6201, 104.4203
135.1022, 103.3777
135.5843, 102.8888
136.0664, 102.8893
136.5485, 102.9225
137.0306, 102.9774
137.5128, 103.0932
137.9949, 103.2630
138.4770, 103.4402
138.9591, 103.9192
139.4412, 104.8927
139.9233, 106.3988
140.4055, 107.7987
140.8876, 109.2204
141.3697, 110.4006
141.8518, 110.7986
142.3339, 110.0319
142.8160, 109.3373
143.2982, 109.1210
143.7803, 109.3952
144.2624, 110.1517
144.7445, 111.5963
145.2266, 113.4634
145.7087, 115.0632
146.1909, 116.2115
146.6730, 117.3628
147.1551, 118.7189
147.6372, 120.4217
148.1193, 122.0713
148.6014, 123.6495
149.0836, 125.1720
149.5657, 126.7565
150.0478, 128.3588
150.5299, 130.0232
151.0120, 131.7824
151.4941, 133.1421
151.9763, 135.1485
152.4584, 138.0994
152.9405, 141.8251
153.4226, 145.5202
153.9047, 148.5468
154.3868, 151.9002
154.8690, 156.1221
155.3511, 161.5331
155.8332, 167.5330
156.3153, 174.1069
156.7974, 181.2209
157.2795, 188.6160
157.7617, 195.9332
158.2438, 203.6734
158.7259, 212.1991
159.2080, 223.2154
159.6901, 233.4835
160.1722, 242.7089
160.6544, 250.7840
161.1365, 256.0571
161.6186, 258.7730
162.1007, 258.0695
162.5828, 253.1969
163.0649, 241.0182
163.5471, 226.9994
164.0292, 212.7583
164.5113, 198.3616
164.9934, 185.6052
165.4755, 175.2570
165.9576, 167.0582
166.4398, 160.8059
166.9219, 156.9379
167.4040, 154.5206
167.8861, 153.0752
168.3682, 152.5693
168.8503, 152.9037
169.3325, 154.1221
169.8146, 156.1371
170.2967, 158.7773
170.7788, 161.9395
171.2609, 165.7452
171.7430, 170.2311
172.2252, 175.4096
172.7073, 181.3452
173.1894, 187.8719
173.6715, 195.2472
174.1536, 203.7659
174.6357, 214.2121
175.1179, 225.7581
175.6000, 237.6246
176.0821, 249.7150
176.5642, 261.6767
177.0463, 273.8613
177.5284, 285.8183
178.0106, 295.9730
178.4927, 304.4676
178.9748, 310.4608
179.4569, 311.9867
179.9390, 308.4881
180.4211, 302.0630
180.9033, 294.1389
181.3854, 284.9736
181.8675, 276.0212
182.3496, 267.3020
182.8317, 259.4322
183.3138, 253.4748
183.7960, 249.6844
184.2781, 247.5997
184.7602, 246.7110
185.2423, 247.0188
185.7244, 248.5881
186.2065, 251.3425
186.6887, 255.3740
187.1708, 261.0985
187.6529, 268.6164
188.1350, 277.6789
188.6171, 287.5438
189.0992, 298.3150
189.5814, 310.6417
190.0635, 324.9860
190.5456, 341.4558
191.0277, 359.4831
191.5098, 379.4119
191.9919, 400.4122
192.4741, 420.6894
192.9562, 440.1808
193.4383, 458.6614
193.9204, 476.6994
194.4025, 494.0892
194.8846, 507.4774
195.3668, 516.7447
195.8489, 521.4926
196.3310, 520.4533
196.8131, 513.4257
197.2952, 502.1655
197.7773, 486.9188
198.2595, 467.6605
198.7416, 447.0046
199.2237, 424.9028
199.7058, 402.1199
200.1879, 380.9427
200.6700, 361.1884
201.1522, 342.9865
201.6343, 326.0223
202.1164, 310.1310
202.5985, 297.2758
203.0806, 288.1947
203.5627, 282.1408
204.0449, 276.9646
204.5270, 272.6111
205.0091, 269.3097
205.4912, 267.1949
205.9733, 266.2615
206.4554, 266.5338
206.9376, 268.0069
207.4197, 270.6878
207.9018, 274.6411
208.3839, 279.8333
208.8660, 286.4210
209.3481, 294.3032
209.8303, 303.3478
210.3124, 314.5414
210.7945, 328.4518
211.2766, 344.4818
211.7587, 360.5966
212.2408, 376.4467
212.7230, 393.2227
213.2051, 412.9892
213.6872, 438.0508
214.1693, 458.3223
214.6514, 472.8710
215.1335, 481.7391
215.6157, 484.4780
216.0978, 480.6855
216.5799, 471.5102
217.0620, 456.9632
217.5441, 435.3406
218.0262, 412.9185
218.5084, 389.4164
218.9905, 365.2407
219.4726, 343.6129
219.9547, 324.3672
220.4368, 307.3493
220.9189, 292.6954
221.4011, 280.4404
221.8832, 270.2040
222.3653, 262.1572
222.8474, 256.0994
223.3295, 250.7985
223.8116, 246.3915
224.2938, 242.7022
224.7759, 239.6206
225.2580, 237.0685
225.7401, 235.3874
226.2222, 234.6968
226.7043, 234.8868
227.1865, 235.5520
227.6686, 236.8922
228.1507, 238.3852
228.6328, 239.6106
229.1149, 240.0435
229.5970, 241.4618
230.0792, 244.2163
230.5613, 248.0384
231.0434, 251.7241
231.5255, 254.8168
232.0076, 258.3773
232.4897, 263.0499
232.9719, 269.4895
233.4540, 275.4918
233.9361, 280.5596
234.4182, 285.1942
234.9003, 291.2055
235.3824, 298.7962
235.8646, 307.4771
236.3467, 317.2569
236.8288, 329.2299
237.3109, 339.7997
237.7930, 348.3010
238.2751, 355.4568
238.7573, 363.2216
239.2394, 371.9578
239.7215, 380.7798
240.2036, 389.3311
240.6857, 397.3717
241.1678, 405.6835
241.6500, 414.4239
242.1321, 423.3473
242.6142, 431.8995
243.0963, 439.4193
243.5784, 447.4896
244.0605, 456.6415
244.5427, 466.9346
245.0248, 478.2138
245.5069, 490.1284
245.9890, 503.2319
246.4711, 518.4186
246.9532, 535.6326
247.4354, 555.2504
247.9175, 577.1729
248.3996, 601.4186
248.8817, 628.3030
249.3638, 658.0925
249.8459, 690.3788
250.3281, 724.5291
250.8102, 761.1373
251.2923, 798.7722
251.7744, 837.9713
252.2565, 879.4274
252.7386, 918.3157
253.2208, 955.8097
253.7029, 989.8489
254.1850, 1018.384
254.6671, 1043.094
255.1492, 1059.078
255.6313, 1064.922
256.1135, 1060.679
256.5956, 1045.741
257.0777, 1018.585
257.5598, 982.3873
258.0419, 940.5043
258.5240, 891.4708
259.0062, 840.9227
259.4883, 789.0589
259.9704, 736.4474
260.4525, 687.3070
260.9346, 641.9627
261.4167, 600.4094
261.8989, 562.8463
262.3810, 529.9005
262.8631, 500.1892
263.3452, 473.8773
263.8273, 450.6584
264.3094, 430.1752
264.7916, 412.3008
265.2737, 396.8279
265.7558, 383.4395
266.2379, 372.4506
266.7200, 362.8330
267.2021, 354.3106
267.6843, 346.9399
268.1664, 340.8838
268.6485, 336.1847
269.1306, 332.7155
269.6127, 330.6186
270.0948, 330.1459
270.5770, 329.9437
271.0591, 329.9123
271.5412, 329.9727
272.0233, 329.7437
272.5054, 329.1864
272.9875, 328.4370
273.4697, 327.7616
273.9518, 327.2982
274.4339, 325.9244
274.9160, 323.4671
275.3981, 320.0565
275.8802, 316.0065
276.3624, 311.4081
276.8445, 306.0497
277.3266, 299.6386
277.8087, 292.1118
278.2908, 284.4222
278.7729, 276.5363
279.2551, 268.6659
279.7372, 261.2595
280.2193, 254.1912
280.7014, 248.2874
281.1835, 244.3178
281.6656, 242.2516
282.1478, 240.0343
282.6299, 237.6723
283.1120, 234.9549
283.5941, 231.1349
284.0762, 226.1125
284.5583, 221.7287
285.0405, 218.6598
285.5226, 216.8919
286.0047, 216.4613
286.4868, 217.5244
286.9689, 219.4029
287.4510, 221.0435
287.9332, 222.4949
288.4153, 224.7907
288.8974, 228.4129
289.3795, 233.1761
289.8616, 238.4089
290.3438, 244.1405
290.8259, 250.1315
291.3080, 255.7577
291.7901, 261.1973
292.2722, 267.9766
292.7543, 277.3386
293.2365, 287.9438
293.7186, 296.2020
294.2007, 302.0056
294.6828, 307.7081
295.1649, 315.1747
295.6470, 324.1564
296.1292, 334.0994
296.6113, 344.7308
297.0934, 356.2385
297.5755, 369.0568
298.0576, 383.2303
298.5397, 398.4580
299.0219, 414.7079
299.5040, 432.0472
299.9861, 450.3056
300.4682, 469.2930
300.9503, 489.4692
301.4324, 511.7102
301.9146, 535.7311
302.3967, 561.3011
302.8788, 588.7400
303.3609, 617.3397
303.8430, 646.7772
304.3251, 678.2134
304.8073, 705.8619
305.2894, 725.2429
305.7715, 736.8177
306.2536, 742.2521
306.7357, 742.9805
307.2178, 737.5159
307.7000, 723.8013
308.1821, 701.4161
308.6642, 673.2010
309.1463, 638.2545
309.6284, 599.4630
310.1105, 560.7853
310.5927, 522.6763
311.0748, 486.7445
311.5569, 453.5420
312.0390, 423.1470
312.5211, 395.9292
313.0032, 371.9544
313.4854, 350.9375
313.9675, 332.9069
314.4496, 318.9143
314.9317, 306.9886
315.4138, 296.3207
315.8959, 286.9366
316.3781, 278.6269
316.8602, 271.6855
317.3423, 265.6554
317.8244, 260.2362
318.3065, 255.3877
318.7886, 251.1114
319.2708, 247.3632
319.7529, 244.2078
320.2350, 241.8196
320.7171, 240.6899
321.1992, 240.0347
321.6813, 239.5149
322.1635, 239.1585
322.6456, 238.7613
323.1277, 237.9077
323.6098, 237.0423
324.0919, 236.9104
324.5740, 238.0127
325.0562, 239.5129
325.5383, 241.1749
326.0204, 242.9688
326.5025, 244.9976
326.9846, 247.1179
327.4667, 249.5359
327.9489, 252.4979
328.4310, 256.2465
328.9131, 260.2794
329.3952, 264.5266
329.8773, 268.9865
330.3594, 273.8302
330.8416, 278.7967
331.3237, 284.3124
331.8058, 290.6826
332.2879, 298.2220
332.7700, 306.1052
333.2521, 314.1219
333.7343, 322.4619
334.2164, 332.1789
334.6985, 343.6699
335.1806, 355.7387
335.6627, 367.6410
336.1448, 378.7572
336.6270, 391.2858
337.1091, 405.2704
337.5912, 420.5480
338.0733, 437.2189
338.5554, 455.3921
339.0375, 474.0639
339.5197, 492.6024
340.0018, 510.7392
340.4839, 530.8779
340.9660, 552.6653
341.4481, 576.3978
341.9302, 602.1405
342.4124, 630.1896
342.8945, 659.0938
343.3766, 688.4428
343.8587, 718.3489
344.3408, 750.7800
344.8229, 785.6688
345.3051, 822.5181
345.7872, 861.1083
346.2693, 901.1853
346.7514, 942.5381
347.2335, 984.6525
347.7156, 1028.068
348.1978, 1073.363
348.6799, 1120.432
349.1620, 1167.872
349.6441, 1215.173
350.1262, 1262.145
350.6083, 1308.221
351.0905, 1353.835
351.5726, 1398.458
352.0547, 1442.295
352.5368, 1484.941
353.0189, 1525.158
353.5010, 1562.525
353.9832, 1597.025
354.4653, 1628.684
354.9474, 1657.797
355.4295, 1683.541
355.9116, 1704.767
356.3937, 1722.467
356.8759, 1737.857
357.3580, 1751.574
357.8401, 1763.180
358.3222, 1772.977
358.8043, 1780.766
359.2864, 1784.777
359.7686, 1787.117
360.2507, 1783.671
360.7328, 1770.997
361.2149, 1747.875
361.6970, 1716.161
362.1791, 1677.059
362.6613, 1629.892
363.1434, 1573.124
363.6255, 1501.892
364.1076, 1424.419
364.5897, 1342.765
365.0718, 1257.223
365.5540, 1172.992
366.0361, 1088.705
366.5182, 1007.102
367.0003, 931.4705
367.4824, 861.4916
367.9645, 798.2560
368.4467, 741.9880
368.9288, 693.6906
369.4109, 650.7557
369.8930, 614.0458
370.3751, 582.0414
370.8572, 553.6868
371.3394, 529.5027
371.8215, 508.6254
372.3036, 491.3701
372.7857, 477.3921
373.2678, 465.2648
373.7499, 454.9538
374.2321, 446.3452
374.7142, 439.5455
375.1963, 434.6499
375.6784, 430.8691
376.1605, 428.0143
376.6426, 426.5601
377.1248, 427.8297
377.6069, 432.3418
378.0890, 436.4311
378.5711, 438.3754
379.0532, 438.7007
379.5353, 441.0386
380.0175, 445.4845
380.4996, 451.6018
380.9817, 459.1878
381.4638, 468.1464
381.9459, 478.2627
382.4280, 489.8731
382.9102, 501.9678
383.3923, 511.9609
383.8744, 520.1365
384.3565, 528.5795
384.8386, 539.2921
385.3207, 551.1025
385.8029, 561.5743
386.2850, 570.7090
386.7671, 577.7356
387.2492, 582.5566
387.7313, 584.7554
388.2134, 583.2455
388.6956, 577.7317
389.1777, 568.2582
389.6598, 554.4251
390.1419, 536.3420
390.6240, 515.2079
391.1061, 489.3754
391.5883, 461.6761
392.0704, 434.9468
392.5525, 410.0581
393.0346, 386.2128
393.5167, 362.0582
393.9988, 338.2704
394.4810, 316.4443
394.9631, 297.1331
395.4452, 279.9127
395.9273, 264.6712
396.4094, 251.5728
396.8915, 239.8730
397.3737, 229.6985
397.8558, 220.7591
398.3379, 212.6983
398.8200, 205.9058
399.3021, 199.5432
399.7842, 193.3591
400.2664, 187.3552
400.7485, 182.0685
401.2306, 177.6501
401.7127, 173.8604
402.1948, 170.6272
402.6769, 168.2547
403.1591, 165.7552
403.6412, 162.9160
404.1233, 159.9952
404.6054, 157.5924
405.0875, 155.8485
405.5696, 154.2645
406.0518, 152.4179
406.5339, 150.2675
407.0160, 149.7337
407.4981, 151.3238
407.9802, 153.1199
408.4623, 152.7056
408.9445, 150.1164
409.4266, 147.3926
409.9087, 144.9276
410.3908, 142.7840
410.8729, 141.1207
411.3550, 139.9345
411.8372, 139.2306
412.3193, 139.3240
412.8014, 139.8704
413.2835, 139.9836
413.7656, 139.4496
414.2477, 138.8675
414.7299, 138.9409
415.2120, 139.4730
415.6941, 139.9899
416.1762, 140.3585
416.6583, 140.5544
417.1404, 140.4313
417.6226, 140.0054
418.1047, 139.7378
418.5868, 140.1938
419.0689, 140.7913
419.5510, 140.9445
420.0331, 139.9710
420.5153, 139.2371
420.9974, 139.4841
421.4795, 140.3842
421.9616, 141.0998
422.4437, 141.1637
422.9258, 141.2267
423.4080, 141.5876
423.8901, 142.3699
424.3722, 143.0964
424.8543, 143.0972
425.3364, 143.3390
425.8185, 144.8130
426.3007, 148.6567
426.7828, 152.1137
427.2649, 154.7864
427.7470, 156.7390
428.2291, 158.4422
428.7112, 159.8642
429.1934, 161.0662
429.6755, 161.8895
430.1576, 162.0485
430.6397, 163.3569
431.1218, 166.0922
431.6039, 169.6008
432.0861, 172.8290
432.5682, 175.7281
433.0503, 179.1040
433.5324, 183.2798
434.0145, 188.1618
434.4966, 193.4775
434.9788, 199.2324
435.4609, 205.2790
435.9430, 211.4628
436.4251, 217.9108
436.9072, 224.8645
437.3893, 232.3474
437.8715, 240.5260
438.3536, 249.5511
438.8357, 259.4222
439.3178, 270.1358
439.7999, 281.6985
440.2820, 294.1492
440.7642, 307.3434
441.2463, 321.3848
441.7284, 336.2773
442.2105, 351.5314
442.6926, 367.9960
443.1747, 386.5147
443.6569, 408.2541
444.1390, 431.0207
444.6211, 453.5032
445.1032, 476.4201
445.5853, 501.1368
446.0674, 529.1522
446.5496, 558.1243
447.0317, 587.2514
447.5138, 616.6511
447.9959, 646.2442
448.4780, 677.9724
448.9601, 708.7589
449.4423, 736.2318
449.9244, 760.3240
450.4065, 780.7165
450.8886, 797.2332
451.3707, 809.9525
451.8528, 819.6779
452.3350, 826.2751
452.8171, 830.3268
453.2992, 831.3668
453.7813, 829.3297
454.2634, 828.3311
454.7455, 828.1883
455.2277, 829.8718
455.7098, 835.0775
456.1919, 843.4518
456.6740, 853.0233
457.1561, 862.9045
457.6382, 873.6025
458.1204, 886.6168
458.6025, 901.6384
459.0846, 915.5229
459.5667, 927.1569
460.0488, 936.1726
460.5309, 942.3401
461.0131, 945.7664
461.4952, 945.6994
461.9773, 941.8864
462.4594, 934.1744
462.9415, 922.2258
463.4236, 905.6951
463.9058, 885.2479
464.3879, 860.0593
464.8700, 830.7105
465.3521, 799.8466
465.8342, 765.9390
466.3163, 731.9614
466.7985, 699.5797
467.2806, 670.3690
467.7627, 640.2137
468.2448, 608.6413
468.7269, 576.5400
469.2090, 544.5112
469.6912, 510.7237
470.1733, 479.7672
470.6554, 452.8802
471.1375, 429.8228
471.6196, 408.3470
472.1017, 388.4138
472.5839, 370.1122
473.0660, 353.1760
473.5481, 337.6859
474.0302, 323.4377
474.5123, 310.4946
474.9944, 298.5866
475.4766, 287.4615
475.9587, 277.0801
476.4408, 267.1186
476.9229, 257.3028
477.4050, 248.0290
477.8871, 240.3273
478.3693, 234.0630
478.8514, 228.0057
479.3335, 221.0562
479.8156, 213.8951
480.2977, 207.0060
480.7798, 199.9342
481.2620, 195.0565
481.7441, 196.8381
482.2262, 201.0188
482.7083, 201.3161
483.1904, 191.9978
483.6725, 181.9496
484.1547, 174.1057
484.6368, 168.5081
485.1189, 163.8807
485.6010, 160.7041
486.0831, 157.9521
486.5652, 155.1244
487.0474, 152.0400
487.5295, 149.2195
488.0116, 146.6774
488.4937, 144.4206
488.9758, 142.4993
489.4579, 141.0526
489.9401, 139.4914
490.4222, 137.5905
490.9043, 135.4721
491.3864, 133.6484
491.8685, 132.1430
492.3506, 130.7247
492.8328, 129.2160
493.3149, 127.6579
493.7970, 126.2002
494.2791, 124.8503
494.7612, 123.6052
495.2433, 122.5058
495.7255, 121.4975
496.2076, 120.4165
496.6897, 119.0329
497.1718, 117.7189
497.6539, 116.9824
498.1360, 116.6826
498.6182, 116.2547
499.1003, 115.2107
499.5824, 114.0676
500.0645, 113.2704
500.5466, 112.9708
501.0287, 112.4851
501.5109, 111.4801
501.9930, 110.2502
502.4751, 109.1015
502.9572, 108.0357
503.4393, 107.0988
503.9214, 106.3620
504.4036, 105.7689
504.8857, 105.0733
505.3678, 104.0992
505.8499, 103.3191
506.3320, 102.9824
506.8141, 103.1279
507.2963, 103.1697
507.7784, 103.1267
508.2605, 102.9293
508.7426, 102.3898
509.2247, 101.5426
509.7068, 100.9275
510.1890, 100.6823
510.6711, 100.6408
511.1532, 100.6025
511.6353, 100.5500
512.1174, 100.4054
512.5995, 100.1374
513.0817, 99.74889
513.5638, 99.13899
514.0459, 98.32651
514.5280, 97.68294
515.0101, 97.46578
515.4922, 97.51698
515.9744, 97.47469
516.4565, 96.21750
516.9386, 96.93598
517.4207, 104.0675
517.9028, 113.1749
518.3849, 116.9831
518.8671, 107.5021
519.3492, 99.96507
519.8313, 98.73669
520.3134, 103.2720
520.7955, 105.1108
521.2776, 102.7012
521.7598, 99.87987
522.2419, 99.04180
522.7240, 100.7767
523.2061, 101.1927
523.6882, 99.91446
524.1703, 97.99068
524.6525, 96.68873
525.1346, 95.98387
525.6167, 95.62318
526.0988, 95.62900
526.5809, 95.84113
527.0630, 96.05996
527.5452, 96.26030
528.0273, 96.30337
528.5094, 95.98302
528.9915, 95.52741
529.4736, 95.15955
529.9557, 94.89327
530.4379, 94.75621
530.9200, 94.80327
531.4021, 94.96535
531.8842, 95.18027
532.3663, 95.50806
532.8484, 95.77576
533.3306, 95.91670
533.8127, 95.96797
534.2948, 96.00502
534.7769, 96.09763
535.2590, 96.09502
535.7411, 95.83969
536.2233, 95.35258
536.7054, 95.10455
537.1875, 94.35825
537.6696, 95.28585
538.1517, 101.0604
538.6339, 112.4574
539.1160, 116.8229
539.5981, 112.1311
540.0802, 104.0791
540.5623, 99.59850
541.0444, 98.28853
541.5266, 97.79248
542.0087, 97.62952
542.4908, 97.61384
542.9729, 97.39251
543.4550, 97.05952
543.9371, 96.98276
544.4193, 96.79164
544.9014, 97.33271
545.3835, 100.2037
545.8656, 105.7309
546.3477, 109.2592
546.8298, 107.3663
547.3120, 103.5368
547.7941, 100.6433
548.2762, 99.44939
548.7583, 98.77737
549.2404, 98.79340
549.7225, 99.19592
550.2047, 99.48667
550.6868, 99.62679
551.1689, 99.73283
551.6510, 99.84848
552.1331, 99.95765
552.6152, 99.88973
553.0974, 99.58891
553.5795, 99.39421
554.0616, 99.65603
554.5437, 100.2661
555.0258, 100.5526
555.5079, 100.4520
555.9901, 100.2431
556.4722, 100.2689
556.9543, 100.3986
557.4364, 100.3263
557.9185, 99.79509
558.4006, 99.30939
558.8828, 99.30405
559.3649, 99.64677
559.8470, 100.0310
560.3291, 100.3933
560.8112, 100.7117
561.2933, 100.9729
561.7755, 101.1747
562.2576, 101.3468
562.7397, 101.6908
563.2218, 101.8336
563.7039, 101.5184
564.1860, 100.3606
564.6682, 99.76635
565.1503, 99.87486
565.6324, 100.3682
566.1145, 100.9573
566.5966, 101.6975
567.0787, 102.0293
567.5609, 101.7199
568.0430, 101.0832
568.5251, 100.7957
569.0072, 100.8218
569.4893, 100.8916
569.9714, 100.2089
570.4536, 99.78189
570.9357, 101.9831
571.4178, 106.5812
571.8999, 109.7553
572.3820, 107.6289
572.8641, 103.7334
573.3463, 101.2100
573.8284, 100.9899
574.3105, 101.0806
574.7926, 101.0563
575.2747, 100.9502
575.7568, 100.7985
576.2390, 100.3102
576.7211, 100.1792
577.2032, 100.6583
577.6853, 101.5365
578.1674, 102.0660
578.6495, 102.1678
579.1317, 102.1338
579.6138, 101.8847
580.0959, 101.5327
580.5780, 102.3335
581.0601, 104.4233
581.5422, 106.2411
582.0244, 106.1709
582.5065, 104.8462
582.9886, 103.8120
583.4707, 103.2694
583.9528, 102.9808
584.4349, 102.7192
584.9171, 102.5743
585.3992, 102.6841
585.8813, 103.4586
586.3634, 104.1047
586.8455, 104.2488
587.3276, 104.0083
587.8098, 103.6929
588.2919, 102.9882
588.7740, 102.6064
589.2561, 102.9040
