##NAMES=Rosemaryite
##RRUFFID=R140519
##IDEAL CHEMISTRY=[box]NaMn^2+^(Fe^3+^Al)(PO_4_)_3_
##LOCALITY=Buranga pegmatite, Gatumba District, Western Province, Rwanda
##OWNER=RRUFF
##SOURCE=Rock Currier
##DESCRIPTION=Vitreous-opaque dark brown irregularly shaped masses intergrown with vitreous light brown childrenite and blocky dark blue scorzalite in a grayish siliceous matrix.
##STATUS=The identification of this mineral is confirmed by single-crystal X-ray diffraction and chemical analysis.
##URL=rruff.info/R140519
##MEASURED CHEMISTRY=(Na_0.49_Ca_0.05_Mn^2+^_0.29_[box]_0.17_)Mn^2+^_1.00_(Fe^3+^_0.82_Mg_0.10_Mn^2+^_0.08_)(Al^3+^_0.76_Fe^3+^_0.24_)(PO_4_)_3_
89.01367, 272.3484
89.49579, 271.8934
89.97791, 271.7976
90.46002, 271.5207
90.94214, 272.8159
91.42426, 280.1017
91.90637, 292.3159
92.38849, 301.0397
92.87061, 297.0376
93.35272, 284.3683
93.83484, 274.4031
94.31696, 270.8535
94.79907, 271.1277
95.28119, 269.6672
95.76331, 266.7067
96.24542, 262.7812
96.72754, 257.7805
97.20966, 251.7142
97.69177, 246.4379
98.17389, 242.1025
98.65601, 238.7293
99.13812, 238.0770
99.62024, 240.9934
100.1024, 244.7644
100.5845, 245.2851
101.0666, 241.9265
101.5487, 238.0513
102.0308, 234.6863
102.5129, 231.7264
102.9951, 229.7380
103.4772, 228.8307
103.9593, 228.7953
104.4414, 229.0275
104.9235, 228.6722
105.4056, 229.7125
105.8878, 233.0896
106.3699, 239.8660
106.8520, 247.0797
107.3341, 256.6494
107.8162, 267.3910
108.2983, 272.4005
108.7805, 267.5997
109.2626, 260.3192
109.7447, 254.5037
110.2268, 250.5441
110.7089, 247.5564
111.1910, 245.5452
111.6732, 244.4756
112.1553, 244.0242
112.6374, 244.3482
113.1195, 245.1431
113.6016, 246.1704
114.0837, 246.4710
114.5659, 247.8024
115.0480, 251.5923
115.5301, 258.2592
116.0122, 263.2464
116.4943, 263.7268
116.9764, 261.9862
117.4586, 260.9178
117.9407, 263.1136
118.4228, 265.2337
118.9049, 264.9351
119.3870, 261.5116
119.8691, 257.8192
120.3513, 255.2293
120.8334, 253.6392
121.3155, 252.8914
121.7976, 252.1512
122.2797, 252.5259
122.7618, 255.9555
123.2440, 264.1925
123.7261, 271.9173
124.2082, 273.3702
124.6903, 269.6567
125.1724, 264.8903
125.6545, 261.0916
126.1367, 258.1284
126.6188, 255.7583
127.1009, 253.9053
127.5830, 252.6518
128.0651, 252.1650
128.5472, 252.4363
129.0294, 253.2832
129.5115, 254.9171
129.9936, 257.1083
130.4757, 259.0438
130.9578, 260.7769
131.4399, 262.0013
131.9221, 261.6350
132.4042, 259.5206
132.8863, 256.8616
133.3684, 254.5841
133.8505, 252.6917
134.3326, 251.3259
134.8148, 250.6959
135.2969, 250.6933
135.7790, 250.4223
136.2611, 249.7149
136.7432, 249.1417
137.2253, 249.2728
137.7075, 250.0752
138.1896, 251.8137
138.6717, 255.0218
139.1538, 259.8671
139.6359, 263.5453
140.1180, 266.1860
140.6002, 267.5050
141.0823, 266.7406
141.5644, 262.9702
142.0465, 259.2041
142.5286, 256.5429
143.0107, 255.3400
143.4929, 254.1602
143.9750, 252.8108
144.4571, 251.5519
144.9392, 251.0347
145.4213, 251.4826
145.9034, 252.3761
146.3856, 253.5798
146.8677, 255.5461
147.3498, 257.0563
147.8319, 258.2088
148.3140, 258.9260
148.7961, 258.9420
149.2783, 257.4347
149.7604, 255.8905
150.2425, 254.9484
150.7246, 254.6438
151.2067, 254.8956
151.6888, 256.1862
152.1710, 258.2213
152.6531, 259.5510
153.1352, 259.0703
153.6173, 258.4999
154.0994, 258.7766
154.5815, 260.9966
155.0637, 263.0102
155.5458, 264.6546
156.0279, 265.8883
156.5100, 266.4127
156.9921, 265.7182
157.4742, 264.5309
157.9564, 263.3760
158.4385, 262.2077
158.9206, 261.2499
159.4027, 260.5474
159.8848, 260.1053
160.3669, 259.9583
160.8491, 260.1212
161.3312, 260.5819
161.8133, 261.3340
162.2954, 262.5126
162.7775, 263.8610
163.2596, 265.5615
163.7418, 267.6153
164.2239, 268.9525
164.7060, 268.4250
165.1881, 267.0254
165.6702, 265.9908
166.1523, 265.9922
166.6345, 266.3610
167.1166, 266.7277
167.5987, 267.0792
168.0808, 267.3538
168.5629, 267.3333
169.0450, 267.2316
169.5272, 267.3925
170.0093, 268.1966
170.4914, 269.2081
170.9735, 270.1445
171.4556, 271.0295
171.9377, 271.5288
172.4199, 271.1413
172.9020, 270.1451
173.3841, 269.1843
173.8662, 268.5797
174.3483, 268.1613
174.8304, 267.6859
175.3126, 267.1076
175.7947, 266.6437
176.2768, 266.5871
176.7589, 266.8406
177.2410, 267.1062
177.7231, 267.2404
178.2053, 267.2816
178.6874, 267.3004
179.1695, 267.3157
179.6516, 267.2725
180.1337, 267.0914
180.6158, 266.7881
181.0980, 266.4389
181.5801, 265.9803
182.0622, 265.5134
182.5443, 265.3034
183.0264, 265.4401
183.5085, 265.6668
183.9907, 265.4812
184.4728, 264.9501
184.9549, 264.6546
185.4370, 265.0557
185.9191, 266.0016
186.4012, 267.0070
186.8834, 268.1104
187.3655, 269.0530
187.8476, 269.2762
188.3297, 268.7947
188.8118, 268.1445
189.2939, 267.5974
189.7761, 267.1498
190.2582, 266.8243
190.7403, 266.6252
191.2224, 266.5428
191.7045, 266.5834
192.1866, 266.7502
192.6688, 266.9677
193.1509, 267.2637
193.6330, 267.6210
194.1151, 267.7184
194.5972, 267.4436
195.0793, 266.9699
195.5615, 266.7057
196.0436, 266.6645
196.5257, 266.7236
197.0078, 266.9128
197.4899, 267.2427
197.9720, 267.1981
198.4542, 266.6132
198.9363, 265.7055
199.4184, 265.0757
199.9005, 264.7516
200.3826, 264.5653
200.8647, 264.3639
201.3469, 264.1223
201.8290, 264.1904
202.3111, 264.7553
202.7932, 265.5785
203.2753, 265.8081
203.7574, 265.2898
204.2396, 264.6790
204.7217, 264.4810
205.2038, 264.7926
205.6859, 264.9114
206.1680, 264.7031
206.6501, 264.2602
207.1323, 263.8889
207.6144, 263.5509
208.0965, 263.3870
208.5786, 263.5711
209.0607, 264.2204
209.5428, 264.7109
210.0250, 264.9784
210.5071, 265.0398
210.9892, 264.9201
211.4713, 264.5194
211.9534, 264.1503
212.4355, 263.9891
212.9176, 264.0197
213.3998, 264.3589
213.8819, 265.2219
214.3640, 266.3941
214.8461, 266.7544
215.3282, 265.9254
215.8103, 264.9705
216.2925, 264.6281
216.7746, 265.1663
217.2567, 265.5223
217.7388, 265.5554
218.2209, 265.3250
218.7030, 265.0946
219.1852, 264.7527
219.6673, 264.5976
220.1494, 264.9063
220.6315, 265.9900
221.1136, 266.7214
221.5957, 266.9079
222.0779, 266.6778
222.5600, 266.6211
223.0421, 266.8568
223.5242, 267.0847
224.0063, 267.1133
224.4884, 266.8595
224.9706, 266.5750
225.4527, 266.1281
225.9348, 265.6571
226.4169, 265.8384
226.8990, 267.1570
227.3811, 268.3960
227.8633, 268.7679
228.3454, 267.7563
228.8275, 267.1087
229.3096, 267.0913
229.7917, 267.5162
230.2738, 267.6398
230.7560, 267.3582
231.2381, 266.9389
231.7202, 266.4857
232.2023, 265.8506
232.6844, 265.5360
233.1665, 265.6374
233.6487, 266.0708
234.1308, 266.5724
234.6129, 267.2875
235.0950, 267.8629
235.5771, 268.1250
236.0592, 268.0259
236.5414, 267.6765
237.0235, 266.8683
237.5056, 265.8363
237.9877, 265.3700
238.4698, 265.8297
238.9520, 266.3238
239.4341, 266.4002
239.9162, 265.6847
240.3983, 265.4348
240.8804, 265.9974
241.3625, 266.9265
241.8447, 267.0079
242.3268, 265.6265
242.8089, 264.3020
243.2910, 263.7416
243.7731, 264.3614
244.2552, 264.6670
244.7374, 264.5783
245.2195, 264.2103
245.7016, 263.7797
246.1837, 263.1418
246.6658, 262.6827
247.1479, 262.6034
247.6301, 263.0753
248.1122, 263.3796
248.5943, 263.4757
249.0764, 263.4341
249.5585, 263.4041
250.0406, 263.5077
250.5228, 263.4128
251.0049, 262.9174
251.4870, 261.8430
251.9691, 261.1734
252.4512, 261.0765
252.9333, 261.2617
253.4155, 261.2504
253.8976, 260.8846
254.3797, 260.6255
254.8618, 260.6460
255.3439, 260.9959
255.8260, 261.2538
256.3082, 261.3754
256.7903, 261.4346
257.2724, 261.5313
257.7545, 261.6793
258.2366, 261.8260
258.7188, 262.0009
259.2009, 262.2189
259.6830, 262.1066
260.1651, 261.3780
260.6472, 260.6762
261.1293, 260.8882
261.6115, 262.4924
262.0936, 263.7207
262.5757, 264.0162
263.0578, 263.3924
263.5399, 263.2625
264.0220, 263.8460
264.5042, 264.5803
264.9863, 264.9180
265.4684, 264.7621
265.9505, 264.5081
266.4326, 264.1339
266.9147, 263.6885
267.3969, 263.7230
267.8790, 264.4543
268.3611, 265.2082
268.8432, 265.3174
269.3253, 264.5889
269.8074, 264.0647
270.2896, 263.9366
270.7717, 264.1375
271.2538, 264.3749
271.7359, 264.6438
272.2180, 264.9403
272.7001, 265.3116
273.1823, 265.8031
273.6644, 266.0431
274.1465, 265.8785
274.6286, 265.5003
275.1107, 265.5612
275.5928, 266.1768
276.0750, 266.7824
276.5571, 266.9531
277.0392, 266.6496
277.5213, 266.5403
278.0034, 266.7255
278.4855, 267.0830
278.9677, 267.3193
279.4498, 267.4147
279.9319, 267.5317
280.4140, 267.8980
280.8961, 268.5033
281.3782, 268.5050
281.8604, 267.6809
282.3425, 266.6229
282.8246, 266.4074
283.3067, 267.0737
283.7888, 267.7976
284.2709, 268.1864
284.7531, 268.2802
285.2352, 268.4703
285.7173, 268.7860
286.1994, 269.1051
286.6815, 269.2403
287.1636, 269.1990
287.6458, 269.1564
288.1279, 269.2548
288.6100, 269.4095
289.0921, 269.1732
289.5742, 268.4776
290.0563, 267.8604
290.5385, 268.1122
291.0206, 269.0689
291.5027, 269.7626
291.9848, 269.8365
292.4669, 269.4572
292.9490, 268.8573
293.4312, 268.0356
293.9133, 267.3818
294.3954, 267.4622
294.8775, 268.0373
295.3596, 268.2844
295.8417, 267.8367
296.3239, 267.1254
296.8060, 266.8990
297.2881, 267.1127
297.7702, 267.2906
298.2523, 266.9467
298.7344, 266.3230
299.2166, 265.9803
299.6987, 266.1241
300.1808, 266.3881
300.6629, 266.4327
301.1450, 266.2506
301.6271, 265.8052
302.1093, 264.6971
302.5914, 263.4295
303.0735, 262.8289
303.5556, 263.1288
304.0377, 263.6342
304.5198, 263.7978
305.0020, 263.6723
305.4841, 263.3929
305.9662, 262.8989
306.4483, 262.3461
306.9304, 261.9151
307.4125, 261.6277
307.8947, 261.3428
308.3768, 260.8792
308.8589, 260.3599
309.3410, 259.9725
309.8231, 259.9366
310.3052, 259.9635
310.7874, 259.9030
311.2695, 259.7464
311.7516, 259.4074
312.2337, 258.5963
312.7158, 257.6686
313.1979, 257.0130
313.6801, 256.8756
314.1622, 256.9409
314.6443, 257.1983
315.1264, 257.5965
315.6085, 257.8180
316.0906, 257.7535
316.5728, 257.4467
317.0549, 256.8932
317.5370, 255.7527
318.0191, 254.8535
318.5012, 254.6911
318.9833, 255.0128
319.4655, 255.1090
319.9476, 254.4165
320.4297, 253.7074
320.9118, 253.3918
321.3939, 253.7103
321.8760, 253.9818
322.3582, 253.9431
322.8403, 253.7936
323.3224, 253.8685
323.8045, 254.6047
324.2866, 255.2173
324.7687, 255.4552
325.2509, 255.2467
325.7330, 254.9110
326.2151, 254.3148
326.6972, 253.6686
327.1793, 253.1889
327.6614, 252.9335
328.1436, 252.7889
328.6257, 252.7433
329.1078, 252.7989
329.5899, 252.9670
330.0720, 253.4581
330.5541, 253.8843
331.0363, 253.9534
331.5184, 253.4316
332.0005, 252.9379
332.4826, 252.4775
332.9647, 252.0725
333.4468, 251.8535
333.9290, 251.9192
334.4111, 252.0145
334.8932, 252.0114
335.3753, 251.9015
335.8574, 251.6993
336.3395, 251.3567
336.8216, 250.9608
337.3037, 250.6668
337.7859, 250.4636
338.2680, 250.4149
338.7501, 250.6382
339.2322, 251.1631
339.7143, 251.3478
340.1964, 251.0980
340.6786, 250.7065
341.1607, 250.6623
341.6428, 251.0148
342.1249, 250.9784
342.6070, 250.0755
343.0891, 248.6047
343.5713, 248.0289
344.0534, 248.4554
344.5355, 249.0661
345.0176, 249.0191
345.4997, 248.4340
345.9818, 248.1360
346.4640, 248.3838
346.9461, 248.8950
347.4282, 249.2167
347.9103, 249.3447
348.3924, 249.1980
348.8745, 248.5419
349.3567, 247.5852
349.8388, 246.7501
350.3209, 246.0238
350.8030, 245.6390
351.2851, 246.1333
351.7672, 247.2428
352.2494, 248.1669
352.7315, 248.4712
353.2136, 248.3822
353.6957, 248.0667
354.1778, 247.5178
354.6599, 247.0530
355.1421, 247.0181
355.6242, 247.2057
356.1063, 247.3050
356.5884, 247.0718
357.0705, 246.8207
357.5526, 246.7589
358.0348, 246.8704
358.5169, 247.0622
358.9990, 247.4721
359.4811, 247.8441
359.9632, 247.9326
360.4453, 247.5135
360.9275, 247.0931
361.4096, 246.8178
361.8917, 246.6842
362.3738, 246.6869
362.8559, 247.0852
363.3380, 247.4064
363.8202, 247.3447
364.3023, 246.6792
364.7844, 246.2903
365.2665, 246.7754
365.7486, 247.4707
366.2307, 247.5805
366.7129, 246.0535
367.1950, 244.9280
367.6771, 244.8426
368.1592, 245.8654
368.6413, 246.5229
369.1234, 246.6501
369.6056, 246.5474
370.0877, 246.4058
370.5698, 246.1951
371.0519, 246.0069
371.5340, 245.8625
372.0161, 245.7444
372.4983, 245.5671
372.9804, 245.2332
373.4625, 245.0039
373.9446, 245.0733
374.4267, 245.5911
374.9088, 245.7290
375.3910, 245.3731
375.8731, 244.7734
376.3552, 244.3179
376.8373, 244.0183
377.3194, 243.7629
377.8015, 243.5776
378.2837, 243.4236
378.7658, 243.0030
379.2479, 242.2838
379.7300, 241.4428
380.2121, 240.5754
380.6942, 239.7037
381.1764, 238.9871
381.6585, 238.4924
382.1406, 238.1329
382.6227, 237.8276
383.1048, 237.5561
383.5869, 237.1526
384.0691, 236.4049
384.5512, 235.4651
385.0333, 234.7376
385.5154, 234.3113
385.9975, 233.7897
386.4796, 232.5707
386.9618, 230.9315
387.4439, 229.5274
387.9260, 228.7676
388.4081, 228.3214
388.8902, 227.9504
389.3723, 227.6483
389.8545, 227.3417
390.3366, 226.9892
390.8187, 226.6087
391.3008, 226.2304
391.7829, 225.9909
392.2650, 225.5846
392.7472, 224.6441
393.2293, 223.3961
393.7114, 222.4644
394.1935, 222.3194
394.6756, 222.3471
395.1577, 222.2405
395.6399, 221.9162
396.1220, 221.6096
396.6041, 221.2634
397.0862, 220.9873
397.5683, 220.9164
398.0504, 221.4304
398.5326, 221.7538
399.0147, 221.6696
399.4968, 221.1775
399.9789, 220.7558
400.4610, 220.3537
400.9431, 220.0705
401.4253, 219.9949
401.9074, 220.2755
402.3895, 220.4298
402.8716, 220.3816
403.3537, 220.2124
403.8358, 220.1170
404.3180, 220.0998
404.8001, 220.1532
405.2822, 220.3620
405.7643, 220.7430
406.2464, 220.6713
406.7285, 220.0209
407.2107, 219.2886
407.6928, 219.1536
408.1749, 219.6035
408.6570, 219.8931
409.1391, 219.8660
409.6212, 219.5347
410.1034, 218.7722
410.5855, 217.5932
411.0676, 216.5069
411.5497, 215.8707
412.0318, 215.5897
412.5139, 215.4973
412.9961, 215.6279
413.4782, 215.7074
413.9603, 215.3135
414.4424, 214.6249
414.9245, 214.0851
415.4066, 214.1621
415.8888, 214.2968
416.3709, 213.8363
416.8530, 212.7933
417.3351, 211.9584
417.8172, 211.9625
418.2993, 212.3028
418.7815, 212.5052
419.2636, 212.4337
419.7457, 212.2144
420.2278, 211.8589
420.7099, 211.3907
421.1920, 210.8807
421.6742, 210.0897
422.1563, 209.4802
422.6384, 209.3451
423.1205, 209.9193
423.6026, 210.1858
424.0847, 209.8376
424.5669, 209.2632
425.0490, 208.8408
425.5311, 208.6664
426.0132, 208.5082
426.4953, 208.3907
426.9774, 208.2822
427.4596, 207.9206
427.9417, 207.1237
428.4238, 206.3916
428.9059, 206.0483
429.3880, 206.2121
429.8701, 206.1550
430.3523, 205.8312
430.8344, 205.3220
431.3165, 204.6887
431.7986, 203.9175
432.2807, 203.2409
432.7628, 202.7453
433.2450, 202.4008
433.7271, 202.1427
434.2092, 201.9769
434.6913, 201.7798
435.1734, 201.3993
435.6555, 200.9025
436.1377, 200.4843
436.6198, 200.1959
437.1019, 199.9488
437.5840, 199.6527
438.0661, 199.3168
438.5482, 198.9669
439.0304, 198.6920
439.5125, 198.3562
439.9946, 197.7719
440.4767, 196.9212
440.9588, 196.1438
441.4409, 195.6094
441.9231, 195.2336
442.4052, 194.9423
442.8873, 194.8935
443.3694, 194.7068
443.8515, 194.0946
444.3336, 193.2316
444.8158, 192.6450
445.2979, 192.6108
445.7800, 192.7094
446.2621, 192.8093
446.7442, 192.9260
447.2263, 192.9953
447.7085, 193.1278
448.1906, 193.1463
448.6727, 192.8247
449.1548, 191.8668
449.6369, 191.2151
450.1190, 191.0957
450.6012, 191.3847
451.0833, 191.5468
451.5654, 191.5444
452.0475, 191.5236
452.5296, 191.5183
453.0117, 191.5246
453.4939, 191.7567
453.9760, 192.2724
454.4581, 192.8334
454.9402, 193.0412
455.4223, 192.9645
455.9044, 193.1277
456.3866, 193.8624
456.8687, 194.7942
457.3508, 195.1800
457.8329, 195.0936
458.3150, 195.0368
458.7971, 195.3801
459.2793, 195.9478
459.7614, 196.5441
460.2435, 197.1627
460.7256, 197.7066
461.2077, 198.0532
461.6898, 198.2870
462.1720, 198.5356
462.6541, 198.9490
463.1362, 199.2861
463.6183, 199.3234
464.1004, 199.1131
464.5826, 199.1515
465.0647, 199.8934
465.5468, 200.6720
466.0289, 201.0815
466.5110, 200.6644
466.9931, 200.6676
467.4753, 201.3676
467.9574, 202.3860
468.4395, 203.2096
468.9216, 203.8233
469.4037, 204.2588
469.8858, 204.3711
470.3680, 204.2448
470.8501, 204.8449
471.3322, 206.4608
471.8143, 207.9909
472.2964, 208.5397
472.7785, 208.0923
473.2607, 208.0878
473.7428, 208.7060
474.2249, 209.6093
474.7070, 210.2945
475.1891, 210.8066
475.6712, 211.4351
476.1534, 212.4452
476.6355, 213.5487
477.1176, 214.1390
477.5997, 214.2809
478.0818, 214.5458
478.5639, 215.4675
479.0461, 216.6882
479.5282, 217.8370
480.0103, 218.9168
480.4924, 219.6680
480.9745, 219.6064
481.4566, 219.1872
481.9388, 219.0821
482.4209, 219.9037
482.9030, 220.6934
483.3851, 221.1193
483.8672, 221.1809
484.3493, 221.0664
484.8315, 220.6056
485.3136, 220.1221
485.7957, 219.7815
486.2778, 219.6412
486.7599, 219.5177
487.2420, 219.4297
487.7242, 219.3460
488.2063, 219.2191
488.6884, 219.0352
489.1705, 218.8713
489.6526, 218.8422
490.1347, 218.8361
490.6169, 218.1481
491.0990, 216.6516
491.5811, 215.3335
492.0632, 215.0317
492.5453, 215.5252
493.0274, 215.8705
493.5096, 216.0319
493.9917, 215.8664
494.4738, 214.9211
494.9559, 213.5083
495.4380, 212.4249
495.9201, 212.1769
496.4023, 212.1730
496.8844, 211.8813
497.3665, 211.3607
497.8486, 210.8271
498.3307, 210.2888
498.8128, 209.8532
499.2950, 209.6955
499.7771, 209.9483
500.2592, 209.9256
500.7413, 209.0720
501.2234, 208.0029
501.7055, 207.3435
502.1877, 207.8208
502.6698, 207.9263
503.1519, 207.2812
503.6340, 206.1351
504.1161, 205.3623
504.5982, 205.1673
505.0804, 204.9766
505.5625, 204.5016
506.0446, 203.7037
506.5267, 203.2616
507.0088, 203.2675
507.4909, 203.3736
507.9731, 203.2183
508.4552, 202.8166
508.9373, 202.4069
509.4194, 202.0562
509.9015, 201.6737
510.3836, 200.9980
510.8658, 200.1101
511.3479, 199.4200
511.8300, 199.3789
512.3121, 199.5144
512.7943, 199.2050
513.2764, 198.4563
513.7585, 197.7006
514.2406, 197.1566
514.7227, 196.7625
515.2048, 196.4872
515.6870, 196.4132
516.1691, 196.2773
516.6512, 195.9303
517.1333, 195.4818
517.6154, 195.1104
518.0975, 195.0710
518.5797, 194.8646
519.0618, 194.3104
519.5439, 193.4418
520.0260, 192.6969
520.5081, 192.1459
520.9902, 191.6081
521.4724, 190.9815
521.9545, 190.2406
522.4366, 189.5192
522.9187, 188.8127
523.4008, 188.1324
523.8829, 187.5396
524.3651, 187.0206
524.8472, 186.3560
525.3293, 185.4168
525.8114, 184.3956
526.2935, 183.7432
526.7756, 183.3861
527.2578, 182.8839
527.7399, 181.7010
528.2220, 180.3726
528.7041, 179.5413
529.1862, 179.2648
529.6683, 179.0667
530.1505, 178.5921
530.6326, 178.0806
531.1147, 177.7951
531.5968, 178.2492
532.0789, 178.2811
532.5610, 177.3569
533.0432, 175.8277
533.5253, 174.4550
534.0074, 173.2724
534.4895, 172.2620
534.9716, 171.4030
535.4537, 170.7013
535.9359, 170.2708
536.4180, 170.1779
536.9001, 170.2410
537.3822, 170.3775
537.8643, 170.5963
538.3464, 170.7772
538.8286, 170.9114
539.3107, 171.0160
539.7928, 171.0359
540.2749, 171.0155
540.7570, 171.2142
541.2391, 171.7663
541.7213, 172.5121
542.2034, 173.3003
542.6855, 174.0955
543.1676, 174.7856
543.6497, 174.9801
544.1318, 175.2646
544.6140, 176.3441
545.0961, 178.3309
545.5782, 179.9143
546.0603, 180.0135
546.5424, 179.8023
547.0245, 180.2551
547.5067, 182.3090
547.9888, 183.9594
548.4709, 184.8378
548.9530, 185.2922
549.4351, 185.8923
549.9172, 186.6434
550.3994, 187.5451
550.8815, 188.6553
551.3636, 189.9251
551.8457, 190.9737
552.3278, 191.7657
552.8099, 192.5256
553.2921, 193.4418
553.7742, 194.4734
554.2563, 195.3544
554.7384, 196.0628
555.2205, 196.7177
555.7026, 197.2981
556.1848, 197.9412
556.6669, 198.9666
557.1490, 200.6598
557.6311, 202.4512
558.1132, 204.0139
558.5953, 205.3327
559.0775, 206.4120
559.5596, 206.9804
560.0417, 207.5444
560.5238, 208.3739
561.0059, 209.4785
561.4880, 210.4895
561.9702, 211.4402
562.4523, 212.1941
562.9344, 212.6651
563.4165, 212.7367
563.8986, 212.8114
564.3807, 212.8349
564.8629, 212.9367
565.3450, 213.3317
565.8271, 214.0648
566.3092, 214.7412
566.7913, 215.2869
567.2734, 215.7254
567.7556, 216.0974
568.2377, 216.4029
568.7198, 216.6003
569.2019, 216.4399
569.6840, 216.2659
570.1661, 216.5802
570.6483, 217.3758
571.1304, 218.4260
571.6125, 219.8099
572.0946, 221.2450
572.5767, 222.4566
573.0588, 223.3606
573.5410, 224.1644
574.0231, 224.6425
574.5052, 225.1559
574.9873, 226.1589
575.4694, 227.8463
575.9515, 229.8423
576.4337, 232.2718
576.9158, 234.9751
577.3979, 237.2923
577.8800, 239.0971
578.3621, 240.8779
578.8442, 242.7418
