##NAMES=Roselite
##RRUFFID=R100191
##IDEAL CHEMISTRY=Ca_2_Co^2+^(As^5+^O_4_)_2_&#183;2H_2_O
##LOCALITY=Schneeberg District, Erzgebirge, Saxony, Germany
##OWNER=RRUFF
##SOURCE=University of Arizona Mineral Museum
##DESCRIPTION=Druses of dark pink prismatic crystals
##STATUS=The identification of this mineral is confirmed by single-crystal X-ray diffraction and chemical analysis.
##URL=rruff.info/R100191
##MEASURED CHEMISTRY=Ca_1.989_(Co_0.774_Mg_0.184_Mn_0.029_Ni_0.004_Zn_0.002_)_Σ=0.993_(As_1.004_O_4_)_2_·2H_2_O
144.1204, 453.2797
144.6025, 454.0669
145.0846, 455.8939
145.5667, 457.7571
146.0488, 459.4037
146.5310, 461.1680
147.0131, 463.5345
147.4952, 466.6814
147.9773, 469.9649
148.4594, 472.6015
148.9415, 474.7048
149.4237, 476.8422
149.9058, 478.7274
150.3879, 480.7589
150.8700, 484.1198
151.3521, 489.5513
151.8342, 495.7522
152.3164, 501.6976
152.7985, 507.3769
153.2806, 512.9278
153.7627, 518.3354
154.2448, 523.6041
154.7269, 529.0175
155.2091, 534.4535
155.6912, 540.1747
156.1733, 546.6249
156.6554, 553.7366
157.1375, 560.6817
157.6196, 566.4377
158.1018, 570.6816
158.5839, 574.5939
159.0660, 578.1627
159.5481, 581.5311
160.0302, 584.7141
160.5123, 587.7357
160.9945, 590.6752
161.4766, 593.5890
161.9587, 595.8708
162.4408, 599.1959
162.9229, 603.3149
163.4050, 608.4847
163.8871, 615.0696
164.3693, 623.2101
164.8514, 632.4865
165.3335, 641.9579
165.8156, 651.9233
166.2977, 661.6199
166.7798, 670.2542
167.2620, 678.7385
167.7441, 688.4784
168.2262, 700.1506
168.7083, 713.2877
169.1904, 726.5634
169.6725, 740.2425
170.1547, 753.5712
170.6368, 765.9500
171.1189, 777.6259
171.6010, 789.4856
172.0831, 802.1041
172.5652, 814.9581
173.0474, 827.2508
173.5295, 838.8178
174.0116, 850.0869
174.4937, 860.8214
174.9758, 871.0442
175.4579, 882.4558
175.9401, 896.4048
176.4222, 911.7653
176.9043, 927.4337
177.3864, 943.5119
177.8685, 959.3290
178.3506, 973.8038
178.8328, 986.3768
179.3149, 999.7452
179.7970, 1016.435
180.2791, 1033.624
180.7612, 1048.621
181.2433, 1060.403
181.7255, 1070.088
182.2076, 1080.189
182.6897, 1091.479
183.1718, 1101.644
183.6539, 1110.716
184.1360, 1118.479
184.6181, 1124.568
185.1003, 1128.785
185.5824, 1131.387
186.0645, 1133.266
186.5466, 1134.827
187.0287, 1134.957
187.5108, 1133.997
187.9930, 1131.473
188.4751, 1126.755
188.9572, 1119.497
189.4393, 1109.868
189.9214, 1098.701
190.4035, 1088.022
190.8857, 1073.633
191.3678, 1054.527
191.8499, 1031.230
192.3320, 1004.054
192.8141, 972.7250
193.2962, 938.0011
193.7784, 905.3163
194.2605, 874.2628
194.7426, 845.0579
195.2247, 817.4443
195.7068, 791.6241
196.1889, 768.0056
196.6711, 746.8855
197.1532, 728.3627
197.6353, 711.7938
198.1174, 697.0183
198.5995, 683.9865
199.0816, 672.9915
199.5638, 663.8465
200.0459, 655.4665
200.5280, 647.1238
201.0101, 639.1672
201.4922, 632.4968
201.9743, 628.0727
202.4565, 623.9715
202.9386, 618.4286
203.4207, 611.3959
203.9028, 604.3555
204.3849, 598.2118
204.8670, 592.5418
205.3492, 586.8594
205.8313, 581.2532
206.3134, 575.3798
206.7955, 568.7189
207.2776, 561.1005
207.7597, 553.4877
208.2419, 545.6584
208.7240, 538.2904
209.2061, 532.3850
209.6882, 528.5624
210.1703, 525.7004
210.6524, 521.6947
211.1346, 515.8741
211.6167, 510.7222
212.0988, 507.7982
212.5809, 505.5352
213.0630, 502.2681
213.5451, 497.2420
214.0273, 491.3496
214.5094, 486.6335
214.9915, 483.5822
215.4736, 480.9368
215.9557, 478.5602
216.4378, 476.3216
216.9200, 473.8999
217.4021, 471.1380
217.8842, 468.4785
218.3663, 467.2324
218.8484, 468.3068
219.3305, 469.6463
219.8127, 471.4762
220.2948, 473.2395
220.7769, 474.1313
221.2590, 473.7833
221.7411, 472.8614
222.2232, 473.3593
222.7054, 477.4066
223.1875, 480.3770
223.6696, 481.7167
224.1517, 481.9581
224.6338, 481.4836
225.1159, 480.4542
225.5980, 479.2320
226.0802, 478.8840
226.5623, 480.8955
227.0444, 482.0216
227.5265, 481.1477
228.0086, 479.5070
228.4907, 478.6273
228.9729, 479.1451
229.4550, 480.7677
229.9371, 482.8289
230.4192, 485.7458
230.9013, 488.4259
231.3834, 490.7539
231.8656, 492.7268
232.3477, 494.1581
232.8298, 494.8754
233.3119, 495.4240
233.7940, 497.2383
234.2761, 501.0502
234.7583, 504.0613
235.2404, 505.4131
235.7225, 505.5300
236.2046, 505.1931
236.6867, 504.6941
237.1688, 503.7073
237.6510, 501.3429
238.1331, 497.4172
238.6152, 493.7409
239.0973, 491.1159
239.5794, 489.1507
240.0615, 487.0847
240.5437, 484.7646
241.0258, 482.1482
241.5079, 478.9861
241.9900, 475.2624
242.4721, 471.8763
242.9542, 469.5105
243.4364, 467.7819
243.9185, 465.7109
244.4006, 463.0826
244.8827, 460.1145
245.3648, 457.3341
245.8469, 454.6595
246.3290, 451.0821
246.8112, 445.3084
247.2933, 438.1961
247.7754, 432.3794
248.2575, 428.7882
248.7396, 425.5666
249.2217, 420.9227
249.7039, 415.3188
250.1860, 410.4014
250.6681, 407.4470
251.1502, 405.9606
251.6323, 404.0060
252.1144, 401.1919
252.5966, 398.4385
253.0787, 396.3741
253.5608, 394.7777
254.0429, 393.1083
254.5250, 390.7682
255.0071, 388.1112
255.4893, 386.6079
255.9714, 386.9509
256.4535, 387.3989
256.9356, 386.8708
257.4177, 385.9367
257.8998, 385.5756
258.3820, 386.5132
258.8641, 388.3216
259.3462, 389.4246
259.8283, 389.2482
260.3104, 389.3019
260.7925, 389.9733
261.2747, 391.1539
261.7568, 392.7392
262.2389, 394.7339
262.7210, 397.0098
263.2031, 399.2470
263.6852, 401.5290
264.1674, 403.6079
264.6495, 405.4517
265.1316, 407.0899
265.6137, 408.4930
266.0958, 409.6353
266.5779, 410.6507
267.0601, 411.8452
267.5422, 413.2451
268.0243, 414.8011
268.5064, 416.9148
268.9885, 418.9480
269.4706, 420.0799
269.9528, 420.0630
270.4349, 419.7246
270.9170, 420.7398
271.3991, 424.0085
271.8812, 426.8889
272.3633, 428.8016
272.8455, 430.5649
273.3276, 432.8535
273.8097, 435.8081
274.2918, 439.0054
274.7739, 441.7220
275.2560, 443.3687
275.7382, 445.8370
276.2202, 449.1398
276.7024, 453.0585
277.1845, 457.8003
277.6666, 463.2170
278.1487, 468.6063
278.6308, 473.0771
279.1129, 476.2677
279.5951, 479.7364
280.0772, 483.3643
280.5593, 487.3119
281.0414, 492.0072
281.5235, 497.2267
282.0056, 502.2469
282.4878, 506.4595
282.9699, 509.9699
283.4520, 511.8973
283.9341, 511.3666
284.4162, 510.3795
284.8983, 509.6284
285.3805, 509.1008
285.8626, 508.5454
286.3447, 507.8044
286.8268, 506.8777
287.3089, 505.3881
287.7910, 502.2285
288.2732, 499.7368
288.7553, 498.6463
289.2374, 498.7249
289.7195, 499.4755
290.2016, 500.6039
290.6837, 502.1327
291.1659, 504.2835
291.6480, 506.9721
292.1301, 510.3519
292.6122, 514.7201
293.0943, 519.7316
293.5764, 524.8206
294.0586, 529.7370
294.5407, 534.7855
295.0228, 540.8249
295.5049, 548.5223
295.9870, 556.4832
296.4691, 564.3136
296.9513, 572.5375
297.4334, 581.8387
297.9155, 592.3784
298.3976, 603.7064
298.8797, 615.0541
299.3618, 626.3580
299.8440, 637.8499
300.3261, 650.0761
300.8082, 662.0632
301.2903, 673.2305
301.7724, 683.3770
302.2545, 692.6832
302.7367, 701.5815
303.2188, 710.5022
303.7009, 716.4812
304.1830, 718.4379
304.6651, 718.6813
305.1472, 718.2001
305.6294, 717.2661
306.1115, 716.2162
306.5936, 715.4825
307.0757, 715.1364
307.5578, 713.0046
308.0399, 707.6034
308.5221, 702.2279
309.0042, 697.7593
309.4863, 694.4380
309.9684, 692.5706
310.4505, 692.3207
310.9326, 693.7164
311.4148, 697.1360
311.8969, 702.2039
312.3790, 709.3537
312.8611, 719.0463
313.3432, 730.8295
313.8253, 744.0795
314.3075, 758.4683
314.7896, 774.1342
315.2717, 791.6072
315.7538, 810.8744
316.2359, 832.1143
316.7180, 856.8839
317.2001, 882.9788
317.6823, 907.9351
318.1644, 931.1523
318.6465, 953.5106
319.1286, 976.3926
319.6107, 999.8328
320.0928, 1023.509
320.5750, 1047.787
321.0571, 1072.125
321.5392, 1095.902
322.0213, 1119.091
322.5034, 1142.784
322.9855, 1168.046
323.4677, 1195.504
323.9498, 1221.036
324.4319, 1242.370
324.9140, 1264.226
325.3961, 1288.765
325.8782, 1315.866
326.3604, 1344.812
326.8425, 1375.157
327.3246, 1406.869
327.8067, 1440.360
328.2888, 1476.950
328.7709, 1513.596
329.2531, 1549.303
329.7352, 1584.509
330.2173, 1620.088
330.6994, 1656.491
331.1815, 1693.191
331.6636, 1729.060
332.1458, 1764.795
332.6279, 1798.657
333.1100, 1832.780
333.5921, 1863.754
334.0742, 1888.877
334.5563, 1907.047
335.0385, 1918.328
335.5206, 1922.837
336.0027, 1921.012
336.4848, 1909.240
336.9669, 1886.636
337.4490, 1855.958
337.9312, 1817.486
338.4133, 1772.060
338.8954, 1722.142
339.3775, 1669.640
339.8596, 1614.167
340.3417, 1559.468
340.8239, 1504.171
341.3060, 1451.023
341.7881, 1400.754
342.2702, 1353.302
342.7523, 1308.552
343.2344, 1266.494
343.7166, 1227.395
344.1987, 1193.039
344.6808, 1166.479
345.1629, 1141.636
345.6450, 1117.641
346.1271, 1095.447
346.6093, 1076.302
347.0914, 1060.751
347.5735, 1047.951
348.0556, 1036.707
348.5377, 1027.398
349.0198, 1019.079
349.5020, 1012.040
349.9841, 1005.611
350.4662, 999.5774
350.9483, 993.8268
351.4304, 988.2065
351.9125, 982.7082
352.3947, 977.5173
352.8768, 971.2631
353.3589, 963.4263
353.8410, 955.0751
354.3231, 947.1249
354.8052, 938.9453
355.2874, 929.2363
355.7695, 917.1722
356.2516, 902.8689
356.7337, 886.5820
357.2158, 866.6005
357.6979, 846.8421
358.1800, 828.2047
358.6621, 810.0413
359.1443, 791.7504
359.6264, 773.0035
360.1085, 754.0571
360.5906, 735.0543
361.0727, 715.5780
361.5548, 697.1673
362.0370, 680.3450
362.5191, 664.3114
363.0012, 648.5223
363.4833, 632.8801
363.9654, 618.0457
364.4475, 604.6477
364.9297, 592.7226
365.4118, 581.6049
365.8939, 571.4509
366.3760, 562.0408
366.8581, 553.1760
367.3402, 544.9901
367.8224, 537.8092
368.3045, 532.0588
368.7866, 527.3080
369.2687, 522.2430
369.7508, 516.6247
370.2329, 511.2535
370.7151, 506.2674
371.1972, 501.6908
371.6793, 497.6528
372.1614, 494.2930
372.6435, 490.9829
373.1256, 486.9161
373.6078, 482.0489
374.0899, 477.1753
374.5720, 472.2422
375.0541, 467.5646
375.5362, 463.6660
376.0183, 460.4057
376.5005, 456.7188
376.9826, 451.1935
377.4647, 444.5628
377.9468, 439.7239
378.4289, 437.5424
378.9110, 435.6172
379.3932, 431.8175
379.8753, 427.1411
380.3574, 423.5999
380.8395, 422.5606
381.3216, 422.2405
381.8037, 420.1650
382.2859, 416.2821
382.7680, 412.9993
383.2501, 411.4128
383.7322, 411.0834
384.2143, 411.1630
384.6964, 411.7103
385.1786, 412.4142
385.6607, 413.3327
386.1428, 414.2776
386.6249, 414.6563
387.1070, 414.2037
387.5891, 413.5217
388.0713, 413.2340
388.5534, 413.3068
389.0355, 413.6958
389.5176, 414.7192
389.9997, 415.8529
390.4818, 416.2451
390.9640, 415.9505
391.4461, 416.3825
391.9282, 418.7729
392.4103, 422.6838
392.8924, 425.6051
393.3745, 426.0281
393.8567, 427.1922
394.3388, 431.1054
394.8209, 436.5680
395.3030, 441.0978
395.7851, 443.7420
396.2672, 445.5117
396.7494, 448.2191
397.2315, 452.1814
397.7136, 456.3706
398.1957, 460.8390
398.6778, 465.4886
399.1599, 470.4584
399.6420, 475.6451
400.1241, 480.5304
400.6063, 484.6248
401.0884, 487.9233
401.5705, 491.1109
402.0526, 494.9852
402.5347, 497.9144
403.0168, 499.1558
403.4990, 499.1764
403.9811, 498.5851
404.4632, 497.6655
404.9453, 496.6339
405.4274, 496.0562
405.9095, 496.5157
406.3917, 496.4450
406.8738, 494.9679
407.3559, 493.6006
407.8380, 493.4585
408.3201, 494.6326
408.8022, 496.4361
409.2844, 498.1576
409.7665, 499.7366
410.2486, 502.1013
410.7307, 505.7444
411.2128, 509.6908
411.6949, 513.2286
412.1771, 516.9544
412.6592, 522.1345
413.1413, 529.6633
413.6234, 538.0537
414.1055, 543.7225
414.5876, 545.4517
415.0698, 548.2586
415.5519, 554.6234
416.0340, 561.6008
416.5161, 567.4815
416.9982, 572.0170
417.4803, 575.3304
417.9625, 577.2678
418.4446, 577.9742
418.9267, 578.4666
419.4088, 578.7717
419.8909, 578.9241
420.3730, 579.4326
420.8552, 579.8021
421.3373, 578.8784
421.8194, 575.8622
422.3015, 571.8239
422.7836, 567.9475
423.2657, 564.2363
423.7479, 560.4119
424.2300, 556.4319
424.7121, 552.2092
425.1942, 547.6689
425.6763, 542.8573
426.1584, 537.6122
426.6406, 531.8914
427.1227, 525.6750
427.6048, 518.8323
428.0869, 511.2564
428.5690, 503.5535
429.0511, 496.2279
429.5333, 489.3039
430.0154, 482.7296
430.4975, 476.2841
430.9796, 470.3838
431.4617, 465.3373
431.9438, 461.0493
432.4260, 457.2274
432.9081, 453.7555
433.3902, 450.6821
433.8723, 448.1639
434.3544, 446.5631
434.8365, 444.9510
435.3187, 443.2163
435.8008, 441.5094
436.2829, 440.0533
436.7650, 438.8140
437.2471, 437.4140
437.7292, 435.3600
438.2114, 432.5921
438.6935, 431.2887
439.1756, 432.4553
439.6577, 434.0047
440.1398, 435.6544
440.6219, 437.3589
441.1040, 438.9505
441.5862, 440.3576
442.0683, 442.0504
442.5504, 445.1302
443.0325, 450.4141
443.5146, 454.6043
443.9967, 455.8917
444.4789, 457.2958
444.9610, 460.4296
445.4431, 465.1361
445.9252, 470.3634
446.4073, 475.3755
446.8894, 480.2738
447.3716, 485.5895
447.8537, 491.7019
448.3358, 497.2598
448.8179, 502.4190
449.3000, 506.4087
449.7821, 508.0568
450.2643, 506.8925
450.7464, 504.4649
451.2285, 501.8589
451.7106, 499.0636
452.1927, 496.2604
452.6748, 493.8322
453.1570, 490.7114
453.6391, 484.9023
454.1212, 477.0952
454.6033, 470.6100
455.0854, 467.1090
455.5675, 464.6192
456.0497, 461.3731
456.5318, 457.4758
457.0139, 453.7162
457.4960, 450.3842
457.9781, 447.5869
458.4602, 445.7175
458.9424, 445.0971
459.4245, 444.5429
459.9066, 443.4738
460.3887, 442.5901
460.8708, 442.8046
461.3529, 444.1496
461.8351, 445.7086
462.3172, 446.5589
462.7993, 446.6466
463.2814, 447.5898
463.7635, 450.0887
464.2456, 452.5717
464.7278, 454.4983
465.2099, 456.2399
465.6920, 458.4623
466.1741, 461.4126
466.6562, 464.4869
467.1383, 466.5836
467.6205, 467.3150
468.1026, 468.3256
468.5847, 469.9259
469.0668, 471.5885
469.5489, 473.0114
470.0310, 474.2929
470.5132, 475.8070
470.9953, 478.0708
471.4774, 480.4524
471.9595, 481.1159
472.4416, 479.5992
472.9237, 478.1069
473.4059, 478.0632
473.8880, 477.9768
474.3701, 476.2739
474.8522, 472.7453
475.3343, 469.0189
475.8164, 466.3837
476.2986, 464.3250
476.7807, 461.5879
477.2628, 458.0514
477.7449, 453.7556
478.2270, 448.1105
478.7091, 441.6652
479.1913, 436.7444
479.6734, 435.2110
480.1555, 433.2859
480.6376, 428.3157
481.1197, 421.6182
481.6018, 416.0391
482.0839, 412.5397
482.5660, 409.9278
483.0482, 406.5306
483.5303, 402.0585
484.0124, 397.8379
484.4945, 394.3327
484.9766, 390.6400
485.4587, 386.1935
485.9409, 381.1416
486.4230, 375.8147
486.9051, 370.3325
487.3872, 364.9605
487.8693, 360.5273
488.3514, 357.2558
488.8336, 354.5074
489.3157, 352.9930
489.7978, 351.3133
490.2799, 348.0773
490.7620, 343.5909
491.2441, 339.6487
491.7263, 338.0998
492.2084, 338.2747
492.6905, 336.7785
493.1726, 332.9434
493.6547, 329.0573
494.1368, 325.6465
494.6190, 322.8848
495.1011, 321.3227
495.5832, 321.2378
496.0653, 320.9146
496.5474, 318.5318
497.0295, 314.8688
497.5117, 312.4557
497.9938, 311.8747
498.4759, 311.6460
498.9580, 310.6351
499.4401, 308.9250
499.9222, 307.0980
500.4044, 304.8237
500.8865, 302.8080
501.3686, 301.3429
501.8507, 300.3973
502.3328, 300.0210
502.8149, 300.2557
503.2971, 300.6259
503.7792, 300.4184
504.2613, 299.3499
504.7434, 298.7293
505.2255, 299.0966
505.7076, 299.3326
506.1898, 298.9198
506.6719, 297.9641
507.1540, 296.6270
507.6361, 294.9575
508.1182, 293.3308
508.6003, 292.7513
509.0825, 293.7770
509.5646, 294.3500
510.0467, 293.9325
510.5288, 293.3032
511.0109, 292.8430
511.4930, 292.5433
511.9752, 292.2216
512.4573, 291.7292
512.9394, 291.1602
513.4215, 290.7897
513.9036, 290.6757
514.3857, 290.3710
514.8679, 289.5861
515.3500, 288.5998
515.8321, 287.7647
516.3142, 287.0938
516.7963, 286.5151
517.2784, 286.0536
517.7606, 285.6371
518.2427, 285.0695
518.7248, 284.3579
519.2069, 283.9243
519.6890, 284.1515
520.1711, 284.8483
520.6533, 285.0418
521.1354, 284.1817
521.6175, 283.6337
522.0996, 284.1960
522.5817, 284.8457
523.0638, 284.2530
523.5460, 282.3960
524.0281, 280.5869
524.5102, 280.1436
524.9923, 281.0211
525.4744, 281.6364
525.9565, 281.9544
526.4387, 282.0180
526.9208, 281.7071
527.4029, 281.2301
527.8850, 280.7561
528.3671, 280.3386
528.8492, 280.0389
529.3314, 280.0887
529.8135, 280.4122
530.2956, 280.1589
530.7777, 278.9925
531.2598, 277.8537
531.7419, 277.2096
532.2241, 277.0072
532.7062, 277.3152
533.1883, 278.5119
533.6704, 279.4759
534.1525, 279.2281
534.6346, 278.1981
535.1168, 277.3601
535.5989, 276.9301
536.0810, 276.7391
536.5631, 276.6297
537.0452, 276.6048
537.5273, 276.7258
538.0095, 277.3434
538.4916, 277.7030
538.9737, 277.2685
539.4558, 276.4869
539.9379, 276.1440
540.4200, 276.4588
540.9022, 276.7910
541.3843, 276.0693
541.8664, 273.8931
542.3485, 272.9442
542.8306, 274.2320
543.3127, 275.7248
543.7948, 277.2482
544.2769, 278.4340
544.7590, 278.5957
545.2411, 277.3692
545.7233, 275.8916
546.2054, 275.7186
546.6875, 276.7489
547.1696, 277.4623
547.6517, 277.4993
548.1339, 277.4244
548.6160, 277.6838
549.0981, 278.2030
549.5802, 278.8329
550.0623, 280.0815
550.5444, 280.8597
551.0266, 279.9303
551.5087, 278.0446
551.9908, 277.0479
552.4729, 277.5237
552.9550, 278.4609
553.4371, 278.5952
553.9193, 277.7517
554.4014, 277.1533
554.8835, 276.4639
555.3656, 276.3485
555.8477, 277.5947
556.3298, 279.3901
556.8120, 280.5509
557.2941, 280.6527
557.7762, 280.1385
558.2583, 279.5385
558.7404, 278.8258
559.2225, 278.2593
559.7047, 277.7227
560.1868, 277.5254
560.6689, 278.2140
561.1510, 279.1990
561.6331, 279.3545
562.1152, 278.0409
562.5974, 276.6766
563.0795, 276.7831
563.5616, 277.9602
564.0437, 278.8385
564.5258, 279.2016
565.0079, 278.9324
565.4901, 277.4418
565.9722, 274.9185
566.4543, 274.2757
566.9364, 277.5412
567.4185, 280.3560
567.9006, 280.7290
568.3828, 279.7713
568.8649, 278.9441
569.3470, 278.6853
569.8291, 278.8282
570.3112, 279.2550
570.7933, 280.0018
571.2755, 280.4015
571.7576, 280.0654
572.2397, 279.8647
572.7218, 280.2947
573.2039, 280.8210
573.6860, 280.7737
574.1682, 279.9967
574.6503, 279.0375
575.1324, 278.3274
575.6145, 277.8565
576.0966, 277.6165
576.5787, 277.6466
577.0609, 277.7528
577.5430, 277.8776
578.0251, 277.9765
578.5072, 277.8898
578.9893, 277.3238
579.4714, 277.2285
579.9536, 278.6532
580.4357, 280.3896
580.9178, 280.8009
581.3999, 279.8062
581.8820, 278.5492
582.3641, 277.8802
582.8463, 277.7054
583.3284, 277.4630
583.8105, 276.9545
584.2926, 276.6775
584.7747, 276.8069
585.2568, 277.0650
585.7390, 277.1539
586.2211, 277.1317
586.7032, 277.3803
587.1853, 278.3120
587.6674, 279.6088
588.1495, 280.3922
588.6317, 280.6146
589.1138, 280.6010
589.5959, 280.2954
590.0780, 279.9473
590.5601, 279.9473
591.0422, 280.2869
591.5244, 280.3382
592.0065, 279.1797
592.4886, 278.2215
592.9707, 279.1880
593.4528, 281.5444
593.9349, 283.4284
594.4171, 284.0271
594.8992, 283.6502
595.3813, 282.7103
595.8634, 280.6547
596.3455, 279.7077
596.8276, 280.9151
597.3098, 281.9702
597.7919, 281.5060
598.2740, 280.3283
598.7561, 279.9913
599.2382, 281.1591
599.7203, 282.7441
600.2025, 283.2051
600.6846, 282.5801
601.1667, 282.2182
601.6488, 282.3495
602.1309, 282.5626
602.6130, 282.2916
603.0952, 281.9445
603.5773, 282.5224
604.0594, 284.9127
604.5415, 286.8034
605.0236, 286.6812
605.5057, 285.4455
605.9879, 284.2167
606.4700, 283.2674
606.9521, 282.9615
607.4342, 283.7110
607.9163, 285.3338
608.3984, 286.4659
608.8806, 286.9546
609.3627, 287.1062
609.8448, 286.6608
610.3269, 286.1093
610.8090, 285.6059
611.2911, 285.3162
611.7733, 285.7095
612.2554, 287.5182
612.7375, 289.8622
613.2196, 290.4391
613.7017, 289.0503
614.1838, 288.0186
614.6660, 288.0386
615.1481, 288.7018
615.6302, 289.9103
616.1123, 291.6053
616.5944, 292.3520
617.0765, 291.0138
617.5587, 289.4409
618.0408, 288.7653
618.5229, 288.8272
619.0050, 289.1878
619.4871, 289.6910
619.9692, 290.4455
620.4514, 291.7053
620.9335, 293.6459
621.4156, 294.7686
621.8977, 294.0877
622.3798, 293.7407
622.8619, 294.5771
623.3441, 295.8771
623.8262, 296.7653
624.3083, 297.0391
624.7904, 297.2460
625.2725, 298.0650
625.7546, 299.1496
626.2367, 299.3620
626.7188, 298.5601
627.2009, 297.9225
627.6830, 298.0878
628.1652, 298.7809
628.6473, 299.3821
629.1294, 299.8056
629.6115, 300.4130
630.0936, 301.5576
630.5757, 302.6489
631.0579, 303.3085
631.5400, 303.5477
632.0221, 303.3144
632.5042, 302.5518
632.9863, 301.9195
633.4684, 302.9594
633.9506, 306.2524
634.4327, 308.3004
634.9148, 307.9818
635.3969, 307.5695
635.8790, 308.3380
636.3611, 309.7386
636.8433, 310.7610
637.3254, 310.9947
637.8075, 311.3227
