##NAMES=Rosiaite
##RRUFFID=R070384
##IDEAL CHEMISTRY=Pb^2+^Sb^5+^_2_O_6_
##LOCALITY=Le Cetine mine, Chiusdino, Tuscany, Italy
##OWNER=RRUFF
##SOURCE=Michael Scott
##DESCRIPTION=Pale yellow thin hexagonal tablets associated with valentinite, clinocervantite, R070385 and tripuhyite, R070383
##STATUS=The identification of this mineral is confirmed by single-crystal X-ray diffraction and chemical analysis.
##URL=rruff.info/R070384
##MEASURED CHEMISTRY=Pb_1.00_Sb_2.00_O_6_
128.2512, 68.65612
128.7333, 72.79899
129.2154, 68.74178
129.6975, 67.76114
130.1796, 74.03147
130.6617, 84.08384
131.1439, 93.10667
131.6260, 98.13593
132.1081, 99.67590
132.5902, 101.6614
133.0723, 103.6954
133.5544, 106.6557
134.0366, 111.1666
134.5187, 116.7094
135.0008, 122.5061
135.4829, 128.0634
135.9650, 133.3638
136.4471, 137.9120
136.9293, 140.8472
137.4114, 143.9746
137.8935, 147.2219
138.3756, 151.0403
138.8577, 156.5261
139.3398, 164.7449
139.8220, 175.7583
140.3041, 184.8749
140.7862, 191.9045
141.2683, 197.7343
141.7504, 202.6252
142.2325, 206.5863
142.7147, 209.5785
143.1968, 211.6750
143.6789, 212.7607
144.1610, 211.9289
144.6431, 206.6476
145.1252, 201.8054
145.6074, 200.8364
146.0895, 203.3961
146.5716, 206.2590
147.0537, 206.9975
147.5358, 205.4460
148.0179, 203.5722
148.5001, 201.7616
148.9822, 199.3671
149.4643, 195.9440
149.9464, 191.4447
150.4285, 185.9413
150.9106, 178.6214
151.3928, 169.9486
151.8749, 163.9555
152.3570, 163.3692
152.8391, 164.0538
153.3212, 161.9038
153.8033, 156.5623
154.2855, 150.9438
154.7676, 147.2356
155.2497, 145.1759
155.7318, 143.6642
156.2139, 143.0783
156.6960, 142.6960
157.1782, 141.6062
157.6603, 139.6860
158.1424, 137.6114
158.6245, 135.3987
159.1066, 133.3907
159.5887, 132.6522
160.0709, 134.5589
160.5530, 137.4807
161.0351, 138.7346
161.5172, 137.7318
161.9993, 137.0371
162.4814, 139.3085
162.9636, 143.1858
163.4457, 146.2431
163.9278, 146.6588
164.4099, 146.0016
164.8920, 147.4798
165.3741, 151.9782
165.8563, 156.1098
166.3384, 157.2558
166.8205, 156.6623
167.3026, 156.3531
167.7847, 157.4142
168.2668, 159.1919
168.7490, 160.0594
169.2311, 159.3787
169.7132, 159.2770
170.1953, 160.9266
170.6774, 163.8133
171.1595, 167.3105
171.6417, 171.5770
172.1238, 176.0874
172.6059, 179.3664
173.0880, 180.7643
173.5701, 182.2158
174.0522, 184.0730
174.5344, 186.6161
175.0165, 190.3310
175.4986, 195.6494
175.9807, 202.1854
176.4628, 209.3012
176.9449, 218.2501
177.4271, 225.3085
177.9092, 228.2049
178.3913, 228.8599
178.8734, 229.6862
179.3555, 231.6326
179.8376, 234.7417
180.3197, 239.3917
180.8019, 246.7692
181.2840, 253.5960
181.7661, 257.7717
182.2482, 261.1991
182.7303, 266.5053
183.2124, 275.4168
183.6946, 286.2924
184.1767, 293.9749
184.6588, 295.1597
185.1409, 298.9496
185.6230, 306.9859
186.1051, 318.6577
186.5873, 333.9091
187.0694, 353.1950
187.5515, 374.6883
188.0336, 394.0171
188.5157, 410.3745
188.9978, 425.4464
189.4800, 443.5178
189.9621, 459.1461
190.4442, 466.8800
190.9263, 464.1422
191.4084, 452.5645
191.8905, 435.0943
192.3727, 406.5157
192.8548, 381.1748
193.3369, 358.8415
193.8190, 341.3714
194.3011, 331.0219
194.7832, 328.7377
195.2654, 332.4620
195.7475, 338.2830
196.2296, 348.2495
196.7117, 356.5165
197.1938, 363.6193
197.6759, 368.3961
198.1581, 368.1404
198.6402, 362.1909
199.1223, 355.1993
199.6044, 356.3777
200.0865, 370.7069
200.5686, 383.6276
201.0508, 391.8958
201.5329, 399.7071
202.0150, 409.9410
202.4971, 423.5092
202.9792, 439.5913
203.4613, 456.5514
203.9435, 472.5859
204.4256, 493.9252
204.9077, 521.6593
205.3898, 553.2582
205.8719, 585.0801
206.3540, 617.3010
206.8362, 655.3157
207.3183, 707.1114
207.8004, 774.8090
208.2825, 851.1046
208.7646, 952.9023
209.2467, 1049.435
209.7289, 1133.018
210.2110, 1196.709
210.6931, 1226.537
211.1752, 1201.737
211.6573, 1109.726
212.1395, 1008.037
212.6216, 882.4161
213.1037, 760.4307
213.5858, 651.5489
214.0679, 558.7809
214.5500, 483.6141
215.0322, 429.2719
215.5143, 398.2861
215.9964, 372.9743
216.4785, 353.2256
216.9606, 339.0064
217.4427, 333.6540
217.9249, 334.5017
218.4070, 334.8114
218.8891, 328.5001
219.3712, 315.2996
219.8533, 305.2461
220.3354, 301.8008
220.8176, 298.3002
221.2997, 292.5483
221.7818, 285.3629
222.2639, 278.7916
222.7460, 274.5229
223.2281, 272.1641
223.7103, 267.8306
224.1924, 258.1145
224.6745, 250.0940
225.1566, 246.5925
225.6387, 245.4230
226.1208, 243.2561
226.6030, 238.1251
227.0851, 230.7092
227.5672, 223.7643
228.0493, 216.4506
228.5314, 210.9103
229.0135, 208.2216
229.4957, 207.1124
229.9778, 206.1339
230.4599, 204.6263
230.9420, 203.0195
231.4241, 202.5852
231.9062, 205.0398
232.3884, 205.6030
232.8705, 202.4008
233.3526, 198.0438
233.8347, 194.6769
234.3168, 193.0311
234.7989, 192.4975
235.2811, 192.0719
235.7632, 191.6617
236.2453, 191.6047
236.7274, 190.0853
237.2095, 190.1018
237.6916, 194.8797
238.1738, 204.5069
238.6559, 215.0058
239.1380, 220.5420
239.6201, 218.5991
240.1022, 221.1628
240.5843, 232.0750
241.0665, 244.7617
241.5486, 257.6914
242.0307, 269.9546
242.5128, 279.7829
242.9949, 284.2877
243.4770, 282.7453
243.9592, 284.7495
244.4413, 294.4838
244.9234, 304.0272
245.4055, 309.9383
245.8876, 313.1646
246.3697, 316.4761
246.8519, 321.5092
247.3340, 328.3350
247.8161, 337.1035
248.2982, 346.9789
248.7803, 360.4286
249.2624, 378.0469
249.7446, 399.4605
250.2267, 423.9207
250.7088, 451.1921
251.1909, 481.2956
251.6730, 514.6656
252.1551, 552.5623
252.6373, 591.5782
253.1194, 634.3322
253.6015, 675.9731
254.0836, 713.7647
254.5657, 748.6953
255.0478, 771.8204
255.5300, 766.9129
256.0121, 729.2585
256.4942, 681.0928
256.9763, 618.5828
257.4584, 553.6052
257.9406, 492.7066
258.4227, 437.2302
258.9048, 388.6189
259.3869, 348.0980
259.8690, 315.6665
260.3511, 290.5017
260.8333, 275.1563
261.3154, 265.1345
261.7975, 257.5518
262.2796, 252.1697
262.7617, 248.2327
263.2438, 244.8407
263.7260, 242.2694
264.2081, 242.7325
264.6902, 248.8667
265.1723, 254.3019
265.6544, 253.2863
266.1365, 247.5933
266.6187, 243.0763
267.1008, 242.7523
267.5829, 245.4196
268.0650, 248.5086
268.5471, 251.7427
269.0292, 256.0830
269.5114, 264.1754
269.9935, 273.6682
270.4756, 280.2645
270.9577, 280.8298
271.4398, 279.7064
271.9219, 281.9759
272.4041, 287.7402
272.8862, 293.5436
273.3683, 296.8151
273.8504, 299.5542
274.3325, 305.7371
274.8146, 317.6985
275.2968, 329.2165
275.7789, 335.0135
276.2610, 336.5099
276.7431, 339.6289
277.2252, 346.6176
277.7073, 356.0042
278.1895, 365.2137
278.6716, 373.8740
279.1537, 383.7983
279.6358, 395.3710
280.1179, 408.6867
280.6000, 424.6674
281.0822, 444.0023
281.5643, 463.2961
282.0464, 478.7038
282.5285, 490.0067
283.0106, 499.2089
283.4927, 505.3756
283.9749, 510.2359
284.4570, 516.0822
284.9391, 522.8471
285.4212, 527.3333
285.9033, 525.8801
286.3854, 518.7396
286.8676, 517.1189
287.3497, 524.7318
287.8318, 533.7009
288.3139, 539.1709
288.7960, 542.7972
289.2781, 550.1795
289.7603, 565.2582
290.2424, 585.0565
290.7245, 596.5596
291.2066, 589.7837
291.6887, 587.6424
292.1708, 597.1252
292.6530, 611.8332
293.1351, 623.6373
293.6172, 629.7065
294.0993, 633.1208
294.5814, 639.6011
295.0635, 654.1238
295.5457, 661.9009
296.0278, 663.0945
296.5099, 658.0226
296.9920, 644.9544
297.4741, 624.8342
297.9562, 602.0428
298.4384, 580.4117
298.9205, 559.4492
299.4026, 543.0976
299.8847, 537.0179
300.3668, 529.7666
300.8489, 515.1332
301.3311, 496.1979
301.8131, 479.8781
302.2953, 470.7608
302.7774, 467.8481
303.2595, 466.4661
303.7416, 470.0785
304.2237, 469.8489
304.7058, 461.9422
305.1880, 450.6108
305.6701, 439.5742
306.1522, 430.1091
306.6343, 423.2961
307.1164, 421.3818
307.5985, 425.3944
308.0807, 430.5233
308.5628, 435.0781
309.0449, 441.1930
309.5270, 450.0581
310.0091, 461.8666
310.4912, 476.2697
310.9734, 493.0709
311.4555, 512.2684
311.9376, 534.1257
312.4197, 561.2626
312.9018, 587.1324
313.3839, 612.0653
313.8661, 633.3504
314.3482, 643.1043
314.8303, 636.3910
315.3124, 616.6157
315.7945, 588.4932
316.2766, 551.4702
316.7588, 509.3801
317.2409, 460.6663
317.7230, 409.5951
318.2051, 362.9971
318.6872, 321.3940
319.1693, 285.3422
319.6515, 255.5937
320.1336, 232.1061
320.6157, 214.6046
321.0978, 204.1225
321.5799, 198.1315
322.0620, 192.8542
322.5442, 188.2038
323.0263, 184.4227
323.5084, 182.3873
323.9905, 180.9037
324.4726, 178.5129
324.9547, 174.9573
325.4369, 170.4998
325.9190, 165.0858
326.4011, 158.5811
326.8832, 153.3825
327.3653, 149.6719
327.8474, 147.0071
328.3296, 145.9091
328.8117, 145.7492
329.2938, 144.6994
329.7759, 141.5233
330.2580, 136.9039
330.7401, 134.0455
331.2223, 134.7646
331.7044, 134.9900
332.1865, 133.8709
332.6686, 132.2513
333.1507, 131.3464
333.6328, 131.4331
334.1150, 131.3400
334.5971, 128.9760
335.0792, 122.5740
335.5613, 118.7977
336.0434, 119.6806
336.5255, 121.0637
337.0077, 120.5584
337.4898, 118.5528
337.9719, 117.0257
338.4540, 117.7499
338.9361, 120.3906
339.4182, 121.9560
339.9004, 122.2658
340.3825, 121.6299
340.8646, 119.7084
341.3467, 117.1792
341.8288, 114.7255
342.3109, 112.4935
342.7931, 110.9013
343.2752, 110.9474
343.7573, 112.9517
344.2394, 114.2851
344.7215, 113.6237
345.2036, 112.6210
345.6858, 112.5930
346.1679, 113.5962
346.6500, 114.8866
347.1321, 116.5259
347.6142, 118.0898
348.0963, 118.2753
348.5785, 116.7176
349.0606, 114.4985
349.5427, 111.9967
350.0248, 109.4494
350.5069, 107.6647
350.9890, 106.8682
351.4712, 106.8133
351.9533, 107.6712
352.4354, 109.2412
352.9175, 110.5091
353.3996, 111.0084
353.8817, 110.9000
354.3639, 110.5562
354.8460, 110.0364
355.3281, 109.2442
355.8102, 107.6750
356.2923, 106.0391
356.7744, 105.4370
357.2566, 106.0310
357.7387, 106.7167
358.2208, 106.1460
358.7029, 103.9033
359.1850, 102.7602
359.6671, 103.7321
360.1493, 104.6278
360.6314, 104.1477
361.1135, 102.8320
361.5956, 102.1222
362.0777, 102.9657
362.5598, 104.6942
363.0420, 104.6808
363.5241, 100.5553
364.0062, 98.57468
364.4883, 100.4566
364.9704, 103.9017
365.4525, 107.5917
365.9347, 111.0014
366.4168, 113.3359
366.8989, 113.2765
367.3810, 110.6507
367.8631, 108.3581
368.3452, 105.3638
368.8274, 104.2406
369.3095, 106.9041
369.7916, 112.2649
370.2737, 117.8016
370.7558, 122.9640
371.2379, 127.1209
371.7201, 128.4745
372.2022, 126.6504
372.6843, 125.7010
373.1664, 128.2840
373.6485, 132.1245
374.1306, 133.9044
374.6128, 133.3654
375.0949, 131.3452
375.5770, 127.5860
376.0591, 122.7705
376.5412, 117.9577
377.0233, 113.2414
377.5055, 109.4976
377.9876, 107.8886
378.4697, 108.6986
378.9518, 109.0213
379.4339, 108.2026
379.9160, 107.4498
380.3982, 108.3936
380.8803, 110.0868
381.3624, 109.4061
381.8445, 104.3239
382.3266, 96.91461
382.8087, 93.45350
383.2909, 98.51540
383.7730, 101.7469
384.2551, 102.0755
384.7372, 101.0673
385.2193, 99.46199
385.7014, 97.68491
386.1836, 96.57239
386.6657, 97.35503
387.1478, 100.2126
387.6299, 101.3567
388.1120, 98.30503
388.5941, 96.42896
389.0763, 98.82499
389.5584, 103.1805
390.0405, 105.7197
390.5226, 104.6236
391.0047, 101.7184
391.4868, 99.86111
391.9690, 99.19213
392.4511, 98.22745
392.9332, 95.84223
393.4153, 93.73349
393.8974, 93.94723
394.3795, 96.45765
394.8617, 98.27948
395.3438, 96.62341
395.8259, 93.79910
396.3080, 94.23829
396.7901, 98.50146
397.2722, 102.6972
397.7544, 103.9405
398.2365, 102.7974
398.7186, 102.7004
399.2007, 104.5390
399.6828, 106.3989
400.1649, 107.8894
400.6471, 108.8336
401.1292, 108.8527
401.6113, 107.8159
402.0934, 106.1326
402.5755, 104.3638
403.0576, 102.4846
403.5398, 100.6115
404.0219, 98.47760
404.5040, 96.57507
404.9861, 95.15312
405.4682, 94.17003
405.9503, 93.46235
406.4325, 92.90868
406.9146, 92.58871
407.3967, 92.73997
407.8788, 93.15802
408.3609, 94.52020
408.8430, 98.33295
409.3252, 102.1679
409.8073, 104.0356
410.2894, 103.6668
410.7715, 102.3391
411.2536, 100.4597
411.7357, 98.35474
412.2179, 97.97203
412.7000, 99.94827
413.1821, 102.4251
413.6642, 104.9756
414.1463, 107.0557
414.6284, 107.1429
415.1106, 103.1499
415.5927, 99.30308
416.0748, 99.00068
416.5569, 101.4014
417.0390, 103.9405
417.5211, 105.7441
418.0033, 107.4030
418.4854, 110.0332
418.9675, 114.4368
419.4496, 116.8626
419.9317, 115.6527
420.4138, 113.6581
420.8960, 112.6012
421.3781, 112.4760
421.8602, 112.5999
422.3423, 112.5192
422.8244, 112.3733
423.3065, 112.7435
423.7887, 113.6029
424.2708, 115.0927
424.7529, 117.2120
425.2350, 119.9056
425.7171, 123.3418
426.1992, 127.4403
426.6814, 131.5804
427.1635, 135.5758
427.6456, 139.3372
428.1277, 141.2297
428.6098, 140.4198
429.0919, 139.3218
429.5741, 139.0103
430.0562, 139.2554
430.5383, 139.7414
431.0204, 140.3165
431.5025, 141.2865
431.9846, 143.3607
432.4668, 146.1190
432.9489, 147.6045
433.4310, 146.8086
433.9131, 146.4191
434.3952, 150.4404
434.8773, 159.5388
435.3595, 165.4106
435.8416, 163.3559
436.3237, 161.7751
436.8058, 167.2707
437.2879, 177.5247
437.7701, 185.8472
438.2522, 188.6658
438.7343, 188.4354
439.2164, 191.6693
439.6985, 202.9673
440.1806, 209.3710
440.6628, 205.9858
441.1449, 202.1114
441.6270, 204.3750
442.1091, 212.0956
442.5912, 220.0401
443.0733, 224.0158
443.5555, 225.2258
444.0376, 228.7561
444.5197, 235.9592
445.0018, 241.6776
445.4839, 241.4894
445.9660, 240.1482
446.4482, 242.9929
446.9303, 251.2470
447.4124, 259.0022
447.8945, 261.3172
448.3766, 260.8346
448.8587, 263.8119
449.3409, 271.3788
449.8230, 278.1667
450.3051, 279.3928
450.7872, 275.7654
451.2693, 274.9846
451.7514, 283.2371
452.2336, 286.9635
452.7157, 279.2771
453.1978, 265.2604
453.6799, 251.4068
454.1620, 239.7748
454.6441, 229.6064
455.1263, 220.0181
455.6084, 211.0895
456.0905, 202.3563
456.5726, 192.1761
457.0547, 184.0424
457.5368, 179.8041
458.0190, 178.1680
458.5011, 177.4867
458.9832, 177.3847
459.4653, 176.4324
459.9474, 171.4799
460.4295, 162.4497
460.9117, 156.0732
461.3938, 154.3384
461.8759, 154.7208
462.3580, 155.5848
462.8401, 156.7453
463.3222, 157.1160
463.8044, 155.4906
464.2865, 153.6693
464.7686, 153.8032
465.2507, 155.2885
465.7328, 155.4041
466.2149, 152.7350
466.6971, 148.9166
467.1792, 147.1803
467.6613, 148.6910
468.1434, 149.9695
468.6255, 150.9762
469.1076, 151.7933
469.5898, 152.7504
470.0719, 153.5756
470.5540, 153.2866
471.0361, 150.9913
471.5182, 147.9038
472.0003, 147.8615
472.4825, 152.1560
472.9646, 155.9767
473.4467, 157.4187
473.9288, 158.6999
474.4109, 162.1969
474.8930, 167.5272
475.3752, 170.7637
475.8573, 167.3438
476.3394, 161.3155
476.8215, 159.5617
477.3036, 162.2699
477.7857, 167.1268
478.2679, 173.7674
478.7500, 181.1831
479.2321, 186.9996
479.7142, 191.1240
480.1963, 194.1765
480.6784, 194.9069
481.1606, 195.5290
481.6427, 198.7721
482.1248, 204.2644
482.6069, 208.4655
483.0890, 208.0625
483.5711, 204.9138
484.0533, 210.0856
484.5354, 232.3301
485.0175, 248.4695
485.4996, 252.2191
485.9817, 251.4889
486.4638, 251.1497
486.9460, 252.3683
487.4281, 255.8591
487.9102, 263.8811
488.3923, 274.5300
488.8744, 281.3500
489.3565, 283.5004
489.8387, 286.2839
490.3208, 291.8175
490.8029, 300.0623
491.2850, 310.8872
491.7671, 325.7567
492.2492, 338.9965
492.7314, 347.7918
493.2135, 354.3579
493.6956, 360.4972
494.1777, 366.7030
494.6598, 374.0454
495.1419, 383.6059
495.6241, 394.8049
496.1062, 404.0673
496.5883, 408.8840
497.0704, 415.2211
497.5525, 424.2629
498.0346, 434.5938
498.5168, 444.9761
498.9989, 455.3082
499.4810, 466.3855
499.9631, 479.9263
500.4452, 494.7205
500.9273, 504.9876
501.4095, 509.2161
501.8916, 515.4476
502.3737, 528.2781
502.8558, 544.6405
503.3379, 560.3784
503.8200, 576.3364
504.3022, 587.4863
504.7843, 590.5842
505.2664, 588.6161
505.7485, 584.0021
506.2306, 577.3662
506.7127, 570.2435
507.1949, 563.8635
507.6770, 557.4523
508.1591, 547.6992
508.6412, 532.4218
509.1233, 516.7106
509.6054, 500.3949
510.0876, 484.1151
510.5697, 467.6704
511.0518, 451.5849
511.5339, 437.3528
512.0161, 425.3488
512.4982, 416.4234
512.9803, 414.3359
513.4624, 420.5283
513.9445, 424.5949
514.4266, 420.3156
514.9088, 414.4767
515.3909, 417.1903
515.8730, 429.3708
516.3551, 438.0576
516.8372, 434.3332
517.3193, 429.1065
517.8015, 433.1671
518.2836, 445.3611
518.7657, 458.6171
519.2478, 469.1960
519.7299, 478.3775
520.2120, 489.4525
520.6942, 505.5583
521.1763, 517.5099
521.6584, 519.8804
522.1405, 523.6277
522.6226, 538.1609
523.1047, 558.9814
523.5869, 573.7948
524.0690, 575.4529
524.5511, 569.6801
525.0332, 565.6183
525.5153, 563.2422
525.9974, 558.7058
526.4796, 551.5912
526.9617, 541.2149
527.4438, 525.6431
527.9259, 505.4738
528.4080, 485.4438
528.8901, 467.5916
529.3723, 448.6422
529.8544, 424.8497
530.3365, 398.8513
530.8186, 376.2437
531.3007, 358.7850
531.7828, 343.7646
532.2650, 327.4149
532.7471, 309.2910
533.2292, 292.2309
533.7113, 276.4829
534.1934, 261.4983
534.6755, 246.3577
535.1577, 232.1699
535.6398, 220.3071
536.1219, 211.1336
536.6040, 204.1510
537.0861, 200.2420
537.5682, 198.2073
538.0504, 193.8426
538.5325, 186.4279
539.0146, 178.5945
539.4967, 171.8528
539.9788, 166.3058
540.4609, 162.4714
540.9431, 161.1401
541.4252, 160.1747
541.9073, 160.3669
542.3894, 159.9504
542.8715, 156.4213
543.3536, 150.1539
543.8358, 144.1614
544.3179, 140.7344
544.8000, 139.6127
545.2821, 140.2831
545.7642, 144.4452
546.2463, 145.6966
546.7285, 139.0429
547.2106, 131.3638
547.6927, 128.3858
548.1748, 129.9251
548.6569, 131.1095
549.1390, 128.3353
549.6211, 125.2096
550.1032, 126.5896
550.5853, 131.4318
551.0674, 135.0064
551.5496, 135.4576
552.0317, 133.7220
552.5138, 131.1087
552.9959, 126.9499
553.4780, 124.1865
553.9601, 122.2238
554.4423, 122.0508
554.9244, 126.2116
555.4065, 131.7591
555.8886, 133.8132
556.3707, 130.5154
556.8528, 125.5892
557.3350, 122.9989
557.8171, 122.6599
558.2992, 124.2357
558.7813, 128.2872
559.2634, 132.4646
559.7455, 136.0145
560.2277, 138.3184
560.7098, 137.5900
561.1919, 130.5615
561.6740, 126.2061
562.1561, 130.3831
562.6382, 136.7577
563.1204, 138.1339
563.6025, 134.3679
564.0846, 130.1133
564.5667, 128.7365
565.0488, 129.5140
565.5309, 129.4472
566.0131, 127.8230
566.4952, 127.1521
566.9773, 127.4334
567.4594, 129.2299
567.9415, 134.9360
568.4236, 143.1089
568.9058, 147.4192
569.3879, 141.9947
569.8700, 134.4440
570.3521, 132.7406
570.8342, 135.4487
571.3163, 137.9223
571.7985, 138.7869
572.2806, 138.5837
572.7627, 137.8189
573.2448, 136.3772
573.7269, 135.4482
574.2090, 135.4303
574.6912, 135.4103
575.1733, 134.1702
575.6554, 133.3288
576.1375, 135.2918
576.6196, 140.3376
577.1017, 145.4519
577.5839, 148.4496
578.0660, 149.3303
578.5481, 147.0021
579.0302, 140.8479
579.5123, 136.9947
579.9944, 138.8786
580.4766, 144.1365
580.9587, 148.4080
581.4408, 151.5670
581.9229, 154.5765
582.4050, 158.4147
582.8871, 161.3425
583.3693, 161.4822
583.8514, 159.8708
584.3335, 158.4785
584.8156, 158.1970
585.2977, 159.5054
585.7798, 164.3201
586.2620, 173.2631
586.7441, 177.8821
587.2262, 175.5154
587.7083, 172.5661
588.1904, 172.7515
588.6725, 174.7367
589.1547, 176.4455
589.6368, 177.4962
590.1189, 178.5610
590.6010, 179.4730
591.0831, 180.8511
591.5652, 184.1819
592.0474, 189.0853
592.5295, 192.5598
593.0116, 192.1756
593.4937, 190.2103
593.9758, 194.6734
594.4579, 210.9726
594.9401, 220.7752
595.4222, 216.0845
595.9043, 210.3611
596.3864, 210.8018
596.8685, 215.5317
597.3506, 218.9513
597.8328, 218.4441
598.3149, 217.0584
598.7970, 217.6728
599.2791, 219.5489
599.7612, 220.6034
600.2433, 220.4354
600.7255, 220.5639
601.2076, 222.6465
601.6897, 226.1533
602.1718, 226.7259
602.6539, 221.3177
603.1360, 217.0611
603.6182, 215.1784
604.1003, 214.0727
604.5824, 212.6766
605.0645, 210.9191
605.5466, 209.1896
606.0287, 207.7792
606.5109, 206.4118
606.9930, 204.1134
607.4751, 201.1774
607.9572, 200.4939
608.4393, 203.4106
608.9214, 206.1952
609.4036, 204.6718
609.8857, 198.8147
610.3678, 195.2257
610.8499, 194.6200
611.3320, 195.1424
611.8141, 197.7580
612.2963, 200.4283
612.7784, 200.9572
613.2605, 199.2664
613.7426, 196.8159
614.2247, 193.9994
614.7068, 191.7890
615.1890, 193.7349
615.6711, 200.1369
616.1532, 203.4730
616.6353, 200.1795
617.1174, 195.5644
617.5995, 195.9621
618.0817, 201.5011
618.5638, 205.6055
619.0459, 207.3595
619.5280, 208.4084
620.0101, 208.3069
620.4922, 208.3905
620.9744, 210.8593
621.4565, 215.7494
621.9386, 220.4026
622.4207, 222.1896
622.9028, 221.9332
