##NAMES=Rossmanite
##RRUFFID=R070680
##IDEAL CHEMISTRY=[box](LiAl_2_)Al_6_(Si_6_O_18_)(BO_3_)_3_(OH)_3_OH
##LOCALITY=Rožná pegmatite, Žďár nad Sázavou, Vysočina Region, Moravia (Mähren; Maehren), Czech Republic
##OWNER=RRUFF
##SOURCE=Michael Scott
##DESCRIPTION=Light pink striated prismatic crystals associated with quartz
##STATUS=The identification of this mineral has been made only by X-ray diffraction.
##URL=rruff.info/R070680
161.4301, 1518.363
161.9123, 1523.031
162.3944, 1538.193
162.8765, 1556.683
163.3586, 1559.381
163.8407, 1531.080
164.3228, 1508.013
164.8050, 1499.127
165.2871, 1499.176
165.7692, 1498.227
166.2513, 1490.746
166.7334, 1479.483
167.2155, 1475.123
167.6977, 1476.879
168.1798, 1484.750
168.6619, 1503.557
169.1440, 1530.833
169.6261, 1553.982
170.1082, 1565.201
170.5904, 1565.187
171.0725, 1561.017
171.5546, 1546.839
172.0367, 1532.334
172.5188, 1527.418
173.0009, 1532.991
173.4831, 1541.378
173.9652, 1548.562
174.4473, 1554.741
174.9294, 1560.132
175.4115, 1565.906
175.8936, 1570.738
176.3758, 1571.409
176.8579, 1566.208
177.3400, 1560.258
177.8221, 1556.341
178.3042, 1554.102
178.7863, 1552.817
179.2685, 1552.759
179.7506, 1553.611
180.2327, 1553.455
180.7148, 1552.828
181.1969, 1550.213
181.6790, 1543.485
182.1612, 1533.794
182.6433, 1525.023
183.1254, 1521.777
183.6075, 1525.016
184.0896, 1524.333
184.5717, 1513.523
185.0539, 1503.054
185.5360, 1496.846
186.0181, 1495.346
186.5002, 1497.135
186.9823, 1500.457
187.4645, 1504.725
187.9466, 1512.514
188.4287, 1529.691
188.9108, 1546.005
189.3929, 1553.399
189.8750, 1550.801
190.3572, 1544.712
190.8393, 1545.882
191.3214, 1559.474
191.8035, 1572.158
192.2856, 1584.556
192.7677, 1595.501
193.2499, 1602.356
193.7320, 1604.424
194.2141, 1605.651
194.6962, 1615.039
195.1783, 1645.073
195.6604, 1669.157
196.1426, 1684.553
196.6247, 1694.487
197.1068, 1701.847
197.5889, 1707.732
198.0710, 1713.326
198.5531, 1722.879
199.0353, 1743.169
199.5174, 1759.354
199.9995, 1764.142
200.4816, 1763.284
200.9637, 1766.701
201.4458, 1779.501
201.9280, 1800.756
202.4101, 1826.829
202.8922, 1860.926
203.3743, 1895.176
203.8564, 1927.075
204.3385, 1956.879
204.8207, 1983.667
205.3028, 2004.076
205.7849, 2022.333
206.2670, 2057.105
206.7491, 2116.375
207.2312, 2183.438
207.7134, 2253.681
208.1955, 2325.665
208.6776, 2390.518
209.1597, 2436.063
209.6418, 2469.193
210.1239, 2520.495
210.6061, 2601.142
211.0882, 2693.967
211.5703, 2785.552
212.0524, 2875.555
212.5345, 2966.789
213.0166, 3059.797
213.4988, 3155.778
213.9809, 3255.353
214.4630, 3362.504
214.9451, 3472.173
215.4272, 3574.046
215.9093, 3664.839
216.3915, 3762.763
216.8736, 3892.492
217.3557, 4039.309
217.8378, 4174.325
218.3199, 4275.973
218.8020, 4362.227
219.2842, 4469.892
219.7663, 4608.602
220.2484, 4746.221
220.7305, 4864.127
221.2126, 4966.058
221.6947, 5058.315
222.1769, 5149.400
222.6590, 5233.225
223.1411, 5289.866
223.6232, 5313.918
224.1053, 5316.797
224.5874, 5307.987
225.0696, 5286.863
225.5517, 5251.036
226.0338, 5201.029
226.5159, 5135.950
226.9980, 5048.046
227.4801, 4918.799
227.9623, 4789.251
228.4444, 4684.478
228.9265, 4597.115
229.4086, 4506.242
229.8907, 4394.386
230.3729, 4262.866
230.8550, 4138.961
231.3371, 4022.205
231.8192, 3915.618
232.3013, 3823.381
232.7834, 3742.317
233.2656, 3664.849
233.7477, 3582.683
234.2298, 3495.297
234.7119, 3419.749
235.1940, 3356.740
235.6761, 3306.888
236.1583, 3277.210
236.6404, 3263.006
237.1225, 3250.711
237.6046, 3226.398
238.0867, 3187.790
238.5688, 3158.972
239.0510, 3149.547
239.5331, 3142.394
240.0152, 3130.040
240.4973, 3113.707
240.9794, 3100.281
241.4615, 3098.550
241.9437, 3112.295
242.4258, 3114.653
242.9079, 3092.896
243.3900, 3070.737
243.8721, 3055.666
244.3542, 3048.989
244.8364, 3049.982
245.3185, 3060.413
245.8006, 3084.683
246.2827, 3096.235
246.7648, 3084.843
247.2469, 3070.430
247.7291, 3061.919
248.2112, 3059.308
248.6933, 3057.244
249.1754, 3049.903
249.6575, 3035.698
250.1396, 3022.960
250.6218, 3014.929
251.1039, 3005.575
251.5860, 2990.718
252.0681, 2971.091
252.5502, 2951.055
253.0323, 2936.080
253.5145, 2929.107
253.9966, 2914.654
254.4787, 2888.192
254.9608, 2859.509
255.4429, 2829.738
255.9250, 2801.173
256.4072, 2779.060
256.8893, 2769.946
257.3714, 2778.039
257.8535, 2781.678
258.3356, 2775.822
258.8177, 2770.681
259.2999, 2771.640
259.7820, 2778.770
260.2641, 2788.582
260.7462, 2796.782
261.2283, 2800.701
261.7104, 2815.964
262.1926, 2858.058
262.6747, 2896.115
263.1568, 2907.551
263.6389, 2895.869
264.1210, 2884.229
264.6031, 2897.507
265.0853, 2944.155
265.5674, 2972.648
266.0495, 2972.828
266.5316, 2967.555
267.0137, 2970.645
267.4958, 2980.732
267.9780, 2985.564
268.4601, 2971.282
268.9422, 2931.588
269.4243, 2912.860
269.9064, 2933.935
270.3885, 2954.747
270.8707, 2955.058
271.3528, 2935.789
271.8349, 2909.516
272.3170, 2887.144
272.7991, 2869.427
273.2813, 2848.947
273.7634, 2828.571
274.2455, 2803.478
274.7276, 2770.356
275.2097, 2730.223
275.6918, 2686.768
276.1740, 2643.987
276.6561, 2602.305
277.1382, 2549.800
277.6203, 2478.519
278.1024, 2406.538
278.5845, 2337.965
279.0667, 2274.426
279.5488, 2218.952
280.0309, 2174.700
280.5130, 2141.744
280.9951, 2106.000
281.4772, 2068.428
281.9594, 2027.755
282.4415, 1980.185
282.9236, 1928.827
283.4057, 1881.113
283.8878, 1842.560
284.3699, 1812.735
284.8521, 1781.222
285.3342, 1740.134
285.8163, 1705.962
286.2984, 1688.426
286.7805, 1681.695
287.2626, 1673.904
287.7448, 1657.528
288.2269, 1633.569
288.7090, 1609.645
289.1911, 1582.546
289.6732, 1559.045
290.1554, 1542.829
290.6375, 1531.252
291.1196, 1519.338
291.6017, 1504.040
292.0838, 1487.031
292.5659, 1476.868
293.0481, 1483.585
293.5302, 1485.513
294.0123, 1474.559
294.4944, 1457.822
294.9765, 1444.915
295.4586, 1440.347
295.9408, 1443.076
296.4229, 1449.742
296.9050, 1469.068
297.3871, 1482.092
297.8692, 1484.519
298.3513, 1480.935
298.8335, 1476.152
299.3156, 1472.131
299.7977, 1468.757
300.2798, 1465.664
300.7619, 1460.095
301.2440, 1458.713
301.7262, 1461.734
302.2083, 1468.814
302.6904, 1481.317
303.1725, 1499.216
303.6546, 1518.704
304.1367, 1532.529
304.6189, 1537.372
305.1010, 1541.296
305.5831, 1542.520
306.0652, 1544.012
306.5473, 1548.463
307.0294, 1556.319
307.5116, 1565.635
307.9937, 1573.112
308.4758, 1575.281
308.9579, 1584.452
309.4400, 1604.821
309.9221, 1627.720
310.4043, 1646.770
310.8864, 1661.778
311.3685, 1678.143
311.8506, 1703.714
312.3327, 1743.993
312.8148, 1770.525
313.2970, 1781.205
313.7791, 1782.059
314.2612, 1770.368
314.7433, 1749.884
315.2254, 1730.663
315.7076, 1723.460
316.1897, 1730.242
316.6718, 1726.492
317.1539, 1697.293
317.6360, 1671.899
318.1181, 1666.000
318.6003, 1672.174
319.0824, 1671.544
319.5645, 1648.279
320.0466, 1604.471
320.5287, 1574.001
321.0108, 1566.592
321.4930, 1563.409
321.9751, 1561.224
322.4572, 1560.142
322.9393, 1562.057
323.4214, 1569.151
323.9035, 1578.285
324.3857, 1575.324
324.8678, 1546.564
325.3499, 1526.200
325.8320, 1523.977
326.3141, 1532.316
326.7962, 1544.127
327.2784, 1556.868
327.7605, 1568.183
328.2426, 1572.354
328.7247, 1565.629
329.2068, 1559.704
329.6889, 1555.649
330.1711, 1553.880
330.6532, 1555.845
331.1353, 1561.977
331.6174, 1568.920
332.0995, 1571.741
332.5816, 1569.544
333.0638, 1567.012
333.5459, 1563.459
334.0280, 1560.842
334.5101, 1561.112
334.9922, 1564.327
335.4743, 1567.812
335.9565, 1567.453
336.4386, 1562.975
336.9207, 1564.082
337.4028, 1579.283
337.8849, 1593.005
338.3670, 1594.999
338.8492, 1586.333
339.3313, 1575.524
339.8134, 1566.549
340.2955, 1559.858
340.7776, 1557.416
341.2597, 1557.646
341.7419, 1565.499
342.2240, 1589.620
342.7061, 1623.686
343.1882, 1650.641
343.6703, 1659.544
344.1524, 1656.639
344.6346, 1652.790
345.1167, 1645.567
345.5988, 1645.418
346.0809, 1667.299
346.5630, 1699.912
347.0451, 1725.279
347.5273, 1736.462
348.0094, 1740.807
348.4915, 1742.414
348.9736, 1741.016
349.4557, 1749.240
349.9378, 1777.162
350.4200, 1817.752
350.9021, 1857.484
351.3842, 1899.553
351.8663, 1933.926
352.3484, 1947.051
352.8305, 1944.494
353.3127, 1950.478
353.7948, 1975.780
354.2769, 2011.552
354.7590, 2040.199
355.2411, 2056.830
355.7232, 2082.942
356.2054, 2133.167
356.6875, 2196.442
357.1696, 2252.759
357.6517, 2296.573
358.1338, 2336.601
358.6159, 2384.122
359.0981, 2439.544
359.5802, 2500.373
360.0623, 2571.394
360.5444, 2645.353
361.0265, 2714.228
361.5086, 2777.643
361.9908, 2840.806
362.4729, 2907.418
362.9550, 2978.075
363.4371, 3057.490
363.9192, 3140.401
364.4013, 3235.747
364.8835, 3360.974
365.3656, 3504.770
365.8477, 3634.563
366.3298, 3726.477
366.8119, 3784.930
367.2940, 3849.297
367.7762, 3913.941
368.2583, 3990.480
368.7404, 4089.848
369.2225, 4200.519
369.7046, 4306.220
370.1867, 4398.812
370.6689, 4483.304
371.1510, 4572.013
371.6331, 4682.033
372.1152, 4768.504
372.5974, 4822.629
373.0795, 4858.257
373.5616, 4887.984
374.0437, 4914.198
374.5258, 4927.453
375.0079, 4913.681
375.4901, 4866.788
375.9722, 4810.867
376.4543, 4750.243
376.9364, 4677.386
377.4185, 4585.563
377.9006, 4477.204
378.3828, 4360.550
378.8649, 4241.833
379.3470, 4121.133
379.8291, 3999.377
380.3112, 3872.249
380.7933, 3750.157
381.2755, 3634.420
381.7576, 3526.287
382.2397, 3428.557
382.7218, 3345.031
383.2039, 3270.063
383.6860, 3188.191
384.1682, 3093.265
384.6503, 3009.318
385.1324, 2957.261
385.6145, 2915.785
386.0966, 2862.140
386.5787, 2787.702
387.0609, 2713.337
387.5430, 2660.545
388.0251, 2628.348
388.5072, 2597.870
388.9893, 2564.256
389.4714, 2530.309
389.9536, 2498.037
390.4357, 2467.106
390.9178, 2441.695
391.3999, 2431.859
391.8820, 2427.506
392.3641, 2403.091
392.8463, 2349.730
393.3284, 2299.200
393.8105, 2289.235
394.2926, 2316.284
394.7747, 2329.411
395.2568, 2312.364
395.7390, 2286.202
396.2211, 2267.592
396.7032, 2256.565
397.1853, 2245.579
397.6674, 2229.379
398.1495, 2209.088
398.6317, 2192.710
399.1138, 2177.612
399.5959, 2168.554
400.0780, 2173.730
400.5601, 2184.715
401.0422, 2187.194
401.5244, 2175.181
402.0065, 2153.605
402.4886, 2132.645
402.9707, 2112.568
403.4528, 2092.635
403.9349, 2069.649
404.4171, 2048.923
404.8992, 2035.878
405.3813, 2030.571
405.8634, 2028.078
406.3455, 2023.976
406.8276, 2019.183
407.3098, 2006.866
407.7919, 1978.713
408.2740, 1951.175
408.7561, 1931.189
409.2382, 1916.349
409.7203, 1901.015
410.2025, 1881.786
410.6846, 1859.218
411.1667, 1835.346
411.6488, 1809.822
412.1309, 1783.735
412.6130, 1753.521
413.0952, 1724.743
413.5773, 1706.612
414.0594, 1703.448
414.5415, 1698.868
415.0236, 1667.491
415.5057, 1607.942
415.9879, 1560.873
416.4700, 1541.417
416.9521, 1531.979
417.4342, 1518.607
417.9163, 1501.048
418.3984, 1479.704
418.8806, 1452.301
419.3627, 1421.801
419.8448, 1395.081
420.3269, 1373.562
420.8090, 1352.673
421.2911, 1327.452
421.7733, 1299.612
422.2554, 1276.401
422.7375, 1260.884
423.2196, 1248.514
423.7017, 1235.576
424.1838, 1222.749
424.6660, 1213.214
425.1481, 1209.060
425.6302, 1208.556
426.1123, 1206.820
426.5944, 1206.273
427.0765, 1201.075
427.5587, 1184.542
428.0408, 1165.427
428.5229, 1154.774
429.0050, 1154.949
429.4871, 1158.745
429.9692, 1156.504
430.4514, 1144.586
430.9335, 1140.061
431.4156, 1153.418
431.8977, 1162.923
432.3798, 1152.823
432.8619, 1129.558
433.3441, 1111.250
433.8262, 1111.283
434.3083, 1126.037
434.7904, 1136.852
435.2725, 1144.918
435.7546, 1146.313
436.2368, 1132.135
436.7189, 1115.688
437.2010, 1112.187
437.6831, 1126.720
438.1652, 1147.334
438.6473, 1159.287
439.1295, 1162.239
439.6116, 1162.382
440.0937, 1160.431
440.5758, 1155.905
441.0579, 1144.421
441.5400, 1128.029
442.0222, 1120.587
442.5043, 1137.879
442.9864, 1166.579
443.4685, 1179.284
443.9506, 1172.611
444.4327, 1164.271
444.9149, 1167.068
445.3970, 1177.104
445.8791, 1180.908
446.3612, 1172.877
446.8433, 1163.888
447.3254, 1159.229
447.8076, 1158.233
448.2897, 1160.480
448.7718, 1166.612
449.2539, 1172.569
449.7360, 1170.402
450.2181, 1153.843
450.7003, 1142.605
451.1824, 1143.751
451.6645, 1146.030
452.1466, 1139.268
452.6287, 1123.767
453.1108, 1107.295
453.5930, 1096.271
454.0751, 1090.725
454.5572, 1088.261
455.0393, 1096.993
455.5215, 1099.921
456.0036, 1088.307
456.4857, 1070.407
456.9678, 1057.693
457.4499, 1055.078
457.9320, 1057.703
458.4142, 1057.509
458.8963, 1054.287
459.3784, 1048.950
459.8605, 1037.619
460.3426, 1027.362
460.8247, 1025.162
461.3069, 1029.972
461.7890, 1031.065
462.2711, 1015.098
462.7532, 990.4224
463.2353, 981.9114
463.7174, 994.0414
464.1996, 1009.686
464.6817, 1021.871
465.1638, 1028.861
465.6459, 1025.861
466.1280, 1003.045
466.6101, 981.0623
467.0923, 972.3138
467.5744, 974.8116
468.0565, 985.7873
468.5386, 1006.227
469.0207, 1027.272
469.5028, 1033.228
469.9850, 1017.067
470.4671, 1003.370
470.9492, 993.0928
471.4313, 985.5888
471.9134, 981.4962
472.3955, 980.1026
472.8777, 978.8153
473.3598, 975.2546
473.8419, 969.9122
474.3240, 968.6422
474.8061, 974.7231
475.2882, 981.2034
475.7704, 988.7009
476.2525, 995.1788
476.7346, 997.6968
477.2167, 995.3088
477.6988, 991.8708
478.1809, 992.6484
478.6631, 997.9766
479.1452, 1004.210
479.6273, 1012.475
480.1094, 1019.855
480.5915, 1022.628
481.0736, 1022.473
481.5558, 1025.765
482.0379, 1041.536
482.5200, 1059.875
483.0021, 1061.909
483.4842, 1047.046
483.9663, 1037.346
484.4485, 1047.745
484.9306, 1068.577
485.4127, 1074.850
485.8948, 1057.614
486.3769, 1044.851
486.8590, 1051.173
487.3412, 1065.637
487.8233, 1072.680
488.3054, 1069.025
488.7875, 1061.669
489.2696, 1057.469
489.7517, 1056.114
490.2339, 1060.610
490.7160, 1075.283
491.1981, 1090.180
491.6802, 1101.558
492.1623, 1110.452
492.6444, 1119.154
493.1266, 1128.713
493.6087, 1138.756
494.0908, 1148.637
494.5729, 1158.777
495.0550, 1167.637
495.5371, 1171.612
496.0193, 1176.839
496.5014, 1189.929
496.9835, 1209.428
497.4656, 1224.846
497.9477, 1225.529
498.4298, 1216.990
498.9120, 1214.646
499.3941, 1219.855
499.8762, 1225.988
500.3583, 1226.651
500.8404, 1226.577
501.3225, 1237.099
501.8047, 1267.884
502.2868, 1293.859
502.7689, 1297.954
503.2510, 1289.671
503.7331, 1286.608
504.2152, 1293.473
504.6974, 1305.637
505.1795, 1318.780
505.6616, 1334.588
506.1437, 1342.016
506.6258, 1329.898
507.1079, 1321.472
507.5901, 1329.111
508.0722, 1348.286
508.5543, 1369.876
509.0364, 1389.467
509.5185, 1405.876
510.0006, 1414.541
510.4828, 1409.474
510.9649, 1412.166
511.4470, 1431.183
511.9291, 1454.443
512.4113, 1476.011
512.8934, 1495.112
513.3755, 1512.367
513.8576, 1530.061
514.3397, 1545.991
514.8218, 1552.037
515.3040, 1545.633
515.7861, 1542.639
516.2682, 1554.617
516.7503, 1575.145
517.2324, 1587.979
517.7145, 1586.411
518.1967, 1589.041
518.6788, 1609.654
519.1609, 1637.934
519.6430, 1657.748
520.1251, 1665.495
520.6072, 1666.327
521.0894, 1664.883
521.5715, 1660.496
522.0536, 1659.490
522.5357, 1673.558
523.0178, 1677.896
523.4999, 1658.060
523.9821, 1624.520
524.4642, 1593.300
524.9463, 1571.466
525.4284, 1554.826
525.9105, 1536.977
526.3926, 1517.995
526.8748, 1496.838
527.3569, 1466.890
527.8390, 1441.358
528.3211, 1431.649
528.8032, 1433.806
529.2853, 1432.128
529.7675, 1413.850
530.2496, 1390.521
530.7317, 1381.480
531.2138, 1386.028
531.6959, 1384.525
532.1780, 1364.273
532.6602, 1337.171
533.1423, 1330.569
533.6244, 1351.785
534.1065, 1367.424
534.5886, 1369.988
535.0707, 1365.082
535.5529, 1353.571
536.0350, 1338.258
536.5171, 1329.513
536.9992, 1336.860
537.4813, 1357.389
537.9634, 1365.845
538.4456, 1347.411
538.9277, 1337.440
539.4098, 1347.644
539.8919, 1364.289
540.3740, 1375.941
540.8561, 1379.748
541.3383, 1377.253
541.8204, 1365.885
542.3025, 1347.729
542.7846, 1340.135
543.2667, 1349.237
543.7488, 1355.985
544.2310, 1343.187
544.7131, 1320.133
545.1952, 1305.864
545.6773, 1309.820
546.1594, 1312.734
546.6415, 1302.947
547.1237, 1284.060
547.6058, 1260.790
548.0879, 1234.044
548.5700, 1212.114
549.0521, 1206.086
549.5342, 1219.980
550.0164, 1225.204
550.4985, 1217.235
550.9806, 1206.987
551.4627, 1198.819
551.9448, 1191.014
552.4269, 1179.358
552.9091, 1161.981
553.3912, 1143.654
553.8733, 1133.524
554.3554, 1133.337
554.8375, 1128.268
555.3196, 1112.626
555.8018, 1096.304
556.2839, 1085.764
556.7660, 1079.843
557.2481, 1074.425
557.7302, 1068.050
558.2123, 1061.473
558.6945, 1056.229
559.1766, 1051.719
559.6587, 1043.978
560.1408, 1030.407
560.6229, 1016.349
561.1050, 1011.180
561.5872, 1019.498
562.0693, 1024.223
562.5514, 1025.211
563.0335, 1022.559
563.5156, 1012.214
563.9977, 998.3121
564.4799, 991.0357
564.9620, 996.9622
565.4441, 1009.787
565.9262, 1013.492
566.4083, 1004.858
566.8904, 996.7587
567.3726, 991.3591
567.8547, 986.9766
568.3368, 984.3442
568.8189, 982.4727
569.3010, 976.7852
569.7831, 957.3615
570.2653, 936.7509
570.7474, 937.0351
571.2295, 956.7186
571.7116, 972.2368
572.1937, 972.1918
572.6758, 963.7878
573.1580, 961.6576
573.6401, 968.9173
574.1222, 973.7037
574.6043, 976.6727
575.0864, 975.4139
575.5685, 962.7590
576.0507, 943.4520
576.5328, 933.1121
577.0149, 943.1968
577.4970, 965.8010
577.9791, 974.1006
578.4612, 959.8549
578.9434, 951.6617
579.4255, 963.5268
579.9076, 976.4401
580.3897, 976.8583
580.8718, 965.3915
581.3539, 953.6575
581.8361, 945.2238
582.3182, 941.7942
582.8003, 950.9765
583.2824, 971.7298
583.7645, 982.2767
584.2466, 968.9786
584.7288, 944.3197
585.2109, 936.3853
585.6930, 954.5535
586.1751, 965.7719
586.6572, 965.3807
587.1393, 958.6318
587.6215, 944.8755
588.1036, 927.7784
588.5857, 916.6088
589.0678, 917.9601
589.5499, 927.2145
590.0320, 929.9711
590.5142, 923.0916
590.9963, 918.9821
591.4784, 925.8365
591.9605, 931.4747
592.4426, 925.8788
592.9247, 910.2297
593.4069, 895.6428
593.8890, 884.3786
594.3711, 878.6829
594.8532, 886.3961
595.3353, 904.8922
595.8174, 914.1982
596.2996, 904.1227
596.7817, 884.3280
597.2638, 872.8687
597.7459, 872.5295
598.2280, 875.2016
598.7101, 886.0367
599.1923, 895.1749
599.6744, 895.0767
600.1565, 888.5236
600.6386, 883.7619
601.1207, 885.9227
601.6028, 889.3072
602.0850, 878.5802
602.5671, 849.1694
603.0492, 835.5323
603.5313, 856.1290
604.0134, 879.4757
604.4955, 877.3241
604.9777, 855.5167
605.4598, 840.9001
605.9419, 846.8259
606.4240, 858.4051
606.9061, 865.3431
607.3882, 868.2401
607.8704, 868.9714
608.3525, 868.1592
608.8346, 865.7512
609.3167, 861.2541
609.7988, 853.3383
610.2809, 848.8842
610.7631, 851.5524
611.2452, 853.4257
611.7273, 850.1969
612.2094, 844.8201
612.6915, 841.7198
613.1736, 842.4863
613.6558, 846.4052
614.1379, 854.9484
614.6200, 867.0654
615.1021, 872.2543
615.5842, 866.5302
616.0663, 861.1365
616.5485, 866.5006
617.0306, 879.4498
617.5127, 886.2352
617.9948, 880.6288
618.4769, 875.4805
618.9590, 874.2912
619.4412, 876.8655
619.9233, 885.6394
620.4054, 899.7310
620.8875, 910.6024
621.3696, 908.4562
621.8517, 894.5624
622.3339, 891.1407
622.8160, 907.4854
623.2981, 918.7504
623.7802, 910.2228
624.2623, 899.1365
624.7444, 903.8509
625.2266, 926.8889
625.7087, 949.5541
626.1908, 958.4691
626.6729, 960.3052
627.1550, 966.1034
627.6371, 976.3510
628.1193, 986.7963
628.6014, 994.6658
629.0835, 1001.971
629.5656, 1013.811
630.0477, 1033.721
630.5298, 1052.648
631.0120, 1068.768
631.4941, 1085.569
631.9762, 1107.818
632.4583, 1132.764
632.9404, 1152.846
633.4225, 1163.490
633.9047, 1167.872
634.3868, 1169.211
634.8689, 1166.860
635.3510, 1174.359
635.8331, 1198.974
636.3152, 1227.539
636.7974, 1247.766
637.2795, 1261.161
637.7616, 1274.665
638.2437, 1289.196
638.7258, 1304.255
639.2079, 1318.275
639.6901, 1333.074
640.1722, 1354.683
640.6543, 1384.080
641.1364, 1409.918
641.6185, 1417.198
642.1006, 1404.956
642.5828, 1399.444
643.0649, 1401.859
643.5470, 1409.563
644.0291, 1426.841
644.5112, 1445.744
644.9933, 1458.866
645.4755, 1465.172
645.9576, 1461.874
646.4397, 1439.296
646.9218, 1409.138
647.4039, 1391.815
647.8860, 1388.010
648.3682, 1387.752
648.8503, 1386.572
649.3324, 1382.920
649.8145, 1372.348
650.2966, 1351.009
650.7787, 1328.788
651.2609, 1303.541
651.7430, 1279.611
652.2251, 1260.481
652.7072, 1244.790
653.1893, 1228.052
653.6714, 1207.234
654.1536, 1186.448
654.6357, 1174.306
655.1178, 1169.711
655.5999, 1157.799
656.0820, 1133.290
656.5641, 1106.737
657.0463, 1087.024
