##NAMES=Rossmanite
##RRUFFID=R070680
##IDEAL CHEMISTRY=[box](LiAl_2_)Al_6_(Si_6_O_18_)(BO_3_)_3_(OH)_3_OH
##LOCALITY=Rožná pegmatite, Žďár nad Sázavou, Vysočina Region, Moravia (Mähren; Maehren), Czech Republic
##OWNER=RRUFF
##SOURCE=Michael Scott
##DESCRIPTION=Light pink striated prismatic crystals associated with quartz
##STATUS=The identification of this mineral has been made only by X-ray diffraction.
##URL=rruff.info/R070680
126.7928, 3380.091
127.2749, 3402.574
127.7571, 3433.601
128.2392, 3479.434
128.7213, 3533.133
129.2034, 3581.743
129.6855, 3623.044
130.1676, 3645.958
130.6498, 3646.856
131.1319, 3638.348
131.6140, 3629.464
132.0961, 3624.164
132.5782, 3622.490
133.0603, 3626.557
133.5425, 3639.070
134.0246, 3655.365
134.5067, 3662.819
134.9888, 3660.870
135.4709, 3654.574
135.9530, 3642.095
136.4352, 3622.227
136.9173, 3621.033
137.3994, 3653.171
137.8815, 3715.985
138.3636, 3757.338
138.8457, 3774.470
139.3279, 3776.374
139.8100, 3774.544
140.2921, 3768.157
140.7742, 3760.899
141.2563, 3754.869
141.7384, 3751.760
142.2206, 3743.102
142.7027, 3726.160
143.1848, 3704.566
143.6669, 3687.364
144.1490, 3673.959
144.6311, 3665.780
145.1133, 3664.915
145.5954, 3678.353
146.0775, 3685.600
146.5596, 3682.032
147.0417, 3668.130
147.5238, 3660.551
148.0060, 3663.040
148.4881, 3669.213
148.9702, 3673.611
149.4523, 3681.312
149.9344, 3681.585
150.4165, 3667.515
150.8987, 3627.729
151.3808, 3610.459
151.8629, 3638.398
152.3450, 3683.751
152.8271, 3704.864
153.3092, 3674.626
153.7914, 3641.188
154.2735, 3620.434
154.7556, 3621.366
155.2377, 3621.908
155.7198, 3622.609
156.2019, 3621.691
156.6841, 3613.679
157.1662, 3589.256
157.6483, 3562.739
158.1304, 3542.488
158.6125, 3537.334
159.0946, 3531.474
159.5768, 3518.427
160.0589, 3499.035
160.5410, 3485.420
161.0231, 3478.468
161.5052, 3479.969
161.9873, 3491.569
162.4695, 3528.980
162.9516, 3564.422
163.4337, 3584.085
163.9158, 3585.998
164.3979, 3582.298
164.8800, 3568.893
165.3622, 3554.378
165.8443, 3552.653
166.3264, 3583.110
166.8085, 3620.333
167.2906, 3646.002
167.7727, 3654.242
168.2549, 3657.882
168.7370, 3663.401
169.2191, 3670.414
169.7012, 3677.783
170.1833, 3682.474
170.6654, 3688.058
171.1476, 3699.352
171.6297, 3724.946
172.1118, 3748.017
172.5939, 3752.758
173.0760, 3740.585
173.5581, 3723.293
174.0403, 3699.544
174.5224, 3677.250
175.0045, 3669.318
175.4866, 3690.227
175.9687, 3723.392
176.4508, 3751.081
176.9330, 3773.256
177.4151, 3791.741
177.8972, 3811.585
178.3793, 3829.899
178.8614, 3838.566
179.3435, 3827.619
179.8257, 3805.970
180.3078, 3787.474
180.7899, 3771.882
181.2720, 3762.915
181.7541, 3771.109
182.2362, 3792.994
182.7184, 3809.192
183.2005, 3802.220
183.6826, 3780.435
184.1647, 3765.822
184.6468, 3761.529
185.1289, 3766.168
185.6111, 3780.713
186.0932, 3804.978
186.5753, 3830.032
187.0574, 3849.374
187.5395, 3863.787
188.0216, 3877.911
188.5037, 3892.783
188.9859, 3907.685
189.4680, 3920.414
189.9501, 3930.617
190.4322, 3940.784
190.9143, 3952.289
191.3964, 3965.155
191.8786, 3981.290
192.3607, 4001.212
192.8428, 4024.575
193.3249, 4051.543
193.8070, 4083.077
194.2891, 4114.450
194.7713, 4137.468
195.2534, 4152.015
195.7355, 4169.482
196.2176, 4197.318
196.6997, 4234.563
197.1818, 4265.334
197.6640, 4286.631
198.1461, 4306.261
198.6282, 4336.941
199.1103, 4378.858
199.5924, 4430.185
200.0745, 4494.171
200.5567, 4570.835
201.0388, 4643.546
201.5209, 4710.729
202.0030, 4773.235
202.4851, 4829.733
202.9672, 4876.104
203.4494, 4930.898
203.9315, 5009.514
204.4136, 5115.623
204.8957, 5221.718
205.3778, 5323.128
205.8599, 5422.231
206.3421, 5531.820
206.8242, 5654.385
207.3063, 5781.831
207.7884, 5903.588
208.2705, 6014.761
208.7526, 6144.308
209.2348, 6303.998
209.7169, 6492.185
210.1990, 6672.795
210.6811, 6847.439
211.1632, 7012.570
211.6453, 7163.324
212.1275, 7293.714
212.6096, 7428.878
213.0917, 7577.275
213.5738, 7738.218
214.0559, 7905.688
214.5380, 8085.538
215.0202, 8265.755
215.5023, 8426.678
215.9844, 8559.767
216.4665, 8690.363
216.9486, 8824.545
217.4307, 8960.095
217.9129, 9106.818
218.3950, 9267.503
218.8771, 9437.719
219.3592, 9616.376
219.8413, 9819.150
220.3234, 10002.90
220.8056, 10141.90
221.2877, 10213.19
221.7698, 10309.17
222.2519, 10451.40
222.7340, 10616.07
223.2161, 10728.24
223.6983, 10772.25
224.1804, 10785.96
224.6625, 10791.85
225.1446, 10800.99
225.6267, 10774.56
226.1088, 10703.01
226.5910, 10592.14
227.0731, 10471.73
227.5552, 10342.98
228.0373, 10204.49
228.5194, 10057.71
229.0015, 9911.628
229.4836, 9741.077
229.9658, 9533.276
230.4479, 9289.907
230.9300, 9077.681
231.4121, 8906.212
231.8942, 8755.521
232.3763, 8610.436
232.8585, 8473.155
233.3406, 8340.532
233.8227, 8210.814
234.3048, 8083.304
234.7869, 7973.244
235.2690, 7885.957
235.7512, 7810.301
236.2333, 7732.475
236.7154, 7644.444
237.1975, 7568.531
237.6796, 7509.732
238.1617, 7470.130
238.6439, 7437.291
239.1260, 7416.634
239.6081, 7398.931
240.0902, 7370.168
240.5723, 7318.798
241.0544, 7274.443
241.5366, 7244.989
242.0187, 7231.866
242.5008, 7228.495
242.9829, 7237.981
243.4650, 7255.446
243.9471, 7273.782
244.4293, 7299.342
244.9114, 7315.542
245.3935, 7314.174
245.8756, 7286.355
246.3577, 7265.851
246.8398, 7253.186
247.3220, 7247.444
247.8041, 7247.458
248.2862, 7256.791
248.7683, 7266.373
249.2504, 7274.463
249.7325, 7289.325
250.2147, 7281.938
250.6968, 7242.326
251.1789, 7182.431
251.6610, 7137.293
252.1431, 7113.220
252.6252, 7094.562
253.1074, 7073.559
253.5895, 7047.628
254.0716, 7026.012
254.5537, 7011.513
255.0358, 7001.776
255.5179, 6987.411
256.0001, 6965.135
256.4822, 6943.496
256.9643, 6925.804
257.4464, 6908.861
257.9285, 6905.628
258.4106, 6923.433
258.8928, 6956.543
259.3749, 6972.259
259.8570, 6959.283
260.3391, 6946.759
260.8212, 6958.232
261.3033, 7007.415
261.7855, 7040.805
262.2676, 7047.141
262.7497, 7031.365
263.2318, 7026.667
263.7139, 7036.799
264.1960, 7051.696
264.6782, 7066.089
265.1603, 7083.613
265.6424, 7088.165
266.1245, 7072.539
266.6066, 7040.404
267.0887, 7021.932
267.5709, 7022.382
268.0530, 7027.385
268.5351, 7025.186
269.0172, 7015.235
269.4993, 7000.923
269.9814, 6985.425
270.4636, 6967.283
270.9457, 6928.503
271.4278, 6861.298
271.9099, 6789.798
272.3920, 6741.608
272.8741, 6723.345
273.3563, 6697.705
273.8384, 6656.684
274.3205, 6601.021
274.8026, 6537.791
275.2847, 6466.438
275.7668, 6389.148
276.2490, 6308.780
276.7311, 6225.257
277.2132, 6138.295
277.6953, 6047.466
278.1774, 5952.490
278.6595, 5862.816
279.1417, 5779.591
279.6238, 5698.438
280.1059, 5614.773
280.5880, 5528.479
281.0701, 5440.494
281.5522, 5348.094
282.0344, 5253.581
282.5165, 5177.781
282.9986, 5123.660
283.4807, 5078.116
283.9628, 5026.072
284.4449, 4967.433
284.9271, 4911.292
285.4092, 4863.334
285.8913, 4821.070
286.3734, 4763.849
286.8555, 4687.207
287.3376, 4614.892
287.8198, 4580.806
288.3019, 4582.744
288.7840, 4582.153
289.2661, 4560.504
289.7482, 4524.975
290.2303, 4505.795
290.7124, 4505.139
291.1945, 4508.877
291.6767, 4500.342
292.1588, 4481.102
292.6409, 4462.383
293.1230, 4448.278
293.6051, 4437.945
294.0872, 4428.832
294.5694, 4420.570
295.0515, 4415.815
295.5336, 4418.423
296.0157, 4427.382
296.4978, 4438.095
296.9799, 4451.709
297.4621, 4465.560
297.9442, 4472.331
298.4263, 4471.792
298.9084, 4469.657
299.3905, 4468.823
299.8727, 4470.623
300.3548, 4478.914
300.8369, 4501.950
301.3190, 4530.204
301.8011, 4547.271
302.2832, 4552.584
302.7654, 4556.989
303.2475, 4567.701
303.7296, 4584.682
304.2117, 4608.231
304.6938, 4648.281
305.1759, 4690.016
305.6581, 4710.279
306.1402, 4708.228
306.6223, 4708.548
307.1044, 4742.031
307.5865, 4789.961
308.0686, 4820.031
308.5508, 4795.346
309.0329, 4762.297
309.5150, 4763.127
309.9971, 4798.982
310.4792, 4844.154
310.9613, 4891.310
311.4435, 4935.560
311.9256, 4969.461
312.4077, 4985.768
312.8898, 4994.388
313.3719, 4999.193
313.8540, 5000.318
314.3362, 5003.137
314.8183, 5015.234
315.3004, 5028.925
315.7825, 5035.504
316.2646, 5032.376
316.7467, 5021.011
317.2289, 4999.661
317.7110, 4968.352
318.1931, 4935.963
318.6752, 4904.960
319.1573, 4874.813
319.6394, 4845.033
320.1216, 4811.963
320.6037, 4782.659
321.0858, 4761.428
321.5679, 4748.359
322.0500, 4733.198
322.5321, 4713.619
323.0143, 4691.042
323.4964, 4666.601
323.9785, 4633.539
324.4606, 4605.889
324.9427, 4584.966
325.4248, 4570.856
325.9070, 4566.911
326.3891, 4582.129
326.8712, 4602.298
327.3533, 4617.685
327.8354, 4620.713
328.3175, 4626.704
328.7997, 4642.455
329.2818, 4666.251
329.7639, 4675.058
330.2460, 4651.573
330.7281, 4627.021
331.2102, 4622.148
331.6924, 4658.044
332.1745, 4680.506
332.6566, 4680.083
333.1387, 4660.928
333.6208, 4649.531
334.1029, 4647.842
334.5851, 4651.786
335.0672, 4658.922
335.5493, 4668.371
336.0314, 4684.165
336.5135, 4712.279
336.9956, 4746.213
337.4778, 4759.338
337.9599, 4742.450
338.4420, 4724.464
338.9241, 4723.324
339.4062, 4742.551
339.8883, 4759.296
340.3705, 4770.116
340.8526, 4778.848
341.3347, 4797.344
341.8168, 4827.780
342.2989, 4857.542
342.7810, 4876.401
343.2632, 4884.541
343.7453, 4902.142
344.2274, 4931.905
344.7095, 4969.532
345.1916, 5009.338
345.6737, 5051.355
346.1559, 5092.870
346.6380, 5134.156
347.1201, 5174.309
347.6022, 5210.209
348.0843, 5240.346
348.5664, 5269.265
349.0486, 5302.972
349.5307, 5341.208
350.0128, 5381.952
350.4949, 5420.248
350.9770, 5461.604
351.4591, 5519.978
351.9413, 5597.120
352.4234, 5681.214
352.9055, 5757.473
353.3876, 5830.499
353.8697, 5910.250
354.3518, 6008.764
354.8340, 6114.296
355.3161, 6214.280
355.7982, 6308.285
356.2803, 6399.854
356.7624, 6481.212
357.2445, 6564.375
357.7267, 6665.077
358.2088, 6801.676
358.6909, 6949.797
359.1730, 7092.462
359.6551, 7229.614
360.1372, 7372.136
360.6194, 7524.137
361.1015, 7684.781
361.5836, 7853.920
362.0657, 8035.665
362.5478, 8219.306
363.0299, 8409.472
363.5121, 8602.915
363.9942, 8772.501
364.4763, 8882.535
364.9584, 8981.525
365.4405, 9103.727
365.9226, 9277.664
366.4048, 9449.660
366.8869, 9612.226
367.3690, 9766.067
367.8511, 9910.810
368.3332, 10035.50
368.8153, 10159.58
369.2975, 10293.40
369.7796, 10459.85
370.2617, 10603.45
370.7438, 10717.82
371.2259, 10810.66
371.7080, 10903.76
372.1901, 11003.22
372.6722, 11094.12
373.1544, 11171.94
373.6365, 11240.86
374.1186, 11287.47
374.6007, 11318.81
375.0828, 11323.57
375.5649, 11274.55
376.0471, 11155.42
376.5292, 11027.21
377.0113, 10918.60
377.4934, 10831.11
377.9755, 10710.65
378.4576, 10551.64
378.9398, 10367.77
379.4219, 10170.92
379.9040, 9959.560
380.3861, 9744.233
380.8682, 9519.426
381.3503, 9292.401
381.8325, 9087.174
382.3146, 8908.274
382.7967, 8743.806
383.2788, 8586.373
383.7609, 8436.870
384.2430, 8295.620
384.7252, 8166.365
385.2073, 8043.739
385.6894, 7924.325
386.1715, 7806.645
386.6536, 7690.122
387.1357, 7568.144
387.6179, 7447.566
388.1000, 7343.315
388.5821, 7263.754
389.0642, 7193.893
389.5463, 7118.442
390.0284, 7041.185
390.5106, 6976.958
390.9927, 6945.222
391.4748, 6923.666
391.9569, 6891.176
392.4390, 6840.125
392.9211, 6787.917
393.4033, 6741.093
393.8854, 6699.918
394.3675, 6664.028
394.8496, 6631.458
395.3317, 6605.441
395.8138, 6589.683
396.2960, 6588.453
396.7781, 6582.072
397.2602, 6567.361
397.7423, 6544.639
398.2244, 6514.189
398.7065, 6462.587
399.1887, 6416.777
399.6708, 6385.544
400.1529, 6370.853
400.6350, 6351.458
401.1171, 6320.984
401.5992, 6290.446
402.0814, 6269.842
402.5635, 6264.885
403.0456, 6259.894
403.5277, 6257.089
404.0098, 6253.920
404.4919, 6229.444
404.9741, 6174.322
405.4562, 6115.426
405.9383, 6073.242
406.4204, 6050.146
406.9025, 6025.507
407.3846, 5997.050
407.8668, 5966.484
408.3489, 5940.178
408.8310, 5919.459
409.3131, 5891.455
409.7952, 5842.533
410.2773, 5777.209
410.7595, 5727.119
411.2416, 5695.229
411.7237, 5672.257
412.2058, 5651.460
412.6879, 5630.899
413.1700, 5600.969
413.6522, 5549.698
414.1343, 5489.234
414.6164, 5439.018
415.0985, 5399.414
415.5806, 5361.439
416.0627, 5321.979
416.5449, 5278.225
417.0270, 5224.628
417.5091, 5146.866
417.9912, 5070.229
418.4733, 5011.971
418.9554, 4970.890
419.4376, 4935.586
419.9197, 4905.728
420.4018, 4876.940
420.8839, 4846.072
421.3660, 4809.419
421.8481, 4774.568
422.3303, 4742.165
422.8124, 4712.626
423.2945, 4686.843
423.7766, 4672.843
424.2587, 4655.632
424.7408, 4627.469
425.2230, 4579.294
425.7051, 4539.557
426.1872, 4506.674
426.6693, 4482.479
427.1514, 4470.437
427.6335, 4479.651
428.1157, 4486.526
428.5978, 4485.098
429.0799, 4475.238
429.5620, 4464.146
430.0441, 4451.566
430.5262, 4438.811
431.0084, 4426.769
431.4905, 4415.148
431.9726, 4406.953
432.4547, 4405.843
432.9368, 4406.876
433.4189, 4387.519
433.9011, 4345.745
434.3832, 4313.992
434.8653, 4322.858
435.3474, 4362.992
435.8295, 4394.276
436.3116, 4412.478
436.7938, 4418.535
437.2759, 4409.188
437.7580, 4387.444
438.2401, 4364.296
438.7222, 4338.912
439.2043, 4318.394
439.6865, 4314.077
440.1686, 4327.589
440.6507, 4343.861
441.1328, 4352.671
441.6149, 4357.468
442.0970, 4363.059
442.5792, 4375.366
443.0613, 4385.040
443.5434, 4384.381
444.0255, 4374.780
444.5076, 4369.953
444.9897, 4376.321
445.4719, 4387.622
445.9540, 4400.463
446.4361, 4431.854
446.9182, 4441.390
447.4003, 4404.597
447.8824, 4342.321
448.3646, 4311.727
448.8467, 4344.190
449.3288, 4372.160
449.8109, 4369.563
450.2930, 4325.458
450.7751, 4296.960
451.2573, 4289.718
451.7394, 4291.535
452.2215, 4284.707
452.7036, 4264.898
453.1857, 4256.265
453.6678, 4271.827
454.1500, 4303.887
454.6320, 4307.746
455.1142, 4279.911
455.5963, 4248.696
456.0784, 4241.167
456.5605, 4252.563
457.0426, 4257.805
457.5247, 4250.545
458.0069, 4239.284
458.4890, 4235.530
458.9711, 4238.399
459.4532, 4243.834
459.9353, 4256.602
460.4174, 4267.458
460.8996, 4261.150
461.3817, 4233.625
461.8638, 4208.272
462.3459, 4202.774
462.8280, 4208.840
463.3102, 4215.068
463.7923, 4224.161
464.2744, 4226.217
464.7565, 4210.221
465.2386, 4178.292
465.7207, 4157.487
466.2029, 4171.113
466.6850, 4187.626
467.1671, 4187.493
467.6492, 4133.842
468.1313, 4107.766
468.6134, 4130.864
469.0956, 4181.230
469.5777, 4199.815
470.0598, 4164.206
470.5419, 4132.978
471.0240, 4130.277
471.5061, 4161.302
471.9883, 4180.359
472.4704, 4184.470
472.9525, 4181.318
473.4346, 4178.201
473.9167, 4174.789
474.3988, 4176.633
474.8810, 4187.942
475.3631, 4203.796
475.8452, 4207.840
476.3273, 4200.254
476.8094, 4195.409
477.2915, 4209.701
477.7737, 4234.121
478.2558, 4247.936
478.7379, 4245.464
479.2200, 4239.775
479.7021, 4244.734
480.1842, 4256.416
480.6664, 4265.744
481.1485, 4262.673
481.6306, 4259.738
482.1127, 4267.176
482.5948, 4285.905
483.0769, 4303.434
483.5591, 4314.148
484.0412, 4321.503
484.5233, 4328.587
485.0054, 4337.465
485.4875, 4344.166
485.9696, 4343.107
486.4518, 4337.752
486.9339, 4344.818
487.4160, 4372.162
487.8981, 4403.025
488.3802, 4432.662
488.8623, 4465.241
489.3445, 4481.024
489.8266, 4472.670
490.3087, 4457.110
490.7908, 4460.121
491.2729, 4484.645
491.7550, 4508.557
492.2372, 4525.355
492.7193, 4536.983
493.2014, 4552.377
493.6835, 4572.117
494.1656, 4586.769
494.6477, 4580.367
495.1299, 4563.063
495.6120, 4563.655
496.0941, 4591.852
496.5762, 4627.709
497.0583, 4651.218
497.5404, 4665.966
498.0226, 4680.319
498.5047, 4701.631
498.9868, 4721.989
499.4689, 4736.284
499.9510, 4744.026
500.4331, 4746.881
500.9153, 4732.950
501.3974, 4720.827
501.8795, 4726.829
502.3616, 4768.761
502.8437, 4812.422
503.3258, 4856.321
503.8080, 4898.939
504.2901, 4935.526
504.7722, 4967.913
505.2543, 4991.483
505.7364, 5000.940
506.2185, 4990.364
506.7007, 4994.321
507.1828, 5017.820
507.6649, 5048.341
508.1470, 5068.740
508.6291, 5077.806
509.1112, 5091.490
509.5934, 5115.903
510.0755, 5146.627
510.5576, 5172.263
511.0397, 5192.761
511.5218, 5209.970
512.0039, 5219.584
512.4860, 5227.793
512.9681, 5249.843
513.4503, 5291.692
513.9324, 5331.385
514.4145, 5349.888
514.8966, 5353.042
515.3787, 5351.385
515.8608, 5338.009
516.3430, 5330.915
516.8251, 5347.077
517.3072, 5385.218
517.7893, 5410.105
518.2714, 5399.858
518.7535, 5381.407
519.2357, 5371.560
519.7178, 5366.008
520.1999, 5379.007
520.6820, 5428.023
521.1641, 5489.407
521.6462, 5515.746
522.1284, 5496.346
522.6105, 5464.489
523.0926, 5425.894
523.5747, 5381.486
524.0568, 5350.002
524.5389, 5333.787
525.0211, 5322.185
525.5032, 5308.426
525.9853, 5291.813
526.4674, 5265.967
526.9495, 5225.915
527.4316, 5184.215
527.9138, 5164.356
528.3959, 5160.490
528.8780, 5149.456
529.3601, 5108.563
529.8422, 5060.647
530.3243, 5027.345
530.8065, 5010.237
531.2886, 4999.067
531.7707, 4990.804
532.2528, 4984.497
532.7349, 4979.031
533.2170, 4980.512
533.6992, 4975.772
534.1813, 4956.423
534.6634, 4928.044
535.1455, 4909.702
535.6276, 4905.221
536.1097, 4906.781
536.5919, 4913.643
537.0740, 4927.403
537.5561, 4935.011
538.0382, 4935.025
538.5203, 4931.734
539.0024, 4928.692
539.4846, 4925.821
539.9667, 4926.218
540.4488, 4933.421
540.9309, 4940.460
541.4130, 4930.578
541.8951, 4905.290
542.3773, 4878.764
542.8594, 4861.139
543.3415, 4846.795
543.8236, 4824.546
544.3057, 4792.762
544.7878, 4766.976
545.2700, 4758.688
545.7521, 4762.287
546.2342, 4771.409
546.7163, 4802.473
547.1984, 4818.758
547.6805, 4796.637
548.1627, 4747.801
548.6448, 4712.037
549.1269, 4704.660
549.6090, 4702.707
550.0911, 4699.760
550.5732, 4696.867
551.0554, 4687.659
551.5375, 4669.039
552.0196, 4648.047
552.5017, 4632.977
552.9838, 4625.684
553.4659, 4611.078
553.9481, 4582.290
554.4302, 4549.365
554.9123, 4542.186
555.3944, 4559.072
555.8765, 4567.297
556.3586, 4536.093
556.8408, 4487.533
557.3229, 4461.080
557.8050, 4459.014
558.2871, 4467.599
558.7692, 4487.906
559.2513, 4508.784
559.7335, 4515.214
560.2156, 4492.054
560.6977, 4468.422
561.1798, 4452.974
561.6619, 4445.485
562.1440, 4445.493
562.6262, 4462.357
563.1083, 4477.709
563.5904, 4485.849
564.0725, 4486.658
564.5546, 4481.124
565.0367, 4465.265
565.5189, 4447.933
566.0010, 4436.456
566.4831, 4431.375
566.9652, 4428.966
567.4473, 4430.321
567.9294, 4431.662
568.4116, 4422.157
568.8937, 4403.105
569.3758, 4390.514
569.8579, 4394.819
570.3400, 4409.602
570.8221, 4427.975
571.3043, 4449.210
571.7864, 4463.377
572.2685, 4455.484
572.7506, 4440.530
573.2327, 4435.401
573.7148, 4451.077
574.1970, 4462.517
574.6791, 4454.404
575.1612, 4436.737
575.6433, 4427.383
576.1254, 4438.606
576.6075, 4447.678
577.0897, 4447.854
577.5718, 4439.554
578.0539, 4437.597
578.5360, 4446.089
579.0181, 4453.355
579.5002, 4448.092
579.9824, 4428.591
580.4645, 4423.762
580.9466, 4436.944
581.4287, 4460.019
581.9108, 4488.024
582.3929, 4518.125
582.8751, 4536.900
583.3572, 4538.264
583.8393, 4527.146
584.3214, 4501.796
584.8035, 4466.361
585.2856, 4440.345
585.7678, 4442.619
586.2499, 4452.662
586.7320, 4452.680
587.2141, 4435.504
587.6962, 4430.432
588.1783, 4463.938
588.6605, 4504.327
589.1426, 4518.052
589.6247, 4481.813
590.1068, 4453.349
590.5889, 4438.962
591.0710, 4435.889
591.5532, 4437.101
592.0353, 4444.628
592.5174, 4448.979
592.9995, 4444.532
593.4816, 4432.678
593.9637, 4421.572
594.4459, 4410.666
594.9280, 4406.179
595.4101, 4422.581
595.8922, 4448.203
596.3743, 4458.024
596.8564, 4442.552
597.3386, 4420.918
597.8207, 4406.551
598.3028, 4397.326
598.7849, 4389.613
599.2670, 4379.225
599.7491, 4372.802
600.2313, 4377.812
600.7134, 4393.458
601.1955, 4395.669
601.6776, 4360.809
602.1597, 4333.800
602.6418, 4340.903
603.1240, 4398.102
603.6061, 4431.368
604.0882, 4433.879
604.5703, 4423.732
605.0524, 4423.739
605.5345, 4433.656
606.0167, 4443.181
606.4988, 4451.733
606.9809, 4456.058
607.4630, 4447.580
607.9451, 4428.876
608.4272, 4411.358
608.9094, 4398.334
609.3915, 4392.006
609.8736, 4398.141
610.3557, 4417.539
610.8378, 4433.179
611.3199, 4435.532
611.8021, 4432.397
612.2842, 4429.624
612.7663, 4416.566
613.2484, 4420.878
613.7305, 4459.733
614.2126, 4509.605
614.6948, 4526.430
615.1769, 4494.925
615.6590, 4472.847
616.1411, 4478.637
616.6232, 4505.435
617.1053, 4522.073
617.5875, 4528.217
618.0696, 4530.040
618.5517, 4526.884
619.0338, 4523.383
619.5159, 4531.626
619.9980, 4553.565
620.4802, 4577.695
620.9623, 4594.135
621.4444, 4607.856
621.9265, 4625.722
622.4086, 4656.904
