##NAMES=Rostite
##RRUFFID=R061001
##IDEAL CHEMISTRY=AlS^6+^O_4_(OH)&#183;5H_2_O
##LOCALITY=Kladno, Bohmen, Czech Republic
##OWNER=RRUFF
##SOURCE=Michael Scott
##DESCRIPTION=Chalky white nodular aggregates
##STATUS=The identification of this mineral has been confirmed by X-ray diffraction.
##URL=rruff.info/R061001
183.2390, 7921.317
183.7211, 7990.473
184.2032, 8025.757
184.6853, 8029.289
185.1674, 8028.323
185.6495, 8036.286
186.1317, 8054.480
186.6138, 8081.332
187.0959, 8139.455
187.5780, 8188.467
188.0601, 8187.074
188.5422, 8140.529
189.0244, 8106.652
189.5065, 8131.540
189.9886, 8193.094
190.4707, 8215.106
190.9528, 8162.119
191.4349, 8100.933
191.9171, 8079.413
192.3992, 8095.233
192.8813, 8124.993
193.3634, 8162.741
193.8455, 8203.688
194.3276, 8236.135
194.8098, 8258.107
195.2919, 8273.466
195.7740, 8284.486
196.2561, 8291.212
196.7382, 8293.043
197.2203, 8286.513
197.7025, 8276.354
198.1846, 8273.282
198.6667, 8280.428
199.1488, 8290.426
199.6309, 8294.751
200.1130, 8295.168
200.5951, 8307.400
201.0773, 8346.605
201.5594, 8396.688
202.0415, 8426.388
202.5236, 8430.475
203.0057, 8423.820
203.4878, 8409.746
203.9700, 8390.421
204.4521, 8380.080
204.9342, 8387.465
205.4163, 8404.615
205.8984, 8416.628
206.3805, 8422.496
206.8627, 8425.784
207.3448, 8432.331
207.8269, 8439.462
208.3090, 8433.093
208.7911, 8401.772
209.2732, 8361.322
209.7554, 8334.909
210.2375, 8323.264
210.7196, 8319.918
211.2017, 8328.292
211.6838, 8343.631
212.1659, 8346.333
212.6481, 8323.042
213.1302, 8296.189
213.6123, 8298.088
214.0944, 8330.987
214.5765, 8366.902
215.0586, 8401.550
215.5408, 8429.922
216.0229, 8433.946
216.5050, 8399.563
216.9871, 8357.972
217.4692, 8347.984
217.9513, 8368.302
218.4335, 8397.837
218.9156, 8438.922
219.3977, 8482.419
219.8798, 8504.732
220.3619, 8494.753
220.8440, 8480.688
221.3262, 8499.731
221.8083, 8547.845
222.2904, 8589.933
222.7725, 8613.591
223.2546, 8624.873
223.7367, 8633.464
224.2189, 8641.104
224.7010, 8644.117
225.1831, 8633.930
225.6652, 8613.194
226.1473, 8599.580
226.6294, 8609.585
227.1115, 8623.024
227.5937, 8606.417
228.0758, 8553.346
228.5579, 8506.629
229.0400, 8510.047
229.5221, 8554.401
230.0042, 8586.900
230.4864, 8594.898
230.9685, 8591.580
231.4506, 8584.262
231.9327, 8573.580
232.4148, 8572.421
232.8969, 8597.000
233.3791, 8639.960
233.8612, 8663.477
234.3433, 8652.722
234.8254, 8632.656
235.3075, 8616.457
235.7896, 8604.959
236.2718, 8603.535
236.7539, 8619.054
237.2360, 8646.174
237.7181, 8663.880
238.2002, 8662.472
238.6823, 8662.261
239.1645, 8686.330
239.6466, 8723.517
240.1287, 8729.116
240.6108, 8669.813
241.0929, 8578.187
241.5750, 8547.670
242.0572, 8611.887
242.5393, 8672.090
243.0214, 8690.164
243.5035, 8679.038
243.9856, 8663.159
244.4677, 8650.146
244.9499, 8640.881
245.4320, 8638.906
245.9141, 8648.968
246.3962, 8653.818
246.8783, 8646.089
247.3604, 8632.209
247.8426, 8620.935
248.3247, 8614.651
248.8068, 8610.622
249.2889, 8603.021
249.7710, 8585.381
250.2531, 8584.671
250.7352, 8617.623
251.2174, 8660.138
251.6995, 8688.457
252.1816, 8698.559
252.6637, 8702.402
253.1458, 8714.008
253.6279, 8737.540
254.1101, 8748.109
254.5922, 8730.810
255.0743, 8712.666
255.5564, 8713.338
256.0385, 8732.003
256.5207, 8754.485
257.0028, 8768.723
257.4849, 8774.099
257.9670, 8781.066
258.4491, 8792.673
258.9312, 8802.768
259.4134, 8808.473
259.8955, 8810.567
260.3776, 8811.743
260.8597, 8814.141
261.3418, 8817.064
261.8239, 8813.928
262.3060, 8801.081
262.7881, 8786.732
263.2703, 8770.245
263.7524, 8753.886
264.2345, 8740.330
264.7166, 8730.856
265.1987, 8725.420
265.6808, 8723.932
266.1630, 8731.780
266.6451, 8736.732
267.1272, 8730.053
267.6093, 8724.199
268.0914, 8737.863
268.5735, 8775.442
269.0557, 8815.580
269.5378, 8818.300
270.0199, 8750.164
270.5020, 8712.399
270.9841, 8722.056
271.4662, 8745.365
271.9484, 8763.337
272.4305, 8772.036
272.9126, 8775.482
273.3947, 8778.799
273.8768, 8783.305
274.3589, 8780.641
274.8411, 8755.206
275.3232, 8736.362
275.8053, 8742.258
276.2874, 8766.350
276.7695, 8786.505
277.2516, 8780.671
277.7338, 8752.252
278.2159, 8751.579
278.6980, 8803.363
279.1801, 8852.600
279.6622, 8886.204
280.1443, 8904.237
280.6265, 8905.504
281.1086, 8885.231
281.5907, 8853.010
282.0728, 8834.938
282.5549, 8836.821
283.0370, 8838.990
283.5192, 8825.067
284.0013, 8812.397
284.4834, 8824.758
284.9655, 8874.707
285.4476, 8927.364
285.9297, 8934.225
286.4119, 8890.481
286.8940, 8846.018
287.3761, 8801.643
287.8582, 8772.051
288.3403, 8779.578
288.8224, 8828.170
289.3046, 8867.546
289.7867, 8838.875
290.2688, 8760.692
290.7509, 8737.471
291.2330, 8814.343
291.7151, 8907.664
292.1973, 8936.204
292.6794, 8908.790
293.1615, 8879.563
293.6436, 8871.132
294.1257, 8874.078
294.6078, 8871.871
295.0900, 8862.208
295.5721, 8852.895
296.0542, 8851.228
296.5363, 8855.161
297.0184, 8856.443
297.5005, 8853.976
297.9827, 8848.292
298.4648, 8834.266
298.9469, 8814.259
299.4290, 8805.431
299.9111, 8819.862
300.3932, 8851.542
300.8754, 8877.897
301.3575, 8899.966
301.8396, 8916.127
302.3217, 8929.671
302.8038, 8936.297
303.2859, 8920.936
303.7681, 8874.657
304.2502, 8822.598
304.7323, 8815.254
305.2144, 8887.321
305.6965, 8932.991
306.1786, 8928.216
306.6608, 8904.299
307.1429, 8886.746
307.6250, 8881.213
308.1071, 8883.252
308.5892, 8889.438
309.0714, 8902.874
309.5535, 8904.442
310.0356, 8883.607
310.5177, 8863.015
310.9998, 8854.463
311.4819, 8855.579
311.9640, 8856.702
312.4461, 8850.231
312.9283, 8837.959
313.4104, 8836.305
313.8925, 8862.484
314.3746, 8879.736
314.8567, 8883.115
315.3388, 8874.326
315.8210, 8851.801
316.3031, 8814.466
316.7852, 8773.983
317.2673, 8756.946
317.7494, 8778.437
318.2315, 8786.273
318.7137, 8763.164
319.1958, 8732.554
319.6779, 8705.844
320.1600, 8686.160
320.6421, 8676.480
321.1242, 8680.015
321.6064, 8696.737
322.0885, 8724.734
322.5706, 8776.929
323.0527, 8824.595
323.5348, 8851.566
324.0169, 8861.116
324.4991, 8863.130
324.9812, 8857.978
325.4633, 8850.133
325.9454, 8853.041
326.4275, 8871.702
326.9096, 8881.318
327.3918, 8855.653
327.8739, 8815.393
328.3560, 8792.101
328.8381, 8793.657
329.3202, 8809.461
329.8023, 8841.276
330.2845, 8884.142
330.7666, 8909.198
331.2487, 8902.976
331.7308, 8877.982
332.2129, 8851.966
332.6950, 8821.590
333.1772, 8803.218
333.6593, 8814.204
334.1414, 8835.376
334.6235, 8840.000
335.1056, 8822.995
335.5877, 8794.271
336.0699, 8759.271
336.5520, 8714.843
337.0341, 8698.513
337.5162, 8740.332
337.9983, 8782.573
338.4804, 8787.841
338.9626, 8763.996
339.4447, 8742.268
339.9268, 8743.740
340.4089, 8761.972
340.8910, 8761.063
341.3731, 8710.552
341.8553, 8676.677
342.3374, 8671.573
342.8195, 8684.751
343.3016, 8709.261
343.7837, 8741.547
344.2658, 8772.306
344.7480, 8785.471
345.2301, 8773.841
345.7122, 8763.067
346.1943, 8757.254
346.6764, 8749.224
347.1585, 8726.778
347.6407, 8696.161
348.1228, 8680.532
348.6049, 8705.590
349.0870, 8764.132
349.5691, 8801.807
350.0512, 8814.927
350.5334, 8811.344
351.0155, 8783.756
351.4976, 8746.713
351.9797, 8719.821
352.4618, 8709.619
352.9439, 8713.192
353.4261, 8737.079
353.9082, 8782.521
354.3903, 8802.484
354.8724, 8767.608
355.3545, 8711.743
355.8366, 8675.728
356.3188, 8660.533
356.8009, 8659.704
357.2830, 8681.624
357.7651, 8713.386
358.2472, 8728.749
358.7293, 8721.987
359.2115, 8711.339
359.6936, 8717.566
360.1757, 8740.058
360.6578, 8740.159
361.1399, 8696.729
361.6220, 8648.197
362.1041, 8612.049
362.5862, 8590.083
363.0684, 8586.471
363.5505, 8606.273
364.0326, 8640.249
364.5147, 8657.188
364.9968, 8636.090
365.4789, 8624.347
365.9611, 8637.668
366.4432, 8654.716
366.9253, 8650.058
367.4074, 8620.470
367.8895, 8588.205
368.3716, 8580.988
368.8538, 8603.494
369.3359, 8628.557
369.8180, 8672.654
370.3001, 8703.012
370.7822, 8693.870
371.2643, 8661.941
371.7465, 8645.006
372.2286, 8671.144
372.7107, 8720.419
373.1928, 8731.075
373.6749, 8683.333
374.1570, 8650.004
374.6392, 8678.877
375.1213, 8719.301
375.6034, 8720.046
376.0855, 8667.902
376.5676, 8618.905
377.0497, 8630.532
377.5319, 8689.164
378.0140, 8730.443
378.4961, 8744.090
378.9782, 8737.693
379.4603, 8705.654
379.9424, 8654.669
380.4246, 8619.192
380.9067, 8617.072
381.3888, 8626.639
381.8709, 8627.673
382.3530, 8621.163
382.8351, 8621.494
383.3173, 8641.949
383.7994, 8670.933
384.2815, 8661.978
384.7636, 8575.971
385.2457, 8512.352
385.7278, 8497.496
386.2100, 8509.335
386.6921, 8529.964
387.1742, 8552.754
387.6563, 8568.436
388.1384, 8562.814
388.6205, 8527.721
389.1027, 8511.257
389.5848, 8521.750
390.0669, 8541.138
390.5490, 8568.702
391.0311, 8599.510
391.5132, 8626.562
391.9954, 8646.398
392.4775, 8658.514
392.9596, 8660.563
393.4417, 8649.142
393.9238, 8636.577
394.4059, 8614.445
394.8881, 8599.539
395.3702, 8612.596
395.8523, 8655.768
396.3344, 8694.471
396.8165, 8695.375
397.2986, 8668.790
397.7808, 8655.829
398.2629, 8665.248
398.7450, 8675.490
399.2271, 8664.823
399.7092, 8640.488
400.1913, 8626.267
400.6735, 8634.487
401.1556, 8646.551
401.6377, 8651.865
402.1198, 8650.518
402.6019, 8641.320
403.0840, 8622.207
403.5662, 8599.785
404.0483, 8587.890
404.5304, 8591.043
405.0125, 8596.327
405.4946, 8608.649
405.9767, 8619.274
406.4589, 8619.626
406.9410, 8610.479
407.4231, 8599.189
407.9052, 8590.991
408.3873, 8586.232
408.8694, 8590.676
409.3516, 8619.650
409.8336, 8638.509
410.3158, 8632.570
410.7979, 8616.303
411.2800, 8605.865
411.7621, 8606.649
412.2442, 8613.645
412.7263, 8623.752
413.2085, 8637.556
413.6906, 8639.389
414.1727, 8614.996
414.6548, 8592.724
415.1369, 8595.245
415.6190, 8617.606
416.1012, 8639.388
416.5833, 8660.756
417.0654, 8672.352
417.5475, 8650.895
418.0296, 8598.769
418.5117, 8565.534
418.9939, 8580.704
419.4760, 8626.233
419.9581, 8656.145
420.4402, 8670.035
420.9223, 8673.538
421.4044, 8664.026
421.8866, 8646.947
422.3687, 8625.507
422.8508, 8601.521
423.3329, 8581.175
423.8150, 8572.201
424.2971, 8575.719
424.7793, 8567.308
425.2614, 8519.424
425.7435, 8490.602
426.2256, 8512.119
426.7077, 8555.388
427.1898, 8580.446
427.6720, 8571.320
428.1541, 8546.972
428.6362, 8534.907
429.1183, 8535.987
429.6004, 8544.000
430.0826, 8557.591
430.5647, 8579.476
431.0468, 8621.975
431.5289, 8676.755
432.0110, 8711.780
432.4931, 8702.885
432.9753, 8670.123
433.4574, 8635.093
433.9395, 8597.849
434.4216, 8578.825
434.9037, 8593.955
435.3858, 8627.896
435.8680, 8645.907
436.3501, 8645.861
436.8322, 8638.724
437.3143, 8619.709
437.7964, 8599.124
438.2785, 8584.825
438.7607, 8579.374
439.2428, 8589.916
439.7249, 8628.679
440.2070, 8694.600
440.6891, 8715.668
441.1712, 8629.983
441.6534, 8569.681
442.1355, 8570.486
442.6176, 8604.779
443.0997, 8644.851
443.5818, 8681.003
444.0639, 8707.777
444.5461, 8716.277
445.0282, 8705.528
445.5103, 8689.918
445.9924, 8661.282
446.4745, 8640.398
446.9566, 8645.511
447.4388, 8667.439
447.9209, 8682.421
448.4030, 8679.700
448.8851, 8669.303
449.3672, 8659.738
449.8493, 8651.290
450.3315, 8646.254
450.8136, 8646.605
451.2957, 8648.655
451.7778, 8644.990
452.2599, 8632.225
452.7420, 8627.268
453.2242, 8649.172
453.7063, 8665.885
454.1884, 8645.275
454.6705, 8595.448
455.1526, 8549.353
455.6347, 8527.805
456.1169, 8528.469
456.5990, 8543.759
457.0811, 8591.847
457.5632, 8623.683
458.0453, 8631.632
458.5274, 8624.379
459.0095, 8599.818
459.4916, 8562.156
459.9738, 8533.240
460.4559, 8538.952
460.9380, 8570.032
461.4201, 8584.194
461.9022, 8575.375
462.3843, 8569.015
462.8665, 8585.287
463.3486, 8611.116
463.8307, 8623.307
464.3128, 8618.437
464.7949, 8603.649
465.2770, 8568.138
465.7592, 8529.275
466.2413, 8523.995
466.7234, 8559.213
467.2055, 8597.637
467.6876, 8601.112
468.1697, 8566.695
468.6519, 8544.716
469.1340, 8550.896
469.6161, 8549.673
470.0982, 8522.116
470.5803, 8484.360
471.0624, 8459.408
471.5446, 8455.009
472.0267, 8458.483
472.5088, 8451.018
472.9909, 8430.614
473.4730, 8416.655
473.9551, 8413.438
474.4373, 8412.749
474.9194, 8412.885
475.4015, 8411.786
475.8836, 8403.956
476.3657, 8381.719
476.8478, 8360.070
477.3300, 8359.886
477.8121, 8375.135
478.2942, 8376.098
478.7763, 8350.891
479.2584, 8317.359
479.7405, 8298.201
480.2227, 8296.008
480.7048, 8298.932
481.1869, 8318.197
481.6690, 8331.927
482.1511, 8325.812
482.6332, 8304.600
483.1154, 8276.997
483.5975, 8246.826
484.0796, 8220.969
484.5617, 8216.977
485.0438, 8244.187
485.5259, 8266.394
486.0081, 8281.981
486.4902, 8290.198
486.9723, 8277.861
487.4544, 8255.504
487.9365, 8257.017
488.4186, 8321.356
488.9008, 8400.900
489.3829, 8413.619
489.8650, 8362.148
490.3471, 8320.841
490.8292, 8321.104
491.3113, 8338.019
491.7935, 8327.131
492.2756, 8281.481
492.7577, 8253.279
493.2398, 8267.766
493.7219, 8288.076
494.2040, 8281.982
494.6862, 8255.772
495.1683, 8236.844
495.6504, 8241.669
496.1325, 8261.235
496.6146, 8270.317
497.0967, 8268.216
497.5789, 8256.572
498.0610, 8219.851
498.5431, 8187.303
499.0252, 8182.003
499.5073, 8199.025
499.9894, 8213.565
500.4716, 8212.496
500.9537, 8198.564
501.4358, 8170.266
501.9179, 8126.852
502.4000, 8098.077
502.8821, 8101.046
503.3643, 8118.222
503.8464, 8117.923
504.3285, 8094.798
504.8106, 8087.046
505.2927, 8125.070
505.7748, 8163.427
506.2570, 8154.943
506.7391, 8110.914
507.2212, 8079.769
507.7033, 8091.048
508.1854, 8128.232
508.6675, 8141.950
509.1496, 8111.908
509.6317, 8101.598
510.1139, 8142.284
510.5960, 8180.639
511.0781, 8181.042
511.5602, 8149.168
512.0424, 8116.292
512.5245, 8100.978
513.0066, 8094.609
513.4887, 8081.576
513.9708, 8061.937
514.4529, 8046.689
514.9351, 8039.697
515.4172, 8039.080
515.8993, 8044.069
516.3814, 8056.082
516.8635, 8063.646
517.3456, 8057.479
517.8278, 8053.021
518.3099, 8064.348
518.7920, 8086.549
519.2741, 8104.918
519.7562, 8111.778
520.2383, 8111.972
520.7205, 8117.606
521.2026, 8134.166
521.6847, 8139.916
522.1668, 8122.495
522.6489, 8103.083
523.1310, 8092.716
523.6132, 8088.740
524.0953, 8082.476
524.5774, 8070.683
525.0595, 8054.189
525.5416, 8025.784
526.0237, 7990.321
526.5059, 7981.825
526.9880, 8017.734
527.4701, 8060.482
527.9522, 8058.980
528.4343, 8000.602
528.9164, 7978.318
529.3986, 8040.054
529.8807, 8087.748
530.3628, 8065.949
530.8449, 8002.031
531.3270, 7939.708
531.8091, 7896.334
532.2913, 7869.985
532.7734, 7863.742
533.2554, 7881.254
533.7375, 7883.788
534.2197, 7859.727
534.7018, 7835.456
535.1839, 7816.220
535.6660, 7807.825
536.1481, 7825.125
536.6302, 7884.579
537.1124, 7941.647
537.5945, 7961.991
538.0766, 7957.954
538.5587, 7954.674
539.0408, 7957.023
539.5229, 7957.282
540.0051, 7946.758
540.4872, 7926.148
540.9693, 7917.958
541.4514, 7932.407
541.9335, 7946.654
542.4156, 7967.631
542.8978, 7980.709
543.3799, 7964.618
543.8620, 7920.081
544.3441, 7876.977
544.8262, 7863.236
545.3083, 7873.319
545.7905, 7887.867
546.2726, 7910.119
546.7547, 7920.914
547.2368, 7907.616
547.7189, 7880.131
548.2010, 7854.645
548.6832, 7829.270
549.1653, 7813.460
549.6474, 7814.016
550.1295, 7821.972
550.6116, 7832.380
551.0938, 7842.954
551.5759, 7850.624
552.0580, 7854.003
552.5401, 7850.966
553.0222, 7832.164
553.5043, 7782.342
553.9865, 7756.181
554.4686, 7779.943
554.9507, 7810.136
555.4328, 7833.124
555.9149, 7845.269
556.3970, 7838.225
556.8792, 7794.490
557.3613, 7749.180
557.8434, 7740.769
558.3255, 7763.732
558.8076, 7802.551
559.2897, 7856.712
559.7719, 7902.500
560.2540, 7911.046
560.7361, 7878.075
561.2182, 7854.334
561.7003, 7847.723
562.1824, 7839.612
562.6646, 7828.055
563.1467, 7810.221
563.6288, 7777.596
564.1109, 7730.309
564.5930, 7687.708
565.0751, 7677.431
565.5573, 7692.434
566.0394, 7679.686
566.5215, 7628.261
567.0036, 7589.380
567.4857, 7596.343
567.9678, 7626.733
568.4500, 7634.598
568.9321, 7609.408
569.4142, 7598.078
569.8963, 7632.492
570.3784, 7672.951
570.8605, 7673.671
571.3427, 7644.334
571.8248, 7634.270
572.3069, 7674.682
572.7890, 7737.640
573.2711, 7749.144
573.7532, 7686.688
574.2354, 7645.152
574.7175, 7640.684
575.1996, 7652.190
575.6817, 7677.570
576.1638, 7709.570
576.6459, 7731.136
577.1281, 7736.250
577.6102, 7729.391
578.0923, 7701.483
578.5744, 7665.545
579.0565, 7661.249
579.5386, 7697.722
580.0208, 7733.908
580.5029, 7728.347
580.9850, 7682.112
581.4671, 7649.592
581.9492, 7637.934
582.4313, 7632.133
582.9135, 7624.571
583.3956, 7625.668
583.8777, 7652.555
584.3598, 7702.828
584.8419, 7747.024
585.3240, 7764.903
585.8062, 7761.503
586.2883, 7742.324
586.7704, 7707.417
587.2525, 7679.219
587.7346, 7666.076
588.2167, 7664.197
588.6989, 7669.551
589.1810, 7684.798
589.6631, 7696.720
590.1452, 7709.230
590.6273, 7714.122
591.1094, 7706.407
591.5916, 7688.486
592.0737, 7656.607
592.5558, 7610.430
593.0379, 7577.785
593.5200, 7608.193
594.0021, 7696.022
594.4843, 7742.129
594.9664, 7731.612
595.4485, 7709.821
595.9306, 7699.094
596.4127, 7694.160
596.8948, 7681.496
597.3770, 7652.391
597.8591, 7638.259
598.3412, 7662.107
598.8233, 7694.782
599.3054, 7711.445
599.7875, 7711.670
600.2697, 7703.190
600.7518, 7689.559
601.2339, 7675.986
601.7160, 7675.809
602.1981, 7692.431
602.6802, 7706.530
603.1624, 7716.174
603.6445, 7723.084
604.1266, 7727.482
604.6087, 7730.236
605.0908, 7733.363
605.5729, 7737.398
606.0551, 7741.655
606.5372, 7747.999
607.0193, 7753.318
607.5014, 7748.984
607.9835, 7735.688
608.4656, 7729.377
608.9478, 7744.935
609.4299, 7775.830
609.9120, 7788.156
610.3941, 7772.938
610.8762, 7757.981
611.3583, 7740.255
611.8405, 7730.250
612.3226, 7741.658
612.8047, 7768.742
613.2868, 7786.870
613.7689, 7780.510
614.2510, 7766.989
614.7332, 7761.219
615.2153, 7761.056
615.6974, 7764.044
616.1795, 7769.500
616.6616, 7766.185
617.1437, 7738.813
617.6259, 7688.718
618.1080, 7665.512
618.5901, 7694.927
619.0722, 7714.568
619.5543, 7705.610
620.0364, 7688.918
620.5186, 7681.192
621.0007, 7683.810
621.4828, 7689.582
621.9649, 7699.582
622.4470, 7706.972
622.9291, 7705.635
623.4113, 7694.513
623.8934, 7661.503
624.3755, 7599.310
624.8576, 7542.369
625.3397, 7536.238
625.8218, 7586.920
626.3040, 7629.178
626.7861, 7672.890
627.2682, 7695.320
627.7503, 7681.653
628.2324, 7650.418
628.7145, 7613.403
629.1967, 7575.404
629.6788, 7551.910
630.1609, 7564.968
630.6430, 7594.112
631.1251, 7609.782
631.6072, 7611.085
632.0893, 7589.507
632.5714, 7536.654
633.0535, 7480.518
633.5356, 7463.856
634.0178, 7496.757
634.4999, 7517.919
634.9820, 7518.190
635.4641, 7517.941
635.9462, 7526.378
636.4283, 7535.594
636.9105, 7535.077
637.3926, 7522.859
637.8747, 7507.214
638.3568, 7489.583
638.8389, 7474.530
639.3210, 7475.648
639.8032, 7491.170
640.2853, 7497.317
640.7674, 7483.229
641.2495, 7458.086
641.7316, 7435.931
642.2137, 7416.417
642.6959, 7401.660
643.1780, 7396.337
643.6601, 7390.190
644.1422, 7378.580
644.6243, 7365.128
645.1064, 7354.731
645.5886, 7348.527
646.0707, 7343.272
646.5528, 7337.531
647.0349, 7330.807
647.5170, 7322.961
647.9991, 7313.716
648.4813, 7297.107
648.9634, 7267.345
649.4455, 7240.750
649.9276, 7247.702
650.4097, 7303.708
650.8918, 7328.309
651.3740, 7285.536
651.8561, 7253.905
652.3382, 7266.915
652.8203, 7299.268
653.3024, 7319.405
653.7845, 7320.601
654.2667, 7316.005
654.7488, 7315.002
655.2309, 7314.173
655.7130, 7305.276
656.1951, 7289.884
656.6772, 7281.941
657.1594, 7288.766
657.6415, 7296.864
658.1236, 7282.370
658.6057, 7236.171
659.0878, 7216.891
659.5699, 7251.916
660.0521, 7282.275
660.5342, 7293.371
661.0163, 7291.939
661.4984, 7285.557
661.9805, 7275.576
662.4626, 7259.279
662.9448, 7229.011
663.4269, 7195.729
663.9090, 7172.623
664.3911, 7158.858
664.8732, 7148.285
665.3553, 7138.589
665.8375, 7132.853
666.3196, 7136.082
666.8017, 7149.211
667.2838, 7159.826
667.7659, 7166.741
668.2480, 7172.871
668.7302, 7182.920
669.2123, 7190.135
669.6944, 7185.055
670.1765, 7167.534
670.6586, 7153.832
671.1407, 7156.148
671.6229, 7160.770
672.1050, 7150.583
672.5871, 7133.367
673.0692, 7131.866
673.5513, 7151.721
674.0334, 7171.835
674.5156, 7168.078
674.9977, 7142.096
675.4798, 7115.894
675.9619, 7084.019
676.4440, 7066.160
676.9261, 7079.549
677.4083, 7100.074
677.8904, 7102.558
678.3725, 7088.662
678.8546, 7082.146
679.3367, 7101.480
679.8188, 7116.064
680.3010, 7101.442
680.7831, 7074.211
681.2652, 7058.276
681.7473, 7058.082
682.2294, 7063.489
