##NAMES=Rouaite
##RRUFFID=R080086
##IDEAL CHEMISTRY=Cu^2+^_2_N^5+^O_3_(OH)_3_
##LOCALITY=Jachymov, Erzgebirge (Bohemia), Czech Republic
##OWNER=RRUFF
##SOURCE=William W. Pinch
##DESCRIPTION=Green sharp thin plates, it should be noted that gerhardtite is dimorphous with Rouaite and may be confused with it.
##STATUS=The identification of this mineral has been confirmed by single-crystal X-ray diffraction.
##URL=rruff.info/R080086
91.87140, 0.0000000E+00
92.35352, 17.75194
92.83563, 16.98565
93.31775, 16.65962
93.79987, 16.83213
94.28198, 17.45292
94.76410, 18.39729
95.24622, 19.66339
95.72833, 21.21176
96.21045, 22.91565
96.69257, 24.77737
97.17468, 26.87044
97.65680, 29.28459
98.13892, 32.02464
98.62103, 34.86146
99.10315, 37.60821
99.58527, 40.35116
100.0674, 43.51557
100.5495, 47.04774
101.0316, 51.06194
101.5137, 55.60604
101.9958, 60.68575
102.4780, 66.38080
102.9601, 72.72304
103.4422, 79.75263
103.9243, 87.10369
104.4064, 94.70641
104.8885, 102.7118
105.3707, 111.6034
105.8528, 121.4593
106.3349, 131.9896
106.8170, 143.0681
107.2991, 155.0061
107.7813, 166.9209
108.2634, 179.0531
108.7455, 191.2551
109.2276, 202.5926
109.7097, 212.1914
110.1918, 221.6620
110.6740, 231.6867
111.1561, 243.8160
111.6382, 254.7781
112.1203, 263.8129
112.6024, 271.2816
113.0845, 278.8569
113.5667, 286.7223
114.0488, 294.7966
114.5309, 303.1180
115.0130, 311.3580
115.4951, 320.0827
115.9772, 329.5099
116.4594, 339.7161
116.9415, 350.3788
117.4236, 361.0931
117.9057, 372.3066
118.3878, 384.4450
118.8699, 398.5034
119.3521, 413.0439
119.8342, 427.3900
120.3163, 441.4627
120.7984, 455.7093
121.2805, 470.8306
121.7626, 486.2836
122.2448, 501.1402
122.7269, 515.3458
123.2090, 528.5606
123.6911, 540.3701
124.1732, 550.6387
124.6553, 559.8850
125.1375, 568.2170
125.6196, 575.8227
126.1017, 583.2982
126.5838, 591.5990
127.0659, 599.9147
127.5480, 606.5699
128.0302, 610.8748
128.5123, 614.5103
128.9944, 619.3929
129.4765, 625.5301
129.9586, 632.9869
130.4407, 642.6697
130.9229, 653.9678
131.4050, 664.3994
131.8871, 673.0316
132.3692, 680.6699
132.8513, 689.1920
133.3334, 697.6211
133.8156, 702.4325
134.2977, 702.6085
134.7798, 700.7138
135.2619, 699.7132
135.7440, 700.0543
136.2261, 701.7775
136.7083, 705.3100
137.1904, 710.7673
137.6725, 717.6284
138.1546, 725.7752
138.6367, 735.5165
139.1188, 745.0266
139.6010, 753.7690
140.0831, 761.7113
140.5652, 770.2343
141.0473, 778.9041
141.5294, 788.8076
142.0115, 801.7566
142.4937, 819.6482
142.9758, 836.3199
143.4579, 849.6858
143.9400, 858.6497
144.4221, 869.3195
144.9042, 882.1893
145.3864, 896.4252
145.8685, 910.3748
146.3506, 924.2859
146.8327, 937.7161
147.3148, 950.6259
147.7969, 962.6901
148.2791, 974.7924
148.7612, 987.0219
149.2433, 999.2428
149.7254, 1011.350
150.2075, 1022.714
150.6896, 1034.460
151.1718, 1046.919
151.6539, 1060.578
152.1360, 1074.278
152.6181, 1087.243
153.1002, 1100.120
153.5823, 1114.781
154.0645, 1132.363
154.5466, 1151.155
155.0287, 1170.350
155.5108, 1191.383
155.9929, 1211.332
156.4750, 1229.102
156.9572, 1245.191
157.4393, 1261.238
157.9214, 1278.122
158.4035, 1294.909
158.8856, 1311.066
159.3677, 1327.379
159.8499, 1342.232
160.3320, 1356.208
160.8141, 1368.857
161.2962, 1377.142
161.7783, 1379.387
162.2604, 1377.047
162.7426, 1371.323
163.2247, 1362.615
163.7068, 1350.620
164.1889, 1335.536
164.6710, 1317.413
165.1531, 1295.005
165.6353, 1265.414
166.1174, 1232.017
166.5995, 1198.449
167.0816, 1165.988
167.5637, 1133.759
168.0458, 1100.580
168.5280, 1066.726
169.0101, 1033.894
169.4922, 1003.776
169.9743, 975.5563
170.4564, 948.2966
170.9385, 921.0743
171.4207, 894.9581
171.9028, 870.8185
172.3849, 848.8213
172.8670, 828.5215
173.3491, 809.3499
173.8312, 791.4802
174.3134, 775.1823
174.7955, 760.9059
175.2776, 748.2717
175.7597, 736.9924
176.2418, 726.9910
176.7239, 718.2645
177.2061, 710.0091
177.6882, 702.6829
178.1703, 697.6606
178.6524, 696.0029
179.1345, 696.8986
179.6166, 699.3509
180.0988, 703.5092
180.5809, 708.2232
181.0630, 712.8561
181.5451, 717.1913
182.0272, 720.1598
182.5093, 722.8837
182.9915, 723.8097
183.4736, 719.2676
183.9557, 708.9192
184.4378, 693.3696
184.9199, 671.6482
185.4020, 644.6640
185.8842, 615.9120
186.3663, 586.1364
186.8484, 555.9808
187.3305, 528.9210
187.8126, 505.0106
188.2947, 484.0006
188.7769, 465.5216
189.2590, 449.5479
189.7411, 435.7073
190.2232, 423.9147
190.7053, 414.1025
191.1874, 405.6034
191.6696, 398.4120
192.1517, 392.2360
192.6338, 386.5745
193.1159, 381.4312
193.5980, 376.6742
194.0801, 372.3402
194.5623, 368.4168
195.0444, 364.3893
195.5265, 360.1089
196.0086, 355.8908
196.4907, 352.5031
196.9728, 350.0178
197.4550, 347.7314
197.9371, 345.1103
198.4192, 342.1402
198.9013, 339.7640
199.3834, 338.2872
199.8655, 337.2249
200.3477, 335.1948
200.8298, 331.9673
201.3119, 328.8295
201.7940, 326.5849
202.2761, 325.3058
202.7582, 324.1445
203.2404, 323.1001
203.7225, 322.0794
204.2046, 320.7254
204.6867, 318.9016
205.1688, 317.2153
205.6509, 316.2338
206.1331, 316.1431
206.6152, 315.4619
207.0973, 313.8890
207.5794, 311.7378
208.0615, 309.9161
208.5436, 308.4015
209.0258, 307.2682
209.5079, 306.7150
209.9900, 306.9389
210.4721, 306.7827
210.9542, 306.0081
211.4363, 304.8370
211.9185, 304.0741
212.4006, 303.9004
212.8827, 303.7314
213.3648, 303.1664
213.8469, 302.0428
214.3290, 301.0741
214.8112, 300.2507
215.2933, 299.6325
215.7754, 299.5322
216.2575, 300.3044
216.7396, 300.9200
217.2217, 300.6416
217.7039, 299.0353
218.1860, 297.8828
218.6681, 297.4273
219.1502, 297.4958
219.6323, 297.4317
220.1144, 297.0552
220.5966, 296.8603
221.0787, 297.1849
221.5608, 298.2593
222.0429, 299.2376
222.5250, 300.0746
223.0071, 300.7841
223.4893, 301.3693
223.9714, 301.8013
224.4535, 302.1717
224.9356, 302.5438
225.4177, 302.9595
225.8998, 303.2664
226.3820, 303.4060
226.8641, 303.4383
227.3462, 303.5340
227.8283, 303.5713
228.3104, 303.8502
228.7925, 304.5545
229.2747, 305.8975
229.7568, 307.2017
230.2389, 308.4353
230.7210, 309.6238
231.2031, 310.7778
231.6852, 311.7243
232.1674, 312.8841
232.6495, 314.4767
233.1316, 316.6685
233.6137, 318.9207
234.0958, 321.1920
234.5779, 323.4984
235.0601, 325.8478
235.5422, 328.2704
236.0243, 330.7348
236.5064, 333.2482
236.9885, 335.8771
237.4706, 338.3770
237.9528, 340.5111
238.4349, 342.5509
238.9170, 345.2070
239.3991, 348.8774
239.8812, 352.5680
240.3633, 355.8591
240.8455, 358.5945
241.3276, 361.3094
241.8097, 363.9840
242.2918, 366.6099
242.7739, 369.1115
243.2560, 371.3118
243.7382, 373.6661
244.2203, 376.4253
244.7024, 379.8940
245.1845, 382.8945
245.6666, 385.2626
246.1487, 387.2370
246.6309, 389.3378
247.1130, 391.7207
247.5951, 393.9767
248.0772, 395.8394
248.5593, 397.0532
249.0414, 398.8656
249.5236, 401.5164
250.0057, 404.6072
250.4878, 407.7026
250.9699, 411.4709
251.4520, 414.0395
251.9341, 414.6032
252.4163, 412.7654
252.8984, 410.9443
253.3805, 409.3675
253.8626, 407.6111
254.3447, 405.0847
254.8268, 401.5324
255.3090, 397.6594
255.7911, 393.6443
256.2732, 389.4453
256.7553, 385.3867
257.2374, 381.8107
257.7195, 378.0189
258.2017, 373.0802
258.6838, 366.5420
259.1659, 359.7829
259.6480, 352.9715
260.1301, 346.1540
260.6122, 339.6235
261.0944, 333.3439
261.5765, 327.3681
262.0586, 321.7646
262.5407, 316.6633
263.0228, 311.5977
263.5049, 306.3985
263.9871, 301.0558
264.4692, 296.4513
264.9513, 292.6071
265.4334, 289.3994
265.9155, 286.6979
266.3976, 284.6182
266.8798, 282.8192
267.3619, 281.2867
267.8440, 279.9970
268.3261, 278.8434
268.8082, 277.7594
269.2903, 276.9511
269.7725, 276.7299
270.2546, 277.2949
270.7367, 277.5066
271.2188, 277.0717
271.7009, 276.1859
272.1830, 275.7895
272.6652, 276.1319
273.1473, 276.2830
273.6294, 275.6445
274.1115, 274.1768
274.5936, 272.0848
275.0757, 269.3362
275.5579, 265.9967
276.0400, 262.3192
276.5221, 258.3002
277.0042, 253.9495
277.4863, 249.1245
277.9684, 243.7687
278.4506, 238.7502
278.9327, 234.2275
279.4148, 229.9469
279.8969, 225.2948
280.3790, 220.1995
280.8611, 215.2520
281.3433, 210.7444
281.8254, 206.6595
282.3075, 202.8857
282.7896, 199.4419
283.2717, 196.2039
283.7538, 192.9703
284.2360, 189.7375
284.7181, 186.6159
285.2002, 183.5378
285.6823, 180.5514
286.1644, 178.1455
286.6465, 176.4023
287.1287, 175.0174
287.6108, 173.7538
288.0929, 172.5940
288.5750, 171.2217
289.0571, 169.3426
289.5392, 167.1436
290.0214, 165.4548
290.5035, 164.3202
290.9856, 163.3760
291.4677, 162.2768
291.9498, 161.0403
292.4319, 159.7967
292.9141, 158.4929
293.3962, 157.2471
293.8783, 156.4522
294.3604, 156.1203
294.8425, 155.7517
295.3246, 154.6861
295.8068, 153.1846
296.2889, 152.1799
296.7710, 152.0539
297.2531, 152.3257
297.7352, 152.2100
298.2173, 151.7428
298.6995, 151.2181
299.1816, 150.8755
299.6637, 150.6272
300.1458, 150.2712
300.6279, 149.7111
301.1100, 149.1518
301.5922, 148.9049
302.0743, 148.9030
302.5564, 148.8794
303.0385, 148.6970
303.5206, 148.3853
304.0027, 147.9041
304.4849, 147.1773
304.9670, 146.5870
305.4491, 146.6822
305.9312, 147.2190
306.4133, 147.6126
306.8954, 147.3364
307.3776, 146.9044
307.8597, 146.8674
308.3418, 147.2870
308.8239, 147.8192
309.3060, 148.2779
309.7881, 148.6778
310.2703, 149.0259
310.7524, 149.2459
311.2345, 149.4816
311.7166, 149.8360
312.1987, 150.3088
312.6808, 150.8333
313.1630, 151.4453
313.6451, 152.0651
314.1272, 152.6086
314.6093, 152.7141
315.0914, 153.0399
315.5735, 154.0892
316.0557, 155.7209
316.5378, 157.1920
317.0199, 157.9968
317.5020, 158.6252
317.9841, 159.4608
318.4662, 160.7515
318.9484, 161.9893
319.4305, 162.9957
319.9126, 163.8222
320.3947, 164.6028
320.8768, 165.3067
321.3589, 166.0287
321.8411, 166.7652
322.3232, 167.3517
322.8053, 168.3415
323.2874, 170.3225
323.7695, 172.6828
324.2516, 174.4534
324.7338, 174.8739
325.2159, 175.2458
325.6980, 175.9873
326.1801, 177.2124
326.6622, 178.3934
327.1443, 179.5540
327.6265, 180.6366
328.1086, 181.5869
328.5907, 182.4520
329.0728, 183.1232
329.5549, 183.5793
330.0370, 183.8213
330.5192, 183.8950
331.0013, 183.8344
331.4834, 183.5804
331.9655, 183.0728
332.4476, 182.1378
332.9297, 181.2642
333.4119, 180.6843
333.8940, 180.2215
334.3761, 179.0112
334.8582, 176.6285
335.3403, 174.2139
335.8224, 172.4238
336.3046, 171.5931
336.7867, 170.3363
337.2688, 168.4565
337.7509, 166.2569
338.2330, 164.2851
338.7151, 162.5679
339.1973, 161.0443
339.6794, 159.7571
340.1615, 158.7398
340.6436, 157.4558
341.1257, 155.8442
341.6078, 154.1364
342.0900, 152.5910
342.5721, 151.2360
343.0542, 150.0569
343.5363, 149.1382
344.0184, 148.4027
344.5005, 147.4813
344.9827, 146.3714
345.4648, 145.1559
345.9469, 143.8454
346.4290, 142.4536
346.9111, 141.2114
347.3932, 140.1050
347.8754, 139.2243
348.3575, 138.9680
348.8396, 139.2722
349.3217, 139.4146
349.8038, 138.4945
350.2859, 137.0652
350.7681, 136.7113
351.2502, 137.8784
351.7323, 139.1187
352.2144, 138.5577
352.6965, 136.6513
353.1786, 134.7934
353.6608, 133.2827
354.1429, 132.3940
354.6250, 132.8833
355.1071, 134.8302
355.5892, 136.5268
356.0714, 136.5588
356.5535, 135.5164
357.0356, 134.2615
357.5177, 132.7075
357.9998, 131.3849
358.4819, 130.8161
358.9641, 130.8984
359.4462, 131.0824
359.9283, 131.1408
360.4104, 131.1439
360.8925, 131.1549
361.3746, 131.2187
361.8568, 131.2343
362.3389, 130.9406
362.8210, 130.5625
363.3031, 130.6035
363.7852, 131.7983
364.2673, 132.9836
364.7495, 133.5609
365.2316, 133.2931
365.7137, 133.0616
366.1958, 133.0048
366.6779, 133.0865
367.1600, 133.2638
367.6422, 133.6441
368.1243, 134.0040
368.6064, 134.2417
369.0885, 134.3451
369.5706, 134.6442
370.0527, 135.2273
370.5349, 135.9401
371.0170, 136.6839
371.4991, 137.3409
371.9812, 138.2321
372.4633, 139.5243
372.9454, 141.0671
373.4276, 142.2694
373.9097, 142.9362
374.3918, 143.6281
374.8739, 144.6186
375.3560, 146.0169
375.8381, 147.2385
376.3203, 148.1687
376.8024, 149.0519
377.2845, 150.2271
377.7666, 151.6797
378.2487, 153.4602
378.7308, 155.6005
379.2130, 158.0834
379.6951, 160.5984
380.1772, 163.1543
380.6593, 165.7997
381.1414, 168.5812
381.6235, 171.4870
382.1057, 174.6578
382.5878, 178.1148
383.0699, 181.8236
383.5520, 185.7406
384.0341, 189.8898
384.5162, 194.1448
384.9984, 198.3609
385.4805, 202.6751
385.9626, 207.4713
386.4447, 212.8330
386.9268, 218.4271
387.4089, 223.7626
387.8911, 229.0872
388.3732, 234.8368
388.8553, 241.4609
389.3374, 248.4547
389.8195, 255.2855
390.3016, 261.8736
390.7838, 268.5504
391.2659, 275.3902
391.7480, 282.3920
392.2301, 289.5475
392.7122, 296.7498
393.1943, 304.2416
393.6765, 312.1682
394.1586, 320.4730
394.6407, 328.8262
395.1228, 337.0477
395.6049, 345.3990
396.0870, 354.0794
396.5692, 363.0561
397.0513, 372.3872
397.5334, 382.2304
398.0155, 392.4312
398.4976, 402.6598
398.9797, 412.9162
399.4619, 423.2534
399.9440, 433.9754
400.4261, 445.0677
400.9082, 455.0874
401.3903, 463.1068
401.8724, 470.9205
402.3546, 480.0168
402.8367, 492.2654
403.3188, 501.4590
403.8009, 506.7664
404.2830, 509.0287
404.7651, 510.4067
405.2473, 511.1374
405.7294, 510.2982
406.2115, 507.5264
406.6936, 502.8492
407.1757, 496.2231
407.6578, 487.3883
408.1400, 477.2564
408.6221, 466.6774
409.1042, 455.6488
409.5863, 443.9259
410.0684, 431.1494
410.5505, 417.8887
411.0327, 404.5634
411.5148, 391.1478
411.9969, 378.5708
412.4790, 367.2292
412.9611, 357.0719
413.4432, 348.5373
413.9254, 341.9830
414.4075, 335.5122
414.8896, 326.7871
415.3717, 316.5245
415.8538, 306.4499
416.3359, 297.0037
416.8181, 288.4329
417.3002, 281.2350
417.7823, 275.3059
418.2644, 270.1276
418.7465, 265.6943
419.2286, 261.5732
419.7108, 257.3731
420.1929, 252.5567
420.6750, 248.1504
421.1571, 244.5789
421.6392, 241.6906
422.1213, 239.1927
422.6035, 237.0703
423.0856, 235.2715
423.5677, 233.8173
424.0498, 232.8272
424.5319, 231.8049
425.0140, 230.4618
425.4962, 229.1866
425.9783, 228.3693
426.4604, 228.2121
426.9425, 228.2318
427.4246, 228.4155
427.9067, 228.7422
428.3889, 229.0147
428.8710, 229.1083
429.3531, 229.3663
429.8352, 229.9356
430.3173, 230.7659
430.7994, 232.1733
431.2816, 234.2721
431.7637, 236.7655
432.2458, 239.0853
432.7279, 241.2005
433.2100, 243.6220
433.6921, 246.6157
434.1743, 250.0494
434.6564, 253.2555
435.1385, 256.2546
435.6206, 259.5451
436.1027, 263.7355
436.5848, 268.5650
437.0670, 273.3110
437.5491, 277.8159
438.0312, 282.2902
438.5133, 286.9508
438.9954, 291.8213
439.4775, 296.9629
439.9597, 302.4795
440.4418, 308.2427
440.9239, 314.1251
441.4060, 320.1224
441.8881, 326.3709
442.3702, 332.8871
442.8524, 339.6459
443.3345, 346.6864
443.8166, 354.3967
444.2987, 361.9350
444.7808, 368.7349
445.2629, 375.1212
445.7451, 382.1088
446.2272, 390.0052
446.7093, 398.2715
447.1914, 406.8388
447.6735, 416.0211
448.1556, 424.4611
448.6378, 431.6718
449.1199, 438.3843
449.6020, 445.4272
450.0841, 453.1783
450.5662, 460.1981
451.0483, 466.3411
451.5305, 471.6016
452.0126, 475.8543
452.4947, 479.1736
452.9768, 481.3675
453.4589, 482.3892
453.9410, 482.2302
454.4232, 480.8384
454.9053, 478.2459
455.3874, 474.2701
455.8695, 468.4308
456.3516, 460.8112
456.8337, 452.2763
457.3159, 442.7733
457.7980, 432.6773
458.2801, 422.5120
458.7622, 412.3253
459.2443, 402.0519
459.7264, 391.4335
460.2086, 380.8835
460.6907, 371.1542
461.1728, 362.4662
461.6549, 354.1571
462.1370, 345.9567
462.6191, 337.9254
463.1013, 330.3399
463.5834, 323.2301
464.0655, 316.6328
464.5476, 310.5797
465.0297, 305.1041
465.5118, 300.2437
465.9940, 296.6543
466.4761, 293.3140
466.9582, 289.6534
467.4403, 285.0986
467.9224, 281.1045
468.4045, 277.9390
468.8867, 275.2553
469.3688, 272.5294
469.8509, 269.8300
470.3330, 267.0414
470.8151, 264.0665
471.2972, 260.9495
471.7794, 258.1656
472.2615, 255.7523
472.7436, 253.5028
473.2257, 251.2966
473.7078, 249.1259
474.1899, 246.9406
474.6721, 244.7070
475.1542, 242.4991
475.6363, 240.4183
476.1184, 238.4586
476.6005, 236.5789
477.0826, 234.6105
477.5648, 232.8050
478.0469, 231.6113
478.5290, 230.9908
479.0111, 230.5943
479.4932, 230.1407
479.9753, 229.7883
480.4575, 229.7392
480.9396, 230.0658
481.4217, 230.5808
481.9038, 231.1479
482.3859, 231.8271
482.8680, 232.7022
483.3502, 233.9184
483.8323, 235.2178
484.3144, 236.4219
484.7965, 237.5467
485.2786, 239.0166
485.7607, 241.3916
486.2429, 243.7101
486.7250, 245.4196
487.2071, 245.8259
487.6892, 247.0981
488.1713, 249.6267
488.6534, 252.7486
489.1356, 255.4692
489.6177, 257.5194
490.0998, 260.0642
490.5819, 263.6130
491.0640, 267.9160
491.5461, 271.6726
492.0283, 274.9131
492.5104, 277.5950
492.9925, 279.3756
493.4746, 280.4810
493.9567, 281.9302
494.4388, 283.8340
494.9210, 285.9837
495.4031, 288.5135
495.8852, 291.1235
496.3673, 293.1221
496.8494, 294.0137
497.3315, 294.3687
497.8137, 294.6177
498.2958, 294.7663
498.7779, 294.8399
499.2600, 295.2249
499.7421, 295.2809
500.2242, 294.5275
500.7064, 292.8089
501.1885, 290.7008
501.6706, 288.2697
502.1527, 285.6019
502.6348, 282.8228
503.1169, 279.9425
503.5991, 276.9716
504.0812, 274.0517
504.5633, 271.0904
505.0454, 267.6199
505.5275, 263.5196
506.0096, 259.2152
506.4918, 254.8391
506.9739, 250.3316
507.4560, 246.0471
507.9381, 242.0619
508.4202, 238.0897
508.9023, 233.8347
509.3845, 229.3070
509.8666, 224.6418
510.3487, 219.7725
510.8308, 214.9471
511.3129, 210.5358
511.7950, 206.5244
512.2772, 202.8439
512.7593, 199.6770
513.2414, 196.7120
513.7235, 193.5301
514.2056, 190.1272
514.6877, 186.6589
515.1699, 182.9809
515.6520, 179.4075
516.1341, 176.2637
516.6162, 173.8150
517.0983, 171.4017
517.5804, 168.8678
518.0626, 166.1981
518.5447, 163.3685
519.0268, 159.8360
519.5089, 156.7152
519.9910, 154.3461
520.4731, 152.6788
520.9553, 151.1317
521.4374, 149.8441
521.9195, 148.4973
522.4016, 146.8716
522.8837, 144.9056
523.3658, 143.0656
523.8480, 141.3558
524.3301, 139.7712
524.8122, 138.3521
525.2943, 137.0974
525.7764, 135.8786
526.2585, 134.6779
526.7407, 133.4787
527.2228, 132.1955
527.7049, 130.8429
528.1870, 129.5443
528.6691, 128.2069
529.1512, 127.0324
529.6334, 126.3823
530.1155, 126.2926
530.5976, 126.1023
531.0797, 125.3349
531.5618, 124.3006
532.0439, 123.3194
532.5261, 122.5613
533.0082, 121.7134
533.4903, 120.4461
533.9724, 119.0465
534.4545, 118.1066
534.9366, 118.2403
535.4188, 118.1890
535.9009, 117.4419
536.3830, 116.0354
536.8651, 115.6969
537.3472, 116.9956
537.8293, 118.2464
538.3115, 118.2900
538.7936, 117.0592
539.2757, 115.5416
539.7578, 113.6563
540.2399, 111.8821
540.7220, 110.9830
541.2042, 110.8287
541.6863, 110.5957
542.1684, 109.9634
542.6505, 109.2008
543.1326, 108.7282
543.6147, 108.4730
544.0969, 108.1458
544.5790, 107.3777
545.0611, 106.6079
545.5432, 106.2642
546.0253, 106.4020
546.5074, 106.5154
546.9896, 106.4950
547.4717, 106.3030
547.9538, 105.8991
548.4359, 104.8923
548.9180, 104.2034
549.4001, 104.0958
549.8823, 104.2838
550.3644, 104.2935
550.8465, 104.0812
551.3286, 103.7676
551.8107, 103.3472
552.2928, 102.8411
552.7750, 102.4563
553.2571, 102.2341
553.7392, 101.9258
554.2213, 101.2086
554.7034, 100.2104
555.1855, 99.72829
555.6677, 99.85398
556.1498, 100.0861
556.6319, 99.94508
557.1140, 99.51368
557.5961, 98.91980
558.0782, 98.02998
558.5604, 97.27451
559.0425, 97.18314
559.5246, 97.49403
560.0067, 97.62618
560.4888, 97.14713
560.9709, 96.61274
561.4531, 96.29957
561.9352, 96.21590
562.4173, 96.07015
562.8994, 95.73746
563.3815, 95.40434
563.8636, 95.17239
564.3458, 95.11429
564.8279, 94.96138
565.3100, 94.67644
565.7921, 94.34288
566.2742, 93.92245
566.7563, 93.33463
567.2385, 93.55567
567.7206, 95.17712
568.2027, 97.24489
568.6848, 97.49788
569.1669, 96.12416
569.6490, 94.48251
570.1312, 93.09265
570.6133, 91.95330
571.0954, 91.08968
571.5775, 90.48917
572.0596, 90.11933
572.5417, 90.06019
573.0239, 90.15146
573.5060, 90.28859
573.9881, 90.52750
574.4702, 90.60746
574.9523, 90.25381
575.4344, 89.77114
575.9166, 89.54978
576.3987, 89.85721
576.8808, 90.10503
577.3629, 90.24517
577.8450, 90.28086
578.3271, 90.21902
578.8093, 90.04623
579.2914, 89.81188
579.7735, 89.50607
580.2556, 89.14855
580.7377, 88.82810
581.2198, 88.53384
581.7020, 88.40768
582.1841, 88.81638
582.6662, 89.45818
583.1483, 89.49625
583.6304, 88.71133
584.1125, 87.91968
584.5947, 88.02102
585.0768, 88.53379
585.5589, 88.74448
586.0410, 87.92346
586.5231, 87.30341
587.0052, 87.67520
587.4874, 88.66330
