##NAMES=Roubaultite
##RRUFFID=R080131
##IDEAL CHEMISTRY=Cu^2+^_2_O_2_(U^6+^O_2_)_3_(CO_3_)_2_(OH)_2_&#183;4H_2_O
##LOCALITY=KOV mine, Kamoto, Shaba, Democratic Republic of Congo
##OWNER=RRUFF
##SOURCE=William W. Pinch
##DESCRIPTION=Lime green, granular, associated with pale yellow acicular uranophane
##STATUS=The identification of this mineral has been confirmed by single-crystal X-ray diffraction.
##URL=rruff.info/R080131
90.52570, 0.0000000E+00
91.00781, 134.4017
91.48993, 128.3855
91.97205, 125.9840
92.45416, 128.1771
92.93628, 133.9173
93.41840, 140.9650
93.90051, 148.9130
94.38263, 158.0588
94.86475, 168.9765
95.34686, 181.6646
95.82898, 195.9971
96.31110, 211.3874
96.79321, 228.0022
97.27533, 247.2471
97.75745, 269.2031
98.23956, 293.7986
98.72168, 319.7461
99.20380, 346.3353
99.68591, 375.6666
100.1680, 410.1876
100.6501, 449.9423
101.1323, 493.1560
101.6144, 538.4990
102.0965, 585.6384
102.5786, 638.7479
103.0607, 698.5621
103.5428, 764.0710
104.0250, 835.5063
104.5071, 913.9229
104.9892, 995.4875
105.4713, 1078.553
105.9534, 1164.223
106.4355, 1248.758
106.9177, 1334.330
107.3998, 1418.851
107.8819, 1498.755
108.3640, 1573.835
108.8461, 1643.553
109.3282, 1708.500
109.8104, 1761.328
110.2925, 1816.344
110.7746, 1871.823
111.2567, 1928.295
111.7388, 1992.399
112.2209, 2065.174
112.7031, 2144.877
113.1852, 2231.206
113.6673, 2326.082
114.1494, 2424.962
114.6315, 2527.371
115.1136, 2634.199
115.5958, 2743.442
116.0779, 2857.583
116.5600, 2972.995
117.0421, 3085.125
117.5242, 3195.523
118.0063, 3301.187
118.4885, 3401.137
118.9706, 3494.691
119.4527, 3585.645
119.9348, 3676.440
120.4169, 3765.698
120.8990, 3852.353
121.3812, 3936.672
121.8633, 4017.166
122.3454, 4090.287
122.8275, 4153.843
123.3096, 4215.686
123.7917, 4281.084
124.2739, 4350.063
124.7560, 4422.695
125.2381, 4500.053
125.7202, 4581.295
126.2023, 4663.561
126.6844, 4746.111
127.1666, 4830.605
127.6487, 4918.635
128.1308, 5010.681
128.6129, 5107.037
129.0950, 5210.081
129.5771, 5318.853
130.0593, 5430.553
130.5414, 5544.158
131.0235, 5659.247
131.5056, 5768.367
131.9877, 5849.209
132.4698, 5902.130
132.9520, 5957.873
133.4341, 6016.396
133.9162, 6074.749
134.3983, 6133.094
134.8804, 6190.806
135.3625, 6242.400
135.8447, 6286.963
136.3268, 6329.019
136.8089, 6375.272
137.2910, 6426.311
137.7731, 6479.281
138.2552, 6533.185
138.7374, 6587.313
139.2195, 6645.573
139.7016, 6708.750
140.1837, 6775.694
140.6658, 6843.083
141.1479, 6911.286
141.6301, 6979.880
142.1122, 7050.746
142.5943, 7129.195
143.0764, 7196.593
143.5585, 7255.938
144.0406, 7304.273
144.5228, 7332.760
145.0049, 7339.819
145.4870, 7329.289
145.9691, 7303.044
146.4512, 7257.250
146.9333, 7201.945
147.4155, 7138.143
147.8976, 7065.294
148.3797, 6982.422
148.8618, 6873.694
149.3439, 6765.439
149.8260, 6674.596
150.3082, 6611.124
150.7903, 6552.721
151.2724, 6496.464
151.7545, 6442.479
152.2366, 6391.875
152.7188, 6342.127
153.2009, 6296.564
153.6830, 6258.438
154.1651, 6235.899
154.6472, 6212.646
155.1293, 6184.158
155.6115, 6149.108
156.0936, 6117.470
156.5757, 6093.583
157.0578, 6073.004
157.5399, 6051.228
158.0220, 6024.425
158.5042, 5998.787
158.9863, 5977.363
159.4684, 5961.167
159.9505, 5945.533
160.4326, 5930.368
160.9147, 5914.948
161.3969, 5898.136
161.8790, 5877.428
162.3611, 5856.817
162.8432, 5837.852
163.3253, 5820.303
163.8074, 5806.220
164.2896, 5798.753
164.7717, 5795.309
165.2538, 5790.779
165.7359, 5780.640
166.2180, 5769.608
166.7001, 5761.200
167.1823, 5756.482
167.6644, 5753.386
168.1465, 5751.767
168.6286, 5750.925
169.1107, 5748.967
169.5928, 5743.458
170.0750, 5736.906
170.5571, 5731.830
171.0392, 5729.101
171.5213, 5727.680
172.0034, 5727.215
172.4855, 5727.576
172.9677, 5728.042
173.4498, 5727.739
173.9319, 5727.415
174.4140, 5728.152
174.8961, 5730.542
175.3782, 5733.775
175.8604, 5736.874
176.3425, 5739.939
176.8246, 5743.700
177.3067, 5748.928
177.7888, 5755.273
178.2709, 5762.073
178.7531, 5770.189
179.2352, 5777.914
179.7173, 5782.197
180.1994, 5783.169
180.6815, 5783.450
181.1636, 5783.788
181.6458, 5785.015
182.1279, 5789.813
182.6100, 5801.563
183.0921, 5816.362
183.5742, 5825.417
184.0563, 5828.288
184.5385, 5831.029
185.0206, 5840.755
185.5027, 5856.046
185.9848, 5869.647
186.4669, 5877.760
186.9490, 5882.427
187.4312, 5890.502
187.9133, 5902.165
188.3954, 5914.851
188.8775, 5924.803
189.3596, 5932.366
189.8417, 5941.493
190.3239, 5954.812
190.8060, 5971.288
191.2881, 5984.426
191.7702, 5993.460
192.2523, 6001.848
192.7344, 6015.728
193.2166, 6035.080
193.6987, 6051.169
194.1808, 6058.592
194.6629, 6058.365
195.1450, 6063.021
195.6271, 6073.493
196.1093, 6086.476
196.5914, 6097.021
197.0735, 6104.880
197.5556, 6113.037
198.0377, 6122.563
198.5198, 6133.506
199.0020, 6145.521
199.4841, 6158.961
199.9662, 6172.724
200.4483, 6185.073
200.9304, 6195.729
201.4125, 6206.432
201.8947, 6218.427
202.3768, 6231.963
202.8589, 6243.403
203.3410, 6252.349
203.8231, 6259.794
204.3052, 6267.068
204.7874, 6273.962
205.2695, 6281.897
205.7516, 6292.268
206.2337, 6305.818
206.7158, 6316.614
207.1979, 6323.631
207.6801, 6328.891
208.1622, 6336.316
208.6443, 6346.161
209.1264, 6357.511
209.6085, 6370.431
210.0906, 6385.542
210.5728, 6399.330
211.0549, 6411.143
211.5370, 6421.980
212.0191, 6433.727
212.5012, 6446.614
212.9833, 6460.207
213.4655, 6474.664
213.9476, 6490.969
214.4297, 6504.851
214.9118, 6515.527
215.3939, 6524.142
215.8760, 6534.370
216.3581, 6548.057
216.8403, 6559.336
217.3224, 6565.302
217.8045, 6565.398
218.2866, 6561.408
218.7687, 6551.777
219.2508, 6538.491
219.7330, 6527.438
220.2151, 6519.860
220.6972, 6511.884
221.1793, 6501.649
221.6614, 6488.297
222.1435, 6474.077
222.6257, 6457.479
223.1078, 6440.406
223.5899, 6428.201
224.0720, 6423.401
224.5541, 6419.487
225.0362, 6413.191
225.5184, 6403.128
226.0005, 6394.501
226.4826, 6387.316
226.9647, 6381.808
227.4468, 6378.225
227.9289, 6376.451
228.4111, 6377.148
228.8932, 6380.982
229.3753, 6389.431
229.8574, 6397.721
230.3395, 6405.388
230.8216, 6412.928
231.3038, 6422.063
231.7859, 6434.105
232.2680, 6445.633
232.7501, 6454.705
233.2322, 6459.000
233.7143, 6466.045
234.1965, 6477.426
234.6786, 6491.213
235.1607, 6502.630
235.6428, 6512.909
236.1249, 6518.803
236.6070, 6518.214
237.0892, 6507.487
237.5713, 6498.305
238.0534, 6492.452
238.5355, 6487.590
239.0176, 6477.695
239.4997, 6460.893
239.9819, 6441.445
240.4640, 6421.203
240.9461, 6400.008
241.4282, 6378.073
241.9103, 6354.770
242.3924, 6330.987
242.8746, 6309.062
243.3567, 6290.680
243.8388, 6271.706
244.3209, 6249.354
244.8030, 6219.542
245.2851, 6198.526
245.7673, 6190.136
246.2494, 6189.075
246.7315, 6183.634
247.2136, 6170.789
247.6957, 6158.424
248.1778, 6149.334
248.6600, 6143.756
249.1421, 6141.314
249.6242, 6143.767
250.1063, 6148.375
250.5884, 6149.591
251.0705, 6145.401
251.5527, 6141.102
252.0348, 6138.315
252.5169, 6136.736
252.9990, 6137.795
253.4811, 6142.856
253.9632, 6149.605
254.4454, 6153.886
254.9275, 6154.917
255.4096, 6154.929
255.8917, 6154.297
256.3738, 6152.583
256.8560, 6152.319
257.3381, 6153.749
257.8202, 6156.439
258.3023, 6159.876
258.7844, 6164.249
259.2665, 6168.938
259.7487, 6173.710
260.2308, 6178.460
260.7129, 6183.822
261.1950, 6189.315
261.6771, 6195.862
262.1592, 6205.501
262.6414, 6220.305
263.1235, 6232.581
263.6056, 6238.819
264.0877, 6238.385
264.5698, 6242.848
265.0519, 6254.208
265.5341, 6267.701
266.0162, 6277.811
266.4983, 6283.570
266.9804, 6288.735
267.4625, 6294.237
267.9446, 6300.031
268.4268, 6305.808
268.9089, 6311.876
269.3910, 6317.203
269.8731, 6320.743
270.3552, 6322.325
270.8373, 6322.559
271.3195, 6321.218
271.8016, 6318.440
272.2837, 6315.970
272.7658, 6313.838
273.2479, 6311.787
273.7300, 6309.974
274.2122, 6308.765
274.6943, 6305.623
275.1764, 6299.535
275.6585, 6291.202
276.1406, 6284.127
276.6227, 6278.508
277.1049, 6273.703
277.5870, 6269.610
278.0691, 6266.408
278.5512, 6262.170
279.0333, 6256.396
279.5154, 6249.497
279.9976, 6242.486
280.4797, 6235.133
280.9618, 6228.708
281.4439, 6224.860
281.9260, 6223.618
282.4081, 6219.912
282.8903, 6212.586
283.3724, 6202.916
283.8545, 6193.538
284.3366, 6184.380
284.8187, 6176.126
285.3008, 6169.466
285.7830, 6164.266
286.2651, 6159.769
286.7472, 6156.104
287.2293, 6152.657
287.7114, 6147.457
288.1935, 6140.509
288.6757, 6135.351
289.1578, 6136.163
289.6399, 6141.186
290.1220, 6140.917
290.6041, 6133.966
291.0862, 6124.405
291.5684, 6117.285
292.0505, 6112.516
292.5326, 6109.576
293.0147, 6109.481
293.4968, 6111.045
293.9789, 6110.496
294.4611, 6107.584
294.9432, 6103.745
295.4253, 6099.692
295.9074, 6095.852
296.3895, 6094.003
296.8716, 6096.339
297.3538, 6100.875
297.8359, 6103.669
298.3180, 6104.729
298.8001, 6104.705
299.2822, 6104.153
299.7643, 6103.002
300.2465, 6100.932
300.7286, 6095.704
301.2107, 6090.927
301.6928, 6092.651
302.1749, 6100.515
302.6570, 6109.076
303.1392, 6114.464
303.6213, 6117.542
304.1034, 6119.677
304.5855, 6121.476
305.0676, 6122.318
305.5497, 6120.995
306.0319, 6117.897
306.5140, 6114.967
306.9961, 6113.929
307.4782, 6113.594
307.9603, 6112.627
308.4424, 6110.893
308.9246, 6107.978
309.4067, 6102.776
309.8888, 6095.938
310.3709, 6089.298
310.8530, 6084.913
311.3351, 6080.576
311.8173, 6074.298
312.2994, 6065.305
312.7815, 6055.556
313.2636, 6045.406
313.7457, 6035.502
314.2278, 6026.929
314.7100, 6021.015
315.1921, 6016.170
315.6742, 6011.646
316.1563, 6007.491
316.6384, 6003.295
317.1205, 5998.593
317.6027, 5993.950
318.0848, 5990.090
318.5669, 5988.716
319.0490, 5986.831
319.5311, 5983.498
320.0132, 5978.639
320.4954, 5971.887
320.9775, 5959.456
321.4596, 5946.822
321.9417, 5938.838
322.4238, 5941.617
322.9059, 5943.741
323.3881, 5942.555
323.8702, 5938.226
324.3523, 5933.238
324.8344, 5925.642
325.3165, 5919.073
325.7986, 5915.616
326.2808, 5918.216
326.7629, 5920.766
327.2450, 5923.749
327.7271, 5926.659
328.2092, 5927.463
328.6913, 5923.683
329.1735, 5919.978
329.6556, 5918.169
330.1377, 5919.314
330.6198, 5920.295
331.1019, 5921.423
331.5840, 5922.196
332.0662, 5921.521
332.5483, 5917.626
333.0304, 5914.654
333.5125, 5914.282
333.9946, 5917.210
334.4767, 5918.458
334.9589, 5916.694
335.4410, 5914.482
335.9231, 5915.597
336.4052, 5921.950
336.8873, 5926.638
337.3694, 5927.716
337.8515, 5925.429
338.3336, 5923.141
338.8158, 5920.764
339.2979, 5918.813
339.7800, 5918.005
340.2621, 5918.655
340.7442, 5918.846
341.2263, 5918.075
341.7085, 5916.805
342.1906, 5916.319
342.6727, 5916.555
343.1548, 5918.017
343.6369, 5922.380
344.1190, 5929.224
344.6012, 5932.345
345.0833, 5930.310
345.5654, 5925.544
346.0475, 5921.401
346.5296, 5917.920
347.0117, 5916.271
347.4939, 5919.009
347.9760, 5924.178
348.4581, 5924.874
348.9402, 5920.131
349.4223, 5914.462
349.9044, 5913.198
350.3866, 5915.312
350.8687, 5917.243
351.3508, 5918.180
351.8329, 5917.827
352.3150, 5914.866
352.7971, 5909.384
353.2793, 5904.513
353.7614, 5903.685
354.2435, 5904.834
354.7256, 5904.500
355.2077, 5900.838
355.6898, 5896.382
356.1720, 5893.594
356.6541, 5892.009
357.1362, 5889.701
357.6183, 5885.025
358.1004, 5879.369
358.5826, 5873.694
359.0647, 5867.639
359.5468, 5862.955
360.0289, 5862.046
360.5110, 5863.077
360.9931, 5862.551
361.4753, 5857.540
361.9574, 5851.889
362.4395, 5847.020
362.9216, 5842.842
363.4037, 5841.042
363.8858, 5845.431
364.3680, 5851.224
364.8501, 5853.391
365.3322, 5847.811
365.8143, 5841.772
366.2964, 5836.240
366.7785, 5831.352
367.2607, 5829.028
367.7428, 5831.056
368.2249, 5834.709
368.7070, 5838.382
369.1891, 5841.901
369.6712, 5845.615
370.1534, 5849.890
370.6355, 5854.321
371.1176, 5857.548
371.5997, 5857.749
372.0818, 5858.823
372.5639, 5862.689
373.0461, 5870.825
373.5282, 5876.347
374.0103, 5878.374
374.4924, 5878.518
374.9745, 5879.138
375.4566, 5880.289
375.9388, 5881.778
376.4209, 5883.748
376.9030, 5886.221
377.3851, 5887.826
377.8672, 5888.089
378.3493, 5889.500
378.8315, 5895.072
379.3136, 5905.037
379.7957, 5914.967
380.2778, 5924.713
380.7599, 5933.546
381.2420, 5938.916
381.7242, 5940.732
382.2063, 5943.086
382.6884, 5949.064
383.1705, 5957.683
383.6526, 5965.523
384.1347, 5972.041
384.6169, 5978.001
385.0990, 5984.755
385.5811, 5991.709
386.0632, 5996.826
386.5453, 5997.752
387.0274, 5996.914
387.5096, 5997.270
387.9917, 5998.889
388.4738, 6001.537
388.9559, 6006.207
389.4380, 6011.518
389.9201, 6015.763
390.4023, 6019.343
390.8844, 6020.726
391.3665, 6016.510
391.8486, 6008.573
392.3307, 6003.874
392.8128, 6010.867
393.2950, 6018.792
393.7771, 6019.857
394.2592, 6010.421
394.7413, 6000.313
395.2234, 5991.000
395.7055, 5983.221
396.1877, 5978.171
396.6698, 5979.846
397.1519, 5980.669
397.6340, 5977.838
398.1161, 5970.795
398.5982, 5964.631
399.0804, 5961.110
399.5625, 5957.871
400.0446, 5953.212
400.5267, 5945.820
401.0088, 5939.162
401.4909, 5933.118
401.9731, 5928.142
402.4552, 5926.537
402.9373, 5931.087
403.4194, 5934.558
403.9015, 5932.108
404.3836, 5920.345
404.8658, 5916.889
405.3479, 5924.583
405.8300, 5936.607
406.3121, 5942.185
406.7942, 5940.104
407.2763, 5939.367
407.7585, 5943.114
408.2406, 5950.529
408.7227, 5957.507
409.2048, 5963.989
409.6869, 5969.724
410.1690, 5973.071
410.6512, 5974.947
411.1333, 5980.665
411.6154, 5992.672
412.0975, 6006.349
412.5796, 6014.511
413.0617, 6018.018
413.5439, 6021.222
414.0260, 6025.093
414.5081, 6030.869
414.9902, 6041.081
415.4723, 6056.334
415.9544, 6072.274
416.4366, 6084.126
416.9187, 6094.576
417.4008, 6107.565
417.8829, 6127.556
418.3650, 6148.052
418.8471, 6164.116
419.3293, 6176.662
419.8114, 6192.214
420.2935, 6210.996
420.7756, 6235.351
421.2577, 6266.670
421.7398, 6307.767
422.2220, 6351.651
422.7041, 6397.332
423.1862, 6445.079
423.6683, 6495.458
424.1504, 6548.539
424.6325, 6605.178
425.1147, 6665.308
425.5968, 6729.935
426.0789, 6795.714
426.5610, 6860.195
427.0431, 6928.078
427.5252, 7002.876
428.0074, 7086.885
428.4895, 7172.314
428.9716, 7257.157
429.4537, 7342.002
429.9358, 7426.990
430.4179, 7510.753
430.9001, 7598.292
431.3822, 7691.788
431.8643, 7791.283
432.3464, 7891.919
432.8285, 7992.559
433.3106, 8098.019
433.7928, 8215.198
434.2749, 8343.332
434.7570, 8476.021
435.2391, 8611.169
435.7212, 8749.794
436.2033, 8895.738
436.6855, 9047.376
437.1676, 9200.693
437.6497, 9356.246
438.1318, 9510.341
438.6139, 9659.928
439.0960, 9807.608
439.5782, 9939.490
440.0603, 10046.93
440.5424, 10130.55
441.0245, 10190.19
441.5066, 10236.76
441.9887, 10251.42
442.4709, 10224.29
442.9530, 10155.03
443.4351, 10045.89
443.9172, 9888.610
444.3993, 9697.413
444.8814, 9484.161
445.3636, 9234.620
445.8457, 8982.911
446.3278, 8726.856
446.8099, 8472.999
447.2920, 8230.494
447.7741, 7996.308
448.2563, 7775.469
448.7384, 7573.323
449.2205, 7388.167
449.7026, 7218.643
450.1847, 7066.428
450.6668, 6930.203
451.1490, 6810.475
451.6311, 6708.652
452.1132, 6617.146
452.5953, 6534.387
453.0774, 6460.944
453.5595, 6395.415
454.0417, 6338.093
454.5238, 6283.535
455.0059, 6224.802
455.4880, 6164.971
455.9701, 6118.955
456.4522, 6088.443
456.9344, 6064.853
457.4165, 6040.499
457.8986, 6015.644
458.3807, 5991.734
458.8628, 5968.450
459.3449, 5946.860
459.8271, 5928.091
460.3092, 5911.938
460.7913, 5897.125
461.2734, 5881.368
461.7555, 5867.623
462.2376, 5859.253
462.7198, 5858.055
463.2019, 5856.265
463.6840, 5848.337
464.1661, 5838.415
464.6482, 5831.508
465.1303, 5831.499
465.6125, 5831.812
466.0946, 5831.036
466.5767, 5829.128
467.0588, 5826.275
467.5409, 5821.040
468.0230, 5816.165
468.5052, 5812.765
468.9873, 5810.747
469.4694, 5810.736
469.9515, 5813.720
470.4336, 5817.953
470.9157, 5820.849
471.3979, 5821.874
471.8800, 5823.685
472.3621, 5827.424
472.8442, 5832.490
473.3263, 5835.186
473.8084, 5834.986
474.2906, 5836.428
474.7727, 5844.884
475.2548, 5858.373
475.7369, 5867.100
476.2190, 5869.534
476.7011, 5869.136
477.1833, 5868.871
477.6654, 5869.061
478.1475, 5870.664
478.6296, 5876.478
479.1117, 5882.244
479.5938, 5882.775
480.0760, 5878.784
480.5581, 5875.009
481.0402, 5874.997
481.5223, 5875.846
482.0044, 5875.547
482.4865, 5874.314
482.9687, 5870.474
483.4508, 5861.914
483.9329, 5850.792
484.4150, 5840.302
484.8971, 5832.921
485.3792, 5824.085
485.8614, 5812.275
486.3435, 5797.669
486.8256, 5782.767
487.3077, 5767.135
487.7898, 5751.917
488.2719, 5737.741
488.7541, 5725.256
489.2362, 5712.627
489.7183, 5699.784
490.2004, 5686.847
490.6825, 5674.111
491.1646, 5661.661
491.6468, 5647.474
492.1289, 5629.083
492.6110, 5609.411
493.0931, 5597.422
493.5752, 5592.969
494.0573, 5588.580
494.5395, 5577.209
495.0216, 5562.244
495.5037, 5551.066
495.9858, 5545.359
496.4679, 5539.931
496.9500, 5529.403
497.4322, 5516.172
497.9143, 5504.393
498.3964, 5495.922
498.8785, 5489.194
499.3606, 5483.748
499.8427, 5479.456
500.3249, 5476.056
500.8070, 5475.147
501.2891, 5473.762
501.7712, 5470.148
502.2533, 5463.220
502.7354, 5456.717
503.2176, 5451.600
503.6997, 5446.678
504.1818, 5440.339
504.6639, 5429.363
505.1460, 5423.075
505.6281, 5424.621
506.1103, 5431.469
506.5924, 5433.466
507.0745, 5429.366
507.5566, 5424.572
508.0387, 5422.182
508.5208, 5421.982
509.0030, 5420.037
509.4851, 5416.261
509.9672, 5411.259
510.4493, 5404.275
510.9314, 5396.433
511.4135, 5392.096
511.8957, 5394.592
512.3778, 5397.477
512.8599, 5391.440
513.3420, 5379.375
513.8242, 5369.628
514.3063, 5367.361
514.7884, 5368.485
515.2705, 5370.971
515.7526, 5374.681
516.2347, 5376.518
516.7169, 5374.188
517.1990, 5370.036
517.6811, 5365.764
518.1632, 5360.566
518.6453, 5356.556
519.1274, 5353.843
519.6096, 5352.351
520.0917, 5352.257
520.5738, 5354.994
521.0559, 5356.546
521.5380, 5355.063
522.0201, 5350.888
522.5023, 5350.624
522.9844, 5355.648
523.4665, 5360.795
523.9486, 5361.921
524.4307, 5359.281
524.9128, 5357.348
525.3950, 5356.432
525.8771, 5356.508
526.3592, 5358.216
526.8413, 5361.007
527.3234, 5363.027
527.8055, 5363.671
528.2877, 5363.026
528.7698, 5360.868
529.2519, 5357.389
529.7340, 5353.407
530.2161, 5347.820
530.6982, 5342.995
531.1804, 5341.135
531.6625, 5343.104
532.1446, 5344.815
532.6267, 5345.433
533.1088, 5345.049
533.5909, 5343.747
534.0731, 5339.237
534.5552, 5336.837
535.0373, 5337.626
535.5194, 5340.690
536.0015, 5344.071
536.4836, 5348.814
536.9658, 5351.564
537.4479, 5350.423
537.9300, 5345.588
538.4121, 5342.084
538.8942, 5339.800
539.3763, 5339.110
539.8585, 5341.790
540.3406, 5346.841
540.8227, 5348.308
541.3048, 5344.898
541.7869, 5339.666
542.2690, 5335.928
542.7512, 5333.342
543.2333, 5331.070
543.7154, 5329.187
544.1975, 5327.149
544.6796, 5324.867
545.1617, 5322.174
545.6439, 5318.376
546.1260, 5311.592
546.6081, 5304.835
547.0902, 5299.946
547.5723, 5297.547
548.0544, 5295.548
548.5366, 5294.524
549.0187, 5293.295
549.5008, 5290.758
549.9829, 5285.846
550.4650, 5281.752
550.9471, 5279.534
551.4293, 5277.904
551.9114, 5273.706
552.3935, 5266.718
552.8756, 5258.242
553.3577, 5247.789
553.8398, 5236.270
554.3220, 5228.424
554.8041, 5224.334
555.2862, 5220.845
555.7683, 5214.891
556.2504, 5207.833
556.7325, 5202.172
557.2147, 5198.209
557.6968, 5195.771
558.1789, 5196.736
558.6610, 5198.608
559.1431, 5197.706
559.6252, 5190.208
560.1074, 5182.219
560.5895, 5176.461
561.0716, 5172.136
561.5537, 5166.756
562.0358, 5157.273
562.5179, 5149.042
563.0001, 5144.637
563.4822, 5144.622
563.9643, 5142.558
564.4464, 5137.933
564.9285, 5132.018
565.4106, 5125.577
565.8928, 5118.545
566.3749, 5111.434
566.8570, 5104.275
567.3391, 5096.951
567.8212, 5088.877
568.3033, 5080.191
568.7855, 5072.352
569.2676, 5065.581
569.7497, 5060.080
570.2318, 5056.616
570.7139, 5054.826
571.1960, 5052.856
571.6782, 5049.901
572.1603, 5046.134
572.6424, 5041.530
573.1245, 5035.997
573.6066, 5030.526
574.0887, 5026.350
574.5709, 5021.842
575.0530, 5015.636
575.5351, 5004.397
576.0172, 4996.042
576.4993, 4992.013
576.9814, 4990.388
577.4636, 4988.335
577.9457, 4986.068
578.4278, 4982.806
578.9099, 4978.201
579.3920, 4972.579
579.8741, 4967.101
580.3563, 4961.789
580.8384, 4956.434
581.3205, 4950.717
581.8026, 4944.795
582.2847, 4939.232
582.7668, 4933.987
583.2490, 4929.626
583.7311, 4927.847
584.2131, 4926.777
584.6953, 4924.014
585.1774, 4918.989
585.6595, 4912.271
586.1416, 4901.154
