##NAMES=Roweite
##RRUFFID=R130073
##IDEAL CHEMISTRY=Ca_2_Mn^2+^_2_B_4_O_7_(OH)_6_
##LOCALITY=Solongo B deposit, Vitim Plateau, Buriatia (Buryatia) Republic, Transbaikalia (Zabaykalye), Eastern-Siberian Region, Russia
##OWNER=RRUFF
##SOURCE=Michael Scott
##DESCRIPTION=Yellow crystals, associated with calcite and colorless frolovite, R070469.
##STATUS=The identification of this mineral has been confirmed only by single crystal X-ray diffraction.
##URL=rruff.info/R130073
92.04205, 375.0593
92.52417, 381.7390
93.00629, 391.0000
93.48840, 400.2978
93.97052, 406.1046
94.45264, 405.9235
94.93475, 404.3785
95.41687, 403.4611
95.89898, 403.7950
96.38110, 404.7563
96.86321, 405.9327
97.34533, 406.8931
97.82745, 406.7369
98.30956, 406.1125
98.79168, 405.7460
99.27380, 404.5478
99.75591, 401.5981
100.2380, 397.4136
100.7201, 393.4760
101.2023, 390.5226
101.6844, 388.5594
102.1665, 387.0497
102.6486, 385.7769
103.1307, 385.0017
103.6128, 385.0110
104.0950, 385.8265
104.5771, 387.1393
105.0592, 388.7914
105.5413, 390.6593
106.0234, 392.6316
106.5055, 394.7420
106.9877, 396.9189
107.4698, 398.8358
107.9519, 399.8150
108.4340, 401.3794
108.9161, 404.1797
109.3982, 408.0189
109.8804, 412.3586
110.3625, 416.7675
110.8446, 421.1988
111.3267, 425.8306
111.8088, 431.5039
112.2909, 436.7104
112.7731, 440.9174
113.2552, 443.9419
113.7373, 445.8009
114.2194, 446.4972
114.7015, 445.8693
115.1836, 444.0031
115.6658, 440.9826
116.1479, 436.7779
116.6300, 431.1392
117.1121, 423.9159
117.5942, 415.6612
118.0763, 407.6844
118.5584, 400.2483
119.0406, 392.4885
119.5227, 383.9100
120.0048, 374.7874
120.4869, 365.7811
120.9690, 357.1768
121.4511, 348.9572
121.9333, 340.9476
122.4154, 333.2315
122.8975, 325.5770
123.3796, 317.6992
123.8617, 309.4896
124.3438, 301.7987
124.8260, 295.2303
125.3081, 289.3784
125.7902, 283.9660
126.2723, 278.9665
126.7544, 274.3487
127.2365, 270.1268
127.7187, 266.3887
128.2008, 262.9335
128.6829, 259.9718
129.1650, 257.1366
129.6471, 253.8915
130.1292, 249.7928
130.6114, 244.9421
131.0935, 240.8429
131.5756, 238.2216
132.0577, 235.6796
132.5398, 232.9108
133.0219, 229.9426
133.5041, 226.9367
133.9862, 223.9855
134.4683, 221.0213
134.9504, 218.6192
135.4325, 216.9911
135.9146, 215.6260
136.3968, 214.2517
136.8789, 212.8370
137.3610, 211.5229
137.8431, 210.5793
138.3252, 210.1515
138.8073, 209.1873
139.2895, 207.2478
139.7716, 204.8875
140.2537, 202.7361
140.7358, 200.9515
141.2179, 199.3340
141.7000, 197.5716
142.1821, 195.6706
142.6643, 194.0350
143.1464, 192.9272
143.6285, 192.2432
144.1106, 191.6124
144.5927, 191.0151
145.0748, 190.3803
145.5570, 189.5833
146.0391, 188.6292
146.5212, 187.7711
147.0033, 187.2993
147.4854, 187.2637
147.9675, 187.1178
148.4497, 186.5902
148.9318, 186.0223
149.4139, 185.5904
149.8960, 185.3342
150.3781, 185.1835
150.8602, 185.0733
151.3424, 185.1185
151.8245, 184.9297
152.3066, 184.4005
152.7887, 183.7166
153.2708, 182.9487
153.7529, 182.1386
154.2351, 181.3811
154.7172, 180.9220
155.1993, 181.1143
155.6814, 181.2113
156.1635, 181.1000
156.6456, 180.8974
157.1278, 180.7583
157.6099, 180.7646
158.0920, 180.8653
158.5741, 180.8394
159.0562, 180.3783
159.5383, 180.1460
160.0205, 180.4936
160.5026, 181.2080
160.9847, 181.7764
161.4668, 181.8578
161.9489, 181.5908
162.4310, 181.6189
162.9131, 182.0782
163.3953, 182.6686
163.8774, 183.2473
164.3595, 183.8167
164.8416, 184.3843
165.3237, 184.9335
165.8058, 185.4938
166.2880, 186.1221
166.7701, 186.8116
167.2522, 187.5861
167.7343, 188.4891
168.2164, 189.5378
168.6985, 190.6269
169.1807, 191.7954
169.6628, 192.9410
170.1449, 193.9468
170.6270, 194.8433
171.1091, 195.5244
171.5912, 195.6348
172.0734, 194.7214
172.5555, 194.0770
173.0376, 194.4139
173.5197, 195.2506
174.0018, 195.9162
174.4839, 196.0158
174.9661, 195.6231
175.4482, 195.1752
175.9303, 194.7271
176.4124, 194.1432
176.8945, 193.2159
177.3766, 192.1400
177.8588, 191.2877
178.3409, 190.9839
178.8230, 191.2354
179.3051, 191.0177
179.7872, 189.9315
180.2693, 188.7726
180.7515, 187.6980
181.2336, 186.7379
181.7157, 185.9050
182.1978, 185.2216
182.6799, 184.7089
183.1620, 184.1357
183.6441, 183.4210
184.1263, 182.7290
184.6084, 182.1733
185.0905, 181.7365
185.5726, 181.2956
186.0547, 180.7310
186.5368, 180.0190
187.0190, 179.3874
187.5011, 178.9177
187.9832, 178.4737
188.4653, 177.8923
188.9474, 177.1702
189.4296, 176.5474
189.9117, 176.3238
190.3938, 176.4899
190.8759, 176.5362
191.3580, 176.2521
191.8401, 175.8955
192.3223, 175.7674
192.8044, 175.9226
193.2865, 176.1979
193.7686, 176.5093
194.2507, 176.8345
194.7328, 177.0771
195.2150, 177.2600
195.6971, 177.3322
196.1792, 177.0870
196.6613, 176.2748
197.1434, 175.6704
197.6255, 176.1188
198.1077, 177.2474
198.5898, 178.0939
199.0719, 177.8978
199.5540, 176.9457
200.0361, 176.5281
200.5182, 177.0931
201.0004, 177.6179
201.4825, 177.5325
201.9646, 176.9805
202.4467, 176.3276
202.9288, 175.8207
203.4109, 175.4480
203.8930, 175.0190
204.3752, 174.5540
204.8573, 174.0024
205.3394, 173.2288
205.8215, 172.3447
206.3036, 171.5956
206.7857, 171.2111
207.2679, 171.2105
207.7500, 171.1991
208.2321, 171.1446
208.7142, 171.1085
209.1963, 171.0863
209.6784, 171.0956
210.1606, 171.1820
210.6427, 171.4121
211.1248, 171.8220
211.6069, 172.0308
212.0890, 171.7669
212.5711, 171.5717
213.0533, 171.6992
213.5354, 172.1055
214.0175, 172.5844
214.4996, 172.9502
214.9817, 173.1838
215.4638, 173.4340
215.9460, 173.8192
216.4281, 174.1175
216.9102, 174.1657
217.3923, 173.9992
217.8744, 173.8094
218.3565, 173.7818
218.8387, 173.9470
219.3208, 173.9759
219.8029, 173.4643
220.2850, 173.1534
220.7671, 173.7018
221.2492, 175.0313
221.7314, 176.3401
222.2135, 176.9043
222.6956, 176.6579
223.1777, 176.6508
223.6598, 177.0978
224.1419, 177.6232
224.6240, 177.9163
225.1062, 177.9703
225.5883, 178.0366
226.0704, 178.3882
226.5525, 178.9583
227.0346, 179.2495
227.5167, 178.9895
227.9989, 178.5888
228.4810, 178.3943
228.9631, 178.4238
229.4452, 178.5979
229.9273, 178.8882
230.4094, 179.2874
230.8916, 179.7748
231.3737, 180.3918
231.8558, 181.0704
232.3379, 181.8174
232.8200, 182.6740
233.3021, 183.3053
233.7843, 183.2715
234.2664, 182.9075
234.7485, 182.7053
235.2306, 182.7695
235.7127, 183.0634
236.1948, 183.6084
236.6770, 184.4811
237.1591, 185.2989
237.6412, 185.8494
238.1233, 186.2424
238.6054, 186.5870
239.0875, 186.9282
239.5697, 187.2184
240.0518, 187.3648
240.5339, 187.3328
241.0160, 187.2675
241.4981, 187.4040
241.9802, 187.4641
242.4624, 187.0930
242.9445, 186.0955
243.4266, 184.8540
243.9087, 184.0768
244.3908, 183.9876
244.8729, 183.7526
245.3550, 183.1318
245.8372, 182.2890
246.3193, 181.3353
246.8014, 180.3036
247.2835, 179.2033
247.7656, 177.9883
248.2477, 176.5218
248.7299, 175.2891
249.2120, 174.4502
249.6941, 173.8017
250.1762, 173.2081
250.6583, 172.6254
251.1404, 172.0799
251.6226, 171.6169
252.1047, 171.2740
252.5868, 170.9394
253.0689, 170.6461
253.5510, 170.3298
254.0331, 169.8626
254.5153, 169.2442
254.9974, 168.6843
255.4795, 168.5524
255.9616, 169.1750
256.4437, 169.5224
256.9258, 169.3528
257.4080, 169.1162
257.8901, 169.1187
258.3722, 169.4084
258.8543, 169.8161
259.3364, 170.1216
259.8185, 170.3052
260.3007, 170.4230
260.7828, 170.3875
261.2649, 170.3673
261.7470, 170.4449
262.2291, 170.6399
262.7112, 170.9481
263.1934, 171.3847
263.6755, 172.0187
264.1576, 172.5228
264.6397, 172.8921
265.1218, 173.1631
265.6039, 173.3647
266.0861, 173.4907
266.5682, 173.4885
267.0503, 173.2713
267.5324, 172.7611
268.0145, 172.5687
268.4966, 172.9894
268.9788, 173.3920
269.4609, 173.4163
269.9430, 173.1199
270.4251, 172.7998
270.9072, 172.6971
271.3893, 172.8202
271.8715, 172.9464
272.3536, 173.3388
272.8357, 173.4829
273.3178, 172.9145
273.7999, 171.8788
274.2820, 171.0816
274.7642, 171.0555
275.2463, 171.7051
275.7284, 171.8337
276.2105, 170.9793
276.6926, 170.2346
277.1747, 170.0579
277.6568, 170.2691
278.1389, 170.4496
278.6211, 170.3723
279.1032, 170.0928
279.5853, 169.8411
280.0674, 169.5895
280.5495, 169.3893
281.0316, 169.3490
281.5138, 169.3585
281.9959, 169.1838
282.4780, 168.6977
282.9601, 168.0589
283.4422, 167.6968
283.9243, 167.7149
284.4065, 167.7579
284.8886, 167.7361
285.3707, 167.7020
285.8528, 167.7959
286.3349, 168.0917
286.8170, 168.3553
287.2992, 168.1328
287.7813, 167.2783
288.2634, 166.4920
288.7455, 165.7326
289.2276, 165.1603
289.7097, 165.1127
290.1919, 165.6868
290.6740, 166.3426
291.1561, 166.3350
291.6382, 165.5373
292.1203, 165.0833
292.6024, 165.4355
293.0846, 165.9814
293.5667, 166.0413
294.0488, 165.5367
294.5309, 165.0277
295.0130, 165.1126
295.4951, 165.7934
295.9773, 166.0748
296.4594, 165.5090
296.9415, 164.8303
297.4236, 164.6629
297.9057, 164.9951
298.3878, 165.3444
298.8700, 165.3382
299.3521, 165.0545
299.8342, 165.0225
300.3163, 165.6111
300.7984, 166.1115
301.2805, 165.9831
301.7627, 165.3559
302.2448, 164.8425
302.7269, 164.7844
303.2090, 165.0473
303.6911, 165.2036
304.1732, 165.2374
304.6554, 165.2102
305.1375, 165.0365
305.6196, 164.8155
306.1017, 164.8521
306.5838, 165.3345
307.0659, 165.9929
307.5481, 166.2683
308.0302, 166.0879
308.5123, 165.9311
308.9944, 165.9237
309.4765, 166.0452
309.9586, 166.2688
310.4408, 166.5902
310.9229, 166.9944
311.4050, 167.4212
311.8871, 167.8474
312.3692, 168.5426
312.8513, 169.7611
313.3335, 171.1826
313.8156, 172.4827
314.2977, 173.6145
314.7798, 174.5571
315.2619, 175.1978
315.7440, 175.5681
316.2262, 176.1417
316.7083, 177.1254
317.1904, 178.2064
317.6725, 179.0639
318.1546, 179.7162
318.6367, 180.4981
319.1188, 181.6710
319.6010, 183.1642
320.0831, 184.5747
320.5652, 185.9847
321.0473, 187.2437
321.5294, 188.1872
322.0115, 188.8887
322.4937, 189.6313
322.9758, 190.5555
323.4579, 191.5831
323.9400, 192.4761
324.4221, 193.1402
324.9042, 193.9005
325.3864, 194.9749
325.8685, 196.2112
326.3506, 197.3760
326.8327, 198.4286
327.3148, 199.2759
327.7969, 199.7204
328.2791, 199.7378
328.7612, 199.6384
329.2433, 199.3380
329.7254, 199.0136
330.2075, 198.9630
330.6896, 199.2381
331.1718, 199.4352
331.6539, 199.0929
332.1360, 198.1582
332.6181, 197.4124
333.1002, 197.1443
333.5823, 196.8758
334.0645, 196.2609
334.5466, 195.3029
335.0287, 194.1597
335.5108, 192.9137
335.9929, 191.5731
336.4750, 190.2579
336.9572, 189.0585
337.4393, 187.7730
337.9214, 186.0623
338.4035, 184.1855
338.8856, 182.9260
339.3677, 182.7895
339.8499, 183.1554
340.3320, 182.2181
340.8141, 179.0397
341.2962, 176.4634
341.7783, 175.2354
342.2604, 174.8264
342.7426, 174.6970
343.2247, 174.6949
343.7068, 174.6540
344.1889, 174.3204
344.6710, 173.5312
345.1531, 172.9168
345.6353, 172.4124
346.1174, 172.1370
346.5995, 172.2276
347.0816, 172.6697
347.5637, 173.3227
348.0458, 174.0919
348.5280, 174.9906
349.0101, 175.7308
349.4922, 176.1657
349.9743, 176.6186
350.4564, 177.1208
350.9385, 177.7426
351.4207, 178.6671
351.9028, 180.0317
352.3849, 181.7008
352.8670, 183.1036
353.3491, 183.8542
353.8312, 184.8150
354.3134, 186.1945
354.7955, 187.7945
355.2776, 189.5238
355.7597, 191.3276
356.2418, 192.9156
356.7239, 193.7600
357.2061, 193.2486
357.6882, 193.2277
358.1703, 194.0531
358.6524, 195.0528
359.1345, 195.7874
359.6166, 196.2161
360.0987, 196.5266
360.5808, 196.8978
361.0630, 197.3349
361.5451, 197.7776
362.0272, 198.2050
362.5093, 198.6567
362.9914, 199.1496
363.4735, 199.6783
363.9557, 200.2505
364.4378, 200.8874
364.9199, 201.5278
365.4020, 201.9029
365.8841, 201.8129
366.3662, 201.7129
366.8484, 201.6680
367.3305, 201.6351
367.8126, 201.6025
368.2947, 201.5579
368.7768, 201.4322
369.2589, 201.1420
369.7411, 200.7461
370.2232, 200.0015
370.7053, 198.6974
371.1874, 197.2370
371.6695, 195.7383
372.1516, 194.2581
372.6338, 192.8589
373.1159, 191.7071
373.5980, 190.7831
374.0801, 189.2809
374.5622, 186.4623
375.0443, 183.9675
375.5265, 182.6600
376.0086, 181.9346
376.4907, 180.8286
376.9728, 178.8023
377.4549, 176.2843
377.9370, 174.1924
378.4192, 172.5828
378.9013, 171.2539
379.3834, 170.4533
379.8655, 169.7239
380.3476, 168.6840
380.8297, 167.2607
381.3119, 165.7214
381.7940, 164.3165
382.2761, 163.0418
382.7582, 161.8069
383.2403, 160.4642
383.7224, 159.3467
384.2046, 158.7661
384.6867, 158.5964
385.1688, 158.3648
385.6509, 157.7956
386.1330, 156.9964
386.6151, 156.1506
387.0973, 155.2023
387.5794, 154.4179
388.0615, 154.0612
388.5436, 153.9361
389.0257, 153.7998
389.5078, 153.6582
389.9900, 153.4002
390.4721, 152.7436
390.9542, 151.7747
391.4363, 151.2289
391.9184, 151.4720
392.4005, 152.0981
392.8827, 152.6181
393.3648, 153.0577
393.8469, 153.2245
394.3290, 152.8835
394.8111, 152.2747
395.2932, 151.7407
395.7754, 151.3196
396.2575, 151.0515
396.7396, 151.0429
397.2217, 151.2631
397.7038, 151.3223
398.1859, 151.0164
398.6681, 150.7103
399.1501, 150.7184
399.6323, 150.9494
400.1144, 151.0584
400.5965, 150.8664
401.0786, 150.4519
401.5607, 150.0312
402.0428, 149.5871
402.5250, 149.1643
403.0071, 148.7534
403.4892, 148.3741
403.9713, 148.1038
404.4534, 147.9466
404.9355, 147.7302
405.4177, 147.2253
405.8998, 146.3382
406.3819, 145.6504
406.8640, 145.2634
407.3461, 144.9538
407.8282, 144.6248
408.3104, 144.2807
408.7925, 143.9504
409.2746, 143.6437
409.7567, 143.3760
410.2388, 143.2135
410.7209, 143.2740
411.2031, 143.2925
411.6852, 143.1198
412.1673, 142.9648
412.6494, 143.0435
413.1315, 143.4035
413.6136, 143.9136
414.0958, 144.4441
414.5779, 145.0612
415.0600, 145.4387
415.5421, 145.2097
416.0242, 145.0780
416.5063, 145.3838
416.9885, 146.0160
417.4706, 146.6563
417.9527, 147.0923
418.4348, 147.4012
418.9169, 147.8740
419.3990, 148.6010
419.8812, 149.2870
420.3633, 149.9328
420.8454, 150.4486
421.3275, 150.6715
421.8096, 150.5526
422.2917, 150.4037
422.7739, 150.5738
423.2560, 151.0451
423.7381, 151.4737
424.2202, 151.8461
424.7023, 152.1035
425.1844, 152.1203
425.6666, 151.9752
426.1487, 151.9611
426.6308, 152.3759
427.1129, 152.9127
427.5950, 153.0437
428.0771, 152.7410
428.5593, 152.5221
429.0414, 152.7907
429.5235, 153.2494
430.0056, 153.2418
430.4877, 152.5973
430.9698, 151.8734
431.4520, 151.2746
431.9341, 150.8042
432.4162, 150.5471
432.8983, 150.5635
433.3804, 150.5134
433.8625, 149.8992
434.3447, 148.6036
434.8268, 147.7864
435.3089, 148.0386
435.7910, 148.3083
436.2731, 147.7905
436.7552, 146.6542
437.2374, 145.5961
437.7195, 145.0314
438.2016, 144.8277
438.6837, 144.4937
439.1658, 143.9545
439.6479, 143.3758
440.1301, 142.7081
440.6122, 142.0420
441.0943, 141.4687
441.5764, 141.0071
442.0585, 140.6076
442.5406, 140.2111
443.0227, 139.8027
443.5049, 139.5051
443.9870, 139.5097
444.4691, 139.4289
444.9512, 139.0170
445.4333, 138.4649
445.9154, 138.0943
446.3976, 138.0824
446.8797, 138.2927
447.3618, 138.4161
447.8439, 138.3939
448.3260, 138.4590
448.8081, 138.7317
449.2903, 139.0495
449.7724, 139.2589
450.2545, 139.3785
450.7366, 139.6234
451.2187, 140.2804
451.7008, 141.2232
452.1830, 141.8882
452.6651, 142.2104
453.1472, 142.3834
453.6293, 142.5335
454.1114, 142.6005
454.5935, 142.4659
455.0757, 142.0605
455.5578, 141.5353
456.0399, 141.0043
456.5220, 140.4582
457.0041, 139.8284
457.4862, 139.0615
457.9684, 138.2755
458.4505, 137.6446
458.9326, 137.1675
459.4147, 136.6612
459.8968, 135.9805
460.3789, 135.3426
460.8611, 134.9454
461.3432, 134.7791
461.8253, 134.7584
462.3074, 134.8876
462.7895, 135.0660
463.2716, 134.8623
463.7538, 133.7314
464.2359, 132.9579
464.7180, 132.9859
465.2001, 133.2715
465.6822, 133.1946
466.1643, 132.6697
466.6465, 132.1349
467.1286, 132.0993
467.6107, 132.6346
468.0928, 132.9681
468.5749, 132.9586
469.0570, 132.8909
469.5392, 132.7421
470.0213, 132.6077
470.5034, 132.5860
470.9855, 132.7154
471.4676, 133.0473
471.9497, 133.7915
472.4319, 135.1293
472.9140, 136.0752
473.3961, 136.1537
473.8782, 136.0716
474.3603, 136.2287
474.8424, 136.5900
475.3246, 136.9130
475.8067, 137.0492
476.2888, 137.0515
476.7709, 137.0036
477.2530, 136.8868
477.7351, 136.8418
478.2173, 136.9556
478.6994, 137.1748
479.1815, 137.4770
479.6636, 137.9666
480.1457, 138.1496
480.6278, 137.5559
481.1100, 136.5421
481.5920, 135.7398
482.0742, 135.2607
482.5563, 134.9391
483.0384, 134.6499
483.5205, 134.3936
484.0026, 134.1362
484.4847, 133.7860
484.9669, 133.5323
485.4490, 133.6193
485.9311, 133.8184
486.4132, 133.6352
486.8953, 132.8903
487.3774, 132.0319
487.8596, 131.8470
488.3417, 132.7486
488.8238, 133.1870
489.3059, 132.8423
489.7880, 132.4217
490.2701, 132.0915
490.7523, 131.9704
491.2344, 132.2962
491.7165, 133.2862
492.1986, 134.6046
492.6807, 135.2681
493.1628, 134.9985
493.6450, 134.8411
494.1271, 134.9956
494.6092, 135.3508
495.0913, 135.9295
495.5734, 136.6918
496.0555, 137.4146
496.5377, 137.8155
497.0198, 138.0654
497.5019, 138.6758
497.9840, 139.7266
498.4661, 140.8168
498.9482, 141.7910
499.4304, 142.6462
499.9125, 143.3338
500.3946, 143.6907
500.8767, 144.2809
501.3588, 145.4492
501.8409, 147.0258
502.3231, 148.7053
502.8052, 150.4205
503.2873, 152.3460
503.7694, 154.6397
504.2515, 157.3347
504.7336, 160.2639
505.2158, 163.4902
505.6979, 166.8479
506.1800, 169.9782
506.6621, 173.2958
507.1442, 177.4416
507.6263, 182.6360
508.1085, 188.5329
508.5906, 194.6451
509.0727, 201.1245
509.5548, 207.2867
510.0369, 213.1223
510.5190, 218.6288
511.0012, 224.4300
511.4833, 229.8259
511.9654, 233.6146
512.4475, 235.2214
512.9296, 234.8622
513.4117, 232.7834
513.8939, 228.8840
514.3760, 223.9467
514.8581, 217.7637
515.3402, 210.8663
515.8223, 203.4470
516.3044, 195.6526
516.7866, 188.3853
517.2687, 182.0939
517.7508, 176.4601
518.2329, 171.0436
518.7150, 165.8558
519.1971, 161.1298
519.6793, 156.9388
520.1614, 153.3122
520.6435, 150.5069
521.1256, 148.6684
521.6077, 146.9738
522.0898, 145.2902
522.5720, 143.7007
523.0541, 142.2711
523.5362, 141.0188
524.0183, 139.9375
524.5004, 139.0273
524.9825, 138.2937
525.4647, 137.7465
525.9468, 137.3689
526.4289, 137.2375
526.9110, 137.6965
527.3931, 138.1566
527.8752, 137.9567
528.3574, 137.1461
528.8395, 136.5018
529.3216, 136.8807
529.8037, 138.0477
530.2858, 138.4982
530.7679, 137.9310
531.2501, 137.3415
531.7322, 137.1366
532.2143, 137.1386
532.6964, 137.1861
533.1785, 137.2560
533.6606, 137.3728
534.1428, 137.4958
534.6249, 137.6878
535.1070, 138.1303
535.5891, 138.8617
536.0712, 139.6348
536.5533, 140.2503
537.0355, 140.7462
537.5176, 141.3481
537.9997, 141.8343
538.4818, 142.6850
538.9639, 144.2018
539.4460, 146.0857
539.9282, 148.0343
540.4103, 149.9525
540.8924, 151.8080
541.3745, 153.5434
541.8566, 155.1534
542.3387, 156.8219
542.8209, 158.4789
543.3029, 160.2769
543.7850, 162.4454
544.2672, 164.6696
544.7493, 166.7677
545.2314, 168.6539
545.7135, 169.8849
546.1956, 169.8206
546.6777, 168.5425
547.1599, 167.0177
547.6420, 165.3345
548.1241, 163.3364
548.6062, 160.9055
549.0883, 158.0983
549.5704, 154.8557
550.0526, 150.9366
550.5347, 147.1040
551.0168, 143.8593
551.4989, 141.0289
551.9810, 138.1812
552.4631, 135.2194
552.9453, 132.4987
553.4274, 130.3752
553.9095, 128.8472
554.3916, 127.4462
554.8737, 126.3258
555.3558, 125.1288
555.8380, 123.4351
556.3201, 121.7474
556.8022, 120.8075
557.2843, 120.7453
557.7664, 120.9609
558.2485, 120.7542
558.7307, 120.1080
559.2128, 119.5836
559.6949, 119.2929
560.1770, 118.9714
560.6591, 118.4596
561.1412, 117.9024
561.6234, 117.4642
562.1055, 117.1884
562.5876, 117.0289
563.0697, 116.9474
563.5518, 116.9502
564.0339, 117.1063
564.5161, 117.4669
564.9982, 117.7543
565.4803, 117.7077
565.9624, 117.4218
566.4445, 117.3375
566.9266, 117.6307
567.4088, 117.8734
567.8909, 117.8098
568.3730, 117.6675
568.8551, 117.7746
569.3372, 118.1635
569.8193, 118.5664
570.3015, 118.6957
570.7836, 118.5834
571.2657, 118.8539
571.7478, 120.0118
572.2299, 120.8766
572.7120, 120.8716
573.1942, 120.7541
573.6763, 121.3394
574.1584, 122.6937
574.6405, 124.0940
575.1226, 124.8760
575.6047, 125.1769
576.0869, 125.4815
576.5690, 125.7005
577.0511, 126.3122
577.5332, 127.7622
578.0153, 129.6199
578.4974, 131.0643
578.9796, 131.8890
579.4617, 133.1786
579.9438, 135.7043
580.4259, 138.6921
580.9080, 141.2075
581.3901, 143.2486
581.8723, 145.3922
582.3544, 147.9580
582.8365, 150.9862
583.3186, 154.6405
583.8007, 159.5717
584.2828, 164.1760
584.7650, 168.1494
585.2471, 172.0617
585.7292, 176.0983
586.2113, 180.4051
586.6934, 185.2171
