##NAMES=Rruffite
##RRUFFID=R141211
##IDEAL CHEMISTRY=Ca_2_Cu^2+^(As^5+^O_4_)_2_&#183;2H_2_O
##LOCALITY=Jote mine, Pampa Larga District, Tierra Amarilla, Copiapo Province, Chile
##OWNER=RRUFF
##SOURCE=Bob Jenkins
##DESCRIPTION=Pale-blue to white euhedral crystals, associated with light-pinkish mansfieldite, green conichalcite, and blue lavedulan
##STATUS=The identification of this mineral is confirmed by single-crystal X-ray diffraction and chemical analysis.
##URL=rruff.info/R141211
##MEASURED CHEMISTRY=Ca_1.98_(Cu_0.97_Zn_0.03_)(As_1.06_O_4_)_2_Â·2H_2_O  ;  trace Mn, Mg
151.8245, 126.4600
152.3066, 127.6999
152.7887, 129.0929
153.2708, 130.5113
153.7529, 131.9008
154.2351, 133.3165
154.7172, 134.8964
155.1993, 136.8635
155.6814, 138.7308
156.1635, 140.3456
156.6456, 141.8881
157.1278, 143.5622
157.6099, 145.4726
158.0920, 147.5785
158.5741, 149.7189
159.0562, 151.8309
159.5383, 154.0390
160.0205, 156.5474
160.5026, 159.1854
160.9847, 161.5016
161.4668, 163.1034
161.9489, 164.2530
162.4310, 166.0690
162.9131, 169.3684
163.3953, 172.5010
163.8774, 174.2787
164.3595, 174.8332
164.8416, 175.4315
165.3237, 176.9626
165.8058, 179.0655
166.2880, 180.8729
166.7701, 182.2393
167.2522, 183.3280
167.7343, 184.4036
168.2164, 185.5557
168.6985, 186.2563
169.1807, 185.8167
169.6628, 184.8266
170.1449, 183.9865
170.6270, 183.6979
171.1091, 183.6391
171.5912, 183.0911
172.0734, 182.0135
172.5555, 180.4464
173.0376, 178.5136
173.5197, 176.1826
174.0018, 173.3530
174.4839, 169.9022
174.9661, 165.9229
175.4482, 162.0151
175.9303, 158.2993
176.4124, 154.5125
176.8945, 150.4151
177.3766, 146.2090
177.8588, 142.2701
178.3409, 138.8488
178.8230, 135.9414
179.3051, 133.3466
179.7872, 131.3355
180.2693, 129.3628
180.7515, 127.1839
181.2336, 124.8925
181.7157, 122.7682
182.1978, 121.0429
182.6799, 119.7395
183.1620, 118.6865
183.6441, 118.1881
184.1263, 117.6145
184.6084, 116.4852
185.0905, 114.8967
185.5726, 113.4485
186.0547, 112.7620
186.5368, 112.9834
187.0190, 112.7655
187.5011, 111.7087
187.9832, 110.5182
188.4653, 109.6655
188.9474, 109.2102
189.4296, 109.0213
189.9117, 109.0507
190.3938, 109.2943
190.8759, 109.4976
191.3580, 109.6271
191.8401, 109.7061
192.3223, 109.7279
192.8044, 109.6724
193.2865, 109.6640
193.7686, 109.8910
194.2507, 110.2816
194.7328, 110.6241
195.2150, 110.8136
195.6971, 110.9185
196.1792, 111.0618
196.6613, 111.2367
197.1434, 111.4909
197.6255, 111.8522
198.1077, 112.3094
198.5898, 112.8442
199.0719, 113.5434
199.5540, 114.3400
200.0361, 114.9194
200.5182, 115.1407
201.0004, 115.3227
201.4825, 115.7028
201.9646, 116.1930
202.4467, 116.5654
202.9288, 116.5888
203.4109, 116.2931
203.8930, 116.2045
204.3752, 116.7707
204.8573, 117.0656
205.3394, 116.6262
205.8215, 115.6251
206.3036, 114.4988
206.7857, 113.5928
207.2679, 112.9184
207.7500, 112.2461
208.2321, 111.7943
208.7142, 111.1383
209.1963, 109.9071
209.6784, 108.3079
210.1606, 106.8956
210.6427, 106.2333
211.1248, 106.4660
211.6069, 106.1768
212.0890, 104.8743
212.5711, 103.5619
213.0533, 102.5362
213.5354, 101.8437
214.0175, 101.4472
214.4996, 101.3466
214.9817, 101.6025
215.4638, 101.7352
215.9460, 101.8690
216.4281, 101.8084
216.9102, 101.3082
217.3923, 100.4619
217.8744, 99.67112
218.3565, 99.34551
218.8387, 99.57155
219.3208, 99.42958
219.8029, 98.56431
220.2850, 97.66454
220.7671, 97.16037
221.2492, 97.05447
221.7314, 97.06930
222.2135, 96.95381
222.6956, 96.70481
223.1777, 96.67210
223.6598, 97.12378
224.1419, 97.59379
224.6240, 97.69250
225.1062, 97.41213
225.5883, 97.06609
226.0704, 96.91068
226.5525, 96.92147
227.0346, 96.85939
227.5167, 96.56541
227.9989, 96.28362
228.4810, 96.20940
228.9631, 96.35074
229.4452, 96.72777
229.9273, 97.63448
230.4094, 98.78587
230.8916, 99.38924
231.3737, 98.87803
231.8558, 97.99901
232.3379, 97.57603
232.8200, 97.64809
233.3021, 97.90137
233.7843, 98.17566
234.2664, 98.50294
234.7485, 98.95944
235.2306, 99.66403
235.7127, 100.4217
236.1948, 100.9536
236.6770, 101.2186
237.1591, 101.4384
237.6412, 101.7304
238.1233, 102.0417
238.6054, 102.3225
239.0875, 102.5735
239.5697, 102.7647
240.0518, 102.8171
240.5339, 102.6748
241.0160, 102.5745
241.4981, 102.6500
241.9802, 102.7926
242.4624, 102.8934
242.9445, 102.9038
243.4266, 102.8941
243.9087, 103.0144
244.3908, 103.3512
244.8729, 103.5767
245.3550, 103.5631
245.8372, 103.4296
246.3193, 103.2446
246.8014, 103.0257
247.2835, 102.8222
247.7656, 102.7452
248.2477, 102.9008
248.7299, 102.9222
249.2120, 102.6936
249.6941, 102.3568
250.1762, 101.9826
250.6583, 101.5978
251.1404, 101.2518
251.6226, 101.0377
252.1047, 101.0278
252.5868, 100.9928
253.0689, 100.9829
253.5510, 100.9020
254.0331, 100.6060
254.5153, 100.0878
254.9974, 99.55456
255.4795, 99.32914
255.9616, 99.53561
256.4437, 99.80848
256.9258, 100.2312
257.4080, 100.6392
257.8901, 100.8894
258.3722, 100.9741
258.8543, 101.0287
259.3364, 101.2266
259.8185, 101.5729
260.3007, 102.0736
260.7828, 102.8586
261.2649, 103.6689
261.7470, 104.3348
262.2291, 104.8474
262.7112, 105.3055
263.1934, 105.8184
263.6755, 106.3826
264.1576, 107.0283
264.6397, 107.6504
265.1218, 108.4168
265.6039, 109.4577
266.0861, 110.7473
266.5682, 112.1464
267.0503, 113.5168
267.5324, 114.8324
268.0145, 116.2810
268.4966, 117.9472
268.9788, 119.6391
269.4609, 121.2585
269.9430, 122.8108
270.4251, 124.3288
270.9072, 125.8103
271.3893, 127.2342
271.8715, 129.0390
272.3536, 131.3643
272.8357, 133.8375
273.3178, 136.3138
273.7999, 138.8031
274.2820, 141.3319
274.7642, 143.8896
275.2463, 146.5055
275.7284, 149.5207
276.2105, 153.1974
276.6926, 156.8925
277.1747, 160.4039
277.6568, 163.7867
278.1389, 167.1403
278.6211, 170.5054
279.1032, 173.9021
279.5853, 177.4695
280.0674, 181.1431
280.5495, 185.0287
281.0316, 189.3796
281.5138, 193.9372
281.9959, 198.2194
282.4780, 201.9917
282.9601, 205.4564
283.4422, 209.0538
283.9243, 212.9403
284.4065, 216.6772
284.8886, 220.3148
285.3707, 223.7153
285.8528, 226.6723
286.3349, 229.1189
286.8170, 231.1256
287.2992, 232.8145
287.7813, 234.2501
288.2634, 235.1961
288.7455, 235.4856
289.2276, 235.3049
289.7097, 234.9062
290.1919, 234.3526
290.6740, 233.4641
291.1561, 231.9842
291.6382, 229.8846
292.1203, 227.3368
292.6024, 224.0667
293.0846, 220.5146
293.5667, 217.1616
294.0488, 214.0501
294.5309, 210.8299
295.0130, 207.1095
295.4951, 202.8744
295.9773, 198.8303
296.4594, 195.1871
296.9415, 191.6073
297.4236, 187.8266
297.9057, 183.8553
298.3878, 179.7825
298.8700, 175.5688
299.3521, 171.3192
299.8342, 167.5120
300.3163, 164.4412
300.7984, 161.5629
301.2805, 158.4698
301.7627, 155.2508
302.2448, 152.2761
302.7269, 149.7423
303.2090, 147.5833
303.6911, 145.5370
304.1732, 143.6422
304.6554, 141.7702
305.1375, 139.6784
305.6196, 137.5517
306.1017, 135.9157
306.5838, 135.0454
307.0659, 134.6215
307.5481, 134.0545
308.0302, 133.3163
308.5123, 132.5898
308.9944, 131.8651
309.4765, 131.2047
309.9586, 130.7455
310.4408, 130.5406
310.9229, 130.4653
311.4050, 130.3046
311.8871, 130.0289
312.3692, 130.0726
312.8513, 130.5742
313.3335, 131.4152
313.8156, 132.5291
314.2977, 133.9126
314.7798, 135.3752
315.2619, 136.7755
315.7440, 138.1126
316.2262, 139.3804
316.7083, 140.3821
317.1904, 141.4526
317.6725, 142.7798
318.1546, 144.3939
318.6367, 146.4503
319.1188, 149.2030
319.6010, 152.4902
320.0831, 155.4829
320.5652, 157.8125
321.0473, 160.2362
321.5294, 163.1861
322.0115, 166.5752
322.4937, 170.1688
322.9758, 173.8673
323.4579, 177.6697
323.9400, 181.4504
324.4221, 185.0711
324.9042, 188.9717
325.3864, 193.5585
325.8685, 198.5027
326.3506, 203.2245
326.8327, 207.5388
327.3148, 211.6174
327.7969, 215.7276
328.2791, 219.8922
328.7612, 223.9559
329.2433, 228.2489
329.7254, 232.2462
330.2075, 235.2083
330.6896, 237.0079
331.1718, 238.3450
331.6539, 240.0002
332.1360, 241.9967
332.6181, 243.1614
333.1002, 243.0948
333.5823, 242.4539
334.0645, 241.7780
334.5466, 241.0351
335.0287, 239.7652
335.5108, 237.6382
335.9929, 234.6720
336.4750, 231.3532
336.9572, 227.6124
337.4393, 223.6063
337.9214, 219.2274
338.4035, 214.6139
338.8856, 210.1345
339.3677, 205.9676
339.8499, 202.0252
340.3320, 198.1055
340.8141, 194.2347
341.2962, 190.3486
341.7783, 186.3640
342.2604, 182.3779
342.7426, 178.5190
343.2247, 174.8384
343.7068, 171.3306
344.1889, 168.0090
344.6710, 164.9343
345.1531, 161.9176
345.6353, 158.9866
346.1174, 156.1194
346.5995, 153.2762
347.0816, 150.4821
347.5637, 147.7895
348.0458, 145.2991
348.5280, 143.0159
349.0101, 140.6532
349.4922, 138.0064
349.9743, 135.4987
350.4564, 133.4364
350.9385, 131.6795
351.4207, 129.8518
351.9028, 127.7237
352.3849, 125.4107
352.8670, 123.3929
353.3491, 121.7718
353.8312, 120.3223
354.3134, 119.1293
354.7955, 118.0539
355.2776, 116.9384
355.7597, 115.7284
356.2418, 114.4574
356.7239, 113.1483
357.2061, 111.6067
357.6882, 110.4657
358.1703, 110.1476
358.6524, 109.8745
359.1345, 109.0602
359.6166, 107.6984
360.0987, 106.2040
360.5808, 104.9550
361.0630, 103.9578
361.5451, 103.1546
362.0272, 102.7350
362.5093, 102.3004
362.9914, 101.7005
363.4735, 100.9869
363.9557, 100.2961
364.4378, 99.71571
364.9199, 99.20262
365.4020, 98.56037
365.8841, 97.53407
366.3662, 96.74173
366.8484, 96.38792
367.3305, 96.22353
367.8126, 96.03255
368.2947, 95.73980
368.7768, 95.36468
369.2589, 94.90061
369.7411, 94.24714
370.2232, 93.78932
370.7053, 93.61989
371.1874, 93.56569
371.6695, 93.65120
372.1516, 93.79988
372.6338, 93.79601
373.1159, 93.40442
373.5980, 92.63996
374.0801, 91.97117
374.5622, 91.40025
375.0443, 90.93623
375.5265, 90.57391
376.0086, 90.31177
376.4907, 90.17542
376.9728, 90.20466
377.4549, 90.29800
377.9370, 90.21270
378.4192, 89.88027
378.9013, 89.56261
379.3834, 89.43820
379.8655, 89.29263
380.3476, 88.91563
380.8297, 88.26889
381.3119, 87.57523
381.7940, 87.06323
382.2761, 86.72861
382.7582, 86.39963
383.2403, 86.00650
383.7224, 85.68044
384.2046, 85.54939
384.6867, 85.56245
385.1688, 85.53053
385.6509, 85.30956
386.1330, 84.98148
386.6151, 84.74817
387.0973, 84.64474
387.5794, 84.51010
388.0615, 84.21285
388.5436, 83.83448
389.0257, 83.46583
389.5078, 83.06190
389.9900, 82.78345
390.4721, 82.89001
390.9542, 83.31861
391.4363, 83.55158
391.9184, 83.33868
392.4005, 82.95545
392.8827, 82.83507
393.3648, 83.00854
393.8469, 83.03445
394.3290, 82.64336
394.8111, 82.02982
395.2932, 81.42543
395.7754, 80.83694
396.2575, 80.50022
396.7396, 80.75842
397.2217, 81.54504
397.7038, 82.00194
398.1859, 81.89487
398.6681, 81.62622
399.1501, 81.41599
399.6323, 81.26089
400.1144, 81.10143
400.5965, 80.88596
401.0786, 80.68166
401.5607, 80.71299
402.0428, 81.15730
402.5250, 81.48663
403.0071, 81.59214
403.4892, 81.54321
403.9713, 81.37303
404.4534, 81.10170
404.9355, 80.82275
405.4177, 80.63451
405.8998, 80.53129
406.3819, 80.58694
406.8640, 80.98904
407.3461, 81.35093
407.8282, 81.44640
408.3104, 81.34214
408.7925, 81.21606
409.2746, 81.16685
409.7567, 81.21210
410.2388, 81.43762
410.7209, 82.19410
411.2031, 82.66824
411.6852, 82.63864
412.1673, 82.38866
412.6494, 82.15888
413.1315, 82.02373
413.6136, 81.94923
414.0958, 81.87182
414.5779, 81.74770
415.0600, 81.79887
415.5421, 82.24807
416.0242, 82.66900
416.5063, 82.86215
416.9885, 82.89126
417.4706, 82.94079
417.9527, 83.15181
418.4348, 83.44957
418.9169, 83.56653
419.3990, 83.42825
419.8812, 83.27024
420.3633, 83.13663
420.8454, 83.03286
421.3275, 82.96203
421.8096, 82.92410
422.2917, 82.93250
422.7739, 83.01271
423.2560, 83.16150
423.7381, 83.32875
424.2202, 83.55015
424.7023, 83.72440
425.1844, 83.74261
425.6666, 83.64623
426.1487, 83.58723
426.6308, 83.64635
427.1129, 83.77143
427.5950, 83.87095
428.0771, 83.94010
428.5593, 84.07814
429.0414, 84.38841
429.5235, 84.77697
430.0056, 85.00837
430.4877, 84.96030
430.9698, 85.03393
431.4520, 85.58398
431.9341, 86.37149
432.4162, 86.88416
432.8983, 86.97032
433.3804, 86.92919
433.8625, 87.07802
434.3447, 87.43583
434.8268, 87.92709
435.3089, 88.70189
435.7910, 89.47957
436.2731, 89.97063
436.7552, 90.27811
437.2374, 90.77912
437.7195, 91.70705
438.2016, 92.96135
438.6837, 94.14645
439.1658, 95.09740
439.6479, 96.19607
440.1301, 97.64703
440.6122, 99.15189
441.0943, 100.3548
441.5764, 101.2170
442.0585, 102.0554
442.5406, 103.2328
443.0227, 104.8013
443.5049, 106.3518
443.9870, 107.8246
444.4691, 109.3388
444.9512, 110.9478
445.4333, 112.6096
445.9154, 114.3303
446.3976, 116.1283
446.8797, 117.8299
447.3618, 119.0276
447.8439, 119.6161
448.3260, 120.0069
448.8081, 120.1940
449.2903, 120.2641
449.7724, 120.2926
450.2545, 120.2694
450.7366, 120.0853
451.2187, 119.6794
451.7008, 119.0476
452.1830, 118.1299
452.6651, 116.8212
453.1472, 115.4978
453.6293, 114.3736
454.1114, 113.3770
454.5935, 112.4333
455.0757, 111.5728
455.5578, 110.6796
456.0399, 109.5777
456.5220, 108.3379
457.0041, 107.2493
457.4862, 106.3962
457.9684, 105.7156
458.4505, 105.1913
458.9326, 104.8248
459.4147, 104.3711
459.8968, 103.6116
460.3789, 102.8761
460.8611, 102.4832
461.3432, 102.4069
461.8253, 102.4007
462.3074, 102.3078
462.7895, 102.1758
463.2716, 102.2038
463.7538, 102.6029
464.2359, 102.8758
464.7180, 102.8429
465.2001, 102.7260
465.6822, 102.7329
466.1643, 102.9116
466.6465, 103.2185
467.1286, 103.6334
467.6107, 104.1897
468.0928, 104.5524
468.5749, 104.4590
469.0570, 104.4495
469.5392, 104.6767
470.0213, 105.0768
470.5034, 105.5719
470.9855, 106.1340
471.4676, 106.6901
471.9497, 107.0835
472.4319, 107.2575
472.9140, 107.5185
473.3961, 108.0394
473.8782, 108.5474
474.3603, 108.9513
474.8424, 109.2180
475.3246, 109.2699
475.8067, 108.8654
476.2888, 108.2827
476.7709, 108.1812
477.2530, 108.6324
477.7351, 109.1234
478.2173, 109.4644
478.6994, 109.6744
479.1815, 109.8259
479.6636, 109.9661
480.1457, 109.8834
480.6278, 109.3130
481.1100, 108.4863
481.5920, 107.8422
482.0742, 107.4634
482.5563, 107.1265
483.0384, 106.6529
483.5205, 106.0343
484.0026, 105.3008
484.4847, 104.3684
484.9669, 103.4212
485.4490, 102.5005
485.9311, 101.6182
486.4132, 100.8087
486.8953, 100.0812
487.3774, 99.37846
487.8596, 98.62249
488.3417, 97.83714
488.8238, 96.90606
489.3059, 95.73725
489.7880, 94.53930
490.2701, 93.39194
490.7523, 92.30248
491.2344, 91.24634
491.7165, 90.19840
492.1986, 89.21648
492.6807, 88.53956
493.1628, 88.41104
493.6450, 87.91885
494.1271, 86.38371
494.6092, 84.77789
495.0913, 83.83977
495.5734, 83.55782
496.0555, 83.26327
496.5377, 82.37133
497.0198, 81.13071
497.5019, 80.28031
497.9840, 79.91991
498.4661, 79.53915
498.9482, 78.80894
499.4304, 77.88994
499.9125, 77.09711
500.3946, 76.46741
500.8767, 75.90586
501.3588, 75.32962
501.8409, 74.79500
502.3231, 74.46577
502.8052, 74.38049
503.2873, 74.22191
503.7694, 73.63890
504.2515, 72.60723
504.7336, 71.88301
505.2158, 71.60580
505.6979, 71.44138
506.1800, 71.31016
506.6621, 71.20320
507.1442, 71.16833
507.6263, 71.21236
508.1085, 71.18433
508.5906, 70.80652
509.0727, 69.90777
509.5548, 69.27676
510.0369, 69.18899
510.5190, 69.09532
511.0012, 68.71248
511.4833, 68.17988
511.9654, 67.80048
512.4475, 67.74848
512.9296, 67.84205
513.4117, 67.75202
513.8939, 67.45695
514.3760, 67.13622
514.8581, 66.78193
515.3402, 66.46088
515.8223, 66.22559
516.3044, 66.07111
516.7866, 65.96027
517.2687, 65.92130
517.7508, 65.89201
518.2329, 65.74168
518.7150, 65.48649
519.1971, 65.38828
519.6793, 65.65977
520.1614, 66.05614
520.6435, 65.95445
521.1256, 65.15287
521.6077, 64.55230
522.0898, 64.41004
522.5720, 64.45528
523.0541, 64.50541
523.5362, 64.52193
524.0183, 64.48066
524.5004, 64.35331
524.9825, 64.16897
525.4647, 64.08141
525.9468, 64.22713
526.4289, 64.27453
526.9110, 64.20892
527.3931, 64.03126
527.8752, 63.62556
528.3574, 63.05416
528.8395, 62.64880
529.3216, 62.80552
529.8037, 63.39870
530.2858, 63.62122
530.7679, 63.30175
531.2501, 63.00725
531.7322, 63.00006
532.2143, 63.13416
532.6964, 63.29081
533.1785, 63.46220
533.6606, 63.58780
534.1428, 63.65833
534.6249, 63.64970
535.1070, 63.45624
535.5891, 63.04731
536.0712, 62.69077
536.5533, 62.62992
537.0355, 62.80001
537.5176, 62.78872
537.9997, 62.32855
538.4818, 62.02999
538.9639, 62.28639
539.4460, 62.69719
539.9282, 62.68773
540.4103, 62.17828
540.8924, 61.61102
541.3745, 61.45963
541.8566, 61.73732
542.3387, 61.97242
542.8209, 62.17226
543.3029, 62.31347
543.7850, 62.35810
544.2672, 62.35755
544.7493, 62.41437
545.2314, 62.54520
545.7135, 62.56695
546.1956, 62.15601
546.6777, 61.36918
547.1599, 60.92220
547.6420, 60.94876
548.1241, 61.11170
548.6062, 61.24038
549.0883, 61.36010
549.5704, 61.51443
550.0526, 61.71231
550.5347, 61.94075
551.0168, 62.32354
551.4989, 62.70858
551.9810, 62.69591
552.4631, 62.19279
552.9453, 61.64396
553.4274, 61.47167
553.9095, 61.67823
554.3916, 61.83222
554.8737, 61.89899
555.3558, 61.96275
555.8380, 62.07991
556.3201, 62.19222
556.8022, 62.20289
557.2843, 62.09869
557.7664, 61.98472
558.2485, 61.99892
558.7307, 62.14909
559.2128, 62.20608
559.6949, 62.15726
560.1770, 62.02421
560.6591, 61.69789
561.1412, 61.35424
561.6234, 61.25426
562.1055, 61.48706
562.5876, 61.70836
563.0697, 61.54437
563.5518, 61.12199
564.0339, 60.88865
564.5161, 60.92488
564.9982, 60.99281
565.4803, 60.89319
565.9624, 60.68758
566.4445, 60.64562
566.9266, 60.90399
567.4088, 61.12995
567.8909, 61.23160
568.3730, 61.22811
568.8551, 61.09538
569.3372, 60.85441
569.8193, 60.64027
570.3015, 60.58574
570.7836, 60.68214
571.2657, 60.77095
571.7478, 60.94421
572.2299, 60.97729
572.7120, 60.66543
573.1942, 60.31046
573.6763, 60.23874
574.1584, 60.47425
574.6405, 60.72198
575.1226, 60.65561
575.6047, 60.37880
576.0869, 60.38836
576.5690, 60.78691
577.0511, 61.02552
577.5332, 60.65819
578.0153, 60.08559
578.4974, 60.01258
578.9796, 60.59441
579.4617, 61.02216
579.9438, 60.77221
580.4259, 60.33908
580.9080, 60.38053
581.3901, 60.86558
581.8723, 61.23146
582.3544, 61.10519
582.8365, 60.63213
583.3186, 60.30609
583.8007, 60.23994
584.2828, 60.15490
584.7650, 59.94408
585.2471, 59.79924
585.7292, 59.92409
586.2113, 60.23817
586.6934, 60.46606
587.1755, 60.41286
587.6577, 60.20906
588.1398, 60.16164
588.6219, 60.29523
589.1040, 60.42003
589.5861, 60.51469
590.0682, 60.55723
590.5504, 60.48701
591.0325, 60.32992
591.5146, 60.26070
591.9967, 60.43838
592.4788, 60.63529
592.9609, 60.60234
593.4431, 60.42345
593.9252, 60.38733
594.4073, 60.61033
594.8894, 60.88202
595.3715, 60.88899
595.8536, 60.53504
596.3358, 60.35395
596.8179, 60.55149
597.3000, 60.66776
597.7821, 60.39782
598.2642, 59.99711
598.7463, 59.87151
599.2285, 60.15162
599.7106, 60.54649
600.1927, 60.67970
600.6748, 60.56402
601.1569, 60.57017
601.6390, 60.79541
602.1212, 60.96681
602.6033, 60.81178
603.0854, 60.53843
603.5675, 60.48688
604.0496, 60.76935
604.5317, 61.05665
605.0139, 61.22459
605.4960, 61.27784
605.9781, 61.14130
606.4602, 60.84214
606.9423, 60.65812
607.4244, 60.80422
607.9066, 61.21003
608.3887, 61.55991
608.8708, 61.79539
609.3529, 62.05597
609.8350, 62.46218
610.3171, 62.80163
610.7993, 62.85905
611.2814, 62.70023
611.7635, 62.58068
612.2456, 62.66404
612.7277, 62.88117
613.2098, 63.13721
613.6920, 63.45050
614.1741, 63.55764
614.6562, 63.20144
615.1383, 62.87410
615.6204, 63.26931
616.1025, 64.22859
616.5847, 64.74099
617.0668, 64.31187
617.5489, 63.66381
618.0310, 63.17909
618.5131, 62.82467
618.9952, 62.49792
619.4774, 62.17107
619.9595, 61.93623
620.4416, 61.92855
620.9237, 62.17297
621.4058, 62.26323
621.8879, 62.04931
622.3701, 61.86076
622.8522, 61.85620
623.3343, 61.85910
623.8164, 61.62043
624.2985, 61.11985
624.7806, 60.68439
625.2628, 60.64969
625.7448, 60.87372
626.2269, 61.00172
626.7090, 61.02818
627.1912, 60.91421
627.6733, 60.56285
628.1554, 60.13589
628.6375, 59.97339
629.1196, 60.13595
629.6017, 60.21564
630.0839, 60.06101
630.5660, 59.88644
631.0481, 59.80227
631.5302, 59.82281
632.0123, 59.98438
632.4944, 60.30344
632.9766, 60.65026
633.4587, 60.76292
633.9408, 60.55930
634.4229, 60.56853
634.9050, 61.10899
635.3871, 61.44640
635.8693, 61.01842
636.3514, 60.28510
636.8335, 59.98797
637.3156, 60.37766
637.7977, 60.86705
638.2798, 61.05689
638.7620, 61.05234
639.2441, 61.05534
639.7262, 61.08702
640.2083, 61.05365
640.6904, 60.87923
641.1725, 60.61195
641.6547, 60.41016
642.1368, 60.24500
642.6189, 60.19959
643.1010, 60.42383
643.5831, 60.63375
644.0652, 60.65931
