##NAMES=Rruffite
##RRUFFID=R070431
##IDEAL CHEMISTRY=Ca_2_Cu^2+^(As^5+^O_4_)_2_&#183;2H_2_O
##LOCALITY=Maria Catalina mine, Pampa Larga Mining District, Tierra Amarilla, Copiapo Province, Chile
##OWNER=RRUFF
##SOURCE=Bob Jenkins
##DESCRIPTION=Pale blue blocky crystals associated with green conichalcite, R070430, and pale blue granular barahonite-(Al). This is the type sample.
##STATUS=The identification of this mineral is confirmed by single-crystal X-ray diffraction and chemical analysis.
##URL=rruff.info/R070431
##MEASURED CHEMISTRY=Ca_2.00_Cu_1.00_(As_1.00_O_4_)_2_ Î‡ 2H_2_O ; trace amounts of Fe, S, Al, Mg; H2O estimated by difference
114.2292, 398.0786
114.7113, 399.6627
115.1934, 401.1638
115.6755, 401.4440
116.1576, 400.7001
116.6397, 399.8637
117.1219, 399.9074
117.6040, 401.0680
118.0861, 402.4554
118.5682, 404.8189
119.0503, 406.8416
119.5324, 407.4224
120.0146, 406.4604
120.4967, 404.9803
120.9788, 404.7550
121.4609, 408.1847
121.9430, 409.1125
122.4251, 405.6699
122.9073, 400.3313
123.3894, 395.8759
123.8715, 393.3471
124.3536, 392.2909
124.8357, 391.8389
125.3178, 392.4043
125.8000, 392.5892
126.2821, 391.3104
126.7642, 389.0379
127.2463, 387.6567
127.7284, 388.5478
128.2105, 390.5124
128.6927, 391.3358
129.1748, 390.6922
129.6569, 389.3221
130.1390, 387.6810
130.6211, 385.6526
131.1032, 384.0669
131.5854, 383.1025
132.0675, 382.8347
132.5496, 383.6247
133.0317, 385.8911
133.5138, 388.9024
133.9959, 390.9144
134.4781, 391.4537
134.9602, 391.6516
135.4423, 391.5177
135.9244, 391.3590
136.4065, 391.6126
136.8886, 392.6083
137.3708, 394.2746
137.8529, 395.5328
138.3350, 396.3257
138.8171, 396.7403
139.2992, 396.0729
139.7813, 394.9559
140.2635, 394.7982
140.7456, 396.9756
141.2277, 401.9360
141.7098, 405.1666
142.1919, 406.1298
142.6740, 406.2260
143.1561, 405.3261
143.6383, 403.7794
144.1204, 403.3436
144.6025, 406.2256
145.0846, 413.1462
145.5667, 418.6945
146.0488, 421.5042
146.5310, 423.3680
147.0131, 426.2814
147.4952, 430.7168
147.9773, 435.5658
148.4594, 439.8286
148.9415, 443.5822
149.4237, 446.6680
149.9058, 448.7274
150.3879, 450.0465
150.8700, 451.3625
151.3521, 452.7702
151.8342, 454.2562
152.3164, 455.4347
152.7985, 456.4296
153.2806, 458.2658
153.7627, 462.2874
154.2448, 468.5644
154.7269, 473.7863
155.2091, 475.9713
155.6912, 478.1107
156.1733, 481.5259
156.6554, 486.4035
157.1375, 492.3473
157.6196, 499.2312
158.1018, 507.7828
158.5839, 515.0748
159.0660, 519.9830
159.5481, 524.4274
160.0302, 529.5502
160.5123, 535.6397
160.9945, 542.2289
161.4766, 548.5251
161.9587, 555.2367
162.4408, 560.4744
162.9229, 563.7275
163.4050, 565.8743
163.8871, 567.6184
164.3693, 569.2389
164.8514, 570.6454
165.3335, 571.5973
165.8156, 572.0364
166.2977, 572.1028
166.7798, 572.4863
167.2620, 572.3893
167.7441, 570.0121
168.2262, 564.0731
168.7083, 556.5525
169.1904, 553.3660
169.6725, 556.2083
170.1547, 559.1751
170.6368, 559.5881
171.1189, 558.1513
171.6010, 557.4954
172.0831, 559.5909
172.5652, 562.4615
173.0474, 562.4212
173.5295, 558.9365
174.0116, 553.6216
174.4937, 547.4586
174.9758, 540.4388
175.4579, 532.7260
175.9401, 523.7722
176.4222, 514.4131
176.9043, 505.6438
177.3864, 497.7133
177.8685, 490.1417
178.3506, 482.0938
178.8328, 473.2261
179.3149, 465.0987
179.7970, 458.2090
180.2791, 452.2455
180.7612, 447.0324
181.2433, 442.4435
181.7255, 438.6822
182.2076, 436.5707
182.6897, 438.1606
183.1718, 437.4764
183.6539, 431.2245
184.1360, 423.3039
184.6181, 417.9608
185.1003, 417.3475
185.5824, 420.0053
186.0645, 420.7731
186.5466, 418.1095
187.0287, 415.2245
187.5108, 412.0079
187.9930, 408.9716
188.4751, 406.9577
188.9572, 406.5290
189.4393, 407.1904
189.9214, 406.1237
190.4035, 400.8072
190.8857, 396.5731
191.3678, 394.5819
191.8499, 394.3481
192.3320, 395.1907
192.8141, 396.9029
193.2962, 399.2000
193.7784, 399.7599
194.2605, 396.3887
194.7426, 394.0184
195.2247, 394.8998
195.7068, 398.2513
196.1889, 401.8531
196.6711, 404.5554
197.1532, 406.2985
197.6353, 407.2274
198.1174, 406.0496
198.5995, 405.3102
199.0816, 406.8716
199.5638, 410.4122
200.0459, 413.6788
200.5280, 415.0423
201.0101, 415.2837
201.4922, 416.7729
201.9743, 420.8181
202.4565, 424.9070
202.9386, 426.3591
203.4207, 425.0869
203.9028, 424.5190
204.3849, 427.5790
204.8670, 432.1335
205.3492, 435.1705
205.8313, 436.0813
206.3134, 435.3784
206.7955, 433.1285
207.2776, 428.8600
207.7597, 425.2492
208.2419, 424.3530
208.7240, 424.4288
209.2061, 423.8437
209.6882, 421.9828
210.1703, 419.4323
210.6524, 417.1707
211.1346, 415.3037
211.6167, 413.4922
212.0988, 411.6711
212.5809, 409.8354
213.0630, 407.8973
213.5451, 405.7934
214.0273, 403.7319
214.5094, 402.3996
214.9915, 402.9469
215.4736, 402.0239
215.9557, 397.8863
216.4378, 392.7100
216.9200, 388.5938
217.4021, 386.4975
217.8842, 385.8657
218.3663, 385.1924
218.8484, 384.2572
219.3305, 383.6330
219.8127, 383.4944
220.2948, 383.6245
220.7769, 383.7217
221.2590, 383.6482
221.7411, 383.6158
222.2232, 384.2688
222.7054, 386.7860
223.1875, 388.5846
223.6696, 389.8744
224.1517, 390.2600
224.6338, 388.7575
225.1159, 384.9014
225.5980, 379.9795
226.0802, 377.7657
226.5623, 381.7455
227.0444, 384.3596
227.5265, 384.0634
228.0086, 382.3876
228.4907, 381.2097
228.9729, 381.3122
229.4550, 382.3656
229.9371, 383.6023
230.4192, 385.5165
230.9013, 386.8510
231.3834, 387.1909
231.8656, 386.8780
232.3477, 386.1857
232.8298, 385.0964
233.3119, 384.1588
233.7940, 384.8173
234.2761, 387.6291
234.7583, 390.2387
235.2404, 391.8283
235.7225, 392.8665
236.2046, 394.2960
236.6867, 396.5708
237.1688, 398.9928
237.6510, 400.3124
238.1331, 400.5219
238.6152, 400.3371
239.0973, 399.1768
239.5794, 397.8319
240.0615, 398.2474
240.5437, 401.4120
241.0258, 405.5277
241.5079, 407.8419
241.9900, 408.3328
242.4721, 409.8012
242.9542, 414.3778
243.4364, 420.8299
243.9185, 425.9898
244.4006, 429.0932
244.8827, 430.9989
245.3648, 432.4844
245.8469, 433.5865
246.3290, 434.4069
246.8112, 435.6490
247.2933, 436.7130
247.7754, 435.3962
248.2575, 430.1703
248.7396, 424.6077
249.2217, 421.9375
249.7039, 421.3751
250.1860, 420.2920
250.6681, 416.9002
251.1502, 411.8006
251.6323, 407.1031
252.1144, 402.8418
252.5966, 399.1701
253.0787, 396.2539
253.5608, 393.9103
254.0429, 391.7007
254.5250, 389.3614
255.0071, 386.9762
255.4893, 384.8747
255.9714, 383.2315
256.4535, 381.6188
256.9356, 379.5921
257.4177, 377.4907
257.8998, 375.8511
258.3820, 374.9751
258.8641, 374.7772
259.3462, 375.1113
259.8283, 376.7608
260.3104, 377.5888
260.7925, 376.1107
261.2747, 373.7584
261.7568, 372.5483
262.2389, 373.6719
262.7210, 376.1869
263.2031, 377.3598
263.6852, 376.6930
264.1674, 375.3909
264.6495, 372.6701
265.1316, 370.0009
265.6137, 369.3378
266.0958, 371.6313
266.5779, 375.3356
267.0601, 376.5581
267.5422, 373.1771
268.0243, 371.1080
268.5064, 371.9745
268.9885, 373.9059
269.4706, 375.2171
269.9528, 375.3226
270.4349, 374.8921
270.9170, 375.2001
271.3991, 376.5444
271.8812, 378.0988
272.3633, 379.7056
272.8455, 381.5105
273.3276, 383.8825
273.8097, 386.8076
274.2918, 389.6134
274.7739, 391.2375
275.2560, 391.1750
275.7382, 390.9135
276.2202, 388.7015
276.7024, 387.5941
277.1845, 390.2347
277.6666, 396.5692
278.1487, 403.9508
278.6308, 409.1240
279.1129, 411.2213
279.5951, 414.0328
280.0772, 417.6947
280.5593, 421.8055
281.0414, 426.0826
281.5235, 430.5776
282.0056, 435.5887
282.4878, 441.4163
282.9699, 448.1763
283.4520, 455.2291
283.9341, 462.5517
284.4162, 470.1691
284.8983, 478.3695
285.3805, 486.9176
285.8626, 495.2676
286.3447, 503.0157
286.8268, 510.1417
287.3089, 517.0466
287.7910, 523.2278
288.2732, 529.7254
288.7553, 536.9504
289.2374, 544.6809
289.7195, 552.5045
290.2016, 560.2267
290.6837, 567.7245
291.1659, 574.4700
291.6480, 580.1713
292.1301, 585.4163
292.6122, 591.5400
293.0943, 596.9424
293.5764, 598.8663
294.0586, 595.9572
294.5407, 590.1045
295.0228, 586.4138
295.5049, 588.2745
295.9870, 588.1946
296.4691, 585.3018
296.9513, 580.6066
297.4334, 574.8814
297.9155, 568.4471
298.3976, 561.6801
298.8797, 555.2943
299.3618, 550.2416
299.8440, 543.5950
300.3261, 534.8856
300.8082, 524.9773
301.2903, 513.9050
301.7724, 501.9459
302.2545, 490.2303
302.7367, 480.0098
303.2188, 471.6120
303.7009, 463.9576
304.1830, 457.1463
304.6651, 450.8738
305.1472, 445.3004
305.6294, 440.2160
306.1115, 434.7207
306.5936, 427.7810
307.0757, 419.1949
307.5578, 413.3788
308.0399, 412.4246
308.5221, 411.6228
309.0042, 408.4555
309.4863, 403.6960
309.9684, 399.7420
310.4505, 398.2193
310.9326, 398.7401
311.4148, 398.6739
311.8969, 397.0993
312.3790, 396.0909
312.8611, 396.5649
313.3432, 397.8554
313.8253, 398.7647
314.3075, 398.7033
314.7896, 398.2485
315.2717, 398.9229
315.7538, 402.0699
316.2359, 404.4137
316.7180, 405.0181
317.2001, 404.9951
317.6823, 405.2603
318.1644, 406.1253
318.6465, 407.9785
319.1286, 411.5615
319.6107, 418.0926
320.0928, 423.3996
320.5750, 425.9985
321.0571, 428.4441
321.5392, 433.0557
322.0213, 439.8762
322.5034, 446.9531
322.9855, 452.1353
323.4677, 454.9950
323.9498, 459.5167
324.4319, 465.7487
324.9140, 473.2964
325.3961, 482.4295
325.8782, 492.7853
326.3604, 503.6079
326.8425, 514.4318
327.3246, 525.2281
327.8067, 535.8889
328.2888, 546.5298
328.7709, 556.9498
329.2531, 566.7146
329.7352, 576.2654
330.2173, 586.4488
330.6994, 597.7081
331.1815, 609.4843
331.6636, 620.3463
332.1458, 630.4771
332.6279, 639.3310
333.1100, 646.8603
333.5921, 653.0761
334.0742, 657.7737
334.5563, 660.9268
335.0385, 663.2086
335.5206, 665.7205
336.0027, 669.5800
336.4848, 670.4183
336.9669, 665.8822
337.4490, 660.5197
337.9312, 657.3363
338.4133, 656.3824
338.8954, 655.9289
339.3775, 654.4319
339.8596, 651.8434
340.3417, 648.7096
340.8239, 645.2411
341.3060, 641.1139
341.7881, 636.5958
342.2702, 631.3014
342.7523, 624.4514
343.2344, 615.5364
343.7166, 604.8633
344.1987, 594.0009
344.6808, 583.2875
345.1629, 571.9044
345.6450, 559.0734
346.1271, 545.8949
346.6093, 533.6090
347.0914, 522.7408
347.5735, 512.7136
348.0556, 502.6520
348.5377, 492.2077
349.0198, 482.3272
349.5020, 472.7520
349.9841, 463.8278
350.4662, 456.0705
350.9483, 449.4242
351.4304, 443.2396
351.9125, 436.7707
352.3947, 429.8170
352.8768, 424.0143
353.3589, 420.0325
353.8410, 416.5310
354.3231, 413.0665
354.8052, 409.7292
355.2874, 406.8134
355.7695, 404.5684
356.2516, 402.8848
356.7337, 401.0987
357.2158, 399.1891
357.6979, 397.1876
358.1800, 394.7941
358.6621, 392.4435
359.1443, 390.8271
359.6264, 390.1940
360.1085, 389.7724
360.5906, 387.9795
361.0727, 383.9970
361.5548, 380.7883
362.0370, 379.4945
362.5191, 378.3828
363.0012, 376.0829
363.4833, 372.6388
363.9654, 369.4432
364.4475, 367.9926
364.9297, 368.3874
365.4118, 368.9110
365.8939, 370.7740
366.3760, 371.3233
366.8581, 368.3090
367.3402, 363.2894
367.8224, 359.5186
368.3045, 359.2936
368.7866, 361.3152
369.2687, 361.6214
369.7508, 359.3535
370.2329, 357.2464
370.7151, 356.5670
371.1972, 356.3286
371.6793, 355.5352
372.1614, 353.8798
372.6435, 351.8673
373.1256, 350.0430
373.6078, 348.4101
374.0899, 346.9341
374.5720, 345.1497
375.0541, 344.0044
375.5362, 344.5685
376.0183, 346.6606
376.5005, 348.5428
376.9826, 348.8793
377.4647, 348.0626
377.9468, 347.5828
378.4289, 347.6820
378.9110, 347.7667
379.3932, 347.2088
379.8753, 346.3635
380.3574, 345.9560
380.8395, 346.4895
381.3216, 347.3016
381.8037, 347.7830
382.2859, 347.9453
382.7680, 347.2670
383.2501, 344.8892
383.7322, 341.9400
384.2143, 340.1176
384.6964, 339.5600
385.1786, 339.7942
385.6607, 341.5177
386.1428, 343.8590
386.6249, 344.1621
387.1070, 341.3297
387.5891, 337.7098
388.0713, 336.0389
388.5534, 336.1251
389.0355, 336.5023
389.5176, 337.4908
389.9997, 338.2561
390.4818, 337.5645
390.9640, 335.4713
391.4461, 333.7638
391.9282, 333.8475
392.4103, 335.3183
392.8924, 335.8618
393.3745, 334.4301
393.8567, 333.2962
394.3388, 333.7240
394.8209, 335.0334
395.3030, 335.8292
395.7851, 335.5529
396.2672, 334.8326
396.7494, 334.8360
397.2315, 336.1284
397.7136, 336.7675
398.1957, 335.9273
398.6778, 334.9030
399.1599, 334.9498
399.6420, 336.0652
400.1241, 337.1720
400.6063, 337.2203
401.0884, 336.1518
401.5705, 336.0931
402.0526, 338.1254
402.5347, 339.8280
403.0168, 340.5223
403.4990, 340.3898
403.9811, 339.5921
404.4632, 338.1931
404.9453, 336.6387
405.4274, 336.0905
405.9095, 337.6361
406.3917, 338.3612
406.8738, 337.6012
407.3559, 336.5016
407.8380, 335.8160
408.3201, 335.6605
408.8022, 335.7360
409.2844, 335.6753
409.7665, 335.4295
410.2486, 335.8528
410.7307, 337.6113
411.2128, 339.3441
411.6949, 340.8669
412.1771, 342.0511
412.6592, 342.5946
413.1413, 342.2137
413.6234, 341.5675
414.1055, 342.3498
414.5876, 345.3511
415.0698, 347.3703
415.5519, 347.0817
416.0340, 345.9160
416.5161, 344.4971
416.9982, 342.9808
417.4803, 341.8365
417.9625, 341.4108
418.4446, 341.6861
418.9267, 342.5696
419.4088, 344.1773
419.8909, 346.1909
420.3730, 349.2357
420.8552, 352.4704
421.3373, 353.9404
421.8194, 352.0502
422.3015, 349.0965
422.7836, 347.8216
423.2657, 348.2111
423.7479, 348.8741
424.2300, 349.3632
424.7121, 349.7546
425.1942, 350.3599
425.6763, 351.3833
426.1584, 351.6196
426.6406, 349.5005
427.1227, 346.5565
427.6048, 345.9160
428.0869, 348.2703
428.5690, 350.5112
429.0511, 349.4840
429.5333, 345.1670
430.0154, 342.3395
430.4975, 341.9758
430.9796, 342.1996
431.4617, 342.2715
431.9438, 342.1040
432.4260, 341.4892
432.9081, 340.2674
433.3902, 338.7915
433.8723, 337.8973
434.3544, 337.7198
434.8365, 337.9578
435.3187, 339.2258
435.8008, 340.4902
436.2829, 340.5407
436.7650, 339.4747
437.2471, 338.6688
437.7292, 339.4980
438.2114, 342.0215
438.6935, 343.9544
439.1756, 344.5206
439.6577, 345.3614
440.1398, 347.0153
440.6219, 349.1122
441.1040, 351.2357
441.5862, 353.2011
442.0683, 354.8546
442.5504, 355.6693
443.0325, 355.0231
443.5146, 355.4755
443.9967, 357.9629
444.4789, 361.0074
444.9610, 364.1219
445.4431, 367.1491
445.9252, 369.9697
446.4073, 372.6487
446.8894, 375.0024
447.3716, 376.1473
447.8537, 375.5825
448.3358, 375.0504
448.8179, 375.4479
449.3000, 376.2225
449.7821, 376.9418
450.2643, 377.6255
450.7464, 377.7244
451.2285, 376.7059
451.7106, 374.6681
452.1927, 371.9706
452.6748, 368.3860
453.1570, 364.7988
453.6391, 362.1475
454.1212, 360.2741
454.6033, 358.6690
455.0854, 357.1963
455.5675, 355.9677
456.0497, 355.3473
456.5318, 355.1860
457.0139, 354.3754
457.4960, 351.9357
457.9781, 349.0018
458.4602, 349.0508
458.9424, 354.2135
459.4245, 357.4146
459.9066, 355.9907
460.3887, 352.8104
460.8708, 350.5479
461.3529, 349.6955
461.8351, 349.6632
462.3172, 349.9522
462.7993, 350.5663
463.2814, 351.3327
463.7635, 352.5394
464.2456, 353.5564
464.7278, 354.1501
465.2099, 354.4898
465.6920, 354.6371
466.1741, 354.6437
466.6562, 354.9505
467.1383, 356.4512
467.6205, 359.7069
468.1026, 362.4505
468.5847, 365.0292
469.0668, 366.6859
469.5489, 365.8820
470.0310, 363.7463
470.5132, 363.2794
470.9953, 366.8848
471.4774, 372.8470
471.9595, 376.7163
472.4416, 378.0529
472.9237, 378.9232
473.4059, 379.7740
473.8880, 380.6281
474.3701, 381.4286
474.8522, 382.1534
475.3343, 383.1392
475.8164, 384.4116
476.2986, 386.1181
476.7807, 389.0758
477.2628, 393.7100
477.7449, 397.6632
478.2270, 398.5125
478.7091, 397.1159
479.1913, 397.2274
479.6734, 400.1649
480.1555, 403.3801
480.6376, 406.2267
481.1197, 408.3291
481.6018, 408.2148
482.0839, 405.2208
482.5660, 402.2196
483.0482, 403.7177
483.5303, 412.0814
484.0124, 416.0437
484.4945, 412.0608
484.9766, 407.2901
485.4587, 405.8967
485.9409, 406.8575
486.4230, 406.9850
486.9051, 404.4586
487.3872, 400.0981
487.8693, 396.3092
488.3514, 393.5349
488.8336, 390.4449
489.3157, 386.6822
489.7978, 382.8362
490.2799, 379.5929
490.7620, 376.7677
491.2441, 373.3517
491.7263, 368.0236
492.2084, 361.4769
492.6905, 357.2844
493.1726, 356.3421
493.6547, 355.6259
494.1368, 354.1846
494.6190, 352.2179
495.1011, 349.8333
495.5832, 347.0324
496.0653, 343.9805
496.5474, 340.5652
497.0295, 337.0056
497.5117, 334.0591
497.9938, 331.9193
498.4759, 330.0227
498.9580, 327.8336
499.4401, 325.4617
499.9222, 323.4897
500.4044, 322.2184
500.8865, 321.0724
501.3686, 319.7938
501.8507, 318.4125
502.3328, 316.8554
502.8149, 315.0844
503.2971, 313.5344
503.7792, 312.9655
504.2613, 314.0013
504.7434, 313.6647
505.2255, 310.6110
505.7076, 307.6712
506.1898, 306.4529
506.6719, 306.3590
507.1540, 305.9588
507.6361, 304.4823
508.1182, 302.4865
508.6003, 301.2896
509.0825, 301.1553
509.5646, 301.1132
510.0467, 301.4527
510.5288, 301.5335
511.0109, 300.8297
511.4930, 299.5049
511.9752, 298.1601
512.4573, 296.8653
512.9394, 295.9930
513.4215, 296.8750
513.9036, 299.9509
514.3857, 302.0232
514.8679, 301.8102
515.3500, 299.9321
515.8321, 296.8146
516.3142, 292.1956
516.7963, 288.8573
517.2784, 288.5111
517.7606, 289.8978
518.2427, 291.6976
518.7248, 293.7012
519.2069, 295.0472
519.6890, 295.0746
520.1711, 294.0114
520.6533, 292.9713
521.1354, 291.4585
521.6175, 290.6031
522.0996, 291.4091
522.5817, 292.4922
523.0638, 292.1985
523.5460, 290.4340
524.0281, 288.5715
524.5102, 287.9791
524.9923, 288.6139
525.4744, 288.9063
525.9565, 288.6179
526.4387, 288.2749
526.9208, 287.8288
527.4029, 287.4635
527.8850, 287.5455
528.3671, 288.1219
528.8492, 288.4900
529.3314, 287.6143
529.8135, 285.6806
530.2956, 284.5218
530.7777, 284.3743
531.2598, 284.7359
531.7419, 285.9049
532.2241, 287.2470
532.7062, 287.6374
533.1883, 286.5529
533.6704, 285.1341
534.1525, 283.7622
534.6346, 282.6711
535.1168, 282.7135
535.5989, 284.1939
536.0810, 285.5735
536.5631, 285.0958
537.0452, 282.6461
537.5273, 281.3978
538.0095, 282.5627
538.4916, 283.4576
538.9737, 282.3931
539.4558, 280.6666
539.9379, 280.4833
540.4200, 282.4762
540.9022, 285.1254
541.3843, 286.3243
541.8664, 285.8607
542.3485, 285.1518
542.8306, 284.2622
543.3127, 283.0346
543.7948, 280.8322
544.2769, 278.4359
544.7590, 277.0539
545.2411, 277.1684
545.7233, 278.0580
546.2054, 279.0830
546.6875, 280.2093
547.1696, 280.8457
547.6517, 280.7968
548.1339, 280.4427
548.6160, 279.7911
549.0981, 279.0477
549.5802, 278.8871
550.0623, 280.1419
550.5444, 281.2588
551.0266, 280.9946
551.5087, 279.8587
551.9908, 279.0357
552.4729, 278.8894
552.9550, 278.9904
553.4371, 278.7972
553.9193, 278.2269
554.4014, 277.8724
554.8835, 277.5571
555.3656, 277.6175
555.8477, 278.4520
556.3298, 279.6507
556.8120, 280.6332
557.2941, 281.1895
557.7762, 281.4774
558.2583, 281.6557
558.7404, 281.6862
559.2225, 281.9812
559.7047, 283.2525
560.1868, 283.8187
560.6689, 282.0099
561.1510, 279.2666
561.6331, 278.2611
562.1152, 280.3764
562.5974, 282.7610
563.0795, 282.4174
563.5616, 280.0951
564.0437, 278.5086
564.5258, 278.2209
565.0079, 278.6168
565.4901, 279.4571
565.9722, 280.6402
566.4543, 280.7859
566.9364, 278.4562
567.4185, 276.7409
567.9006, 277.2397
568.3828, 278.9081
568.8649, 280.5261
569.3470, 281.6650
569.8291, 282.0518
570.3112, 281.1926
570.7933, 278.9723
571.2755, 277.5576
571.7576, 277.9666
572.2397, 277.8991
572.7218, 275.6126
573.2039, 273.1639
573.6860, 273.3678
574.1682, 276.8441
574.6503, 280.5314
575.1324, 281.2838
575.6145, 279.7364
576.0966, 278.7396
576.5787, 278.5875
577.0609, 278.4932
577.5430, 277.8311
578.0251, 276.9554
578.5072, 276.7738
578.9893, 277.7715
579.4714, 278.4073
579.9536, 277.9546
580.4357, 276.8923
580.9178, 275.3470
581.3999, 273.5791
581.8820, 272.9062
582.3641, 274.5957
582.8463, 278.0137
583.3284, 279.4604
583.8105, 277.6554
584.2926, 275.6293
584.7747, 272.8439
585.2568, 270.5067
585.7390, 269.6635
586.2211, 270.2285
586.7032, 271.3272
587.1853, 272.4621
587.6674, 273.5945
588.1495, 274.6656
588.6317, 275.7243
589.1138, 276.4052
589.5959, 276.4347
590.0780, 276.1723
590.5601, 276.1084
591.0422, 276.2373
591.5244, 276.1070
592.0065, 274.9750
592.4886, 273.9973
592.9707, 274.2919
593.4528, 275.6752
593.9349, 277.7072
594.4171, 280.3133
594.8992, 282.5058
595.3813, 282.3854
595.8634, 278.7378
596.3455, 276.3539
596.8276, 275.8826
597.3098, 275.8013
597.7919, 275.6420
598.2740, 275.3872
598.7561, 275.0461
599.2382, 274.6107
599.7203, 274.3071
600.2025, 274.6083
600.6846, 275.4883
601.1667, 275.8188
601.6488, 275.1881
602.1309, 274.6031
602.6130, 274.7825
603.0952, 275.5013
603.5773, 276.4329
604.0594, 277.9694
604.5415, 278.9000
