##NAMES=Ruitenbergite
##RRUFFID=R110152
##IDEAL CHEMISTRY=Ca_9_B_26_O_34_(OH)_24_Cl_4_&#183;13H_2_O
##LOCALITY=Potash Corporation of Saskatchewan mine, Penobsquis, Kings County, New Brunswick, Canada
##OWNER=RRUFF
##SOURCE=Donald M Doell and Brian Roulston
##DESCRIPTION=Pale yellow granular, extracted by dissolving the matrix of sylvite/halite, associated with strontioginorite R110149, howlite R110150, volkovskite R110151, congolite R110153, and hilgardite
##STATUS=The identification of this mineral has been confirmed by single-crystal X-ray diffraction.
##URL=rruff.info/R110152
195.2586, 1434.891
195.7407, 1432.425
196.2228, 1430.442
196.7050, 1428.569
197.1871, 1426.577
197.6692, 1424.472
198.1513, 1422.283
198.6334, 1419.617
199.1155, 1417.260
199.5977, 1415.649
200.0798, 1414.830
200.5619, 1414.720
201.0440, 1415.692
201.5261, 1418.100
202.0082, 1419.277
202.4904, 1417.994
202.9725, 1416.004
203.4546, 1413.642
203.9367, 1411.164
204.4188, 1409.272
204.9009, 1409.025
205.3831, 1411.035
205.8652, 1412.836
206.3473, 1414.632
206.8294, 1416.001
207.3115, 1416.835
207.7936, 1417.038
208.2758, 1416.379
208.7579, 1414.305
209.2400, 1409.468
209.7221, 1406.238
210.2042, 1404.885
210.6863, 1404.625
211.1685, 1405.438
211.6506, 1407.092
212.1327, 1408.672
212.6148, 1408.789
213.0969, 1406.427
213.5790, 1404.637
214.0612, 1403.759
214.5433, 1403.197
215.0254, 1402.415
215.5075, 1401.310
215.9896, 1400.222
216.4717, 1399.669
216.9539, 1399.967
217.4360, 1400.069
217.9181, 1399.733
218.4002, 1399.305
218.8823, 1399.082
219.3644, 1399.138
219.8466, 1399.465
220.3287, 1400.206
220.8108, 1401.541
221.2929, 1402.280
221.7750, 1402.089
222.2571, 1401.287
222.7393, 1400.038
223.2214, 1398.271
223.7035, 1396.697
224.1856, 1396.592
224.6677, 1397.836
225.1498, 1398.556
225.6320, 1397.960
226.1141, 1396.626
226.5962, 1395.587
227.0783, 1395.162
227.5604, 1394.570
228.0425, 1392.643
228.5247, 1389.734
229.0068, 1387.281
229.4889, 1385.906
229.9710, 1385.381
230.4531, 1385.286
230.9352, 1385.749
231.4174, 1386.297
231.8995, 1386.452
232.3816, 1386.372
232.8637, 1386.509
233.3458, 1387.375
233.8279, 1388.654
234.3101, 1389.253
234.7922, 1388.750
235.2743, 1388.212
235.7564, 1387.810
236.2385, 1387.800
236.7206, 1388.835
237.2028, 1392.172
237.6849, 1396.907
238.1670, 1399.060
238.6491, 1397.229
239.1312, 1394.714
239.6133, 1392.738
240.0955, 1391.140
240.5776, 1389.574
241.0597, 1387.775
241.5418, 1385.867
242.0239, 1384.462
242.5060, 1383.492
242.9882, 1383.220
243.4703, 1384.116
243.9524, 1385.592
244.4345, 1386.870
244.9166, 1387.539
245.3987, 1387.625
245.8809, 1387.203
246.3630, 1385.738
246.8451, 1384.424
247.3272, 1383.479
247.8093, 1382.819
248.2914, 1382.416
248.7736, 1382.290
249.2557, 1382.273
249.7378, 1381.712
250.2199, 1380.604
250.7020, 1378.835
251.1841, 1375.828
251.6663, 1372.369
252.1484, 1369.488
252.6305, 1367.679
253.1126, 1366.525
253.5947, 1364.634
254.0768, 1360.564
254.5590, 1357.543
255.0411, 1356.398
255.5232, 1356.143
256.0053, 1355.629
256.4874, 1354.376
256.9695, 1352.809
257.4517, 1351.954
257.9338, 1352.687
258.4159, 1353.130
258.8980, 1353.178
259.3801, 1352.966
259.8622, 1352.544
260.3444, 1351.936
260.8265, 1351.319
261.3086, 1351.021
261.7907, 1351.103
262.2728, 1351.453
262.7549, 1352.890
263.2371, 1354.190
263.7192, 1353.885
264.2013, 1351.621
264.6834, 1348.557
265.1655, 1346.334
265.6476, 1345.117
266.1298, 1344.604
266.6119, 1345.435
267.0940, 1346.619
267.5761, 1347.257
268.0582, 1347.179
268.5403, 1346.743
269.0225, 1346.357
269.5046, 1346.069
269.9867, 1345.608
270.4688, 1344.591
270.9509, 1343.647
271.4330, 1343.590
271.9152, 1344.451
272.3973, 1345.101
272.8794, 1344.183
273.3615, 1341.573
273.8436, 1340.385
274.3257, 1342.107
274.8079, 1344.242
275.2900, 1344.572
275.7721, 1343.084
276.2542, 1341.591
276.7363, 1341.479
277.2184, 1342.644
277.7006, 1343.487
278.1827, 1343.687
278.6648, 1343.805
279.1469, 1344.457
279.6290, 1345.531
280.1111, 1346.072
280.5933, 1345.308
281.0754, 1343.609
281.5575, 1342.430
282.0396, 1342.213
282.5217, 1341.988
283.0038, 1341.031
283.4860, 1339.489
283.9681, 1338.020
284.4502, 1336.659
284.9323, 1335.840
285.4144, 1336.415
285.8965, 1338.996
286.3787, 1341.421
286.8608, 1342.314
287.3429, 1342.028
287.8250, 1341.770
288.3071, 1341.730
288.7892, 1342.191
289.2714, 1343.642
289.7535, 1346.175
290.2356, 1348.701
290.7177, 1351.056
291.1998, 1353.031
291.6819, 1354.027
292.1641, 1353.728
292.6462, 1352.734
293.1283, 1351.469
293.6104, 1349.983
294.0925, 1348.824
294.5746, 1349.000
295.0568, 1349.525
295.5389, 1348.059
296.0210, 1343.743
296.5031, 1339.215
296.9852, 1336.652
297.4673, 1335.634
297.9495, 1335.369
298.4316, 1336.888
298.9137, 1338.528
299.3958, 1337.418
299.8779, 1333.021
300.3600, 1328.183
300.8422, 1324.548
301.3243, 1321.797
301.8064, 1319.588
302.2885, 1318.149
302.7706, 1316.900
303.2527, 1315.070
303.7349, 1312.601
304.2170, 1310.277
304.6991, 1308.355
305.1812, 1306.877
305.6633, 1305.972
306.1454, 1305.842
306.6276, 1305.840
307.1097, 1305.363
307.5918, 1304.443
308.0739, 1303.571
308.5560, 1302.750
309.0381, 1302.226
309.5203, 1302.449
310.0024, 1303.533
310.4845, 1304.242
310.9666, 1303.519
311.4487, 1301.621
311.9308, 1299.792
312.4130, 1298.236
312.8951, 1296.869
313.3772, 1295.293
313.8593, 1293.627
314.3414, 1292.894
314.8235, 1293.991
315.3057, 1296.373
315.7878, 1298.965
316.2699, 1302.200
316.7520, 1304.335
317.2341, 1303.282
317.7162, 1300.199
318.1984, 1297.476
318.6805, 1295.965
319.1626, 1295.318
319.6447, 1295.081
320.1268, 1295.311
320.6089, 1295.708
321.0911, 1296.366
321.5732, 1297.021
322.0553, 1297.188
322.5374, 1296.424
323.0195, 1295.719
323.5016, 1296.572
323.9838, 1299.007
324.4659, 1300.392
324.9480, 1299.266
325.4301, 1296.818
325.9122, 1294.416
326.3943, 1292.021
326.8765, 1290.130
327.3586, 1289.200
327.8407, 1289.118
328.3228, 1289.331
328.8049, 1289.839
329.2870, 1290.433
329.7692, 1290.963
330.2513, 1291.421
330.7334, 1291.672
331.2155, 1291.309
331.6976, 1290.719
332.1797, 1291.005
332.6619, 1292.627
333.1440, 1294.149
333.6261, 1293.694
334.1082, 1292.154
334.5903, 1291.760
335.0724, 1293.720
335.5546, 1296.911
336.0367, 1300.309
336.5188, 1303.999
337.0009, 1306.786
337.4830, 1307.866
337.9651, 1307.534
338.4473, 1306.207
338.9294, 1302.974
339.4115, 1300.270
339.8936, 1300.749
340.3757, 1303.940
340.8578, 1306.185
341.3400, 1305.712
341.8221, 1304.055
342.3042, 1303.474
342.7863, 1303.977
343.2684, 1305.273
343.7505, 1307.808
344.2327, 1311.010
344.7148, 1313.495
345.1969, 1314.920
345.6790, 1315.713
346.1611, 1315.953
346.6432, 1315.753
347.1254, 1316.166
347.6075, 1318.004
348.0896, 1320.337
348.5717, 1321.974
349.0538, 1322.809
349.5359, 1323.435
350.0181, 1324.305
350.5002, 1325.330
350.9823, 1326.109
351.4644, 1326.514
351.9465, 1326.753
352.4286, 1326.854
352.9108, 1326.868
353.3929, 1327.105
353.8750, 1327.864
354.3571, 1328.781
354.8392, 1328.831
355.3214, 1327.380
355.8035, 1326.579
356.2856, 1327.875
356.7677, 1330.219
357.2498, 1331.737
357.7319, 1331.873
358.2141, 1331.224
358.6962, 1330.587
359.1783, 1330.051
359.6604, 1328.984
360.1425, 1326.273
360.6246, 1323.642
361.1068, 1323.318
361.5889, 1325.295
362.0710, 1326.841
362.5531, 1325.347
363.0352, 1320.893
363.5173, 1318.575
363.9995, 1320.352
364.4816, 1322.098
364.9637, 1321.612
365.4458, 1319.505
365.9279, 1317.505
366.4100, 1316.519
366.8922, 1316.214
367.3743, 1315.525
367.8564, 1313.752
368.3385, 1312.594
368.8206, 1312.858
369.3027, 1313.593
369.7849, 1313.680
370.2670, 1312.814
370.7491, 1311.488
371.2312, 1310.387
371.7133, 1309.694
372.1954, 1308.654
372.6776, 1307.604
373.1597, 1305.979
373.6418, 1302.720
374.1239, 1298.345
374.6060, 1294.829
375.0881, 1293.903
375.5703, 1295.461
376.0524, 1295.529
376.5345, 1292.815
377.0166, 1290.142
377.4987, 1287.858
377.9808, 1286.078
378.4630, 1285.041
378.9451, 1284.863
379.4272, 1285.098
379.9093, 1284.695
380.3914, 1283.494
380.8735, 1281.834
381.3557, 1278.568
381.8378, 1275.700
382.3199, 1275.105
382.8020, 1276.790
383.2841, 1278.978
383.7662, 1279.645
384.2484, 1278.537
384.7305, 1277.672
385.2126, 1277.209
385.6947, 1276.833
386.1768, 1276.203
386.6589, 1275.598
387.1411, 1275.626
387.6232, 1276.750
388.1053, 1278.611
388.5874, 1280.019
389.0695, 1281.261
389.5516, 1281.405
390.0338, 1279.457
390.5159, 1276.917
390.9980, 1275.092
391.4801, 1274.349
391.9622, 1274.303
392.4443, 1274.687
392.9265, 1275.595
393.4086, 1276.063
393.8907, 1275.416
394.3728, 1274.841
394.8549, 1275.247
395.3370, 1276.396
395.8192, 1277.291
396.3013, 1277.214
396.7834, 1276.401
397.2655, 1275.421
397.7476, 1273.883
398.2297, 1273.208
398.7119, 1274.843
399.1940, 1277.570
399.6761, 1279.868
400.1582, 1281.252
400.6403, 1282.343
401.1224, 1284.040
401.6046, 1286.268
402.0867, 1287.428
402.5688, 1286.399
403.0509, 1284.799
403.5330, 1284.499
404.0151, 1285.491
404.4973, 1287.013
404.9794, 1288.724
405.4615, 1290.751
405.9436, 1293.617
406.4257, 1297.513
406.9078, 1301.060
407.3900, 1302.978
407.8721, 1303.489
408.3542, 1304.023
408.8363, 1304.717
409.3184, 1305.425
409.8005, 1306.136
410.2827, 1306.801
410.7648, 1307.344
411.2469, 1307.859
411.7290, 1307.993
412.2111, 1306.752
412.6932, 1303.667
413.1754, 1300.645
413.6575, 1298.045
414.1396, 1295.641
414.6217, 1293.263
415.1038, 1290.857
415.5859, 1288.262
416.0681, 1285.291
416.5502, 1281.896
417.0323, 1278.594
417.5144, 1275.133
417.9965, 1271.999
418.4786, 1269.281
418.9608, 1267.051
419.4429, 1265.443
419.9250, 1264.543
420.4071, 1264.189
420.8892, 1263.990
421.3713, 1264.911
421.8535, 1264.440
422.3356, 1261.461
422.8177, 1257.906
423.2998, 1255.307
423.7819, 1253.815
424.2640, 1252.531
424.7462, 1250.379
425.2283, 1247.214
425.7104, 1245.198
426.1925, 1245.014
426.6746, 1245.340
427.1567, 1246.766
427.6389, 1248.233
428.1210, 1247.821
428.6031, 1244.323
429.0852, 1239.695
429.5673, 1238.061
430.0494, 1240.166
430.5316, 1242.547
431.0137, 1244.701
431.4958, 1246.682
431.9779, 1248.795
432.4600, 1250.951
432.9421, 1252.218
433.4243, 1251.441
433.9064, 1249.089
434.3885, 1247.253
434.8706, 1246.244
435.3527, 1245.234
435.8348, 1243.112
436.3170, 1240.709
436.7991, 1239.590
437.2812, 1240.812
437.7633, 1242.481
438.2454, 1243.043
438.7275, 1242.541
439.2097, 1241.033
439.6918, 1237.940
440.1739, 1234.742
440.6560, 1233.794
441.1381, 1235.104
441.6202, 1236.926
442.1024, 1239.843
442.5845, 1242.442
443.0666, 1242.568
443.5487, 1240.203
444.0308, 1237.829
444.5129, 1237.314
444.9951, 1238.483
445.4772, 1239.479
445.9593, 1240.352
446.4414, 1241.026
446.9235, 1241.302
447.4056, 1241.422
447.8878, 1241.966
448.3699, 1243.107
448.8520, 1244.034
449.3341, 1243.339
449.8162, 1239.914
450.2983, 1238.065
450.7805, 1238.495
451.2626, 1239.594
451.7447, 1241.062
452.2268, 1242.510
452.7089, 1243.228
453.1910, 1242.653
453.6732, 1241.148
454.1553, 1240.266
454.6374, 1240.383
455.1195, 1240.506
455.6016, 1240.665
456.0837, 1240.641
456.5659, 1240.136
457.0480, 1239.137
457.5301, 1238.092
458.0122, 1237.263
458.4943, 1236.659
458.9764, 1237.127
459.4586, 1239.936
459.9407, 1241.912
460.4228, 1240.821
460.9049, 1237.969
461.3870, 1235.605
461.8691, 1234.428
462.3513, 1234.197
462.8334, 1234.897
463.3155, 1236.493
463.7976, 1238.201
464.2797, 1240.327
464.7618, 1241.769
465.2440, 1240.747
465.7261, 1237.226
466.2082, 1234.264
466.6903, 1232.879
467.1724, 1232.596
467.6545, 1233.093
468.1367, 1234.287
468.6188, 1235.640
469.1009, 1237.006
469.5830, 1238.168
470.0651, 1238.062
470.5472, 1234.533
471.0294, 1232.617
471.5115, 1234.792
471.9936, 1238.775
472.4757, 1241.878
472.9578, 1243.361
473.4399, 1243.814
473.9221, 1243.829
474.4042, 1243.247
474.8863, 1243.152
475.3684, 1244.419
475.8505, 1245.187
476.3326, 1244.330
476.8148, 1242.588
477.2969, 1241.276
477.7790, 1241.047
478.2611, 1241.406
478.7432, 1241.204
479.2253, 1239.986
479.7075, 1239.522
480.1896, 1241.187
480.6717, 1242.688
481.1538, 1242.184
481.6359, 1240.161
482.1180, 1238.949
482.6002, 1240.690
483.0823, 1244.201
483.5644, 1246.176
484.0465, 1246.417
484.5286, 1245.771
485.0107, 1244.105
485.4929, 1241.971
485.9750, 1239.793
486.4571, 1237.464
486.9392, 1235.943
487.4213, 1236.092
487.9034, 1237.431
488.3856, 1239.291
488.8677, 1241.754
489.3498, 1243.258
489.8319, 1241.934
490.3140, 1238.059
490.7961, 1235.882
491.2783, 1236.762
491.7604, 1237.865
492.2425, 1237.664
492.7246, 1236.823
493.2067, 1236.622
493.6888, 1237.509
494.1710, 1239.040
494.6531, 1240.598
495.1352, 1242.416
495.6173, 1243.469
496.0994, 1243.824
496.5815, 1243.475
497.0637, 1241.642
497.5458, 1239.154
498.0279, 1237.878
498.5100, 1238.994
498.9921, 1241.259
499.4742, 1241.256
499.9564, 1237.592
500.4385, 1235.189
500.9206, 1235.214
501.4027, 1236.298
501.8848, 1238.241
502.3669, 1240.692
502.8491, 1242.500
503.3312, 1242.606
503.8133, 1241.570
504.2954, 1240.906
504.7775, 1240.706
505.2596, 1240.473
505.7418, 1239.889
506.2239, 1239.204
506.7060, 1238.708
507.1881, 1238.376
507.6702, 1238.430
508.1523, 1239.376
508.6345, 1240.653
509.1166, 1241.220
509.5987, 1240.921
510.0808, 1240.525
510.5629, 1240.732
511.0450, 1241.441
511.5272, 1241.507
512.0093, 1240.782
512.4914, 1239.681
512.9735, 1237.310
513.4556, 1235.039
513.9377, 1235.008
514.4199, 1237.643
514.9020, 1241.129
515.3841, 1243.199
515.8662, 1243.678
516.3483, 1243.945
516.8304, 1244.758
517.3126, 1244.519
517.7947, 1241.922
518.2768, 1238.238
518.7589, 1235.246
519.2410, 1233.650
519.7231, 1232.928
520.2053, 1232.587
520.6874, 1232.696
521.1695, 1232.203
521.6516, 1231.077
522.1337, 1229.118
522.6158, 1225.669
523.0980, 1221.322
523.5801, 1217.808
524.0622, 1216.314
524.5443, 1215.362
525.0264, 1212.867
525.5085, 1209.272
525.9907, 1207.673
526.4728, 1209.789
526.9549, 1212.931
527.4370, 1212.961
527.9191, 1209.420
528.4012, 1206.006
528.8834, 1202.726
529.3655, 1199.994
529.8476, 1198.820
530.3297, 1198.489
530.8118, 1196.813
531.2939, 1192.498
531.7761, 1186.847
532.2582, 1183.173
532.7403, 1182.144
533.2224, 1181.967
533.7045, 1183.217
534.1866, 1184.635
534.6688, 1186.136
535.1509, 1187.191
535.6330, 1186.519
536.1151, 1182.840
536.5972, 1177.455
537.0793, 1173.824
537.5615, 1172.256
538.0436, 1171.298
538.5257, 1171.396
539.0078, 1171.302
539.4899, 1169.651
539.9720, 1166.509
540.4542, 1163.674
540.9363, 1162.296
541.4184, 1161.620
541.9005, 1160.582
542.3826, 1159.162
542.8647, 1157.641
543.3469, 1155.891
543.8290, 1154.408
544.3111, 1154.762
544.7932, 1158.191
545.2753, 1160.262
545.7574, 1159.469
546.2396, 1157.703
546.7217, 1156.218
547.2038, 1155.275
547.6859, 1155.049
548.1680, 1155.754
548.6501, 1157.086
549.1323, 1157.661
549.6144, 1156.750
550.0965, 1156.344
550.5786, 1157.408
551.0607, 1158.422
551.5428, 1158.027
552.0250, 1156.354
552.5071, 1154.766
552.9892, 1154.290
553.4713, 1154.616
553.9534, 1154.900
554.4355, 1155.152
554.9177, 1155.276
555.3998, 1155.174
555.8819, 1154.959
556.3640, 1154.932
556.8461, 1155.191
557.3282, 1154.849
557.8104, 1152.793
558.2925, 1150.401
558.7746, 1149.335
559.2567, 1149.616
559.7388, 1150.520
560.2209, 1151.764
560.7031, 1153.081
561.1852, 1153.624
561.6673, 1152.930
562.1494, 1152.071
562.6315, 1151.067
563.1136, 1149.901
563.5958, 1148.310
564.0779, 1146.494
564.5600, 1145.100
565.0421, 1144.604
565.5242, 1144.819
566.0063, 1145.082
566.4885, 1145.216
566.9706, 1145.905
567.4527, 1148.418
567.9348, 1150.697
568.4169, 1151.205
568.8990, 1150.017
569.3812, 1148.335
569.8633, 1146.324
570.3454, 1144.437
570.8275, 1143.437
571.3096, 1143.288
571.7917, 1143.285
572.2739, 1143.067
572.7560, 1142.954
573.2381, 1143.767
573.7202, 1146.100
574.2023, 1147.014
574.6844, 1145.038
575.1666, 1142.608
575.6487, 1141.155
576.1308, 1140.663
576.6129, 1140.863
577.0950, 1141.658
577.5771, 1142.541
578.0593, 1142.160
578.5414, 1139.508
579.0235, 1138.336
579.5056, 1140.094
579.9877, 1142.196
580.4698, 1143.748
580.9520, 1144.719
581.4341, 1145.275
581.9162, 1145.524
582.3983, 1145.312
582.8804, 1144.229
583.3625, 1142.360
583.8447, 1140.639
584.3268, 1139.260
584.8089, 1138.160
585.2910, 1137.660
585.7731, 1137.617
586.2552, 1136.437
586.7374, 1132.458
587.2195, 1128.914
587.7016, 1127.513
588.1837, 1127.696
588.6658, 1128.719
589.1479, 1130.287
589.6301, 1131.829
590.1122, 1132.629
590.5943, 1132.617
591.0764, 1132.492
591.5585, 1131.841
592.0406, 1131.568
592.5228, 1132.065
593.0049, 1132.962
593.4870, 1133.900
593.9691, 1134.775
594.4512, 1135.489
594.9333, 1135.839
595.4155, 1135.931
595.8976, 1136.217
596.3797, 1136.727
596.8618, 1137.443
597.3439, 1138.645
597.8260, 1139.923
598.3082, 1140.315
598.7903, 1139.557
599.2724, 1138.602
599.7545, 1136.763
600.2366, 1135.496
600.7188, 1136.845
601.2009, 1140.588
601.6830, 1144.803
602.1651, 1148.398
602.6472, 1151.024
603.1293, 1151.103
603.6115, 1145.853
604.0936, 1143.225
604.5757, 1145.359
605.0578, 1148.551
605.5399, 1151.440
606.0220, 1153.446
606.5042, 1153.563
606.9863, 1150.522
607.4684, 1146.367
607.9505, 1144.541
608.4326, 1144.988
608.9147, 1145.372
609.3969, 1144.894
609.8790, 1144.540
610.3611, 1145.664
610.8432, 1148.124
611.3253, 1150.044
611.8074, 1151.870
612.2896, 1152.448
612.7717, 1150.466
613.2538, 1147.022
613.7359, 1143.880
614.2180, 1141.576
614.7001, 1139.665
615.1823, 1137.496
615.6644, 1134.994
616.1465, 1133.847
616.6286, 1135.514
617.1107, 1136.534
617.5928, 1135.412
618.0750, 1133.607
618.5571, 1132.814
619.0392, 1133.305
619.5213, 1133.590
620.0034, 1132.196
620.4855, 1129.885
620.9677, 1128.436
621.4498, 1127.956
621.9319, 1127.326
622.4140, 1125.547
622.8961, 1123.777
623.3782, 1124.997
623.8604, 1130.724
624.3425, 1134.283
624.8246, 1134.103
625.3067, 1132.250
625.7888, 1129.151
626.2709, 1125.591
626.7531, 1122.886
627.2352, 1121.697
627.7173, 1121.623
628.1994, 1122.086
628.6815, 1123.181
629.1636, 1124.314
629.6458, 1126.186
630.1279, 1127.075
630.6100, 1125.011
631.0921, 1121.761
631.5742, 1120.646
632.0563, 1123.020
632.5385, 1126.007
633.0206, 1127.925
633.5027, 1128.894
633.9848, 1128.974
634.4669, 1128.197
634.9490, 1127.185
635.4312, 1126.348
635.9133, 1125.672
636.3954, 1125.061
636.8775, 1123.520
637.3596, 1123.467
637.8417, 1126.090
638.3239, 1129.318
638.8060, 1132.569
639.2881, 1135.139
639.7702, 1135.338
640.2523, 1131.607
640.7344, 1126.390
641.2166, 1124.799
641.6987, 1127.010
642.1808, 1128.573
642.6629, 1128.486
643.1450, 1127.760
643.6271, 1126.845
644.1093, 1125.945
644.5914, 1125.984
645.0735, 1127.764
645.5556, 1129.735
646.0377, 1131.148
646.5198, 1132.327
647.0020, 1133.789
647.4841, 1135.593
647.9662, 1137.307
648.4483, 1138.461
648.9304, 1139.222
649.4125, 1140.919
649.8947, 1144.217
650.3768, 1147.179
650.8589, 1149.747
651.3410, 1151.657
651.8231, 1152.484
652.3052, 1152.386
652.7874, 1152.123
653.2695, 1151.536
653.7516, 1151.483
654.2337, 1153.310
654.7158, 1156.690
655.1979, 1160.243
655.6801, 1163.645
656.1622, 1166.674
656.6443, 1169.002
657.1264, 1170.572
657.6085, 1172.473
658.0906, 1174.405
658.5728, 1176.986
659.0549, 1181.104
659.5370, 1185.522
660.0191, 1188.914
660.5012, 1191.164
660.9833, 1193.140
661.4655, 1195.455
661.9476, 1198.103
662.4297, 1200.998
662.9118, 1204.133
663.3939, 1207.595
663.8760, 1211.665
664.3582, 1215.746
664.8403, 1218.756
665.3224, 1220.817
665.8045, 1223.867
666.2866, 1229.435
666.7687, 1234.790
667.2509, 1238.378
667.7330, 1240.729
668.2151, 1242.720
668.6972, 1244.605
669.1793, 1246.169
669.6614, 1247.152
670.1436, 1247.599
670.6257, 1248.260
671.1078, 1249.559
671.5899, 1250.196
672.0720, 1248.577
672.5541, 1247.022
673.0363, 1247.931
673.5184, 1251.105
674.0005, 1253.393
674.4826, 1253.010
674.9647, 1251.494
675.4468, 1250.135
675.9290, 1248.920
676.4111, 1247.658
676.8932, 1246.287
677.3753, 1245.205
677.8574, 1244.969
678.3395, 1245.631
678.8217, 1245.879
679.3038, 1245.378
679.7859, 1244.885
680.2680, 1244.999
680.7501, 1244.868
681.2322, 1243.430
681.7144, 1240.796
682.1965, 1238.311
682.6786, 1237.007
683.1607, 1236.301
683.6428, 1235.854
684.1249, 1235.438
684.6071, 1232.698
685.0892, 1226.402
685.5713, 1219.408
686.0534, 1214.858
686.5355, 1212.891
687.0176, 1211.436
