##NAMES=Ruitenbergite
##RRUFFID=R110152
##IDEAL CHEMISTRY=Ca_9_B_26_O_34_(OH)_24_Cl_4_&#183;13H_2_O
##LOCALITY=Potash Corporation of Saskatchewan mine, Penobsquis, Kings County, New Brunswick, Canada
##OWNER=RRUFF
##SOURCE=Donald M Doell and Brian Roulston
##DESCRIPTION=Pale yellow granular, extracted by dissolving the matrix of sylvite/halite, associated with strontioginorite R110149, howlite R110150, volkovskite R110151, congolite R110153, and hilgardite
##STATUS=The identification of this mineral has been confirmed by single-crystal X-ray diffraction.
##URL=rruff.info/R110152
196.0757, 1624.943
196.5579, 1622.555
197.0400, 1622.971
197.5221, 1626.421
198.0042, 1630.081
198.4863, 1632.236
198.9684, 1632.859
199.4506, 1634.126
199.9327, 1636.335
200.4148, 1639.063
200.8969, 1641.309
201.3790, 1643.007
201.8611, 1644.764
202.3433, 1646.948
202.8254, 1649.586
203.3075, 1652.556
203.7896, 1656.239
204.2717, 1659.878
204.7538, 1661.005
205.2360, 1658.876
205.7181, 1656.874
206.2002, 1657.364
206.6823, 1660.860
207.1644, 1663.244
207.6465, 1663.955
208.1287, 1663.440
208.6108, 1662.724
209.0929, 1661.322
209.5750, 1660.992
210.0571, 1663.404
210.5392, 1669.504
211.0214, 1673.955
211.5035, 1676.246
211.9856, 1676.645
212.4677, 1675.800
212.9498, 1673.191
213.4319, 1670.608
213.9141, 1669.236
214.3962, 1669.493
214.8783, 1669.494
215.3604, 1668.701
215.8425, 1667.605
216.3246, 1668.355
216.8067, 1671.661
217.2889, 1675.422
217.7710, 1678.176
218.2531, 1679.166
218.7352, 1681.427
219.2173, 1685.672
219.6994, 1691.386
220.1816, 1695.717
220.6637, 1697.444
221.1458, 1699.901
221.6279, 1705.599
222.1100, 1716.526
222.5921, 1725.495
223.0743, 1731.744
223.5564, 1735.618
224.0385, 1739.343
224.5206, 1744.452
225.0027, 1747.005
225.4848, 1744.224
225.9670, 1734.311
226.4491, 1723.383
226.9312, 1710.747
227.4133, 1697.366
227.8954, 1687.319
228.3775, 1681.518
228.8597, 1677.994
229.3418, 1675.983
229.8239, 1676.574
230.3060, 1676.016
230.7881, 1673.302
231.2702, 1669.097
231.7524, 1666.812
232.2345, 1667.104
232.7166, 1668.314
233.1987, 1669.527
233.6808, 1670.691
234.1629, 1671.822
234.6451, 1672.654
235.1272, 1673.405
235.6093, 1675.336
236.0914, 1679.826
236.5735, 1683.611
237.0556, 1684.583
237.5378, 1680.796
238.0199, 1678.560
238.5020, 1678.715
238.9841, 1680.719
239.4662, 1682.337
239.9483, 1683.584
240.4305, 1684.539
240.9126, 1685.154
241.3947, 1684.952
241.8768, 1685.548
242.3589, 1687.039
242.8410, 1689.381
243.3232, 1692.812
243.8053, 1699.209
244.2874, 1704.053
244.7695, 1704.701
245.2516, 1698.908
245.7337, 1693.900
246.2159, 1690.244
246.6980, 1687.396
247.1801, 1683.591
247.6622, 1677.755
248.1443, 1672.457
248.6264, 1669.161
249.1086, 1669.063
249.5907, 1668.069
250.0728, 1666.242
250.5549, 1663.467
251.0370, 1659.108
251.5191, 1651.697
252.0013, 1645.081
252.4834, 1640.876
252.9655, 1639.525
253.4476, 1639.851
253.9297, 1643.226
254.4118, 1647.693
254.8940, 1648.521
255.3761, 1643.511
255.8582, 1638.730
256.3403, 1636.887
256.8224, 1639.035
257.3046, 1640.528
257.7867, 1641.112
258.2688, 1641.138
258.7509, 1641.588
259.2330, 1643.482
259.7151, 1643.614
260.1973, 1639.779
260.6794, 1630.237
261.1615, 1625.093
261.6436, 1626.026
262.1257, 1629.965
262.6078, 1631.915
263.0900, 1631.586
263.5721, 1629.983
264.0542, 1626.913
264.5363, 1621.812
265.0184, 1619.244
265.5005, 1619.988
265.9827, 1622.348
266.4648, 1623.942
266.9469, 1624.559
267.4290, 1625.015
267.9111, 1625.550
268.3932, 1626.161
268.8754, 1626.629
269.3575, 1626.913
269.8396, 1627.053
270.3217, 1626.955
270.8038, 1626.385
271.2859, 1626.328
271.7681, 1627.096
272.2502, 1628.641
272.7323, 1630.550
273.2144, 1633.147
273.6965, 1635.353
274.1786, 1635.520
274.6608, 1633.072
275.1429, 1631.820
275.6250, 1633.098
276.1071, 1636.483
276.5892, 1638.602
277.0714, 1639.030
277.5535, 1639.317
278.0356, 1641.600
278.5177, 1646.282
278.9998, 1648.403
279.4819, 1645.872
279.9641, 1640.209
280.4462, 1638.649
280.9283, 1641.974
281.4104, 1646.004
281.8925, 1646.893
282.3746, 1644.586
282.8568, 1643.802
283.3389, 1645.962
283.8210, 1649.680
284.3031, 1650.810
284.7852, 1649.142
285.2673, 1647.062
285.7495, 1645.859
286.2316, 1645.588
286.7137, 1646.891
287.1958, 1650.224
287.6779, 1654.651
288.1600, 1658.309
288.6422, 1661.185
289.1243, 1663.841
289.6064, 1666.632
290.0885, 1669.470
290.5706, 1671.961
291.0527, 1674.181
291.5349, 1675.649
292.0170, 1674.938
292.4991, 1672.251
292.9812, 1670.083
293.4633, 1670.753
293.9454, 1673.096
294.4276, 1673.132
294.9097, 1670.345
295.3918, 1666.645
295.8739, 1663.937
296.3560, 1662.269
296.8381, 1661.714
297.3203, 1663.592
297.8024, 1666.401
298.2845, 1666.904
298.7666, 1664.927
299.2487, 1661.827
299.7308, 1658.371
300.2130, 1654.779
300.6951, 1651.744
301.1772, 1649.800
301.6593, 1648.437
302.1414, 1647.189
302.6235, 1646.044
303.1057, 1644.291
303.5878, 1640.274
304.0699, 1635.334
304.5520, 1632.125
305.0341, 1632.748
305.5162, 1634.337
305.9984, 1633.853
306.4805, 1631.523
306.9626, 1628.849
307.4447, 1626.407
307.9268, 1624.385
308.4089, 1623.079
308.8911, 1622.636
309.3732, 1622.818
309.8553, 1623.915
310.3374, 1625.609
310.8195, 1626.830
311.3016, 1626.936
311.7838, 1626.296
312.2659, 1625.022
312.7480, 1622.652
313.2301, 1620.808
313.7122, 1620.962
314.1943, 1622.328
314.6765, 1623.257
315.1586, 1622.342
315.6407, 1621.229
316.1228, 1621.035
316.6049, 1622.104
317.0870, 1623.257
317.5692, 1624.282
318.0513, 1625.013
318.5334, 1625.207
319.0155, 1624.319
319.4976, 1623.287
319.9797, 1622.409
320.4619, 1621.691
320.9440, 1621.350
321.4261, 1621.782
321.9082, 1622.461
322.3903, 1622.887
322.8724, 1621.738
323.3546, 1621.509
323.8367, 1623.614
324.3188, 1627.922
324.8009, 1630.785
325.2830, 1629.749
325.7651, 1628.240
326.2473, 1628.487
326.7294, 1633.682
327.2115, 1637.264
327.6936, 1637.673
328.1757, 1635.672
328.6578, 1635.012
329.1400, 1636.676
329.6221, 1638.964
330.1042, 1641.225
330.5863, 1643.716
331.0684, 1645.785
331.5505, 1647.345
332.0327, 1648.460
332.5148, 1649.142
332.9969, 1648.280
333.4790, 1648.378
333.9611, 1650.485
334.4432, 1655.215
334.9254, 1659.302
335.4075, 1662.638
335.8896, 1665.286
336.3717, 1667.371
336.8538, 1668.993
337.3359, 1669.590
337.8180, 1668.237
338.3001, 1665.015
338.7823, 1665.241
339.2644, 1669.909
339.7465, 1676.123
340.2286, 1681.421
340.7107, 1685.834
341.1928, 1689.038
341.6750, 1690.650
342.1571, 1691.112
342.6392, 1691.859
343.1213, 1692.892
343.6034, 1694.335
344.0855, 1696.354
344.5677, 1698.923
345.0498, 1701.885
345.5319, 1705.406
346.0140, 1708.974
346.4961, 1711.365
346.9782, 1712.619
347.4604, 1714.029
347.9425, 1716.084
348.4246, 1718.850
348.9067, 1722.769
349.3888, 1728.061
349.8709, 1733.530
350.3531, 1737.672
350.8352, 1740.732
351.3173, 1743.614
351.7994, 1746.623
352.2815, 1749.730
352.7636, 1753.002
353.2458, 1756.420
353.7279, 1759.660
354.2100, 1762.978
354.6921, 1765.829
355.1742, 1767.165
355.6563, 1765.609
356.1385, 1763.528
356.6206, 1763.297
357.1027, 1764.605
357.5848, 1765.915
358.0669, 1767.086
358.5490, 1767.455
359.0312, 1766.043
359.5133, 1761.614
359.9954, 1757.814
360.4775, 1757.987
360.9596, 1760.343
361.4417, 1761.063
361.9239, 1757.046
362.4060, 1752.217
362.8881, 1748.791
363.3702, 1747.260
363.8523, 1745.777
364.3344, 1743.691
364.8166, 1741.358
365.2987, 1739.161
365.7808, 1736.975
366.2629, 1735.217
366.7450, 1734.247
367.2271, 1734.054
367.7093, 1733.479
368.1914, 1732.261
368.6735, 1730.671
369.1556, 1728.855
369.6377, 1726.021
370.1198, 1723.988
370.6020, 1723.255
371.0841, 1723.410
371.5662, 1722.931
372.0483, 1720.976
372.5304, 1719.388
373.0125, 1719.189
373.4947, 1721.460
373.9768, 1721.881
374.4589, 1719.787
374.9410, 1716.379
375.4231, 1713.601
375.9052, 1711.669
376.3874, 1709.791
376.8695, 1707.719
377.3516, 1705.471
377.8337, 1703.642
378.3158, 1702.210
378.7979, 1701.292
379.2801, 1701.609
379.7622, 1703.309
380.2443, 1703.066
380.7264, 1699.395
381.2085, 1694.067
381.6906, 1691.949
382.1728, 1693.068
382.6549, 1695.108
383.1370, 1696.885
383.6191, 1698.321
384.1012, 1699.024
384.5833, 1698.835
385.0655, 1698.184
385.5476, 1697.370
386.0297, 1696.490
386.5118, 1696.003
386.9939, 1696.217
387.4760, 1696.921
387.9582, 1698.203
388.4403, 1700.092
388.9224, 1701.287
389.4045, 1699.966
389.8866, 1697.520
390.3687, 1695.892
390.8509, 1695.937
391.3330, 1696.843
391.8151, 1698.527
392.2972, 1700.758
392.7793, 1702.586
393.2614, 1703.801
393.7436, 1704.268
394.2257, 1703.522
394.7078, 1700.374
395.1899, 1698.731
395.6720, 1700.455
396.1541, 1704.447
396.6363, 1708.947
397.1184, 1715.332
397.6005, 1720.461
398.0826, 1722.679
398.5647, 1721.465
399.0468, 1721.208
399.5290, 1722.327
400.0111, 1724.568
400.4932, 1727.768
400.9753, 1733.537
401.4574, 1738.087
401.9395, 1740.450
402.4217, 1741.208
402.9038, 1743.025
403.3859, 1746.228
403.8680, 1750.029
404.3501, 1754.157
404.8322, 1758.704
405.3144, 1763.239
405.7965, 1767.989
406.2786, 1772.396
406.7607, 1775.494
407.2428, 1777.172
407.7249, 1778.118
408.2071, 1778.458
408.6892, 1778.228
409.1713, 1777.569
409.6534, 1776.416
410.1355, 1775.121
410.6176, 1774.406
411.0998, 1773.995
411.5819, 1772.102
412.0640, 1767.841
412.5461, 1762.832
413.0282, 1760.041
413.5103, 1759.073
413.9925, 1757.563
414.4746, 1753.802
414.9567, 1748.694
415.4388, 1743.405
415.9209, 1737.888
416.4030, 1733.063
416.8852, 1730.847
417.3673, 1729.604
417.8494, 1726.666
418.3315, 1718.448
418.8136, 1710.327
419.2957, 1706.027
419.7779, 1705.144
420.2600, 1704.555
420.7421, 1702.367
421.2242, 1700.275
421.7063, 1699.795
422.1884, 1702.763
422.6706, 1704.390
423.1527, 1702.574
423.6348, 1698.756
424.1169, 1695.650
424.5990, 1693.119
425.0811, 1691.797
425.5633, 1692.379
426.0454, 1695.271
426.5275, 1696.887
427.0096, 1696.060
427.4917, 1694.837
427.9738, 1695.017
428.4560, 1697.640
428.9381, 1699.440
429.4202, 1700.097
429.9023, 1699.646
430.3844, 1697.764
430.8665, 1693.618
431.3487, 1690.450
431.8308, 1690.618
432.3129, 1694.386
432.7950, 1695.967
433.2771, 1694.883
433.7592, 1692.772
434.2414, 1691.457
434.7235, 1690.941
435.2056, 1691.283
435.6877, 1693.156
436.1698, 1695.471
436.6519, 1695.499
437.1341, 1693.369
437.6162, 1691.291
438.0983, 1691.417
438.5804, 1692.572
439.0625, 1692.305
439.5446, 1689.587
440.0268, 1687.558
440.5089, 1689.751
440.9910, 1694.684
441.4731, 1699.287
441.9552, 1703.131
442.4373, 1705.466
442.9195, 1704.775
443.4016, 1701.157
443.8837, 1698.999
444.3658, 1701.694
444.8479, 1705.660
445.3300, 1708.072
445.8122, 1707.765
446.2943, 1706.656
446.7764, 1703.705
447.2585, 1700.110
447.7406, 1698.969
448.2227, 1702.932
448.7049, 1706.965
449.1870, 1709.904
449.6691, 1711.786
450.1512, 1712.164
450.6333, 1710.232
451.1154, 1707.714
451.5976, 1706.337
452.0797, 1706.587
452.5618, 1706.450
453.0439, 1705.387
453.5260, 1703.903
454.0081, 1703.397
454.4903, 1703.904
454.9724, 1705.249
455.4545, 1707.922
455.9366, 1711.588
456.4187, 1713.918
456.9008, 1714.679
457.3830, 1714.781
457.8651, 1714.984
458.3472, 1715.315
458.8293, 1715.892
459.3114, 1716.665
459.7935, 1717.743
460.2757, 1719.896
460.7578, 1722.741
461.2399, 1724.463
461.7220, 1722.507
462.2041, 1719.683
462.6862, 1718.868
463.1684, 1720.875
463.6505, 1723.144
464.1326, 1725.146
464.6147, 1726.428
465.0968, 1726.410
465.5789, 1722.943
466.0611, 1720.213
466.5432, 1719.730
467.0253, 1721.369
467.5074, 1723.111
467.9895, 1724.622
468.4716, 1726.309
468.9538, 1728.449
469.4359, 1731.668
469.9180, 1733.829
470.4001, 1734.241
470.8822, 1734.055
471.3643, 1735.186
471.8465, 1738.265
472.3286, 1740.735
472.8107, 1741.857
473.2928, 1741.792
473.7749, 1741.399
474.2570, 1740.552
474.7392, 1739.995
475.2213, 1740.450
475.7034, 1741.770
476.1855, 1742.970
476.6676, 1743.958
477.1497, 1744.844
477.6319, 1745.708
478.1140, 1746.590
478.5961, 1747.569
479.0782, 1748.594
479.5603, 1749.807
480.0424, 1751.675
480.5246, 1754.076
481.0067, 1755.953
481.4888, 1755.765
481.9709, 1755.232
482.4530, 1755.900
482.9352, 1758.291
483.4173, 1761.285
483.8994, 1765.862
484.3815, 1770.442
484.8636, 1772.588
485.3457, 1768.539
485.8279, 1765.285
486.3100, 1765.043
486.7921, 1767.884
487.2742, 1770.250
487.7563, 1772.165
488.2384, 1773.665
488.7206, 1774.693
489.2027, 1774.976
489.6848, 1775.555
490.1669, 1776.321
490.6490, 1777.555
491.1311, 1779.934
491.6133, 1783.628
492.0954, 1787.097
492.5775, 1789.507
493.0596, 1791.414
493.5417, 1795.648
494.0238, 1802.222
494.5060, 1807.919
494.9881, 1809.281
495.4702, 1807.921
495.9523, 1808.076
496.4344, 1810.480
496.9165, 1813.401
497.3987, 1815.318
497.8808, 1816.495
498.3629, 1817.400
498.8450, 1818.271
499.3271, 1818.924
499.8092, 1819.311
500.2914, 1819.427
500.7735, 1819.151
501.2556, 1818.065
501.7377, 1816.897
502.2198, 1816.095
502.7019, 1815.838
503.1841, 1815.676
503.6662, 1815.518
504.1483, 1815.473
504.6304, 1815.711
505.1125, 1816.850
505.5946, 1817.221
506.0768, 1816.117
506.5589, 1813.985
507.0410, 1813.213
507.5231, 1814.188
508.0052, 1815.373
508.4873, 1815.994
508.9695, 1816.024
509.4516, 1815.734
509.9337, 1814.927
510.4158, 1814.560
510.8979, 1816.638
511.3800, 1820.400
511.8622, 1822.252
512.3443, 1820.699
512.8264, 1817.596
513.3085, 1814.590
513.7906, 1811.950
514.2728, 1810.632
514.7549, 1813.191
515.2370, 1816.018
515.7191, 1815.495
516.2012, 1811.189
516.6833, 1807.237
517.1655, 1806.270
517.6476, 1806.127
518.1297, 1804.934
518.6118, 1800.270
519.0939, 1797.096
519.5760, 1797.612
520.0582, 1800.074
520.5403, 1800.214
521.0224, 1795.635
521.5045, 1792.121
521.9866, 1791.899
522.4688, 1794.948
522.9509, 1794.995
523.4330, 1790.959
523.9151, 1786.384
524.3972, 1784.228
524.8793, 1784.551
525.3615, 1784.012
525.8436, 1782.103
526.3257, 1779.779
526.8078, 1778.971
527.2899, 1779.207
527.7720, 1778.234
528.2542, 1774.379
528.7363, 1769.459
529.2184, 1765.542
529.7005, 1762.635
530.1826, 1760.584
530.6647, 1760.392
531.1469, 1760.385
531.6290, 1758.940
532.1111, 1755.565
532.5932, 1752.235
533.0753, 1749.578
533.5574, 1747.451
534.0396, 1745.750
534.5217, 1744.903
535.0038, 1743.979
535.4859, 1742.875
535.9680, 1741.614
536.4501, 1740.205
536.9323, 1738.558
537.4144, 1736.887
537.8965, 1734.838
538.3786, 1732.335
538.8607, 1733.069
539.3428, 1738.194
539.8250, 1742.911
540.3071, 1741.695
540.7892, 1735.277
541.2713, 1730.520
541.7534, 1728.528
542.2355, 1728.334
542.7177, 1729.223
543.1998, 1730.901
543.6819, 1732.406
544.1640, 1733.298
544.6461, 1733.807
545.1282, 1734.047
545.6104, 1734.059
546.0925, 1734.063
546.5746, 1734.500
547.0567, 1734.756
547.5388, 1734.184
548.0209, 1732.183
548.5031, 1731.136
548.9852, 1732.560
549.4673, 1734.677
549.9494, 1735.564
550.4315, 1733.943
550.9136, 1733.068
551.3958, 1733.728
551.8779, 1735.213
552.3600, 1735.305
552.8421, 1733.634
553.3242, 1731.809
553.8063, 1730.232
554.2885, 1728.998
554.7706, 1729.138
555.2527, 1730.766
555.7348, 1732.615
556.2169, 1734.108
556.6990, 1734.958
557.1812, 1734.062
557.6633, 1730.803
558.1454, 1727.583
558.6275, 1726.755
559.1096, 1727.598
559.5917, 1728.814
560.0739, 1731.056
560.5560, 1732.441
561.0381, 1731.060
561.5202, 1727.712
562.0023, 1725.864
562.4844, 1728.266
562.9666, 1730.722
563.4487, 1731.199
563.9308, 1729.201
564.4129, 1727.491
564.8950, 1725.714
565.3771, 1724.582
565.8593, 1724.798
566.3414, 1726.659
566.8235, 1728.688
567.3056, 1731.013
567.7877, 1733.056
568.2698, 1733.456
568.7520, 1732.329
569.2341, 1731.495
569.7162, 1732.095
570.1983, 1733.149
570.6804, 1732.760
571.1625, 1731.096
571.6447, 1729.213
572.1268, 1727.503
572.6089, 1726.107
573.0910, 1725.160
573.5731, 1724.663
574.0552, 1724.717
574.5374, 1725.928
575.0195, 1727.423
575.5016, 1728.380
575.9837, 1727.247
576.4658, 1727.254
576.9479, 1729.533
577.4301, 1732.874
577.9122, 1734.898
578.3943, 1734.959
578.8764, 1734.883
579.3585, 1735.134
579.8406, 1735.628
580.3228, 1736.053
580.8049, 1736.491
581.2870, 1736.300
581.7691, 1734.437
582.2512, 1731.511
582.7333, 1730.230
583.2155, 1730.924
583.6976, 1731.781
584.1797, 1730.495
584.6617, 1728.396
585.1439, 1727.822
585.6260, 1730.311
586.1081, 1732.886
586.5902, 1733.687
587.0723, 1733.300
587.5544, 1732.841
588.0366, 1732.121
588.5187, 1731.857
589.0008, 1732.248
589.4829, 1733.276
589.9650, 1734.840
590.4471, 1737.772
590.9293, 1740.047
591.4114, 1740.302
591.8935, 1738.016
592.3756, 1737.502
592.8577, 1739.219
593.3398, 1741.447
593.8220, 1742.100
594.3041, 1741.473
594.7862, 1742.085
595.2683, 1744.857
595.7504, 1747.843
596.2325, 1747.949
596.7147, 1746.242
597.1968, 1745.457
597.6789, 1748.216
598.1610, 1751.188
598.6431, 1751.687
599.1252, 1750.194
599.6074, 1748.997
600.0895, 1749.431
600.5716, 1749.904
601.0537, 1749.347
601.5358, 1747.183
602.0179, 1746.538
602.5001, 1747.982
602.9822, 1750.421
603.4643, 1753.387
603.9464, 1757.484
604.4285, 1759.646
604.9106, 1759.244
605.3928, 1757.715
605.8749, 1757.123
606.3570, 1757.418
606.8391, 1757.981
607.3212, 1758.588
607.8033, 1759.390
608.2855, 1761.121
608.7676, 1763.368
609.2497, 1764.702
609.7318, 1763.312
610.2139, 1761.395
610.6960, 1760.536
611.1782, 1760.802
611.6603, 1761.679
612.1424, 1764.976
612.6245, 1767.393
613.1066, 1766.580
613.5887, 1760.212
614.0709, 1755.712
614.5530, 1753.989
615.0351, 1753.326
615.5172, 1751.770
615.9993, 1748.933
616.4814, 1747.086
616.9636, 1746.836
617.4457, 1747.306
617.9278, 1746.828
618.4099, 1745.453
618.8920, 1743.831
619.3741, 1741.990
619.8563, 1740.179
620.3384, 1738.997
620.8205, 1738.275
621.3026, 1737.244
621.7847, 1734.925
622.2668, 1732.487
622.7490, 1730.768
623.2311, 1729.845
623.7132, 1729.572
624.1953, 1729.780
624.6774, 1730.773
625.1595, 1733.026
625.6417, 1739.224
626.1238, 1741.275
626.6059, 1737.577
627.0880, 1731.543
627.5701, 1727.502
628.0522, 1725.584
628.5344, 1724.538
629.0165, 1724.203
629.4986, 1724.447
629.9807, 1724.933
630.4628, 1725.724
630.9449, 1727.175
631.4271, 1730.114
631.9092, 1733.349
632.3913, 1735.775
632.8734, 1737.361
633.3555, 1738.071
633.8376, 1737.068
634.3198, 1735.795
634.8019, 1735.070
635.2840, 1735.012
635.7661, 1735.256
636.2482, 1735.907
636.7303, 1736.729
637.2125, 1737.580
637.6946, 1738.460
638.1767, 1739.522
638.6588, 1741.005
639.1409, 1742.311
639.6230, 1742.126
640.1052, 1740.611
640.5873, 1740.163
641.0694, 1741.686
641.5515, 1744.085
642.0336, 1745.914
642.5157, 1747.254
642.9979, 1748.367
643.4800, 1748.434
643.9621, 1749.078
644.4442, 1752.115
644.9263, 1757.052
645.4084, 1760.941
645.8906, 1761.687
646.3727, 1762.145
646.8548, 1763.873
647.3369, 1767.187
647.8190, 1769.289
648.3011, 1769.163
648.7833, 1769.332
649.2654, 1772.134
649.7475, 1777.944
650.2296, 1781.856
650.7117, 1783.237
651.1938, 1784.144
651.6760, 1786.840
652.1581, 1791.115
652.6402, 1796.392
653.1223, 1802.960
653.6044, 1809.535
654.0865, 1815.530
654.5687, 1820.734
655.0508, 1824.800
655.5329, 1826.067
656.0150, 1827.796
656.4971, 1831.277
656.9792, 1836.299
657.4614, 1841.700
657.9435, 1848.304
658.4256, 1853.994
658.9077, 1857.690
659.3898, 1859.512
659.8719, 1862.448
660.3541, 1866.482
660.8362, 1871.671
661.3183, 1878.515
661.8004, 1886.609
662.2825, 1895.066
662.7646, 1903.909
663.2468, 1911.849
663.7289, 1916.936
664.2110, 1920.768
664.6931, 1925.365
665.1752, 1931.202
665.6573, 1937.851
666.1395, 1946.541
666.6216, 1955.481
667.1037, 1962.464
667.5858, 1965.376
668.0679, 1968.642
668.5500, 1972.945
669.0322, 1977.611
669.5143, 1981.299
669.9964, 1984.196
670.4785, 1985.134
670.9606, 1983.059
671.4427, 1979.242
671.9249, 1977.259
672.4070, 1976.925
672.8891, 1976.915
673.3712, 1976.892
673.8533, 1976.507
674.3354, 1974.712
674.8176, 1971.739
675.2997, 1970.074
675.7818, 1972.801
676.2639, 1975.865
676.7460, 1976.555
677.2281, 1973.793
677.7103, 1971.789
678.1924, 1971.684
678.6745, 1971.391
679.1566, 1968.886
679.6387, 1963.190
680.1208, 1960.337
680.6030, 1961.340
681.0851, 1963.250
681.5672, 1962.341
682.0493, 1959.080
682.5314, 1955.378
683.0135, 1951.552
683.4957, 1947.811
683.9778, 1944.597
684.4599, 1941.609
684.9420, 1938.416
685.4241, 1934.437
685.9063, 1930.594
686.3884, 1927.188
686.8705, 1924.189
687.3526, 1921.426
687.8347, 1919.098
