##NAMES=Ruizite
##RRUFFID=R130787
##IDEAL CHEMISTRY=Ca_2_Mn^3+^_2_Si_4_O_11_(OH)_4_&#183;2H_2_O
##LOCALITY=Wessels mine, Hotazel, Kalahari Manganese Field, Northern Cape Province, South Africa
##OWNER=RRUFF
##SOURCE=Marcus Origlieri
##DESCRIPTION=Brown prismatic crystals in radiating groups, with a globular gyrolite-like mineral, on and in hydroxyapophyllite-(K) with minor inesite.
##STATUS=The identification of this mineral is confirmed by single-crystal X-ray diffraction and chemical analysis.
##URL=rruff.info/R130787
##MEASURED CHEMISTRY=(Ca_1.90_Sr_0.06_Mg_0.04_)_2.00_(Mn^3+^_1.88_Fe^3+^_0.07_Al_0.05_)_2.00_Si_4.01_O_11_(OH)_4_Â·2H_2_O
91.55994, 308.9368
92.04205, 317.1776
92.52417, 328.6705
93.00629, 340.4883
93.48840, 349.8488
93.97052, 354.5311
94.45264, 353.8324
94.93475, 352.9232
95.41687, 350.4710
95.89898, 346.4930
96.38110, 341.7444
96.86321, 336.8052
97.34533, 331.6881
97.82745, 325.8020
98.30956, 320.2016
98.79168, 314.4702
99.27380, 309.4537
99.75591, 305.2770
100.2380, 301.8332
100.7201, 299.0534
101.2023, 296.9921
101.6844, 295.5605
102.1665, 294.1530
102.6486, 292.5677
103.1307, 291.0801
103.6128, 289.9463
104.0950, 289.1595
104.5771, 288.6139
105.0592, 288.3975
105.5413, 288.2708
106.0234, 287.8600
106.5055, 286.7934
106.9877, 285.2647
107.4698, 284.0837
107.9519, 283.2685
108.4340, 282.8067
108.9161, 282.5415
109.3982, 282.5486
109.8804, 283.0222
110.3625, 284.2031
110.8446, 286.2053
111.3267, 288.2889
111.8088, 290.5162
112.2909, 292.7659
112.7731, 295.1297
113.2552, 297.5356
113.7373, 299.7521
114.2194, 301.4688
114.7015, 302.9864
115.1836, 303.2078
115.6658, 301.8611
116.1479, 299.4350
116.6300, 296.3446
117.1121, 292.7217
117.5942, 288.5673
118.0763, 283.7008
118.5584, 277.5338
119.0406, 271.9714
119.5227, 267.5650
120.0048, 264.1887
120.4869, 261.5307
120.9690, 259.6595
121.4511, 258.3599
121.9333, 257.0016
122.4154, 255.4352
122.8975, 254.0569
123.3796, 253.4087
123.8617, 253.5981
124.3438, 253.5752
124.8260, 252.0594
125.3081, 250.3476
125.7902, 249.7460
126.2723, 250.9441
126.7544, 253.2115
127.2365, 254.8855
127.7187, 255.5854
128.2008, 256.3060
128.6829, 257.2663
129.1650, 258.4475
129.6471, 259.8737
130.1292, 261.6371
130.6114, 263.6819
131.0935, 265.1635
131.5756, 265.5102
132.0577, 265.8195
132.5398, 266.2387
133.0219, 266.8289
133.5041, 267.6407
133.9862, 268.7418
134.4683, 270.1966
134.9504, 271.5683
135.4325, 272.9706
135.9146, 274.2262
136.3968, 275.1913
136.8789, 275.8681
137.3610, 276.4162
137.8431, 277.0653
138.3252, 277.9092
138.8073, 278.1883
139.2895, 277.4533
139.7716, 276.2904
140.2537, 275.4730
140.7358, 275.2641
141.2179, 275.0420
141.7000, 273.7893
142.1821, 271.6038
142.6643, 269.6295
143.1464, 268.5885
143.6285, 268.1968
144.1106, 267.3853
144.5927, 265.7093
145.0748, 263.7664
145.5570, 262.0660
146.0391, 260.6211
146.5212, 259.3207
147.0033, 258.0341
147.4854, 256.7353
147.9675, 255.6904
148.4497, 255.2456
148.9318, 254.8842
149.4139, 254.2745
149.8960, 253.3625
150.3781, 252.4050
150.8602, 251.8135
151.3424, 251.7696
151.8245, 251.7050
152.3066, 251.2403
152.7887, 250.9049
153.2708, 251.1938
153.7529, 252.2779
154.2351, 253.8615
154.7172, 255.2087
155.1993, 256.0547
155.6814, 256.9520
156.1635, 257.7016
156.6456, 258.5798
157.1278, 259.9807
157.6099, 262.1260
158.0920, 264.8118
158.5741, 267.1728
159.0562, 268.9482
159.5383, 270.7442
160.0205, 272.6180
160.5026, 274.6065
160.9847, 276.7520
161.4668, 278.9988
161.9489, 281.4898
162.4310, 284.6253
162.9131, 288.7602
163.3953, 293.1175
163.8774, 296.9916
164.3595, 300.4879
164.8416, 304.6344
165.3237, 310.4691
165.8058, 317.3541
166.2880, 323.7249
166.7701, 329.0756
167.2522, 334.1566
167.7343, 339.7492
168.2164, 345.8806
168.6985, 352.3534
169.1807, 359.0095
169.6628, 365.9055
170.1449, 373.2212
170.6270, 380.9988
171.1091, 389.2175
171.5912, 397.8952
172.0734, 407.2860
172.5555, 416.6874
173.0376, 425.9037
173.5197, 435.0021
174.0018, 444.1415
174.4839, 453.4055
174.9661, 462.7579
175.4482, 471.9177
175.9303, 481.7732
176.4124, 490.2938
176.8945, 496.6464
177.3766, 501.3398
177.8588, 505.2248
178.3409, 508.9621
178.8230, 512.5634
179.3051, 515.1283
179.7872, 517.4034
180.2693, 517.9493
180.7515, 515.7306
181.2336, 511.2670
181.7157, 505.8930
182.1978, 500.7567
182.6799, 495.9853
183.1620, 490.0191
183.6441, 482.2764
184.1263, 474.1555
184.6084, 466.1964
185.0905, 458.4874
185.5726, 450.9956
186.0547, 443.7665
186.5368, 436.8485
187.0190, 429.8268
187.5011, 422.3369
187.9832, 415.0584
188.4653, 408.3727
188.9474, 402.3669
189.4296, 397.1349
189.9117, 393.0884
190.3938, 390.2064
190.8759, 386.8942
191.3580, 382.4378
191.8401, 377.7408
192.3223, 373.8691
192.8044, 371.0245
193.2865, 368.5425
193.7686, 365.8129
194.2507, 362.9215
194.7328, 360.1711
195.2150, 357.7719
195.6971, 355.5469
196.1792, 353.0728
196.6613, 350.1526
197.1434, 347.3500
197.6255, 345.1840
198.1077, 343.4507
198.5898, 341.6968
199.0719, 339.6056
199.5540, 337.2698
200.0361, 335.1338
200.5182, 333.3504
201.0004, 331.5623
201.4825, 329.4406
201.9646, 327.1505
202.4467, 325.1242
202.9288, 323.6972
203.4109, 322.8402
203.8930, 322.1122
204.3752, 321.6189
204.8573, 321.1648
205.3394, 320.6705
205.8215, 320.1566
206.3036, 319.6689
206.7857, 319.2129
207.2679, 318.7772
207.7500, 318.6079
208.2321, 318.7740
208.7142, 319.1652
209.1963, 319.7810
209.6784, 320.6042
210.1606, 321.6013
210.6427, 322.7386
211.1248, 323.9959
211.6069, 325.5171
212.0890, 327.5404
212.5711, 329.5728
213.0533, 331.4225
213.5354, 333.1011
214.0175, 334.7371
214.4996, 336.4328
214.9817, 338.1836
215.4638, 340.0708
215.9460, 342.4168
216.4281, 344.5949
216.9102, 346.2055
217.3923, 347.3105
217.8744, 348.3582
218.3565, 349.8169
218.8387, 351.7885
219.3208, 352.9563
219.8029, 352.7900
220.2850, 352.3622
220.7671, 352.5078
221.2492, 353.1632
221.7314, 353.4826
222.2135, 352.7228
222.6956, 350.7611
223.1777, 348.5848
223.6598, 345.9618
224.1419, 343.2935
224.6240, 340.8707
225.1062, 338.7058
225.5883, 336.6993
226.0704, 334.7810
226.5525, 332.9720
227.0346, 331.2858
227.5167, 329.5592
227.9989, 328.0635
228.4810, 327.2103
228.9631, 327.0381
229.4452, 326.9004
229.9273, 326.3393
230.4094, 325.4474
230.8916, 324.4835
231.3737, 323.5862
231.8558, 322.5816
232.3379, 321.2530
232.8200, 319.5773
233.3021, 317.7420
233.7843, 315.9408
234.2664, 314.0247
234.7485, 311.7044
235.2306, 308.7491
235.7127, 305.4908
236.1948, 302.4609
236.6770, 299.7824
237.1591, 296.7374
237.6412, 292.3987
238.1233, 287.6413
238.6054, 283.4259
239.0875, 280.1652
239.5697, 277.3991
240.0518, 274.3417
240.5339, 270.7650
241.0160, 267.6020
241.4981, 265.0299
241.9802, 263.0938
242.4624, 261.9211
242.9445, 261.5704
243.4266, 261.9706
243.9087, 263.0804
244.3908, 265.0597
244.8729, 267.3353
245.3550, 269.4265
245.8372, 271.8607
246.3193, 275.1601
246.8014, 279.5221
247.2835, 284.6138
247.7656, 289.9388
248.2477, 295.4011
248.7299, 301.3453
249.2120, 307.9567
249.6941, 314.9022
250.1762, 322.0106
250.6583, 329.2307
251.1404, 336.4230
251.6226, 343.4995
252.1047, 350.6640
252.5868, 357.1086
253.0689, 362.9095
253.5510, 368.0218
254.0331, 372.4410
254.5153, 376.1519
254.9974, 379.1646
255.4795, 381.5961
255.9616, 383.8415
256.4437, 384.4554
256.9258, 383.3651
257.4080, 381.0577
257.8901, 377.7199
258.3722, 373.4478
258.8543, 368.3515
259.3364, 362.5391
259.8185, 355.8421
260.3007, 348.7658
260.7828, 340.6997
261.2649, 332.7335
261.7470, 325.7605
262.2291, 319.7245
262.7112, 313.8273
263.1934, 307.0279
263.6755, 298.8297
264.1576, 291.5722
264.6397, 285.5381
265.1218, 280.0201
265.6039, 274.6365
266.0861, 269.4030
266.5682, 264.5772
267.0503, 260.4359
267.5324, 257.0739
268.0145, 253.9527
268.4966, 250.9722
268.9788, 248.2617
269.4609, 245.9630
269.9430, 244.0239
270.4251, 242.2341
270.9072, 240.3838
271.3893, 238.4647
271.8715, 237.1645
272.3536, 236.3961
272.8357, 236.1747
273.3178, 236.5607
273.7999, 237.5066
274.2820, 238.9405
274.7642, 240.8641
275.2463, 243.2373
275.7284, 245.5341
276.2105, 247.5770
276.6926, 249.7554
277.1747, 252.0147
277.6568, 254.5137
278.1389, 257.6620
278.6211, 261.7794
279.1032, 266.5714
279.5853, 270.7974
280.0674, 273.9171
280.5495, 277.2401
281.0316, 281.2281
281.5138, 285.6251
281.9959, 290.0110
282.4780, 294.2151
282.9601, 298.2719
283.4422, 302.1792
283.9243, 306.0877
284.4065, 309.6495
284.8886, 312.8385
285.3707, 315.6280
285.8528, 317.9326
286.3349, 319.7084
286.8170, 321.1141
287.2992, 322.4700
287.7813, 323.9678
288.2634, 324.7950
288.7455, 324.6886
289.2276, 323.8867
289.7097, 322.6349
290.1919, 320.9846
290.6740, 318.9693
291.1561, 316.5866
291.6382, 313.8382
292.1203, 310.6787
292.6024, 306.9832
293.0846, 302.9383
293.5667, 298.5676
294.0488, 293.8719
294.5309, 289.3193
295.0130, 285.4100
295.4951, 282.1575
295.9773, 278.7021
296.4594, 274.6877
296.9415, 270.6953
297.4236, 267.2672
297.9057, 264.3895
298.3878, 261.4968
298.8700, 258.1166
299.3521, 254.3830
299.8342, 251.1126
300.3163, 248.7350
300.7984, 246.4440
301.2805, 243.5727
301.7627, 240.2957
302.2448, 237.4207
302.7269, 235.4816
303.2090, 234.1472
303.6911, 232.3651
304.1732, 229.8864
304.6554, 227.4066
305.1375, 225.2200
305.6196, 223.2673
306.1017, 221.4082
306.5838, 219.6124
307.0659, 217.8528
307.5481, 216.1034
308.0302, 214.3827
308.5123, 212.6119
308.9944, 210.6054
309.4765, 208.5673
309.9586, 206.9041
310.4408, 205.7567
310.9229, 204.8592
311.4050, 203.8844
311.8871, 202.8191
312.3692, 201.8601
312.8513, 201.1376
313.3335, 200.4988
313.8156, 199.7285
314.2977, 198.7918
314.7798, 197.8678
315.2619, 197.1411
315.7440, 196.5963
316.2262, 195.9925
316.7083, 195.1108
317.1904, 194.3038
317.6725, 193.9334
318.1546, 193.9806
318.6367, 194.0545
319.1188, 193.8320
319.6010, 193.4411
320.0831, 193.4404
320.5652, 194.1077
321.0473, 194.8748
321.5294, 195.4333
322.0115, 195.8318
322.4937, 196.2683
322.9758, 196.8634
323.4579, 197.5121
323.9400, 197.8685
324.4221, 197.6158
324.9042, 197.7805
325.3864, 199.1263
325.8685, 201.0810
326.3506, 202.5008
326.8327, 202.9555
327.3148, 203.0538
327.7969, 203.7606
328.2791, 205.1429
328.7612, 206.5589
329.2433, 207.8648
329.7254, 209.1541
330.2075, 210.5676
330.6896, 212.1298
331.1718, 213.6734
331.6539, 214.9714
332.1360, 216.0004
332.6181, 217.3898
333.1002, 219.2754
333.5823, 221.4286
334.0645, 223.7195
334.5466, 226.1263
335.0287, 228.6761
335.5108, 231.3517
335.9929, 234.1927
336.4750, 237.3082
336.9572, 241.0508
337.4393, 244.6974
337.9214, 247.7935
338.4035, 250.5652
338.8856, 253.5286
339.3677, 256.9310
339.8499, 260.6400
340.3320, 264.2885
340.8141, 267.7030
341.2962, 271.3541
341.7783, 275.4398
342.2604, 279.7765
342.7426, 284.1414
343.2247, 288.4547
343.7068, 292.7173
344.1889, 296.9201
344.6710, 301.0566
345.1531, 305.1285
345.6353, 308.7634
346.1174, 312.5616
346.5995, 317.2204
347.0816, 322.6404
347.5637, 328.0443
348.0458, 332.7224
348.5280, 336.6628
349.0101, 340.0238
349.4922, 342.5361
349.9743, 344.8512
350.4564, 347.2538
350.9385, 349.6586
351.4207, 351.8658
351.9028, 353.7583
352.3849, 355.3362
352.8670, 356.5952
353.3491, 357.3803
353.8312, 358.0402
354.3134, 358.5010
354.7955, 358.9019
355.2776, 359.4781
355.7597, 360.2989
356.2418, 361.1136
356.7239, 361.5137
357.2061, 361.4450
357.6882, 360.9868
358.1703, 359.7965
358.6524, 358.5076
359.1345, 357.4466
359.6166, 356.6978
360.0987, 356.3057
360.5808, 356.3469
361.0630, 356.8712
361.5451, 357.3403
362.0272, 357.7560
362.5093, 358.1168
362.9914, 358.4077
363.4735, 358.6446
363.9557, 358.8314
364.4378, 358.9616
364.9199, 359.0743
365.4020, 359.3626
365.8841, 360.3244
366.3662, 360.7450
366.8484, 360.5739
367.3305, 359.7908
367.8126, 358.0923
368.2947, 355.4706
368.7768, 352.6981
369.2589, 351.1036
369.7411, 351.3392
370.2232, 350.9836
370.7053, 349.3121
371.1874, 347.6058
371.6695, 346.5892
372.1516, 346.2181
372.6338, 345.9325
373.1159, 345.1998
373.5980, 344.0422
374.0801, 343.1944
374.5622, 342.8150
375.0443, 342.5781
375.5265, 342.4122
376.0086, 342.2969
376.4907, 342.2451
376.9728, 342.3020
377.4549, 342.3316
377.9370, 341.9804
378.4192, 341.0899
378.9013, 340.2684
379.3834, 340.0002
379.8655, 339.6754
380.3476, 338.7474
380.8297, 337.1137
381.3119, 335.2284
381.7940, 333.6791
382.2761, 332.4471
382.7582, 330.6044
383.2403, 327.6324
383.7224, 324.4760
384.2046, 321.6555
384.6867, 319.1803
385.1688, 316.9801
385.6509, 315.5723
386.1330, 314.3423
386.6151, 311.6564
387.0973, 307.1386
387.5794, 302.5358
388.0615, 298.6192
388.5436, 295.2914
389.0257, 292.5216
389.5078, 290.4436
389.9900, 288.6668
390.4721, 286.8082
390.9542, 284.9055
391.4363, 283.3702
391.9184, 282.5097
392.4005, 281.8629
392.8827, 280.7333
393.3648, 279.0844
393.8469, 277.5389
394.3290, 276.2669
394.8111, 275.2767
395.2932, 274.6457
395.7754, 274.3991
396.2575, 274.3115
396.7396, 274.1282
397.2217, 273.9056
397.7038, 274.0895
398.1859, 274.7345
398.6681, 275.7643
399.1501, 277.2706
399.6323, 279.1519
400.1144, 281.1021
400.5965, 283.0057
401.0786, 284.8152
401.5607, 286.3016
402.0428, 286.9272
402.5250, 288.2045
403.0071, 290.6959
403.4892, 293.8374
403.9713, 296.9986
404.4534, 300.0189
404.9355, 303.1323
405.4177, 306.6898
405.8998, 310.8883
406.3819, 314.3625
406.8640, 316.6181
407.3461, 318.7076
407.8282, 321.1262
408.3104, 323.8191
408.7925, 326.5690
409.2746, 329.2909
409.7567, 331.9193
410.2388, 334.2039
410.7209, 336.0909
411.2031, 337.6490
411.6852, 338.8506
412.1673, 339.7552
412.6494, 340.4606
413.1315, 340.9762
413.6136, 341.1715
414.0958, 340.8347
414.5779, 339.8582
415.0600, 338.7689
415.5421, 337.9486
416.0242, 336.6522
416.5063, 334.2374
416.9885, 331.0783
417.4706, 328.1279
417.9527, 326.0489
418.4348, 324.5490
418.9169, 322.5377
419.3990, 319.7421
419.8812, 317.0632
420.3633, 314.6823
420.8454, 312.5974
421.3275, 310.8738
421.8096, 309.5328
422.2917, 308.4113
422.7739, 307.3530
423.2560, 306.3626
423.7381, 305.4566
424.2202, 304.3524
424.7023, 303.7652
425.1844, 304.3148
425.6666, 305.7926
426.1487, 307.4754
426.6308, 309.1677
427.1129, 310.8454
427.5950, 312.4798
428.0771, 314.0842
428.5593, 315.5528
429.0414, 316.6205
429.5235, 317.6313
430.0056, 319.3314
430.4877, 322.0662
430.9698, 324.7173
431.4520, 326.7373
431.9341, 328.2757
432.4162, 329.6584
432.8983, 330.9708
433.3804, 332.0521
433.8625, 332.6670
434.3447, 332.7454
434.8268, 332.8060
435.3089, 333.0333
435.7910, 333.1036
436.2731, 332.8811
436.7552, 332.3261
437.2374, 331.3099
437.7195, 329.7069
438.2016, 327.6907
438.6837, 325.9516
439.1658, 324.9131
439.6479, 323.6043
440.1301, 321.7300
440.6122, 319.6945
441.0943, 317.8143
441.5764, 316.1955
442.0585, 314.8763
442.5406, 314.0081
443.0227, 313.7379
443.5049, 312.8339
443.9870, 311.0298
444.4691, 308.8573
444.9512, 306.2661
445.4333, 303.4643
445.9154, 300.6947
446.3976, 298.0945
446.8797, 295.6463
447.3618, 293.3294
447.8439, 291.1800
448.3260, 289.0580
448.8081, 286.9481
449.2903, 284.8353
449.7724, 282.6612
450.2545, 280.4443
450.7366, 278.3197
451.2187, 276.5272
451.7008, 274.9385
452.1830, 272.9079
452.6651, 270.0879
453.1472, 267.6906
453.6293, 266.8022
454.1114, 266.7043
454.5935, 266.4460
455.0757, 265.8255
455.5578, 265.0145
456.0399, 264.0695
456.5220, 263.0321
457.0041, 261.9906
457.4862, 260.8415
457.9684, 259.9715
458.4505, 259.9618
458.9326, 260.7682
459.4147, 261.9369
459.8968, 263.6374
460.3789, 265.4898
460.8611, 267.1608
461.3432, 268.6624
461.8253, 270.1108
462.3074, 271.4948
462.7895, 272.9779
463.2716, 275.3090
463.7538, 279.2913
464.2359, 283.0088
464.7180, 285.8703
465.2001, 288.6015
465.6822, 291.9330
466.1643, 296.0154
466.6465, 300.5258
467.1286, 305.1720
467.6107, 310.0463
468.0928, 314.4913
468.5749, 317.9003
469.0570, 321.5252
469.5392, 325.6733
470.0213, 330.2498
470.5034, 335.2051
470.9855, 340.5499
471.4676, 345.8176
471.9497, 350.1776
472.4319, 353.5230
472.9140, 356.4135
473.3961, 358.8534
473.8782, 360.8644
474.3603, 362.4196
474.8424, 363.5376
475.3246, 364.3290
475.8067, 364.9337
476.2888, 365.2220
476.7709, 364.8826
477.2530, 363.8815
477.7351, 362.4889
478.2173, 360.8498
478.6994, 358.8376
479.1815, 356.2999
479.6636, 353.1699
480.1457, 349.7544
480.6278, 346.2984
481.1100, 342.6345
481.5920, 338.3574
482.0742, 333.3777
482.5563, 328.1783
483.0384, 323.1581
483.5205, 318.3184
484.0026, 313.2813
484.4847, 307.9727
484.9669, 302.5735
485.4490, 296.9478
485.9311, 291.2971
486.4132, 285.9905
486.8953, 281.1466
487.3774, 276.6100
487.8596, 272.2012
488.3417, 268.0433
488.8238, 263.5720
489.3059, 258.3646
489.7880, 253.3113
490.2701, 248.8596
490.7523, 244.9299
491.2344, 241.2880
491.7165, 237.8275
492.1986, 234.5092
492.6807, 231.1871
493.1628, 227.7574
493.6450, 224.6366
494.1271, 222.1946
494.6092, 219.9128
495.0913, 217.3400
495.5734, 214.5147
496.0555, 211.9715
496.5377, 210.2651
497.0198, 209.1240
497.5019, 207.8382
497.9840, 206.3801
498.4661, 204.8257
498.9482, 203.1236
499.4304, 201.3678
499.9125, 199.7045
500.3946, 198.0385
500.8767, 196.7034
501.3588, 196.0275
501.8409, 195.7425
502.3231, 195.4623
502.8052, 195.1144
503.2873, 194.4545
503.7694, 193.1215
504.2515, 191.0739
504.7336, 189.7469
505.2158, 189.7410
505.6979, 189.6986
506.1800, 189.1599
506.6621, 188.2669
507.1442, 187.2089
507.6263, 186.0660
508.1085, 184.9360
508.5906, 183.9900
509.0727, 183.2908
509.5548, 182.5429
510.0369, 181.5261
510.5190, 180.6823
511.0012, 180.2808
511.4833, 180.1614
511.9654, 180.0465
512.4475, 179.8298
512.9296, 179.4442
513.4117, 178.7069
513.8939, 177.5625
514.3760, 176.4864
514.8581, 175.7193
515.3402, 174.8995
515.8223, 173.6742
516.3044, 172.1034
516.7866, 170.5990
517.2687, 169.4400
517.7508, 168.3740
518.2329, 167.0017
518.7150, 165.3499
519.1971, 163.8597
519.6793, 162.8008
520.1614, 161.9526
520.6435, 160.8327
521.1256, 159.3945
521.6077, 157.8811
522.0898, 156.2604
522.5720, 154.6360
523.0541, 153.0880
523.5362, 151.6359
524.0183, 150.2993
524.5004, 149.1266
524.9825, 148.0545
525.4647, 146.6987
525.9468, 144.6229
526.4289, 142.9124
526.9110, 141.7197
527.3931, 140.8576
527.8752, 140.2484
528.3574, 139.8391
528.8395, 139.5196
529.3216, 139.2234
529.8037, 138.9387
530.2858, 138.5804
530.7679, 138.1240
531.2501, 137.6527
531.7322, 137.0979
532.2143, 136.5976
532.6964, 136.2990
533.1785, 136.2318
533.6606, 136.3195
534.1428, 136.6037
534.6249, 136.9889
535.1070, 137.2567
535.5891, 137.3714
536.0712, 137.4725
536.5533, 137.6584
537.0355, 137.9215
537.5176, 138.1950
537.9997, 138.0771
538.4818, 138.4547
538.9639, 140.0392
539.4460, 142.0478
539.9282, 143.4180
540.4103, 143.9767
540.8924, 144.4297
541.3745, 145.5438
541.8566, 147.3463
542.3387, 148.8642
542.8209, 149.6868
543.3029, 150.7008
543.7850, 152.1257
544.2672, 153.8086
544.7493, 155.5630
545.2314, 157.3398
545.7135, 159.2234
546.1956, 161.3033
546.6777, 163.5753
547.1599, 165.8721
547.6420, 168.1072
548.1241, 170.5217
548.6062, 173.3041
549.0883, 176.3561
549.5704, 179.5748
550.0526, 182.9006
550.5347, 186.4561
551.0168, 190.4465
551.4989, 194.7126
551.9810, 198.8555
552.4631, 202.7831
552.9453, 206.9214
553.4274, 211.6476
553.9095, 216.9838
554.3916, 222.6931
554.8737, 228.8904
555.3558, 235.2569
555.8380, 241.5548
556.3201, 248.0814
556.8022, 255.0449
557.2843, 262.5667
557.7664, 270.7030
558.2485, 279.6021
558.7307, 289.2198
559.2128, 299.4153
559.6949, 310.3639
560.1770, 321.5609
560.6591, 332.8199
561.1412, 344.2163
561.6234, 355.9315
562.1055, 367.9816
562.5876, 380.3135
563.0697, 392.7197
563.5518, 405.3605
564.0339, 418.9082
564.5161, 433.6491
564.9982, 448.5324
565.4803, 462.8556
565.9624, 476.7041
566.4445, 490.6100
566.9266, 505.0045
567.4088, 518.8363
567.8909, 532.0300
568.3730, 544.3162
568.8551, 555.6360
569.3372, 565.8278
569.8193, 574.5909
570.3015, 581.5573
570.7836, 586.7468
571.2657, 590.1172
571.7478, 592.1954
572.2299, 591.4954
572.7120, 587.6136
573.1942, 581.1127
573.6763, 572.2217
574.1584, 561.0963
574.6405, 548.4492
575.1226, 534.5321
575.6047, 519.5519
576.0869, 504.3202
576.5690, 488.8368
577.0511, 473.1524
577.5332, 457.2993
578.0153, 441.4067
578.4974, 425.5682
578.9796, 409.5811
579.4617, 394.5870
579.9438, 381.5516
580.4259, 369.4302
580.9080, 356.6916
581.3901, 343.4662
581.8723, 331.0853
