##NAMES=Ruizite
##RRUFFID=R060930
##IDEAL CHEMISTRY=Ca_2_Mn^3+^_2_Si_4_O_11_(OH)_4_&#183;2H_2_O
##LOCALITY=Christmas mine, Gila County, Arizona, USA
##OWNER=RRUFF
##SOURCE=Bob Jenkins
##DESCRIPTION=Orange, massive and radial acicular crystals
##STATUS=The identification of this mineral is confirmed by single-crystal X-ray diffraction and chemical analysis.
##URL=rruff.info/R060930
##MEASURED CHEMISTRY=(Ca_1.98_Mg_0.03_)_Σ2.01_(Mn^3+^_1.95_Fe^3+^_0.08_V^3+^_0.01_)_Σ2.04_Si_3.96_O_11_(OH)_4_·2H_2_O						
97.82745, 1655.952
98.30956, 1641.575
98.79168, 1625.258
99.27380, 1609.390
99.75591, 1593.574
100.2380, 1578.013
100.7201, 1563.995
101.2023, 1552.436
101.6844, 1542.931
102.1665, 1533.249
102.6486, 1522.157
103.1307, 1511.384
103.6128, 1502.643
104.0950, 1495.979
104.5771, 1490.273
105.0592, 1484.078
105.5413, 1477.888
106.0234, 1472.816
106.5055, 1470.407
106.9877, 1469.585
107.4698, 1465.846
107.9519, 1456.896
108.4340, 1447.422
108.9161, 1439.041
109.3982, 1431.663
109.8804, 1424.967
110.3625, 1418.764
110.8446, 1413.193
111.3267, 1407.403
111.8088, 1401.197
112.2909, 1394.924
112.7731, 1388.472
113.2552, 1381.974
113.7373, 1375.831
114.2194, 1370.758
114.7015, 1367.836
115.1836, 1363.936
115.6658, 1358.702
116.1479, 1352.700
116.6300, 1346.202
117.1121, 1339.228
117.5942, 1332.283
118.0763, 1326.726
118.5584, 1322.692
119.0406, 1319.258
119.5227, 1316.600
120.0048, 1314.416
120.4869, 1311.766
120.9690, 1307.952
121.4511, 1303.645
121.9333, 1300.261
122.4154, 1298.244
122.8975, 1296.365
123.3796, 1293.461
123.8617, 1289.392
124.3438, 1285.390
124.8260, 1282.045
125.3081, 1279.081
125.7902, 1276.309
126.2723, 1273.721
126.7544, 1271.254
127.2365, 1268.787
127.7187, 1266.209
128.2008, 1263.830
128.6829, 1262.196
129.1650, 1260.696
129.6471, 1258.385
130.1292, 1254.456
130.6114, 1249.113
131.0935, 1245.325
131.5756, 1245.744
132.0577, 1245.239
132.5398, 1241.917
133.0219, 1236.493
133.5041, 1230.914
133.9862, 1226.851
134.4683, 1224.532
134.9504, 1222.398
135.4325, 1220.601
135.9146, 1218.824
136.3968, 1216.735
136.8789, 1214.361
137.3610, 1212.217
137.8431, 1211.130
138.3252, 1211.483
138.8073, 1210.613
139.2895, 1207.504
139.7716, 1203.431
140.2537, 1199.749
140.7358, 1196.722
141.2179, 1194.275
141.7000, 1192.686
142.1821, 1191.891
142.6643, 1190.712
143.1464, 1188.216
143.6285, 1184.844
144.1106, 1182.211
144.5927, 1180.950
145.0748, 1180.287
145.5570, 1179.584
146.0391, 1178.824
146.5212, 1177.858
147.0033, 1176.529
147.4854, 1174.814
147.9675, 1172.954
148.4497, 1170.847
148.9318, 1168.671
149.4139, 1166.465
149.8960, 1164.258
150.3781, 1162.108
150.8602, 1160.091
151.3424, 1158.086
151.8245, 1156.494
152.3066, 1155.913
152.7887, 1155.363
153.2708, 1153.823
153.7529, 1150.959
154.2351, 1147.522
154.7172, 1145.405
155.1993, 1146.167
155.6814, 1146.518
156.1635, 1146.144
156.6456, 1145.324
157.1278, 1144.367
157.6099, 1143.416
158.0920, 1142.478
158.5741, 1141.582
159.0562, 1140.429
159.5383, 1139.621
160.0205, 1139.587
160.5026, 1140.034
160.9847, 1140.192
161.4668, 1139.440
161.9489, 1138.191
162.4310, 1138.188
162.9131, 1140.388
163.3953, 1142.803
163.8774, 1144.355
164.3595, 1145.100
164.8416, 1145.484
165.3237, 1145.505
165.8058, 1145.424
166.2880, 1145.808
166.7701, 1146.831
167.2522, 1148.256
167.7343, 1149.862
168.2164, 1151.660
168.6985, 1153.570
169.1807, 1155.263
169.6628, 1157.085
170.1449, 1159.587
170.6270, 1163.170
171.1091, 1167.434
171.5912, 1171.416
172.0734, 1174.841
172.5555, 1178.507
173.0376, 1182.791
173.5197, 1187.480
174.0018, 1192.289
174.4839, 1197.011
174.9661, 1201.711
175.4482, 1206.694
175.9303, 1211.883
176.4124, 1217.539
176.8945, 1224.108
177.3766, 1231.157
177.8588, 1237.884
178.3409, 1243.708
178.8230, 1248.629
179.3051, 1253.608
179.7872, 1259.119
180.2693, 1264.229
180.7515, 1268.958
181.2336, 1273.079
181.7157, 1276.137
182.1978, 1277.750
182.6799, 1277.857
183.1620, 1276.717
183.6441, 1273.875
184.1263, 1270.500
184.6084, 1267.339
185.0905, 1264.296
185.5726, 1260.638
186.0547, 1255.706
186.5368, 1249.304
187.0190, 1242.345
187.5011, 1234.673
187.9832, 1226.655
188.4653, 1218.436
188.9474, 1210.088
189.4296, 1201.773
189.9117, 1193.531
190.3938, 1185.427
190.8759, 1177.979
191.3580, 1171.345
191.8401, 1165.394
192.3223, 1160.153
192.8044, 1155.735
193.2865, 1151.408
193.7686, 1146.430
194.2507, 1140.956
194.7328, 1135.367
195.2150, 1129.570
195.6971, 1123.744
196.1792, 1118.217
196.6613, 1113.015
197.1434, 1108.119
197.6255, 1103.438
198.1077, 1098.969
198.5898, 1094.867
199.0719, 1091.126
199.5540, 1087.773
200.0361, 1084.991
200.5182, 1082.926
201.0004, 1081.296
201.4825, 1080.241
201.9646, 1079.490
202.4467, 1078.393
202.9288, 1076.270
203.4109, 1073.209
203.8930, 1070.762
204.3752, 1069.273
204.8573, 1068.147
205.3394, 1067.256
205.8215, 1066.554
206.3036, 1065.985
206.7857, 1065.552
207.2679, 1065.270
207.7500, 1064.828
208.2321, 1063.878
208.7142, 1063.076
209.1963, 1062.354
209.6784, 1061.918
210.1606, 1062.219
210.6427, 1063.774
211.1248, 1066.757
211.6069, 1069.342
212.0890, 1071.044
212.5711, 1072.828
213.0533, 1075.323
213.5354, 1078.318
214.0175, 1081.076
214.4996, 1082.843
214.9817, 1083.382
215.4638, 1084.617
215.9460, 1087.397
216.4281, 1089.970
216.9102, 1091.084
217.3923, 1090.992
217.8744, 1091.206
218.3565, 1093.339
218.8387, 1097.789
219.3208, 1099.956
219.8029, 1098.125
220.2850, 1095.708
220.7671, 1095.135
221.2492, 1096.295
221.7314, 1097.047
222.2135, 1095.411
222.6956, 1091.168
223.1777, 1087.503
223.6598, 1085.187
224.1419, 1082.874
224.6240, 1079.315
225.1062, 1074.505
225.5883, 1069.796
226.0704, 1066.446
226.5525, 1064.281
227.0346, 1061.544
227.5167, 1057.169
227.9989, 1052.787
228.4810, 1050.006
228.9631, 1048.930
229.4452, 1048.572
229.9273, 1048.675
230.4094, 1048.963
230.8916, 1048.663
231.3737, 1046.993
231.8558, 1045.039
232.3379, 1044.216
232.8200, 1044.700
233.3021, 1045.076
233.7843, 1044.502
234.2664, 1043.206
234.7485, 1041.422
235.2306, 1039.065
235.7127, 1036.361
236.1948, 1033.667
236.6770, 1031.061
237.1591, 1028.063
237.6412, 1024.032
238.1233, 1019.579
238.6054, 1015.347
239.0875, 1011.628
239.5697, 1008.078
240.0518, 1004.024
240.5339, 999.1207
241.0160, 994.7775
241.4981, 991.6420
241.9802, 989.2521
242.4624, 987.2226
242.9445, 985.4028
243.4266, 983.9778
243.9087, 983.2869
244.3908, 983.4240
244.8729, 984.0742
245.3550, 985.1149
245.8372, 986.5830
246.3193, 988.5429
246.8014, 991.0212
247.2835, 993.9651
247.7656, 997.4215
248.2477, 1001.658
248.7299, 1005.747
249.2120, 1009.066
249.6941, 1012.440
250.1762, 1016.636
250.6583, 1021.874
251.1404, 1027.543
251.6226, 1032.669
252.1047, 1037.014
252.5868, 1041.279
253.0689, 1046.328
253.5510, 1050.852
254.0331, 1053.607
254.5153, 1054.402
254.9974, 1054.433
255.4795, 1055.762
255.9616, 1059.948
256.4437, 1061.934
256.9258, 1061.396
257.4080, 1059.300
257.8901, 1055.860
258.3722, 1051.318
258.8543, 1046.280
259.3364, 1041.555
259.8185, 1037.313
260.3007, 1032.956
260.7828, 1028.537
261.2649, 1023.951
261.7470, 1019.072
262.2291, 1013.912
262.7112, 1008.677
263.1934, 1003.505
263.6755, 998.1906
264.1576, 993.7838
264.6397, 990.4519
265.1218, 987.6909
265.6039, 985.5232
266.0861, 983.7762
266.5682, 981.9231
267.0503, 979.3383
267.5324, 975.7363
268.0145, 973.4019
268.4966, 973.2585
268.9788, 973.2648
269.4609, 972.3801
269.9430, 970.7059
270.4251, 968.8859
270.9072, 967.3486
271.3893, 966.0836
271.8715, 965.9059
272.3536, 967.5065
272.8357, 969.2607
273.3178, 970.4017
273.7999, 971.1058
274.2820, 972.0231
274.7642, 973.6585
275.2463, 975.9115
275.7284, 977.4742
276.2105, 977.4521
276.6926, 977.8687
277.1747, 979.8309
277.6568, 982.7615
278.1389, 985.2339
278.6211, 986.3635
279.1032, 986.6096
279.5853, 988.0234
280.0674, 992.8552
280.5495, 996.0250
281.0316, 995.4875
281.5138, 992.5323
281.9959, 989.4256
282.4780, 987.1627
282.9601, 985.2330
283.4422, 982.2995
283.9243, 977.8729
284.4065, 973.5438
284.8886, 969.8071
285.3707, 966.3170
285.8528, 962.5204
286.3349, 958.2050
286.8170, 953.6937
287.2992, 949.4747
287.7813, 945.5829
288.2634, 941.8762
288.7455, 937.9922
289.2276, 934.4420
289.7097, 932.2800
290.1919, 931.8061
290.6740, 931.4157
291.1561, 928.9290
291.6382, 924.0269
292.1203, 919.5195
292.6024, 915.6246
293.0846, 912.2717
293.5667, 909.5412
294.0488, 907.4172
294.5309, 905.4628
295.0130, 903.2012
295.4951, 900.6494
295.9773, 898.6205
296.4594, 897.2974
296.9415, 896.3900
297.4236, 895.9680
297.9057, 895.9371
298.3878, 895.4798
298.8700, 893.8409
299.3521, 891.2324
299.8342, 889.2305
300.3163, 887.9444
300.7984, 887.1542
301.2805, 887.0350
301.7627, 887.4131
302.2448, 887.4911
302.7269, 886.7834
303.2090, 885.5303
303.6911, 884.4942
304.1732, 883.7646
304.6554, 883.0818
305.1375, 882.1826
305.6196, 881.2360
306.1017, 880.7657
306.5838, 881.1078
307.0659, 881.7709
307.5481, 881.8234
308.0302, 881.2910
308.5123, 880.3691
308.9944, 878.9378
309.4765, 877.1971
309.9586, 875.4487
310.4408, 873.7443
310.9229, 872.1711
311.4050, 870.8865
311.8871, 869.8719
312.3692, 869.0047
312.8513, 868.4532
313.3335, 867.9436
313.8156, 867.1119
314.2977, 865.8973
314.7798, 864.5684
315.2619, 863.4469
315.7440, 862.4760
316.2262, 861.0417
316.7083, 858.6637
317.1904, 856.1042
317.6725, 853.8485
318.1546, 851.9322
318.6367, 850.5211
319.1188, 849.8553
319.6010, 849.8090
320.0831, 849.5945
320.5652, 849.1943
321.0473, 848.6526
321.5294, 847.9859
322.0115, 847.1992
322.4937, 846.2461
322.9758, 845.0234
323.4579, 843.7327
323.9400, 842.9495
324.4221, 842.9154
324.9042, 842.7713
325.3864, 841.9594
325.8685, 840.8685
326.3506, 840.3456
326.8327, 840.7607
327.3148, 841.4294
327.7969, 841.2230
328.2791, 840.0402
328.7612, 838.8427
329.2433, 837.6480
329.7254, 836.6057
330.2075, 835.9687
330.6896, 835.7809
331.1718, 835.7010
331.6539, 835.3556
332.1360, 834.7202
332.6181, 834.3323
333.1002, 834.2978
333.5823, 834.4493
334.0645, 834.5453
334.5466, 834.6410
335.0287, 835.1981
335.5108, 836.6675
335.9929, 838.8845
336.4750, 840.5435
336.9572, 841.6779
337.4393, 842.3154
337.9214, 842.0709
338.4035, 841.3218
338.8856, 840.9844
339.3677, 841.5162
339.8499, 842.6279
340.3320, 843.5576
340.8141, 844.1563
341.2962, 844.8602
341.7783, 845.7958
342.2604, 846.8656
342.7426, 847.9897
343.2247, 849.1422
343.7068, 850.2205
344.1889, 851.0657
344.6710, 851.5789
345.1531, 852.1280
345.6353, 852.4047
346.1174, 852.9342
346.5995, 854.3354
347.0816, 856.5338
347.5637, 858.7822
348.0458, 860.3889
348.5280, 861.3220
349.0101, 862.2906
349.4922, 862.7271
349.9743, 863.7502
350.4564, 866.4912
350.9385, 870.2086
351.4207, 873.0685
351.9028, 873.8688
352.3849, 873.2640
352.8670, 874.0991
353.3491, 877.8914
353.8312, 881.2328
354.3134, 883.0765
354.7955, 884.5077
355.2776, 887.0201
355.7597, 891.0974
356.2418, 895.7206
356.7239, 899.1522
357.2061, 900.4961
357.6882, 902.4271
358.1703, 905.4096
358.6524, 908.5715
359.1345, 911.3810
359.6166, 913.7634
360.0987, 915.7783
360.5808, 917.3640
361.0630, 918.3514
361.5451, 920.5700
362.0272, 925.9495
362.5093, 930.4719
362.9914, 932.2488
363.4735, 932.2231
363.9557, 932.3043
364.4378, 933.6862
364.9199, 935.9725
365.4020, 937.4697
365.8841, 937.7463
366.3662, 937.7501
366.8484, 937.6242
367.3305, 937.2897
367.8126, 936.7803
368.2947, 936.0777
368.7768, 934.9053
369.2589, 932.6461
369.7411, 928.6750
370.2232, 925.3351
370.7053, 923.5970
371.1874, 921.7137
371.6695, 918.4690
372.1516, 914.0648
372.6338, 909.6414
373.1159, 906.2029
373.5980, 903.7296
374.0801, 901.4737
374.5622, 899.8699
375.0443, 897.9162
375.5265, 895.0186
376.0086, 891.6331
376.4907, 888.4724
376.9728, 885.8606
377.4549, 883.6683
377.9370, 881.6761
378.4192, 880.0363
378.9013, 878.1628
379.3834, 875.6819
379.8655, 873.0378
380.3476, 870.4971
380.8297, 868.1190
381.3119, 865.9817
381.7940, 864.4079
382.2761, 863.3746
382.7582, 861.6871
383.2403, 858.5496
383.7224, 855.4994
384.2046, 853.5948
384.6867, 852.6447
385.1688, 851.8707
385.6509, 850.9512
386.1330, 849.9144
386.6151, 848.8471
387.0973, 847.7931
387.5794, 846.5426
388.0615, 844.6439
388.5436, 842.5475
389.0257, 840.9351
389.5078, 840.0778
389.9900, 839.4547
390.4721, 838.7752
390.9542, 837.9962
391.4363, 836.7288
391.9184, 834.5374
392.4005, 832.1855
392.8827, 830.8564
393.3648, 830.6302
393.8469, 830.1992
394.3290, 828.8719
394.8111, 827.0901
395.2932, 825.5498
395.7754, 824.3474
396.2575, 823.2985
396.7396, 822.1651
397.2217, 821.0134
397.7038, 820.3289
398.1859, 820.9140
398.6681, 821.2858
399.1501, 819.9801
399.6323, 817.5087
400.1144, 815.8214
400.5965, 816.0058
401.0786, 817.4158
401.5607, 818.2207
402.0428, 818.3291
402.5250, 818.1078
403.0071, 817.3491
403.4892, 816.4095
403.9713, 815.6979
404.4534, 815.3077
404.9355, 815.0659
405.4177, 814.7410
405.8998, 814.2355
406.3819, 814.2095
406.8640, 815.2629
407.3461, 816.1658
407.8282, 816.2814
408.3104, 815.7432
408.7925, 814.8943
409.2746, 813.8735
409.7567, 812.8757
410.2388, 812.7901
410.7209, 814.6983
411.2031, 816.1534
411.6852, 816.6571
412.1673, 816.7909
412.6494, 817.3216
413.1315, 818.3614
413.6136, 819.1160
414.0958, 818.2126
414.5779, 814.8526
415.0600, 813.0455
415.5421, 814.6364
416.0242, 816.1093
416.5063, 815.9523
416.9885, 814.5598
417.4706, 813.0836
417.9527, 812.1833
418.4348, 811.8029
418.9169, 811.7914
419.3990, 812.3235
419.8812, 812.8466
420.3633, 813.1553
420.8454, 813.3947
421.3275, 813.7667
421.8096, 814.3283
422.2917, 814.7296
422.7739, 814.4554
423.2560, 813.5470
423.7381, 812.8839
424.2202, 812.4422
424.7023, 812.5117
425.1844, 813.5594
425.6666, 815.3090
426.1487, 816.7641
426.6308, 817.1389
427.1129, 817.1464
427.5950, 817.7715
428.0771, 819.0297
428.5593, 820.8430
429.0414, 823.4895
429.5235, 826.5222
430.0056, 828.9439
430.4877, 830.6077
430.9698, 832.0084
431.4520, 833.6915
431.9341, 835.2383
432.4162, 835.5195
432.8983, 834.1105
433.3804, 832.4901
433.8625, 832.6765
434.3447, 835.0606
434.8268, 835.7031
435.3089, 832.8972
435.7910, 829.6520
436.2731, 827.8610
436.7552, 827.3750
437.2374, 827.3140
437.7195, 827.2267
438.2016, 827.0595
438.6837, 826.6080
439.1658, 825.8420
439.6479, 824.8164
440.1301, 822.9863
440.6122, 821.2143
441.0943, 820.6656
441.5764, 821.3950
442.0585, 822.1013
442.5406, 821.1940
443.0227, 818.3740
443.5049, 816.1425
443.9870, 814.5220
444.4691, 813.4968
444.9512, 813.5123
445.4333, 814.0514
445.9154, 814.4306
446.3976, 814.3532
446.8797, 813.6387
447.3618, 811.6669
447.8439, 807.8495
448.3260, 804.5272
448.8081, 802.3281
449.2903, 800.5999
449.7724, 798.8990
450.2545, 797.2305
450.7366, 795.9798
451.2187, 795.8531
451.7008, 796.4680
452.1830, 796.0771
452.6651, 794.2819
453.1472, 792.3984
453.6293, 791.1194
454.1114, 790.2607
454.5935, 789.6291
455.0757, 789.2256
455.5578, 788.9623
456.0399, 788.8595
456.5220, 788.8601
457.0041, 788.6597
457.4862, 788.0711
457.9684, 787.4688
458.4505, 787.3754
458.9326, 787.7717
459.4147, 788.2941
459.8968, 788.9492
460.3789, 789.6603
460.8611, 790.4372
461.3432, 791.2404
461.8253, 791.7972
462.3074, 791.8085
462.7895, 791.5875
463.2716, 792.4689
463.7538, 795.8063
464.2359, 798.4015
464.7180, 799.0087
465.2001, 799.2020
465.6822, 800.7590
466.1643, 803.9322
466.6465, 807.5146
467.1286, 810.1976
467.6107, 811.9167
468.0928, 813.5026
468.5749, 814.6865
469.0570, 816.0157
469.5392, 817.5730
470.0213, 819.3815
470.5034, 821.5419
470.9855, 824.1183
471.4676, 826.7755
471.9497, 829.0556
472.4319, 831.0861
472.9140, 832.1754
473.3961, 831.6759
473.8782, 830.6181
474.3603, 829.2750
474.8424, 827.8241
475.3246, 826.7381
475.8067, 826.7739
476.2888, 827.2078
476.7709, 826.3505
477.2530, 824.0538
477.7351, 821.4171
478.2173, 818.7496
478.6994, 816.1417
479.1815, 813.8024
479.6636, 811.8669
480.1457, 809.7431
480.6278, 807.1476
481.1100, 804.1564
481.5920, 800.7587
482.0742, 796.9277
482.5563, 793.2215
483.0384, 790.2909
483.5205, 788.0930
484.0026, 784.9324
484.4847, 780.0744
484.9669, 775.1205
485.4490, 770.4072
485.9311, 766.0820
486.4132, 762.4769
486.8953, 759.6951
487.3774, 757.3058
487.8596, 754.6114
488.3417, 751.3779
488.8238, 748.4320
489.3059, 746.3553
489.7880, 743.9770
490.2701, 740.2916
490.7523, 735.8674
491.2344, 732.0474
491.7165, 729.6965
492.1986, 728.3610
492.6807, 726.7758
493.1628, 724.7530
493.6450, 723.0193
494.1271, 722.4115
494.6092, 721.6599
495.0913, 719.5755
495.5734, 716.2682
496.0555, 713.2474
496.5377, 711.8027
497.0198, 711.4333
497.5019, 710.8831
497.9840, 710.1638
498.4661, 709.0521
498.9482, 707.0895
499.4304, 704.7599
499.9125, 702.9921
500.3946, 701.9236
500.8767, 701.1801
501.3588, 700.8420
501.8409, 700.6293
502.3231, 699.9132
502.8052, 698.5603
503.2873, 697.2484
503.7694, 696.7083
504.2515, 696.9727
504.7336, 696.6738
505.2158, 695.0752
505.6979, 693.8010
506.1800, 693.6490
506.6621, 694.1248
507.1442, 694.5594
507.6263, 694.6917
508.1085, 694.4875
508.5906, 693.8070
509.0727, 692.3818
509.5548, 691.4392
510.0369, 691.3210
510.5190, 691.3421
511.0012, 691.2760
511.4833, 691.1531
511.9654, 691.0662
512.4475, 691.0563
512.9296, 691.1234
513.4117, 691.3125
513.8939, 691.6570
514.3760, 691.8752
514.8581, 691.8655
515.3402, 691.7471
515.8223, 691.6306
516.3044, 691.5099
516.7866, 691.3287
517.2687, 690.9971
517.7508, 690.6311
518.2329, 690.4980
518.7150, 690.5610
519.1971, 690.2903
519.6793, 689.3835
520.1614, 688.0547
520.6435, 686.7939
521.1256, 685.6553
521.6077, 684.3983
522.0898, 682.9553
522.5720, 681.4003
523.0541, 679.7718
523.5362, 678.0977
524.0183, 676.3461
524.5004, 674.4326
524.9825, 672.5286
525.4647, 671.5443
525.9468, 672.6864
526.4289, 673.0355
526.9110, 671.7219
527.3931, 669.9904
527.8752, 668.7551
528.3574, 668.1730
528.8395, 668.0037
529.3216, 668.2487
529.8037, 668.7588
530.2858, 668.5078
530.7679, 667.1249
531.2501, 665.8431
531.7322, 665.1244
532.2143, 664.8143
532.6964, 664.7998
533.1785, 665.0734
533.6606, 665.5869
534.1428, 666.6111
534.6249, 667.7946
535.1070, 668.2911
535.5891, 667.9520
536.0712, 667.4666
536.5533, 667.3326
537.0355, 667.4975
537.5176, 667.6006
537.9997, 667.2506
538.4818, 667.3190
538.9639, 668.5736
539.4460, 670.1444
539.9282, 670.8278
540.4103, 670.4392
540.8924, 669.8172
541.3745, 669.8625
541.8566, 670.6024
542.3387, 671.0681
542.8209, 670.7996
543.3029, 670.8037
543.7850, 671.2308
544.2672, 672.0570
544.7493, 673.5203
545.2314, 675.6171
545.7135, 677.4056
546.1956, 677.2618
546.6777, 675.4637
547.1599, 675.5321
547.6420, 678.4118
548.1241, 681.5402
548.6062, 683.4561
549.0883, 684.5353
549.5704, 685.2374
550.0526, 685.4065
550.5347, 685.6942
551.0168, 686.4182
551.4989, 687.5727
551.9810, 689.2511
552.4631, 691.4827
552.9453, 693.8716
553.4274, 696.0853
553.9095, 698.1280
554.3916, 699.9449
554.8737, 700.9265
555.3558, 702.4363
555.8380, 705.1687
556.3201, 708.5012
556.8022, 711.6306
557.2843, 714.3691
557.7664, 717.0588
558.2485, 720.1864
558.7307, 723.7643
559.2128, 726.8797
559.6949, 728.7874
560.1770, 731.2979
560.6591, 735.1470
561.1412, 739.8000
561.6234, 744.6832
562.1055, 749.6478
562.5876, 754.7709
563.0697, 759.9382
563.5518, 765.3073
564.0339, 771.5986
564.5161, 779.1140
564.9982, 786.5475
565.4803, 792.8002
565.9624, 798.2007
566.4445, 804.2842
566.9266, 811.3350
567.4088, 818.6465
567.8909, 826.4781
568.3730, 834.1943
568.8551, 841.1143
569.3372, 847.0576
569.8193, 852.2412
570.3015, 856.8018
570.7836, 860.7433
571.2657, 863.8342
571.7478, 865.7057
572.2299, 867.1644
572.7120, 869.3834
573.1942, 870.6278
573.6763, 869.2274
574.1584, 864.9706
574.6405, 858.9500
575.1226, 851.6508
575.6047, 843.3154
576.0869, 834.9460
576.5690, 826.5904
577.0511, 818.0114
577.5332, 808.9689
578.0153, 799.7946
578.4974, 790.9994
578.9796, 782.5789
579.4617, 774.6039
579.9438, 767.3616
580.4259, 760.4348
580.9080, 753.0616
581.3901, 745.3759
581.8723, 738.4047
582.3544, 732.9158
582.8365, 728.3947
583.3186, 723.0045
583.8007, 714.8328
584.2828, 708.7618
584.7650, 706.5048
585.2471, 704.8470
585.7292, 701.6159
586.2113, 697.0319
586.6934, 692.4877
587.1755, 688.8140
587.6577, 685.8030
588.1398, 683.0671
588.6219, 680.6142
589.1040, 678.3412
589.5861, 676.1777
590.0682, 674.2331
590.5504, 672.6942
591.0325, 671.4955
591.5146, 670.2332
