##NAMES=Ruizite
##RRUFFID=R130787
##IDEAL CHEMISTRY=Ca_2_Mn^3+^_2_Si_4_O_11_(OH)_4_&#183;2H_2_O
##LOCALITY=Wessels mine, Hotazel, Kalahari Manganese Field, Northern Cape Province, South Africa
##OWNER=RRUFF
##SOURCE=Marcus Origlieri
##DESCRIPTION=Brown prismatic crystals in radiating groups, with a globular gyrolite-like mineral, on and in hydroxyapophyllite-(K) with minor inesite.
##STATUS=The identification of this mineral is confirmed by single-crystal X-ray diffraction and chemical analysis.
##URL=rruff.info/R130787
##MEASURED CHEMISTRY=(Ca_1.90_Sr_0.06_Mg_0.04_)_2.00_(Mn^3+^_1.88_Fe^3+^_0.07_Al_0.05_)_2.00_Si_4.01_O_11_(OH)_4_Â·2H_2_O
90.74744, 364.1172
91.22955, 369.4415
91.71167, 376.8092
92.19379, 382.0580
92.67590, 385.5717
93.15802, 388.0997
93.64014, 390.4277
94.12225, 392.3359
94.60437, 392.9495
95.08649, 392.2282
95.56860, 389.9909
96.05072, 385.6826
96.53284, 379.5695
97.01495, 372.9923
97.49707, 366.7543
97.97919, 360.8035
98.46130, 355.8788
98.94342, 352.2162
99.42554, 349.7266
99.90765, 347.8063
100.3898, 346.4348
100.8719, 345.5545
101.3540, 345.1101
101.8361, 345.1188
102.3182, 345.3940
102.8004, 345.8031
103.2825, 346.2066
103.7646, 347.3467
104.2467, 349.4473
104.7288, 352.1537
105.2109, 354.6292
105.6931, 356.8403
106.1752, 358.9732
106.6573, 361.1910
107.1394, 363.9699
107.6215, 366.0658
108.1036, 366.8728
108.5858, 366.7910
109.0679, 367.9557
109.5500, 370.8595
110.0321, 374.6066
110.5142, 378.6918
110.9963, 383.2497
111.4785, 387.9888
111.9606, 392.9068
112.4427, 398.0029
112.9248, 403.1251
113.4069, 408.9926
113.8890, 414.5234
114.3712, 418.9132
114.8533, 422.4673
115.3354, 424.4401
115.8175, 424.3849
116.2996, 422.2148
116.7817, 419.1820
117.2639, 415.4611
117.7460, 411.1972
118.2281, 406.5726
118.7102, 401.2827
119.1923, 395.8914
119.6744, 390.5812
120.1566, 385.2030
120.6387, 380.5931
121.1208, 377.1978
121.6029, 374.9445
122.0850, 373.7500
122.5671, 374.5146
123.0493, 375.8838
123.5314, 376.3330
124.0135, 375.2786
124.4956, 374.0825
124.9777, 374.0511
125.4598, 374.9930
125.9420, 376.2234
126.4241, 377.2134
126.9062, 378.1887
127.3883, 379.6107
127.8704, 381.7095
128.3525, 384.1080
128.8347, 386.2937
129.3168, 388.2782
129.7989, 390.1251
130.2810, 391.8949
130.7631, 393.5767
131.2452, 395.1680
131.7274, 396.5464
132.2095, 397.8947
132.6916, 399.7914
133.1737, 402.3181
133.6558, 404.9669
134.1379, 407.4268
134.6201, 409.6979
135.1022, 411.5486
135.5843, 412.7049
136.0664, 413.3052
136.5485, 414.4088
137.0306, 416.1519
137.5128, 418.0931
137.9949, 419.8481
138.4770, 421.4740
138.9591, 422.6309
139.4412, 423.1364
139.9233, 422.9389
140.4055, 422.6584
140.8876, 422.2587
141.3697, 421.7956
141.8518, 421.3438
142.3339, 420.8653
142.8160, 420.4744
143.2982, 420.2480
143.7803, 420.2898
144.2624, 420.1439
144.7445, 419.6547
145.2266, 419.0294
145.7087, 418.7645
146.1909, 418.9908
146.6730, 419.4114
147.1551, 419.9603
147.6372, 421.0068
148.1193, 421.5453
148.6014, 421.1765
149.0836, 420.2504
149.5657, 419.9576
150.0478, 420.3869
150.5299, 421.3810
151.0120, 422.8875
151.4941, 424.9389
151.9763, 427.4289
152.4584, 430.5637
152.9405, 434.2157
153.4226, 437.8113
153.9047, 440.9701
154.3868, 444.2749
154.8690, 448.0428
155.3511, 452.4585
155.8332, 457.1732
156.3153, 462.1667
156.7974, 467.4219
157.2795, 472.8042
157.7617, 478.0006
158.2438, 483.4708
158.7259, 489.5477
159.2080, 496.5865
159.6901, 503.9867
160.1722, 511.7532
160.6544, 519.8593
161.1365, 527.8013
161.6186, 534.8900
162.1007, 541.8929
162.5828, 549.6951
163.0649, 558.8332
163.5471, 568.5259
164.0292, 578.3723
164.5113, 588.3537
164.9934, 598.8381
165.4755, 610.4058
165.9576, 622.5197
166.4398, 634.3558
166.9219, 644.9667
167.4040, 655.8014
167.8861, 667.7311
168.3682, 680.8780
168.8503, 694.5792
169.3325, 708.5145
169.8146, 722.7753
170.2967, 737.2894
170.7788, 752.1096
171.2609, 767.3436
171.7430, 782.9875
172.2252, 799.1546
172.7073, 815.4691
173.1894, 831.5700
173.6715, 847.7289
174.1536, 863.9620
174.6357, 881.2782
175.1179, 898.5891
175.6000, 914.7605
176.0821, 929.5817
176.5642, 943.0647
177.0463, 955.5041
177.5284, 966.6851
178.0106, 975.7621
178.4927, 981.9298
178.9748, 985.8398
179.4569, 988.4442
179.9390, 989.8849
180.4211, 989.9705
180.9033, 988.5856
181.3854, 985.6947
181.8675, 981.2101
182.3496, 974.7170
182.8317, 966.6322
183.3138, 957.5272
183.7960, 947.4943
184.2781, 936.5818
184.7602, 924.6216
185.2423, 911.6534
185.7244, 899.0123
186.2065, 887.6667
186.6887, 877.2679
187.1708, 866.2289
187.6529, 854.2366
188.1350, 841.8783
188.6171, 830.3876
189.0992, 819.6531
189.5814, 809.3311
190.0635, 799.2653
190.5456, 789.3295
191.0277, 779.6065
191.5098, 770.0099
191.9919, 760.6693
192.4741, 751.9787
192.9562, 743.9670
193.4383, 736.6711
193.9204, 730.3340
194.4025, 724.9196
194.8846, 719.7834
195.3668, 714.7675
195.8489, 710.0787
196.3310, 706.3625
196.8131, 703.7112
197.2952, 701.3270
197.7773, 698.5303
198.2595, 695.3089
198.7416, 692.5740
199.2237, 690.4399
199.7058, 688.8861
200.1879, 688.0928
200.6700, 688.2321
201.1522, 688.3474
201.6343, 687.6045
202.1164, 685.8735
202.5985, 684.6652
203.0806, 684.2208
203.5627, 684.3918
204.0449, 684.7057
204.5270, 685.1129
205.0091, 685.8096
205.4912, 686.8680
205.9733, 688.2440
206.4554, 690.2656
206.9376, 693.1096
207.4197, 696.5787
207.9018, 699.9403
208.3839, 702.9993
208.8660, 706.4778
209.3481, 710.8853
209.8303, 716.3846
210.3124, 722.2742
210.7945, 728.7343
211.2766, 735.4802
211.7587, 741.3869
212.2408, 745.9880
212.7230, 750.7742
213.2051, 756.8840
213.6872, 764.6964
214.1693, 772.5789
214.6514, 780.4202
215.1335, 788.1746
215.6157, 795.3116
216.0978, 801.8644
216.5799, 807.8011
217.0620, 813.1863
217.5441, 818.0929
218.0262, 822.2453
218.5084, 825.7350
218.9905, 828.4901
219.4726, 830.0746
219.9547, 830.5429
220.4368, 829.8270
220.9189, 827.8345
221.4011, 824.3344
221.8832, 820.1518
222.3653, 815.2435
222.8474, 809.7213
223.3295, 803.8304
223.8116, 797.8532
224.2938, 791.2917
224.7759, 783.6500
225.2580, 774.2002
225.7401, 765.5530
226.2222, 757.8265
226.7043, 751.0220
227.1865, 744.8217
227.6686, 739.3234
228.1507, 734.4495
228.6328, 730.3286
229.1149, 727.4057
229.5970, 724.2001
230.0792, 720.5546
230.5613, 716.5701
231.0434, 712.7728
231.5255, 709.3671
232.0076, 705.9449
232.4897, 702.4163
232.9719, 699.1109
233.4540, 694.9918
233.9361, 689.8342
234.4182, 683.8344
234.9003, 677.5693
235.3824, 670.9711
235.8646, 664.2024
236.3467, 657.3436
236.8288, 650.4307
237.3109, 643.2987
237.7930, 635.8171
238.2751, 628.0906
238.7573, 620.6633
239.2394, 613.4916
239.7215, 606.6433
240.2036, 600.0159
240.6857, 593.2712
241.1678, 587.4967
241.6500, 582.7750
242.1321, 579.0099
242.6142, 575.8632
243.0963, 573.1376
243.5784, 571.3618
244.0605, 570.7798
244.5427, 571.4865
245.0248, 573.1153
245.5069, 575.6140
245.9890, 579.0793
246.4711, 583.6566
246.9532, 589.4352
247.4354, 596.2575
247.9175, 603.9874
248.3996, 612.6241
248.8817, 622.3342
249.3638, 633.2443
249.8459, 645.1690
250.3281, 657.9365
250.8102, 672.3390
251.2923, 686.2769
251.7744, 699.2134
252.2565, 710.9504
252.7386, 722.0919
253.2208, 732.8555
253.7029, 742.8578
254.1850, 751.8173
254.6671, 760.1914
255.1492, 766.6191
255.6313, 770.4575
256.1135, 771.4501
256.5956, 771.5496
257.0777, 771.1000
257.5598, 769.4015
258.0419, 765.4172
258.5240, 758.7961
259.0062, 750.7646
259.4883, 741.6132
259.9704, 731.5416
260.4525, 719.5746
260.9346, 705.0912
261.4167, 689.6746
261.8989, 675.1316
262.3810, 661.8529
262.8631, 648.7508
263.3452, 635.5950
263.8273, 622.2372
264.3094, 609.9991
264.7916, 598.9604
265.2737, 588.6251
265.7558, 578.2713
266.2379, 567.7496
266.7200, 557.9685
267.2021, 549.1217
267.6843, 541.1690
268.1664, 533.3104
268.6485, 525.4730
269.1306, 517.8961
269.6127, 510.7321
270.0948, 503.8539
270.5770, 498.0402
271.0591, 493.5978
271.5412, 490.3481
272.0233, 487.3270
272.5054, 484.4857
272.9875, 482.1210
273.4697, 480.5506
273.9518, 479.8573
274.4339, 479.2689
274.9160, 478.5548
275.3981, 477.9714
275.8802, 478.3221
276.3624, 479.6805
276.8445, 481.6922
277.3266, 484.2592
277.8087, 487.4158
278.2908, 490.6965
278.7729, 494.1290
279.2551, 497.5956
279.7372, 500.7224
280.2193, 503.4904
280.7014, 506.1248
281.1835, 508.7651
281.6656, 511.4111
282.1478, 513.9846
282.6299, 516.4739
283.1120, 518.9089
283.5941, 521.5175
284.0762, 524.3436
284.5583, 526.6049
285.0405, 527.7773
285.5226, 527.9718
286.0047, 528.2561
286.4868, 528.6976
286.9689, 529.0206
287.4510, 528.9373
287.9332, 528.4406
288.4153, 527.4017
288.8974, 525.5978
289.3795, 523.2101
289.8616, 521.0499
290.3438, 519.1721
290.8259, 517.1312
291.3080, 514.3824
291.7901, 511.0188
292.2722, 507.4192
292.7543, 503.6289
293.2365, 499.7560
293.7186, 496.0874
294.2007, 492.6564
294.6828, 489.3250
295.1649, 485.9323
295.6470, 482.5580
296.1292, 479.3600
296.6113, 476.4722
297.0934, 473.7339
297.5755, 470.7796
298.0576, 467.6312
298.5397, 464.6609
299.0219, 462.3112
299.5040, 460.2926
299.9861, 457.9660
300.4682, 455.0948
300.9503, 452.1302
301.4324, 449.5026
301.9146, 447.2209
302.3967, 445.1986
302.8788, 443.4241
303.3609, 441.8848
303.8430, 440.7449
304.3251, 440.1909
304.8073, 439.4076
305.2894, 437.2684
305.7715, 434.2720
306.2536, 431.5762
306.7357, 429.9872
307.2178, 428.8979
307.7000, 427.7408
308.1821, 426.4586
308.6642, 425.1681
309.1463, 423.8942
309.6284, 422.6763
310.1105, 421.5614
310.5927, 420.6702
311.0748, 419.8306
311.5569, 419.0306
312.0390, 418.2596
312.5211, 417.1581
313.0032, 415.1294
313.4854, 412.8059
313.9675, 410.8864
314.4496, 409.9701
314.9317, 409.1939
315.4138, 407.9583
315.8959, 406.4049
316.3781, 405.3376
316.8602, 405.5282
317.3423, 406.1112
317.8244, 406.4569
318.3065, 406.2934
318.7886, 406.0710
319.2708, 405.7694
319.7529, 405.4965
320.2350, 405.5582
320.7171, 406.0599
321.1992, 406.9001
321.6813, 408.0562
322.1635, 409.6148
322.6456, 411.2666
323.1277, 412.9478
323.6098, 414.6798
324.0919, 416.5085
324.5740, 418.4748
325.0562, 420.4796
325.5383, 422.3916
326.0204, 424.0534
326.5025, 426.2540
326.9846, 429.4530
327.4667, 433.0477
327.9489, 436.4359
328.4310, 439.1494
328.9131, 442.1971
329.3952, 445.9335
329.8773, 450.3881
330.3594, 454.4457
330.8416, 457.6417
331.3237, 460.7938
331.8058, 464.4455
332.2879, 468.6224
332.7700, 473.2963
333.2521, 478.6084
333.7343, 484.4681
334.2164, 490.4729
334.6985, 496.5426
335.1806, 502.7667
335.6627, 509.1989
336.1448, 515.7731
336.6270, 522.5661
337.1091, 529.5055
337.5912, 536.6379
338.0733, 544.2277
338.5554, 552.2968
339.0375, 560.5179
339.5197, 568.7410
340.0018, 576.8779
340.4839, 585.4199
340.9660, 594.2058
341.4481, 603.3984
341.9302, 613.0916
342.4124, 623.4023
342.8945, 633.6864
343.3766, 643.8165
343.8587, 653.7828
344.3408, 663.9896
344.8229, 674.3831
345.3051, 685.0408
345.7872, 696.3348
346.2693, 708.0564
346.7514, 719.1229
347.2335, 728.9489
347.7156, 738.3311
348.1978, 748.9542
348.6799, 760.6908
349.1620, 771.8608
349.6441, 780.9905
350.1262, 788.7526
350.6083, 796.6901
351.0905, 805.1056
351.5726, 813.6050
352.0547, 822.0126
352.5368, 830.2042
353.0189, 837.8018
353.5010, 844.3894
353.9832, 850.3799
354.4653, 856.2516
354.9474, 862.0789
355.4295, 867.6389
355.9116, 872.6328
356.3937, 877.3043
356.8759, 881.9511
357.3580, 886.8757
357.8401, 891.7023
358.3222, 896.1490
358.8043, 900.2816
359.2864, 904.2429
359.7686, 908.4395
360.2507, 912.3500
360.7328, 915.4290
361.2149, 917.1808
361.6970, 918.7673
362.1791, 920.7946
362.6613, 922.9882
363.1434, 924.7263
363.6255, 925.2825
364.1076, 925.7432
364.5897, 926.8984
365.0718, 929.3924
365.5540, 930.5134
366.0361, 929.0426
366.5182, 926.1970
367.0003, 923.4391
367.4824, 921.0842
367.9645, 918.6946
368.4467, 916.3231
368.9288, 914.0417
369.4109, 911.1341
369.8930, 906.9843
370.3751, 902.7117
370.8572, 899.0359
371.3394, 896.0746
371.8215, 893.6183
372.3036, 891.8381
372.7857, 890.5499
373.2678, 889.0262
373.7499, 886.9661
374.2321, 885.1542
374.7142, 884.0078
375.1963, 883.6550
375.6784, 883.4035
376.1605, 883.3680
376.6426, 883.2673
377.1248, 882.6409
377.6069, 881.4174
378.0890, 880.0533
378.5711, 878.7520
379.0532, 877.4542
379.5353, 875.9133
380.0175, 874.1777
380.4996, 871.8947
380.9817, 868.6081
381.4638, 864.4122
381.9459, 859.8790
382.4280, 855.1042
382.9102, 850.1340
383.3923, 845.3720
383.8744, 840.7039
384.3565, 835.4272
384.8386, 828.7596
385.3207, 821.2204
385.8029, 813.9395
386.2850, 806.8820
386.7671, 800.4803
387.2492, 795.7607
387.7313, 792.0134
388.2134, 787.7105
388.6956, 781.4272
389.1777, 774.8312
389.6598, 769.4338
390.1419, 765.2429
390.6240, 761.4230
391.1061, 757.4979
391.5883, 753.6393
392.0704, 749.9483
392.5525, 745.8984
393.0346, 742.8142
393.5167, 741.5949
393.9988, 741.8191
394.4810, 742.2667
394.9631, 742.3887
395.4452, 742.7268
395.9273, 743.5234
396.4094, 744.7889
396.8915, 746.5643
397.3737, 748.9727
397.8558, 751.8470
398.3379, 754.9811
398.8200, 758.5763
399.3021, 762.1727
399.7842, 765.7104
400.2664, 769.1798
400.7485, 772.4968
401.2306, 775.1716
401.7127, 778.1091
402.1948, 781.9365
402.6769, 787.1450
403.1591, 792.1432
403.6412, 796.7322
404.1233, 801.0922
404.6054, 805.9075
405.0875, 811.3736
405.5696, 816.5855
406.0518, 821.1141
406.5339, 824.9475
407.0160, 828.8254
407.4981, 832.7959
407.9802, 836.6137
408.4623, 839.9570
408.9445, 842.8524
409.4266, 845.6620
409.9087, 848.8955
410.3908, 851.7934
410.8729, 852.0303
411.3550, 849.6838
411.8372, 847.0566
412.3193, 846.2172
412.8014, 846.2726
413.2835, 845.1603
413.7656, 842.5839
414.2477, 838.8759
414.7299, 833.7909
415.2120, 827.7978
415.6941, 822.1824
416.1762, 818.1193
416.6583, 814.2241
417.1404, 809.2567
417.6226, 803.1535
418.1047, 796.5629
418.5868, 788.9802
419.0689, 781.4396
419.5510, 774.8578
420.0331, 770.2586
420.5153, 765.6776
420.9974, 759.9886
421.4795, 753.7687
421.9616, 748.7087
422.4437, 746.0875
422.9258, 743.9488
423.4080, 741.4231
423.8901, 738.1750
424.3722, 735.5143
424.8543, 733.3777
425.3364, 731.9820
425.8185, 731.5894
426.3007, 732.9587
426.7828, 734.2311
427.2649, 735.0446
427.7470, 735.5052
428.2291, 736.3581
428.7112, 737.7006
429.1934, 739.2412
429.6755, 741.0203
430.1576, 743.2380
430.6397, 744.3944
431.1218, 744.0366
431.6039, 743.2578
432.0861, 744.2695
432.5682, 747.2614
433.0503, 749.0362
433.5324, 748.0949
434.0145, 745.1852
434.4966, 742.9312
434.9788, 741.3633
435.4609, 739.7538
435.9430, 737.6911
436.4251, 735.0953
436.9072, 731.5680
437.3893, 726.6632
437.8715, 721.7294
438.3536, 718.7570
438.8357, 717.0753
439.3178, 714.8119
439.7999, 710.6518
440.2820, 705.6636
440.7642, 700.7472
441.2463, 695.9034
441.7284, 691.1605
442.2105, 686.4222
442.6926, 681.7771
443.1747, 677.3203
443.6569, 673.3369
444.1390, 669.1992
444.6211, 664.4924
445.1032, 659.4523
445.5853, 654.9163
446.0674, 651.6006
446.5496, 648.2913
447.0317, 644.4943
447.5138, 639.9669
447.9959, 635.6898
448.4780, 631.5956
448.9601, 627.7997
449.4423, 624.3835
449.9244, 621.5559
450.4065, 618.7372
450.8886, 615.6481
451.3707, 612.5309
451.8528, 610.4287
452.3350, 609.6003
452.8171, 608.9542
453.2992, 607.8231
453.7813, 606.1838
454.2634, 604.8127
454.7455, 603.7485
455.2277, 602.7953
455.7098, 601.0793
456.1919, 598.9223
456.6740, 598.6370
457.1561, 602.0150
457.6382, 606.8246
458.1204, 608.7656
458.6025, 608.2281
459.0846, 607.8907
459.5667, 609.6716
460.0488, 612.7062
460.5309, 615.8716
461.0131, 618.9518
461.4952, 622.3984
461.9773, 626.5125
462.4594, 631.1504
462.9415, 636.1656
463.4236, 641.9603
463.9058, 647.6179
464.3879, 652.5050
464.8700, 656.7020
465.3521, 661.5602
465.8342, 667.6231
466.3163, 674.3272
466.7985, 681.4362
467.2806, 689.3209
467.7627, 696.8414
468.2448, 703.5970
468.7269, 710.0705
469.2090, 717.0795
469.6912, 725.1852
470.1733, 732.9764
470.6554, 740.3839
471.1375, 747.3033
471.6196, 752.4833
472.1017, 755.4504
472.5839, 758.0114
473.0660, 761.8138
473.5481, 766.8645
474.0302, 770.3740
474.5123, 771.9525
474.9944, 772.4467
475.4766, 773.2382
475.9587, 774.1683
476.4408, 774.1618
476.9229, 772.6247
477.4050, 770.0173
477.8871, 767.0338
478.3693, 763.6701
478.8514, 759.8324
479.3335, 755.4980
479.8156, 750.6134
480.2977, 745.1390
480.7798, 739.0590
481.2620, 732.4758
481.7441, 725.1914
482.2262, 717.4937
482.7083, 709.8102
483.1904, 702.1865
483.6725, 694.6383
484.1547, 687.2618
484.6368, 680.0648
485.1189, 672.7981
485.6010, 665.3763
486.0831, 657.8829
486.5652, 650.3492
487.0474, 642.2615
487.5295, 635.2122
488.0116, 630.0319
488.4937, 625.3558
488.9758, 618.9767
489.4579, 610.0797
489.9401, 601.8981
490.4222, 595.0983
490.9043, 589.6028
491.3864, 584.9786
491.8685, 581.3166
492.3506, 577.7821
492.8328, 573.4860
493.3149, 568.7595
493.7970, 565.2458
494.2791, 563.2408
494.7612, 561.5365
495.2433, 558.4783
495.7255, 554.5994
496.2076, 551.2220
496.6897, 548.9218
497.1718, 547.2431
497.6539, 546.0741
498.1360, 545.2750
498.6182, 544.2665
499.1003, 542.1809
499.5824, 540.1730
500.0645, 539.1639
500.5466, 539.4152
501.0287, 539.8359
501.5109, 540.4541
501.9930, 540.9275
502.4751, 540.9049
502.9572, 539.8665
503.4393, 538.8882
503.9214, 538.2139
504.4036, 537.6981
504.8857, 536.7779
505.3678, 535.1836
505.8499, 533.6384
506.3320, 532.4965
506.8141, 531.8058
507.2963, 530.8524
507.7784, 529.6132
508.2605, 528.1419
508.7426, 526.4694
509.2247, 524.5947
509.7068, 522.5274
510.1890, 520.3152
510.6711, 517.8289
511.1532, 514.6224
511.6353, 510.8615
512.1174, 507.4393
512.5995, 505.1692
513.0817, 503.2627
513.5638, 500.8363
514.0459, 497.8717
514.5280, 494.5444
515.0101, 490.8474
515.4922, 486.8892
515.9744, 482.7858
516.4565, 478.4010
516.9386, 474.1440
517.4207, 470.3674
517.9028, 466.7660
518.3849, 462.8373
518.8671, 458.2357
519.3492, 453.5779
519.8313, 448.8263
520.3134, 444.0492
520.7955, 439.6621
521.2776, 435.6876
521.7598, 432.0462
522.2419, 428.9150
522.7240, 426.5248
523.2061, 423.1715
523.6882, 418.5034
524.1703, 413.5300
524.6525, 409.6441
525.1346, 406.7674
525.6167, 403.8668
526.0988, 400.5726
526.5809, 397.2589
527.0630, 394.6127
527.5452, 392.6003
528.0273, 390.9438
528.5094, 389.6984
528.9915, 388.5900
529.4736, 387.2287
529.9557, 385.5688
530.4379, 384.0186
530.9200, 382.5289
531.4021, 381.3859
531.8842, 380.8994
532.3663, 381.7032
532.8484, 382.3512
533.3306, 382.0082
533.8127, 381.2939
534.2948, 381.5428
534.7769, 383.9328
535.2590, 386.0465
535.7411, 387.1139
536.2233, 387.1856
536.7054, 388.1689
537.1875, 390.3061
537.6696, 392.8858
538.1517, 395.5501
538.6339, 398.2886
539.1160, 400.9281
539.5981, 403.3537
540.0802, 405.9569
540.5623, 409.4742
541.0444, 413.7580
541.5266, 418.0092
542.0087, 421.7584
542.4908, 425.5981
542.9729, 430.3871
543.4550, 435.9527
543.9371, 441.7614
544.4193, 447.4801
544.9014, 453.3877
545.3835, 459.6839
545.8656, 466.3793
546.3477, 473.5397
546.8298, 481.5708
547.3120, 489.9688
547.7941, 498.2352
548.2762, 505.5851
548.7583, 513.8563
549.2404, 523.4741
549.7225, 533.9979
550.2047, 544.7115
550.6868, 555.5165
551.1689, 566.7239
551.6510, 578.2137
552.1331, 590.0966
552.6152, 602.8029
553.0974, 616.3506
553.5795, 630.6603
554.0616, 645.9142
554.5437, 661.9778
555.0258, 677.8427
555.5079, 693.4202
555.9901, 709.5550
556.4722, 727.7766
556.9543, 747.3445
557.4364, 766.5950
557.9185, 784.5127
558.4006, 802.9014
558.8828, 823.8814
559.3649, 846.5089
559.8470, 869.0820
560.3291, 890.3629
560.8112, 911.8615
561.2933, 934.4427
561.7755, 958.1307
562.2576, 982.2424
562.7397, 1007.043
563.2218, 1031.628
563.7039, 1055.734
564.1860, 1079.595
564.6682, 1102.488
565.1503, 1124.408
565.6324, 1145.693
566.1145, 1166.686
566.5966, 1187.704
567.0787, 1207.476
567.5609, 1226.048
568.0430, 1242.907
568.5251, 1256.309
569.0072, 1266.525
569.4893, 1274.639
569.9714, 1282.503
570.4536, 1288.159
570.9357, 1288.644
571.4178, 1284.028
571.8999, 1276.130
572.3820, 1265.973
572.8641, 1253.148
573.3463, 1237.396
573.8284, 1218.307
574.3105, 1196.787
574.7926, 1172.408
575.2747, 1145.965
575.7568, 1118.548
576.2390, 1089.426
576.7211, 1059.920
577.2032, 1030.006
577.6853, 999.7052
578.1674, 969.8896
578.6495, 940.2919
579.1317, 912.0007
579.6138, 885.6350
580.0959, 861.0490
580.5780, 837.1390
581.0601, 813.7122
