##NAMES=Ruizite
##RRUFFID=R140132
##IDEAL CHEMISTRY=Ca_2_Mn^3+^_2_Si_4_O_11_(OH)_4_&#183;2H_2_O
##LOCALITY=Cornwall, Lebanon County, Pennsylvania, USA
##OWNER=RRUFF
##SOURCE=Marcus Origlieri
##DESCRIPTION=Reddish brown acicular crystals
##STATUS=The identification of this mineral is confirmed by single-crystal X-ray diffraction and chemical analysis.
##URL=rruff.info/R140132
##MEASURED CHEMISTRY=(Ca_1.96_Mg_0.02_)_Σ1.98_(Mn^3+^_1.97_Fe^3+^_0.04_Al_0.01_)_Σ2.02_Si_4.00_O_11_(OH)_4_·2H_2_O
91.55994, 571.5439
92.04205, 587.6605
92.52417, 609.5986
93.00629, 631.2557
93.48840, 647.4078
93.97052, 654.4180
94.45264, 651.6817
94.93475, 648.1682
95.41687, 643.0695
95.89898, 636.6525
96.38110, 629.6396
96.86321, 622.5558
97.34533, 615.1895
97.82745, 606.4667
98.30956, 598.4802
98.79168, 591.1902
99.27380, 584.6097
99.75591, 578.5593
100.2380, 572.9923
100.7201, 568.0675
101.2023, 563.8892
101.6844, 560.4322
102.1665, 557.2541
102.6486, 554.1277
103.1307, 551.3065
103.6128, 549.0260
104.0950, 547.2510
104.5771, 545.9236
105.0592, 545.1962
105.5413, 544.6971
106.0234, 543.8943
106.5055, 542.4006
106.9877, 540.3669
107.4698, 538.3994
107.9519, 536.1098
108.4340, 534.3645
108.9161, 533.6744
109.3982, 533.7743
109.8804, 534.0507
110.3625, 533.9738
110.8446, 533.4778
111.3267, 532.9198
111.8088, 531.9717
112.2909, 531.2119
112.7731, 531.0522
113.2552, 531.4761
113.7373, 532.0768
114.2194, 532.2834
114.7015, 531.9775
115.1836, 531.3815
115.6658, 530.2424
116.1479, 528.9388
116.6300, 527.9212
117.1121, 527.3676
117.5942, 526.9571
118.0763, 525.8068
118.5584, 523.3561
119.0406, 521.4489
119.5227, 520.7825
120.0048, 521.0931
120.4869, 521.6752
120.9690, 522.2589
121.4511, 522.9265
121.9333, 523.8563
122.4154, 525.2831
122.8975, 526.5614
123.3796, 526.9961
123.8617, 526.4899
124.3438, 525.9547
124.8260, 525.5606
125.3081, 525.4525
125.7902, 525.8616
126.2723, 526.9403
126.7544, 528.4868
127.2365, 530.0977
127.7187, 531.9868
128.2008, 533.5571
128.6829, 534.5475
129.1650, 535.1970
129.6471, 535.8606
130.1292, 536.8271
130.6114, 538.0359
131.0935, 538.5514
131.5756, 537.4638
132.0577, 536.5267
132.5398, 536.2545
133.0219, 536.5146
133.5041, 536.8668
133.9862, 536.9006
134.4683, 536.5093
134.9504, 536.5663
135.4325, 537.5947
135.9146, 538.5688
136.3968, 538.7527
136.8789, 538.1362
137.3610, 537.3963
137.8431, 537.3895
138.3252, 538.3557
138.8073, 538.7360
139.2895, 537.9815
139.7716, 536.7778
140.2537, 535.9109
140.7358, 535.5721
141.2179, 535.5082
141.7000, 535.5278
142.1821, 535.6328
142.6643, 535.5170
143.1464, 534.6385
143.6285, 533.3388
144.1106, 532.9721
144.5927, 534.5109
145.0748, 536.3130
145.5570, 536.7105
146.0391, 535.6987
146.5212, 534.7188
147.0033, 535.3212
147.4854, 537.7482
147.9675, 539.3868
148.4497, 538.4675
148.9318, 537.4136
149.4139, 537.7020
149.8960, 539.6020
150.3781, 542.1268
150.8602, 543.7081
151.3424, 543.6364
151.8245, 544.2093
152.3066, 545.7691
152.7887, 547.8464
153.2708, 550.1631
153.7529, 552.5916
154.2351, 555.1002
154.7172, 557.6027
155.1993, 560.0287
155.6814, 562.5305
156.1635, 564.9576
156.6456, 567.5086
157.1278, 570.3652
157.6099, 573.6111
158.0920, 577.2658
158.5741, 581.4773
159.0562, 586.9318
159.5383, 592.0942
160.0205, 596.1236
160.5026, 599.5279
160.9847, 603.4832
161.4668, 608.6379
161.9489, 614.9047
162.4310, 621.4514
162.9131, 628.1735
163.3953, 635.2019
163.8774, 642.7416
164.3595, 650.7518
164.8416, 658.6418
165.3237, 665.7697
165.8058, 672.6169
166.2880, 680.2737
166.7701, 689.2935
167.2522, 698.8690
167.7343, 708.0538
168.2164, 716.7465
168.6985, 725.4587
169.1807, 734.6544
169.6628, 743.9637
170.1449, 752.9758
170.6270, 761.4770
171.1091, 769.5773
171.5912, 777.5225
172.0734, 785.3368
172.5555, 792.9174
173.0376, 800.9392
173.5197, 808.6978
174.0018, 815.2072
174.4839, 819.8077
174.9661, 822.6811
175.4482, 824.8491
175.9303, 826.5338
176.4124, 827.0871
176.8945, 826.4113
177.3766, 824.5319
177.8588, 821.5248
178.3409, 817.4372
178.8230, 812.2572
179.3051, 805.8786
179.7872, 797.4657
180.2693, 788.6791
180.7515, 780.1795
181.2336, 771.7416
181.7157, 762.6846
182.1978, 752.2584
182.6799, 740.1795
183.1620, 729.6514
183.6441, 721.5066
184.1263, 713.7807
184.6084, 705.6024
185.0905, 696.9471
185.5726, 688.2116
186.0547, 679.7488
186.5368, 671.5856
187.0190, 663.9277
187.5011, 656.8981
187.9832, 650.3196
188.4653, 643.8800
188.9474, 637.6062
189.4296, 632.1025
189.9117, 628.2357
190.3938, 625.9991
190.8759, 623.6428
191.3580, 620.6696
191.8401, 617.6515
192.3223, 615.2979
192.8044, 613.7632
193.2865, 612.4843
193.7686, 610.9219
194.2507, 609.1672
194.7328, 607.5148
195.2150, 605.9285
195.6971, 604.5164
196.1792, 603.4425
196.6613, 602.6462
197.1434, 602.3889
197.6255, 603.0434
198.1077, 604.3555
198.5898, 605.7117
199.0719, 606.6965
199.5540, 607.4444
200.0361, 608.5145
200.5182, 609.9498
201.0004, 611.7253
201.4825, 613.7408
201.9646, 616.0173
202.4467, 618.5963
202.9288, 621.6600
203.4109, 625.1700
203.8930, 628.3310
204.3752, 630.8181
204.8573, 633.2570
205.3394, 635.7842
205.8215, 638.4352
206.3036, 641.2756
206.7857, 644.4131
207.2679, 647.8770
207.7500, 651.0799
208.2321, 653.7405
208.7142, 656.3845
209.1963, 659.1226
209.6784, 661.9697
210.1606, 664.9052
210.6427, 667.9177
211.1248, 670.9880
211.6069, 674.1351
212.0890, 677.8107
212.5711, 681.1359
213.0533, 683.6857
213.5354, 685.5388
214.0175, 687.0980
214.4996, 688.7455
214.9817, 690.5650
215.4638, 691.8273
215.9460, 692.4931
216.4281, 692.7901
216.9102, 692.9939
217.3923, 693.0068
217.8744, 692.4017
218.3565, 690.7693
218.8387, 687.9890
219.3208, 684.7518
219.8029, 680.7786
220.2850, 676.6224
220.7671, 672.7058
221.2492, 668.9967
221.7314, 665.0316
222.2135, 660.2900
222.6956, 654.7219
223.1777, 649.7715
223.6598, 646.1017
224.1419, 642.5509
224.6240, 638.1135
225.1062, 632.7713
225.5883, 627.5033
226.0704, 623.2345
226.5525, 619.8313
227.0346, 615.9435
227.5167, 610.9945
227.9989, 605.8469
228.4810, 601.4586
228.9631, 597.9049
229.4452, 594.3395
229.9273, 590.1387
230.4094, 585.4664
230.8916, 580.7579
231.3737, 576.3489
231.8558, 571.8002
232.3379, 566.4219
232.8200, 560.0773
233.3021, 553.8684
233.7843, 548.6462
234.2664, 543.9713
234.7485, 539.1697
235.2306, 533.8096
235.7127, 528.4758
236.1948, 523.9989
236.6770, 520.4969
237.1591, 517.2667
237.6412, 513.8922
238.1233, 510.5891
238.6054, 507.5936
239.0875, 504.9730
239.5697, 502.6982
240.0518, 500.5118
240.5339, 498.0290
241.0160, 496.9058
241.4981, 498.5702
241.9802, 501.5040
242.4624, 504.2793
242.9445, 506.2899
243.4266, 508.3125
243.9087, 511.6714
244.3908, 516.5490
244.8729, 522.3244
245.3550, 529.2923
245.8372, 536.7369
246.3193, 544.0247
246.8014, 550.9394
247.2835, 557.7961
247.7656, 565.2444
248.2477, 573.3582
248.7299, 581.9012
249.2120, 591.3163
249.6941, 600.7726
250.1762, 609.6771
250.6583, 617.8564
251.1404, 625.3890
251.6226, 632.5537
252.1047, 639.6175
252.5868, 645.5219
253.0689, 650.5685
253.5510, 654.4197
254.0331, 656.8305
254.5153, 657.7374
254.9974, 657.2979
255.4795, 655.7280
255.9616, 653.0177
256.4437, 649.0328
256.9258, 643.7549
257.4080, 637.5295
257.8901, 630.5353
258.3722, 622.8254
258.8543, 614.3012
259.3364, 604.6539
259.8185, 592.9818
260.3007, 582.4988
260.7828, 573.5256
261.2649, 565.1218
261.7470, 556.7740
262.2291, 548.3782
262.7112, 540.2045
263.1934, 532.5034
263.6755, 525.3151
264.1576, 518.5226
264.6397, 511.7263
265.1218, 505.5739
265.6039, 500.6320
266.0861, 496.8028
266.5682, 493.4901
267.0503, 490.1546
267.5324, 486.8094
268.0145, 483.3954
268.4966, 479.3740
268.9788, 475.7718
269.4609, 473.3252
269.9430, 471.8422
270.4251, 470.5189
270.9072, 468.6659
271.3893, 466.2602
271.8715, 464.3896
272.3536, 463.1048
272.8357, 462.1743
273.3178, 461.4770
273.7999, 461.0490
274.2820, 461.0541
274.7642, 461.6532
275.2463, 462.7894
275.7284, 463.7555
276.2105, 464.4190
276.6926, 465.1005
277.1747, 465.9493
277.6568, 466.9016
278.1389, 467.8196
278.6211, 468.6416
279.1032, 469.3559
279.5853, 469.8979
280.0674, 470.2344
280.5495, 470.4839
281.0316, 470.5185
281.5138, 470.5052
281.9959, 470.8106
282.4780, 471.6418
282.9601, 472.7235
283.4422, 473.2867
283.9243, 472.9926
284.4065, 472.9129
284.8886, 473.2915
285.3707, 474.0082
285.8528, 474.9398
286.3349, 476.0690
286.8170, 477.2766
287.2992, 478.3860
287.7813, 479.4084
288.2634, 480.3001
288.7455, 481.0772
289.2276, 481.7031
289.7097, 482.1253
290.1919, 482.3315
290.6740, 482.3419
291.1561, 482.1099
291.6382, 481.5859
292.1203, 481.2225
292.6024, 481.5816
293.0846, 481.8276
293.5667, 480.9522
294.0488, 478.8420
294.5309, 476.5127
295.0130, 474.9395
295.4951, 474.1322
295.9773, 472.9590
296.4594, 471.3112
296.9415, 469.3317
297.4236, 467.0182
297.9057, 464.4127
298.3878, 461.7675
298.8700, 459.2466
299.3521, 456.8426
299.8342, 454.4435
300.3163, 452.1152
300.7984, 449.7505
301.2805, 447.1271
301.7627, 444.3465
302.2448, 441.8452
302.7269, 439.8969
303.2090, 438.3505
303.6911, 436.6811
304.1732, 434.6836
304.6554, 432.8895
305.1375, 431.8131
305.6196, 431.1427
306.1017, 429.9801
306.5838, 427.8535
307.0659, 425.3370
307.5481, 423.5791
308.0302, 422.6559
308.5123, 421.9077
308.9944, 421.3130
309.4765, 420.7208
309.9586, 419.8076
310.4408, 418.4408
310.9229, 416.9739
311.4050, 415.9520
311.8871, 415.3866
312.3692, 414.6696
312.8513, 413.3746
313.3335, 412.0067
313.8156, 411.1955
314.2977, 411.0431
314.7798, 411.1720
315.2619, 411.3615
315.7440, 411.5796
316.2262, 411.4908
316.7083, 410.7509
317.1904, 409.9162
317.6725, 409.3935
318.1546, 409.1981
318.6367, 409.2777
319.1188, 409.6993
319.6010, 410.3685
320.0831, 410.8164
320.5652, 410.9710
321.0473, 410.9898
321.5294, 410.8951
322.0115, 410.7213
322.4937, 410.5978
322.9758, 410.6069
323.4579, 410.6786
323.9400, 410.6109
324.4221, 410.2816
324.9042, 410.0960
325.3864, 410.2625
325.8685, 410.6617
326.3506, 411.0663
326.8327, 411.4014
327.3148, 411.7423
327.7969, 412.1799
328.2791, 412.6765
328.7612, 413.4141
329.2433, 414.7733
329.7254, 416.2308
330.2075, 417.1443
330.6896, 417.4031
331.1718, 417.3548
331.6539, 417.2045
332.1360, 416.9469
332.6181, 417.2480
333.1002, 418.3455
333.5823, 419.8401
334.0645, 421.6820
334.5466, 423.7581
335.0287, 425.5452
335.5108, 426.5712
335.9929, 426.9794
336.4750, 427.8465
336.9572, 429.9745
337.4393, 431.6798
337.9214, 431.7902
338.4035, 430.9206
338.8856, 430.5740
339.3677, 431.4912
339.8499, 433.2403
340.3320, 434.6968
340.8141, 435.8492
341.2962, 436.7868
341.7783, 437.3410
342.2604, 437.7556
342.7426, 438.3181
343.2247, 439.1083
343.7068, 440.1000
344.1889, 441.3071
344.6710, 442.9206
345.1531, 444.1419
345.6353, 444.6653
346.1174, 444.9970
346.5995, 445.4175
347.0816, 445.9961
347.5637, 446.8658
348.0458, 448.2380
348.5280, 450.1656
349.0101, 451.3377
349.4922, 451.2145
349.9743, 451.0206
350.4564, 451.2466
350.9385, 451.8123
351.4207, 452.4483
351.9028, 452.9906
352.3849, 453.4938
352.8670, 454.2049
353.3491, 455.3240
353.8312, 456.4008
354.3134, 457.2820
354.7955, 458.1311
355.2776, 459.0991
355.7597, 460.2454
356.2418, 461.6293
356.7239, 463.4190
357.2061, 466.1683
357.6882, 468.1404
358.1703, 468.7193
358.6524, 469.0584
359.1345, 469.8247
359.6166, 471.1353
360.0987, 472.8601
360.5808, 474.9420
361.0630, 477.4503
361.5451, 479.6233
362.0272, 481.4477
362.5093, 482.9724
362.9914, 483.9571
363.4735, 484.6749
363.9557, 485.5984
364.4378, 487.0286
364.9199, 488.8497
365.4020, 490.5741
365.8841, 492.1886
366.3662, 493.7108
366.8484, 495.1989
367.3305, 496.5725
367.8126, 497.6346
368.2947, 498.3523
368.7768, 499.0800
369.2589, 500.4617
369.7411, 502.8801
370.2232, 504.9012
370.7053, 506.2931
371.1874, 507.4639
371.6695, 508.5970
372.1516, 509.7088
372.6338, 510.7509
373.1159, 511.5959
373.5980, 512.2576
374.0801, 513.3310
374.5622, 515.2078
375.0443, 517.0322
375.5265, 518.6360
376.0086, 519.9846
376.4907, 521.0432
376.9728, 521.8152
377.4549, 522.2582
377.9370, 522.1204
378.4192, 521.0149
378.9013, 520.4385
379.3834, 521.4690
379.8655, 522.7800
380.3476, 523.4962
380.8297, 523.4340
381.3119, 522.5881
381.7940, 520.6559
382.2761, 517.6626
382.7582, 514.9930
383.2403, 512.9138
383.7224, 511.1178
384.2046, 509.2730
384.6867, 507.4748
385.1688, 506.0223
385.6509, 505.4217
386.1330, 505.2335
386.6151, 504.3476
387.0973, 502.5613
387.5794, 500.8070
388.0615, 499.5770
388.5436, 498.7188
389.0257, 498.0778
389.5078, 497.7001
389.9900, 497.3916
390.4721, 496.9593
390.9542, 496.4233
391.4363, 495.9800
391.9184, 495.7413
392.4005, 495.5623
392.8827, 495.1997
393.3648, 494.6310
393.8469, 494.1873
394.3290, 494.0329
394.8111, 494.0770
395.2932, 494.1121
395.7754, 494.0868
396.2575, 494.3266
396.7396, 495.1991
397.2217, 496.6750
397.7038, 498.1205
398.1859, 499.3505
398.6681, 500.6997
399.1501, 502.5601
399.6323, 504.7708
400.1144, 506.7567
400.5965, 508.2250
401.0786, 509.2867
401.5607, 510.1757
402.0428, 510.4753
402.5250, 511.3373
403.0071, 513.2417
403.4892, 515.6818
403.9713, 518.1693
404.4534, 520.5580
404.9355, 522.8322
405.4177, 525.0345
405.8998, 527.2818
406.3819, 528.6575
406.8640, 528.7827
407.3461, 528.5198
407.8282, 528.1246
408.3104, 527.6909
408.7925, 527.3597
409.2746, 527.2432
409.7567, 527.2311
410.2388, 526.8168
410.7209, 525.9814
411.2031, 524.7081
411.6852, 522.6957
412.1673, 520.4195
412.6494, 518.2877
413.1315, 516.4196
413.6136, 514.7256
414.0958, 513.2125
414.5779, 512.1006
415.0600, 510.2452
415.5421, 506.7364
416.0242, 503.3247
416.5063, 500.7682
416.9885, 498.8603
417.4706, 497.0194
417.9527, 494.8260
418.4348, 492.4521
418.9169, 490.4338
419.3990, 488.7824
419.8812, 487.5065
420.3633, 486.8419
420.8454, 486.4088
421.3275, 485.8568
421.8096, 485.0982
422.2917, 484.3385
422.7739, 483.7226
423.2560, 483.2566
423.7381, 483.0858
424.2202, 483.3063
424.7023, 483.7357
425.1844, 484.3359
425.6666, 485.0332
426.1487, 485.5616
426.6308, 485.5057
427.1129, 485.3539
427.5950, 485.8687
428.0771, 487.0814
428.5593, 488.5529
429.0414, 490.2397
429.5235, 491.9404
430.0056, 493.2700
430.4877, 494.2156
430.9698, 494.8274
431.4520, 494.8730
431.9341, 494.6406
432.4162, 494.8274
432.8983, 495.6690
433.3804, 496.4906
433.8625, 496.4534
434.3447, 495.4195
434.8268, 494.5048
435.3089, 493.7662
435.7910, 493.1361
436.2731, 492.6830
436.7552, 492.3219
437.2374, 491.8101
437.7195, 491.0085
438.2016, 489.9485
438.6837, 488.7614
439.1658, 487.3571
439.6479, 485.9336
440.1301, 484.4771
440.6122, 483.0288
441.0943, 481.5649
441.5764, 480.1231
442.0585, 478.8925
442.5406, 478.2006
443.0227, 478.2208
443.5049, 477.5096
443.9870, 475.3761
444.4691, 473.2224
444.9512, 471.2340
445.4333, 469.5728
445.9154, 468.5938
446.3976, 468.5923
446.8797, 468.8461
447.3618, 467.5777
447.8439, 464.1443
448.3260, 461.1027
448.8081, 458.8062
449.2903, 457.1247
449.7724, 456.2835
450.2545, 456.1588
450.7366, 455.9769
451.2187, 454.9091
451.7008, 453.2445
452.1830, 452.3331
452.6651, 452.4620
453.1472, 452.6913
453.6293, 452.3640
454.1114, 451.8103
454.5935, 451.5059
455.0757, 451.5994
455.5578, 451.8647
456.0399, 452.0961
456.5220, 452.3322
457.0041, 452.7353
457.4862, 453.3370
457.9684, 454.1557
458.4505, 455.2693
458.9326, 456.6631
459.4147, 458.1667
459.8968, 459.7662
460.3789, 461.4510
460.8611, 463.1258
461.3432, 464.8433
461.8253, 466.9044
462.3074, 469.5836
462.7895, 472.6765
463.2716, 475.3869
463.7538, 477.3119
464.2359, 479.4124
464.7180, 481.9038
465.2001, 484.5835
465.6822, 487.3491
466.1643, 490.1351
466.6465, 492.7015
467.1286, 494.7450
467.6107, 496.2125
468.0928, 497.7976
468.5749, 499.8370
469.0570, 501.6245
469.5392, 502.9677
470.0213, 503.9292
470.5034, 504.4847
470.9855, 504.5998
471.4676, 504.6794
471.9497, 505.7876
472.4319, 508.5121
472.9140, 509.6722
473.3961, 507.6689
473.8782, 504.8825
474.3603, 502.5765
474.8424, 500.7038
475.3246, 498.6384
475.8067, 496.0091
476.2888, 492.9566
476.7709, 489.6834
477.2530, 486.1633
477.7351, 482.6866
478.2173, 479.4974
478.6994, 476.3636
479.1815, 472.9442
479.6636, 469.1859
480.1457, 465.3100
480.6278, 461.4423
481.1100, 457.5263
481.5920, 453.3612
482.0742, 448.8951
482.5563, 444.5274
483.0384, 440.6341
483.5205, 437.2193
484.0026, 433.6376
484.4847, 429.7202
484.9669, 425.8364
485.4490, 422.0411
485.9311, 418.3810
486.4132, 414.9904
486.8953, 411.9047
487.3774, 408.9239
487.8596, 405.7076
488.3417, 401.9586
488.8238, 398.7477
489.3059, 396.4536
489.7880, 394.2493
490.2701, 391.7407
490.7523, 389.0053
491.2344, 386.2641
491.7165, 383.6235
492.1986, 381.1727
492.6807, 379.1671
493.1628, 377.6731
493.6450, 376.4591
494.1271, 376.0118
494.6092, 375.4526
495.0913, 374.0375
495.5734, 371.8088
496.0555, 369.5663
496.5377, 367.8636
497.0198, 366.5790
497.5019, 365.4156
497.9840, 364.3747
498.4661, 363.4170
498.9482, 362.5809
499.4304, 361.7809
499.9125, 360.8158
500.3946, 359.5134
500.8767, 358.4370
501.3588, 357.9324
501.8409, 357.8183
502.3231, 357.8943
502.8052, 358.1270
503.2873, 358.1471
503.7694, 357.6053
504.2515, 356.4726
504.7336, 355.0904
505.2158, 352.9190
505.6979, 351.1274
506.1800, 350.3453
506.6621, 350.1439
507.1442, 349.9374
507.6263, 349.5008
508.1085, 348.8517
508.5906, 347.9538
509.0727, 346.6143
509.5548, 345.7176
510.0369, 345.8354
510.5190, 345.8242
511.0012, 345.0894
511.4833, 343.9248
511.9654, 342.9378
512.4475, 342.4473
512.9296, 342.2179
513.4117, 341.9231
513.8939, 341.6061
514.3760, 340.8383
514.8581, 339.0507
515.3402, 337.2589
515.8223, 336.5593
516.3044, 336.7497
516.7866, 336.4508
517.2687, 334.5257
517.7508, 332.1164
518.2329, 330.8156
518.7150, 330.5601
519.1971, 330.1792
519.6793, 329.0970
520.1614, 327.5879
520.6435, 326.3036
521.1256, 325.3652
521.6077, 324.2383
522.0898, 322.3637
522.5720, 320.5954
523.0541, 319.8838
523.5362, 320.1187
524.0183, 320.3679
524.5004, 319.9335
524.9825, 318.9997
525.4647, 318.5389
525.9468, 319.3001
526.4289, 319.4549
526.9110, 318.5124
527.3931, 317.1697
527.8752, 315.8188
528.3574, 314.6114
528.8395, 313.7367
529.3216, 313.4292
529.8037, 313.6102
530.2858, 313.8672
530.7679, 314.3716
531.2501, 314.5490
531.7322, 313.6034
532.2143, 312.4653
532.6964, 312.2211
533.1785, 313.1541
533.6606, 314.1148
534.1428, 314.2431
534.6249, 313.8847
535.1070, 313.7933
535.5891, 314.0771
536.0712, 314.4550
536.5533, 314.7324
537.0355, 314.9238
537.5176, 315.1265
537.9997, 315.2005
538.4818, 315.4547
538.9639, 316.0439
539.4460, 316.8316
539.9282, 317.7656
540.4103, 318.7804
540.8924, 319.5743
541.3745, 319.7325
541.8566, 319.2167
542.3387, 319.3871
542.8209, 320.8386
543.3029, 322.3009
543.7850, 323.6848
544.2672, 324.8679
544.7493, 325.5147
545.2314, 325.5882
545.7135, 325.8698
546.1956, 327.3970
546.6777, 330.0543
547.1599, 332.3825
547.6420, 334.2010
548.1241, 335.9039
548.6062, 337.6064
549.0883, 339.3803
549.5704, 341.3969
550.0526, 343.7440
550.5347, 346.1930
551.0168, 348.4247
551.4989, 350.6946
551.9810, 353.6182
552.4631, 357.3328
552.9453, 361.3740
553.4274, 365.3651
553.9095, 369.3179
554.3916, 373.0323
554.8737, 375.8446
555.3558, 379.2399
555.8380, 383.7164
556.3201, 388.9826
556.8022, 394.7937
557.2843, 401.0305
557.7664, 407.2767
558.2485, 412.9562
558.7307, 417.9839
559.2128, 423.9447
559.6949, 431.1322
560.1770, 438.8300
560.6591, 447.3161
561.1412, 455.8868
561.6234, 463.6118
562.1055, 470.1647
562.5876, 476.6461
563.0697, 483.9827
563.5518, 492.0199
564.0339, 500.3664
564.5161, 509.1217
564.9982, 517.6444
565.4803, 525.6192
565.9624, 532.9424
566.4445, 539.4742
566.9266, 544.9480
567.4088, 550.0170
567.8909, 555.5814
568.3730, 560.5374
568.8551, 563.3787
569.3372, 563.9220
569.8193, 563.2520
570.3015, 562.3864
570.7836, 561.2672
571.2657, 558.8763
571.7478, 554.7763
572.2299, 549.8626
572.7120, 544.3641
573.1942, 538.0843
573.6763, 530.7545
574.1584, 522.3505
574.6405, 513.2664
575.1226, 503.3864
575.6047, 493.0428
576.0869, 483.7766
576.5690, 475.8654
577.0511, 467.8744
577.5332, 458.8916
578.0153, 449.6669
578.4974, 441.4619
578.9796, 434.4774
579.4617, 427.6982
579.9438, 420.5294
580.4259, 413.5001
580.9080, 407.3427
581.3901, 402.0028
581.8723, 396.5835
582.3544, 390.4453
582.8365, 383.9566
583.3186, 378.3473
583.8007, 374.2323
584.2828, 370.0806
584.7650, 365.4831
585.2471, 361.1469
585.7292, 357.6844
