##NAMES=Russellite
##RRUFFID=R060860
##IDEAL CHEMISTRY=Bi_2_WO_6_
##LOCALITY=Castle-an-Dinas mine, Saint Columb Major, Cornwall, England
##OWNER=RRUFF
##SOURCE=Michael Scott
##DESCRIPTION=Brownish-yellow granular
##STATUS=The identification of this mineral has been confirmed by X-ray diffraction and chemical analysis
##URL=rruff.info/R060860
##MEASURED CHEMISTRY=lighter phase: (Bi_1.94_Fe^3+^_0.06_)_Σ=2_W_1.00_O_6_; darker phase: (Bi_1.95_Fe^3+^_0.05_)_Σ=2_W_1.00_O_6_; 
176.9708, 34272.52
177.4530, 34318.31
177.9351, 34375.03
178.4172, 34448.06
178.8993, 34532.73
179.3814, 34636.82
179.8635, 34783.00
180.3457, 34946.79
180.8278, 35079.35
181.3099, 35153.92
181.7920, 35203.30
182.2741, 35313.80
182.7562, 35518.36
183.2384, 35701.41
183.7205, 35809.13
184.2026, 35874.77
184.6847, 35960.99
185.1668, 36091.16
185.6489, 36251.48
186.1311, 36415.00
186.6132, 36584.26
187.0953, 36749.65
187.5774, 36900.02
188.0595, 37045.29
188.5416, 37208.23
189.0238, 37403.07
189.5059, 37608.48
189.9880, 37779.08
190.4701, 37906.03
190.9522, 38033.46
191.4343, 38174.97
191.9165, 38327.33
192.3986, 38485.14
192.8807, 38648.39
193.3628, 38815.07
193.8449, 38982.57
194.3270, 39153.11
194.8092, 39321.14
195.2913, 39484.46
195.7734, 39645.44
196.2555, 39808.78
196.7376, 39977.61
197.2197, 40147.50
197.7019, 40306.82
198.1840, 40450.47
198.6661, 40607.73
199.1482, 40803.15
199.6303, 41016.91
200.1124, 41208.21
200.5946, 41361.95
201.0767, 41500.79
201.5588, 41666.00
202.0409, 41861.25
202.5230, 42048.37
203.0051, 42221.16
203.4873, 42377.08
203.9694, 42512.04
204.4515, 42624.63
204.9336, 42714.24
205.4157, 42768.48
205.8978, 42781.98
206.3800, 42808.65
206.8621, 42864.73
207.3442, 42940.89
207.8263, 43028.43
208.3084, 43128.45
208.7905, 43223.94
209.2727, 43279.29
209.7548, 43287.49
210.2369, 43329.97
210.7190, 43458.83
211.2011, 43618.23
211.6832, 43726.55
212.1654, 43763.10
212.6475, 43783.10
213.1296, 43852.54
213.6117, 43974.10
214.0938, 44094.82
214.5760, 44204.76
215.0581, 44311.26
215.5402, 44420.48
216.0223, 44533.02
216.5044, 44656.93
216.9865, 44810.83
217.4687, 44997.09
217.9508, 45154.02
218.4329, 45266.51
218.9150, 45352.64
219.3971, 45424.99
219.8792, 45485.87
220.3614, 45542.45
220.8435, 45602.95
221.3256, 45667.23
221.8077, 45719.41
222.2898, 45749.30
222.7719, 45773.71
223.2541, 45820.33
223.7362, 45886.01
224.2183, 45919.52
224.7004, 45872.86
225.1825, 45742.38
225.6646, 45627.67
226.1468, 45524.22
226.6289, 45438.09
227.1110, 45380.08
227.5931, 45345.89
228.0752, 45313.86
228.5573, 45268.02
229.0395, 45209.99
229.5216, 45163.68
230.0037, 45122.51
230.4858, 45097.27
230.9679, 45109.60
231.4500, 45146.48
231.9322, 45161.61
232.4143, 45119.63
232.8964, 45036.11
233.3785, 45007.44
233.8606, 45067.06
234.3427, 45134.40
234.8249, 45168.78
235.3070, 45190.42
235.7891, 45252.61
236.2712, 45390.95
236.7533, 45574.21
237.2354, 45681.91
237.7176, 45656.69
238.1997, 45637.72
238.6818, 45637.90
239.1639, 45664.26
239.6460, 45734.22
240.1281, 45857.91
240.6103, 46012.85
241.0924, 46144.68
241.5745, 46226.30
242.0566, 46324.81
242.5387, 46462.24
243.0208, 46612.85
243.5030, 46741.77
243.9851, 46838.59
244.4672, 46930.45
244.9493, 47063.86
245.4314, 47271.39
245.9135, 47469.22
246.3957, 47640.02
246.8778, 47812.71
247.3599, 48010.32
247.8420, 48238.17
248.3241, 48483.53
248.8062, 48732.43
249.2884, 48986.63
249.7705, 49238.25
250.2526, 49479.91
250.7347, 49724.16
251.2168, 49986.11
251.6989, 50262.40
252.1811, 50527.26
252.6632, 50750.88
253.1453, 50916.88
253.6274, 51130.50
254.1095, 51453.91
254.5916, 51758.32
255.0738, 51989.56
255.5559, 52154.35
256.0380, 52289.16
256.5201, 52423.30
257.0022, 52556.22
257.4843, 52654.66
257.9665, 52721.93
258.4486, 52747.51
258.9307, 52704.97
259.4128, 52621.44
259.8949, 52544.67
260.3770, 52507.79
260.8592, 52494.73
261.3413, 52425.11
261.8234, 52251.95
262.3055, 52083.45
262.7876, 51947.89
263.2697, 51824.82
263.7519, 51688.85
264.2340, 51528.41
264.7161, 51354.86
265.1982, 51197.31
265.6803, 51068.64
266.1624, 50926.61
266.6446, 50725.46
267.1267, 50531.41
267.6088, 50406.88
268.0909, 50367.86
268.5730, 50365.69
269.0551, 50327.38
269.5373, 50236.83
270.0194, 50186.22
270.5015, 50219.66
270.9836, 50279.05
271.4657, 50340.71
271.9478, 50400.21
272.4300, 50454.98
272.9121, 50478.16
273.3942, 50472.44
273.8763, 50555.33
274.3584, 50784.69
274.8405, 51056.63
275.3227, 51316.14
275.8048, 51559.54
276.2869, 51785.36
276.7690, 51968.09
277.2511, 52128.09
277.7332, 52343.80
278.2154, 52645.05
278.6975, 52939.92
279.1796, 53170.66
279.6617, 53352.15
280.1438, 53510.55
280.6259, 53646.90
281.1081, 53769.11
281.5902, 53913.20
282.0723, 54092.48
282.5544, 54187.64
283.0365, 54081.55
283.5186, 53855.18
284.0008, 53670.30
284.4829, 53578.39
284.9650, 53488.11
285.4471, 53321.16
285.9292, 53087.92
286.4113, 52852.25
286.8935, 52637.33
287.3756, 52437.72
287.8577, 52238.11
288.3398, 52031.65
288.8219, 51843.80
289.3040, 51682.08
289.7862, 51547.61
290.2683, 51439.97
290.7504, 51360.01
291.2325, 51308.88
291.7146, 51286.57
292.1967, 51285.13
292.6789, 51341.57
293.1610, 51482.25
293.6431, 51671.98
294.1252, 51869.57
294.6073, 52070.59
295.0894, 52309.55
295.5716, 52624.45
296.0537, 53028.16
296.5358, 53442.84
297.0179, 53833.39
297.5000, 54263.87
297.9821, 54775.89
298.4643, 55358.86
298.9464, 55985.25
299.4285, 56638.20
299.9106, 57311.78
300.3927, 57956.83
300.8748, 58556.64
301.3570, 59148.06
301.8391, 59757.14
302.3212, 60356.55
302.8033, 60921.45
303.2854, 61442.75
303.7675, 61899.75
304.2497, 62247.66
304.7318, 62470.89
305.2139, 62594.92
305.6960, 62655.29
306.1781, 62613.12
306.6602, 62442.02
307.1424, 62134.86
307.6245, 61692.56
308.1066, 61105.21
308.5887, 60354.63
309.0708, 59531.32
309.5529, 58573.23
310.0351, 57595.82
310.5172, 56653.32
310.9993, 55741.91
311.4814, 54830.31
311.9635, 53875.27
312.4456, 52893.50
312.9278, 52000.93
313.4099, 51214.55
313.8920, 50505.75
314.3741, 49862.43
314.8562, 49277.95
315.3383, 48741.91
315.8205, 48250.04
316.3026, 47805.69
316.7847, 47416.69
317.2668, 47087.89
317.7489, 46789.30
318.2310, 46510.86
318.7132, 46255.88
319.1953, 46025.48
319.6774, 45821.09
320.1595, 45642.55
320.6416, 45493.64
321.1237, 45371.42
321.6059, 45268.54
322.0880, 45183.88
322.5701, 45113.24
323.0522, 45051.63
323.5343, 44998.46
324.0164, 44947.97
324.4986, 44892.04
324.9807, 44839.59
325.4628, 44812.92
325.9449, 44814.82
326.4270, 44803.52
326.9091, 44737.68
327.3913, 44611.26
327.8734, 44491.84
328.3555, 44381.18
328.8376, 44275.96
329.3197, 44184.31
329.8018, 44098.67
330.2840, 43996.38
330.7661, 43863.57
331.2482, 43705.50
331.7303, 43542.82
332.2124, 43378.40
332.6945, 43206.76
333.1767, 43013.20
333.6588, 42818.83
334.1409, 42649.54
334.6230, 42513.76
335.1051, 42393.63
335.5872, 42260.04
336.0694, 42115.59
336.5515, 41953.00
337.0336, 41761.61
337.5157, 41564.66
337.9979, 41373.78
338.4800, 41189.25
338.9621, 41001.11
339.4442, 40794.72
339.9263, 40571.86
340.4084, 40377.86
340.8906, 40213.76
341.3727, 40077.93
341.8548, 39982.63
342.3369, 39908.35
342.8190, 39823.95
343.3011, 39711.32
343.7833, 39587.11
344.2654, 39479.64
344.7475, 39391.46
345.2296, 39300.43
345.7117, 39194.89
346.1938, 39084.24
346.6760, 38977.61
347.1581, 38873.60
347.6402, 38782.19
348.1223, 38730.37
348.6044, 38697.91
349.0865, 38611.81
349.5687, 38440.75
350.0508, 38256.96
350.5329, 38146.48
351.0150, 38103.59
351.4971, 38059.95
351.9792, 38009.14
352.4614, 37949.19
352.9435, 37877.09
353.4256, 37793.65
353.9077, 37702.87
354.3898, 37607.82
354.8719, 37508.58
355.3541, 37405.79
355.8362, 37298.49
356.3183, 37190.30
356.8004, 37075.35
357.2825, 36962.69
357.7646, 36869.61
358.2468, 36802.05
358.7289, 36746.55
359.2110, 36677.99
359.6931, 36593.41
360.1752, 36501.29
360.6573, 36377.63
361.1395, 36267.41
361.6216, 36209.00
362.1037, 36195.71
362.5858, 36184.57
363.0679, 36134.07
363.5500, 36047.02
364.0322, 35985.96
364.5143, 35975.05
364.9964, 35957.63
365.4785, 35903.79
365.9606, 35835.02
366.4427, 35783.96
366.9249, 35767.06
367.4070, 35764.14
367.8891, 35741.56
368.3712, 35695.96
368.8533, 35663.51
369.3354, 35670.69
369.8176, 35681.54
370.2997, 35650.51
370.7818, 35572.17
371.2639, 35509.74
371.7460, 35517.93
372.2281, 35561.12
372.7103, 35564.92
373.1924, 35514.98
373.6745, 35450.25
374.1566, 35405.12
374.6387, 35377.59
375.1208, 35334.40
375.6030, 35261.25
376.0851, 35184.09
376.5672, 35111.05
377.0493, 35045.70
377.5314, 35001.48
378.0135, 34989.03
378.4957, 34989.38
378.9778, 34950.80
379.4599, 34832.59
379.9420, 34725.93
380.4241, 34638.84
380.9063, 34559.10
381.3884, 34472.73
381.8705, 34380.00
382.3526, 34296.25
382.8347, 34241.74
383.3168, 34220.38
383.7990, 34188.18
384.2811, 34137.98
384.7632, 34083.99
385.2453, 34027.69
385.7274, 33971.31
386.2095, 33918.78
386.6917, 33872.76
387.1738, 33829.99
387.6559, 33776.79
388.1380, 33704.59
388.6201, 33667.04
389.1022, 33713.92
389.5844, 33779.58
390.0665, 33794.33
390.5486, 33749.75
391.0307, 33722.57
391.5128, 33789.28
391.9949, 33902.73
392.4771, 33950.58
392.9592, 33911.41
393.4413, 33842.37
393.9234, 33772.88
394.4055, 33709.21
394.8876, 33694.05
395.3698, 33768.84
395.8519, 33854.71
396.3340, 33918.64
396.8161, 33958.28
397.2982, 33964.78
397.7803, 33930.71
398.2625, 33878.70
398.7446, 33860.17
399.2267, 33918.73
399.7088, 33942.80
400.1909, 33901.67
400.6730, 33849.80
401.1552, 33816.45
401.6373, 33810.08
402.1194, 33836.80
402.6015, 33912.57
403.0836, 34033.51
403.5657, 34102.20
404.0479, 34078.70
404.5300, 34057.65
405.0121, 34069.88
405.4942, 34100.29
405.9763, 34127.80
406.4584, 34144.50
406.9406, 34163.07
407.4227, 34205.25
407.9048, 34270.94
408.3869, 34321.86
408.8690, 34337.24
409.3511, 34352.04
409.8333, 34408.23
410.3154, 34501.45
410.7975, 34580.47
411.2796, 34559.78
411.7617, 34494.36
412.2438, 34653.30
412.7260, 34762.47
413.2081, 34824.52
413.6902, 34698.35
414.1723, 34815.22
414.6544, 34834.70
415.1365, 34850.18
415.6187, 35001.26
416.1008, 34902.47
416.5829, 35051.40
417.0650, 34976.04
417.5471, 35014.81
418.0292, 35072.27
418.5114, 35090.30
418.9935, 35068.45
419.4756, 35009.56
419.9577, 34872.88
420.4398, 34739.45
420.9219, 34639.95
421.4041, 34561.86
421.8862, 34482.75
422.3683, 34393.98
422.8504, 34291.10
423.3325, 34155.97
423.8146, 33980.67
424.2968, 33827.72
424.7789, 33724.82
425.2610, 33641.94
425.7431, 33550.73
426.2252, 33450.26
426.7073, 33354.96
427.1895, 33274.41
427.6716, 33202.00
428.1537, 33127.71
428.6358, 33050.34
429.1179, 32978.79
429.6000, 32921.95
430.0822, 32875.91
430.5643, 32817.79
431.0464, 32725.70
431.5285, 32649.04
432.0106, 32608.53
432.4927, 32588.76
432.9749, 32576.75
433.4570, 32566.88
433.9391, 32544.25
434.4212, 32484.22
434.9033, 32372.00
435.3854, 32293.77
435.8676, 32270.23
436.3497, 32259.91
436.8318, 32264.21
437.3139, 32269.49
437.7960, 32248.54
438.2781, 32180.61
438.7603, 32101.41
439.2424, 32089.93
439.7245, 32159.63
440.2066, 32193.50
440.6887, 32129.37
441.1708, 32047.91
441.6530, 32033.85
442.1351, 32085.73
442.6172, 32124.84
443.0993, 32103.94
443.5814, 32057.45
444.0635, 32036.26
444.5457, 32041.43
445.0278, 32034.66
445.5099, 31987.33
445.9920, 31911.55
446.4741, 31863.99
446.9562, 31864.71
447.4384, 31862.54
447.9205, 31852.86
448.4026, 31834.39
448.8847, 31800.08
449.3668, 31751.70
449.8489, 31708.18
450.3311, 31695.35
450.8132, 31717.00
451.2953, 31697.90
451.7774, 31598.88
452.2595, 31506.15
452.7416, 31440.44
453.2238, 31397.82
453.7059, 31376.08
454.1880, 31378.36
454.6701, 31382.62
455.1522, 31356.15
455.6343, 31302.15
456.1165, 31264.82
456.5986, 31256.97
457.0807, 31259.41
457.5628, 31256.27
458.0449, 31247.69
458.5270, 31232.90
459.0092, 31195.49
459.4913, 31164.70
459.9734, 31176.24
460.4555, 31214.91
460.9376, 31230.23
461.4197, 31197.49
461.9019, 31136.12
462.3840, 31087.37
462.8661, 31046.25
463.3482, 31030.06
463.8303, 31079.19
464.3124, 31118.03
464.7946, 31082.89
465.2767, 30991.87
465.7588, 30914.79
466.2409, 30903.92
466.7230, 30937.52
467.2051, 30939.66
467.6873, 30899.00
468.1694, 30861.72
468.6515, 30853.07
469.1336, 30846.65
469.6157, 30810.60
470.0978, 30740.60
470.5800, 30689.19
471.0621, 30711.01
471.5442, 30761.23
472.0263, 30757.52
472.5084, 30692.48
472.9905, 30618.17
473.4727, 30565.47
473.9548, 30532.83
474.4369, 30514.60
474.9190, 30540.23
475.4011, 30539.99
475.8832, 30473.39
476.3654, 30389.22
476.8475, 30342.60
477.3296, 30341.53
477.8117, 30353.70
478.2938, 30347.57
478.7759, 30323.31
479.2581, 30291.33
479.7402, 30240.91
480.2223, 30199.17
480.7044, 30173.00
481.1865, 30160.51
481.6686, 30166.91
482.1508, 30198.13
482.6329, 30216.76
483.1150, 30167.95
483.5971, 30074.43
484.0792, 30029.88
484.5613, 30057.52
485.0435, 30100.81
485.5256, 30113.73
486.0077, 30097.74
486.4898, 30088.18
486.9719, 30085.21
487.4540, 30088.27
487.9362, 30102.73
488.4183, 30121.01
488.9004, 30131.21
489.3825, 30129.50
489.8646, 30120.50
490.3467, 30109.52
490.8289, 30095.46
491.3110, 30084.12
491.7931, 30070.19
492.2752, 30064.92
492.7573, 30095.84
493.2394, 30131.99
493.7216, 30114.60
494.2037, 30009.31
494.6858, 29891.45
495.1679, 29858.42
495.6500, 29900.49
496.1321, 29933.28
496.6143, 29941.87
497.0964, 29934.17
497.5785, 29911.58
498.0606, 29875.89
498.5427, 29848.08
499.0248, 29842.65
499.5070, 29833.16
499.9891, 29797.43
500.4712, 29748.13
500.9533, 29710.85
501.4355, 29695.08
501.9176, 29692.31
502.3997, 29689.29
502.8818, 29683.87
503.3639, 29686.30
503.8460, 29707.47
504.3282, 29726.00
504.8103, 29734.64
505.2924, 29735.30
505.7745, 29730.49
506.2566, 29719.20
506.7387, 29709.81
507.2209, 29710.41
507.7030, 29721.45
508.1851, 29752.44
508.6672, 29817.48
509.1493, 29876.74
509.6314, 29882.42
510.1136, 29838.34
510.5957, 29805.90
511.0778, 29798.83
511.5599, 29795.87
512.0420, 29778.00
512.5241, 29757.13
513.0062, 29759.34
513.4883, 29793.59
513.9705, 29841.23
514.4526, 29873.55
514.9347, 29886.70
515.4168, 29901.61
515.8989, 29940.53
516.3810, 29956.22
516.8632, 29912.56
517.3453, 29838.69
517.8274, 29780.99
518.3095, 29754.58
518.7916, 29755.55
519.2737, 29796.06
519.7559, 29865.39
520.2380, 29909.31
520.7201, 29914.52
521.2022, 29900.83
521.6843, 29883.07
522.1664, 29861.14
522.6486, 29839.98
523.1307, 29822.83
523.6128, 29802.58
524.0949, 29768.78
524.5770, 29732.73
525.0591, 29711.13
525.5413, 29708.50
526.0234, 29716.75
526.5055, 29731.37
526.9876, 29754.86
527.4697, 29748.42
527.9518, 29696.32
528.4340, 29637.29
528.9161, 29575.84
529.3982, 29521.35
529.8803, 29490.80
530.3624, 29493.02
530.8445, 29496.98
531.3267, 29481.11
531.8088, 29450.20
532.2909, 29408.09
532.7730, 29354.85
533.2551, 29316.60
533.7372, 29319.02
534.2194, 29355.45
534.7015, 29365.63
535.1836, 29333.46
535.6657, 29297.45
536.1478, 29244.09
536.6299, 29200.73
537.1121, 29205.36
537.5942, 29254.73
538.0763, 29299.99
538.5584, 29295.74
539.0405, 29251.58
539.5226, 29214.53
540.0048, 29185.62
540.4869, 29159.53
540.9690, 29132.54
541.4511, 29108.61
541.9332, 29095.46
542.4153, 29096.01
542.8975, 29088.23
543.3796, 29057.38
543.8617, 29019.29
544.3438, 28988.52
544.8259, 28966.07
545.3080, 28949.83
545.7902, 28939.82
546.2723, 28931.44
546.7544, 28912.37
547.2365, 28882.22
547.7186, 28841.63
548.2007, 28766.80
548.6829, 28703.93
549.1650, 28684.81
549.6471, 28699.12
550.1292, 28716.15
550.6113, 28724.49
551.0934, 28721.42
551.5756, 28690.96
552.0577, 28638.65
552.5398, 28618.79
553.0219, 28654.57
553.5040, 28703.02
553.9861, 28714.61
554.4683, 28684.41
554.9504, 28672.77
555.4325, 28706.39
555.9146, 28729.88
556.3967, 28708.67
556.8788, 28667.09
557.3610, 28642.89
557.8431, 28647.03
558.3252, 28658.55
558.8073, 28647.47
559.2894, 28613.41
559.7715, 28605.41
560.2537, 28640.54
560.7358, 28668.82
561.2179, 28656.50
561.7000, 28626.75
562.1821, 28610.97
562.6642, 28618.50
563.1464, 28618.00
563.6285, 28581.54
564.1106, 28533.96
564.5927, 28510.95
565.0748, 28513.25
565.5569, 28518.85
566.0391, 28513.75
566.5212, 28499.50
567.0033, 28482.45
567.4854, 28466.79
567.9675, 28440.33
568.4496, 28372.32
568.9318, 28320.53
569.4139, 28337.52
569.8960, 28405.66
570.3781, 28461.30
570.8602, 28477.11
571.3423, 28455.45
571.8245, 28377.05
572.3066, 28253.71
572.7887, 28167.03
573.2708, 28142.00
573.7529, 28153.74
574.2350, 28179.30
574.7172, 28221.20
575.1993, 28251.97
575.6814, 28269.27
576.1635, 28278.98
576.6456, 28274.29
577.1277, 28267.14
577.6099, 28277.56
578.0920, 28308.73
578.5741, 28336.29
579.0562, 28325.41
579.5383, 28282.73
580.0204, 28267.99
580.5026, 28288.53
580.9847, 28312.55
581.4668, 28329.64
581.9489, 28338.24
582.4310, 28333.94
582.9132, 28310.12
583.3953, 28297.80
583.8774, 28319.61
584.3596, 28345.84
584.8417, 28343.91
585.3238, 28321.55
585.8059, 28313.37
586.2880, 28339.62
586.7701, 28379.05
587.2523, 28382.43
587.7344, 28338.76
588.2165, 28303.25
588.6986, 28278.80
589.1807, 28265.15
589.6628, 28266.40
590.1450, 28277.19
590.6271, 28285.51
591.1092, 28287.97
591.5913, 28287.75
592.0734, 28287.40
592.5555, 28285.89
593.0377, 28281.39
593.5198, 28273.54
594.0019, 28263.14
594.4840, 28251.39
594.9661, 28237.45
595.4482, 28214.64
595.9304, 28164.77
596.4125, 28134.97
596.8946, 28138.13
597.3767, 28155.32
597.8588, 28182.01
598.3409, 28212.04
598.8231, 28224.58
599.3052, 28197.22
599.7873, 28155.54
600.2694, 28135.97
600.7515, 28133.92
601.2336, 28121.11
601.7158, 28086.51
602.1979, 28051.13
602.6800, 28042.68
603.1621, 28066.04
603.6442, 28076.21
604.1263, 28071.45
604.6085, 28057.18
605.0906, 28017.61
605.5727, 27978.45
606.0548, 27978.27
606.5369, 28020.97
607.0190, 28055.49
607.5012, 28028.79
607.9833, 27961.32
608.4654, 27904.03
608.9475, 27856.98
609.4296, 27832.13
609.9117, 27841.50
610.3939, 27865.74
610.8760, 27869.03
611.3581, 27837.66
611.8402, 27828.96
612.3223, 27887.56
612.8044, 27925.03
613.2866, 27872.72
613.7687, 27774.63
614.2508, 27708.44
614.7329, 27702.92
615.2150, 27723.09
615.6971, 27733.31
616.1793, 27733.73
616.6614, 27722.76
617.1435, 27698.56
617.6256, 27671.62
618.1077, 27647.02
618.5898, 27624.26
619.0720, 27601.11
619.5541, 27573.91
620.0362, 27555.14
620.5183, 27547.13
621.0004, 27547.67
621.4825, 27567.90
621.9647, 27594.50
622.4468, 27591.10
622.9289, 27537.05
623.4110, 27472.65
623.8931, 27470.67
624.3752, 27530.99
624.8574, 27568.94
625.3395, 27570.67
625.8216, 27563.75
626.3037, 27570.38
626.7858, 27581.25
627.2679, 27567.94
627.7501, 27514.72
628.2322, 27466.41
628.7143, 27423.87
629.1964, 27399.34
629.6785, 27418.24
630.1606, 27467.67
630.6428, 27502.96
631.1249, 27496.87
631.6070, 27465.96
632.0891, 27439.58
632.5712, 27416.76
633.0533, 27413.79
633.5355, 27443.79
634.0176, 27474.06
634.4997, 27476.39
634.9818, 27459.08
635.4639, 27448.96
635.9460, 27450.07
636.4282, 27454.70
636.9103, 27465.30
637.3924, 27474.65
637.8745, 27472.70
638.3566, 27461.04
638.8387, 27450.22
639.3209, 27447.07
639.8030, 27449.43
640.2851, 27450.60
640.7672, 27449.01
641.2493, 27462.98
641.7314, 27514.41
642.2136, 27551.29
642.6957, 27514.15
643.1778, 27425.74
643.6599, 27369.43
644.1420, 27372.76
644.6241, 27381.48
645.1063, 27366.91
645.5884, 27355.55
646.0705, 27384.92
646.5526, 27450.04
647.0347, 27512.02
647.5168, 27545.52
647.9990, 27554.11
648.4811, 27538.57
648.9632, 27495.41
649.4453, 27468.41
649.9274, 27471.37
650.4095, 27481.59
650.8917, 27473.44
651.3738, 27454.82
651.8559, 27463.76
652.3380, 27541.31
652.8201, 27596.84
653.3022, 27570.61
653.7844, 27530.51
654.2665, 27554.89
654.7486, 27638.22
655.2307, 27714.59
655.7128, 27738.59
656.1949, 27730.29
656.6771, 27729.43
657.1592, 27735.76
657.6413, 27752.04
658.1234, 27781.71
658.6055, 27815.39
659.0876, 27854.44
659.5698, 27893.01
660.0519, 27896.72
660.5340, 27813.08
661.0161, 27765.14
661.4982, 27798.81
661.9803, 27864.71
662.4625, 27937.35
662.9446, 28002.33
663.4267, 28031.04
663.9088, 27998.38
664.3909, 27944.64
664.8730, 27942.74
665.3552, 27988.54
665.8373, 28028.76
666.3194, 28052.62
666.8015, 28078.88
667.2836, 28123.73
667.7657, 28183.16
668.2479, 28234.57
668.7300, 28289.17
669.2121, 28320.66
669.6942, 28290.76
670.1763, 28267.19
670.6584, 28306.61
671.1406, 28394.52
671.6227, 28479.13
