##NAMES=Rutherfordine
##RRUFFID=R090018
##IDEAL CHEMISTRY=(U^6+^O_2_)CO_3_
##LOCALITY=El Sharana mine, South Alligator Valley, Northern Territory, Australia
##OWNER=RRUFF
##SOURCE=James Shigley
##DESCRIPTION=Bright yellow bladed crystals in vug
##STATUS=The identification of this mineral has been confirmed by single-crystal X-ray diffraction.
##URL=rruff.info/R090018
90.92609, 0.0000000E+00
91.40820, 197.6196
91.89032, 196.7658
92.37244, 196.9685
92.85455, 198.1293
93.33667, 199.6576
93.81879, 200.9428
94.30090, 202.2257
94.78302, 204.4345
95.26514, 208.2359
95.74725, 212.6631
96.22937, 215.3132
96.71149, 216.0374
97.19360, 216.4065
97.67572, 217.9268
98.15784, 220.5550
98.63995, 223.1790
99.12207, 224.9198
99.60419, 226.1239
100.0863, 230.1970
100.5684, 237.5627
101.0505, 246.9920
101.5327, 256.4732
102.0148, 264.8823
102.4969, 276.9418
102.9790, 294.5336
103.4611, 317.9918
103.9432, 344.1245
104.4253, 371.8547
104.9075, 402.7487
105.3896, 439.1424
105.8717, 482.1873
106.3538, 529.6757
106.8359, 581.8255
107.3180, 639.4755
107.8002, 699.3696
108.2823, 759.1923
108.7644, 820.6732
109.2465, 892.8254
109.7286, 976.2914
110.2107, 1069.053
110.6929, 1171.818
111.1750, 1273.608
111.6571, 1396.325
112.1392, 1544.698
112.6213, 1717.224
113.1034, 1905.116
113.5856, 2115.328
114.0677, 2338.740
114.5498, 2566.896
115.0319, 2807.385
115.5140, 3045.880
115.9961, 3279.209
116.4783, 3507.123
116.9604, 3722.342
117.4425, 3926.968
117.9246, 4118.603
118.4067, 4293.142
118.8888, 4438.524
119.3710, 4576.293
119.8531, 4715.013
120.3352, 4853.811
120.8173, 5002.898
121.2994, 5166.060
121.7815, 5342.804
122.2637, 5533.109
122.7458, 5734.101
123.2279, 5948.037
123.7100, 6176.628
124.1921, 6420.362
124.6742, 6677.465
125.1564, 6953.511
125.6385, 7243.546
126.1206, 7533.118
126.6027, 7808.648
127.0848, 8076.610
127.5669, 8346.826
128.0491, 8622.185
128.5312, 8897.262
129.0133, 9168.433
129.4954, 9432.874
129.9775, 9687.170
130.4596, 9927.662
130.9418, 10153.85
131.4239, 10372.65
131.9060, 10584.75
132.3881, 10791.33
132.8702, 10990.61
133.3523, 11183.30
133.8345, 11371.76
134.3166, 11556.74
134.7987, 11739.83
135.2808, 11921.26
135.7629, 12101.65
136.2450, 12283.35
136.7272, 12473.49
137.2093, 12674.40
137.6914, 12879.82
138.1735, 13087.47
138.6556, 13298.92
139.1377, 13497.93
139.6199, 13682.79
140.1020, 13851.96
140.5841, 14006.01
141.0662, 14138.49
141.5483, 14262.17
142.0304, 14393.10
142.5126, 14533.32
142.9947, 14667.24
143.4768, 14744.61
143.9589, 14730.47
144.4410, 14718.04
144.9231, 14707.90
145.4053, 14699.26
145.8874, 14690.25
146.3695, 14677.28
146.8516, 14669.44
147.3337, 14671.16
147.8158, 14689.52
148.2980, 14699.61
148.7801, 14697.69
149.2622, 14688.68
149.7443, 14682.38
150.2264, 14682.68
150.7085, 14682.12
151.1907, 14677.96
151.6728, 14666.14
152.1549, 14657.20
152.6370, 14651.12
153.1191, 14647.56
153.6012, 14646.22
154.0834, 14650.55
154.5655, 14653.72
155.0476, 14652.87
155.5297, 14648.31
156.0118, 14638.32
156.4939, 14621.42
156.9761, 14598.46
157.4582, 14572.84
157.9403, 14544.10
158.4224, 14513.73
158.9045, 14482.68
159.3866, 14456.88
159.8688, 14424.59
160.3509, 14378.84
160.8330, 14322.69
161.3151, 14270.12
161.7972, 14226.88
162.2793, 14188.85
162.7615, 14152.86
163.2436, 14119.87
163.7257, 14087.07
164.2078, 14051.33
164.6899, 14013.35
165.1720, 13978.82
165.6541, 13952.29
166.1363, 13929.55
166.6184, 13906.41
167.1005, 13876.59
167.5826, 13849.48
168.0647, 13831.42
168.5468, 13821.86
169.0290, 13814.76
169.5111, 13806.93
169.9932, 13799.15
170.4753, 13792.41
170.9574, 13788.57
171.4395, 13785.18
171.9217, 13779.05
172.4038, 13770.26
172.8859, 13763.64
173.3680, 13765.99
173.8501, 13772.94
174.3322, 13776.72
174.8144, 13768.22
175.2965, 13757.61
175.7786, 13757.98
176.2607, 13769.65
176.7428, 13785.58
177.2249, 13800.97
177.7071, 13815.68
178.1892, 13829.89
178.6713, 13844.93
179.1534, 13858.96
179.6355, 13867.87
180.1176, 13870.93
180.5998, 13873.52
181.0819, 13882.38
181.5640, 13895.72
182.0461, 13907.84
182.5282, 13917.35
183.0103, 13923.40
183.4925, 13922.61
183.9746, 13913.97
184.4567, 13903.01
184.9388, 13897.62
185.4209, 13896.72
185.9030, 13893.86
186.3852, 13887.49
186.8673, 13877.13
187.3494, 13859.04
187.8315, 13831.92
188.3136, 13802.01
188.7957, 13777.82
189.2779, 13759.15
189.7600, 13739.08
190.2421, 13709.66
190.7242, 13674.24
191.2063, 13653.35
191.6884, 13650.74
192.1706, 13655.59
192.6527, 13650.79
193.1348, 13636.02
193.6169, 13619.92
194.0990, 13604.22
194.5811, 13589.22
195.0633, 13581.88
195.5454, 13583.71
196.0275, 13590.46
196.5096, 13596.73
196.9917, 13603.13
197.4738, 13603.24
197.9560, 13589.19
198.4381, 13561.10
198.9202, 13544.72
199.4023, 13542.65
199.8844, 13551.48
200.3665, 13567.51
200.8487, 13592.87
201.3308, 13614.65
201.8129, 13624.72
202.2950, 13622.21
202.7771, 13621.42
203.2592, 13623.01
203.7414, 13626.38
204.2235, 13630.30
204.7056, 13634.65
205.1877, 13639.22
205.6698, 13644.34
206.1519, 13650.32
206.6341, 13652.71
207.1162, 13649.08
207.5983, 13643.40
208.0804, 13645.38
208.5625, 13656.57
209.0446, 13670.20
209.5268, 13685.98
210.0089, 13707.44
210.4910, 13712.50
210.9731, 13693.83
211.4552, 13663.28
211.9373, 13650.84
212.4195, 13662.92
212.9016, 13677.27
213.3837, 13683.60
213.8658, 13680.49
214.3479, 13674.60
214.8300, 13664.81
215.3121, 13652.98
215.7943, 13643.65
216.2764, 13637.47
216.7585, 13632.10
217.2406, 13626.60
217.7227, 13621.30
218.2048, 13614.15
218.6870, 13604.70
219.1691, 13593.27
219.6512, 13580.04
220.1333, 13563.02
220.6154, 13547.55
221.0975, 13536.45
221.5797, 13532.72
222.0618, 13524.65
222.5439, 13509.41
223.0260, 13491.52
223.5081, 13480.64
223.9902, 13478.62
224.4724, 13481.37
224.9545, 13488.88
225.4366, 13505.99
225.9187, 13514.81
226.4008, 13512.58
226.8829, 13503.69
227.3651, 13495.89
227.8472, 13483.79
228.3293, 13481.66
228.8114, 13498.37
229.2935, 13544.80
229.7757, 13575.42
230.2578, 13584.98
230.7399, 13580.67
231.2220, 13575.38
231.7041, 13564.46
232.1862, 13559.63
232.6684, 13566.48
233.1505, 13589.93
233.6326, 13608.76
234.1147, 13622.61
234.5968, 13631.97
235.0789, 13636.83
235.5611, 13634.06
236.0432, 13632.03
236.5253, 13633.99
237.0074, 13641.68
237.4895, 13647.25
237.9716, 13649.31
238.4538, 13650.25
238.9359, 13654.26
239.4180, 13664.34
239.9001, 13672.86
240.3822, 13677.41
240.8643, 13677.29
241.3465, 13676.11
241.8286, 13672.30
242.3107, 13668.46
242.7928, 13668.89
243.2749, 13677.49
243.7570, 13683.38
244.2392, 13683.03
244.7213, 13675.35
245.2034, 13668.43
245.6855, 13665.53
246.1676, 13660.79
246.6497, 13645.02
247.1319, 13607.57
247.6140, 13579.27
248.0961, 13571.58
248.5782, 13588.16
249.0603, 13591.47
249.5424, 13574.99
250.0246, 13551.82
250.5067, 13535.52
250.9888, 13526.57
251.4709, 13523.80
251.9530, 13528.28
252.4351, 13540.36
252.9173, 13551.28
253.3994, 13561.03
253.8815, 13569.22
254.3636, 13575.02
254.8457, 13576.51
255.3278, 13578.81
255.8100, 13582.90
256.2921, 13588.63
256.7742, 13593.62
257.2563, 13597.67
257.7384, 13601.16
258.2205, 13604.35
258.7026, 13607.32
259.1848, 13610.33
259.6669, 13613.67
260.1490, 13617.43
260.6311, 13621.66
261.1132, 13628.90
261.5953, 13633.04
262.0775, 13627.51
262.5596, 13606.34
263.0417, 13593.80
263.5238, 13595.54
264.0059, 13607.94
264.4880, 13613.05
264.9702, 13607.25
265.4523, 13600.57
265.9344, 13600.65
266.4165, 13610.92
266.8986, 13614.11
267.3807, 13605.76
267.8629, 13590.50
268.3450, 13584.93
268.8271, 13593.48
269.3092, 13601.04
269.7913, 13598.71
270.2734, 13584.53
270.7556, 13570.74
271.2377, 13556.21
271.7198, 13544.25
272.2019, 13543.90
272.6840, 13558.72
273.1661, 13574.13
273.6483, 13582.63
274.1304, 13583.13
274.6125, 13585.13
275.0946, 13587.77
275.5767, 13592.78
276.0588, 13604.91
276.5410, 13625.56
277.0231, 13644.00
277.5052, 13653.43
277.9873, 13653.38
278.4694, 13658.10
278.9515, 13668.20
279.4337, 13680.79
279.9158, 13693.24
280.3979, 13705.78
280.8800, 13714.22
281.3621, 13716.65
281.8442, 13713.49
282.3264, 13706.13
282.8085, 13693.19
283.2906, 13681.91
283.7727, 13683.07
284.2548, 13697.01
284.7369, 13708.66
285.2191, 13713.62
285.7012, 13713.13
286.1833, 13711.83
286.6654, 13709.74
287.1475, 13706.96
287.6296, 13702.12
288.1118, 13695.64
288.5939, 13693.01
289.0760, 13696.71
289.5581, 13703.88
290.0402, 13707.54
290.5223, 13707.54
291.0045, 13706.18
291.4866, 13704.10
291.9687, 13701.79
292.4508, 13702.38
292.9329, 13708.03
293.4150, 13714.48
293.8972, 13713.66
294.3793, 13706.20
294.8614, 13697.78
295.3435, 13692.74
295.8256, 13689.92
296.3077, 13685.92
296.7899, 13680.25
297.2720, 13674.10
297.7541, 13668.81
298.2362, 13664.43
298.7183, 13661.04
299.2004, 13660.45
299.6826, 13660.40
300.1647, 13655.60
300.6468, 13644.75
301.1289, 13633.74
301.6110, 13627.95
302.0931, 13626.52
302.5753, 13627.26
303.0574, 13630.44
303.5395, 13634.57
304.0216, 13640.39
304.5037, 13648.18
304.9858, 13648.91
305.4680, 13627.68
305.9501, 13595.40
306.4322, 13570.67
306.9143, 13560.34
307.3964, 13560.56
307.8785, 13574.32
308.3607, 13599.70
308.8428, 13618.03
309.3249, 13612.78
309.8070, 13595.12
310.2891, 13577.95
310.7712, 13564.64
311.2534, 13552.62
311.7355, 13537.13
312.2176, 13520.16
312.6997, 13510.07
313.1818, 13518.00
313.6639, 13530.71
314.1461, 13536.94
314.6282, 13531.01
315.1103, 13525.49
315.5924, 13528.38
316.0745, 13536.21
316.5566, 13541.79
317.0388, 13541.02
317.5209, 13538.18
318.0030, 13536.24
318.4851, 13536.53
318.9672, 13534.17
319.4493, 13526.27
319.9315, 13515.26
320.4136, 13504.18
320.8957, 13488.38
321.3778, 13477.84
321.8599, 13479.96
322.3420, 13496.73
322.8242, 13505.20
323.3063, 13493.91
323.7884, 13475.40
324.2705, 13460.58
324.7526, 13449.23
325.2347, 13443.66
325.7169, 13446.47
326.1990, 13456.95
326.6811, 13467.07
327.1632, 13480.83
327.6453, 13490.94
328.1274, 13493.28
328.6096, 13476.48
329.0917, 13465.96
329.5738, 13465.02
330.0559, 13471.11
330.5380, 13476.10
331.0201, 13478.96
331.5023, 13481.90
331.9844, 13486.51
332.4665, 13495.93
332.9486, 13498.65
333.4307, 13490.78
333.9128, 13478.13
334.3950, 13470.79
334.8771, 13470.64
335.3592, 13472.20
335.8413, 13474.89
336.3234, 13479.33
336.8055, 13477.29
337.2877, 13464.46
337.7698, 13451.01
338.2519, 13449.42
338.7340, 13463.10
339.2161, 13475.42
339.6982, 13482.82
340.1803, 13485.92
340.6624, 13488.42
341.1446, 13491.06
341.6267, 13490.89
342.1088, 13482.52
342.5909, 13465.46
343.0730, 13458.25
343.5551, 13466.73
344.0373, 13482.50
344.5194, 13485.61
345.0015, 13475.63
345.4836, 13462.18
345.9657, 13447.81
346.4478, 13433.81
346.9300, 13429.71
347.4121, 13438.29
347.8942, 13448.78
348.3763, 13442.48
348.8584, 13423.01
349.3405, 13410.88
349.8227, 13424.19
350.3048, 13449.63
350.7869, 13457.30
351.2690, 13447.03
351.7511, 13432.59
352.2332, 13424.78
352.7154, 13422.40
353.1975, 13422.82
353.6796, 13426.06
354.1617, 13430.70
354.6438, 13433.87
355.1259, 13436.16
355.6081, 13441.45
356.0902, 13456.86
356.5723, 13474.38
357.0544, 13484.00
357.5365, 13480.63
358.0186, 13475.42
358.5008, 13475.52
358.9829, 13479.25
359.4650, 13483.17
359.9471, 13489.69
360.4292, 13493.07
360.9113, 13488.04
361.3935, 13473.04
361.8756, 13459.31
362.3577, 13452.20
362.8398, 13448.92
363.3219, 13446.24
363.8040, 13444.81
364.2862, 13442.86
364.7683, 13440.44
365.2504, 13437.56
365.7325, 13432.86
366.2146, 13422.27
366.6967, 13412.35
367.1789, 13407.18
367.6610, 13412.33
368.1431, 13416.20
368.6252, 13417.84
369.1073, 13417.61
369.5894, 13416.71
370.0716, 13416.06
370.5537, 13413.66
371.0358, 13407.79
371.5179, 13395.45
372.0000, 13388.63
372.4821, 13388.52
372.9643, 13392.97
373.4464, 13399.94
373.9285, 13411.80
374.4106, 13420.38
374.8927, 13422.43
375.3748, 13418.16
375.8570, 13417.40
376.3391, 13420.97
376.8212, 13425.86
377.3033, 13430.09
377.7854, 13433.75
378.2675, 13435.15
378.7497, 13433.15
379.2318, 13429.72
379.7139, 13431.52
380.1960, 13439.31
380.6781, 13444.32
381.1602, 13440.14
381.6424, 13428.30
382.1245, 13416.97
382.6066, 13406.02
383.0887, 13398.05
383.5708, 13399.05
384.0529, 13407.00
384.5351, 13411.73
385.0172, 13407.02
385.4993, 13397.54
385.9814, 13389.86
386.4635, 13384.10
386.9456, 13381.97
387.4278, 13388.10
387.9099, 13398.04
388.3920, 13404.28
388.8741, 13403.04
389.3562, 13400.60
389.8383, 13402.73
390.3205, 13408.09
390.8026, 13412.97
391.2847, 13415.71
391.7668, 13416.94
392.2489, 13417.55
392.7310, 13418.00
393.2132, 13415.79
393.6953, 13409.51
394.1774, 13400.07
394.6595, 13388.40
395.1416, 13370.53
395.6237, 13354.86
396.1059, 13343.63
396.5880, 13337.01
397.0701, 13335.63
397.5522, 13346.49
398.0343, 13358.20
398.5164, 13364.06
398.9986, 13362.79
399.4807, 13356.73
399.9628, 13339.92
400.4449, 13318.92
400.9270, 13309.23
401.4091, 13319.87
401.8913, 13330.29
402.3734, 13332.58
402.8555, 13323.91
403.3376, 13323.86
403.8197, 13336.67
404.3018, 13352.97
404.7840, 13362.42
405.2661, 13363.14
405.7482, 13362.76
406.2303, 13361.45
406.7124, 13360.19
407.1945, 13366.07
407.6767, 13381.40
408.1588, 13391.62
408.6409, 13381.73
409.1230, 13353.58
409.6051, 13336.74
410.0872, 13334.80
410.5694, 13340.45
411.0515, 13344.01
411.5336, 13345.83
412.0157, 13347.60
412.4978, 13351.77
412.9799, 13356.16
413.4621, 13355.83
413.9442, 13350.99
414.4263, 13345.00
414.9084, 13339.92
415.3905, 13335.83
415.8727, 13332.84
416.3548, 13331.70
416.8369, 13330.68
417.3190, 13326.66
417.8011, 13321.38
418.2832, 13319.41
418.7654, 13327.00
419.2475, 13335.73
419.7296, 13338.44
420.2117, 13332.92
420.6938, 13329.90
421.1759, 13334.60
421.6581, 13343.33
422.1402, 13352.30
422.6223, 13365.65
423.1044, 13373.58
423.5865, 13369.62
424.0686, 13355.79
424.5508, 13348.08
425.0329, 13355.19
425.5150, 13362.96
425.9971, 13364.53
426.4792, 13354.00
426.9613, 13350.17
427.4435, 13356.88
427.9256, 13368.47
428.4077, 13375.73
428.8898, 13376.72
429.3719, 13378.35
429.8540, 13384.54
430.3362, 13394.34
430.8183, 13391.68
431.3004, 13372.98
431.7825, 13352.17
432.2646, 13340.38
432.7467, 13337.60
433.2289, 13338.42
433.7110, 13342.91
434.1931, 13349.09
434.6752, 13355.28
435.1573, 13360.95
435.6394, 13361.37
436.1216, 13348.43
436.6036, 13329.33
437.0858, 13321.47
437.5679, 13325.28
438.0500, 13332.17
438.5321, 13338.83
439.0142, 13342.69
439.4963, 13338.51
439.9785, 13318.97
440.4606, 13299.08
440.9427, 13292.67
441.4248, 13296.35
441.9069, 13299.99
442.3890, 13301.60
442.8712, 13299.81
443.3533, 13292.52
443.8354, 13278.25
444.3175, 13265.38
444.7996, 13256.93
445.2817, 13251.23
445.7639, 13246.41
446.2460, 13242.40
446.7281, 13238.67
447.2102, 13234.18
447.6923, 13229.21
448.1744, 13226.89
448.6566, 13231.60
449.1387, 13233.80
449.6208, 13227.39
450.1029, 13205.11
450.5850, 13196.62
451.0671, 13208.10
451.5493, 13227.03
452.0314, 13236.44
452.5135, 13235.66
452.9956, 13227.43
453.4777, 13208.40
453.9598, 13183.36
454.4420, 13177.44
454.9241, 13193.24
455.4062, 13205.27
455.8883, 13186.17
456.3704, 13144.91
456.8525, 13125.39
457.3347, 13136.38
457.8168, 13155.49
458.2989, 13153.36
458.7810, 13136.32
459.2631, 13122.98
459.7452, 13126.73
460.2274, 13135.12
460.7095, 13132.36
461.1916, 13120.07
461.6737, 13110.86
462.1558, 13116.47
462.6379, 13126.40
463.1201, 13130.98
463.6022, 13126.91
464.0843, 13120.49
464.5664, 13109.19
465.0485, 13097.97
465.5306, 13094.81
466.0128, 13113.69
466.4949, 13128.66
466.9770, 13129.96
467.4591, 13116.88
467.9412, 13106.57
468.4233, 13097.91
468.9055, 13093.49
469.3876, 13095.88
469.8697, 13112.41
470.3518, 13119.67
470.8339, 13113.82
471.3160, 13101.25
471.7982, 13093.73
472.2803, 13092.31
472.7624, 13092.06
473.2445, 13091.06
473.7266, 13089.75
474.2087, 13090.70
474.6909, 13093.72
475.1730, 13099.49
475.6551, 13112.36
476.1372, 13129.16
476.6193, 13135.66
477.1014, 13127.46
477.5836, 13114.92
478.0657, 13111.39
478.5478, 13113.99
479.0299, 13114.64
479.5120, 13104.56
479.9941, 13094.12
480.4763, 13095.90
480.9584, 13108.67
481.4405, 13118.66
481.9226, 13116.51
482.4047, 13109.66
482.8868, 13103.71
483.3690, 13099.19
483.8511, 13097.21
484.3332, 13100.94
484.8153, 13106.93
485.2974, 13109.61
485.7795, 13107.81
486.2617, 13102.96
486.7438, 13093.35
487.2259, 13079.14
487.7080, 13070.76
488.1901, 13071.13
488.6722, 13073.50
489.1544, 13073.38
489.6365, 13069.22
490.1186, 13069.31
490.6007, 13075.44
491.0828, 13083.64
491.5649, 13087.77
492.0471, 13087.65
492.5292, 13085.97
493.0113, 13082.98
493.4934, 13079.18
493.9755, 13075.14
494.4576, 13070.88
494.9398, 13068.55
495.4219, 13072.85
495.9040, 13079.33
496.3861, 13078.43
496.8682, 13067.56
497.3503, 13057.09
497.8325, 13058.24
498.3146, 13064.89
498.7967, 13067.58
499.2788, 13057.02
499.7609, 13047.17
500.2430, 13046.74
500.7252, 13053.80
501.2073, 13059.09
501.6894, 13061.53
502.1715, 13060.61
502.6536, 13055.62
503.1357, 13044.99
503.6179, 13034.96
504.1000, 13023.12
504.5821, 13013.62
505.0642, 13010.78
505.5463, 13016.65
506.0284, 13024.31
506.5106, 13033.33
506.9927, 13042.89
507.4748, 13051.44
507.9569, 13059.55
508.4390, 13062.88
508.9211, 13054.38
509.4033, 13036.65
509.8854, 13034.92
510.3675, 13050.65
510.8496, 13069.47
511.3317, 13077.05
511.8138, 13076.50
512.2960, 13076.21
512.7781, 13078.50
513.2602, 13080.98
513.7423, 13081.33
514.2244, 13080.01
514.7065, 13078.08
515.1887, 13077.72
515.6708, 13075.71
516.1529, 13067.60
516.6350, 13053.66
517.1171, 13044.63
517.5992, 13047.84
518.0814, 13054.95
518.5635, 13060.58
519.0456, 13062.88
519.5277, 13065.89
520.0098, 13075.52
520.4919, 13083.64
520.9741, 13075.82
521.4562, 13037.96
521.9383, 13012.84
522.4204, 13013.01
522.9025, 13034.26
523.3846, 13052.01
523.8668, 13066.96
524.3489, 13074.42
524.8310, 13066.02
525.3131, 13044.55
525.7952, 13036.63
526.2773, 13044.80
526.7595, 13057.77
527.2416, 13064.16
527.7237, 13065.21
528.2058, 13063.95
528.6879, 13060.72
529.1700, 13056.65
529.6522, 13053.77
530.1343, 13051.27
530.6164, 13046.49
531.0985, 13034.47
531.5806, 13022.87
532.0627, 13016.91
532.5449, 13017.25
533.0270, 13018.71
533.5091, 13020.46
533.9912, 13022.39
534.4733, 13024.29
534.9554, 13024.98
535.4376, 13027.08
535.9197, 13031.27
536.4018, 13036.26
536.8839, 13039.28
537.3660, 13038.46
537.8481, 13040.57
538.3303, 13049.10
538.8124, 13061.92
539.2945, 13067.62
539.7766, 13065.78
540.2587, 13060.76
540.7408, 13053.69
541.2230, 13045.77
541.7051, 13041.51
542.1872, 13041.42
542.6693, 13044.41
543.1514, 13054.98
543.6335, 13067.14
544.1157, 13069.14
544.5978, 13050.15
545.0799, 13030.39
545.5620, 13024.64
546.0441, 13029.14
546.5262, 13034.54
547.0084, 13039.26
547.4905, 13042.30
547.9726, 13041.03
548.4547, 13034.51
548.9368, 13034.90
549.4189, 13043.93
549.9011, 13059.27
550.3832, 13082.22
550.8653, 13126.38
551.3474, 13142.96
551.8295, 13119.16
552.3116, 13081.55
552.7938, 13072.59
553.2759, 13095.89
553.7580, 13112.19
554.2401, 13109.59
554.7222, 13094.76
555.2043, 13082.56
555.6865, 13073.12
556.1686, 13066.26
556.6507, 13062.69
557.1328, 13061.55
557.6149, 13063.60
558.0970, 13069.06
558.5792, 13069.92
559.0613, 13054.84
559.5434, 13035.24
560.0255, 13022.69
560.5076, 13021.61
560.9897, 13025.14
561.4719, 13035.57
561.9540, 13048.35
562.4361, 13055.76
562.9182, 13047.33
563.4003, 13044.23
563.8824, 13052.97
564.3646, 13071.12
564.8467, 13082.41
565.3288, 13084.80
565.8109, 13083.93
566.2930, 13081.21
566.7751, 13076.30
567.2573, 13076.91
567.7394, 13084.23
568.2215, 13091.02
568.7036, 13087.28
569.1857, 13076.21
569.6678, 13069.84
570.1500, 13071.39
570.6321, 13076.93
571.1142, 13085.67
571.5963, 13095.07
572.0784, 13099.30
572.5605, 13092.97
573.0427, 13083.46
573.5248, 13075.99
574.0069, 13069.99
574.4890, 13060.10
574.9711, 13038.20
575.4532, 13017.74
575.9354, 13005.70
576.4175, 13003.91
576.8996, 13006.10
577.3817, 13016.97
577.8638, 13027.18
578.3459, 13026.71
578.8281, 13011.39
579.3102, 13002.45
579.7923, 13003.30
580.2744, 13009.57
580.7565, 13013.97
581.2386, 13016.43
581.7208, 13017.00
582.2029, 13013.82
582.6850, 13009.98
583.1671, 13013.04
583.6492, 13021.62
584.1313, 13027.43
584.6134, 13021.29
585.0955, 13012.54
585.5776, 13009.54
586.0598, 13013.39
586.5419, 13021.82
587.0240, 13042.73
587.5061, 13062.93
587.9882, 13071.23
