##NAMES=Rutherfordine
##RRUFFID=R090018
##IDEAL CHEMISTRY=(U^6+^O_2_)CO_3_
##LOCALITY=El Sharana mine, South Alligator Valley, Northern Territory, Australia
##OWNER=RRUFF
##SOURCE=James Shigley
##DESCRIPTION=Bright yellow bladed crystals in vug
##STATUS=The identification of this mineral has been confirmed by single-crystal X-ray diffraction.
##URL=rruff.info/R090018
92.37695, 433.2202
92.85907, 431.6182
93.34119, 431.9059
93.82330, 429.8796
94.30542, 427.5284
94.78754, 427.9535
95.26965, 431.1365
95.75177, 432.2246
96.23389, 428.9612
96.71600, 423.8228
97.19812, 419.3051
97.68024, 415.8517
98.16235, 412.9563
98.64447, 409.6905
99.12659, 405.3585
99.60870, 401.6573
100.0908, 401.2099
100.5729, 402.0441
101.0551, 402.0697
101.5372, 400.1053
102.0193, 396.6094
102.5014, 394.2060
102.9835, 392.3250
103.4656, 392.1631
103.9478, 394.7739
104.4299, 399.2436
104.9120, 403.9878
105.3941, 407.7890
105.8762, 410.6011
106.3583, 412.8731
106.8405, 413.3350
107.3226, 414.2365
107.8047, 417.1414
108.2868, 422.0927
108.7689, 427.6589
109.2510, 432.1191
109.7332, 435.3498
110.2153, 439.3447
110.6974, 444.2842
111.1795, 450.1297
111.6616, 457.0190
112.1437, 465.1523
112.6259, 473.8878
113.1080, 482.1069
113.5901, 489.8109
114.0722, 498.6986
114.5543, 510.2236
115.0364, 524.3016
115.5185, 538.1165
116.0007, 549.6332
116.4828, 561.9409
116.9649, 577.5306
117.4470, 596.6344
117.9291, 617.0666
118.4112, 636.2584
118.8934, 654.0958
119.3755, 670.5876
119.8576, 685.2914
120.3397, 699.2494
120.8218, 713.1481
121.3039, 727.2762
121.7861, 741.6324
122.2682, 756.3661
122.7503, 772.6573
123.2324, 787.9246
123.7145, 800.5594
124.1966, 812.2923
124.6788, 825.4554
125.1609, 841.5692
125.6430, 860.3870
126.1251, 879.7845
126.6072, 899.3127
127.0893, 919.6947
127.5715, 940.9130
128.0536, 963.1494
128.5357, 986.9964
129.0178, 1013.547
129.4999, 1042.448
129.9821, 1070.649
130.4642, 1097.127
130.9463, 1123.568
131.4284, 1151.984
131.9105, 1182.709
132.3926, 1214.179
132.8748, 1244.690
133.3569, 1275.177
133.8390, 1307.053
134.3211, 1342.583
134.8032, 1380.186
135.2853, 1415.138
135.7674, 1447.746
136.2496, 1476.590
136.7317, 1502.146
137.2138, 1524.092
137.6959, 1541.589
138.1780, 1555.389
138.6601, 1566.173
139.1423, 1565.922
139.6244, 1547.452
140.1065, 1523.403
140.5886, 1495.873
141.0707, 1466.380
141.5528, 1436.722
142.0350, 1408.998
142.5171, 1383.393
142.9992, 1359.547
143.4813, 1335.430
143.9634, 1314.044
144.4455, 1297.168
144.9277, 1285.359
145.4098, 1277.760
145.8919, 1273.194
146.3740, 1272.854
146.8561, 1273.821
147.3382, 1276.030
147.8204, 1279.481
148.3025, 1284.479
148.7846, 1291.324
149.2667, 1299.076
149.7488, 1306.041
150.2309, 1312.531
150.7131, 1317.979
151.1952, 1322.282
151.6773, 1325.407
152.1594, 1327.231
152.6415, 1327.914
153.1236, 1326.804
153.6058, 1324.268
154.0879, 1321.069
154.5700, 1314.167
155.0521, 1299.912
155.5342, 1278.091
156.0163, 1255.366
156.4985, 1236.215
156.9806, 1216.184
157.4627, 1191.234
157.9448, 1160.056
158.4269, 1125.326
158.9090, 1090.347
159.3912, 1054.780
159.8733, 1020.140
160.3554, 986.3854
160.8375, 953.7740
161.3196, 922.1094
161.8017, 891.3474
162.2839, 862.0331
162.7660, 836.0613
163.2481, 814.3201
163.7302, 795.2510
164.2123, 779.1244
164.6944, 765.1409
165.1766, 752.3755
165.6587, 740.1812
166.1408, 728.8451
166.6229, 720.0735
167.1050, 715.4301
167.5871, 711.6143
168.0693, 708.2662
168.5514, 705.2603
169.0335, 702.4973
169.5156, 699.9434
169.9977, 697.5702
170.4798, 695.1871
170.9620, 692.5816
171.4441, 690.1661
171.9262, 687.7014
172.4083, 685.4196
172.8904, 684.3409
173.3725, 685.6108
173.8547, 688.9761
174.3368, 691.2390
174.8189, 691.8951
175.3010, 691.8259
175.7831, 691.3973
176.2652, 690.5988
176.7474, 690.2586
177.2295, 690.9645
177.7116, 692.6332
178.1937, 695.1274
178.6758, 699.4561
179.1579, 704.2339
179.6401, 707.0329
180.1222, 707.0062
180.6043, 707.4626
181.0864, 711.3444
181.5685, 717.0106
182.0506, 721.8169
182.5328, 724.4373
183.0149, 725.3376
183.4970, 726.0135
183.9791, 726.7843
184.4612, 726.7159
184.9433, 726.2168
185.4255, 724.7388
185.9076, 721.2792
186.3897, 714.9719
186.8718, 705.9872
187.3539, 696.3951
187.8360, 686.0535
188.3182, 675.1052
188.8003, 663.1954
189.2824, 650.7173
189.7645, 638.3481
190.2466, 626.6654
190.7287, 615.6354
191.2109, 605.0173
191.6930, 593.4869
192.1751, 583.5372
192.6572, 576.4781
193.1393, 571.8591
193.6214, 568.3023
194.1036, 564.6024
194.5857, 560.5530
195.0678, 558.0878
195.5499, 557.3508
196.0320, 557.6229
196.5141, 558.6940
196.9963, 560.4894
197.4784, 563.0140
197.9605, 566.4057
198.4426, 570.8505
198.9247, 574.5217
199.4068, 576.4214
199.8890, 578.3713
200.3711, 581.8118
200.8532, 586.7734
201.3353, 591.9481
201.8174, 596.2338
202.2995, 599.5333
202.7817, 602.4470
203.2638, 605.4484
203.7459, 607.8098
204.2280, 608.4302
204.7101, 607.1171
205.1922, 605.7186
205.6744, 606.5256
206.1565, 608.9155
206.6386, 609.7529
207.1207, 607.0983
207.6028, 603.0594
208.0849, 600.8370
208.5671, 601.1649
209.0492, 601.3321
209.5313, 599.1846
210.0134, 595.2919
210.4955, 590.4781
210.9776, 584.8090
211.4598, 578.4373
211.9419, 571.7007
212.4240, 564.7437
212.9061, 557.1356
213.3882, 548.0148
213.8703, 538.1520
214.3525, 529.0323
214.8346, 522.2573
215.3167, 516.8104
215.7988, 508.8844
216.2809, 496.8323
216.7630, 484.6883
217.2451, 474.0361
217.7273, 464.5150
218.2094, 455.3977
218.6915, 446.1107
219.1736, 436.8542
219.6557, 429.0495
220.1378, 424.1301
220.6200, 419.0220
221.1021, 412.1389
221.5842, 404.5212
222.0663, 397.9203
222.5484, 393.6889
223.0305, 391.5306
223.5127, 388.5543
223.9948, 383.1713
224.4769, 378.6711
224.9590, 376.2346
225.4411, 375.1034
225.9232, 373.9146
226.4054, 371.6992
226.8875, 368.6130
227.3696, 366.3553
227.8517, 365.6576
228.3338, 365.0743
228.8159, 364.1956
229.2981, 363.2287
229.7802, 362.6746
230.2623, 362.9179
230.7444, 363.8294
231.2265, 363.9082
231.7086, 362.2512
232.1908, 360.8186
232.6729, 360.4906
233.1550, 360.7320
233.6371, 360.3081
234.1192, 358.3284
234.6013, 355.1628
235.0835, 353.6777
235.5656, 355.3358
236.0477, 356.7125
236.5298, 356.9058
237.0119, 356.0576
237.4940, 354.4071
237.9762, 351.9113
238.4583, 348.8886
238.9404, 346.8604
239.4225, 345.9680
239.9046, 345.6666
240.3867, 346.4550
240.8689, 347.7656
241.3510, 348.1661
241.8331, 346.8753
242.3152, 344.2459
242.7973, 341.4066
243.2794, 338.4131
243.7616, 335.1899
244.2437, 331.8408
244.7258, 328.2776
245.2079, 324.2432
245.6900, 319.6482
246.1721, 314.4700
246.6543, 308.5760
247.1364, 301.6540
247.6185, 294.9783
248.1006, 288.9315
248.5827, 283.6061
249.0648, 279.3913
249.5470, 276.8442
250.0291, 274.9721
250.5112, 272.1894
250.9933, 268.3328
251.4754, 264.5967
251.9576, 261.4700
252.4397, 258.9633
252.9218, 257.0286
253.4039, 255.6596
253.8860, 254.9487
254.3681, 255.2273
254.8503, 256.4966
255.3324, 257.2784
255.8145, 255.9742
256.2966, 253.1463
256.7787, 251.8326
257.2608, 253.4730
257.7430, 255.5881
258.2251, 255.6776
258.7072, 254.0957
259.1893, 253.1914
259.6714, 255.5012
260.1535, 260.1805
260.6357, 262.2775
261.1178, 259.7415
261.5999, 256.6016
262.0820, 255.8130
262.5641, 256.6741
263.0462, 256.9897
263.5284, 254.6941
264.0105, 250.3872
264.4926, 247.6760
264.9747, 247.3994
265.4568, 247.6583
265.9389, 247.5549
266.4211, 247.2201
266.9032, 246.9651
267.3853, 247.1258
267.8674, 247.5041
268.3495, 247.1545
268.8316, 245.4948
269.3138, 243.9661
269.7959, 243.0047
270.2780, 242.5131
270.7601, 242.3928
271.2422, 242.6828
271.7243, 243.2153
272.2065, 243.3999
272.6886, 242.9819
273.1707, 242.6364
273.6528, 242.3532
274.1349, 242.2955
274.6170, 242.7348
275.0992, 243.8390
275.5813, 245.3021
276.0634, 246.3756
276.5455, 247.0099
277.0276, 247.3041
277.5097, 247.1897
277.9919, 246.8630
278.4740, 246.3755
278.9561, 245.7508
279.4382, 245.2756
279.9203, 245.5519
280.4024, 246.9883
280.8846, 248.3339
281.3667, 249.8303
281.8488, 250.9774
282.3309, 251.2912
282.8130, 250.6936
283.2951, 249.6046
283.7773, 248.5636
284.2594, 247.4276
284.7415, 246.7299
285.2236, 246.9289
285.7057, 247.1656
286.1878, 246.6934
286.6700, 245.5698
287.1521, 244.6243
287.6342, 245.0234
288.1163, 247.4383
288.5984, 248.5066
289.0805, 246.7943
289.5627, 245.1237
290.0448, 244.9367
290.5269, 246.0581
291.0090, 247.4122
291.4911, 248.0984
291.9732, 248.1223
292.4554, 247.3790
292.9375, 244.8866
293.4196, 242.6126
293.9017, 241.3191
294.3838, 240.7577
294.8659, 240.3316
295.3481, 239.6567
295.8302, 238.7213
296.3123, 237.3955
296.7944, 234.7446
297.2765, 232.7016
297.7586, 231.9275
298.2408, 231.9501
298.7229, 232.2513
299.2050, 232.5966
299.6871, 232.7170
300.1692, 231.5365
300.6513, 227.5825
301.1335, 224.0262
301.6156, 221.2267
302.0977, 218.9399
302.5798, 216.8819
303.0619, 214.9472
303.5440, 213.1939
304.0262, 211.7598
304.5083, 211.2724
304.9904, 210.1392
305.4725, 208.0685
305.9546, 205.5752
306.4367, 202.9156
306.9189, 200.2175
307.4010, 197.6513
307.8831, 195.4648
308.3652, 193.7689
308.8473, 192.2077
309.3294, 190.8954
309.8116, 189.5914
310.2937, 188.3097
310.7758, 186.9507
311.2579, 185.1826
311.7400, 182.5639
312.2221, 178.8026
312.7043, 176.1867
313.1864, 175.3722
313.6685, 174.8606
314.1506, 174.1982
314.6327, 173.3513
315.1148, 172.3402
315.5970, 171.1157
316.0791, 169.7477
316.5612, 169.2225
317.0433, 170.7505
317.5254, 171.7740
318.0075, 171.5612
318.4897, 170.5443
318.9718, 169.2325
319.4539, 167.8537
319.9360, 166.6732
320.4181, 166.5811
320.9002, 169.6931
321.3824, 171.2023
321.8645, 169.7318
322.3466, 167.1262
322.8287, 165.0424
323.3108, 164.0789
323.7929, 163.9383
324.2751, 164.1505
324.7572, 164.8594
325.2393, 165.6845
325.7214, 166.9648
326.2035, 168.1060
326.6856, 168.6908
327.1678, 168.6833
327.6499, 168.3335
328.1320, 167.8863
328.6141, 167.3138
329.0962, 166.7751
329.5783, 166.3255
330.0605, 165.8523
330.5426, 164.9612
331.0247, 163.9662
331.5068, 163.7307
331.9889, 165.0494
332.4710, 167.7645
332.9532, 169.2964
333.4353, 168.8660
333.9174, 168.0225
334.3995, 166.5331
334.8816, 164.9323
335.3637, 164.0440
335.8459, 164.3133
336.3280, 165.2449
336.8101, 165.3163
337.2922, 163.5602
337.7743, 162.3719
338.2564, 162.2532
338.7386, 162.5475
339.2206, 162.6576
339.7028, 162.4261
340.1849, 162.1346
340.6670, 162.2725
341.1491, 163.1923
341.6312, 163.6475
342.1133, 163.3918
342.5955, 162.9423
343.0776, 162.5613
343.5597, 162.2631
344.0418, 161.9077
344.5239, 161.3058
345.0060, 160.4209
345.4882, 159.9286
345.9703, 160.6413
346.4524, 160.9572
346.9345, 159.8519
347.4166, 158.0930
347.8987, 157.1383
348.3809, 157.9827
348.8630, 160.1227
349.3451, 161.4917
349.8272, 161.7817
350.3093, 161.7147
350.7914, 161.0307
351.2736, 160.2970
351.7557, 160.3141
352.2378, 161.3429
352.7199, 162.4773
353.2020, 161.8925
353.6841, 158.5946
354.1663, 156.6335
354.6484, 157.0309
355.1305, 158.3989
355.6126, 160.7355
356.0947, 163.6297
356.5768, 165.6139
357.0590, 164.7152
357.5411, 160.7829
358.0232, 158.0418
358.5053, 156.8774
358.9874, 156.6401
359.4695, 157.4794
359.9517, 158.9741
360.4338, 160.3374
360.9159, 161.1201
361.3980, 161.4432
361.8801, 161.6226
362.3622, 161.4907
362.8444, 161.5933
363.3265, 162.3517
363.8086, 163.3211
364.2907, 164.0755
364.7728, 164.4976
365.2549, 164.6358
365.7371, 164.4662
366.2192, 163.9437
366.7013, 163.5054
367.1834, 163.0554
367.6655, 162.9102
368.1476, 163.4447
368.6298, 164.6277
369.1119, 165.8234
369.5940, 166.6357
370.0761, 167.0886
370.5582, 167.2239
371.0403, 166.8643
371.5225, 166.5156
372.0046, 166.5438
372.4867, 166.8401
372.9688, 167.1760
373.4509, 167.5544
373.9330, 167.8695
374.4152, 167.9131
374.8973, 167.6521
375.3794, 167.3636
375.8615, 166.8240
376.3436, 166.5379
376.8257, 167.4762
377.3079, 170.3760
377.7900, 172.8704
378.2721, 172.9184
378.7542, 171.0030
379.2363, 169.1748
379.7184, 167.8959
380.2006, 167.0678
380.6827, 166.5235
381.1648, 166.2311
381.6469, 166.4054
382.1290, 167.5729
382.6111, 169.0651
383.0933, 169.8674
383.5754, 169.8429
384.0575, 169.6686
384.5396, 169.9881
385.0217, 170.6670
385.5038, 170.7491
385.9860, 169.6062
386.4681, 168.4036
386.9502, 167.9817
387.4323, 168.1304
387.9144, 167.9993
388.3965, 167.0566
388.8787, 165.7956
389.3608, 165.6509
389.8429, 167.2989
390.3250, 168.4280
390.8071, 168.1933
391.2892, 167.3518
391.7714, 166.8124
392.2535, 166.7788
392.7356, 166.8924
393.2177, 166.7554
393.6998, 166.3326
394.1819, 165.7423
394.6641, 164.4125
395.1462, 163.4357
395.6283, 163.5812
396.1104, 164.6422
396.5925, 166.0434
397.0746, 167.5301
397.5568, 168.8925
398.0389, 168.9529
398.5210, 165.7966
399.0031, 163.6310
399.4852, 163.4789
399.9673, 164.2862
400.4495, 165.0686
400.9316, 165.4614
401.4137, 165.4137
401.8958, 164.7097
402.3779, 162.7415
402.8600, 161.8101
403.3422, 162.4693
403.8243, 163.5106
404.3064, 164.5158
404.7885, 165.3795
405.2706, 166.0878
405.7527, 166.6555
406.2349, 167.0533
406.7170, 166.9468
407.1991, 165.5603
407.6812, 164.8086
408.1633, 165.4334
408.6454, 166.7329
409.1276, 168.0504
409.6097, 169.1577
410.0918, 169.9261
410.5739, 170.0114
411.0560, 169.2243
411.5381, 168.7624
412.0203, 168.7155
412.5024, 169.1585
412.9845, 170.4782
413.4666, 172.4616
413.9487, 174.1881
414.4308, 174.7078
414.9130, 174.4171
415.3951, 174.8350
415.8772, 176.1085
416.3593, 177.7383
416.8414, 179.9398
417.3235, 182.1928
417.8057, 183.6305
418.2878, 183.6596
418.7699, 183.6042
419.2520, 185.0626
419.7341, 187.8371
420.2162, 189.9458
420.6984, 190.5075
421.1805, 190.5163
421.6626, 191.3124
422.1447, 192.9018
422.6268, 194.3063
423.1089, 194.8529
423.5911, 195.1508
424.0732, 196.2034
424.5553, 198.1205
425.0374, 199.9594
425.5195, 201.0875
426.0016, 201.4759
426.4838, 201.3891
426.9659, 199.8887
427.4480, 198.9111
427.9301, 199.9700
428.4122, 202.1452
428.8943, 203.4410
429.3765, 203.0716
429.8586, 201.7543
430.3407, 200.6420
430.8228, 199.4184
431.3049, 199.2696
431.7870, 201.2974
432.2692, 203.5865
432.7513, 204.9392
433.2334, 205.2081
433.7155, 204.5736
434.1976, 203.0306
434.6797, 200.6977
435.1619, 199.3008
435.6440, 200.2616
436.1261, 200.5238
436.6082, 199.1096
437.0903, 196.9377
437.5724, 195.0446
438.0546, 193.8051
438.5367, 192.9281
439.0188, 191.9982
439.5009, 191.0426
439.9830, 189.9421
440.4651, 188.6289
440.9473, 187.2156
441.4294, 185.6749
441.9115, 184.0698
442.3936, 182.5722
442.8757, 181.3936
443.3578, 180.3519
443.8400, 178.7781
444.3221, 176.3598
444.8042, 174.1784
445.2863, 173.2506
445.7684, 172.4006
446.2505, 170.2537
446.7327, 166.4377
447.2148, 162.7616
447.6969, 161.0357
448.1790, 160.9360
448.6611, 160.6672
449.1432, 159.9768
449.6254, 159.0482
450.1075, 157.9848
450.5896, 156.8112
451.0717, 155.5664
451.5538, 153.7341
452.0359, 152.2173
452.5181, 152.4149
453.0002, 154.0171
453.4823, 154.7715
453.9644, 153.4138
454.4465, 150.8905
454.9286, 149.3756
455.4108, 149.1686
455.8929, 148.8369
456.3750, 147.5775
456.8571, 146.2907
457.3392, 146.3773
457.8214, 147.8563
458.3035, 148.9319
458.7856, 147.8319
459.2677, 144.5152
459.7498, 142.5560
460.2319, 142.7785
460.7141, 143.1693
461.1962, 143.5521
461.6783, 143.6361
462.1604, 142.7320
462.6425, 140.6358
463.1246, 138.4482
463.6068, 138.3051
464.0889, 141.6080
464.5710, 143.2203
465.0531, 141.7257
465.5352, 139.9680
466.0173, 139.3893
466.4995, 139.6982
466.9816, 139.7746
467.4637, 138.7879
467.9458, 137.1705
468.4279, 136.3476
468.9100, 136.6019
469.3922, 136.9154
469.8743, 137.1966
470.3564, 137.2880
470.8385, 136.9312
471.3206, 136.1003
471.8027, 135.3034
472.2849, 135.0744
472.7670, 135.2230
473.2491, 134.8712
473.7312, 133.6480
474.2133, 132.7868
474.6954, 133.9489
475.1776, 136.1070
475.6597, 136.7350
476.1418, 134.1433
476.6239, 131.5115
477.1060, 131.3645
477.5881, 132.9944
478.0703, 134.3931
478.5524, 134.9487
479.0345, 134.7916
479.5166, 133.8985
479.9987, 131.9496
480.4808, 130.8142
480.9630, 131.2163
481.4451, 131.9444
481.9272, 132.2988
482.4093, 132.2562
482.8914, 131.9646
483.3735, 131.4884
483.8557, 130.8960
484.3378, 130.4318
484.8199, 130.2546
485.3020, 129.9803
485.7841, 129.0866
486.2662, 128.4453
486.7484, 129.0938
487.2305, 130.8887
487.7126, 132.5217
488.1947, 132.7428
488.6768, 131.6449
489.1589, 130.7528
489.6411, 130.1600
490.1232, 129.6309
490.6053, 128.7534
491.0874, 128.0350
491.5695, 128.2304
492.0516, 129.6072
492.5338, 131.1466
493.0159, 131.8441
493.4980, 131.7559
493.9801, 131.2585
494.4622, 130.1343
494.9443, 129.1241
495.4265, 129.0024
495.9086, 129.4952
496.3907, 129.8805
496.8728, 130.1458
497.3549, 130.0983
497.8370, 129.2644
498.3192, 127.9090
498.8013, 127.1065
499.2834, 127.3676
499.7655, 128.0682
500.2476, 128.0992
500.7297, 127.0584
501.2119, 126.8271
501.6940, 128.2527
502.1761, 129.9218
502.6582, 131.0893
503.1403, 131.6310
503.6224, 131.4086
504.1045, 130.2439
504.5866, 128.5236
505.0688, 127.6519
505.5509, 128.2123
506.0330, 128.7452
506.5151, 129.3451
506.9972, 129.7577
507.4793, 129.7396
507.9615, 129.3203
508.4436, 128.7406
508.9257, 128.1104
509.4078, 127.4879
509.8899, 127.2903
510.3720, 127.6914
510.8542, 128.1396
511.3363, 128.7338
511.8184, 129.1163
512.3005, 128.7957
512.7827, 127.6310
513.2648, 126.3602
513.7469, 125.3712
514.2290, 124.7072
514.7111, 124.5791
515.1932, 125.1053
515.6754, 125.7448
516.1575, 126.1940
516.6396, 126.4096
517.1217, 126.2898
517.6038, 125.5519
518.0859, 124.8009
518.5681, 124.2514
519.0502, 123.8848
519.5323, 123.6772
520.0144, 123.6207
520.4965, 123.7233
520.9786, 124.0612
521.4608, 124.7676
521.9429, 124.8688
522.4250, 123.9573
522.9071, 122.9866
523.3892, 121.9342
523.8713, 121.1484
524.3535, 121.3376
524.8356, 122.7712
525.3177, 124.5113
525.7998, 124.8127
526.2819, 123.2589
526.7640, 122.3651
527.2462, 122.8787
527.7283, 123.4696
528.2104, 123.3417
528.6925, 122.8037
529.1746, 122.6335
529.6567, 123.3138
530.1389, 124.2663
530.6210, 124.8100
531.1031, 124.9474
531.5852, 124.6415
532.0673, 123.6566
532.5494, 122.5724
533.0316, 122.2118
533.5137, 122.5215
533.9958, 122.6566
534.4779, 122.1308
534.9600, 121.6308
535.4421, 121.8445
535.9243, 122.5781
536.4064, 123.1313
536.8885, 123.1676
537.3706, 122.8455
537.8527, 122.4944
538.3348, 122.1266
538.8170, 121.6902
539.2991, 120.6102
539.7812, 119.9793
540.2633, 121.0140
540.7454, 123.0573
541.2275, 124.2678
541.7097, 123.4088
542.1918, 121.3821
542.6739, 120.5850
543.1560, 121.3661
543.6381, 122.2617
544.1202, 123.3406
544.6024, 124.1579
545.0845, 124.2817
545.5666, 123.8180
546.0487, 123.3707
546.5308, 123.5018
547.0129, 123.7153
547.4951, 122.9958
547.9772, 121.3758
548.4593, 120.1190
548.9414, 119.6423
549.4235, 119.9429
549.9056, 121.3024
550.3878, 123.9162
550.8699, 126.1427
551.3520, 128.1782
551.8341, 129.3110
552.3162, 128.3276
552.7983, 125.7748
553.2805, 123.6131
553.7626, 122.9925
554.2447, 123.4593
554.7268, 123.6997
555.2089, 123.5564
555.6910, 123.4584
556.1732, 123.6615
556.6553, 123.6990
557.1374, 122.9270
557.6195, 121.6888
558.1016, 121.1012
558.5837, 122.0568
559.0659, 123.8282
559.5480, 124.6405
560.0301, 124.3265
560.5122, 124.0178
560.9943, 123.9377
561.4764, 124.0758
561.9586, 124.5175
562.4407, 125.2287
562.9228, 125.7261
563.4049, 125.9148
563.8870, 125.7469
564.3691, 124.8153
564.8513, 123.3458
565.3334, 122.5703
565.8155, 123.1530
566.2976, 124.3991
566.7797, 124.9547
567.2618, 124.2213
567.7440, 124.2088
568.2261, 125.9483
568.7082, 127.4559
569.1903, 127.1368
569.6724, 125.6664
570.1545, 124.8690
570.6367, 125.7650
571.1188, 127.4462
571.6009, 127.9316
572.0830, 126.9032
572.5651, 125.8895
573.0472, 124.8365
573.5294, 124.0594
574.0115, 123.6276
574.4936, 123.5940
574.9757, 124.1529
575.4578, 125.8047
575.9399, 127.5070
576.4221, 128.0645
576.9042, 127.5906
577.3863, 126.5289
577.8684, 124.7422
578.3505, 123.2148
578.8326, 123.4559
579.3148, 125.6563
579.7969, 126.3450
580.2790, 123.8407
580.7611, 121.4675
581.2432, 121.1174
581.7253, 121.9048
582.2075, 122.2294
582.6896, 121.5486
583.1717, 120.5201
583.6538, 120.0231
584.1359, 120.0981
584.6180, 120.4229
585.1002, 121.2767
585.5823, 122.0569
586.0643, 122.6081
586.5464, 122.9650
587.0286, 123.2726
587.5107, 123.6017
587.9928, 123.5006
588.4749, 121.8861
588.9570, 119.3873
589.4391, 118.7977
589.9213, 120.8093
