##NAMES=Rutherfordine
##RRUFFID=R100018
##IDEAL CHEMISTRY=(U^6+^O_2_)CO_3_
##LOCALITY=Shinkolobwe mine, Katanga, Congo
##OWNER=RRUFF
##SOURCE=William Pinch
##DESCRIPTION=Pale yellow radiating laths
##STATUS=The identification of this mineral has been confirmed by single-crystal X-ray diffraction.
##URL=rruff.info/R100018
142.1542, 563.6133
142.6364, 567.7764
143.1185, 574.2247
143.6006, 582.3860
144.0827, 593.9581
144.5648, 609.9805
145.0469, 631.6812
145.5291, 651.8886
146.0112, 669.8897
146.4933, 687.0323
146.9754, 705.6783
147.4575, 727.1628
147.9396, 748.2759
148.4218, 768.1520
148.9039, 785.6385
149.3860, 804.3509
149.8681, 824.1924
150.3502, 845.0066
150.8323, 866.6495
151.3145, 889.2741
151.7966, 912.3457
152.2787, 935.9043
152.7608, 959.6466
153.2429, 984.0940
153.7250, 1009.512
154.2072, 1035.691
154.6893, 1062.041
155.1714, 1088.514
155.6535, 1106.057
156.1356, 1117.680
156.6177, 1124.057
157.0999, 1125.122
157.5820, 1120.680
158.0641, 1111.062
158.5462, 1097.247
159.0283, 1077.553
159.5104, 1055.049
159.9926, 1031.740
160.4747, 1004.624
160.9568, 980.0931
161.4389, 959.8254
161.9210, 943.8885
162.4031, 931.1887
162.8853, 922.7665
163.3674, 916.8344
163.8495, 911.7568
164.3316, 907.1951
164.8137, 903.1447
165.2958, 899.4653
165.7780, 896.1347
166.2601, 893.6122
166.7422, 892.5200
167.2243, 892.2181
167.7064, 891.9108
168.1885, 891.3377
168.6707, 890.6057
169.1528, 889.5222
169.6349, 888.0178
170.1170, 887.1341
170.5991, 887.7751
171.0812, 889.4973
171.5634, 891.5128
172.0455, 893.5908
172.5276, 895.7472
173.0097, 897.9418
173.4918, 900.1628
173.9739, 902.6072
174.4561, 905.9902
174.9382, 909.8304
175.4203, 912.9735
175.9024, 914.5957
176.3845, 915.2322
176.8666, 915.5485
177.3488, 915.5997
177.8309, 915.3904
178.3130, 914.8627
178.7951, 914.0574
179.2772, 913.1462
179.7593, 912.2516
180.2415, 911.3133
180.7236, 910.0200
181.2057, 908.0868
181.6878, 906.3997
182.1699, 906.5090
182.6520, 908.1613
183.1342, 909.7021
183.6163, 910.2621
184.0984, 909.8809
184.5805, 908.4088
185.0626, 905.3315
185.5447, 901.9461
186.0269, 900.0750
186.5090, 899.7247
186.9911, 900.9705
187.4732, 904.5714
187.9553, 910.0730
188.4374, 915.1610
188.9196, 919.4749
189.4017, 923.2145
189.8838, 927.4429
190.3659, 932.3268
190.8480, 935.5097
191.3301, 935.1905
191.8123, 931.5195
192.2944, 925.7250
192.7765, 917.6341
193.2586, 907.8460
193.7407, 897.9428
194.2228, 887.7990
194.7050, 878.4531
195.1871, 870.7134
195.6692, 864.5724
196.1513, 859.8102
196.6334, 856.5578
197.1155, 854.6003
197.5977, 853.1318
198.0798, 852.1750
198.5619, 851.6266
199.0440, 851.4150
199.5261, 851.5336
200.0082, 851.9614
200.4904, 852.7943
200.9725, 853.9440
201.4546, 854.8987
201.9367, 855.6526
202.4188, 856.2080
202.9009, 856.4705
203.3831, 856.3724
203.8652, 856.4144
204.3473, 856.7056
204.8294, 857.2369
205.3115, 857.9059
205.7936, 858.6671
206.2758, 859.6642
206.7579, 861.1728
207.2400, 863.3375
207.7221, 865.3271
208.2042, 866.8795
208.6863, 868.0196
209.1685, 869.3120
209.6506, 870.7878
210.1327, 872.4010
210.6148, 874.1023
211.0969, 875.8727
211.5790, 877.7932
212.0612, 880.0172
212.5433, 882.5443
213.0254, 884.4459
213.5075, 885.3239
213.9896, 886.1085
214.4717, 888.2233
214.9538, 892.5880
215.4360, 895.7758
215.9181, 896.7281
216.4002, 895.3026
216.8823, 893.8175
217.3644, 892.7225
217.8465, 891.0469
218.3287, 887.2748
218.8108, 880.3010
219.2929, 873.6927
219.7750, 868.2451
220.2571, 863.9912
220.7392, 860.6118
221.2214, 858.6317
221.7035, 856.9767
222.1856, 853.9305
222.6677, 848.2564
223.1498, 843.8976
223.6319, 842.4708
224.1141, 844.5162
224.5962, 844.9401
225.0783, 842.8264
225.5604, 839.8983
226.0425, 838.3885
226.5246, 838.6223
227.0068, 839.6906
227.4889, 841.5461
227.9710, 844.4107
228.4531, 846.6845
228.9352, 848.0594
229.4173, 849.0985
229.8995, 850.5358
230.3816, 852.5916
230.8637, 854.6761
231.3458, 856.5501
231.8279, 858.1534
232.3100, 860.2388
232.7922, 863.5586
233.2743, 866.7515
233.7564, 868.0486
234.2385, 866.9217
234.7206, 864.7986
235.2027, 861.8678
235.6849, 857.9849
236.1670, 854.2132
236.6491, 850.3310
237.1312, 846.7428
237.6133, 843.9930
238.0954, 842.2800
238.5776, 840.9908
239.0597, 839.8058
239.5418, 838.5554
240.0239, 838.6486
240.5060, 840.2368
240.9881, 843.0379
241.4703, 846.9045
241.9524, 852.7401
242.4345, 857.9958
242.9166, 861.9215
243.3987, 864.3713
243.8808, 866.7180
244.3630, 869.0759
244.8451, 871.2636
245.3272, 873.3156
245.8093, 876.4234
246.2914, 877.1984
246.7735, 874.5733
247.2557, 868.2529
247.7378, 861.2003
248.2199, 852.9465
248.7020, 844.3419
249.1841, 836.2758
249.6662, 828.7365
250.1484, 821.6816
250.6305, 814.7441
251.1126, 807.8585
251.5947, 803.3778
252.0768, 802.6289
252.5589, 802.9005
253.0411, 801.1486
253.5232, 795.9924
254.0053, 791.8480
254.4874, 789.8376
254.9695, 790.0010
255.4516, 789.7615
255.9338, 788.5247
256.4159, 787.6387
256.8980, 788.6605
257.3801, 792.6420
257.8622, 796.0276
258.3444, 797.9607
258.8265, 798.5328
259.3086, 799.7001
259.7907, 801.9682
260.2728, 804.0931
260.7549, 805.0850
261.2371, 805.0996
261.7192, 803.5315
262.2013, 799.9358
262.6834, 794.4803
263.1655, 789.1719
263.6476, 783.7198
264.1298, 778.7872
264.6119, 774.6793
265.0940, 771.3225
265.5761, 769.2071
266.0582, 768.8267
266.5403, 769.7999
267.0225, 769.9508
267.5046, 769.1115
267.9867, 767.7715
268.4688, 766.1186
268.9509, 763.9322
269.4330, 762.2738
269.9152, 761.2054
270.3973, 760.7645
270.8794, 761.2125
271.3615, 762.6716
271.8436, 764.6732
272.3257, 767.2520
272.8079, 770.7261
273.2900, 772.8002
273.7721, 773.1752
274.2542, 772.0995
274.7363, 770.0942
275.2184, 766.9910
275.7006, 763.6796
276.1827, 760.5883
276.6648, 757.6651
277.1469, 755.5771
277.6290, 754.5921
278.1111, 754.2206
278.5933, 753.2072
279.0754, 751.3588
279.5575, 749.9406
280.0396, 749.8681
280.5217, 751.1440
281.0038, 752.1017
281.4860, 752.6575
281.9681, 752.8603
282.4502, 752.3869
282.9323, 751.1172
283.4144, 750.7785
283.8965, 752.5720
284.3787, 756.3008
284.8608, 760.3754
285.3429, 765.3201
285.8250, 769.0697
286.3071, 767.7003
286.7892, 761.3237
287.2714, 754.9626
287.7535, 750.5058
288.2356, 747.8237
288.7177, 746.6616
289.1998, 747.1962
289.6819, 748.2317
290.1641, 748.2945
290.6462, 747.5070
291.1283, 746.8182
291.6104, 746.5873
292.0925, 746.7236
292.5746, 747.0524
293.0568, 747.5925
293.5389, 748.1012
294.0210, 747.7294
294.5031, 746.9288
294.9852, 747.6804
295.4673, 751.9059
295.9495, 757.3074
296.4316, 759.1205
296.9137, 757.4162
297.3958, 754.4865
297.8779, 751.4806
298.3600, 748.7073
298.8422, 746.9213
299.3243, 746.5940
299.8064, 747.0345
300.2885, 747.2826
300.7706, 747.3887
301.2527, 747.7195
301.7349, 748.8837
302.2170, 750.3869
302.6991, 751.3994
303.1812, 751.7972
303.6633, 751.5765
304.1454, 750.4431
304.6276, 748.6093
305.1097, 746.8014
305.5918, 744.5272
306.0739, 742.9050
306.5560, 743.9143
307.0381, 748.8600
307.5203, 753.3927
308.0024, 753.6627
308.4845, 750.7460
308.9666, 747.1618
309.4487, 743.2301
309.9308, 739.7383
310.4130, 737.5765
310.8951, 736.9994
311.3772, 736.7909
311.8593, 736.5087
312.3414, 736.0569
312.8235, 735.2809
313.3057, 733.5823
313.7878, 731.9356
314.2699, 731.0321
314.7520, 730.9435
315.2341, 730.8644
315.7162, 730.0977
316.1984, 729.2418
316.6805, 728.9738
317.1626, 730.7169
317.6447, 731.9579
318.1268, 731.2836
318.6089, 728.8091
319.0911, 726.7728
319.5732, 726.2410
320.0553, 726.2738
320.5374, 726.1543
321.0195, 725.1245
321.5016, 724.5771
321.9838, 725.1901
322.4659, 726.6918
322.9480, 727.7441
323.4301, 727.5928
323.9122, 727.2792
324.3943, 727.3807
324.8765, 728.5757
325.3586, 729.2821
325.8407, 728.8839
326.3228, 727.8634
326.8049, 727.4550
327.2870, 728.3727
327.7692, 729.3474
328.2513, 729.9347
328.7334, 729.9265
329.2155, 729.9967
329.6976, 730.3757
330.1797, 730.7550
330.6619, 730.6012
331.1440, 729.1412
331.6261, 728.1855
332.1082, 728.3751
332.5903, 729.9256
333.0724, 731.0797
333.5546, 731.7587
334.0367, 732.1173
334.5188, 732.3170
335.0009, 732.3890
335.4830, 732.1978
335.9651, 731.5051
336.4473, 730.4021
336.9294, 730.2555
337.4115, 731.4682
337.8936, 732.8477
338.3757, 733.4473
338.8578, 733.1722
339.3399, 732.6567
339.8221, 731.9562
340.3042, 731.1013
340.7863, 730.0566
341.2684, 728.6790
341.7505, 727.7759
342.2326, 728.1593
342.7148, 729.8128
343.1969, 730.7101
343.6790, 730.5216
344.1611, 729.8733
344.6432, 729.8594
345.1253, 730.4637
345.6075, 731.1344
346.0896, 731.6288
346.5717, 731.9542
347.0538, 732.2205
347.5359, 732.4494
348.0180, 732.4124
348.5002, 731.9048
348.9823, 730.9196
349.4644, 729.4120
349.9465, 726.9650
350.4286, 724.2228
350.9107, 722.1779
351.3929, 720.8513
351.8750, 720.1557
352.3571, 720.4630
352.8392, 721.3139
353.3213, 721.8124
353.8034, 721.4863
354.2856, 721.1046
354.7677, 721.6163
355.2498, 722.8146
355.7319, 723.8431
356.2140, 724.6388
356.6961, 724.7750
357.1783, 723.4169
357.6604, 719.6528
358.1425, 716.6438
358.6246, 717.1229
359.1067, 719.6991
359.5888, 721.6799
360.0710, 721.5286
360.5531, 720.6987
361.0352, 719.9218
361.5173, 719.2484
361.9994, 718.7255
362.4815, 717.8868
362.9637, 717.3932
363.4458, 717.9547
363.9279, 722.1578
364.4100, 725.0811
364.8921, 724.3045
365.3742, 720.1555
365.8564, 717.2615
366.3385, 717.6776
366.8206, 718.7320
367.3027, 718.8192
367.7848, 716.3882
368.2669, 714.6968
368.7491, 714.3086
369.2312, 714.8240
369.7133, 715.1469
370.1954, 715.5905
370.6775, 715.5143
371.1596, 714.5114
371.6418, 711.9147
372.1239, 710.3624
372.6060, 710.2808
373.0881, 710.9662
373.5702, 711.4440
374.0523, 711.6896
374.5345, 711.7438
375.0166, 711.3695
375.4987, 710.5817
375.9808, 711.1959
376.4629, 713.8751
376.9450, 716.4813
377.4272, 716.6135
377.9093, 713.8676
378.3914, 712.3497
378.8735, 713.0620
379.3556, 715.2022
379.8377, 716.7858
380.3199, 717.8176
380.8020, 718.0590
381.2841, 716.7154
381.7662, 714.2182
382.2483, 713.0964
382.7304, 713.7742
383.2126, 715.1990
383.6947, 716.3533
384.1768, 717.1467
384.6589, 717.1244
385.1410, 715.3117
385.6231, 712.8193
386.1053, 711.6963
386.5874, 712.0097
387.0695, 712.4051
387.5516, 711.4064
388.0337, 709.7551
388.5158, 708.7636
388.9980, 709.2255
389.4801, 710.0577
389.9622, 710.4125
390.4443, 710.3698
390.9264, 710.2754
391.4085, 710.6218
391.8907, 710.8167
392.3728, 710.1385
392.8549, 707.8265
393.3370, 706.3157
393.8191, 707.3459
394.3012, 709.7725
394.7834, 711.6671
395.2655, 712.1225
395.7476, 712.2294
396.2297, 712.4772
396.7118, 712.9714
397.1939, 712.9510
397.6761, 711.6556
398.1582, 710.1257
398.6403, 709.2303
399.1224, 710.0989
399.6045, 710.3456
400.0866, 709.3086
400.5688, 707.3040
401.0509, 706.2715
401.5330, 707.0007
402.0151, 707.7490
402.4972, 707.5910
402.9793, 705.9093
403.4615, 704.9886
403.9436, 705.0977
404.4257, 705.7512
404.9078, 706.0247
405.3899, 705.7091
405.8720, 705.8536
406.3542, 707.2445
406.8363, 709.6656
407.3184, 709.7723
407.8005, 707.0251
408.2826, 704.1631
408.7647, 704.4200
409.2469, 707.4937
409.7290, 709.3900
410.2111, 709.0932
410.6932, 707.5323
411.1753, 706.1854
411.6574, 705.0960
412.1396, 704.5425
412.6217, 705.2437
413.1038, 706.5117
413.5859, 706.9508
414.0680, 706.3478
414.5501, 705.4899
415.0323, 704.9453
415.5144, 704.6992
415.9965, 704.7081
416.4786, 705.1466
416.9607, 705.6808
417.4428, 705.9846
417.9250, 706.0842
418.4071, 706.3319
418.8892, 707.6445
419.3713, 708.7816
419.8534, 708.5117
420.3355, 705.1200
420.8177, 702.6771
421.2998, 703.2719
421.7819, 705.7170
422.2640, 707.4410
422.7461, 707.3561
423.2282, 706.9225
423.7104, 706.7899
424.1925, 707.2791
424.6746, 706.8943
425.1567, 704.0177
425.6388, 701.2067
426.1209, 700.8401
426.6031, 704.9799
427.0852, 708.2311
427.5673, 709.8673
428.0494, 710.0486
428.5315, 709.4360
429.0136, 707.5652
429.4958, 705.8449
429.9779, 705.2062
430.4600, 705.8602
430.9421, 705.9894
431.4242, 705.3680
431.9063, 704.5452
432.3885, 704.4537
432.8706, 705.1047
433.3527, 705.7687
433.8348, 706.4012
434.3169, 706.8125
434.7990, 706.1410
435.2812, 704.3932
435.7633, 702.7006
436.2454, 702.1787
436.7275, 702.4504
437.2096, 702.5622
437.6917, 702.2028
438.1739, 701.9599
438.6560, 702.7518
439.1381, 704.2003
439.6202, 705.3053
440.1023, 705.3860
440.5844, 705.0225
441.0666, 704.6025
441.5487, 704.1533
442.0308, 703.8118
442.5129, 703.7021
442.9950, 703.7101
443.4771, 703.7264
443.9593, 703.8652
444.4414, 703.8488
444.9235, 703.2112
445.4056, 702.2725
445.8877, 702.1537
446.3698, 703.8990
446.8520, 705.7177
447.3341, 706.9645
447.8162, 707.6237
448.2983, 707.5986
448.7804, 705.9602
449.2625, 704.2753
449.7447, 704.6816
450.2268, 708.7805
450.7089, 711.2033
451.1910, 710.5055
451.6731, 707.3074
452.1552, 704.6686
452.6374, 702.6201
453.1195, 701.2218
453.6016, 700.7025
454.0837, 701.0483
454.5658, 701.4414
455.0479, 701.8578
455.5301, 702.2615
456.0122, 702.6437
456.4943, 702.9889
456.9764, 703.1393
457.4585, 702.7875
457.9406, 702.3537
458.4228, 702.7452
458.9049, 703.8625
459.3870, 704.7832
459.8691, 704.6010
460.3512, 703.9100
460.8333, 703.3899
461.3155, 703.0904
461.7976, 703.1730
462.2797, 704.2048
462.7618, 705.6277
463.2439, 706.4511
463.7260, 705.4643
464.2082, 704.5529
464.6903, 704.6124
465.1724, 705.6735
465.6545, 706.8920
466.1366, 709.0323
466.6187, 710.6697
467.1009, 710.8607
467.5830, 707.6064
468.0651, 705.5476
468.5472, 705.1293
469.0293, 705.8019
469.5114, 706.5430
469.9936, 707.5482
470.4757, 708.2050
470.9578, 708.0743
471.4399, 707.1708
471.9220, 707.4954
472.4041, 709.4173
472.8863, 711.4372
473.3684, 712.1271
473.8505, 711.5139
474.3326, 710.6982
474.8147, 709.7352
475.2968, 708.8405
475.7790, 708.3942
476.2611, 708.3657
476.7432, 708.5620
477.2253, 709.4525
477.7074, 710.2930
478.1895, 709.3409
478.6717, 706.5984
479.1538, 704.5266
479.6359, 705.8018
480.1180, 708.5468
480.6001, 710.3965
481.0822, 710.3429
481.5644, 709.9915
482.0465, 710.2000
482.5286, 710.7258
483.0107, 711.0392
483.4928, 710.9785
483.9749, 710.6671
484.4571, 709.9402
484.9392, 708.6472
485.4213, 708.0558
485.9034, 708.7505
486.3855, 709.8599
486.8676, 710.7977
487.3498, 711.2956
487.8319, 712.1204
488.3140, 713.5815
488.7961, 715.2502
489.2782, 716.0661
489.7603, 715.8605
490.2425, 715.3041
490.7246, 714.5335
491.2067, 713.5884
491.6888, 712.9903
492.1709, 712.7988
492.6530, 712.6844
493.1352, 712.2286
493.6173, 711.5730
494.0994, 711.4156
494.5815, 712.1334
495.0636, 712.8422
495.5457, 711.8307
496.0279, 709.7610
496.5100, 708.5897
496.9921, 710.3831
497.4742, 712.7741
497.9563, 713.2992
498.4384, 711.9887
498.9206, 711.1730
499.4027, 712.7568
499.8848, 714.9363
500.3669, 716.2160
500.8490, 715.5720
501.3311, 715.1662
501.8133, 715.8052
502.2954, 716.9348
502.7775, 717.5109
503.2596, 716.7519
503.7417, 716.2206
504.2238, 716.3128
504.7060, 717.0106
505.1881, 717.6942
505.6702, 718.5668
506.1523, 719.0741
506.6344, 718.5258
507.1165, 716.6154
507.5987, 715.9998
508.0808, 717.1252
508.5629, 719.0236
509.0450, 720.3826
509.5271, 721.2122
510.0092, 721.5867
510.4914, 721.4880
510.9735, 720.9954
511.4556, 719.8378
511.9377, 718.1781
512.4199, 717.2789
512.9020, 718.7608
513.3841, 721.1735
513.8662, 722.7821
514.3483, 723.2855
514.8304, 723.2509
515.3126, 722.6016
515.7947, 721.7473
516.2768, 721.2010
516.7589, 721.4323
517.2410, 721.6493
517.7231, 721.5866
518.2053, 721.2896
518.6874, 721.0101
519.1695, 720.7072
519.6516, 720.4932
520.1337, 720.3494
520.6158, 720.1709
521.0980, 720.5938
521.5801, 721.8875
522.0622, 723.4557
522.5443, 724.8751
523.0264, 726.2606
523.5085, 726.7569
523.9907, 725.9647
524.4728, 724.5360
524.9549, 723.8671
525.4370, 723.9373
525.9191, 724.2170
526.4012, 724.3898
526.8834, 724.5936
527.3655, 725.3406
527.8476, 726.6069
528.3297, 727.5302
528.8118, 727.3267
529.2939, 726.4146
529.7761, 725.1448
530.2582, 723.2004
530.7403, 721.8684
531.2224, 722.1761
531.7045, 723.5150
532.1866, 724.8847
532.6688, 726.0931
533.1509, 727.1973
533.6330, 728.4508
534.1151, 729.7900
534.5972, 730.1613
535.0793, 728.3403
535.5615, 726.8378
536.0436, 727.1325
536.5257, 730.2073
537.0078, 731.4280
537.4899, 730.1289
537.9720, 728.0587
538.4542, 727.5316
538.9363, 728.6507
539.4184, 729.7383
539.9005, 730.6437
540.3826, 731.0392
540.8647, 729.4977
541.3469, 726.3514
541.8290, 724.1084
542.3111, 724.9667
542.7932, 727.2696
543.2753, 728.6365
543.7574, 728.9759
544.2396, 728.9352
544.7217, 728.1613
545.2038, 727.5864
545.6859, 728.3084
546.1680, 731.5545
546.6501, 734.2805
547.1323, 735.1240
547.6144, 734.8062
548.0965, 734.6085
548.5786, 734.6248
549.0607, 734.8741
549.5428, 735.4287
550.0250, 736.2588
550.5071, 737.0512
550.9892, 737.8555
551.4713, 738.5488
551.9534, 739.1697
552.4355, 739.7754
552.9177, 739.6574
553.3998, 738.6674
553.8819, 737.4325
554.3640, 736.6854
554.8461, 736.3565
555.3282, 736.0167
555.8104, 735.4466
556.2925, 735.0211
556.7746, 735.5652
557.2567, 736.7403
557.7388, 737.4923
558.2209, 736.7248
558.7031, 735.7080
559.1852, 735.3990
559.6673, 735.8199
560.1494, 736.5422
560.6315, 737.5330
561.1136, 738.6727
561.5958, 739.9469
562.0779, 741.8067
562.5600, 742.9122
563.0421, 742.5035
563.5242, 741.6999
564.0063, 742.0591
564.4885, 744.4971
564.9706, 745.8040
565.4527, 744.8506
565.9348, 742.5731
566.4169, 742.4124
566.8990, 744.6135
567.3812, 746.7943
567.8633, 747.7675
568.3454, 747.7131
568.8275, 746.9621
569.3096, 745.4980
569.7917, 744.5621
570.2739, 745.9919
570.7560, 748.4315
571.2381, 749.6616
571.7202, 748.8406
572.2023, 747.9894
572.6844, 748.2538
573.1666, 749.3555
573.6487, 750.8798
574.1308, 754.2889
574.6129, 756.4335
575.0950, 755.4534
575.5771, 751.9949
576.0593, 750.0165
576.5414, 748.1273
577.0235, 749.6556
577.5056, 757.5623
577.9877, 773.1444
578.4698, 781.6159
578.9520, 781.9020
579.4341, 777.7260
579.9162, 770.6277
580.3983, 761.0105
580.8804, 754.9918
581.3625, 753.9014
581.8447, 755.2838
582.3268, 756.6407
582.8089, 757.7869
583.2910, 758.2142
583.7731, 757.0010
584.2552, 755.6232
584.7373, 755.4897
585.2194, 756.3492
585.7015, 757.2494
586.1837, 757.8636
586.6658, 758.3163
587.1479, 758.5411
587.6300, 758.4247
588.1121, 758.8235
588.5942, 760.4503
589.0764, 762.1686
589.5585, 763.1923
590.0406, 763.0187
590.5227, 762.8719
591.0048, 761.3181
591.4869, 761.5774
591.9691, 772.6303
592.4512, 795.3946
592.9333, 806.9323
593.4154, 796.9673
593.8975, 776.1360
594.3796, 765.3795
594.8618, 763.9796
595.3439, 767.0159
595.8260, 775.8058
596.3081, 785.1154
596.7902, 789.1301
597.2723, 787.6736
597.7545, 783.8392
598.2366, 776.2999
598.7187, 768.9856
599.2008, 765.0463
599.6829, 766.4836
600.1650, 768.0005
600.6472, 769.1478
601.1293, 769.8246
601.6114, 769.8275
602.0935, 768.6866
602.5756, 767.8144
603.0577, 767.2657
603.5399, 767.1933
604.0220, 768.3743
604.5041, 770.9904
604.9862, 772.8319
605.4683, 771.4746
605.9504, 768.9949
606.4326, 770.8718
606.9147, 777.0757
607.3968, 787.7780
607.8789, 812.3178
608.3610, 837.0751
608.8431, 842.4642
609.3253, 823.8535
609.8074, 803.1897
610.2895, 789.7635
610.7716, 781.4323
611.2537, 776.0392
611.7358, 774.6931
612.2180, 774.4268
612.7001, 775.7339
613.1822, 777.6926
613.6643, 778.7463
614.1464, 778.4737
614.6285, 778.1987
615.1107, 778.1083
615.5928, 778.2890
616.0749, 779.4572
616.5570, 781.7421
617.0391, 783.3138
617.5212, 781.9796
618.0034, 779.2291
618.4855, 779.5593
618.9676, 782.9939
619.4497, 786.4162
619.9318, 786.9623
620.4139, 786.3248
620.8961, 786.5597
621.3782, 788.3917
621.8603, 789.9125
622.3424, 790.0159
622.8245, 789.4715
623.3066, 789.1649
623.7888, 789.4229
624.2709, 789.7021
624.7530, 789.9135
625.2351, 790.1281
625.7172, 790.5148
626.1993, 791.1052
626.6815, 791.7662
627.1636, 792.4728
627.6457, 793.2098
628.1278, 793.9772
628.6099, 794.7746
629.0920, 795.3961
629.5742, 795.4277
630.0563, 795.2763
630.5384, 795.9410
631.0205, 797.4785
631.5026, 798.6122
631.9847, 798.0250
632.4669, 796.8263
632.9490, 796.0442
633.4311, 795.8632
633.9132, 796.2104
634.3953, 797.8464
634.8774, 799.6907
635.3596, 800.3914
635.8417, 799.1093
636.3238, 798.0694
636.8059, 797.5011
637.2880, 797.3167
637.7701, 797.3197
638.2523, 797.5104
638.7344, 797.8334
639.2165, 798.1526
639.6986, 798.6422
640.1807, 800.0868
640.6628, 802.3669
