##NAMES=Rutherfordine
##RRUFFID=R110154
##IDEAL CHEMISTRY=(U^6+^O_2_)CO_3_
##LOCALITY=Shinkolobwe mine, Zaire
##OWNER=RRUFF
##SOURCE=Luiz Menezes, from Vincent Bourgoin
##DESCRIPTION=Pale yellow bladed crystals associated with orange w√∂lsendorfite 
##STATUS=The identification of this mineral has been confirmed by single-crystal X-ray diffraction.
##URL=rruff.info/R110154
151.7210, 1571.980
152.2031, 1768.639
152.6852, 1984.715
153.1674, 2226.052
153.6495, 2486.708
154.1316, 2759.374
154.6137, 3047.348
155.0958, 3343.970
155.5779, 3651.982
156.0601, 3985.478
156.5422, 4295.801
157.0243, 4603.778
157.5064, 4881.161
157.9885, 5073.247
158.4706, 5166.819
158.9528, 5173.500
159.4349, 5089.250
159.9170, 4865.829
160.3991, 4636.333
160.8812, 4423.137
161.3633, 4229.462
161.8455, 4063.764
162.3276, 3925.864
162.8097, 3819.563
163.2918, 3745.798
163.7739, 3716.374
164.2560, 3705.407
164.7382, 3706.512
165.2203, 3718.366
165.7024, 3735.901
166.1845, 3749.586
166.6666, 3771.186
167.1487, 3811.016
167.6309, 3876.439
168.1130, 3956.679
168.5951, 4047.800
169.0772, 4149.152
169.5593, 4254.702
170.0414, 4361.597
170.5236, 4470.938
171.0057, 4582.382
171.4878, 4692.186
171.9699, 4808.546
172.4520, 4943.486
172.9341, 5095.741
173.4163, 5241.897
173.8984, 5367.429
174.3805, 5476.171
174.8626, 5571.058
175.3447, 5652.584
175.8268, 5723.343
176.3090, 5780.266
176.7911, 5822.688
177.2732, 5870.331
177.7553, 5925.259
178.2374, 5971.633
178.7195, 6001.122
179.2017, 6004.280
179.6838, 5992.998
180.1659, 5983.575
180.6480, 5976.187
181.1301, 5971.174
181.6122, 5965.515
182.0944, 5961.603
182.5765, 5967.370
183.0586, 5991.084
183.5407, 6025.860
184.0228, 6058.187
184.5049, 6087.111
184.9871, 6115.816
185.4692, 6142.835
185.9513, 6170.297
186.4334, 6209.083
186.9155, 6266.460
187.3976, 6339.284
187.8798, 6418.641
188.3619, 6503.720
188.8440, 6595.153
189.3261, 6694.816
189.8082, 6802.837
190.2903, 6909.725
190.7725, 7013.519
191.2546, 7114.353
191.7367, 7214.212
192.2188, 7325.491
192.7009, 7407.844
193.1830, 7390.649
193.6652, 7275.017
194.1473, 7101.501
194.6294, 6857.975
195.1115, 6553.961
195.5936, 6316.716
196.0757, 6157.792
196.5579, 6059.018
197.0400, 5992.502
197.5221, 5959.022
198.0042, 5946.455
198.4863, 5952.080
198.9684, 5976.023
199.4506, 6003.923
199.9327, 6035.226
200.4148, 6069.073
200.8969, 6101.927
201.3790, 6133.007
201.8611, 6169.056
202.3433, 6216.375
202.8254, 6276.236
203.3075, 6332.016
203.7896, 6380.372
204.2717, 6425.160
204.7538, 6476.311
205.2360, 6535.200
205.7181, 6594.917
206.2002, 6648.729
206.6823, 6693.849
207.1644, 6751.612
207.6465, 6828.189
208.1287, 6915.672
208.6108, 6991.349
209.0929, 7050.932
209.5750, 7110.633
210.0571, 7178.346
210.5392, 7253.942
211.0214, 7340.181
211.5035, 7441.083
211.9856, 7551.375
212.4677, 7656.586
212.9498, 7757.226
213.4319, 7852.751
213.9140, 7945.103
214.3962, 8036.849
214.8783, 8118.702
215.3604, 8193.867
215.8425, 8258.103
216.3246, 8290.604
216.8067, 8288.307
217.2889, 8261.131
217.7710, 8214.778
218.2531, 8149.289
218.7352, 8062.291
219.2173, 7947.124
219.6994, 7808.577
220.1816, 7674.358
220.6637, 7538.087
221.1458, 7412.757
221.6279, 7307.665
222.1100, 7223.568
222.5921, 7155.261
223.0743, 7103.363
223.5564, 7066.841
224.0385, 7039.321
224.5206, 7023.438
225.0027, 7013.488
225.4848, 7003.154
225.9670, 6980.896
226.4491, 6986.853
226.9312, 7026.862
227.4133, 7097.452
227.8954, 7186.067
228.3775, 7294.552
228.8597, 7415.788
229.3418, 7544.300
229.8239, 7678.462
230.3060, 7823.386
230.7881, 7982.415
231.2702, 8152.853
231.7524, 8319.905
232.2345, 8498.842
232.7166, 8649.869
233.1987, 8751.677
233.6808, 8814.599
234.1629, 8803.939
234.6451, 8704.555
235.1272, 8528.815
235.6093, 8324.925
236.0914, 8072.735
236.5735, 7820.250
237.0556, 7591.745
237.5378, 7383.809
238.0199, 7207.316
238.5020, 7063.516
238.9841, 6950.952
239.4662, 6869.165
239.9483, 6819.136
240.4305, 6798.643
240.9126, 6808.288
241.3947, 6858.001
241.8768, 6915.794
242.3589, 6977.149
242.8410, 7045.438
243.3232, 7137.328
243.8053, 7268.874
244.2874, 7401.437
244.7695, 7517.711
245.2516, 7628.296
245.7337, 7701.495
246.2159, 7739.581
246.6980, 7738.962
247.1801, 7689.461
247.6622, 7591.537
248.1443, 7443.298
248.6264, 7236.112
249.1086, 6929.288
249.5907, 6657.199
250.0728, 6421.011
250.5549, 6221.032
251.0370, 6059.505
251.5191, 5942.571
252.0013, 5854.224
252.4834, 5787.338
252.9655, 5744.087
253.4476, 5717.794
253.9297, 5705.979
254.4118, 5712.274
254.8940, 5745.852
255.3761, 5812.406
255.8582, 5896.474
256.3403, 5992.875
256.8224, 6103.780
257.3046, 6217.600
257.7867, 6329.423
258.2688, 6445.910
258.7509, 6579.934
259.2330, 6732.220
259.7151, 6898.458
260.1973, 7103.662
260.6794, 7386.729
261.1615, 7519.872
261.6436, 7490.677
262.1257, 7322.423
262.6078, 7023.383
263.0900, 6527.224
263.5721, 6064.927
264.0542, 5719.730
264.5363, 5498.151
265.0184, 5330.459
265.5005, 5227.145
265.9827, 5161.663
266.4648, 5093.657
266.9469, 5017.914
267.4290, 4956.502
267.9111, 4918.788
268.3932, 4906.545
268.8754, 4890.885
269.3575, 4870.013
269.8396, 4848.296
270.3217, 4831.213
270.8038, 4818.882
271.2859, 4810.554
271.7681, 4807.208
272.2502, 4808.573
272.7323, 4807.968
273.2144, 4805.425
273.6965, 4800.784
274.1786, 4793.054
274.6608, 4781.314
275.1429, 4771.217
275.6250, 4764.496
276.1071, 4760.739
276.5892, 4756.871
277.0714, 4753.308
277.5535, 4748.653
278.0356, 4740.333
278.5177, 4727.649
278.9998, 4718.636
279.4819, 4716.451
279.9641, 4718.826
280.4462, 4715.280
280.9283, 4704.600
281.4104, 4693.072
281.8925, 4686.319
282.3746, 4684.447
282.8568, 4681.163
283.3389, 4675.055
283.8210, 4667.377
284.3031, 4661.189
284.7852, 4656.552
285.2673, 4653.796
285.7495, 4655.844
286.2316, 4661.953
286.7137, 4659.450
287.1958, 4643.299
287.6779, 4623.011
288.1600, 4621.531
288.6422, 4639.173
289.1243, 4654.878
289.6064, 4651.340
290.0885, 4632.794
290.5706, 4622.220
291.0527, 4623.044
291.5349, 4628.781
292.0170, 4629.530
292.4991, 4625.542
292.9812, 4620.448
293.4633, 4614.204
293.9454, 4608.201
294.4276, 4608.337
294.9097, 4615.983
295.3918, 4625.087
295.8739, 4626.747
296.3560, 4622.589
296.8381, 4620.326
297.3203, 4626.505
297.8024, 4636.597
298.2845, 4640.904
298.7666, 4638.926
299.2487, 4634.597
299.7308, 4629.991
300.2130, 4625.933
300.6951, 4624.913
301.1772, 4631.304
301.6593, 4639.605
302.1414, 4641.983
302.6235, 4638.466
303.1057, 4631.803
303.5878, 4622.825
304.0699, 4612.442
304.5520, 4602.484
305.0341, 4593.213
305.5162, 4584.975
305.9984, 4577.028
306.4805, 4569.841
306.9626, 4566.073
307.4447, 4573.361
307.9268, 4583.418
308.4089, 4584.796
308.8911, 4570.899
309.3732, 4553.267
309.8553, 4540.163
310.3374, 4530.860
310.8195, 4522.637
311.3016, 4512.392
311.7838, 4503.464
312.2659, 4500.224
312.7480, 4507.387
313.2301, 4510.913
313.7122, 4498.723
314.1943, 4476.753
314.6765, 4457.771
315.1586, 4447.607
315.6407, 4442.183
316.1228, 4439.281
316.6049, 4438.929
317.0870, 4440.043
317.5692, 4444.669
318.0513, 4449.935
318.5334, 4451.773
319.0155, 4444.569
319.4976, 4437.376
319.9797, 4435.201
320.4619, 4438.941
320.9440, 4440.344
321.4261, 4434.045
321.9082, 4425.467
322.3903, 4419.761
322.8724, 4417.954
323.3546, 4419.090
323.8367, 4423.667
324.3188, 4431.547
324.8009, 4439.952
325.2830, 4452.399
325.7651, 4462.786
326.2473, 4467.146
326.7294, 4459.321
327.2115, 4452.355
327.6936, 4446.547
328.1757, 4442.383
328.6578, 4441.659
329.1400, 4444.097
329.6221, 4450.364
330.1042, 4461.410
330.5863, 4484.982
331.0684, 4500.292
331.5505, 4500.356
332.0327, 4493.291
332.5148, 4497.455
332.9969, 4519.464
333.4790, 4543.654
333.9611, 4565.192
334.4432, 4583.389
334.9254, 4601.026
335.4075, 4617.700
335.8896, 4633.697
336.3717, 4649.184
336.8538, 4663.325
337.3359, 4678.553
337.8180, 4696.106
338.3001, 4715.855
338.7823, 4733.451
339.2644, 4749.339
339.7465, 4762.096
340.2286, 4769.646
340.7107, 4771.280
341.1928, 4772.546
341.6750, 4775.709
342.1571, 4779.040
342.6392, 4775.827
343.1213, 4766.079
343.6034, 4749.977
344.0855, 4725.059
344.5677, 4691.965
345.0498, 4660.741
345.5319, 4632.829
346.0140, 4607.297
346.4961, 4582.640
346.9782, 4558.942
347.4604, 4535.796
347.9425, 4512.194
348.4246, 4488.880
348.9067, 4470.646
349.3888, 4458.677
349.8709, 4447.115
350.3531, 4425.021
350.8352, 4396.158
351.3173, 4374.595
351.7994, 4373.868
352.2815, 4381.508
352.7636, 4374.292
353.2458, 4352.183
353.7279, 4330.106
354.2100, 4321.526
354.6921, 4321.400
355.1742, 4321.297
355.6563, 4320.055
356.1385, 4316.127
356.6206, 4306.040
357.1027, 4291.014
357.5848, 4277.483
358.0669, 4269.493
358.5490, 4264.595
359.0312, 4260.810
359.5133, 4258.375
359.9954, 4255.563
360.4775, 4253.396
360.9596, 4250.171
361.4417, 4242.319
361.9239, 4218.490
362.4060, 4197.265
362.8881, 4191.043
363.3702, 4204.145
363.8523, 4215.859
364.3344, 4219.577
364.8166, 4218.338
365.2987, 4215.587
365.7808, 4208.684
366.2629, 4203.872
366.7450, 4204.093
367.2271, 4209.315
367.7093, 4212.579
368.1914, 4211.533
368.6735, 4209.190
369.1556, 4207.483
369.6377, 4208.570
370.1198, 4207.564
370.6020, 4201.863
371.0841, 4193.530
371.5662, 4190.676
372.0483, 4200.216
372.5304, 4206.758
373.0125, 4202.759
373.4947, 4182.547
373.9768, 4167.875
374.4589, 4158.772
374.9410, 4155.013
375.4231, 4157.814
375.9052, 4170.774
376.3874, 4180.419
376.8695, 4182.099
377.3516, 4176.069
377.8337, 4169.443
378.3158, 4160.917
378.7979, 4155.353
379.2801, 4160.777
379.7622, 4178.104
380.2443, 4187.186
380.7264, 4181.089
381.2085, 4166.902
381.6906, 4165.451
382.1728, 4176.956
382.6549, 4187.612
383.1370, 4184.948
383.6191, 4172.835
384.1012, 4167.486
384.5833, 4171.456
385.0655, 4178.741
385.5476, 4182.417
386.0297, 4182.851
386.5118, 4181.291
386.9939, 4175.252
387.4760, 4168.839
387.9582, 4170.448
388.4403, 4180.369
388.9224, 4187.526
389.4045, 4177.000
389.8866, 4159.661
390.3687, 4151.303
390.8509, 4165.287
391.3330, 4181.244
391.8151, 4182.461
392.2972, 4172.584
392.7793, 4166.404
393.2614, 4178.623
393.7436, 4192.603
394.2257, 4195.133
394.7078, 4177.901
395.1899, 4163.775
395.6720, 4163.265
396.1541, 4170.494
396.6363, 4176.037
397.1184, 4177.112
397.6005, 4176.549
398.0826, 4175.409
398.5647, 4173.898
399.0468, 4170.441
399.5290, 4162.652
400.0111, 4154.110
400.4932, 4147.671
400.9753, 4144.452
401.4574, 4141.886
401.9395, 4139.726
402.4217, 4138.078
402.9038, 4137.510
403.3859, 4138.460
403.8680, 4139.896
404.3501, 4142.589
404.8322, 4149.406
405.3144, 4146.285
405.7965, 4129.556
406.2786, 4107.307
406.7607, 4092.449
407.2428, 4085.880
407.7249, 4081.886
408.2071, 4079.637
408.6892, 4078.578
409.1713, 4074.166
409.6534, 4065.563
410.1355, 4058.303
410.6176, 4059.332
411.0998, 4066.982
411.5819, 4070.995
412.0640, 4067.889
412.5461, 4062.761
413.0282, 4066.354
413.5103, 4076.771
413.9925, 4083.013
414.4746, 4074.137
414.9567, 4058.501
415.4388, 4049.719
415.9209, 4049.314
416.4030, 4050.809
416.8852, 4049.051
417.3673, 4045.504
417.8494, 4042.551
418.3315, 4041.735
418.8136, 4041.352
419.2957, 4040.399
419.7779, 4038.977
420.2600, 4037.515
420.7421, 4039.075
421.2242, 4039.007
421.7063, 4033.247
422.1884, 4016.478
422.6706, 4002.725
423.1527, 3994.532
423.6348, 3991.668
424.1169, 3993.533
424.5990, 4006.002
425.0811, 4017.430
425.5633, 4025.123
426.0454, 4029.288
426.5275, 4027.395
427.0096, 4011.688
427.4917, 3995.893
427.9738, 3992.141
428.4560, 4008.047
428.9381, 4020.022
429.4202, 4025.676
429.9023, 4025.435
430.3844, 4019.452
430.8665, 4005.144
431.3487, 3992.558
431.8308, 3988.327
432.3129, 3993.095
432.7950, 3992.744
433.2771, 3985.789
433.7592, 3977.446
434.2414, 3975.302
434.7235, 3978.799
435.2056, 3980.600
435.6877, 3976.841
436.1698, 3971.082
436.6519, 3971.850
437.1341, 3978.846
437.6162, 3986.008
438.0983, 3990.249
438.5804, 3991.396
439.0625, 3988.809
439.5446, 3981.953
440.0268, 3972.857
440.5089, 3958.230
440.9910, 3942.788
441.4731, 3936.340
441.9552, 3951.841
442.4373, 3970.841
442.9195, 3982.839
443.4016, 3987.382
443.8837, 3986.897
444.3658, 3975.576
444.8479, 3963.310
445.3300, 3958.159
445.8122, 3969.886
446.2943, 3977.896
446.7764, 3976.460
447.2585, 3968.740
447.7406, 3962.846
448.2227, 3960.286
448.7049, 3958.679
449.1870, 3957.289
449.6691, 3955.981
450.1512, 3956.231
450.6333, 3959.782
451.1154, 3963.100
451.5976, 3961.833
452.0797, 3953.384
452.5618, 3949.898
453.0439, 3955.600
453.5260, 3966.335
454.0081, 3968.887
454.4903, 3962.337
454.9724, 3953.704
455.4545, 3945.323
455.9366, 3937.660
456.4187, 3933.386
456.9008, 3932.496
457.3830, 3935.476
457.8651, 3945.453
458.3472, 3960.193
458.8293, 3971.936
459.3114, 3976.607
459.7935, 3978.661
460.2757, 3985.585
460.7578, 3995.789
461.2399, 4001.618
461.7220, 3996.331
462.2041, 3985.536
462.6862, 3972.282
463.1684, 3954.840
463.6505, 3945.189
464.1326, 3959.341
464.6147, 3982.153
465.0968, 3994.201
465.5789, 3976.075
466.0611, 3960.085
466.5432, 3958.660
467.0253, 3970.408
467.5074, 3976.689
467.9895, 3967.506
468.4716, 3958.820
468.9538, 3958.676
469.4359, 3972.585
469.9180, 3982.943
470.4001, 3989.396
470.8822, 3992.556
471.3643, 3992.745
471.8465, 3988.453
472.3286, 3985.415
472.8107, 3985.230
473.2928, 3987.473
473.7749, 3990.984
474.2570, 3996.507
474.7392, 3999.061
475.2213, 3991.550
475.7034, 3976.199
476.1855, 3968.890
476.6676, 3972.234
477.1497, 3980.702
477.6319, 3989.134
478.1140, 3996.941
478.5961, 4001.969
479.0782, 4002.822
479.5603, 4000.732
480.0424, 3995.318
480.5246, 3987.180
481.0067, 3981.363
481.4888, 3983.096
481.9709, 3987.352
482.4530, 3989.563
482.9352, 3988.004
483.4173, 3986.389
483.8994, 3987.338
484.3815, 3988.839
484.8636, 3987.837
485.3457, 3981.371
485.8279, 3974.644
486.3100, 3967.552
486.7921, 3960.237
487.2742, 3958.637
487.7563, 3969.658
488.2384, 3979.506
488.7206, 3979.295
489.2027, 3962.441
489.6848, 3953.997
490.1669, 3956.860
490.6490, 3965.501
491.1311, 3972.934
491.6133, 3979.891
492.0954, 3979.370
492.5775, 3964.354
493.0596, 3941.438
493.5417, 3937.958
494.0238, 3954.131
494.5060, 3972.012
494.9881, 3978.289
495.4702, 3975.930
495.9523, 3971.376
496.4344, 3964.539
496.9165, 3959.591
497.3987, 3962.185
497.8808, 3969.505
498.3629, 3976.222
498.8450, 3981.461
499.3271, 3984.309
499.8092, 3984.107
500.2914, 3980.969
500.7735, 3975.437
501.2556, 3961.570
501.7377, 3949.933
502.2198, 3948.004
502.7019, 3961.943
503.1841, 3971.741
503.6662, 3970.207
504.1483, 3965.321
504.6304, 3966.887
505.1125, 3983.662
505.5946, 3992.342
506.0768, 3986.124
506.5589, 3968.684
507.0410, 3958.913
507.5231, 3958.772
508.0052, 3960.655
508.4873, 3960.101
508.9695, 3957.048
509.4516, 3958.520
509.9337, 3965.841
510.4158, 3972.146
510.8979, 3966.135
511.3800, 3951.121
511.8622, 3942.960
512.3443, 3948.655
512.8264, 3958.982
513.3085, 3961.042
513.7906, 3956.971
514.2728, 3954.389
514.7549, 3960.171
515.2370, 3967.672
515.7191, 3971.617
516.2012, 3971.587
516.6833, 3968.811
517.1655, 3962.010
517.6476, 3953.782
518.1297, 3946.277
518.6118, 3936.402
519.0939, 3931.741
519.5760, 3935.923
520.0582, 3946.075
520.5403, 3955.376
521.0224, 3964.319
521.5045, 3971.505
521.9866, 3976.148
522.4688, 3978.240
522.9509, 3980.520
523.4330, 3983.066
523.9151, 3985.521
524.3972, 3987.795
524.8793, 3989.858
525.3615, 3990.695
525.8436, 3989.949
526.3257, 3988.596
526.8078, 3988.111
527.2899, 3988.311
527.7720, 3988.404
528.2542, 3988.068
528.7363, 3987.449
529.2184, 3986.392
529.7005, 3985.075
530.1826, 3984.430
530.6647, 3985.798
531.1469, 3987.671
531.6290, 3989.241
532.1111, 3990.813
532.5932, 3990.136
533.0753, 3982.145
533.5574, 3973.341
534.0396, 3970.590
534.5217, 3985.366
535.0038, 3994.202
535.4859, 3990.228
535.9680, 3977.835
536.4501, 3970.559
536.9323, 3968.908
537.4144, 3971.641
537.8965, 3979.798
538.3786, 3993.542
538.8607, 4002.837
539.3428, 4006.716
539.8250, 4008.729
540.3071, 4011.965
540.7892, 4016.198
541.2713, 4020.079
541.7534, 4023.497
542.2355, 4026.078
542.7177, 4025.823
543.1998, 4024.020
543.6819, 4024.802
544.1640, 4035.721
544.6461, 4046.125
545.1282, 4043.072
545.6104, 4028.861
546.0925, 4017.764
546.5746, 4019.150
547.0567, 4024.827
547.5388, 4030.039
548.0209, 4034.783
548.5031, 4036.711
548.9852, 4031.087
549.4673, 4024.432
549.9494, 4024.050
550.4315, 4039.331
550.9136, 4045.823
551.3958, 4036.409
551.8779, 4017.654
552.3600, 4010.767
552.8421, 4019.620
553.3242, 4026.394
553.8063, 4021.482
554.2885, 4007.084
554.7706, 4001.946
555.2527, 4006.821
555.7348, 4013.109
556.2169, 4013.527
556.6990, 4009.570
557.1812, 4004.146
557.6633, 3996.781
558.1454, 3991.840
558.6275, 3996.975
559.1096, 4007.013
559.5917, 4012.920
560.0739, 4006.238
560.5560, 3999.057
561.0381, 3996.245
561.5202, 3997.735
562.0023, 4002.819
562.4844, 4020.121
562.9666, 4033.380
563.4487, 4032.392
563.9308, 4012.312
564.4129, 4002.671
564.8950, 4010.198
565.3771, 4020.738
565.8593, 4021.461
566.3414, 4008.818
566.8235, 4001.635
567.3056, 4002.496
567.7877, 4008.300
568.2698, 4015.349
568.7520, 4023.419
569.2341, 4027.157
569.7162, 4022.147
570.1983, 4013.303
570.6804, 4009.626
571.1625, 4010.638
571.6447, 4012.541
572.1268, 4013.173
572.6089, 4013.393
573.0910, 4013.822
573.5731, 4014.478
574.0552, 4016.030
574.5374, 4021.482
575.0195, 4026.629
575.5016, 4027.551
575.9837, 4013.668
576.4658, 4007.643
576.9479, 4015.760
577.4301, 4031.820
577.9122, 4044.119
578.3943, 4052.287
578.8764, 4057.384
579.3585, 4059.892
579.8406, 4059.537
580.3228, 4052.488
580.8049, 4037.199
581.2870, 4025.177
581.7691, 4026.999
582.2512, 4039.027
582.7333, 4046.919
583.2155, 4049.928
583.6975, 4048.933
584.1796, 4041.469
584.6617, 4031.457
585.1439, 4025.224
585.6260, 4024.701
586.1081, 4028.128
586.5902, 4037.729
587.0723, 4050.236
587.5544, 4059.148
588.0366, 4061.516
588.5187, 4061.249
589.0008, 4056.047
589.4829, 4046.753
589.9650, 4048.011
590.4471, 4069.387
590.9293, 4088.634
591.4114, 4093.066
591.8935, 4079.344
592.3756, 4075.812
592.8577, 4085.314
593.3398, 4097.261
593.8220, 4100.006
594.3041, 4094.740
594.7862, 4090.378
595.2683, 4088.339
595.7504, 4088.405
596.2325, 4092.938
596.7147, 4099.567
597.1968, 4102.000
597.6789, 4093.699
598.1610, 4083.492
598.6431, 4075.998
599.1252, 4071.636
599.6074, 4071.753
600.0895, 4084.528
600.5716, 4095.309
601.0537, 4094.442
601.5358, 4076.729
602.0179, 4069.967
602.5001, 4081.238
602.9822, 4096.784
603.4643, 4106.759
603.9464, 4110.319
604.4285, 4111.589
604.9106, 4110.078
605.3928, 4107.747
605.8749, 4106.835
606.3570, 4107.452
606.8391, 4111.842
607.3212, 4124.241
607.8033, 4136.166
608.2855, 4131.041
608.7676, 4113.201
609.2497, 4098.499
609.7318, 4096.484
610.2139, 4100.556
610.6960, 4106.669
611.1782, 4114.490
611.6603, 4122.788
612.1424, 4135.280
612.6245, 4145.193
613.1066, 4147.174
613.5887, 4133.763
614.0709, 4129.684
614.5530, 4141.630
615.0351, 4156.989
615.5172, 4161.548
615.9993, 4152.188
616.4814, 4147.065
616.9636, 4150.276
617.4457, 4156.686
617.9278, 4154.994
618.4099, 4146.113
618.8920, 4139.741
619.3741, 4141.365
619.8563, 4146.565
620.3384, 4148.895
620.8205, 4148.855
621.3026, 4149.120
621.7847, 4152.338
622.2668, 4155.627
622.7490, 4156.792
623.2311, 4155.553
623.7132, 4153.483
624.1953, 4148.271
624.6774, 4144.370
625.1595, 4145.229
625.6417, 4155.272
626.1238, 4161.430
626.6059, 4161.975
627.0880, 4160.630
627.5701, 4162.343
628.0522, 4167.424
628.5344, 4173.308
629.0165, 4180.366
629.4986, 4186.583
629.9807, 4185.321
630.4628, 4178.442
630.9449, 4176.065
631.4271, 4189.241
631.9092, 4205.427
632.3913, 4208.794
632.8734, 4201.367
633.3555, 4196.535
633.8376, 4203.036
634.3198, 4212.456
634.8019, 4220.182
635.2840, 4225.704
635.7661, 4229.695
636.2482, 4231.628
636.7303, 4232.652
637.2125, 4233.509
637.6946, 4234.253
638.1767, 4234.752
638.6588, 4234.889
639.1409, 4235.095
639.6230, 4236.985
640.1052, 4240.309
640.5873, 4239.799
641.0694, 4232.153
641.5515, 4223.562
642.0336, 4224.302
642.5157, 4232.021
642.9979, 4239.896
643.4800, 4245.072
643.9621, 4248.686
644.4442, 4250.365
644.9263, 4250.662
645.4084, 4252.610
645.8906, 4261.085
646.3727, 4268.022
646.8548, 4268.294
647.3369, 4260.519
647.8190, 4257.197
648.3011, 4259.828
648.7833, 4264.741
