##NAMES=Rutherfordine
##RRUFFID=R110154
##IDEAL CHEMISTRY=(U^6+^O_2_)CO_3_
##LOCALITY=Shinkolobwe mine, Zaire
##OWNER=RRUFF
##SOURCE=Luiz Menezes, from Vincent Bourgoin
##DESCRIPTION=Pale yellow bladed crystals associated with orange w√∂lsendorfite 
##STATUS=The identification of this mineral has been confirmed by single-crystal X-ray diffraction.
##URL=rruff.info/R110154
151.3860, 3146.729
151.8681, 3314.122
152.3502, 3499.638
152.8323, 3713.981
153.3145, 3972.107
153.7966, 4249.527
154.2787, 4554.639
154.7608, 4877.148
155.2429, 5207.807
155.7250, 5548.388
156.2072, 5904.979
156.6893, 6156.613
157.1714, 6357.796
157.6535, 6432.788
158.1356, 6331.580
158.6177, 6065.321
159.0999, 5682.735
159.5820, 5212.565
160.0641, 4632.932
160.5462, 4109.815
161.0283, 3637.652
161.5104, 3223.532
161.9926, 2878.708
162.4747, 2604.726
162.9568, 2382.918
163.4389, 2208.483
163.9210, 2079.228
164.4031, 1969.311
164.8853, 1879.623
165.3674, 1805.655
165.8495, 1743.505
166.3316, 1693.462
166.8137, 1652.523
167.2958, 1617.172
167.7780, 1587.176
168.2601, 1565.510
168.7422, 1557.198
169.2243, 1559.325
169.7064, 1559.847
170.1885, 1554.073
170.6707, 1551.383
171.1528, 1558.377
171.6349, 1573.624
172.1170, 1590.886
172.5991, 1608.210
173.0812, 1626.057
173.5634, 1634.132
174.0455, 1626.451
174.5276, 1612.092
175.0097, 1591.784
175.4918, 1567.057
175.9739, 1541.688
176.4561, 1519.963
176.9382, 1502.644
177.4203, 1485.994
177.9024, 1468.528
178.3845, 1452.761
178.8666, 1440.380
179.3488, 1431.490
179.8309, 1424.771
180.3130, 1418.389
180.7951, 1410.781
181.2772, 1407.740
181.7593, 1411.461
182.2415, 1417.655
182.7236, 1422.698
183.2057, 1425.900
183.6878, 1429.717
184.1699, 1437.792
184.6520, 1451.151
185.1342, 1467.977
185.6163, 1489.063
186.0984, 1513.252
186.5805, 1538.695
187.0626, 1564.704
187.5447, 1593.505
188.0269, 1628.936
188.5090, 1670.075
188.9911, 1718.773
189.4732, 1777.692
189.9553, 1844.148
190.4374, 1915.411
190.9196, 1994.901
191.4017, 2070.991
191.8838, 2134.304
192.3659, 2188.917
192.8480, 2212.503
193.3301, 2189.694
193.8123, 2126.115
194.2944, 2038.866
194.7765, 1918.335
195.2586, 1791.737
195.7407, 1682.753
196.2228, 1591.633
196.7050, 1519.317
197.1871, 1469.083
197.6692, 1440.457
198.1513, 1423.123
198.6334, 1420.647
199.1155, 1425.494
199.5977, 1433.461
200.0798, 1444.061
200.5619, 1456.407
201.0440, 1468.646
201.5261, 1479.997
202.0082, 1497.170
202.4904, 1525.219
202.9725, 1556.664
203.4546, 1588.557
203.9367, 1620.367
204.4188, 1652.942
204.9009, 1686.637
205.3831, 1720.303
205.8652, 1758.808
206.3473, 1805.414
206.8294, 1853.974
207.3115, 1900.739
207.7936, 1945.098
208.2758, 1989.222
208.7579, 2035.765
209.2400, 2085.266
209.7221, 2136.198
210.2042, 2186.069
210.6863, 2238.492
211.1685, 2296.939
211.6506, 2361.712
212.1327, 2429.756
212.6148, 2497.479
213.0969, 2565.072
213.5790, 2630.349
214.0612, 2698.339
214.5433, 2761.075
215.0254, 2815.454
215.5075, 2859.646
215.9896, 2890.488
216.4717, 2903.107
216.9539, 2894.011
217.4360, 2869.126
217.9181, 2826.429
218.4002, 2769.043
218.8823, 2696.292
219.3644, 2608.083
219.8466, 2512.923
220.3287, 2420.348
220.8108, 2328.573
221.2929, 2246.833
221.7750, 2177.312
222.2571, 2118.162
222.7393, 2067.327
223.2214, 2024.510
223.7035, 1989.543
224.1856, 1963.759
224.6677, 1946.211
225.1498, 1936.339
225.6320, 1935.787
226.1141, 1942.440
226.5962, 1951.778
227.0783, 1961.657
227.5604, 1978.756
228.0425, 2009.377
228.5247, 2051.708
229.0068, 2106.221
229.4889, 2176.221
229.9710, 2257.870
230.4531, 2343.946
230.9352, 2434.334
231.4174, 2527.409
231.8995, 2631.837
232.3816, 2739.736
232.8637, 2826.583
233.3458, 2886.008
233.8279, 2915.959
234.3101, 2908.391
234.7922, 2854.996
235.2743, 2774.128
235.7564, 2669.809
236.2385, 2550.270
236.7206, 2430.537
237.2028, 2315.985
237.6849, 2208.398
238.1670, 2113.134
238.6491, 2030.030
239.1312, 1961.900
239.6133, 1907.390
240.0955, 1865.845
240.5776, 1835.411
241.0597, 1815.356
241.5418, 1805.640
242.0239, 1807.128
242.5060, 1826.046
242.9882, 1848.815
243.4703, 1874.800
243.9524, 1900.991
244.4345, 1924.345
244.9166, 1943.941
245.3987, 1958.434
245.8809, 1961.301
246.3630, 1952.660
246.8451, 1929.763
247.3272, 1888.400
247.8093, 1834.621
248.2914, 1775.155
248.7736, 1713.243
249.2557, 1649.543
249.7378, 1586.991
250.2199, 1516.376
250.7020, 1459.425
251.1841, 1422.598
251.6663, 1399.524
252.1484, 1383.486
252.6305, 1371.152
253.1126, 1363.058
253.5947, 1360.701
254.0768, 1365.182
254.5590, 1375.234
255.0411, 1388.725
255.5232, 1408.366
256.0053, 1436.826
256.4874, 1475.186
256.9695, 1523.504
257.4517, 1581.777
257.9338, 1649.906
258.4159, 1730.617
258.8980, 1830.202
259.3801, 1939.777
259.8622, 2063.915
260.3444, 2202.646
260.8265, 2326.906
261.3086, 2381.857
261.7907, 2342.686
262.2728, 2260.778
262.7549, 2102.152
263.2371, 1917.488
263.7192, 1751.367
264.2013, 1616.152
264.6834, 1508.998
265.1655, 1427.404
265.6476, 1381.101
266.1298, 1342.068
266.6119, 1310.144
267.0940, 1284.869
267.5761, 1267.498
268.0582, 1257.914
268.5403, 1251.995
269.0225, 1245.106
269.5046, 1236.854
269.9867, 1229.683
270.4688, 1223.356
270.9509, 1218.349
271.4330, 1215.818
271.9152, 1215.731
272.3973, 1215.613
272.8794, 1212.799
273.3615, 1207.049
273.8436, 1203.102
274.3257, 1201.406
274.8079, 1201.244
275.2900, 1202.874
275.7721, 1206.087
276.2542, 1208.678
276.7363, 1208.731
277.2184, 1206.486
277.7006, 1205.140
278.1827, 1205.392
278.6648, 1205.998
279.1469, 1206.183
279.6290, 1205.957
280.1111, 1205.520
280.5933, 1204.831
281.0754, 1204.082
281.5575, 1203.823
282.0396, 1204.266
282.5217, 1204.937
283.0038, 1205.202
283.4860, 1205.291
283.9681, 1206.613
284.4502, 1210.550
284.9323, 1215.477
285.4144, 1217.789
285.8965, 1216.211
286.3787, 1215.216
286.8608, 1218.356
287.3429, 1224.358
287.8250, 1228.318
288.3071, 1227.693
288.7892, 1225.638
289.2714, 1227.052
289.7535, 1232.308
290.2356, 1237.296
290.7177, 1239.793
291.1998, 1240.562
291.6819, 1241.720
292.1641, 1243.920
292.6462, 1246.220
293.1283, 1247.627
293.6104, 1248.234
294.0925, 1248.430
294.5746, 1248.204
295.0568, 1247.694
295.5389, 1246.639
296.0210, 1244.299
296.5031, 1243.551
296.9852, 1249.377
297.4673, 1259.227
297.9495, 1265.876
298.4316, 1264.436
298.9137, 1259.430
299.3958, 1257.468
299.8779, 1259.013
300.3600, 1262.118
300.8422, 1266.588
301.3243, 1271.621
301.8064, 1275.730
302.2885, 1278.295
302.7706, 1280.143
303.2527, 1281.998
303.7349, 1283.836
304.2170, 1286.268
304.6991, 1290.913
305.1812, 1295.621
305.6633, 1297.066
306.1454, 1293.658
306.6276, 1289.894
307.1097, 1290.773
307.5918, 1295.920
308.0739, 1298.532
308.5560, 1294.910
309.0381, 1288.974
309.5203, 1285.546
310.0024, 1284.982
310.4845, 1284.230
310.9666, 1280.844
311.4487, 1275.360
311.9308, 1270.408
312.4130, 1266.450
312.8951, 1263.286
313.3772, 1260.348
313.8593, 1257.741
314.3414, 1256.518
314.8235, 1258.507
315.3057, 1262.212
315.7878, 1263.518
316.2699, 1261.327
316.7520, 1258.550
317.2341, 1256.930
317.7162, 1256.326
318.1984, 1256.666
318.6805, 1258.718
319.1626, 1261.345
319.6447, 1262.617
320.1268, 1262.292
320.6089, 1261.850
321.0911, 1262.125
321.5732, 1262.813
322.0553, 1263.307
322.5374, 1262.773
323.0195, 1263.195
323.5016, 1267.968
323.9838, 1277.176
324.4659, 1283.679
324.9480, 1282.468
325.4301, 1278.722
325.9122, 1279.011
326.3943, 1284.273
326.8765, 1290.424
327.3586, 1295.069
327.8407, 1298.266
328.3228, 1299.730
328.8049, 1297.644
329.2870, 1296.331
329.7692, 1301.180
330.2513, 1311.575
330.7334, 1320.796
331.2155, 1323.499
331.6976, 1322.874
332.1797, 1326.816
332.6619, 1337.217
333.1440, 1349.165
333.6261, 1357.867
334.1082, 1364.881
334.5903, 1374.326
335.0724, 1388.786
335.5546, 1405.572
336.0367, 1421.905
336.5188, 1437.841
337.0009, 1451.936
337.4830, 1463.430
337.9651, 1472.307
338.4473, 1478.424
338.9294, 1480.570
339.4115, 1481.839
339.8936, 1485.013
340.3757, 1489.748
340.8578, 1493.195
341.3400, 1493.654
341.8221, 1492.978
342.3042, 1494.570
342.7863, 1499.150
343.2684, 1502.050
343.7505, 1501.426
344.2327, 1497.429
344.7148, 1489.937
345.1969, 1478.299
345.6790, 1464.857
346.1611, 1451.853
346.6432, 1439.228
347.1254, 1426.749
347.6075, 1412.660
348.0896, 1399.525
348.5717, 1391.621
349.0538, 1389.429
349.5359, 1388.068
350.0181, 1384.530
350.5002, 1378.751
350.9823, 1371.329
351.4644, 1359.029
351.9465, 1347.927
352.4286, 1343.280
352.9108, 1343.893
353.3929, 1343.958
353.8750, 1340.645
354.3571, 1335.077
354.8392, 1330.090
355.3214, 1325.917
355.8035, 1321.719
356.2856, 1316.391
356.7677, 1310.998
357.2498, 1307.711
357.7319, 1307.311
358.2141, 1308.229
358.6962, 1308.679
359.1783, 1308.861
359.6604, 1307.362
360.1425, 1301.937
360.6246, 1296.041
361.1068, 1293.390
361.5889, 1294.133
362.0710, 1295.362
362.5531, 1294.880
363.0352, 1292.586
363.5173, 1289.076
363.9995, 1282.662
364.4816, 1276.796
364.9637, 1273.093
365.4458, 1271.260
365.9279, 1270.650
366.4100, 1271.132
366.8922, 1272.133
367.3743, 1271.757
367.8564, 1270.142
368.3385, 1267.086
368.8206, 1260.332
369.3027, 1253.051
369.7849, 1249.508
370.2670, 1250.769
370.7491, 1253.724
371.2312, 1253.945
371.7133, 1249.816
372.1954, 1247.911
372.6776, 1251.373
373.1597, 1254.285
373.6418, 1252.175
374.1239, 1245.761
374.6060, 1239.165
375.0881, 1235.637
375.5703, 1235.100
376.0524, 1234.094
376.5345, 1232.838
377.0166, 1230.888
377.4987, 1226.837
377.9808, 1222.360
378.4630, 1220.437
378.9451, 1222.471
379.4272, 1226.116
379.9093, 1225.556
380.3914, 1216.689
380.8735, 1210.389
381.3557, 1207.155
381.8378, 1206.219
382.3199, 1208.314
382.8020, 1212.785
383.2841, 1216.615
383.7662, 1215.977
384.2484, 1209.941
384.7305, 1205.893
385.2126, 1205.742
385.6947, 1205.803
386.1768, 1205.100
386.6589, 1203.714
387.1411, 1201.925
387.6232, 1199.773
388.1053, 1197.531
388.5874, 1196.418
389.0695, 1197.732
389.5516, 1197.666
390.0338, 1195.019
390.5159, 1191.002
390.9980, 1186.254
391.4801, 1180.982
391.9622, 1176.238
392.4443, 1173.716
392.9265, 1173.746
393.4086, 1172.899
393.8907, 1170.410
394.3728, 1167.213
394.8549, 1162.881
395.3370, 1158.073
395.8192, 1155.066
396.3013, 1157.107
396.7834, 1162.025
397.2655, 1161.815
397.7476, 1154.139
398.2297, 1147.425
398.7119, 1148.276
399.1940, 1152.073
399.6761, 1152.703
400.1582, 1147.754
400.6403, 1141.219
401.1224, 1137.309
401.6046, 1135.815
402.0867, 1133.641
402.5688, 1129.352
403.0509, 1124.568
403.5330, 1121.167
404.0151, 1119.150
404.4973, 1117.625
404.9794, 1116.923
405.4615, 1116.262
405.9436, 1113.643
406.4257, 1108.521
406.9078, 1104.223
407.3900, 1104.402
407.8721, 1108.013
408.3542, 1109.326
408.8363, 1106.722
409.3184, 1102.831
409.8005, 1098.793
410.2827, 1094.774
410.7648, 1091.437
411.2469, 1089.198
411.7290, 1087.555
412.2111, 1085.327
412.6932, 1082.188
413.1754, 1079.372
413.6575, 1077.802
414.1396, 1076.278
414.6217, 1072.571
415.1038, 1066.655
415.5859, 1062.147
416.0681, 1063.313
416.5502, 1071.084
417.0323, 1073.761
417.5144, 1066.939
417.9965, 1060.489
418.4786, 1058.677
418.9608, 1060.145
419.4429, 1062.072
419.9250, 1063.072
420.4071, 1063.086
420.8892, 1061.857
421.3713, 1057.943
421.8535, 1054.982
422.3356, 1053.089
422.8177, 1052.088
423.2998, 1052.803
423.7819, 1054.759
424.2640, 1055.484
424.7462, 1051.656
425.2283, 1042.672
425.7104, 1037.946
426.1925, 1041.176
426.6746, 1044.945
427.1567, 1047.887
427.6389, 1049.807
428.1210, 1050.630
428.6031, 1050.332
429.0852, 1048.905
429.5673, 1046.023
430.0494, 1041.116
430.5316, 1036.807
431.0137, 1033.164
431.4958, 1030.788
431.9779, 1030.938
432.4600, 1033.394
432.9421, 1035.529
433.4243, 1035.033
433.9064, 1032.495
434.3885, 1030.611
434.8706, 1029.944
435.3527, 1028.886
435.8348, 1025.220
436.3170, 1020.638
436.7991, 1018.232
437.2812, 1019.965
437.7633, 1022.406
438.2454, 1022.301
438.7275, 1019.942
439.2097, 1017.252
439.6918, 1014.655
440.1739, 1012.369
440.6560, 1010.829
441.1381, 1010.043
441.6202, 1009.349
442.1024, 1008.964
442.5845, 1008.364
443.0666, 1006.691
443.5487, 1003.952
444.0308, 1001.238
444.5129, 999.2570
444.9951, 998.0372
445.4772, 997.6144
445.9593, 999.8029
446.4414, 1000.587
446.9235, 996.4919
447.4056, 990.8813
447.8878, 989.7809
448.3699, 995.1248
448.8520, 1002.117
449.3341, 1003.190
449.8162, 995.4454
450.2983, 989.8088
450.7805, 986.7469
451.2626, 985.0146
451.7447, 984.5411
452.2268, 984.8666
452.7089, 985.2384
453.1910, 985.2322
453.6732, 984.7294
454.1553, 983.0939
454.6374, 979.2386
455.1195, 976.1018
455.6016, 974.5674
456.0837, 973.5782
456.5659, 972.1992
457.0480, 970.2748
457.5301, 968.4412
458.0122, 967.2252
458.4943, 966.6243
458.9764, 966.9626
459.4586, 969.3376
459.9407, 970.9816
460.4228, 969.7665
460.9049, 967.0379
461.3870, 965.2667
461.8691, 965.6807
462.3513, 966.7885
462.8334, 967.1364
463.3155, 966.7081
463.7976, 964.8495
464.2797, 960.5313
464.7618, 955.6718
465.2440, 952.4089
465.7261, 950.6653
466.2082, 950.4359
466.6903, 953.5185
467.1724, 957.1491
467.6545, 957.6164
468.1367, 954.7755
468.6188, 951.2219
469.1009, 948.3712
469.5830, 946.3178
470.0651, 945.4435
470.5472, 946.2145
471.0294, 947.3856
471.5115, 949.7842
471.9936, 951.9359
472.4757, 951.7252
472.9578, 948.6923
473.4399, 944.2448
473.9221, 939.7980
474.4042, 934.9707
474.8863, 932.4764
475.3684, 934.9867
475.8505, 936.6942
476.3326, 934.2274
476.8148, 929.7336
477.2969, 927.2050
477.7790, 928.6409
478.2611, 932.1146
478.7432, 933.5670
479.2253, 932.4488
479.7075, 930.8345
480.1896, 928.2089
480.6717, 925.7668
481.1538, 924.2365
481.6359, 923.5420
482.1180, 923.1173
482.6002, 922.7178
483.0823, 922.2742
483.5644, 921.5098
484.0465, 920.3198
484.5286, 919.2176
485.0107, 918.6205
485.4929, 918.1321
485.9750, 917.2928
486.4571, 916.0482
486.9392, 914.5212
487.4213, 912.8323
487.9034, 910.9023
488.3856, 908.4373
488.8677, 905.3016
489.3498, 902.1430
489.8319, 899.2571
490.3140, 896.8026
490.7961, 895.6928
491.2783, 898.2259
491.7604, 899.6551
492.2425, 896.1356
492.7246, 890.3016
493.2067, 887.5630
493.6888, 889.8278
494.1710, 893.8213
494.6531, 894.3392
495.1352, 889.6729
495.6173, 886.8929
496.0994, 886.6746
496.5815, 887.3879
497.0637, 889.7493
497.5458, 892.3152
498.0279, 891.9962
498.5100, 886.7980
498.9921, 878.9754
499.4742, 874.2132
499.9564, 873.5325
500.4385, 873.3925
500.9206, 873.8346
501.4027, 874.2230
501.8848, 874.3993
502.3669, 874.2211
502.8491, 873.2564
503.3312, 870.6601
503.8133, 867.1906
504.2954, 864.8399
504.7775, 863.6548
505.2596, 863.4944
505.7418, 865.3430
506.2239, 867.6193
506.7060, 867.8647
507.1881, 865.4480
507.6702, 863.1618
508.1523, 862.3121
508.6345, 862.5263
509.1166, 863.8953
509.5987, 866.4406
510.0808, 867.4641
510.5629, 864.0979
511.0450, 856.9231
511.5272, 852.7449
512.0093, 853.7679
512.4914, 854.7073
512.9735, 853.9669
513.4556, 852.2777
513.9377, 850.8115
514.4199, 849.8279
514.9020, 848.3202
515.3841, 844.7108
515.8662, 838.3493
516.3483, 834.4125
516.8304, 835.5277
517.3126, 836.3566
517.7947, 834.8728
518.2768, 832.3439
518.7589, 831.1351
519.2410, 832.2870
519.7231, 833.4144
520.2053, 830.1738
520.6874, 822.0974
521.1695, 816.6469
521.6516, 815.5505
522.1337, 816.4427
522.6158, 818.0952
523.0980, 820.2743
523.5801, 822.3485
524.0622, 824.4730
524.5443, 826.0195
525.0264, 826.1365
525.5085, 824.9916
525.9907, 823.4714
526.4728, 821.7498
526.9549, 820.0828
527.4370, 818.9890
527.9191, 818.6384
528.4012, 817.7141
528.8834, 815.0606
529.3655, 812.6766
529.8476, 812.5141
530.3297, 813.8539
530.8118, 814.5546
531.2939, 813.4758
531.7761, 810.9719
532.2582, 807.7426
532.7403, 802.0748
533.2224, 798.9405
533.7045, 800.1070
534.1866, 801.9908
534.6688, 802.7628
535.1509, 802.3508
535.6330, 801.3421
536.1151, 800.0661
536.5972, 798.5218
537.0793, 796.5067
537.5615, 793.7618
538.0436, 791.6457
538.5257, 790.3279
539.0078, 790.0768
539.4899, 791.6419
539.9720, 794.9005
540.4542, 797.5799
540.9363, 799.2275
541.4184, 799.3251
541.9005, 795.9382
542.3826, 789.2990
542.8647, 784.3692
543.3469, 784.1102
543.8290, 786.8036
544.3111, 788.0978
544.7932, 787.6379
545.2753, 786.8588
545.7574, 785.6349
546.2396, 784.3882
546.7217, 783.6439
547.2038, 783.2804
547.6859, 782.5364
548.1680, 780.7411
548.6501, 778.3902
549.1323, 777.8487
549.6144, 780.9349
550.0965, 782.6668
550.5786, 781.7136
551.0607, 780.0143
551.5428, 778.6718
552.0250, 777.9164
552.5071, 777.8069
552.9892, 778.8970
553.4713, 780.4948
553.9534, 780.5991
554.4355, 779.1002
554.9177, 776.4809
555.3998, 771.5434
555.8819, 766.6114
556.3640, 765.1304
556.8461, 767.6348
557.3282, 769.5635
557.8104, 768.6288
558.2925, 766.4925
558.7746, 764.8091
559.2567, 763.7618
559.7388, 763.4969
560.2209, 764.1740
560.7031, 765.5782
561.1852, 767.0445
561.6673, 770.5840
562.1494, 771.2155
562.6315, 765.5256
563.1136, 759.5275
563.5958, 758.2189
564.0779, 760.9250
564.5600, 763.6141
565.0421, 763.4637
565.5242, 761.1553
566.0063, 758.5657
566.4885, 754.9066
566.9706, 753.3002
567.4527, 756.3049
567.9348, 760.3204
568.4169, 763.7102
568.8990, 766.0938
569.3812, 766.3638
569.8633, 761.6999
570.3454, 755.7499
570.8275, 755.0970
571.3096, 759.2704
571.7917, 760.4207
572.2739, 754.0491
572.7560, 744.8341
573.2381, 741.5690
573.7202, 746.0047
574.2023, 748.9808
574.6844, 748.2608
575.1666, 747.0475
575.6487, 748.1668
576.1308, 750.6537
576.6129, 751.5090
577.0950, 749.1127
577.5771, 744.8690
578.0593, 741.7524
578.5414, 739.7996
579.0235, 738.8777
579.5056, 739.4364
579.9877, 740.6303
580.4698, 743.1999
580.9520, 746.0533
581.4341, 746.6434
581.9162, 743.0680
582.3983, 738.3434
582.8804, 736.9424
583.3625, 738.4872
583.8447, 738.7192
584.3268, 736.0274
584.8089, 733.2285
585.2910, 734.0042
585.7731, 737.8580
586.2552, 739.4932
586.7374, 736.0966
587.2195, 732.8499
587.7016, 732.8528
588.1837, 734.7330
588.6658, 736.2667
589.1479, 736.7291
589.6301, 736.2457
590.1122, 734.9117
590.5943, 732.6721
591.0764, 730.0374
591.5585, 724.7473
592.0406, 721.8004
592.5228, 724.0724
593.0049, 728.4971
593.4870, 731.6837
593.9691, 732.7442
594.4512, 732.5380
594.9333, 731.1912
595.4155, 729.1471
595.8976, 728.7283
596.3797, 730.5534
596.8618, 731.7980
597.3439, 730.7105
597.8260, 727.9030
598.3082, 724.7845
598.7903, 720.3644
599.2724, 718.1359
599.7545, 721.3778
600.2366, 726.0346
600.7188, 727.7192
601.2009, 726.2758
601.6830, 723.8591
602.1651, 721.8148
602.6472, 720.1583
603.1293, 718.9636
603.6115, 718.3801
604.0936, 718.0008
604.5757, 717.6808
605.0578, 717.6266
605.5399, 718.3246
606.0220, 719.4381
606.5042, 719.8947
606.9863, 718.7491
607.4684, 717.1561
607.9505, 717.4388
608.4326, 719.5234
608.9147, 720.1406
609.3969, 717.6830
609.8790, 714.9066
610.3611, 715.2907
610.8432, 718.5177
611.3253, 720.6064
611.8074, 720.6068
612.2896, 719.9350
612.7717, 719.1173
613.2538, 718.1927
613.7359, 717.0165
614.2180, 715.5941
614.7001, 714.4817
615.1823, 714.4424
615.6644, 715.5527
616.1465, 716.0772
616.6286, 715.5020
617.1107, 715.0276
617.5928, 715.7136
618.0750, 716.2238
618.5571, 714.4678
619.0392, 710.2204
619.5213, 706.9653
620.0034, 708.3016
620.4855, 712.2764
620.9677, 714.8173
621.4498, 715.7537
621.9319, 714.8109
622.4140, 710.6970
622.8961, 705.8617
623.3782, 706.4039
623.8604, 715.1049
624.3425, 719.7205
624.8246, 715.0510
625.3067, 709.2587
625.7888, 708.0989
626.2709, 710.3832
626.7531, 712.1609
627.2352, 711.4835
627.7173, 709.4763
628.1994, 707.9824
628.6815, 706.9207
629.1636, 706.8504
629.6458, 708.6873
630.1279, 710.3764
630.6100, 710.9074
631.0921, 710.6152
631.5742, 709.8345
632.0563, 708.1584
632.5385, 707.5049
633.0206, 710.8315
633.5027, 715.7616
633.9848, 716.8958
634.4669, 713.5438
634.9490, 710.1992
635.4312, 710.2441
635.9133, 712.8798
636.3954, 714.3125
636.8775, 713.7785
637.3596, 712.9922
637.8417, 712.2213
638.3239, 711.0394
638.8060, 707.9219
639.2881, 704.0035
639.7702, 703.0550
640.2523, 708.1825
640.7344, 715.3087
641.2166, 715.8485
641.6987, 709.4731
642.1808, 703.7722
642.6629, 699.3301
643.1450, 697.3342
643.6271, 701.3138
644.1093, 709.1652
644.5914, 712.7963
645.0735, 706.5633
645.5556, 701.0923
646.0377, 702.8444
646.5198, 707.7594
647.0020, 709.7199
647.4841, 707.7921
647.9662, 705.4979
648.4483, 706.0881
