##NAMES=Rutile
##RRUFFID=R050417
##IDEAL CHEMISTRY=Ti^4+^O_2_
##LOCALITY=Champion mine, Mono County, California, USA
##OWNER=RRUFF
##SOURCE=Marcus Origlieri
##DESCRIPTION=Reddish black equant crystals
##STATUS=The identification of this mineral has been confirmed by X-ray diffraction and chemical analysis
##URL=rruff.info/R050417
##MEASURED CHEMISTRY=TiO_2_
91.87140, 0.0000000E+00
92.35352, 11.15428
92.83563, 10.99593
93.31775, 10.92878
93.79987, 10.91890
94.28198, 10.99584
94.76410, 11.25358
95.24622, 11.72670
95.72833, 12.37173
96.21045, 13.10990
96.69257, 13.94734
97.17468, 14.83330
97.65680, 15.69941
98.13892, 16.55078
98.62103, 17.46081
99.10315, 18.35695
99.58527, 19.29624
100.0674, 20.66892
100.5495, 22.52360
101.0316, 24.68003
101.5137, 26.88316
101.9958, 29.11370
102.4780, 31.50701
102.9601, 34.06437
103.4422, 36.76261
103.9243, 39.75657
104.4064, 43.04746
104.8885, 46.64750
105.3707, 50.67550
105.8528, 55.17180
106.3349, 59.99239
106.8170, 65.05204
107.2991, 70.33597
107.7813, 75.88560
108.2634, 81.64602
108.7455, 87.69318
109.2276, 94.05942
109.7097, 101.1541
110.1918, 108.3325
110.6740, 115.3387
111.1561, 122.2844
111.6382, 128.9253
112.1203, 135.0680
112.6024, 140.8443
113.0845, 146.7033
113.5667, 152.4415
114.0488, 158.4132
114.5309, 164.9267
115.0130, 172.1280
115.4951, 179.7441
115.9772, 187.8120
116.4594, 196.3891
116.9415, 205.1061
117.4236, 213.7070
117.9057, 222.4265
118.3878, 231.4764
118.8699, 241.4289
119.3521, 251.4680
119.8342, 261.2970
120.3163, 270.8978
120.7984, 280.2489
121.2805, 289.2030
121.7626, 297.9069
122.2448, 306.6116
122.7269, 316.3551
123.2090, 325.7115
123.6911, 333.0577
124.1732, 337.9457
124.6553, 341.9831
125.1375, 346.4039
125.6196, 351.1388
126.1017, 355.9685
126.5838, 360.8976
127.0659, 365.8172
127.5480, 370.5106
128.0302, 374.8976
128.5123, 379.2245
128.9944, 383.8502
129.4765, 388.7519
129.9586, 393.7168
130.4407, 398.4247
130.9229, 403.0175
131.4050, 408.1817
131.8871, 414.1334
132.3692, 420.5171
132.8513, 426.2271
133.3334, 430.5099
133.8156, 433.0742
134.2977, 435.4682
134.7798, 439.1445
135.2619, 442.6754
135.7440, 445.8277
136.2261, 448.5877
136.7083, 451.0369
137.1904, 453.1368
137.6725, 455.1392
138.1546, 457.5939
138.6367, 460.7903
139.1188, 462.9688
139.6010, 463.5358
140.0831, 462.4980
140.5652, 461.4465
141.0473, 460.2943
141.5294, 459.2165
142.0115, 458.5335
142.4937, 458.4980
142.9758, 458.2188
143.4579, 457.3973
143.9400, 455.9378
144.4221, 454.3348
144.9042, 452.4014
145.3864, 450.4007
145.8685, 448.8555
146.3506, 448.0335
146.8327, 447.2558
147.3148, 446.2636
147.7969, 444.8543
148.2791, 443.6992
148.7612, 442.8920
149.2433, 442.3335
149.7254, 441.7905
150.2075, 441.6242
150.6896, 441.1794
151.1718, 440.1741
151.6539, 437.5991
152.1360, 435.9441
152.6181, 435.8470
153.1002, 436.7892
153.5823, 437.2204
154.0645, 436.7028
154.5466, 435.8950
155.0287, 435.1020
155.5108, 434.3948
155.9929, 433.6299
156.4750, 432.6708
156.9572, 431.5921
157.4393, 430.7382
157.9214, 430.3410
158.4035, 430.0786
158.8856, 429.7486
159.3677, 429.3099
159.8499, 428.7968
160.3320, 427.9687
160.8141, 426.9481
161.2962, 426.4960
161.7783, 427.4508
162.2604, 428.8326
162.7426, 429.8331
163.2247, 429.9602
163.7068, 429.8839
164.1889, 429.7792
164.6710, 429.6657
165.1531, 429.7562
165.6353, 430.2552
166.1174, 430.9748
166.5995, 431.7128
167.0816, 432.2554
167.5637, 432.8892
168.0458, 433.9022
168.5280, 435.2827
169.0101, 436.5767
169.4922, 437.3151
169.9743, 437.8062
170.4564, 438.4771
170.9385, 439.2996
171.4207, 440.4935
171.9028, 442.5005
172.3849, 445.3698
172.8670, 448.1147
173.3491, 449.8404
173.8312, 450.9239
174.3134, 452.0911
174.7955, 453.7258
175.2776, 455.5869
175.7597, 457.4108
176.2418, 459.2051
176.7239, 460.9325
177.2061, 462.4305
177.6882, 463.8521
178.1703, 465.5753
178.6524, 467.9061
179.1345, 470.6490
179.6166, 473.5200
180.0988, 476.5711
180.5809, 479.5365
181.0630, 482.0791
181.5451, 484.2842
182.0272, 486.3852
182.5093, 488.4319
182.9915, 490.4907
183.4736, 492.7170
183.9557, 495.1733
184.4378, 497.6689
184.9199, 499.9816
185.4020, 502.0960
185.8842, 504.2246
186.3663, 506.2455
186.8484, 508.3227
187.3305, 511.0725
187.8126, 514.6963
188.2947, 518.6752
188.7769, 522.3052
189.2590, 525.5927
189.7411, 528.5975
190.2232, 531.4729
190.7053, 534.1570
191.1874, 536.1745
191.6696, 537.2899
192.1517, 538.1527
192.6338, 540.0810
193.1159, 543.1091
193.5980, 546.2932
194.0801, 548.9137
194.5623, 551.0306
195.0444, 553.8450
195.5265, 557.6799
196.0086, 561.9142
196.4907, 565.1118
196.9728, 567.1546
197.4550, 569.1229
197.9371, 571.6564
198.4192, 574.7601
198.9013, 578.0546
199.3834, 581.6353
199.8655, 585.2413
200.3477, 588.1819
200.8298, 590.3121
201.3119, 592.4057
201.7940, 594.9230
202.2761, 597.8822
202.7582, 601.1488
203.2404, 604.8699
203.7225, 608.7835
204.2046, 612.1007
204.6867, 614.7003
205.1688, 617.1516
205.6509, 619.6967
206.1331, 622.3107
206.6152, 625.3367
207.0973, 629.0059
207.5794, 633.0048
208.0615, 636.3604
208.5436, 638.9886
209.0258, 641.2079
209.5079, 643.0114
209.9900, 644.1702
210.4721, 645.9377
210.9542, 648.4640
211.4363, 651.6399
211.9185, 655.3074
212.4006, 659.8887
212.8827, 664.0594
213.3648, 666.6651
213.8469, 667.0901
214.3290, 668.3787
214.8112, 671.1031
215.2933, 674.7633
215.7754, 677.6055
216.2575, 679.2742
216.7396, 680.7930
217.2217, 682.7568
217.7039, 685.2856
218.1860, 687.8632
218.6681, 690.4219
219.1502, 692.9955
219.6323, 695.7689
220.1144, 699.0338
220.5966, 701.9709
221.0787, 703.9397
221.5608, 704.3684
222.0429, 705.4688
222.5250, 707.7756
223.0071, 710.8153
223.4893, 712.6236
223.9714, 712.5056
224.4535, 712.2978
224.9356, 713.0770
225.4177, 715.3946
225.8998, 717.3538
226.3820, 718.7122
226.8641, 719.6734
227.3462, 720.9072
227.8283, 722.5378
228.3104, 724.2363
228.7925, 725.8415
229.2747, 727.4518
229.7568, 728.7480
230.2389, 729.5875
230.7210, 730.1289
231.2031, 730.8792
231.6852, 731.9973
232.1674, 733.0778
232.6495, 733.9549
233.1316, 734.7520
233.6137, 735.0120
234.0958, 734.3589
234.5779, 733.2366
235.0601, 732.9461
235.5422, 733.9136
236.0243, 735.0996
236.5064, 736.1095
236.9885, 737.1154
237.4706, 737.5325
237.9528, 737.0981
238.4349, 736.1415
238.9170, 735.4821
239.3991, 735.2333
239.8812, 735.1097
240.3633, 735.0256
240.8455, 735.0838
241.3276, 734.9602
241.8097, 734.8539
242.2918, 734.4938
242.7739, 733.1629
243.2560, 730.1262
243.7382, 727.2620
244.2203, 725.3788
244.7024, 724.9993
245.1845, 724.1282
245.6666, 722.6160
246.1487, 720.6893
246.6309, 718.7148
247.1130, 716.5908
247.5951, 714.5816
248.0772, 712.9004
248.5593, 711.7907
249.0414, 710.0193
249.5236, 707.1700
250.0057, 703.9173
250.4878, 701.3444
250.9699, 699.7244
251.4520, 698.2930
251.9341, 696.9443
252.4163, 695.8156
252.8984, 693.9617
253.3805, 690.8652
253.8626, 687.4199
254.3447, 685.1631
254.8268, 684.8661
255.3090, 684.1127
255.7911, 682.1271
256.2732, 678.7444
256.7553, 675.4281
257.2374, 672.0106
257.7195, 668.8173
258.2017, 666.3435
258.6838, 664.9745
259.1659, 663.3870
259.6480, 661.0968
260.1301, 658.0788
260.6122, 655.6524
261.0944, 654.0552
261.5765, 652.7503
262.0586, 651.1497
262.5407, 649.1447
263.0228, 647.1907
263.5049, 645.5238
263.9871, 644.1006
264.4692, 641.9836
264.9513, 638.6918
265.4334, 635.4512
265.9155, 633.5844
266.3976, 633.7526
266.8798, 633.1191
267.3619, 630.9040
267.8440, 627.3529
268.3261, 624.6729
268.8082, 623.0891
269.2903, 621.9046
269.7725, 620.7119
270.2546, 619.6359
270.7367, 617.9823
271.2188, 615.4178
271.7009, 612.2570
272.1830, 609.8729
272.6652, 608.5166
273.1473, 607.2896
273.6294, 605.4730
274.1115, 602.9197
274.5936, 600.7224
275.0757, 599.0975
275.5579, 597.7936
276.0400, 596.1152
276.5221, 593.9857
277.0042, 591.7711
277.4863, 589.7572
277.9684, 587.9805
278.4506, 585.8021
278.9327, 583.0280
279.4148, 580.0251
279.8969, 577.7715
280.3790, 576.4318
280.8611, 574.7169
281.3433, 571.5334
281.8254, 566.8920
282.3075, 563.6061
282.7896, 562.0190
283.2717, 561.1873
283.7538, 559.6746
284.2360, 557.4662
284.7181, 555.0323
285.2002, 552.3384
285.6823, 549.4758
286.1644, 547.3865
286.6465, 546.2136
287.1287, 545.3519
287.6108, 544.2150
288.0929, 542.7873
288.5750, 540.8145
289.0571, 537.8864
289.5392, 534.3129
290.0214, 531.3810
290.5035, 529.1274
290.9856, 527.2842
291.4677, 525.7713
291.9498, 524.5134
292.4319, 523.0793
292.9141, 521.2479
293.3962, 519.1978
293.8783, 517.2769
294.3604, 515.4966
294.8425, 513.9363
295.3246, 512.7964
295.8068, 511.9481
296.2889, 510.9339
296.7710, 509.4933
297.2531, 508.0065
297.7352, 507.2090
298.2173, 507.0401
298.6995, 506.9548
299.1816, 506.5062
299.6637, 505.8580
300.1458, 505.4040
300.6279, 505.2875
301.1100, 505.1974
301.5922, 504.5542
302.0743, 503.5225
302.5564, 502.7894
303.0385, 502.9247
303.5206, 503.5385
304.0027, 504.0970
304.4849, 504.5213
304.9670, 504.8896
305.4491, 505.3829
305.9312, 505.8857
306.4133, 506.1211
306.8954, 505.6451
307.3776, 505.0114
307.8597, 504.8311
308.3418, 505.1795
308.8239, 505.6302
309.3060, 505.8353
309.7881, 505.9521
310.2703, 506.2172
310.7524, 506.9782
311.2345, 507.7492
311.7166, 505.7975
312.1987, 508.5735
312.6808, 510.2146
313.1630, 510.7818
313.6451, 507.0587
314.1272, 508.8757
314.6093, 508.4724
315.0914, 507.9781
315.5735, 510.5748
316.0557, 507.4758
316.5378, 510.0235
317.0199, 510.3170
317.5020, 511.6423
317.9841, 510.7336
318.4662, 510.5149
318.9484, 512.5308
319.4305, 513.3094
319.9126, 512.1436
320.3947, 513.5344
320.8768, 510.3572
321.3589, 511.1885
321.8411, 513.7493
322.3232, 512.6958
322.8053, 514.1274
323.2874, 514.6126
323.7695, 510.7963
324.2516, 514.4606
324.7338, 514.8899
325.2159, 511.9973
325.6980, 515.8391
326.1801, 517.3611
326.6622, 517.8093
327.1443, 513.9672
327.6265, 515.6652
328.1086, 515.1429
328.5907, 514.5295
329.0728, 517.0072
329.5549, 513.7891
330.0370, 516.2178
330.5192, 516.3923
331.0013, 517.5985
331.4834, 516.5708
331.9655, 516.2331
332.4476, 518.1300
332.9297, 518.7896
333.4119, 517.5047
333.8940, 518.3270
334.3761, 519.6097
334.8582, 520.2327
335.3403, 520.3859
335.8224, 519.9727
336.3046, 518.4821
336.7867, 518.0490
337.2688, 519.2143
337.7509, 521.0663
338.2330, 521.6336
338.7151, 520.4840
339.1973, 519.3949
339.6794, 519.1012
340.1615, 519.6482
340.6436, 520.1475
341.1257, 520.6302
341.6078, 521.0133
342.0900, 521.0673
342.5721, 520.7535
343.0542, 520.7421
343.5363, 521.3237
344.0184, 522.3649
344.5005, 523.3962
344.9827, 524.4503
345.4648, 525.2181
345.9469, 525.2083
346.4290, 524.5309
346.9111, 524.0031
347.3932, 523.6176
347.8754, 523.6553
348.3575, 525.1417
348.8396, 527.9118
349.3217, 530.2440
349.8038, 530.4578
350.2859, 529.3613
350.7681, 529.0266
351.2502, 529.8329
351.7323, 530.8627
352.2144, 530.9786
352.6965, 530.4322
353.1786, 529.9812
353.6608, 530.0775
354.1429, 530.4577
354.6250, 530.8947
355.1071, 531.3934
355.5892, 531.7094
356.0714, 531.3145
356.5535, 530.6989
357.0356, 530.5939
357.5177, 532.0471
357.9998, 533.4581
358.4819, 533.4465
358.9641, 532.2404
359.4462, 531.1014
359.9283, 530.4099
360.4104, 530.2121
360.8925, 530.6372
361.3746, 532.2075
361.8568, 533.5296
362.3389, 533.9001
362.8210, 533.5916
363.3031, 533.2402
363.7852, 532.9058
364.2673, 532.6779
364.7495, 532.6566
365.2316, 532.9557
365.7137, 533.0735
366.1958, 532.5898
366.6779, 531.9858
367.1600, 531.8232
367.6422, 532.5790
368.1243, 533.3551
368.6064, 534.0080
369.0885, 534.5363
369.5706, 534.9327
370.0527, 535.0833
370.5349, 535.1995
371.0170, 535.4366
371.4991, 535.9913
371.9812, 536.3383
372.4633, 536.3978
372.9454, 536.2316
373.4276, 536.0201
373.9097, 535.6520
374.3918, 535.4356
374.8739, 535.4918
375.3560, 535.8054
375.8381, 536.5181
376.3203, 537.8011
376.8024, 539.2455
377.2845, 540.0923
377.7666, 540.1619
378.2487, 540.5799
378.7308, 541.8484
379.2130, 543.8123
379.6951, 545.2877
380.1772, 546.2214
380.6593, 546.9868
381.1414, 548.0150
381.6235, 549.2471
382.1057, 550.1223
382.5878, 550.2716
383.0699, 550.3465
383.5520, 551.9167
384.0341, 554.8375
384.5162, 557.4770
384.9984, 558.4141
385.4805, 558.3954
385.9626, 559.1258
386.4447, 560.8721
386.9268, 562.8316
387.4089, 564.0922
387.8911, 564.9398
388.3732, 565.9904
388.8553, 567.6604
389.3374, 569.5696
389.8195, 571.2587
390.3016, 572.7285
390.7838, 574.4583
391.2659, 577.0457
391.7480, 579.9022
392.2301, 582.3983
392.7122, 584.0981
393.1943, 585.7823
393.6765, 587.8375
394.1586, 590.1754
394.6407, 592.4913
395.1228, 594.5548
395.6049, 596.6957
396.0870, 599.0989
396.5692, 601.7956
397.0513, 604.6920
397.5334, 607.9254
398.0155, 611.3126
398.4976, 614.5789
398.9797, 617.6979
399.4619, 620.7101
399.9440, 623.5518
400.4261, 626.2158
400.9082, 628.9948
401.3903, 631.4866
401.8724, 634.4560
402.3546, 638.5364
402.8367, 644.5058
403.3188, 649.7640
403.8009, 653.9851
404.2830, 657.4882
404.7651, 660.9650
405.2473, 664.1889
405.7294, 667.9495
406.2115, 672.7861
406.6936, 678.7012
407.1757, 684.1500
407.6578, 689.0395
408.1400, 693.7652
408.6221, 698.7590
409.1042, 704.0252
409.5863, 709.7374
410.0684, 716.2340
410.5505, 722.9670
411.0327, 728.8505
411.5148, 733.9294
411.9969, 738.8217
412.4790, 743.7372
412.9611, 748.8818
413.4432, 754.6993
413.9254, 761.3703
414.4075, 768.4944
414.8896, 775.9777
415.3717, 783.6215
415.8538, 790.9065
416.3359, 797.0682
416.8181, 803.0355
417.3002, 809.4358
417.7823, 816.3699
418.2644, 823.7255
418.7465, 831.9654
419.2286, 840.5175
419.7108, 848.7264
420.1929, 856.4047
420.6750, 863.8663
421.1571, 871.0722
421.6392, 878.1705
422.1213, 885.3693
422.6035, 892.4526
423.0856, 899.8529
423.5677, 908.0432
424.0498, 917.4602
424.5319, 926.0250
425.0140, 932.9794
425.4962, 939.3889
425.9783, 946.3649
426.4604, 954.5130
426.9425, 962.3561
427.4246, 969.4112
427.9067, 975.9412
428.3889, 983.3739
428.8710, 992.1374
429.3531, 1001.022
429.8352, 1009.526
430.3173, 1017.515
430.7994, 1025.192
431.2816, 1032.576
431.7637, 1039.580
432.2458, 1045.693
432.7279, 1050.830
433.2100, 1056.262
433.6921, 1062.462
434.1743, 1069.302
434.6564, 1076.523
435.1385, 1084.251
435.6206, 1091.252
436.1027, 1096.265
436.5848, 1099.745
437.0670, 1102.878
437.5491, 1105.852
438.0312, 1108.690
438.5133, 1111.629
438.9954, 1114.531
439.4775, 1116.993
439.9597, 1118.775
440.4418, 1120.074
440.9239, 1121.070
441.4060, 1121.785
441.8881, 1122.118
442.3702, 1121.586
442.8524, 1120.844
443.3345, 1120.557
443.8166, 1122.579
444.2987, 1123.095
444.7808, 1120.318
445.2629, 1115.045
445.7451, 1109.586
446.2272, 1104.878
446.7093, 1099.755
447.1914, 1093.604
447.6735, 1085.879
448.1556, 1078.832
448.6378, 1073.553
449.1199, 1068.283
449.6020, 1061.159
450.0841, 1051.667
450.5662, 1041.718
451.0483, 1031.550
451.5305, 1021.112
452.0126, 1010.452
452.4947, 999.4824
452.9768, 988.2947
453.4589, 976.7350
453.9410, 964.6890
454.4232, 952.9993
454.9053, 941.6146
455.3874, 930.2458
455.8695, 918.3024
456.3516, 905.7900
456.8337, 893.2201
457.3159, 880.4566
457.7980, 867.8015
458.2801, 855.7302
458.7622, 844.2587
459.2443, 833.0325
459.7264, 822.5137
460.2086, 811.9440
460.6907, 800.1924
461.1728, 786.8239
461.6549, 773.7299
462.1370, 762.8668
462.6191, 753.2145
463.1013, 743.5281
463.5834, 732.9788
464.0655, 722.6075
464.5476, 712.9799
465.0297, 704.0865
465.5118, 695.3615
465.9940, 686.9335
466.4761, 678.5997
466.9582, 670.2833
467.4403, 661.7142
467.9224, 653.4662
468.4045, 645.6464
468.8867, 638.1414
469.3688, 630.6243
469.8509, 622.9745
470.3330, 615.7881
470.8151, 609.3076
471.2972, 603.4713
471.7794, 597.6009
472.2615, 591.5899
472.7436, 585.6944
473.2257, 580.0282
473.7078, 574.5684
474.1899, 569.5467
474.6721, 565.0267
475.1542, 560.7224
475.6363, 556.2048
476.1184, 551.5089
476.6005, 546.8577
477.0826, 542.1505
477.5648, 537.6594
478.0469, 533.8635
478.5290, 530.7092
479.0111, 527.7107
479.4932, 524.5777
479.9753, 521.3869
480.4575, 518.1870
480.9396, 514.9269
481.4217, 511.8396
481.9038, 509.2129
482.3859, 506.8655
482.8680, 504.5660
483.3502, 502.3219
483.8323, 500.0247
484.3144, 497.5777
484.7965, 495.0110
485.2786, 492.5033
485.7607, 489.5450
486.2429, 487.1057
486.7250, 485.7626
487.2071, 486.4044
487.6892, 486.2706
488.1713, 485.2337
488.6534, 483.5194
489.1356, 481.2372
489.6177, 477.9328
490.0998, 475.4510
490.5819, 474.4599
491.0640, 474.6051
491.5461, 473.9916
492.0283, 472.5159
492.5104, 471.0849
492.9925, 470.4501
493.4746, 470.4433
493.9567, 470.1838
494.4388, 469.5510
494.9210, 468.9243
495.4031, 468.8001
495.8852, 469.0115
496.3673, 469.1421
496.8494, 468.9642
497.3315, 468.6871
497.8137, 468.4670
498.2958, 468.2998
498.7779, 468.1986
499.2600, 468.1851
499.7421, 468.2246
500.2242, 468.3212
500.7064, 468.5091
501.1885, 468.6173
501.6706, 468.4662
502.1527, 468.2787
502.6348, 468.2831
503.1169, 468.8990
503.5991, 469.2530
504.0812, 469.1293
504.5633, 468.6699
505.0454, 468.3590
505.5275, 468.1168
506.0096, 468.1792
506.4918, 468.7420
506.9739, 469.8745
507.4560, 470.6553
507.9381, 470.9887
508.4202, 471.2216
508.9023, 471.7906
509.3845, 472.6638
509.8666, 473.2705
510.3487, 473.4577
510.8308, 473.4229
511.3129, 473.4039
511.7950, 473.4261
512.2772, 473.6002
512.7593, 474.0096
513.2414, 474.5913
513.7235, 475.3613
514.2056, 476.3024
514.6877, 477.1278
515.1699, 477.4007
515.6520, 477.6002
516.1341, 478.2450
516.6162, 479.8771
517.0983, 481.1049
517.5804, 481.1873
518.0626, 480.6326
518.5447, 480.2775
519.0268, 480.2548
519.5089, 480.4457
519.9910, 480.9577
520.4731, 481.7516
520.9553, 482.1804
521.4374, 482.0934
521.9195, 481.8665
522.4016, 481.6503
522.8837, 481.3971
523.3658, 481.4856
523.8480, 482.0145
524.3301, 482.7010
524.8122, 483.2241
525.2943, 483.5849
525.7764, 483.7070
526.2585, 483.4360
526.7407, 483.0770
527.2228, 483.2739
527.7049, 483.9409
528.1870, 484.5614
528.6691, 484.5111
529.1512, 484.4073
529.6334, 485.1473
530.1155, 486.8248
530.5976, 488.3337
531.0797, 488.8798
531.5618, 488.9978
532.0439, 489.2042
532.5261, 489.6284
533.0082, 490.1392
533.4903, 490.7597
533.9724, 491.4362
534.4545, 492.0764
534.9366, 492.8545
535.4188, 493.3713
535.9009, 493.3530
536.3830, 492.8286
536.8651, 492.9340
537.3472, 493.7978
537.8293, 495.0523
538.3115, 496.6211
538.7936, 498.5616
539.2757, 499.9418
539.7578, 500.5957
540.2399, 501.0153
540.7220, 501.8846
541.2042, 503.1234
541.6863, 504.3427
542.1684, 505.4660
542.6505, 506.4671
543.1326, 507.1043
543.6147, 507.5209
544.0969, 508.3022
544.5790, 509.8902
545.0611, 511.8932
545.5432, 514.1323
546.0253, 516.6010
546.5074, 518.8111
546.9896, 520.1844
547.4717, 521.3998
547.9538, 523.0111
548.4359, 525.4694
548.9180, 527.8467
549.4001, 530.0499
549.8823, 532.1577
550.3644, 534.2752
550.8465, 536.3417
551.3286, 538.5884
551.8107, 541.1005
552.2928, 543.8646
552.7750, 546.6808
553.2571, 549.5704
553.7392, 552.4854
554.2213, 555.4377
554.7034, 558.3847
555.1855, 561.1869
555.6677, 563.8080
556.1498, 566.4922
556.6319, 569.4832
557.1140, 572.7025
557.5961, 575.9553
558.0782, 579.1174
558.5604, 582.4174
559.0425, 585.9024
559.5246, 589.6401
560.0067, 593.7747
560.4888, 598.8188
560.9709, 603.8229
561.4531, 608.1014
561.9352, 611.6599
562.4173, 615.7402
562.8994, 620.9922
563.3815, 626.4212
563.8636, 631.6454
564.3458, 636.7473
564.8279, 641.2166
565.3100, 644.6124
565.7921, 647.9987
566.2742, 652.8856
566.7563, 659.4754
567.2385, 665.8255
567.7206, 671.4180
568.2027, 676.6282
568.6848, 681.9710
569.1669, 687.4998
569.6490, 693.0795
570.1312, 698.4357
570.6133, 703.9718
571.0954, 710.3562
571.5775, 717.6281
572.0596, 724.8969
572.5417, 731.2421
573.0239, 737.6391
573.5060, 744.9937
573.9881, 754.0528
574.4702, 762.6371
574.9523, 769.7056
575.4344, 776.2018
575.9166, 783.2205
576.3987, 790.9739
576.8808, 799.2846
577.3629, 808.5685
577.8450, 818.4013
578.3271, 827.4030
578.8093, 835.2069
579.2914, 843.1621
579.7735, 851.6777
580.2556, 860.6519
580.7377, 870.5394
581.2198, 881.3730
581.7020, 892.1404
582.1841, 901.8627
582.6662, 910.8415
583.1483, 919.9432
583.6304, 929.1097
584.1125, 938.5576
584.5947, 948.3820
585.0768, 958.6185
585.5589, 969.3345
586.0410, 981.1630
586.5231, 992.8226
587.0052, 1003.393
587.4874, 1013.365
587.9695, 1023.825
588.4516, 1035.212
588.9337, 1047.040
589.4158, 1059.312
