##NAMES=Rutile
##RRUFFID=R060745
##IDEAL CHEMISTRY=Ti^4+^O_2_
##LOCALITY=Zagi Mountain near Hammedabad, Knaffor Dehri, NW Frontier Provence, Pakistan
##OWNER=RRUFF
##SOURCE=Herb Obodda
##DESCRIPTION=Group of black prismatic crystals
##STATUS=The identification of this mineral has been confirmed by X-ray diffraction and chemical analysis
##URL=rruff.info/R060745
##MEASURED CHEMISTRY=(Ti_0.96_Nb^5+^_0.02_Fe^3+^_0.02_)_Î£=1_O_2_
142.2540, 756.3795
142.7361, 756.2238
143.2183, 757.4614
143.7004, 759.4938
144.1825, 762.4601
144.6646, 766.0254
145.1467, 769.8851
145.6288, 774.1262
146.1110, 778.6549
146.5931, 785.0243
147.0752, 794.4009
147.5573, 795.5047
148.0394, 779.9929
148.5215, 760.3021
149.0037, 750.8821
149.4858, 763.8962
149.9679, 774.8167
150.4500, 777.1214
150.9321, 765.8264
151.4142, 758.3888
151.8964, 755.9967
152.3785, 757.4697
152.8606, 760.6392
153.3427, 768.9761
153.8248, 776.2693
154.3069, 780.1978
154.7890, 779.4529
155.2712, 777.2075
155.7533, 771.7070
156.2354, 764.5505
156.7175, 760.9952
157.1996, 764.6255
157.6817, 770.5812
158.1639, 775.9610
158.6460, 778.8327
159.1281, 782.3104
159.6102, 787.1204
160.0923, 793.1964
160.5744, 800.0988
161.0566, 810.3022
161.5387, 820.1166
162.0208, 826.1592
162.5029, 827.8759
162.9850, 825.0721
163.4671, 814.7332
163.9493, 796.3125
164.4314, 781.5934
164.9135, 776.5286
165.3956, 778.5250
165.8777, 784.0304
166.3598, 794.6575
166.8420, 806.3384
167.3241, 816.9461
167.8062, 826.6932
168.2883, 833.6156
168.7704, 834.5778
169.2525, 831.7993
169.7346, 829.9745
170.2168, 835.1387
170.6989, 840.8148
171.1810, 839.6230
171.6631, 827.6340
172.1452, 814.8510
172.6273, 809.3091
173.1095, 810.0465
173.5916, 813.3848
174.0737, 818.8680
174.5558, 825.1524
175.0379, 829.7382
175.5201, 830.0076
176.0022, 830.9995
176.4843, 841.9089
176.9664, 861.1764
177.4485, 876.7598
177.9306, 876.4553
178.4128, 865.6820
178.8949, 855.9578
179.3770, 851.1489
179.8591, 849.1983
180.3412, 845.3870
180.8233, 839.5964
181.3055, 837.4971
181.7876, 850.3690
182.2697, 872.8411
182.7518, 886.9788
183.2339, 878.1194
183.7160, 856.6772
184.1981, 849.2017
184.6803, 857.0823
185.1624, 869.9729
185.6445, 879.4001
186.1266, 884.7839
186.6087, 882.9151
187.0908, 864.9974
187.5730, 836.8756
188.0551, 823.5865
188.5372, 827.7921
189.0193, 841.3185
189.5014, 853.9214
189.9835, 865.6906
190.4657, 875.9775
190.9478, 885.5355
191.4299, 893.9669
191.9120, 896.1220
192.3941, 889.3604
192.8762, 879.7895
193.3584, 881.1165
193.8405, 894.0248
194.3226, 907.2197
194.8047, 913.5117
195.2868, 913.0407
195.7689, 910.0681
196.2511, 904.5586
196.7332, 897.2445
197.2153, 889.3043
197.6974, 880.1273
198.1795, 873.4528
198.6616, 873.3605
199.1437, 880.3553
199.6259, 886.1084
200.1080, 888.7920
200.5901, 889.2166
201.0722, 891.8592
201.5543, 897.8982
202.0364, 902.4075
202.5186, 898.1536
203.0007, 882.7530
203.4828, 875.3868
203.9649, 883.9387
204.4470, 906.0060
204.9291, 914.5021
205.4113, 905.6244
205.8934, 891.4838
206.3755, 885.8476
206.8576, 891.0626
207.3397, 894.5355
207.8218, 891.6342
208.3040, 882.1982
208.7861, 878.9476
209.2682, 884.2291
209.7503, 892.3237
210.2324, 896.2241
210.7145, 895.7515
211.1967, 891.5993
211.6788, 882.3729
212.1609, 866.8644
212.6430, 857.0983
213.1251, 854.3857
213.6072, 856.1963
214.0894, 859.6885
214.5715, 866.9749
215.0536, 870.7474
215.5357, 866.6707
216.0178, 851.4878
216.4999, 843.2198
216.9820, 844.3669
217.4642, 850.7334
217.9463, 854.9145
218.4284, 857.7906
218.9105, 856.5201
219.3926, 846.9789
219.8747, 820.8474
220.3569, 812.4369
220.8390, 829.8599
221.3211, 861.8431
221.8032, 881.5300
222.2853, 886.2008
222.7674, 883.0400
223.2496, 873.1620
223.7317, 849.3804
224.2138, 837.5038
224.6959, 842.5916
225.1780, 859.2430
225.6601, 870.5420
226.1423, 874.4980
226.6244, 875.9749
227.1065, 877.6618
227.5886, 880.8138
228.0707, 881.0648
228.5528, 876.2943
229.0350, 868.1904
229.5171, 865.1303
229.9992, 870.4236
230.4813, 876.1772
230.9634, 877.3925
231.4455, 871.2631
231.9276, 866.4427
232.4098, 863.8296
232.8919, 863.1595
233.3740, 863.0825
233.8561, 864.6859
234.3382, 865.5428
234.8203, 863.2806
235.3025, 853.5303
235.7846, 849.8746
236.2667, 857.4080
236.7488, 874.3187
237.2309, 880.1441
237.7130, 867.6030
238.1952, 852.3696
238.6773, 846.7177
239.1594, 857.9689
239.6415, 864.1542
240.1236, 859.2759
240.6057, 844.2969
241.0879, 840.6570
241.5700, 856.7278
242.0521, 875.1007
242.5342, 880.4557
243.0163, 863.1074
243.4984, 851.3685
243.9806, 851.4919
244.4627, 863.2110
244.9448, 870.3155
245.4269, 870.4006
245.9090, 868.2535
246.3911, 868.2794
246.8732, 872.4666
247.3554, 874.9097
247.8375, 874.4429
248.3196, 871.0438
248.8017, 866.4908
249.2838, 860.0593
249.7659, 853.3126
250.2481, 847.2957
250.7302, 840.8166
251.2123, 837.6756
251.6944, 839.8006
252.1765, 847.3614
252.6586, 851.9880
253.1408, 851.7680
253.6229, 850.7410
254.1050, 854.0036
254.5871, 866.2661
255.0692, 872.4552
255.5513, 867.0761
256.0334, 849.6454
256.5156, 839.5396
256.9977, 840.0270
257.4798, 844.1899
257.9619, 844.3321
258.4440, 837.4830
258.9261, 833.4487
259.4083, 834.8621
259.8904, 841.9175
260.3725, 849.5460
260.8546, 860.8834
261.3367, 869.0119
261.8188, 863.9774
262.3010, 837.7211
262.7831, 819.2598
263.2652, 818.3240
263.7473, 835.3145
264.2294, 841.8185
264.7115, 833.9040
265.1937, 820.7144
265.6758, 811.2609
266.1579, 804.5325
266.6400, 805.4171
267.1221, 818.1937
267.6042, 842.8763
268.0864, 858.2461
268.5685, 852.9659
269.0506, 864.8861
269.5327, 871.2891
270.0148, 872.4716
270.4969, 852.7969
270.9791, 860.0547
271.4612, 856.5192
271.9433, 852.5412
272.4254, 863.5897
272.9075, 846.9487
273.3896, 857.7590
273.8718, 857.6110
274.3539, 862.4785
274.8360, 856.4859
275.3181, 853.8476
275.8002, 862.0728
276.2823, 864.2828
276.7645, 857.0399
277.2466, 862.2261
277.7287, 845.2057
278.2108, 847.6720
278.6929, 858.5458
279.1750, 851.8491
279.6572, 857.2337
280.1393, 847.3526
280.6214, 847.4137
281.1035, 843.2735
281.5856, 834.4756
282.0677, 830.8807
282.5499, 837.4893
283.0320, 851.4429
283.5141, 858.5002
283.9962, 857.9946
284.4783, 853.6861
284.9604, 845.9435
285.4425, 834.9822
285.9247, 833.3200
286.4068, 848.7732
286.8889, 874.4948
287.3710, 886.0235
287.8531, 882.1693
288.3352, 873.9105
288.8174, 871.7142
289.2995, 874.8085
289.7816, 876.4429
290.2637, 874.8295
290.7458, 870.6699
291.2279, 865.2474
291.7101, 858.5178
292.1922, 851.3733
292.6743, 842.8875
293.1564, 834.1199
293.6385, 830.3191
294.1206, 834.6251
294.6028, 842.9731
295.0849, 848.1849
295.5670, 850.3280
296.0491, 850.8845
296.5312, 849.4269
297.0133, 847.1873
297.4955, 848.4839
297.9776, 857.3445
298.4597, 866.5370
298.9418, 862.3748
299.4239, 846.3914
299.9060, 831.1229
300.3882, 828.0190
300.8703, 832.0588
301.3524, 833.0668
301.8345, 827.2305
302.3166, 820.1161
302.7987, 817.9086
303.2809, 820.0972
303.7630, 824.1443
304.2451, 829.5829
304.7272, 835.4688
305.2093, 840.1900
305.6914, 842.9425
306.1736, 845.4941
306.6557, 851.8901
307.1378, 860.1655
307.6199, 863.7816
308.1020, 854.0327
308.5841, 839.9893
309.0663, 831.6931
309.5484, 832.5057
310.0305, 834.7064
310.5126, 831.8489
310.9947, 826.0512
311.4768, 822.3977
311.9590, 826.7069
312.4411, 832.1964
312.9232, 832.9528
313.4053, 826.7254
313.8874, 820.5084
314.3695, 816.3758
314.8516, 814.8472
315.3337, 816.8128
315.8159, 828.3528
316.2980, 839.2305
316.7801, 842.3011
317.2622, 834.4189
317.7443, 829.0026
318.2264, 836.1601
318.7086, 847.8844
319.1907, 853.0281
319.6728, 839.2833
320.1549, 826.0556
320.6370, 821.8088
321.1191, 828.4261
321.6013, 835.9490
322.0834, 847.7047
322.5655, 857.0078
323.0476, 856.5612
323.5297, 827.3478
324.0118, 805.4324
324.4940, 803.6470
324.9761, 824.7366
325.4582, 840.8702
325.9403, 848.8252
326.4224, 850.7275
326.9045, 848.5471
327.3867, 834.7251
327.8688, 825.0936
328.3509, 823.8666
328.8330, 830.9496
329.3151, 834.6539
329.7972, 829.7164
330.2794, 825.3135
330.7615, 828.3150
331.2436, 849.8290
331.7257, 861.8282
332.2078, 859.6234
332.6899, 844.9766
333.1721, 829.1331
333.6542, 807.7839
334.1363, 790.8952
334.6184, 785.0252
335.1005, 794.3645
335.5826, 804.6566
336.0648, 816.2934
336.5469, 827.9075
337.0290, 835.4578
337.5111, 838.6791
337.9932, 838.3687
338.4753, 833.8860
338.9575, 824.1243
339.4396, 816.5551
339.9217, 811.6984
340.4038, 808.8694
340.8859, 806.1767
341.3680, 803.2218
341.8502, 802.7385
342.3323, 808.1456
342.8144, 819.3190
343.2965, 824.0679
343.7786, 821.2700
344.2607, 814.8254
344.7429, 808.4175
345.2250, 802.1981
345.7071, 800.5668
346.1892, 809.0953
346.6713, 823.9672
347.1534, 829.5122
347.6355, 824.6331
348.1176, 817.7719
348.5998, 819.5522
349.0819, 827.6691
349.5640, 832.2220
350.0461, 827.0821
350.5282, 817.6868
351.0103, 813.4750
351.4925, 814.3365
351.9746, 817.7853
352.4567, 823.8174
352.9388, 830.7476
353.4209, 835.3239
353.9030, 836.1322
354.3852, 834.8434
354.8673, 831.2487
355.3494, 826.2737
355.8315, 824.4174
356.3136, 831.6226
356.7957, 842.1760
357.2779, 850.3535
357.7600, 856.2524
358.2421, 857.0463
358.7242, 845.0189
359.2063, 825.8423
359.6884, 814.0620
360.1706, 820.1385
360.6527, 833.3412
361.1348, 847.9005
361.6169, 864.5404
362.0990, 877.4258
362.5811, 884.7103
363.0633, 886.9019
363.5454, 884.7886
364.0275, 873.6091
364.5096, 862.5137
364.9917, 855.7194
365.4738, 854.5687
365.9560, 851.4518
366.4381, 839.2511
366.9202, 826.9486
367.4023, 823.5646
367.8844, 840.4727
368.3665, 855.2153
368.8487, 862.8079
369.3308, 863.1627
369.8129, 865.6594
370.2950, 871.4595
370.7771, 878.4391
371.2592, 885.5858
371.7414, 895.9125
372.2235, 900.6592
372.7056, 896.2236
373.1877, 885.1758
373.6698, 880.6465
374.1519, 886.1588
374.6341, 891.8799
375.1162, 891.8641
375.5983, 884.3082
376.0804, 877.9216
376.5625, 872.0634
377.0446, 868.5852
377.5267, 873.2092
378.0089, 887.8421
378.4910, 900.8631
378.9731, 906.6479
379.4552, 905.4657
379.9373, 902.8084
380.4194, 897.7436
380.9016, 894.2431
381.3837, 899.9251
381.8658, 913.7935
382.3479, 923.8380
382.8300, 923.4595
383.3121, 916.9997
383.7943, 915.6362
384.2764, 919.4104
384.7585, 924.6500
385.2406, 930.6930
385.7227, 935.7368
386.2048, 933.9366
386.6870, 917.7714
387.1691, 901.4968
387.6512, 906.5481
388.1333, 928.7300
388.6154, 948.1780
389.0975, 949.7198
389.5797, 942.4481
390.0618, 935.9549
390.5439, 931.3746
391.0260, 929.0248
391.5081, 931.8492
391.9902, 936.9855
392.4724, 938.7217
392.9545, 929.2211
393.4366, 919.7042
393.9187, 918.6527
394.4008, 929.0952
394.8829, 934.5051
395.3651, 922.7565
395.8472, 905.5338
396.3293, 896.0328
396.8114, 905.2328
397.2935, 914.1547
397.7756, 917.4120
398.2578, 914.7709
398.7399, 913.6235
399.2220, 914.6057
399.7041, 917.1069
400.1862, 920.9956
400.6683, 930.5245
401.1505, 934.8384
401.6326, 929.7722
402.1147, 919.0800
402.5968, 915.8243
403.0789, 923.4432
403.5610, 932.9006
404.0432, 940.9134
404.5253, 948.3600
405.0074, 950.1354
405.4895, 943.7772
405.9716, 934.7138
406.4537, 931.9667
406.9359, 936.2186
407.4180, 942.0653
407.9001, 948.0776
408.3822, 954.1284
408.8643, 960.3887
409.3464, 967.2520
409.8285, 972.0917
410.3106, 971.2139
410.7928, 965.4960
411.2749, 959.2181
411.7570, 952.2218
412.2391, 946.6226
412.7212, 946.5359
413.2033, 951.5845
413.6855, 958.4517
414.1676, 966.4431
414.6497, 974.3475
415.1318, 979.9711
415.6139, 982.6848
416.0960, 984.1425
416.5782, 986.9846
417.0603, 989.6597
417.5424, 988.8076
418.0245, 976.3281
418.5066, 964.5439
418.9887, 964.2465
419.4709, 977.1878
419.9530, 986.2926
420.4351, 979.7988
420.9172, 967.5514
421.3993, 959.4687
421.8814, 958.7416
422.3636, 961.7999
422.8457, 969.8040
423.3278, 981.9269
423.8099, 991.8028
424.2920, 1001.048
424.7741, 1006.171
425.2563, 1005.081
425.7384, 989.8882
426.2205, 981.2994
426.7026, 982.2157
427.1847, 988.6671
427.6668, 992.4656
428.1490, 991.3627
428.6311, 991.8711
429.1132, 997.2656
429.5953, 1008.224
430.0774, 1014.005
430.5595, 1013.570
431.0417, 1010.208
431.5238, 1006.484
432.0059, 1002.176
432.4880, 1000.876
432.9701, 1004.482
433.4522, 1010.907
433.9344, 1013.229
434.4165, 1011.305
434.8986, 1011.110
435.3807, 1019.201
435.8628, 1032.521
436.3449, 1042.327
436.8271, 1047.608
437.3092, 1048.975
437.7913, 1045.834
438.2734, 1039.176
438.7555, 1031.674
439.2376, 1023.395
439.7197, 1015.626
440.2018, 1007.252
440.6840, 998.2621
441.1661, 997.1481
441.6482, 1017.677
442.1303, 1045.185
442.6124, 1064.548
443.0945, 1068.231
443.5767, 1066.317
444.0588, 1059.457
444.5409, 1049.191
445.0230, 1041.216
445.5051, 1036.577
445.9872, 1034.827
446.4694, 1036.588
446.9515, 1045.950
447.4336, 1049.837
447.9157, 1043.405
448.3978, 1033.248
448.8799, 1028.448
449.3621, 1030.800
449.8442, 1035.743
450.3263, 1043.800
450.8084, 1054.665
451.2905, 1059.427
451.7726, 1055.845
452.2548, 1050.765
452.7369, 1049.410
453.2190, 1052.003
453.7011, 1055.937
454.1832, 1061.058
454.6653, 1067.056
455.1475, 1075.752
455.6296, 1086.823
456.1117, 1092.030
456.5938, 1084.586
457.0759, 1067.992
457.5580, 1048.337
458.0402, 1024.915
458.5223, 1009.425
459.0044, 1020.431
459.4865, 1046.494
459.9686, 1065.764
460.4507, 1067.666
460.9329, 1062.829
461.4150, 1059.239
461.8971, 1056.413
462.3792, 1052.310
462.8613, 1042.671
463.3434, 1033.447
463.8256, 1029.779
464.3077, 1035.129
464.7898, 1038.935
465.2719, 1031.920
465.7540, 1022.945
466.2361, 1024.876
466.7183, 1058.101
467.2004, 1083.411
467.6825, 1088.194
468.1646, 1072.254
468.6467, 1060.909
469.1288, 1054.543
469.6109, 1052.510
470.0930, 1056.415
470.5752, 1072.499
471.0573, 1074.486
471.5394, 1052.834
472.0215, 1021.801
472.5036, 1018.477
472.9857, 1048.120
473.4679, 1073.483
473.9500, 1072.724
474.4321, 1051.319
474.9142, 1046.644
475.3963, 1060.555
475.8784, 1076.665
476.3606, 1076.350
476.8427, 1064.473
477.3248, 1056.575
477.8069, 1058.457
478.2890, 1063.435
478.7711, 1063.633
479.2533, 1060.093
479.7354, 1056.628
480.2175, 1052.938
480.6996, 1051.792
481.1817, 1057.544
481.6638, 1072.377
482.1460, 1083.773
482.6281, 1083.579
483.1102, 1077.419
483.5923, 1071.700
484.0744, 1062.829
484.5565, 1059.930
485.0387, 1070.515
485.5208, 1092.217
486.0029, 1103.594
486.4850, 1096.473
486.9671, 1086.100
487.4492, 1079.193
487.9314, 1076.916
488.4135, 1074.935
488.8956, 1072.540
489.3777, 1071.230
489.8598, 1073.922
490.3419, 1081.629
490.8241, 1088.719
491.3062, 1094.751
491.7883, 1098.825
492.2704, 1093.953
492.7525, 1079.210
493.2346, 1067.945
493.7168, 1074.817
494.1989, 1094.000
494.6810, 1107.107
495.1631, 1110.331
495.6452, 1110.924
496.1273, 1118.254
496.6095, 1129.470
497.0916, 1137.208
497.5737, 1135.226
498.0558, 1130.647
498.5379, 1128.236
499.0201, 1128.119
499.5022, 1130.035
499.9843, 1135.108
500.4664, 1141.494
500.9485, 1148.162
501.4306, 1159.679
501.9127, 1164.195
502.3948, 1152.053
502.8770, 1132.427
503.3591, 1124.017
503.8412, 1137.226
504.3233, 1149.096
504.8054, 1153.505
505.2875, 1150.204
505.7697, 1147.343
506.2518, 1144.836
506.7339, 1142.804
507.2160, 1140.481
507.6981, 1137.378
508.1802, 1139.967
508.6624, 1151.443
509.1445, 1164.736
509.6266, 1165.630
510.1087, 1155.022
510.5908, 1143.284
511.0729, 1132.757
511.5551, 1125.190
512.0372, 1126.954
512.5193, 1137.867
513.0014, 1146.333
513.4835, 1138.258
513.9656, 1124.507
514.4478, 1119.805
514.9299, 1133.039
515.4120, 1145.569
515.8941, 1147.331
516.3762, 1141.051
516.8583, 1132.278
517.3405, 1118.726
517.8226, 1106.611
518.3047, 1099.051
518.7868, 1096.744
519.2689, 1092.736
519.7510, 1080.501
520.2332, 1071.418
520.7153, 1074.358
521.1974, 1097.999
521.6795, 1113.483
522.1616, 1118.741
522.6437, 1115.398
523.1259, 1102.808
523.6080, 1077.755
524.0901, 1063.429
524.5722, 1074.805
525.0543, 1104.261
525.5364, 1117.775
526.0186, 1114.823
526.5007, 1107.261
526.9828, 1104.938
527.4649, 1105.630
527.9470, 1103.977
528.4291, 1098.031
528.9113, 1092.384
529.3934, 1093.737
529.8755, 1098.368
530.3576, 1098.946
530.8397, 1085.643
531.3218, 1073.051
531.8040, 1071.002
532.2861, 1079.182
532.7682, 1084.992
533.2503, 1083.778
533.7324, 1080.194
534.2145, 1076.883
534.6967, 1073.066
535.1788, 1071.284
535.6609, 1071.778
536.1430, 1074.238
536.6251, 1078.176
537.1072, 1083.798
537.5894, 1090.679
538.0715, 1099.403
538.5536, 1109.346
539.0357, 1116.937
539.5178, 1122.155
539.9999, 1125.035
540.4821, 1124.032
540.9642, 1120.423
541.4463, 1119.610
541.9284, 1122.714
542.4105, 1125.178
542.8926, 1119.722
543.3748, 1110.161
543.8569, 1104.297
544.3390, 1105.557
544.8211, 1111.143
545.3032, 1122.490
545.7853, 1137.551
546.2675, 1148.258
546.7495, 1146.483
547.2316, 1143.394
547.7137, 1144.803
548.1959, 1152.153
548.6780, 1161.012
549.1601, 1174.869
549.6422, 1187.716
550.1243, 1193.895
550.6064, 1190.699
551.0886, 1186.179
551.5707, 1179.802
552.0528, 1173.397
552.5349, 1173.394
553.0170, 1180.850
553.4991, 1187.845
553.9813, 1189.347
554.4634, 1186.969
554.9455, 1188.456
555.4276, 1193.875
555.9097, 1202.541
556.3918, 1216.871
556.8740, 1233.457
557.3561, 1245.569
557.8382, 1250.648
558.3203, 1253.656
558.8024, 1255.225
559.2845, 1257.821
559.7667, 1266.220
560.2488, 1293.491
560.7309, 1316.372
561.2130, 1320.303
561.6951, 1305.660
562.1772, 1300.630
562.6594, 1317.874
563.1415, 1338.565
563.6236, 1353.577
564.1057, 1360.989
564.5878, 1367.131
565.0699, 1370.560
565.5521, 1374.264
566.0342, 1383.721
566.5163, 1399.938
566.9984, 1412.540
567.4805, 1418.376
567.9626, 1419.423
568.4448, 1417.654
568.9269, 1413.777
569.4090, 1415.443
569.8911, 1429.336
570.3732, 1451.008
570.8553, 1475.467
571.3375, 1502.904
571.8196, 1526.796
572.3017, 1543.795
572.7838, 1555.008
573.2659, 1561.245
573.7480, 1555.827
574.2302, 1555.423
574.7123, 1567.034
575.1944, 1586.886
575.6765, 1607.152
576.1586, 1630.344
576.6407, 1650.043
577.1229, 1665.179
577.6050, 1675.724
578.0871, 1682.009
578.5692, 1683.479
579.0513, 1682.165
579.5334, 1677.525
580.0156, 1669.582
580.4977, 1668.186
580.9798, 1674.797
581.4619, 1684.382
581.9440, 1693.001
582.4261, 1699.778
582.9083, 1700.600
583.3904, 1688.150
583.8725, 1676.863
584.3546, 1687.462
584.8367, 1712.465
585.3188, 1729.350
585.8010, 1716.215
586.2831, 1700.162
586.7652, 1699.082
587.2473, 1715.871
587.7294, 1727.726
588.2115, 1725.031
588.6937, 1719.535
589.1758, 1719.548
589.6579, 1731.916
590.1400, 1736.085
590.6221, 1728.354
591.1042, 1715.226
591.5864, 1707.534
592.0685, 1705.755
592.5506, 1705.369
593.0327, 1704.462
593.5148, 1704.508
593.9969, 1711.712
594.4791, 1725.391
594.9612, 1736.620
595.4433, 1735.271
595.9254, 1729.968
596.4075, 1734.484
596.8896, 1750.505
597.3718, 1765.414
597.8539, 1768.871
598.3360, 1768.458
598.8181, 1772.105
599.3002, 1788.917
599.7823, 1799.266
600.2645, 1793.164
600.7466, 1778.711
601.2287, 1772.219
601.7108, 1777.512
602.1929, 1785.189
602.6750, 1793.677
603.1572, 1802.835
603.6393, 1812.272
604.1214, 1822.171
604.6035, 1831.209
605.0856, 1839.173
605.5677, 1845.703
606.0499, 1848.708
606.5320, 1847.885
607.0141, 1845.140
607.4962, 1838.651
607.9783, 1832.232
608.4604, 1833.667
608.9425, 1848.527
609.4246, 1864.852
609.9067, 1875.776
610.3889, 1882.477
610.8710, 1887.385
611.3531, 1892.583
611.8352, 1894.760
612.3173, 1891.299
612.7994, 1882.627
613.2816, 1876.173
613.7637, 1870.018
614.2458, 1869.001
614.7279, 1879.740
615.2100, 1906.163
615.6921, 1907.816
616.1743, 1878.022
616.6564, 1844.126
617.1385, 1839.334
617.6206, 1857.903
618.1027, 1868.596
618.5848, 1863.696
619.0670, 1852.188
619.5491, 1843.553
620.0312, 1836.602
620.5133, 1828.535
620.9954, 1815.675
621.4775, 1803.473
621.9597, 1795.677
622.4418, 1791.717
622.9239, 1787.630
623.4060, 1783.709
623.8881, 1778.241
624.3702, 1769.532
624.8524, 1756.173
625.3345, 1746.904
625.8166, 1742.135
626.2987, 1740.905
626.7808, 1745.366
627.2629, 1756.975
627.7451, 1755.326
628.2272, 1734.973
628.7093, 1709.052
629.1914, 1697.632
629.6735, 1698.043
630.1556, 1699.445
630.6378, 1701.321
631.1199, 1698.777
631.6020, 1682.728
632.0841, 1657.079
632.5662, 1635.138
633.0483, 1624.938
633.5305, 1618.644
634.0126, 1611.235
634.4947, 1601.715
634.9768, 1598.786
635.4589, 1613.657
635.9410, 1626.310
636.4232, 1623.830
636.9053, 1597.436
637.3874, 1583.348
637.8695, 1586.339
638.3516, 1593.775
