##NAMES=Rutile
##RRUFFID=R060493
##IDEAL CHEMISTRY=Ti^4+^O_2_
##LOCALITY=Diamantina, Minas Gerais, Brazil
##OWNER=RRUFF
##SOURCE=Michael Scott
##DESCRIPTION=Black tetragonal prism
##STATUS=The identification of this mineral has been confirmed by X-ray diffraction and chemical analysis
##URL=rruff.info/R060493
##MEASURED CHEMISTRY=Ti_1.00_O_2_
85.845, 3877.173
86.327, 3821.137
86.809, 3769.129
87.291, 3731.421
87.774, 3706.649
88.256, 3703.122
88.738, 3751.108
89.220, 3828.427
89.702, 3880.647
90.184, 3847.706
90.666, 3778.340
91.148, 3748.158
91.631, 3791.970
92.113, 3847.632
92.595, 3821.472
93.077, 3719.891
93.559, 3621.362
94.041, 3594.027
94.523, 3625.335
95.005, 3671.868
95.487, 3733.820
95.970, 3799.111
96.452, 3824.835
96.934, 3804.333
97.416, 3771.396
97.898, 3767.144
98.380, 3792.678
98.862, 3829.677
99.344, 3867.907
99.826, 3906.187
100.309, 3966.293
100.791, 4050.336
101.273, 4155.250
101.755, 4278.896
102.237, 4424.250
102.719, 4578.357
103.201, 4723.267
103.683, 4825.510
104.165, 5004.522
104.648, 5268.874
105.130, 5620.276
105.612, 6044.280
106.094, 6535.038
106.576, 7109.646
107.058, 7776.311
107.540, 8494.472
108.022, 9364.698
108.505, 10408.530
108.987, 11608.990
109.469, 13018.480
109.951, 14660.390
110.433, 16485.279
110.915, 18457.580
111.397, 20691.199
111.879, 22945.490
112.362, 25192.131
112.844, 27424.461
113.326, 29622.439
113.808, 31753.020
114.290, 33856.301
114.772, 35971.570
115.254, 38076.500
115.736, 40222.070
116.218, 42436.219
116.701, 44699.641
117.183, 47066.219
117.665, 49556.539
118.147, 52157.859
118.629, 54879.441
119.111, 57807.852
119.593, 60819.430
120.075, 63747.750
120.558, 66701.781
121.040, 69464.992
121.522, 71894.000
122.004, 73982.227
122.486, 75794.922
122.968, 77399.477
123.450, 78758.711
123.932, 79804.969
124.414, 80413.789
124.897, 80726.523
125.379, 80895.453
125.861, 80921.477
126.343, 80848.680
126.825, 80656.594
127.307, 80380.047
127.789, 80161.383
128.271, 80075.930
128.753, 80115.953
129.236, 80256.094
129.718, 80474.227
130.200, 80817.641
130.682, 81394.344
131.164, 82198.617
131.646, 83126.352
132.128, 84091.492
132.610, 85094.477
133.093, 86209.344
133.575, 87464.398
134.057, 88835.422
134.539, 90301.930
135.021, 91876.719
135.503, 93492.289
135.985, 95071.602
136.467, 96630.133
136.949, 98121.141
137.432, 99533.641
137.914, 100873.898
138.396, 102109.500
138.878, 103214.500
139.360, 104234.500
139.842, 105242.602
140.324, 106252.297
140.806, 107200.898
141.288, 108127.000
141.771, 109162.297
142.253, 109727.000
142.735, 109763.203
143.217, 109347.500
143.699, 108636.602
144.181, 107387.703
144.663, 106180.703
145.145, 105286.797
145.628, 104808.500
146.110, 104459.500
146.592, 104233.898
147.074, 104124.703
147.556, 104111.797
148.038, 104243.500
148.520, 104426.703
149.002, 104594.898
149.484, 104659.203
149.967, 104813.102
150.449, 105126.000
150.931, 105619.398
151.413, 106009.500
151.895, 106192.797
152.377, 106326.398
152.859, 106544.102
153.342, 106908.898
153.824, 107317.398
154.306, 107781.000
154.788, 108336.602
155.270, 108803.797
155.752, 109106.203
156.234, 109333.703
156.716, 109606.203
157.198, 109954.898
157.680, 110348.500
158.163, 110760.398
158.645, 111155.602
159.127, 111650.797
159.609, 112348.703
160.091, 113161.297
160.573, 113919.898
161.055, 114457.797
161.538, 114978.797
162.020, 115598.500
162.502, 116404.602
162.984, 117185.203
163.466, 117779.703
163.948, 118252.500
164.430, 118826.797
164.912, 119725.500
165.394, 120702.000
165.876, 121545.602
166.359, 122073.898
166.841, 122593.000
167.323, 123305.602
167.805, 124189.102
168.287, 125078.500
168.769, 125806.703
169.251, 126503.797
169.733, 127326.703
170.216, 128451.203
170.698, 129648.500
171.180, 130721.000
171.662, 131678.094
172.144, 132656.703
172.626, 133758.094
173.108, 134955.406
173.590, 136221.906
174.072, 137615.094
174.555, 139034.297
175.037, 140359.000
175.519, 141572.703
176.001, 142821.906
176.483, 144231.406
176.965, 145779.297
177.447, 147372.000
177.929, 148990.297
178.412, 150616.203
178.894, 152215.797
179.376, 153768.500
179.858, 155302.000
180.340, 156823.406
180.822, 158336.797
181.304, 159889.703
181.786, 161528.906
182.268, 163226.094
182.751, 164899.094
183.233, 166506.906
183.715, 168123.797
184.197, 169873.703
184.679, 171752.297
185.161, 173556.203
185.643, 175082.797
186.125, 176401.000
186.607, 177914.500
187.090, 179749.297
187.572, 181693.500
188.054, 183324.000
188.536, 184623.500
189.018, 185929.797
189.500, 187542.797
189.982, 189392.906
190.464, 191186.500
190.947, 192839.906
191.429, 194402.500
191.911, 195945.594
192.393, 197467.000
192.875, 198993.500
193.357, 200598.094
193.839, 202257.297
194.321, 203857.406
194.803, 205352.203
195.286, 206780.703
195.768, 208364.094
196.250, 210137.906
196.732, 211918.594
197.214, 213475.406
197.696, 214787.406
198.178, 216266.703
198.661, 218119.797
199.143, 220287.094
199.625, 222207.594
200.107, 223836.000
200.589, 225395.094
201.071, 227197.906
201.553, 229294.500
202.035, 231342.500
202.517, 233209.297
202.999, 234896.094
203.482, 236723.000
203.964, 238721.094
204.446, 240788.500
204.928, 242771.203
205.410, 244639.797
205.892, 246519.406
206.374, 248466.094
206.857, 250503.594
207.339, 252341.703
207.821, 253919.594
208.303, 255359.797
208.785, 256891.500
209.267, 258575.203
209.749, 260189.406
210.231, 261627.906
210.713, 262869.688
211.195, 264135.500
211.678, 265437.000
212.160, 266781.594
212.642, 268173.312
213.124, 269669.312
213.606, 271130.812
214.088, 272463.812
214.570, 273631.594
215.052, 274881.312
215.535, 276257.406
216.017, 277708.312
216.499, 279071.688
216.981, 280311.312
217.463, 281532.812
217.945, 282799.688
218.427, 284107.906
218.909, 285345.594
219.391, 286423.500
219.874, 287425.500
220.356, 288666.906
220.838, 290323.594
221.320, 291884.812
221.802, 293013.906
222.284, 293494.094
222.766, 294148.000
223.248, 295112.000
223.731, 296288.594
224.213, 297228.594
224.695, 297847.000
225.177, 298393.906
225.659, 299029.312
226.141, 299807.406
226.623, 300555.594
227.105, 301249.500
227.587, 301900.906
228.070, 302598.094
228.552, 303393.906
229.034, 304143.500
229.516, 304724.500
229.998, 305012.188
230.480, 305386.312
230.962, 305907.594
231.444, 306541.094
231.926, 307121.000
232.409, 307684.000
232.891, 308135.094
233.373, 308405.812
233.855, 308432.094
234.337, 308403.500
234.819, 308321.312
235.301, 308195.312
235.783, 308108.688
236.266, 308116.000
236.748, 308105.312
237.230, 308000.000
237.712, 307780.000
238.194, 307508.000
238.676, 307175.500
239.158, 306792.594
239.640, 306470.312
240.122, 306315.906
240.605, 306103.094
241.087, 305639.812
241.569, 304745.000
242.051, 303951.000
242.533, 303372.812
243.015, 302987.312
243.497, 302507.406
243.980, 301898.094
244.462, 301226.094
244.944, 300530.812
245.426, 299769.094
245.908, 299051.594
246.390, 298435.406
246.872, 297899.688
247.354, 297129.812
247.836, 296005.906
248.318, 294778.000
248.801, 293667.188
249.283, 292790.812
249.765, 291768.594
250.247, 290492.688
250.729, 288995.594
251.211, 287596.000
251.693, 286392.188
252.176, 285207.812
252.658, 283890.312
253.140, 282349.312
253.622, 280914.500
254.104, 279668.312
254.586, 278612.000
255.068, 277478.594
255.550, 276248.688
256.032, 275004.906
256.514, 273814.094
256.997, 272672.188
257.479, 271591.500
257.961, 270565.500
258.443, 269583.000
258.925, 268648.906
259.407, 267713.906
259.889, 266857.312
260.371, 266152.812
260.854, 265658.812
261.336, 265119.188
261.818, 264445.906
262.300, 263661.188
262.782, 263040.594
263.264, 262687.906
263.746, 262311.312
264.228, 261628.000
264.711, 260481.297
265.193, 259517.297
265.675, 258921.000
266.157, 258617.797
266.639, 257953.594
267.121, 256813.594
267.603, 255571.094
268.085, 254523.094
268.567, 253739.500
269.050, 252923.594
269.532, 252032.000
270.014, 251086.000
270.496, 250157.500
270.978, 249275.703
271.460, 248396.500
271.942, 247490.000
272.424, 246569.703
272.906, 245591.594
273.389, 244518.594
273.871, 243386.500
274.353, 242327.594
274.835, 241367.594
275.317, 240438.703
275.799, 239484.000
276.281, 238503.094
276.763, 237523.703
277.246, 236554.297
277.728, 235585.000
278.210, 234554.406
278.692, 233447.000
279.174, 232333.094
279.656, 231273.594
280.138, 230270.500
280.620, 229154.000
281.103, 227843.500
281.585, 226448.797
282.067, 225311.594
282.549, 224461.094
283.031, 223613.797
283.513, 222485.203
283.995, 221098.297
284.477, 219992.500
284.959, 219334.797
285.441, 218859.703
285.924, 217977.906
286.406, 216679.000
286.888, 215236.000
287.370, 213758.703
287.852, 212267.000
288.334, 210962.203
288.816, 209902.500
289.298, 208971.297
289.781, 207900.906
290.263, 206700.797
290.745, 205595.906
291.227, 204826.797
291.709, 204288.594
292.191, 203572.500
292.673, 202594.703
293.155, 201541.594
293.638, 200690.000
294.120, 200027.500
294.602, 199405.703
295.084, 198704.000
295.566, 197984.906
296.048, 197429.297
296.530, 197075.906
297.012, 196786.797
297.494, 196382.000
297.977, 195893.297
298.459, 195450.797
298.941, 195112.297
299.423, 194871.406
299.905, 194718.594
300.387, 194652.203
300.869, 194684.000
301.351, 194839.906
301.833, 195101.703
302.316, 195419.500
302.798, 195810.000
303.280, 196212.500
303.762, 196512.797
304.244, 196685.594
304.726, 196919.500
305.208, 197441.703
305.690, 198122.094
306.173, 198736.203
306.655, 199079.094
307.137, 199363.094
307.619, 199836.703
308.101, 200500.203
308.583, 201099.594
309.065, 201368.703
309.547, 201488.594
310.030, 201700.203
310.512, 202203.594
310.994, 202757.797
311.476, 203187.594
311.958, 203506.906
312.440, 203847.297
312.922, 204339.000
313.404, 204869.406
313.886, 205324.906
314.369, 205599.000
314.851, 205861.500
315.333, 206183.500
315.815, 206560.203
316.297, 206959.703
316.779, 207413.594
317.261, 207858.906
317.743, 208250.797
318.225, 208509.297
318.708, 208799.500
319.190, 209233.297
319.672, 209758.500
320.154, 210188.906
320.636, 210299.594
321.118, 210423.906
321.600, 210760.797
322.082, 211518.203
322.565, 212202.000
323.047, 212640.797
323.529, 212931.094
324.011, 213294.500
324.493, 213851.203
324.975, 214407.703
325.457, 214876.703
325.939, 215175.703
326.422, 215539.000
326.904, 216071.203
327.386, 216659.797
327.868, 217111.203
328.350, 217293.203
328.832, 217468.797
329.314, 217700.000
329.796, 217989.000
330.278, 218331.203
330.760, 218792.297
331.243, 219270.500
331.725, 219634.406
332.207, 219784.406
332.689, 219981.703
333.171, 220308.094
333.653, 220781.000
334.135, 221171.906
334.617, 221435.406
335.100, 221669.094
335.582, 221976.906
336.064, 222406.797
336.546, 222778.094
337.028, 223008.797
337.510, 223131.203
337.992, 223473.500
338.474, 224102.094
338.957, 224804.000
339.439, 225409.406
339.921, 225897.094
340.403, 226383.703
340.885, 226880.406
341.367, 227379.203
341.849, 227845.703
342.331, 228282.297
342.813, 228693.094
343.296, 229056.406
343.778, 229379.406
344.260, 229788.297
344.742, 230312.703
345.224, 230906.594
345.706, 231481.703
346.188, 232049.000
346.670, 232615.797
347.152, 233194.000
347.635, 233782.297
348.117, 234356.906
348.599, 234906.000
349.081, 235471.797
349.563, 236089.906
350.045, 236750.203
350.527, 237448.594
351.009, 238204.594
351.491, 238964.703
351.974, 239625.094
352.456, 240180.703
352.938, 240699.297
353.420, 241240.906
353.902, 241784.703
354.384, 242304.906
354.866, 242814.297
355.349, 243276.203
355.831, 243669.203
356.313, 243998.500
356.795, 244269.000
357.277, 244432.000
357.759, 244571.094
358.241, 244782.703
358.723, 245195.594
359.205, 245569.297
359.688, 245684.406
360.170, 245630.203
360.652, 245710.406
361.134, 246162.203
361.616, 246722.703
362.098, 247207.203
362.580, 247510.094
363.062, 247880.406
363.544, 248526.094
364.027, 249278.000
364.509, 249813.797
364.991, 249826.297
365.473, 249799.906
365.955, 249917.500
366.437, 250220.594
366.919, 250569.703
367.401, 250996.906
367.884, 251449.703
368.366, 251863.000
368.848, 252103.594
369.330, 252458.406
369.812, 253028.406
370.294, 253834.906
370.776, 254558.500
371.258, 255137.203
371.741, 255675.094
372.223, 256244.094
372.705, 256834.500
373.187, 257476.906
373.669, 258192.094
374.151, 258964.500
374.633, 259698.000
375.115, 260375.094
375.597, 261044.703
376.079, 261721.594
376.562, 262395.906
377.044, 263135.812
377.526, 263958.688
378.008, 264821.594
378.490, 265617.906
378.972, 266354.906
379.454, 267059.312
379.936, 267730.594
380.419, 268379.000
380.901, 269150.188
381.383, 270067.906
381.865, 271026.000
382.347, 271806.312
382.829, 272468.188
383.311, 273313.812
383.793, 274558.688
384.276, 276020.188
384.758, 277320.000
385.240, 278454.812
385.722, 279616.906
386.204, 281025.906
386.686, 282579.406
387.168, 284044.688
387.650, 285303.906
388.132, 286557.688
388.615, 288015.812
389.097, 289648.188
389.579, 291307.688
390.061, 292891.906
390.543, 294462.094
391.025, 296073.312
391.507, 297732.500
391.989, 299438.000
392.471, 301277.000
392.954, 303167.594
393.436, 304929.594
393.918, 306236.188
394.400, 307640.000
394.882, 309495.594
395.364, 311882.406
395.846, 314161.812
396.328, 316018.094
396.810, 317794.594
397.293, 319827.812
397.775, 322311.188
398.257, 324898.406
398.739, 327555.812
399.221, 330254.594
399.703, 332982.688
400.185, 335689.000
400.668, 338451.312
401.150, 341297.188
401.632, 344136.594
402.114, 347222.594
402.596, 350622.000
403.078, 354269.594
403.560, 357960.312
404.042, 361781.812
404.524, 365527.688
405.007, 369055.406
405.489, 372302.312
405.971, 376053.000
406.453, 380452.094
406.935, 385095.500
407.417, 389293.000
407.899, 392990.812
408.381, 397071.688
408.863, 401884.812
409.346, 407261.094
409.828, 412451.500
410.310, 417459.406
410.792, 422646.594
411.274, 428387.812
411.756, 434513.000
412.238, 440573.594
412.720, 446474.906
413.203, 452323.188
413.685, 458248.312
414.167, 464315.906
414.649, 470660.188
415.131, 477495.406
415.613, 484609.594
416.095, 491563.906
416.577, 498322.812
417.060, 505293.594
417.542, 513153.500
418.024, 521355.094
418.506, 529297.000
418.988, 535917.875
419.470, 542737.812
419.952, 550565.312
420.434, 559398.812
420.916, 568123.625
421.398, 576253.375
421.881, 584279.000
422.363, 592659.875
422.845, 601640.500
423.327, 610712.000
423.809, 619840.312
424.291, 628992.688
424.773, 638239.375
425.255, 647543.625
425.738, 656900.812
426.220, 666442.375
426.702, 676256.375
427.184, 685807.625
427.666, 694946.625
428.148, 704141.375
428.630, 714111.312
429.112, 725174.125
429.595, 735961.875
430.077, 745936.000
430.559, 755312.688
431.041, 765270.375
431.523, 776071.875
432.005, 786943.812
432.487, 797293.625
432.969, 807144.688
433.451, 817063.375
433.934, 827174.812
434.416, 837265.625
434.898, 847013.625
435.380, 856431.500
435.862, 865581.688
436.344, 874367.125
436.826, 882954.812
437.308, 891857.812
437.790, 901147.875
438.273, 909980.000
438.755, 917124.875
439.237, 923325.625
439.719, 929750.000
440.201, 937500.125
440.683, 944888.125
441.165, 950592.625
441.647, 954824.188
442.129, 958565.500
442.612, 962340.125
443.094, 965679.875
443.576, 968355.312
444.058, 970465.812
444.540, 971547.875
445.022, 971216.812
445.504, 969833.312
445.987, 967974.812
446.469, 966527.500
446.951, 963807.375
447.433, 959098.000
447.915, 952363.688
448.397, 945549.812
448.879, 939267.000
449.361, 932316.625
449.843, 923776.625
450.326, 912936.375
450.808, 902134.688
451.290, 891894.688
451.772, 881673.312
452.254, 869925.188
452.736, 856511.188
453.218, 842593.312
453.700, 828712.312
454.182, 814954.125
454.665, 800558.312
455.147, 785698.500
455.629, 770570.000
456.111, 755509.375
456.593, 740582.125
457.075, 725351.875
457.557, 709747.625
458.039, 693825.312
458.522, 678107.125
459.004, 662437.312
459.486, 647115.125
459.968, 632561.125
460.450, 618298.812
460.932, 603946.188
461.414, 589150.625
461.896, 574741.812
462.379, 561366.500
462.861, 548676.188
463.343, 536159.125
463.825, 523281.000
464.307, 510685.094
464.789, 498641.594
465.271, 487058.500
465.753, 475919.500
466.235, 465307.406
466.717, 455127.312
467.200, 445101.188
467.682, 434941.812
468.164, 425397.594
468.646, 416698.312
469.128, 408544.188
469.610, 400405.000
470.092, 392103.688
470.574, 384107.500
471.057, 376728.812
471.539, 369957.000
472.021, 363085.000
472.503, 355940.812
472.985, 348939.312
473.467, 342517.688
473.949, 336671.812
474.431, 330987.000
474.914, 325445.188
475.396, 320030.906
475.878, 314758.500
476.360, 309633.406
476.842, 304659.906
477.324, 299835.812
477.806, 295160.688
478.288, 290689.500
478.770, 286406.688
479.253, 282357.406
479.735, 278663.688
480.217, 275214.094
480.699, 271839.406
481.181, 268333.188
481.663, 265014.406
482.145, 262039.000
482.627, 259386.203
483.109, 256841.203
483.592, 254258.203
484.074, 251793.906
484.556, 249580.406
485.038, 247737.094
485.520, 245826.500
486.002, 243657.094
486.484, 241456.406
486.966, 239456.703
487.448, 237779.297
487.931, 236096.594
488.413, 234372.500
488.895, 232605.203
489.377, 230773.594
489.859, 228838.203
490.341, 227005.203
490.823, 225490.297
491.306, 224313.000
491.788, 223045.594
492.270, 221641.797
492.752, 220238.703
493.234, 219046.094
493.716, 218056.703
494.198, 217134.406
494.680, 216257.797
495.162, 215410.297
495.645, 214597.906
496.127, 213808.594
496.609, 213023.797
497.091, 212191.906
497.573, 211357.906
498.055, 210546.297
498.537, 209703.594
499.019, 209036.000
499.501, 208774.500
499.984, 208740.703
500.466, 208628.094
500.948, 208255.703
501.430, 207881.000
501.912, 207619.203
502.394, 207486.203
502.876, 207264.797
503.358, 206783.906
503.841, 206336.297
504.323, 206101.406
504.805, 206221.297
505.287, 206249.406
505.769, 206131.094
506.251, 205939.203
506.733, 205796.203
507.215, 205693.094
507.698, 205658.094
508.180, 205742.797
508.662, 205904.797
509.144, 205884.500
509.626, 205667.297
510.108, 205462.703
510.590, 205585.203
511.072, 205876.094
511.554, 205815.297
512.036, 205219.500
512.519, 204561.594
513.001, 204380.406
513.483, 204533.906
513.965, 204691.297
514.447, 204680.297
514.929, 204639.406
515.411, 204665.297
515.893, 204754.797
516.375, 204837.297
516.858, 204936.094
517.340, 204978.297
517.822, 204900.797
518.304, 204555.594
518.786, 204312.094
519.268, 204267.500
519.750, 204324.000
520.232, 204329.906
520.715, 204207.297
521.197, 204169.703
521.679, 204330.297
522.161, 204657.000
522.643, 204716.094
523.125, 204441.094
523.607, 204112.594
524.089, 203947.906
524.571, 203940.000
525.054, 203890.203
525.536, 203781.500
526.018, 203627.594
526.500, 203375.297
526.982, 203074.000
527.464, 202917.797
527.946, 203166.500
528.429, 203468.406
528.911, 203298.500
529.393, 202741.094
529.875, 202318.297
530.357, 202542.500
530.839, 202898.203
531.321, 202934.703
531.803, 202461.000
532.286, 202063.000
532.768, 201961.906
533.250, 202034.000
533.732, 202128.906
534.214, 202312.703
534.696, 202424.094
535.178, 202402.094
535.660, 202281.797
536.142, 202258.094
536.625, 202385.203
537.107, 202520.000
537.589, 202564.203
538.071, 202493.203
538.553, 202612.094
539.035, 202966.297
539.517, 203385.500
539.999, 203624.297
540.481, 203719.797
540.964, 203948.906
541.446, 204408.094
541.928, 204987.906
542.410, 205535.594
542.892, 206059.000
543.374, 206596.500
543.856, 207123.500
544.338, 207703.906
544.820, 208467.906
545.303, 209428.500
545.785, 210253.594
546.267, 210599.594
546.749, 210842.500
547.231, 211315.703
547.713, 212338.797
548.195, 213281.406
548.677, 213975.406
549.159, 214548.500
549.642, 215270.094
550.124, 216272.906
550.606, 217219.594
551.088, 217990.500
551.570, 218594.203
552.052, 219358.906
552.534, 220309.906
553.016, 221352.000
553.499, 222417.594
553.981, 223501.594
554.463, 224598.906
554.945, 225702.500
555.427, 226836.297
555.909, 228064.797
556.391, 229353.797
556.873, 230601.797
557.356, 231616.406
557.838, 232686.797
558.320, 234172.797
558.802, 235981.703
559.284, 237747.594
559.766, 239191.203
560.248, 240605.906
560.730, 242194.594
561.213, 243984.594
561.695, 245825.203
562.177, 247710.703
562.659, 249627.797
563.141, 251531.594
563.623, 253307.703
