##NAMES=Rutile
##RRUFFID=R060745
##IDEAL CHEMISTRY=Ti^4+^O_2_
##LOCALITY=Zagi Mountain near Hammedabad, Knaffor Dehri, NW Frontier Provence, Pakistan
##OWNER=RRUFF
##SOURCE=Herb Obodda
##DESCRIPTION=Group of black prismatic crystals
##STATUS=The identification of this mineral has been confirmed by X-ray diffraction and chemical analysis
##URL=rruff.info/R060745
##MEASURED CHEMISTRY=(Ti_0.96_Nb^5+^_0.02_Fe^3+^_0.02_)_Î£=1_O_2_
159.615, 1743.633
160.097, 1753.076
160.579, 1759.171
161.061, 1753.988
161.543, 1742.219
162.025, 1736.618
162.508, 1747.070
162.990, 1773.828
163.472, 1797.637
163.954, 1817.411
164.436, 1835.988
164.918, 1855.242
165.400, 1874.513
165.883, 1892.035
166.365, 1906.394
166.847, 1917.412
167.329, 1925.693
167.811, 1929.028
168.293, 1932.063
168.775, 1936.447
169.257, 1942.437
169.739, 1950.688
170.221, 1962.638
170.704, 1977.902
171.186, 1987.751
171.668, 1985.287
172.150, 1983.960
172.632, 1995.316
173.114, 2016.915
173.596, 2033.690
174.078, 2033.222
174.561, 2016.326
175.043, 2006.060
175.525, 2008.957
176.007, 2012.713
176.489, 2008.337
176.971, 1996.687
177.453, 1985.754
177.935, 1979.949
178.417, 1980.223
178.900, 1986.967
179.382, 2008.872
179.864, 2030.154
180.346, 2037.602
180.828, 2032.484
181.310, 2028.966
181.792, 2038.844
182.274, 2059.027
182.757, 2068.080
183.239, 2049.984
183.721, 2033.168
184.203, 2042.590
184.685, 2075.897
185.167, 2107.362
185.649, 2120.561
186.131, 2117.185
186.613, 2113.071
187.096, 2106.534
187.578, 2100.697
188.060, 2096.392
188.542, 2093.915
189.024, 2097.236
189.506, 2111.979
189.988, 2134.005
190.470, 2148.855
190.952, 2156.958
191.435, 2157.029
191.917, 2141.240
192.399, 2111.660
192.881, 2091.207
193.363, 2095.165
193.845, 2117.840
194.327, 2138.935
194.809, 2160.817
195.292, 2178.100
195.774, 2184.592
196.256, 2181.271
196.738, 2177.063
197.220, 2174.005
197.702, 2174.651
198.184, 2183.305
198.666, 2204.760
199.148, 2227.800
199.631, 2246.219
200.113, 2259.991
200.595, 2268.041
201.077, 2267.758
201.559, 2262.239
202.041, 2258.716
202.523, 2257.183
203.005, 2257.621
203.488, 2260.806
203.970, 2248.677
204.452, 2271.186
204.934, 2285.287
205.416, 2291.431
205.898, 2265.791
206.380, 2281.195
206.862, 2280.149
207.344, 2278.430
207.827, 2299.610
208.309, 2278.593
208.791, 2299.410
209.273, 2303.528
209.755, 2315.288
210.237, 2310.499
210.719, 2310.821
211.201, 2327.698
211.684, 2335.409
212.166, 2328.715
212.648, 2340.961
213.130, 2319.365
213.612, 2327.467
214.094, 2348.381
214.576, 2342.518
215.058, 2340.133
215.540, 2337.466
216.023, 2332.337
216.505, 2324.942
216.987, 2319.667
217.469, 2322.933
217.951, 2334.652
218.433, 2347.202
218.915, 2359.071
219.397, 2369.575
219.880, 2376.656
220.362, 2379.084
220.844, 2380.333
221.326, 2384.707
221.808, 2391.860
222.290, 2398.630
222.772, 2408.686
223.254, 2416.480
223.736, 2408.108
224.219, 2377.329
224.701, 2348.858
225.183, 2353.085
225.665, 2384.709
226.147, 2413.541
226.629, 2437.420
227.111, 2452.899
227.593, 2451.049
228.076, 2429.326
228.558, 2407.951
229.040, 2406.575
229.522, 2421.832
230.004, 2433.123
230.486, 2436.835
230.968, 2436.003
231.450, 2429.950
231.932, 2418.827
232.415, 2414.191
232.897, 2427.369
233.379, 2455.062
233.861, 2476.415
234.343, 2490.504
234.825, 2498.133
235.307, 2498.406
235.789, 2491.922
236.271, 2481.956
236.754, 2468.399
237.236, 2453.531
237.718, 2445.608
238.200, 2450.315
238.682, 2455.635
239.164, 2453.583
239.646, 2446.507
240.128, 2443.376
240.611, 2450.034
241.093, 2461.876
241.575, 2464.962
242.057, 2453.962
242.539, 2444.110
243.021, 2442.937
243.503, 2446.710
243.985, 2446.324
244.467, 2436.924
244.950, 2425.378
245.432, 2428.926
245.914, 2457.832
246.396, 2475.810
246.878, 2468.971
247.360, 2448.969
247.842, 2430.254
248.324, 2416.830
248.807, 2408.450
249.289, 2405.735
249.771, 2411.358
250.253, 2414.945
250.735, 2416.158
251.217, 2414.756
251.699, 2408.228
252.181, 2396.685
252.663, 2386.860
253.146, 2387.374
253.628, 2402.320
254.110, 2410.115
254.592, 2408.779
255.074, 2402.271
255.556, 2389.759
256.038, 2373.116
256.520, 2359.234
257.003, 2354.015
257.485, 2357.802
257.967, 2366.638
258.449, 2390.224
258.931, 2408.546
259.413, 2409.728
259.895, 2398.199
260.377, 2386.604
260.859, 2384.001
261.342, 2388.551
261.824, 2382.559
262.306, 2348.016
262.788, 2323.766
263.270, 2325.632
263.752, 2341.188
264.234, 2351.363
264.716, 2346.599
265.198, 2331.583
265.681, 2320.736
266.163, 2317.000
266.645, 2314.011
267.127, 2312.040
267.609, 2310.292
268.091, 2309.209
268.573, 2308.652
269.056, 2305.950
269.538, 2294.812
270.020, 2264.906
270.502, 2248.323
270.984, 2254.406
271.466, 2264.996
271.948, 2268.766
272.430, 2263.896
272.912, 2254.650
273.395, 2244.605
273.877, 2232.225
274.359, 2226.089
274.841, 2230.579
275.323, 2237.588
275.805, 2246.606
276.287, 2255.822
276.769, 2261.124
277.251, 2256.849
277.734, 2244.296
278.216, 2243.109
278.698, 2268.880
279.180, 2285.807
279.662, 2274.936
280.144, 2248.647
280.626, 2227.527
281.108, 2222.981
281.591, 2229.678
282.073, 2234.835
282.555, 2239.404
283.037, 2239.831
283.519, 2231.659
284.001, 2220.442
284.483, 2211.685
284.965, 2207.220
285.447, 2204.871
285.930, 2202.740
286.412, 2201.125
286.894, 2197.022
287.376, 2189.738
287.858, 2179.241
288.340, 2161.543
288.822, 2135.520
289.304, 2117.980
289.786, 2130.986
290.269, 2166.850
290.751, 2181.854
291.233, 2157.403
291.715, 2127.730
292.197, 2128.848
292.679, 2156.333
293.161, 2179.742
293.643, 2183.743
294.125, 2176.960
294.608, 2174.627
295.090, 2179.055
295.572, 2181.522
296.054, 2171.931
296.536, 2153.751
297.018, 2142.190
297.500, 2139.268
297.983, 2143.542
298.465, 2159.927
298.947, 2185.771
299.429, 2202.458
299.911, 2196.556
300.393, 2174.877
300.875, 2163.227
301.357, 2168.856
301.839, 2174.157
302.322, 2171.123
302.804, 2163.531
303.286, 2159.330
303.768, 2161.943
304.250, 2166.661
304.732, 2163.814
305.214, 2146.263
305.696, 2135.564
306.178, 2134.583
306.661, 2140.217
307.143, 2154.383
307.625, 2175.554
308.107, 2191.536
308.589, 2186.748
309.071, 2153.349
309.553, 2136.162
310.035, 2146.246
310.517, 2159.210
311.000, 2166.418
311.482, 2166.729
311.964, 2159.529
312.446, 2142.609
312.928, 2118.370
313.410, 2109.557
313.892, 2137.210
314.374, 2156.712
314.857, 2158.259
315.339, 2148.468
315.821, 2133.392
316.303, 2115.324
316.785, 2099.307
317.267, 2097.063
317.749, 2115.321
318.231, 2130.950
318.714, 2144.512
319.196, 2152.143
319.678, 2149.292
320.160, 2135.911
320.642, 2118.405
321.124, 2101.683
321.606, 2085.800
322.088, 2072.327
322.570, 2058.368
323.052, 2051.236
323.535, 2055.235
324.017, 2068.728
324.499, 2087.010
324.981, 2117.779
325.463, 2148.946
325.945, 2146.328
326.427, 2098.800
326.909, 2060.093
327.392, 2068.710
327.874, 2103.753
328.356, 2134.343
328.838, 2156.629
329.320, 2171.056
329.802, 2173.842
330.284, 2167.219
330.766, 2164.861
331.249, 2173.971
331.731, 2186.878
332.213, 2189.742
332.695, 2181.277
333.177, 2171.524
333.659, 2163.205
334.141, 2155.534
334.623, 2147.429
335.105, 2138.726
335.588, 2129.393
336.070, 2118.468
336.552, 2105.139
337.034, 2098.699
337.516, 2100.729
337.998, 2107.897
338.480, 2123.055
338.962, 2142.459
339.444, 2155.716
339.927, 2155.543
340.409, 2144.549
340.891, 2137.475
341.373, 2139.049
341.855, 2139.056
342.337, 2133.629
342.819, 2127.221
343.301, 2124.371
343.784, 2126.704
344.266, 2133.266
344.748, 2144.782
345.230, 2168.655
345.712, 2177.177
346.194, 2150.290
346.676, 2125.087
347.158, 2124.463
347.641, 2145.318
348.123, 2167.690
348.605, 2174.918
349.087, 2169.177
349.569, 2167.651
350.051, 2172.965
350.533, 2178.180
351.015, 2179.132
351.497, 2178.505
351.979, 2180.630
352.462, 2188.210
352.944, 2196.753
353.426, 2199.679
353.908, 2196.799
354.390, 2195.054
354.872, 2197.336
355.354, 2201.292
355.836, 2202.979
356.319, 2201.693
356.801, 2203.270
357.283, 2216.375
357.765, 2232.996
358.247, 2236.603
358.729, 2223.625
359.211, 2204.817
359.693, 2188.361
360.176, 2174.598
360.658, 2166.346
361.140, 2166.474
361.622, 2169.657
362.104, 2171.727
362.586, 2173.868
363.068, 2181.132
363.550, 2197.185
364.032, 2218.435
364.515, 2232.925
364.997, 2240.814
365.479, 2241.294
365.961, 2227.589
366.443, 2210.078
366.925, 2197.032
367.407, 2191.038
367.889, 2191.886
368.371, 2201.381
368.854, 2223.407
369.336, 2235.068
369.818, 2221.947
370.300, 2212.316
370.782, 2218.326
371.264, 2236.002
371.746, 2256.052
372.228, 2274.439
372.711, 2289.537
373.193, 2295.615
373.675, 2290.056
374.157, 2282.443
374.639, 2274.283
375.121, 2266.333
375.603, 2258.627
376.085, 2250.915
376.568, 2246.073
377.050, 2247.453
377.532, 2254.050
378.014, 2260.825
378.496, 2266.057
378.978, 2273.053
379.460, 2290.047
379.942, 2314.016
380.424, 2327.157
380.906, 2313.076
381.389, 2295.059
381.871, 2296.079
382.353, 2314.471
382.835, 2335.756
383.317, 2353.938
383.799, 2367.262
384.281, 2368.066
384.763, 2343.272
385.246, 2325.629
385.728, 2326.199
386.210, 2334.067
386.692, 2336.132
387.174, 2329.563
387.656, 2321.268
388.138, 2318.843
388.620, 2321.232
389.103, 2335.160
389.585, 2376.127
390.067, 2412.426
390.549, 2433.529
391.031, 2440.484
391.513, 2435.046
391.995, 2415.315
392.477, 2390.648
392.959, 2388.161
393.442, 2416.824
393.924, 2443.982
394.406, 2456.117
394.888, 2466.813
395.370, 2490.764
395.852, 2529.855
396.334, 2562.244
396.816, 2563.551
397.298, 2543.023
397.781, 2538.169
398.263, 2557.823
398.745, 2579.461
399.227, 2580.514
399.709, 2568.004
400.191, 2565.948
400.673, 2585.422
401.155, 2610.085
401.638, 2631.710
402.120, 2649.414
402.602, 2658.463
403.084, 2654.941
403.566, 2647.314
404.048, 2653.811
404.530, 2684.057
405.012, 2709.916
405.495, 2729.685
405.977, 2745.083
406.459, 2755.325
406.941, 2761.838
407.423, 2769.570
407.905, 2782.704
408.387, 2801.119
408.869, 2822.106
409.351, 2855.802
409.833, 2879.140
410.316, 2876.254
410.798, 2865.531
411.280, 2869.081
411.762, 2894.554
412.244, 2930.026
412.726, 2959.724
413.208, 2983.010
413.690, 3011.341
414.173, 3051.596
414.655, 3090.449
415.137, 3115.942
415.619, 3130.971
416.101, 3147.586
416.583, 3174.594
417.065, 3203.585
417.547, 3221.721
418.030, 3229.525
418.512, 3239.628
418.994, 3258.836
419.476, 3283.947
419.958, 3306.968
420.440, 3327.901
420.922, 3347.155
421.404, 3358.119
421.886, 3370.950
422.369, 3400.550
422.851, 3447.754
423.333, 3496.898
423.815, 3532.847
424.297, 3554.948
424.779, 3576.655
425.261, 3593.648
425.743, 3615.402
426.225, 3650.394
426.708, 3689.505
427.190, 3720.033
427.672, 3736.833
428.154, 3746.013
428.636, 3756.169
429.118, 3767.074
429.600, 3780.420
430.082, 3798.547
430.565, 3817.131
431.047, 3833.556
431.529, 3848.042
432.011, 3861.792
432.493, 3873.471
432.975, 3885.732
433.457, 3905.347
433.939, 3932.148
434.422, 3951.429
434.904, 3951.089
435.386, 3942.959
435.868, 3956.140
436.350, 3999.236
436.832, 4039.259
437.314, 4073.847
437.796, 4098.269
438.278, 4100.700
438.760, 4082.869
439.243, 4067.139
439.725, 4075.463
440.207, 4107.377
440.689, 4125.238
441.171, 4107.797
441.653, 4100.131
442.135, 4125.001
442.617, 4157.942
443.100, 4169.165
443.582, 4148.978
444.064, 4113.274
444.546, 4079.156
445.028, 4046.207
445.510, 4022.288
445.992, 4013.608
446.474, 4006.834
446.957, 3994.219
447.439, 3976.919
447.921, 3957.946
448.403, 3938.159
448.885, 3917.292
449.367, 3894.320
449.849, 3869.679
450.331, 3846.975
450.813, 3828.254
451.296, 3810.616
451.778, 3790.563
452.260, 3770.919
452.742, 3739.190
453.224, 3680.128
453.706, 3619.617
454.188, 3579.272
454.670, 3556.412
455.152, 3534.915
455.635, 3503.942
456.117, 3466.257
456.599, 3434.043
457.081, 3417.898
457.563, 3388.941
458.045, 3329.980
458.527, 3268.166
459.009, 3224.841
459.492, 3202.015
459.974, 3185.672
460.456, 3166.793
460.938, 3145.041
461.420, 3117.385
461.902, 3081.556
462.384, 3047.004
462.866, 3018.743
463.349, 2995.614
463.831, 2975.865
464.313, 2961.997
464.795, 2946.120
465.277, 2921.124
465.759, 2892.362
466.241, 2869.684
466.723, 2855.027
467.205, 2842.497
467.688, 2826.106
468.170, 2805.509
468.652, 2786.365
469.134, 2773.822
469.616, 2756.586
470.098, 2728.248
470.580, 2694.207
471.062, 2661.054
471.544, 2630.974
472.027, 2604.698
472.509, 2582.841
472.991, 2565.466
473.473, 2552.883
473.955, 2548.641
474.437, 2544.898
474.919, 2537.380
475.401, 2527.035
475.884, 2515.909
476.366, 2503.306
476.848, 2491.964
477.330, 2486.241
477.812, 2484.777
478.294, 2481.825
478.776, 2476.137
479.258, 2466.454
479.741, 2448.813
480.223, 2418.936
480.705, 2401.478
481.187, 2411.887
481.669, 2420.820
482.151, 2407.661
482.633, 2380.001
483.115, 2356.098
483.597, 2344.958
484.079, 2344.568
484.562, 2353.028
485.044, 2377.694
485.526, 2390.348
486.008, 2377.693
486.490, 2361.156
486.972, 2349.705
487.454, 2343.541
487.936, 2340.909
488.419, 2345.153
488.901, 2349.027
489.383, 2337.311
489.865, 2310.809
490.347, 2293.095
490.829, 2297.823
491.311, 2309.471
491.793, 2298.988
492.276, 2260.844
492.758, 2233.756
493.240, 2227.310
493.722, 2231.116
494.204, 2242.058
494.686, 2256.707
495.168, 2267.740
495.650, 2270.614
496.132, 2267.804
496.615, 2267.277
497.097, 2274.102
497.579, 2272.256
498.061, 2247.726
498.543, 2225.012
499.025, 2222.546
499.507, 2237.102
499.989, 2250.055
500.471, 2249.670
500.954, 2241.012
501.436, 2232.489
501.918, 2224.059
502.400, 2217.175
502.882, 2212.080
503.364, 2209.148
503.846, 2211.105
504.328, 2220.622
504.810, 2221.631
505.293, 2203.393
505.775, 2181.513
506.257, 2167.201
506.739, 2160.837
507.221, 2160.192
507.703, 2164.642
508.185, 2171.002
508.668, 2168.662
509.150, 2149.651
509.632, 2138.902
510.114, 2149.333
510.596, 2159.194
511.078, 2154.165
511.560, 2136.079
512.042, 2116.221
512.524, 2096.401
513.006, 2082.215
513.489, 2087.217
513.971, 2111.133
514.453, 2131.888
514.935, 2143.099
515.417, 2144.928
515.899, 2132.858
516.381, 2102.013
516.864, 2085.818
517.346, 2108.450
517.828, 2129.966
518.310, 2113.845
518.792, 2072.605
519.274, 2045.352
519.756, 2053.747
520.238, 2081.440
520.720, 2092.082
521.203, 2081.374
521.685, 2065.667
522.167, 2030.248
522.649, 2004.693
523.131, 2012.914
523.613, 2044.089
524.095, 2065.586
524.577, 2058.780
525.059, 2040.632
525.542, 2029.317
526.024, 2024.351
526.506, 2023.611
526.988, 2027.680
527.470, 2032.017
527.952, 2030.257
528.434, 2020.605
528.916, 2014.787
529.398, 2018.204
529.881, 2019.867
530.363, 2014.014
530.845, 2003.080
531.327, 1991.023
531.809, 1979.510
532.291, 1968.592
532.773, 1956.052
533.255, 1940.395
533.737, 1938.945
534.220, 1962.427
534.702, 1985.946
535.184, 1997.550
535.666, 1999.683
536.148, 1994.406
536.630, 1973.878
537.112, 1962.563
537.594, 1987.377
538.077, 2031.912
538.559, 2062.731
539.041, 2072.904
539.523, 2073.081
540.005, 2072.564
540.487, 2071.254
540.969, 2065.263
541.451, 2045.770
541.933, 2032.449
542.416, 2032.320
542.898, 2037.681
543.380, 2041.096
543.862, 2041.213
544.344, 2041.225
544.826, 2045.329
545.308, 2051.903
545.791, 2051.794
546.273, 2042.304
546.755, 2040.200
547.237, 2058.759
547.719, 2085.942
548.201, 2099.279
548.683, 2095.846
549.165, 2090.330
549.647, 2084.756
550.130, 2080.133
550.612, 2078.144
551.094, 2078.136
551.576, 2076.735
552.058, 2071.359
552.540, 2065.689
553.022, 2070.437
553.504, 2089.614
553.987, 2108.730
554.469, 2130.575
554.951, 2148.389
555.433, 2156.011
555.915, 2156.228
556.397, 2157.675
556.879, 2163.304
557.361, 2172.539
557.843, 2188.064
558.326, 2207.339
558.808, 2219.122
559.290, 2219.473
559.772, 2216.621
560.254, 2219.735
560.736, 2229.474
561.218, 2239.232
561.700, 2250.807
562.182, 2260.319
562.665, 2262.439
563.147, 2263.750
563.629, 2274.764
564.111, 2297.178
564.593, 2318.978
565.075, 2325.238
565.557, 2318.719
566.039, 2319.429
566.521, 2330.324
567.004, 2337.704
567.486, 2327.880
567.968, 2313.726
568.450, 2321.784
568.932, 2360.508
569.414, 2395.142
569.896, 2407.901
570.378, 2418.113
570.860, 2447.607
571.343, 2492.475
571.825, 2531.262
572.307, 2550.740
572.789, 2559.710
573.271, 2582.587
573.753, 2627.917
574.235, 2659.905
574.718, 2663.008
575.200, 2663.775
575.682, 2677.453
576.164, 2700.850
576.646, 2723.778
577.128, 2742.932
577.610, 2760.299
578.092, 2779.601
578.574, 2798.194
579.057, 2805.501
579.539, 2798.900
580.021, 2795.928
580.503, 2815.344
580.985, 2856.941
581.467, 2892.254
581.949, 2921.059
582.431, 2943.225
582.914, 2948.962
583.396, 2953.912
583.878, 2978.767
584.360, 2974.607
584.842, 3008.730
585.324, 3033.559
585.806, 3049.599
586.288, 3030.504
586.770, 3056.773
587.253, 3064.863
587.735, 3072.207
588.217, 3104.861
588.699, 3090.879
589.181, 3123.133
589.663, 3136.927
590.145, 3159.171
590.627, 3163.122
591.109, 3172.721
591.592, 3200.625
592.074, 3218.392
592.556, 3210.936
593.038, 3220.006
593.520, 3223.756
594.002, 3248.027
594.484, 3280.960
594.966, 3326.891
595.448, 3366.630
595.931, 3383.365
596.413, 3387.805
596.895, 3405.563
597.377, 3442.834
597.859, 3479.028
598.341, 3508.202
598.823, 3533.544
599.305, 3557.540
599.787, 3580.366
600.270, 3601.104
600.752, 3619.197
601.234, 3635.503
601.716, 3649.869
602.198, 3659.222
602.680, 3683.446
603.162, 3744.492
603.644, 3796.658
604.127, 3797.043
604.609, 3766.242
605.091, 3759.662
605.573, 3801.037
606.055, 3851.002
606.537, 3894.931
607.019, 3929.648
607.501, 3945.180
607.984, 3942.581
608.466, 3942.193
608.948, 3962.471
609.430, 3997.857
609.912, 4017.810
610.394, 4017.378
610.876, 4011.448
611.358, 3993.044
611.841, 3977.489
612.323, 3976.555
612.805, 3988.393
613.287, 4001.857
613.769, 4021.114
614.251, 4031.729
614.733, 4013.019
615.215, 3975.648
615.697, 3946.290
616.180, 3932.293
616.662, 3926.481
617.144, 3923.216
617.626, 3922.448
618.108, 3907.708
618.590, 3864.645
619.072, 3827.914
619.554, 3807.606
620.036, 3793.332
620.519, 3778.375
621.001, 3761.134
621.483, 3738.692
621.965, 3702.096
622.447, 3663.893
622.929, 3641.651
623.411, 3632.874
623.893, 3628.573
624.375, 3626.835
624.858, 3618.475
625.340, 3588.225
625.822, 3530.140
626.304, 3496.426
626.786, 3532.071
627.268, 3538.919
627.750, 3467.354
628.232, 3372.100
628.714, 3314.355
629.197, 3303.714
629.679, 3302.308
630.161, 3283.790
630.643, 3257.602
631.125, 3242.562
631.607, 3236.971
632.089, 3221.930
632.571, 3187.904
633.054, 3149.028
633.536, 3127.249
634.018, 3127.372
634.500, 3123.223
634.982, 3116.064
635.464, 3103.341
635.946, 3077.881
636.428, 3049.407
636.911, 3032.422
637.393, 3029.733
637.875, 3023.608
638.357, 2993.764
638.839, 2953.732
639.321, 2929.475
639.803, 2921.056
640.285, 2919.340
640.768, 2922.414
641.250, 2923.366
641.732, 2909.356
642.214, 2874.007
642.696, 2846.503
643.178, 2828.517
643.660, 2815.894
644.142, 2813.457
644.624, 2812.940
645.107, 2800.938
645.589, 2774.465
646.071, 2751.881
646.553, 2755.198
647.035, 2769.513
647.517, 2764.975
647.999, 2741.938
648.481, 2716.960
648.963, 2696.337
649.446, 2681.615
649.928, 2676.938
650.410, 2688.027
650.892, 2688.133
651.374, 2663.973
651.856, 2644.163
652.338, 2642.531
652.820, 2648.314
653.302, 2648.008
653.785, 2638.382
654.267, 2624.076
654.749, 2605.833
655.231, 2586.216
655.713, 2566.242
656.195, 2547.464
656.677, 2542.086
657.159, 2557.178
657.641, 2578.664
658.124, 2583.187
658.606, 2566.377
659.088, 2552.576
659.570, 2548.465
660.052, 2539.513
660.534, 2515.343
661.016, 2487.553
661.498, 2472.120
661.981, 2471.983
662.463, 2468.764
662.945, 2445.992
663.427, 2417.611
663.909, 2403.298
664.391, 2400.501
664.873, 2395.814
665.355, 2383.927
665.838, 2369.132
666.320, 2357.337
666.802, 2348.886
667.284, 2340.284
667.766, 2329.196
668.248, 2321.608
668.730, 2324.953
669.212, 2328.978
669.695, 2321.986
670.177, 2302.917
670.659, 2283.264
671.141, 2263.090
671.623, 2248.429
672.105, 2250.594
672.587, 2261.990
673.069, 2261.669
673.551, 2243.687
674.034, 2224.847
674.516, 2227.333
674.998, 2249.344
675.480, 2254.027
675.962, 2232.520
676.444, 2215.968
676.926, 2223.851
677.408, 2232.605
677.890, 2212.419
678.373, 2165.010
678.855, 2133.544
679.337, 2145.499
679.819, 2158.089
680.301, 2139.733
680.783, 2108.919
681.265, 2094.768
681.747, 2102.485
682.229, 2115.843
682.712, 2120.664
683.194, 2119.654
