##NAMES=Rutile
##RRUFFID=R050031
##IDEAL CHEMISTRY=Ti^4+^O_2_
##LOCALITY=Chester City, Pennsylvannia, USA
##OWNER=RRUFF
##SOURCE=University of Arizona Mineral Museum
##DESCRIPTION=Reddish brown single crystal fragment
##STATUS=The identification of this mineral has been confirmed by X-ray diffraction and chemical analysis
##URL=rruff.info/R050031
##MEASURED CHEMISTRY=TiO_2_
157.3757, 7635.113
157.8578, 7691.841
158.3399, 7688.594
158.8221, 7677.633
159.3042, 7693.148
159.7863, 7779.271
160.2684, 7857.817
160.7505, 7893.576
161.2326, 7892.900
161.7148, 7902.269
162.1969, 7948.960
162.6790, 8012.408
163.1611, 8072.101
163.6432, 8123.600
164.1253, 8168.401
164.6075, 8202.432
165.0896, 8225.373
165.5717, 8254.968
166.0538, 8305.072
166.5359, 8367.458
167.0180, 8430.339
167.5002, 8482.534
167.9823, 8537.807
168.4644, 8610.095
168.9465, 8702.870
169.4286, 8795.586
169.9107, 8872.070
170.3929, 8937.012
170.8750, 9002.302
171.3571, 9074.750
171.8392, 9149.494
172.3213, 9219.050
172.8034, 9278.842
173.2856, 9343.095
173.7677, 9429.646
174.2498, 9533.476
174.7319, 9635.663
175.2140, 9723.858
175.6961, 9803.550
176.1783, 9882.241
176.6604, 9959.620
177.1425, 10037.71
177.6246, 10117.56
178.1067, 10198.90
178.5888, 10285.55
179.0710, 10387.49
179.5531, 10495.50
180.0352, 10584.59
180.5173, 10636.47
180.9994, 10678.44
181.4815, 10757.56
181.9637, 10873.57
182.4458, 10996.04
182.9279, 11101.04
183.4100, 11191.98
183.8921, 11283.65
184.3742, 11381.30
184.8564, 11482.17
185.3385, 11577.81
185.8206, 11669.03
186.3027, 11754.95
186.7848, 11829.36
187.2669, 11894.82
187.7491, 11973.45
188.2312, 12081.21
188.7133, 12208.01
189.1954, 12317.32
189.6775, 12406.16
190.1596, 12487.70
190.6418, 12578.90
191.1239, 12679.21
191.6060, 12780.18
192.0881, 12881.23
192.5702, 12981.42
193.0524, 13068.33
193.5345, 13136.68
194.0166, 13204.83
194.4987, 13304.50
194.9808, 13437.84
195.4629, 13570.68
195.9451, 13685.14
196.4272, 13783.01
196.9093, 13877.51
197.3914, 13968.51
197.8735, 14057.02
198.3556, 14144.90
198.8378, 14231.88
199.3199, 14318.01
199.8020, 14400.11
200.2841, 14476.55
200.7662, 14565.28
201.2483, 14673.23
201.7305, 14788.62
202.2126, 14877.09
202.6947, 14930.43
203.1768, 14987.62
203.6589, 15076.40
204.1410, 15201.23
204.6232, 15320.90
205.1053, 15432.95
205.5874, 15537.00
206.0695, 15629.27
206.5516, 15705.38
207.0337, 15781.15
207.5159, 15869.10
207.9980, 15970.36
208.4801, 16071.34
208.9622, 16172.89
209.4443, 16272.78
209.9264, 16356.58
210.4086, 16415.83
210.8907, 16476.29
211.3728, 16560.49
211.8549, 16678.97
212.3370, 16787.26
212.8191, 16877.76
213.3013, 16951.88
213.7834, 17027.94
214.2655, 17105.94
214.7476, 17186.21
215.2297, 17268.44
215.7118, 17354.30
216.1940, 17439.77
216.6761, 17523.94
217.1582, 17607.19
217.6403, 17691.21
218.1224, 17779.56
218.6045, 17862.69
219.0867, 17928.99
219.5688, 17968.96
220.0509, 18013.37
220.5330, 18067.28
221.0151, 18131.47
221.4972, 18201.99
221.9794, 18285.40
222.4615, 18368.50
222.9436, 18437.70
223.4257, 18488.40
223.9078, 18534.98
224.3899, 18578.05
224.8721, 18617.38
225.3542, 18664.21
225.8363, 18722.71
226.3184, 18785.10
226.8005, 18844.27
227.2827, 18902.56
227.7648, 18951.70
228.2469, 18983.94
228.7290, 18993.83
229.2111, 19030.03
229.6932, 19107.58
230.1754, 19198.81
230.6575, 19269.48
231.1396, 19316.12
231.6217, 19346.78
232.1038, 19359.04
232.5859, 19347.08
233.0681, 19348.69
233.5502, 19369.83
234.0323, 19400.19
234.5144, 19427.37
234.9965, 19459.25
235.4786, 19473.80
235.9608, 19459.31
236.4429, 19406.73
236.9250, 19367.81
237.4071, 19343.24
237.8892, 19332.30
238.3713, 19337.86
238.8535, 19379.78
239.3356, 19404.74
239.8177, 19391.87
240.2998, 19328.95
240.7819, 19274.27
241.2640, 19226.68
241.7462, 19187.10
242.2283, 19159.00
242.7104, 19154.49
243.1925, 19141.40
243.6746, 19106.14
244.1567, 19038.55
244.6389, 18984.40
245.1210, 18954.53
245.6031, 18931.77
246.0852, 18884.64
246.5673, 18801.30
247.0494, 18713.59
247.5316, 18630.60
248.0137, 18550.03
248.4958, 18482.86
248.9779, 18435.97
249.4600, 18398.97
249.9421, 18352.67
250.4243, 18289.43
250.9064, 18230.14
251.3885, 18185.66
251.8706, 18165.79
252.3527, 18127.23
252.8348, 18067.94
253.3170, 17991.51
253.7991, 17900.68
254.2812, 17783.09
254.7633, 17676.70
255.2454, 17598.23
255.7275, 17557.13
256.2097, 17511.24
256.6918, 17458.36
257.1739, 17402.73
257.6560, 17352.86
258.1381, 17313.59
258.6202, 17269.72
259.1024, 17211.40
259.5845, 17131.60
260.0666, 17069.85
260.5487, 17031.53
261.0308, 17007.37
261.5129, 16979.96
261.9951, 16950.46
262.4772, 16915.44
262.9593, 16871.59
263.4414, 16814.78
263.9235, 16767.74
264.4056, 16732.89
264.8878, 16705.04
265.3699, 16678.23
265.8520, 16658.88
266.3341, 16621.25
266.8162, 16543.28
267.2983, 16412.64
267.7805, 16330.38
268.2626, 16314.62
268.7447, 16327.94
269.2268, 16302.87
269.7089, 16228.50
270.1910, 16155.22
270.6732, 16106.23
271.1553, 16086.15
271.6374, 16045.02
272.1195, 15976.76
272.6016, 15896.23
273.0837, 15830.05
273.5659, 15780.25
274.0480, 15732.76
274.5301, 15682.15
275.0122, 15628.56
275.4943, 15571.95
275.9764, 15508.93
276.4586, 15449.27
276.9407, 15410.79
277.4228, 15396.41
277.9049, 15381.99
278.3870, 15361.56
278.8691, 15334.79
279.3513, 15291.45
279.8334, 15227.87
280.3155, 15157.13
280.7976, 15097.80
281.2798, 15050.99
281.7619, 15001.66
282.2440, 14943.53
282.7261, 14877.69
283.2082, 14810.82
283.6903, 14741.91
284.1725, 14675.73
284.6546, 14620.54
285.1367, 14576.31
285.6188, 14529.55
286.1009, 14472.71
286.5830, 14409.26
287.0652, 14353.57
287.5473, 14306.30
288.0294, 14265.77
288.5115, 14232.72
288.9936, 14206.19
289.4757, 14179.79
289.9579, 14152.11
290.4400, 14122.72
290.9221, 14089.13
291.4042, 14051.19
291.8863, 14011.22
292.3684, 13964.81
292.8506, 13916.24
293.3327, 13883.67
293.8148, 13878.29
294.2969, 13889.01
294.7790, 13897.94
295.2611, 13905.09
295.7433, 13904.64
296.2254, 13892.74
296.7075, 13869.18
297.1896, 13832.66
297.6717, 13771.33
298.1538, 13705.98
298.6360, 13668.20
299.1181, 13656.66
299.6002, 13659.46
300.0823, 13672.00
300.5644, 13691.86
301.0465, 13715.06
301.5287, 13742.87
302.0108, 13770.70
302.4929, 13795.24
302.9750, 13816.06
303.4571, 13829.35
303.9392, 13821.85
304.4214, 13808.62
304.9035, 13809.74
305.3856, 13830.73
305.8677, 13866.16
306.3498, 13922.01
306.8319, 13991.19
307.3141, 14049.81
307.7962, 14078.42
308.2783, 14091.30
308.7604, 14100.93
309.2425, 14105.92
309.7246, 14116.04
310.2068, 14140.42
310.6889, 14175.25
311.1710, 14210.78
311.6531, 14247.70
312.1352, 14280.29
312.6173, 14301.21
313.0995, 14303.09
313.5816, 14310.79
314.0637, 14344.54
314.5458, 14391.76
315.0279, 14429.03
315.5100, 14440.09
315.9922, 14444.34
316.4743, 14448.14
316.9564, 14448.28
317.4385, 14464.45
317.9206, 14521.71
318.4027, 14594.70
318.8849, 14647.91
319.3670, 14642.44
319.8491, 14641.45
320.3312, 14675.74
320.8133, 14756.49
321.2954, 14818.32
321.7776, 14838.78
322.2597, 14838.40
322.7418, 14839.08
323.2239, 14842.33
323.7060, 14848.54
324.1881, 14852.54
324.6703, 14852.33
325.1524, 14875.15
325.6345, 14955.44
326.1166, 15041.99
326.5987, 15094.15
327.0808, 15083.45
327.5630, 15071.40
328.0451, 15059.60
328.5272, 15048.79
329.0093, 15056.25
329.4914, 15098.11
329.9735, 15143.40
330.4557, 15170.53
330.9378, 15161.14
331.4199, 15166.04
331.9020, 15193.92
332.3841, 15239.93
332.8662, 15281.23
333.3484, 15318.85
333.8305, 15349.59
334.3126, 15368.55
334.7947, 15366.32
335.2768, 15382.97
335.7589, 15430.41
336.2411, 15492.27
336.7232, 15525.12
337.2053, 15519.17
337.6874, 15512.07
338.1695, 15519.87
338.6516, 15542.87
339.1338, 15581.37
339.6159, 15642.21
340.0980, 15707.20
340.5801, 15738.61
341.0622, 15732.54
341.5443, 15732.31
342.0265, 15756.12
342.5086, 15802.05
342.9907, 15858.53
343.4728, 15928.06
343.9549, 15996.48
344.4370, 16047.65
344.9192, 16081.72
345.4013, 16100.35
345.8834, 16090.64
346.3655, 16069.24
346.8476, 16085.91
347.3297, 16141.57
347.8119, 16205.08
348.2940, 16245.64
348.7761, 16270.18
349.2582, 16299.26
349.7403, 16343.96
350.2225, 16391.32
350.7046, 16415.79
351.1867, 16421.36
351.6688, 16436.97
352.1509, 16501.66
352.6331, 16585.14
353.1152, 16639.88
353.5973, 16646.74
354.0794, 16638.68
354.5615, 16636.18
355.0436, 16641.05
355.5258, 16658.71
356.0079, 16706.03
356.4900, 16759.74
356.9721, 16797.87
357.4542, 16812.68
357.9363, 16826.68
358.4185, 16856.00
358.9006, 16892.68
359.3827, 16922.99
359.8648, 16927.64
360.3469, 16935.57
360.8290, 16963.01
361.3112, 17013.48
361.7933, 17069.10
362.2754, 17137.06
362.7575, 17202.83
363.2396, 17250.77
363.7217, 17257.65
364.2039, 17265.41
364.6860, 17283.54
365.1681, 17312.54
365.6502, 17348.18
366.1323, 17414.63
366.6144, 17473.01
367.0966, 17496.13
367.5787, 17426.18
368.0608, 17391.03
368.5429, 17415.39
369.0250, 17486.30
369.5071, 17535.46
369.9893, 17541.19
370.4714, 17550.14
370.9535, 17587.68
371.4356, 17674.01
371.9177, 17740.91
372.3998, 17779.21
372.8820, 17802.04
373.3641, 17838.69
373.8462, 17893.71
374.3283, 17950.37
374.8104, 17999.48
375.2925, 18039.92
375.7747, 18093.12
376.2568, 18163.46
376.7389, 18238.77
377.2210, 18300.17
377.7031, 18346.52
378.1852, 18395.91
378.6674, 18457.76
379.1495, 18526.97
379.6316, 18579.92
380.1137, 18614.05
380.5958, 18651.05
381.0779, 18713.63
381.5601, 18797.97
382.0422, 18879.35
382.5243, 18950.94
383.0064, 19020.99
383.4885, 19105.34
383.9706, 19203.07
384.4528, 19301.32
384.9349, 19395.50
385.4170, 19484.21
385.8991, 19565.42
386.3812, 19637.13
386.8633, 19709.50
387.3455, 19793.63
387.8276, 19885.62
388.3097, 19978.12
388.7918, 20049.89
389.2739, 20130.97
389.7560, 20256.69
390.2382, 20434.40
390.7203, 20599.57
391.2024, 20705.94
391.6845, 20784.01
392.1666, 20870.28
392.6487, 20979.31
393.1309, 21095.72
393.6130, 21207.62
394.0951, 21317.24
394.5772, 21446.22
395.0593, 21608.69
395.5414, 21786.98
396.0236, 21968.62
396.5057, 22163.73
396.9878, 22348.93
397.4699, 22509.46
397.9520, 22656.09
398.4341, 22820.86
398.9163, 23013.07
399.3984, 23213.71
399.8805, 23417.98
400.3626, 23630.21
400.8447, 23830.61
401.3268, 24002.36
401.8090, 24174.52
402.2911, 24394.37
402.7732, 24672.53
403.2553, 24966.21
403.7374, 25272.65
404.2195, 25589.60
404.7017, 25870.06
405.1838, 26103.76
405.6659, 26331.60
406.1480, 26591.94
406.6301, 26886.23
407.1122, 27183.88
407.5944, 27478.56
408.0765, 27775.58
408.5586, 28075.78
409.0407, 28380.65
409.5228, 28710.20
410.0049, 29099.73
410.4871, 29521.17
410.9692, 29887.50
411.4513, 30176.49
411.9334, 30468.95
412.4155, 30887.02
412.8976, 31395.24
413.3798, 31873.87
413.8619, 32235.76
414.3440, 32568.46
414.8261, 32974.74
415.3082, 33458.43
415.7903, 33949.99
416.2725, 34407.02
416.7546, 34849.29
417.2367, 35308.71
417.7188, 35777.89
418.2009, 36272.84
418.6830, 36807.79
419.1652, 37376.36
419.6473, 37934.14
420.1294, 38454.77
420.6115, 38974.11
421.0937, 39521.40
421.5758, 40100.74
422.0579, 40684.23
422.5400, 41271.72
423.0221, 41861.45
423.5042, 42463.45
423.9864, 43086.49
424.4685, 43705.02
424.9506, 44317.77
425.4327, 44914.96
425.9148, 45531.21
426.3969, 46176.09
426.8791, 46828.75
427.3612, 47463.86
427.8433, 48074.77
428.3254, 48681.63
428.8075, 49277.46
429.2896, 49873.16
429.7718, 50498.31
430.2539, 51159.59
430.7360, 51819.98
431.2181, 52449.41
431.7002, 53049.88
432.1823, 53652.95
432.6645, 54262.95
433.1466, 54868.71
433.6287, 55446.69
434.1108, 55999.03
434.5929, 56539.96
435.0750, 57066.30
435.5572, 57583.43
436.0393, 58112.95
436.5214, 58652.78
437.0035, 59161.03
437.4856, 59594.78
437.9677, 59974.93
438.4499, 60328.70
438.9320, 60669.46
439.4141, 60974.40
439.8962, 61204.82
440.3783, 61383.40
440.8604, 61575.39
441.3426, 61864.88
441.8247, 62131.25
442.3068, 62308.02
442.7889, 62383.25
443.2710, 62391.11
443.7531, 62313.36
444.2353, 62183.42
444.7174, 62036.87
445.1995, 61953.92
445.6816, 61773.73
446.1637, 61425.50
446.6458, 60930.88
447.1280, 60484.91
447.6101, 60138.73
448.0922, 59783.13
448.5743, 59369.99
449.0564, 58908.34
449.5385, 58346.32
450.0207, 57659.74
450.5028, 56896.02
450.9849, 56144.37
451.4670, 55416.01
451.9491, 54679.66
452.4312, 53942.89
452.9134, 53196.27
453.3955, 52315.92
453.8776, 51288.83
454.3597, 50244.19
454.8418, 49349.46
455.3239, 48559.25
455.8061, 47717.72
456.2882, 46759.25
456.7703, 45763.64
457.2524, 44834.48
457.7345, 43965.80
458.2166, 43110.63
458.6988, 42270.06
459.1809, 41421.99
459.6630, 40549.78
460.1451, 39638.75
460.6272, 38734.01
461.1093, 37870.52
461.5915, 37031.27
462.0736, 36212.48
462.5557, 35407.00
463.0378, 34626.00
463.5199, 33876.46
464.0020, 33162.21
464.4842, 32482.40
464.9663, 31878.45
465.4484, 31285.43
465.9305, 30662.72
466.4126, 29948.04
466.8947, 29298.35
467.3769, 28738.84
467.8590, 28235.51
468.3411, 27726.78
468.8232, 27211.18
469.3053, 26695.73
469.7874, 26168.35
470.2696, 25632.43
470.7517, 25157.17
471.2338, 24755.02
471.7159, 24378.75
472.1980, 23996.17
472.6801, 23605.88
473.1623, 23217.45
473.6444, 22826.25
474.1265, 22443.27
474.6086, 22084.16
475.0907, 21749.03
475.5728, 21438.45
476.0550, 21168.74
476.5371, 20917.12
477.0192, 20644.09
477.5013, 20346.65
477.9834, 20062.48
478.4655, 19831.97
478.9477, 19627.72
479.4298, 19416.64
479.9119, 19178.19
480.3940, 18940.41
480.8761, 18710.55
481.3582, 18492.79
481.8404, 18302.38
482.3225, 18166.60
482.8046, 18041.06
483.2867, 17904.70
483.7688, 17752.83
484.2509, 17600.31
484.7331, 17437.32
485.2152, 17280.62
485.6973, 17143.59
486.1794, 17038.88
486.6615, 16931.85
487.1436, 16815.90
487.6258, 16693.31
488.1079, 16566.25
488.5900, 16420.21
489.0721, 16312.38
489.5542, 16297.66
490.0363, 16377.16
490.5185, 16403.14
491.0006, 16371.06
491.4827, 16287.24
491.9648, 16130.44
492.4470, 15916.84
492.9291, 15738.90
493.4112, 15644.86
493.8933, 15592.80
494.3754, 15517.95
494.8575, 15425.51
495.3397, 15352.64
495.8218, 15342.03
496.3039, 15353.94
496.7860, 15345.62
497.2681, 15308.20
497.7502, 15260.11
498.2324, 15200.33
498.7145, 15138.65
499.1966, 15087.26
499.6787, 15047.76
500.1608, 15021.75
500.6429, 15012.73
501.1251, 15019.89
501.6072, 15031.27
502.0893, 15068.83
502.5714, 15090.38
503.0535, 15071.94
503.5356, 14985.94
504.0178, 14926.80
504.4999, 14902.47
504.9820, 14898.40
505.4641, 14891.03
505.9462, 14877.46
506.4283, 14877.08
506.9105, 14903.01
507.3926, 14944.71
507.8747, 14955.04
508.3568, 14932.36
508.8389, 14908.87
509.3210, 14915.80
509.8032, 14940.23
510.2853, 14943.49
510.7674, 14916.95
511.2495, 14885.57
511.7316, 14868.86
512.2137, 14866.54
512.6959, 14878.08
513.1780, 14925.51
513.6601, 14968.17
514.1422, 14975.59
514.6243, 14951.77
515.1064, 14925.73
515.5886, 14907.77
516.0707, 14891.73
516.5528, 14873.52
517.0349, 14848.93
517.5170, 14829.53
517.9991, 14805.09
518.4813, 14791.01
518.9634, 14810.79
519.4455, 14895.27
519.9276, 14961.33
520.4097, 14995.02
520.8918, 14996.72
521.3740, 14962.38
521.8561, 14878.23
522.3382, 14803.58
522.8203, 14780.66
523.3024, 14806.93
523.7845, 14839.91
524.2667, 14880.75
524.7488, 14915.71
525.2309, 14926.85
525.7130, 14918.39
526.1951, 14903.92
526.6772, 14878.82
527.1594, 14858.88
527.6415, 14867.90
528.1236, 14900.44
528.6057, 14932.94
529.0878, 14948.49
529.5699, 14960.91
530.0521, 14984.03
530.5342, 15025.36
531.0163, 15052.01
531.4984, 15039.66
531.9805, 15013.48
532.4626, 15000.27
532.9448, 15008.27
533.4269, 15023.83
533.9090, 15043.29
534.3911, 15068.96
534.8732, 15112.16
535.3553, 15188.37
535.8375, 15253.97
536.3196, 15285.83
536.8017, 15282.46
537.2838, 15284.88
537.7659, 15292.65
538.2480, 15307.84
538.7302, 15333.55
539.2123, 15369.29
539.6944, 15410.86
540.1765, 15459.24
540.6586, 15509.57
541.1407, 15556.20
541.6229, 15599.93
542.1050, 15644.35
542.5871, 15687.03
543.0692, 15734.19
543.5513, 15794.38
544.0334, 15867.37
544.5156, 15937.46
544.9977, 15994.29
545.4798, 16046.91
545.9619, 16101.37
546.4440, 16153.96
546.9261, 16215.75
547.4083, 16288.59
547.8904, 16372.07
548.3725, 16464.63
548.8546, 16573.82
549.3367, 16680.98
549.8188, 16783.62
550.3010, 16881.17
550.7831, 16963.57
551.2652, 17025.98
551.7473, 17089.68
552.2294, 17167.88
552.7115, 17260.29
553.1937, 17365.04
553.6758, 17485.23
554.1579, 17604.30
554.6400, 17694.88
555.1221, 17767.34
555.6042, 17848.94
556.0864, 17945.07
556.5685, 18060.35
557.0506, 18207.78
557.5327, 18380.08
558.0148, 18547.95
558.4969, 18696.13
558.9791, 18836.83
559.4612, 18970.02
559.9433, 19088.83
560.4254, 19233.80
560.9075, 19438.69
561.3896, 19657.76
561.8718, 19852.60
562.3539, 20004.26
562.8360, 20164.43
563.3181, 20338.56
563.8002, 20520.94
564.2823, 20700.30
564.7645, 20873.59
565.2466, 21050.25
565.7287, 21225.00
566.2108, 21404.38
566.6929, 21631.62
567.1750, 21907.29
567.6572, 22176.33
568.1393, 22364.44
568.6214, 22513.35
569.1035, 22703.62
569.5856, 22956.36
570.0677, 23223.56
570.5499, 23468.93
571.0320, 23704.55
571.5141, 23951.12
571.9962, 24214.73
572.4783, 24492.19
572.9604, 24781.84
573.4426, 25081.79
573.9247, 25391.29
574.4068, 25725.18
574.8889, 26051.98
575.3710, 26354.87
575.8531, 26622.89
576.3353, 26904.90
576.8174, 27200.56
577.2995, 27506.72
577.7816, 27829.77
578.2637, 28171.15
578.7458, 28492.46
579.2280, 28776.62
579.7101, 29059.46
580.1922, 29414.41
580.6743, 29830.76
581.1564, 30248.06
581.6385, 30629.78
582.1207, 31001.96
582.6028, 31386.82
583.0849, 31782.75
583.5670, 32202.97
584.0491, 32684.99
584.5313, 33174.46
585.0134, 33625.94
585.4955, 34019.04
585.9776, 34414.64
586.4597, 34810.81
586.9418, 35223.09
587.4240, 35664.96
587.9061, 36146.25
588.3882, 36646.17
588.8703, 37172.23
589.3524, 37712.89
589.8345, 38231.32
590.3167, 38720.98
590.7988, 39217.35
591.2809, 39722.66
591.7630, 40241.37
592.2451, 40781.10
592.7272, 41342.69
593.2094, 41904.98
593.6915, 42449.57
594.1736, 42982.50
594.6557, 43519.13
595.1378, 44052.38
595.6199, 44585.71
596.1021, 45100.36
596.5842, 45619.49
597.0663, 46178.47
597.5485, 46861.34
598.0306, 47501.53
598.5127, 48023.90
598.9948, 48452.42
599.4769, 48900.70
599.9590, 49400.89
600.4412, 49899.61
600.9233, 50384.15
601.4054, 50859.48
601.8875, 51277.46
602.3696, 51628.23
602.8517, 51938.47
603.3339, 52218.32
603.8160, 52470.68
604.2981, 52701.42
604.7802, 52909.39
605.2623, 53094.93
605.7444, 53262.46
606.2266, 53406.93
606.7087, 53507.71
607.1908, 53558.12
607.6729, 53564.63
608.1550, 53536.82
608.6371, 53470.71
609.1193, 53352.43
609.6014, 53158.30
610.0835, 52925.96
610.5656, 52669.84
611.0477, 52387.85
611.5298, 52107.85
612.0120, 51871.68
612.4941, 51600.29
612.9762, 51239.76
613.4583, 50772.46
613.9404, 50289.32
614.4225, 49806.10
614.9047, 49289.42
615.3868, 48658.50
615.8689, 47918.59
616.3510, 47211.91
616.8331, 46590.22
617.3152, 46010.70
617.7974, 45403.61
618.2795, 44779.55
618.7616, 44148.81
619.2437, 43530.95
619.7258, 42902.38
620.2079, 42225.83
620.6901, 41503.29
621.1722, 40799.18
621.6543, 40146.73
622.1364, 39509.70
622.6185, 38872.14
623.1006, 38224.07
623.5828, 37585.05
624.0649, 36961.41
624.5470, 36341.02
625.0291, 35701.67
625.5112, 35033.07
625.9933, 34400.23
626.4755, 33826.02
626.9576, 33288.86
627.4397, 32759.26
627.9218, 32235.17
628.4039, 31700.82
628.8860, 31128.95
629.3682, 30550.35
629.8503, 30011.82
630.3324, 29509.75
630.8145, 29031.04
631.2966, 28581.04
631.7787, 28148.49
632.2609, 27732.61
632.7430, 27341.83
633.2251, 26931.64
633.7072, 26457.92
634.1893, 25988.11
634.6714, 25575.64
635.1536, 25238.76
635.6357, 24923.32
636.1178, 24646.24
636.5999, 24371.28
637.0820, 24014.38
637.5641, 23572.36
638.0463, 23165.94
638.5284, 22833.63
639.0105, 22557.79
639.4926, 22317.38
639.9747, 22103.21
640.4568, 21870.10
640.9390, 21542.73
641.4211, 21211.47
641.9032, 20975.56
642.3853, 20842.59
642.8674, 20694.48
643.3495, 20478.90
643.8317, 20235.75
644.3138, 19986.66
644.7959, 19714.73
645.2780, 19478.17
645.7601, 19287.42
646.2422, 19123.58
646.7244, 18964.45
647.2065, 18811.96
647.6886, 18661.55
648.1707, 18514.70
648.6528, 18368.82
649.1349, 18210.49
649.6171, 18043.49
650.0992, 17889.96
650.5813, 17767.39
651.0634, 17659.44
651.5455, 17549.84
652.0276, 17437.53
652.5098, 17322.00
652.9919, 17199.75
653.4740, 17076.44
653.9561, 16953.88
654.4382, 16831.00
