##NAMES=Rutile
##RRUFFID=R050417
##IDEAL CHEMISTRY=Ti^4+^O_2_
##LOCALITY=Champion mine, Mono County, California, USA
##OWNER=RRUFF
##SOURCE=Marcus Origlieri
##DESCRIPTION=Reddish black equant crystals
##STATUS=The identification of this mineral has been confirmed by X-ray diffraction and chemical analysis
##URL=rruff.info/R050417
##MEASURED CHEMISTRY=TiO_2_
93.30109, 0.0000000E+00
93.78320, 2102.048
94.26532, 2084.536
94.74744, 2091.973
95.22955, 2119.312
95.71167, 2159.309
96.19379, 2189.576
96.67590, 2213.769
97.15802, 2233.790
97.64014, 2249.012
98.12225, 2260.511
98.60437, 2270.397
99.08649, 2279.890
99.56860, 2288.981
100.0507, 2297.586
100.5328, 2302.300
101.0150, 2304.856
101.4971, 2306.066
101.9792, 2305.992
102.4613, 2307.430
102.9434, 2312.030
103.4255, 2317.840
103.9077, 2323.331
104.3898, 2327.735
104.8719, 2332.400
105.3540, 2340.397
105.8361, 2353.941
106.3182, 2366.870
106.8004, 2378.079
107.2825, 2387.863
107.7646, 2396.245
108.2467, 2403.036
108.7288, 2408.337
109.2109, 2414.202
109.6931, 2421.310
110.1752, 2428.210
110.6573, 2434.082
111.1394, 2439.265
111.6215, 2444.722
112.1036, 2451.212
112.5858, 2458.881
113.0679, 2467.207
113.5500, 2476.688
114.0321, 2486.333
114.5142, 2495.899
114.9964, 2505.336
115.4785, 2513.557
115.9606, 2518.153
116.4427, 2519.324
116.9248, 2522.090
117.4069, 2528.697
117.8891, 2537.591
118.3712, 2545.715
118.8533, 2552.424
119.3354, 2558.151
119.8175, 2563.483
120.2996, 2568.432
120.7818, 2572.816
121.2639, 2576.002
121.7460, 2577.903
122.2281, 2580.866
122.7102, 2587.147
123.1923, 2593.378
123.6745, 2597.510
124.1566, 2599.264
124.6387, 2600.074
125.1208, 2602.205
125.6029, 2606.930
126.0850, 2610.172
126.5672, 2611.597
127.0493, 2611.755
127.5314, 2610.661
128.0135, 2608.376
128.4956, 2605.597
128.9777, 2604.255
129.4599, 2605.763
129.9420, 2607.312
130.4241, 2608.961
130.9062, 2610.516
131.3883, 2611.791
131.8704, 2612.738
132.3526, 2613.271
132.8347, 2612.884
133.3168, 2610.579
133.7989, 2608.587
134.2810, 2607.566
134.7632, 2607.567
135.2453, 2608.794
135.7274, 2611.813
136.2095, 2616.220
136.6916, 2620.187
137.1737, 2622.228
137.6559, 2624.645
138.1380, 2630.111
138.6201, 2639.086
139.1022, 2648.996
139.5843, 2658.701
140.0664, 2668.244
140.5486, 2677.859
141.0307, 2690.988
141.5128, 2703.856
141.9949, 2704.827
142.4770, 2690.294
142.9591, 2667.524
143.4413, 2636.382
143.9234, 2600.747
144.4055, 2567.132
144.8876, 2540.375
145.3697, 2520.543
145.8518, 2502.730
146.3340, 2487.602
146.8161, 2474.174
147.2982, 2462.645
147.7803, 2452.720
148.2624, 2443.695
148.7445, 2434.583
149.2267, 2424.633
149.7088, 2418.442
150.1909, 2419.671
150.6730, 2420.887
151.1551, 2417.026
151.6372, 2407.841
152.1194, 2397.560
152.6015, 2391.451
153.0836, 2391.829
153.5657, 2390.644
154.0478, 2386.899
154.5299, 2382.064
155.0121, 2377.012
155.4942, 2371.837
155.9763, 2367.803
156.4584, 2368.231
156.9405, 2373.784
157.4226, 2376.688
157.9048, 2372.233
158.3869, 2363.758
158.8690, 2358.472
159.3511, 2358.856
159.8332, 2362.193
160.3153, 2365.367
160.7975, 2368.427
161.2796, 2370.772
161.7617, 2371.305
162.2438, 2370.251
162.7259, 2370.547
163.2081, 2373.728
163.6902, 2377.941
164.1723, 2381.684
164.6544, 2384.855
165.1365, 2388.261
165.6186, 2392.929
166.1008, 2399.120
166.5829, 2405.372
167.0650, 2411.852
167.5471, 2418.075
168.0292, 2423.198
168.5113, 2427.135
168.9935, 2431.159
169.4756, 2437.328
169.9577, 2446.098
170.4398, 2456.559
170.9219, 2470.379
171.4040, 2484.578
171.8862, 2496.196
172.3683, 2504.230
172.8504, 2510.517
173.3325, 2519.528
173.8146, 2533.698
174.2967, 2547.904
174.7789, 2562.369
175.2610, 2576.693
175.7431, 2590.177
176.2252, 2602.583
176.7073, 2614.327
177.1894, 2626.719
177.6716, 2638.439
178.1537, 2652.279
178.6358, 2671.552
179.1179, 2693.265
179.6000, 2711.472
180.0821, 2722.464
180.5643, 2728.887
181.0464, 2739.056
181.5285, 2754.304
182.0106, 2770.668
182.4927, 2786.907
182.9748, 2802.925
183.4570, 2818.289
183.9391, 2832.825
184.4212, 2846.437
184.9033, 2858.955
185.3854, 2869.560
185.8675, 2880.421
186.3497, 2893.979
186.8318, 2910.342
187.3139, 2925.647
187.7960, 2936.585
188.2781, 2946.276
188.7602, 2958.285
189.2424, 2973.972
189.7245, 2990.714
190.2066, 3005.200
190.6887, 3017.109
191.1708, 3027.903
191.6530, 3036.300
192.1351, 3044.667
192.6172, 3055.246
193.0993, 3068.901
193.5814, 3084.592
194.0635, 3100.389
194.5457, 3116.924
195.0278, 3132.126
195.5099, 3145.038
195.9920, 3156.870
196.4741, 3168.637
196.9562, 3180.765
197.4384, 3193.292
197.9205, 3206.500
198.4026, 3220.926
198.8847, 3235.292
199.3668, 3249.837
199.8489, 3264.101
200.3311, 3277.397
200.8132, 3289.353
201.2953, 3300.449
201.7774, 3312.434
202.2595, 3327.454
202.7416, 3341.034
203.2238, 3351.777
203.7059, 3361.063
204.1880, 3370.900
204.6701, 3382.302
205.1522, 3395.032
205.6343, 3408.054
206.1165, 3421.848
206.5986, 3435.521
207.0807, 3448.226
207.5628, 3460.716
208.0449, 3474.910
208.5270, 3492.291
209.0092, 3511.391
209.4913, 3525.762
209.9734, 3532.345
210.4555, 3538.995
210.9376, 3548.416
211.4197, 3560.030
211.9019, 3572.574
212.3840, 3585.736
212.8661, 3598.962
213.3482, 3610.825
213.8303, 3620.927
214.3124, 3630.403
214.7946, 3638.602
215.2767, 3646.116
215.7588, 3656.128
216.2409, 3671.112
216.7230, 3688.897
217.2052, 3705.625
217.6873, 3721.496
218.1694, 3735.567
218.6515, 3746.541
219.1336, 3754.559
219.6157, 3762.005
220.0979, 3768.489
220.5800, 3775.828
221.0621, 3786.433
221.5442, 3801.215
222.0263, 3816.614
222.5084, 3828.991
222.9906, 3838.132
223.4727, 3847.126
223.9548, 3856.715
224.4369, 3866.586
224.9190, 3876.383
225.4011, 3886.081
225.8833, 3896.047
226.3654, 3907.352
226.8475, 3920.585
227.3296, 3932.011
227.8117, 3939.780
228.2938, 3946.111
228.7760, 3951.590
229.2581, 3956.498
229.7402, 3961.806
230.2223, 3969.116
230.7044, 3979.339
231.1865, 3988.733
231.6687, 3998.370
232.1508, 4006.152
232.6329, 4009.844
233.1150, 4009.414
233.5971, 4007.518
234.0792, 4007.950
234.5614, 4011.930
235.0435, 4015.333
235.5256, 4018.403
236.0077, 4020.759
236.4898, 4022.680
236.9719, 4023.942
237.4541, 4023.458
237.9362, 4019.364
238.4183, 4009.468
238.9004, 4001.286
239.3825, 3994.809
239.8646, 3989.701
240.3468, 3987.321
240.8289, 3987.028
241.3110, 3985.452
241.7931, 3978.105
242.2752, 3962.620
242.7573, 3947.687
243.2395, 3932.280
243.7216, 3918.062
244.2037, 3907.577
244.6858, 3900.383
245.1679, 3892.326
245.6501, 3878.479
246.1322, 3856.810
246.6143, 3837.185
247.0964, 3820.928
247.5785, 3805.413
248.0606, 3789.191
248.5428, 3772.074
249.0249, 3754.034
249.5070, 3734.821
249.9891, 3714.009
250.4712, 3695.104
250.9533, 3679.981
251.4355, 3665.179
251.9176, 3648.261
252.3997, 3629.174
252.8818, 3609.283
253.3639, 3589.668
253.8460, 3570.310
254.3282, 3551.306
254.8103, 3532.273
255.2924, 3513.868
255.7745, 3497.019
256.2566, 3481.610
256.7387, 3466.329
257.2209, 3449.710
257.7030, 3432.490
258.1851, 3418.153
258.6672, 3409.525
259.1493, 3401.518
259.6314, 3390.366
260.1136, 3376.333
260.5957, 3362.239
261.0778, 3349.459
261.5599, 3337.925
262.0420, 3326.849
262.5241, 3317.204
263.0063, 3306.833
263.4884, 3293.224
263.9705, 3276.832
264.4526, 3261.711
264.9347, 3250.257
265.4168, 3241.095
265.8990, 3231.356
266.3811, 3220.585
266.8632, 3209.969
267.3453, 3200.790
267.8274, 3192.818
268.3095, 3183.871
268.7917, 3172.664
269.2738, 3160.609
269.7559, 3149.581
270.2380, 3139.657
270.7201, 3130.583
271.2022, 3123.149
271.6844, 3116.933
272.1665, 3108.616
272.6486, 3096.155
273.1307, 3082.597
273.6128, 3071.163
274.0949, 3061.771
274.5771, 3052.414
275.0592, 3041.346
275.5413, 3028.929
276.0234, 3017.334
276.5055, 3006.437
276.9876, 2997.127
277.4698, 2990.835
277.9519, 2986.874
278.4340, 2981.746
278.9161, 2972.766
279.3982, 2960.710
279.8803, 2948.706
280.3625, 2936.368
280.8446, 2925.123
281.3267, 2916.065
281.8088, 2908.628
282.2909, 2901.448
282.7730, 2893.951
283.2552, 2886.164
283.7373, 2878.260
284.2194, 2870.481
284.7015, 2862.050
285.1836, 2851.684
285.6658, 2840.616
286.1479, 2830.756
286.6300, 2823.364
287.1121, 2817.372
287.5942, 2810.456
288.0764, 2802.428
288.5585, 2793.857
289.0406, 2783.932
289.5227, 2774.049
290.0048, 2765.947
290.4869, 2760.339
290.9691, 2756.110
291.4512, 2751.545
291.9333, 2746.866
292.4154, 2741.203
292.8975, 2733.375
293.3796, 2725.105
293.8618, 2717.668
294.3439, 2711.388
294.8260, 2705.859
295.3081, 2700.402
295.7902, 2694.787
296.2723, 2690.381
296.7545, 2687.102
297.2366, 2685.380
297.7187, 2686.784
298.2008, 2690.903
298.6829, 2694.413
299.1650, 2692.944
299.6472, 2685.692
300.1293, 2680.884
300.6114, 2681.145
301.0935, 2682.115
301.5756, 2682.119
302.0577, 2681.166
302.5399, 2679.879
303.0220, 2678.576
303.5041, 2677.289
303.9862, 2676.595
304.4683, 2676.158
304.9504, 2676.905
305.4326, 2679.996
305.9147, 2684.396
306.3968, 2688.293
306.8789, 2690.659
307.3610, 2691.666
307.8431, 2691.804
308.3253, 2690.063
308.8074, 2689.121
309.2895, 2689.507
309.7716, 2691.052
310.2537, 2693.659
310.7358, 2697.350
311.2180, 2701.779
311.7001, 2706.330
312.1822, 2711.578
312.6643, 2715.621
313.1464, 2717.062
313.6285, 2717.902
314.1107, 2719.996
314.5928, 2723.794
315.0749, 2727.887
315.5570, 2730.107
316.0391, 2729.871
316.5212, 2729.833
317.0034, 2730.013
317.4855, 2730.648
317.9676, 2732.563
318.4497, 2735.456
318.9318, 2737.626
319.4139, 2736.712
319.8961, 2732.217
320.3782, 2729.706
320.8603, 2731.617
321.3424, 2733.362
321.8245, 2732.615
322.3066, 2730.219
322.7888, 2728.570
323.2709, 2729.888
323.7530, 2733.547
324.2351, 2734.693
324.7172, 2731.517
325.1993, 2728.217
325.6815, 2726.125
326.1636, 2724.714
326.6457, 2723.037
327.1278, 2720.487
327.6099, 2717.796
328.0920, 2717.018
328.5742, 2719.465
329.0563, 2720.949
329.5384, 2719.949
330.0205, 2717.985
330.5026, 2716.363
330.9847, 2715.450
331.4669, 2714.660
331.9490, 2713.124
332.4311, 2710.677
332.9132, 2708.237
333.3953, 2706.198
333.8774, 2704.011
334.3596, 2700.733
334.8417, 2696.650
335.3238, 2693.638
335.8059, 2694.423
336.2880, 2699.098
336.7701, 2701.188
337.2523, 2698.414
337.7344, 2695.322
338.2165, 2694.060
338.6986, 2694.120
339.1807, 2694.089
339.6628, 2692.877
340.1450, 2690.967
340.6271, 2690.146
341.1092, 2690.528
341.5913, 2691.851
342.0735, 2694.870
342.5556, 2698.345
343.0377, 2700.798
343.5198, 2701.669
344.0019, 2701.352
344.4840, 2699.975
344.9662, 2696.978
345.4483, 2695.347
345.9304, 2696.992
346.4125, 2699.834
346.8946, 2702.926
347.3767, 2706.109
347.8589, 2708.565
348.3410, 2708.673
348.8231, 2706.537
349.3052, 2706.655
349.7873, 2711.673
350.2694, 2716.807
350.7516, 2718.887
351.2337, 2718.259
351.7158, 2716.622
352.1979, 2713.766
352.6800, 2710.587
353.1621, 2710.570
353.6443, 2715.205
354.1264, 2719.718
354.6085, 2721.391
355.0906, 2721.128
355.5727, 2720.058
356.0548, 2718.302
356.5370, 2716.225
357.0191, 2714.016
357.5012, 2711.601
357.9833, 2710.168
358.4654, 2710.961
358.9475, 2712.622
359.4297, 2713.614
359.9118, 2713.799
360.3939, 2713.380
360.8760, 2711.987
361.3581, 2709.927
361.8402, 2708.833
362.3224, 2709.348
362.8045, 2710.518
363.2866, 2711.765
363.7687, 2713.012
364.2508, 2713.125
364.7329, 2710.875
365.2151, 2707.438
365.6972, 2704.759
366.1793, 2703.042
366.6614, 2701.753
367.1435, 2700.717
367.6256, 2699.809
368.1078, 2698.629
368.5899, 2696.402
369.0720, 2694.496
369.5541, 2694.261
370.0362, 2695.500
370.5183, 2696.961
371.0005, 2698.289
371.4826, 2699.273
371.9647, 2699.482
372.4468, 2698.802
372.9289, 2697.779
373.4110, 2695.934
373.8932, 2694.003
374.3753, 2693.662
374.8574, 2695.508
375.3395, 2697.917
375.8216, 2698.697
376.3037, 2697.593
376.7859, 2697.009
377.2680, 2696.652
377.7501, 2697.234
378.2322, 2700.236
378.7143, 2705.315
379.1964, 2709.542
379.6786, 2710.578
380.1607, 2708.691
380.6428, 2707.493
381.1249, 2707.164
381.6070, 2707.216
382.0891, 2707.376
382.5713, 2707.819
383.0534, 2708.699
383.5355, 2710.038
384.0176, 2712.273
384.4997, 2716.495
384.9818, 2725.499
385.4640, 2731.907
385.9461, 2733.416
386.4282, 2733.599
386.9103, 2735.427
387.3924, 2739.335
387.8745, 2744.113
388.3567, 2748.510
388.8388, 2752.520
389.3209, 2756.163
389.8030, 2758.401
390.2851, 2761.409
390.7672, 2766.364
391.2494, 2772.707
391.7315, 2779.302
392.2136, 2785.493
392.6957, 2791.368
393.1778, 2797.124
393.6599, 2801.775
394.1421, 2807.800
394.6242, 2816.747
395.1063, 2826.327
395.5884, 2834.003
396.0706, 2839.356
396.5527, 2844.318
397.0348, 2851.681
397.5169, 2862.125
397.9990, 2872.051
398.4811, 2881.161
398.9633, 2889.900
399.4454, 2897.546
399.9275, 2904.900
400.4096, 2914.064
400.8917, 2927.048
401.3738, 2942.625
401.8560, 2955.278
402.3381, 2963.365
402.8202, 2971.595
403.3023, 2980.238
403.7844, 2990.319
404.2665, 3003.712
404.7487, 3021.195
405.2308, 3039.385
405.7129, 3053.048
406.1950, 3061.870
406.6771, 3073.899
407.1592, 3092.461
407.6414, 3112.748
408.1235, 3131.017
408.6056, 3147.614
409.0877, 3164.933
409.5698, 3184.922
410.0519, 3206.412
410.5341, 3226.423
411.0162, 3244.177
411.4983, 3262.854
411.9804, 3285.075
412.4625, 3309.295
412.9446, 3332.753
413.4268, 3354.535
413.9089, 3376.241
414.3910, 3398.875
414.8731, 3422.383
415.3552, 3446.551
415.8373, 3471.409
416.3195, 3496.744
416.8016, 3522.229
417.2837, 3547.782
417.7658, 3573.964
418.2479, 3601.417
418.7300, 3629.299
419.2122, 3656.616
419.6943, 3683.304
420.1764, 3710.447
420.6585, 3738.716
421.1406, 3768.198
421.6227, 3798.109
422.1049, 3829.597
422.5870, 3860.524
423.0691, 3889.358
423.5512, 3917.129
424.0333, 3945.988
424.5154, 3976.655
424.9976, 4008.507
425.4797, 4040.237
425.9618, 4072.589
426.4439, 4103.070
426.9260, 4130.853
427.4081, 4157.662
427.8903, 4184.469
428.3724, 4211.558
428.8545, 4238.853
429.3366, 4266.417
429.8187, 4294.412
430.3008, 4322.272
430.7830, 4348.742
431.2651, 4376.834
431.7472, 4409.372
432.2293, 4442.889
432.7114, 4472.636
433.1935, 4496.883
433.6757, 4518.095
434.1578, 4540.119
434.6399, 4563.450
435.1220, 4585.445
435.6041, 4605.327
436.0862, 4624.007
436.5684, 4642.083
437.0505, 4659.265
437.5326, 4674.717
438.0147, 4687.308
438.4968, 4697.781
438.9789, 4709.234
439.4611, 4722.948
439.9432, 4734.334
440.4253, 4741.123
440.9074, 4744.882
441.3895, 4747.081
441.8716, 4748.188
442.3538, 4747.085
442.8359, 4742.050
443.3180, 4733.631
443.8001, 4725.700
444.2822, 4720.326
444.7643, 4713.086
445.2465, 4698.585
445.7286, 4678.158
446.2107, 4657.302
446.6928, 4639.282
447.1749, 4620.294
447.6570, 4595.894
448.1392, 4566.503
448.6213, 4536.116
449.1034, 4506.784
449.5855, 4478.054
450.0677, 4448.999
450.5498, 4421.648
451.0319, 4390.123
451.5140, 4350.940
451.9961, 4307.704
452.4782, 4264.602
452.9604, 4222.442
453.4425, 4180.814
453.9246, 4139.640
454.4067, 4099.261
454.8888, 4055.523
455.3709, 4005.299
455.8531, 3956.027
456.3352, 3910.863
456.8173, 3868.494
457.2994, 3825.712
457.7815, 3781.184
458.2636, 3736.685
458.7458, 3696.196
459.2279, 3663.274
459.7100, 3626.732
460.1921, 3582.504
460.6742, 3538.167
461.1563, 3498.653
461.6385, 3463.254
462.1206, 3428.122
462.6027, 3389.677
463.0848, 3349.084
463.5669, 3312.758
464.0490, 3282.915
464.5312, 3253.258
465.0133, 3221.560
465.4954, 3189.138
465.9775, 3156.876
466.4596, 3124.720
466.9417, 3093.558
467.4239, 3063.619
467.9060, 3035.072
468.3881, 3009.184
468.8702, 2987.403
469.3523, 2965.671
469.8344, 2939.370
470.3166, 2910.199
470.7987, 2883.526
471.2808, 2862.627
471.7629, 2843.283
472.2450, 2821.027
472.7271, 2796.761
473.2093, 2775.276
473.6914, 2759.008
474.1735, 2745.828
474.6556, 2731.765
475.1377, 2716.816
475.6198, 2701.227
476.1020, 2683.881
476.5841, 2666.641
477.0662, 2651.118
477.5483, 2637.413
478.0304, 2624.301
478.5125, 2610.829
478.9947, 2597.167
479.4768, 2585.450
479.9589, 2577.576
480.4410, 2569.156
480.9231, 2558.781
481.4052, 2548.006
481.8874, 2538.901
482.3695, 2531.739
482.8516, 2524.708
483.3337, 2515.159
483.8158, 2502.524
484.2979, 2492.300
484.7801, 2486.562
485.2622, 2481.019
485.7443, 2474.080
486.2264, 2466.408
486.7085, 2459.141
487.1906, 2452.759
487.6728, 2446.924
488.1549, 2440.916
488.6370, 2434.681
489.1191, 2429.307
489.6012, 2425.247
490.0833, 2421.925
490.5655, 2418.638
491.0476, 2415.468
491.5297, 2413.009
492.0118, 2412.762
492.4939, 2412.660
492.9760, 2409.330
493.4582, 2402.917
493.9403, 2397.550
494.4224, 2395.675
494.9045, 2395.885
495.3866, 2394.530
495.8687, 2390.915
496.3509, 2387.758
496.8330, 2385.605
497.3151, 2384.240
497.7972, 2383.574
498.2793, 2383.516
498.7614, 2383.810
499.2436, 2384.298
499.7257, 2384.947
500.2078, 2385.266
500.6899, 2383.901
501.1720, 2383.843
501.6541, 2387.418
502.1363, 2391.624
502.6184, 2392.584
503.1005, 2389.584
503.5826, 2385.954
504.0647, 2386.004
504.5468, 2390.145
505.0290, 2393.941
505.5111, 2397.219
505.9932, 2400.401
506.4753, 2404.088
506.9575, 2407.691
507.4396, 2410.126
507.9217, 2410.774
508.4038, 2410.884
508.8859, 2412.183
509.3680, 2414.570
509.8502, 2415.910
510.3323, 2414.598
510.8144, 2413.941
511.2965, 2418.477
511.7786, 2427.089
512.2607, 2433.782
512.7429, 2435.282
513.2250, 2435.676
513.7071, 2439.057
514.1892, 2444.642
514.6713, 2448.584
515.1534, 2448.884
515.6356, 2447.585
516.1177, 2448.768
516.5998, 2453.878
517.0819, 2458.423
517.5640, 2462.443
518.0461, 2465.765
518.5283, 2467.340
519.0104, 2467.994
519.4925, 2470.201
519.9746, 2475.746
520.4567, 2483.626
520.9388, 2490.121
521.4210, 2494.680
521.9031, 2498.780
522.3852, 2501.979
522.8673, 2505.284
523.3494, 2509.445
523.8315, 2514.435
524.3137, 2519.695
524.7958, 2524.782
525.2779, 2529.761
525.7600, 2534.944
526.2421, 2540.543
526.7242, 2545.430
527.2064, 2547.744
527.6885, 2549.838
528.1706, 2555.204
528.6527, 2564.757
529.1348, 2573.769
529.6169, 2579.381
530.0991, 2583.109
530.5812, 2587.319
531.0633, 2592.312
531.5454, 2597.593
532.0275, 2602.634
532.5096, 2607.663
532.9918, 2614.157
533.4739, 2623.349
533.9560, 2632.128
534.4381, 2639.276
534.9202, 2646.000
535.4023, 2653.688
535.8845, 2662.519
536.3666, 2671.790
536.8487, 2680.799
537.3308, 2689.558
537.8129, 2697.802
538.2950, 2703.581
538.7772, 2711.535
539.2593, 2724.478
539.7414, 2739.070
540.2235, 2751.531
540.7056, 2760.906
541.1877, 2769.728
541.6699, 2780.582
542.1520, 2793.178
542.6341, 2805.424
543.1162, 2816.468
543.5983, 2828.875
544.0804, 2846.424
544.5626, 2866.000
545.0447, 2881.283
545.5268, 2888.757
546.0089, 2896.935
546.4910, 2911.554
546.9731, 2930.231
547.4553, 2948.461
547.9374, 2965.426
548.4195, 2981.739
548.9016, 2997.760
549.3837, 3013.506
549.8658, 3031.006
550.3480, 3050.808
550.8301, 3071.455
551.3122, 3093.208
551.7943, 3115.233
552.2764, 3136.072
552.7585, 3155.517
553.2407, 3175.535
553.7228, 3198.960
554.2049, 3226.122
554.6870, 3250.205
555.1691, 3267.279
555.6512, 3286.888
556.1334, 3313.867
556.6155, 3344.351
557.0976, 3373.384
557.5797, 3399.458
558.0618, 3425.458
558.5439, 3454.357
559.0261, 3485.331
559.5082, 3515.669
559.9903, 3544.651
560.4724, 3573.925
560.9545, 3604.547
561.4366, 3636.511
561.9188, 3669.708
562.4009, 3705.185
562.8830, 3740.388
563.3651, 3773.883
563.8472, 3806.888
564.3293, 3840.915
564.8115, 3876.382
565.2936, 3913.335
565.7757, 3951.695
566.2578, 3991.610
566.7399, 4033.603
567.2220, 4079.721
567.7042, 4125.645
568.1863, 4170.258
568.6684, 4214.377
569.1505, 4258.162
569.6326, 4301.663
570.1147, 4346.158
570.5969, 4392.657
571.0790, 4441.047
571.5611, 4489.910
572.0432, 4538.801
572.5253, 4589.667
573.0074, 4644.522
573.4896, 4701.442
573.9717, 4758.129
574.4538, 4813.908
574.9359, 4870.265
575.4180, 4927.857
575.9001, 4986.486
576.3823, 5045.505
576.8644, 5105.190
577.3465, 5166.594
577.8286, 5230.781
578.3107, 5297.194
578.7928, 5363.014
579.2750, 5425.949
579.7571, 5491.601
580.2392, 5560.947
580.7213, 5632.131
581.2034, 5704.223
581.6855, 5776.677
582.1677, 5850.227
582.6498, 5924.983
583.1319, 6001.029
583.6140, 6076.892
584.0961, 6151.612
584.5782, 6230.397
585.0604, 6317.876
585.5425, 6408.114
586.0246, 6495.758
586.5067, 6581.252
586.9889, 6667.975
587.4710, 6757.647
587.9531, 6849.298
588.4352, 6941.524
588.9174, 7034.407
589.3995, 7129.770
589.8816, 7228.282
590.3637, 7329.241
590.8458, 7432.393
