##NAMES=Rutile
##RRUFFID=R040049
##IDEAL CHEMISTRY=Ti^4+^O_2_
##LOCALITY=Graves Mountain, Lincoln County, Georgia, USA
##OWNER=RRUFF
##SOURCE=University of Arizona Mineral Museum
##DESCRIPTION=Reddish-black fragments
##STATUS=The identification of this mineral has been confirmed by X-ray diffraction and chemical analysis
##URL=rruff.info/R040049
##MEASURED CHEMISTRY=(Ti_1.00_Fe_0.01_)O_2_
170.7495, 7605.346
171.2317, 7590.412
171.7138, 7563.506
172.1959, 7547.399
172.6780, 7542.752
173.1601, 7555.173
173.6422, 7605.624
174.1244, 7682.150
174.6065, 7744.523
175.0886, 7758.878
175.5707, 7747.504
176.0528, 7740.698
176.5349, 7739.571
177.0171, 7752.386
177.4992, 7800.364
177.9813, 7878.766
178.4634, 7951.279
178.9455, 7982.016
179.4276, 7985.102
179.9098, 7993.906
180.3919, 8020.773
180.8740, 8057.788
181.3561, 8094.239
181.8382, 8129.768
182.3203, 8163.759
182.8025, 8194.695
183.2846, 8223.104
183.7667, 8252.263
184.2488, 8285.109
184.7309, 8320.231
185.2130, 8351.807
185.6951, 8380.401
186.1773, 8406.099
186.6594, 8426.827
187.1415, 8443.389
187.6236, 8463.793
188.1057, 8491.740
188.5878, 8526.874
189.0700, 8570.094
189.5521, 8622.238
190.0342, 8679.187
190.5163, 8741.063
190.9984, 8807.834
191.4805, 8857.938
191.9627, 8859.545
192.4448, 8818.043
192.9269, 8803.721
193.4090, 8832.227
193.8911, 8892.844
194.3732, 8959.940
194.8554, 9036.545
195.3375, 9106.388
195.8196, 9151.026
196.3017, 9170.123
196.7838, 9190.499
197.2659, 9222.020
197.7481, 9261.811
198.2302, 9284.493
198.7123, 9284.060
199.1944, 9284.646
199.6765, 9321.085
200.1586, 9399.198
200.6408, 9471.659
201.1229, 9516.957
201.6050, 9534.054
202.0871, 9571.510
202.5692, 9635.771
203.0513, 9710.098
203.5335, 9765.604
204.0156, 9798.544
204.4977, 9827.352
204.9798, 9856.421
205.4619, 9883.160
205.9440, 9928.638
206.4262, 10002.47
206.9083, 10088.42
207.3904, 10140.92
207.8725, 10148.24
208.3546, 10153.62
208.8367, 10186.73
209.3189, 10258.23
209.8010, 10311.69
210.2831, 10336.69
210.7652, 10341.22
211.2473, 10361.70
211.7294, 10403.71
212.2116, 10451.41
212.6937, 10495.44
213.1758, 10540.38
213.6579, 10567.46
214.1400, 10563.73
214.6221, 10533.79
215.1043, 10546.29
215.5864, 10620.59
216.0685, 10710.28
216.5506, 10765.44
217.0327, 10770.35
217.5148, 10783.06
217.9970, 10820.27
218.4791, 10883.65
218.9612, 10934.12
219.4433, 10964.71
219.9254, 10988.19
220.4075, 11020.50
220.8897, 11061.66
221.3718, 11110.52
221.8539, 11170.11
222.3360, 11247.74
222.8181, 11300.10
223.3002, 11311.37
223.7824, 11306.71
224.2645, 11335.13
224.7466, 11421.38
225.2287, 11498.76
225.7108, 11538.18
226.1929, 11520.01
226.6750, 11519.67
227.1572, 11544.58
227.6393, 11585.35
228.1214, 11617.20
228.6035, 11632.30
229.0856, 11649.93
229.5677, 11681.40
230.0499, 11737.57
230.5320, 11780.94
231.0141, 11804.34
231.4962, 11813.07
231.9783, 11831.71
232.4604, 11873.69
232.9426, 11907.79
233.4247, 11911.88
233.9068, 11862.97
234.3889, 11831.71
234.8710, 11829.79
235.3531, 11853.73
235.8353, 11872.07
236.3174, 11886.24
236.7995, 11893.59
237.2816, 11886.63
237.7637, 11836.65
238.2458, 11816.34
238.7280, 11813.06
239.2101, 11803.23
239.6922, 11787.20
240.1743, 11746.37
240.6564, 11737.55
241.1385, 11715.91
241.6207, 11693.74
242.1028, 11689.43
242.5849, 11652.21
243.0670, 11647.62
243.5491, 11630.00
244.0313, 11618.34
244.5134, 11593.78
244.9955, 11573.20
245.4776, 11565.54
245.9597, 11550.72
246.4418, 11524.67
246.9240, 11513.39
247.4061, 11475.72
247.8882, 11461.21
248.3703, 11456.69
248.8524, 11426.93
249.3345, 11375.04
249.8167, 11322.54
250.2988, 11278.93
250.7809, 11246.99
251.2630, 11212.69
251.7451, 11176.63
252.2272, 11137.95
252.7094, 11094.31
253.1915, 11040.33
253.6736, 10989.89
254.1557, 10947.86
254.6378, 10914.57
255.1199, 10888.13
255.6021, 10871.73
256.0842, 10860.86
256.5663, 10847.89
257.0484, 10839.18
257.5305, 10817.21
258.0126, 10771.04
258.4948, 10687.36
258.9769, 10615.65
259.4590, 10554.59
259.9411, 10506.42
260.4232, 10479.22
260.9053, 10485.29
261.3875, 10490.02
261.8696, 10473.55
262.3517, 10427.78
262.8338, 10388.01
263.3159, 10358.30
263.7980, 10335.21
264.2802, 10307.73
264.7623, 10272.98
265.2444, 10238.67
265.7265, 10206.88
266.2086, 10175.38
266.6907, 10157.35
267.1729, 10160.14
267.6550, 10175.86
268.1371, 10175.87
268.6192, 10160.03
269.1013, 10128.21
269.5834, 10071.04
270.0656, 9977.321
270.5477, 9915.157
271.0298, 9901.999
271.5119, 9925.652
271.9940, 9935.513
272.4761, 9931.054
272.9583, 9914.399
273.4404, 9884.723
273.9225, 9840.058
274.4046, 9793.644
274.8867, 9745.240
275.3688, 9696.969
275.8510, 9657.477
276.3331, 9628.060
276.8152, 9604.523
277.2973, 9586.035
277.7794, 9573.769
278.2615, 9555.360
278.7437, 9527.741
279.2258, 9492.315
279.7079, 9452.690
280.1900, 9406.629
280.6721, 9365.134
281.1542, 9343.716
281.6364, 9343.653
282.1185, 9331.103
282.6006, 9292.877
283.0827, 9237.729
283.5648, 9205.403
284.0469, 9200.396
284.5291, 9195.184
285.0112, 9158.438
285.4933, 9091.254
285.9754, 9030.085
286.4575, 8984.396
286.9396, 8951.522
287.4217, 8923.857
287.9038, 8901.186
288.3860, 8883.837
288.8681, 8874.458
289.3502, 8872.043
289.8323, 8868.961
290.3144, 8868.875
290.7965, 8864.505
291.2787, 8826.106
291.7608, 8750.172
292.2429, 8677.247
292.7250, 8657.904
293.2071, 8680.350
293.6892, 8684.403
294.1714, 8638.822
294.6535, 8568.094
295.1356, 8524.616
295.6177, 8509.109
296.0998, 8507.056
296.5819, 8510.808
297.0641, 8518.079
297.5462, 8520.638
298.0283, 8512.050
298.5104, 8499.242
298.9925, 8495.903
299.4746, 8502.096
299.9568, 8506.268
300.4389, 8492.928
300.9210, 8469.474
301.4031, 8453.143
301.8852, 8458.195
302.3673, 8468.750
302.8495, 8456.439
303.3316, 8421.932
303.8137, 8398.552
304.2958, 8427.318
304.7779, 8485.040
305.2600, 8529.940
305.7422, 8539.162
306.2243, 8533.232
306.7064, 8529.738
307.1885, 8528.652
307.6706, 8529.883
308.1527, 8534.755
308.6349, 8541.721
309.1170, 8548.521
309.5991, 8554.105
310.0812, 8559.721
310.5633, 8566.267
311.0454, 8573.871
311.5276, 8582.410
312.0097, 8598.364
312.4918, 8613.093
312.9739, 8617.065
313.4560, 8591.542
313.9381, 8567.012
314.4203, 8563.800
314.9024, 8580.186
315.3845, 8594.632
315.8666, 8590.254
316.3487, 8581.920
316.8308, 8583.663
317.3130, 8612.360
317.7951, 8640.016
318.2772, 8652.500
318.7593, 8651.317
319.2414, 8653.962
319.7235, 8676.016
320.2057, 8699.260
320.6878, 8709.280
321.1699, 8683.331
321.6520, 8663.777
322.1341, 8666.341
322.6162, 8688.630
323.0984, 8704.975
323.5805, 8703.051
324.0626, 8698.166
324.5447, 8700.658
325.0268, 8717.431
325.5089, 8735.662
325.9911, 8758.884
326.4732, 8785.184
326.9553, 8797.471
327.4374, 8777.924
327.9195, 8754.915
328.4016, 8744.625
328.8838, 8758.943
329.3659, 8770.506
329.8480, 8774.116
330.3301, 8771.940
330.8122, 8778.725
331.2943, 8801.563
331.7765, 8826.132
332.2586, 8844.247
332.7407, 8840.780
333.2228, 8855.411
333.7049, 8864.075
334.1870, 8867.093
334.6692, 8847.558
335.1513, 8857.146
335.6334, 8855.062
336.1155, 8852.500
336.5976, 8866.187
337.0797, 8849.932
337.5619, 8863.360
338.0440, 8864.940
338.5261, 8871.942
339.0082, 8874.522
339.4903, 8889.747
339.9724, 8901.317
340.4546, 8909.468
340.9367, 8911.709
341.4188, 8906.968
341.9009, 8897.442
342.3830, 8884.636
342.8651, 8867.503
343.3473, 8858.312
343.8294, 8869.460
344.3115, 8899.022
344.7936, 8917.299
345.2757, 8921.420
345.7578, 8918.506
346.2400, 8918.356
346.7221, 8921.012
347.2042, 8925.617
347.6863, 8925.599
348.1684, 8926.533
348.6505, 8953.935
349.1327, 9014.825
349.6148, 9074.418
350.0969, 9080.203
350.5790, 9044.914
351.0611, 9018.649
351.5432, 9028.945
352.0254, 9061.415
352.5075, 9098.267
352.9896, 9139.531
353.4717, 9174.880
353.9538, 9194.840
354.4359, 9202.066
354.9181, 9201.001
355.4002, 9184.419
355.8823, 9166.427
356.3644, 9163.549
356.8465, 9176.352
357.3286, 9186.408
357.8108, 9172.654
358.2929, 9151.821
358.7750, 9145.400
359.2571, 9175.226
359.7392, 9210.031
360.2213, 9234.105
360.7035, 9247.582
361.1856, 9255.962
361.6677, 9262.491
362.1498, 9264.394
362.6319, 9259.342
363.1140, 9218.899
363.5962, 9199.257
364.0783, 9234.419
364.5604, 9314.396
365.0425, 9369.008
365.5246, 9367.996
366.0067, 9345.521
366.4889, 9322.824
366.9710, 9287.504
367.4531, 9269.414
367.9352, 9281.315
368.4173, 9315.815
368.8994, 9339.995
369.3815, 9342.160
369.8636, 9343.574
370.3458, 9353.864
370.8279, 9383.587
371.3100, 9404.130
371.7921, 9412.582
372.2742, 9412.565
372.7563, 9412.471
373.2385, 9410.679
373.7206, 9411.253
374.2027, 9415.305
374.6848, 9422.129
375.1669, 9435.471
375.6490, 9457.673
376.1312, 9483.890
376.6133, 9506.532
377.0954, 9525.015
377.5775, 9542.729
378.0596, 9562.925
378.5417, 9585.051
379.0239, 9596.902
379.5060, 9595.328
379.9881, 9592.830
380.4702, 9604.248
380.9523, 9629.464
381.4344, 9662.758
381.9166, 9712.073
382.3987, 9766.044
382.8808, 9789.001
383.3629, 9779.306
383.8450, 9759.379
384.3271, 9741.717
384.8093, 9729.549
385.2914, 9734.063
385.7735, 9761.037
386.2556, 9803.487
386.7377, 9860.532
387.2198, 9929.023
387.7020, 9987.023
388.1841, 10016.26
388.6662, 10025.84
389.1483, 10025.88
389.6304, 10010.47
390.1125, 10000.40
390.5947, 10012.77
391.0768, 10043.84
391.5589, 10081.17
392.0410, 10126.25
392.5231, 10170.55
393.0052, 10206.32
393.4874, 10226.20
393.9695, 10252.25
394.4516, 10294.39
394.9337, 10348.33
395.4158, 10406.33
395.8979, 10466.36
396.3801, 10529.51
396.8622, 10598.53
397.3443, 10678.52
397.8264, 10745.80
398.3085, 10783.17
398.7906, 10810.23
399.2728, 10850.68
399.7549, 10926.34
400.2370, 10991.51
400.7191, 11030.83
401.2012, 11041.17
401.6833, 11075.14
402.1655, 11142.14
402.6476, 11223.35
403.1297, 11303.02
403.6118, 11379.89
404.0939, 11459.45
404.5760, 11542.92
405.0582, 11629.54
405.5403, 11710.45
406.0224, 11779.80
406.5045, 11857.85
406.9866, 11963.07
407.4688, 12097.68
407.9509, 12226.80
408.4330, 12349.38
408.9151, 12462.28
409.3972, 12550.51
409.8793, 12613.58
410.3615, 12687.44
410.8436, 12804.99
411.3257, 12952.06
411.8078, 13074.69
412.2899, 13166.38
412.7720, 13251.48
413.2542, 13352.35
413.7363, 13468.23
414.2184, 13599.12
414.7005, 13751.91
415.1826, 13914.76
415.6647, 14074.19
416.1469, 14228.33
416.6290, 14382.89
417.1111, 14536.84
417.5932, 14694.18
418.0753, 14855.00
418.5574, 15031.12
419.0396, 15203.05
419.5217, 15356.38
420.0038, 15493.58
420.4859, 15641.74
420.9680, 15816.82
421.4501, 16002.86
421.9323, 16185.28
422.4144, 16373.17
422.8965, 16546.88
423.3786, 16695.43
423.8607, 16828.11
424.3428, 16971.94
424.8250, 17132.72
425.3071, 17305.88
425.7892, 17490.07
426.2713, 17696.64
426.7534, 17891.96
427.2355, 18066.80
427.7177, 18236.30
428.1998, 18419.48
428.6819, 18618.92
429.1640, 18824.24
429.6461, 19038.45
430.1282, 19257.93
430.6104, 19461.48
431.0925, 19641.94
431.5746, 19820.99
432.0567, 20024.18
432.5388, 20252.24
433.0209, 20460.08
433.5031, 20629.89
433.9852, 20780.21
434.4673, 20974.81
434.9494, 21211.73
435.4315, 21428.34
435.9136, 21550.65
436.3958, 21617.24
436.8779, 21736.99
437.3600, 21942.95
437.8421, 22152.75
438.3242, 22264.21
438.8063, 22303.47
439.2885, 22343.19
439.7706, 22418.31
440.2527, 22512.57
440.7348, 22617.64
441.2169, 22735.17
441.6990, 22840.31
442.1812, 22923.86
442.6633, 22985.79
443.1454, 23027.42
443.6275, 23050.33
444.1096, 23050.85
444.5917, 23018.81
445.0739, 22956.33
445.5560, 22896.78
446.0381, 22872.24
446.5202, 22835.61
447.0023, 22759.32
447.4844, 22629.12
447.9666, 22474.39
448.4487, 22282.73
448.9308, 22067.56
449.4129, 21864.31
449.8950, 21687.86
450.3771, 21506.95
450.8593, 21311.31
451.3413, 21103.59
451.8235, 20877.75
452.3056, 20633.22
452.7877, 20371.11
453.2698, 20077.11
453.7519, 19747.99
454.2340, 19441.78
454.7162, 19182.81
455.1983, 18957.03
455.6804, 18706.26
456.1625, 18428.57
456.6446, 18139.39
457.1267, 17843.86
457.6089, 17546.71
458.0910, 17244.36
458.5731, 16940.37
459.0552, 16629.34
459.5373, 16299.70
460.0194, 15960.46
460.5016, 15634.42
460.9837, 15336.97
461.4658, 15060.99
461.9479, 14803.17
462.4300, 14566.40
462.9121, 14334.25
463.3943, 14103.88
463.8764, 13873.21
464.3585, 13643.00
464.8406, 13412.88
465.3227, 13183.49
465.8048, 12954.28
466.2870, 12725.25
466.7691, 12500.25
467.2512, 12274.89
467.7333, 12054.58
468.2154, 11841.06
468.6975, 11622.02
469.1797, 11430.90
469.6618, 11285.64
470.1439, 11166.94
470.6260, 11024.01
471.1081, 10846.71
471.5902, 10669.36
472.0724, 10506.44
472.5545, 10357.07
473.0366, 10210.83
473.5187, 10067.28
474.0008, 9932.066
474.4829, 9819.210
474.9651, 9726.474
475.4472, 9625.586
475.9293, 9503.527
476.4114, 9371.351
476.8935, 9250.213
477.3756, 9140.801
477.8578, 9037.009
478.3399, 8934.922
478.8220, 8835.972
479.3041, 8743.183
479.7862, 8659.399
480.2683, 8576.282
480.7505, 8483.393
481.2326, 8386.503
481.7147, 8297.327
482.1968, 8219.105
482.6789, 8149.903
483.1610, 8089.338
483.6432, 8037.527
484.1253, 7990.995
484.6074, 7958.224
485.0895, 7925.825
485.5716, 7881.903
486.0537, 7810.296
486.5359, 7744.731
487.0180, 7688.112
487.5001, 7639.449
487.9822, 7594.724
488.4643, 7557.011
488.9464, 7519.062
489.4286, 7475.233
489.9107, 7423.208
490.3928, 7383.199
490.8749, 7361.226
491.3570, 7341.092
491.8391, 7293.566
492.3213, 7219.331
492.8034, 7149.962
493.2855, 7096.818
493.7676, 7057.104
494.2497, 7023.145
494.7318, 6995.323
495.2140, 6974.907
495.6961, 6974.275
496.1782, 6979.673
496.6603, 6964.809
497.1424, 6915.491
497.6245, 6863.518
498.1067, 6834.667
498.5888, 6821.844
499.0709, 6808.376
499.5530, 6773.191
500.0351, 6745.911
500.5172, 6750.523
500.9994, 6795.104
501.4815, 6820.288
501.9636, 6797.682
502.4457, 6757.136
502.9278, 6725.605
503.4099, 6709.204
503.8921, 6696.724
504.3742, 6693.949
504.8563, 6695.507
505.3384, 6675.955
505.8205, 6624.025
506.3026, 6573.317
506.7848, 6540.537
507.2669, 6527.658
507.7490, 6517.450
508.2311, 6508.996
508.7132, 6505.753
509.1953, 6516.620
509.6775, 6539.873
510.1596, 6556.719
510.6417, 6560.946
511.1238, 6554.494
511.6059, 6537.098
512.0880, 6509.553
512.5701, 6483.737
513.0522, 6461.922
513.5344, 6448.598
514.0165, 6453.601
514.4986, 6486.577
514.9807, 6513.962
515.4628, 6513.576
515.9449, 6493.777
516.4271, 6468.932
516.9092, 6434.367
517.3913, 6404.694
517.8734, 6386.987
518.3555, 6382.011
518.8376, 6378.037
519.3198, 6379.161
519.8019, 6377.305
520.2840, 6366.573
520.7661, 6338.578
521.2482, 6318.858
521.7303, 6311.074
522.2125, 6310.614
522.6946, 6307.229
523.1767, 6300.041
523.6588, 6293.447
524.1409, 6292.085
524.6230, 6293.955
525.1052, 6280.954
525.5873, 6251.435
526.0694, 6220.055
526.5515, 6193.539
527.0336, 6176.170
527.5157, 6185.027
527.9979, 6236.948
528.4800, 6293.486
528.9621, 6313.364
529.4442, 6303.757
529.9263, 6286.467
530.4084, 6262.285
530.8906, 6241.911
531.3727, 6235.203
531.8548, 6244.506
532.3369, 6252.681
532.8190, 6260.016
533.3011, 6260.538
533.7833, 6248.718
534.2654, 6199.278
534.7475, 6166.907
535.2296, 6158.586
535.7117, 6170.872
536.1938, 6194.466
536.6760, 6242.709
537.1581, 6277.725
537.6402, 6279.200
538.1223, 6243.772
538.6044, 6217.431
539.0865, 6199.719
539.5687, 6191.984
540.0508, 6199.970
540.5329, 6221.617
541.0150, 6240.649
541.4971, 6252.198
541.9792, 6260.195
542.4614, 6272.347
542.9435, 6287.022
543.4256, 6296.480
543.9077, 6281.702
544.3898, 6267.717
544.8719, 6284.097
545.3541, 6338.198
545.8362, 6388.664
546.3183, 6418.431
546.8004, 6433.303
547.2825, 6439.851
547.7646, 6427.688
548.2468, 6420.416
548.7289, 6426.561
549.2110, 6442.202
549.6931, 6449.580
550.1752, 6437.006
550.6573, 6432.062
551.1395, 6448.561
551.6216, 6491.358
552.1037, 6526.648
552.5858, 6552.798
553.0679, 6575.650
553.5500, 6601.167
554.0322, 6629.186
554.5143, 6659.899
554.9964, 6693.314
555.4785, 6729.750
555.9606, 6771.696
556.4427, 6817.985
556.9249, 6861.104
557.4070, 6892.630
557.8891, 6920.488
558.3712, 6953.283
558.8533, 6991.747
559.3354, 7033.503
559.8176, 7081.418
560.2997, 7130.253
560.7818, 7174.812
561.2639, 7198.876
561.7460, 7234.367
562.2281, 7297.800
562.7103, 7379.756
563.1924, 7443.274
563.6745, 7472.990
564.1566, 7504.031
564.6387, 7548.195
565.1208, 7606.728
565.6030, 7669.839
566.0851, 7739.206
566.5672, 7808.245
567.0493, 7871.258
567.5314, 7927.416
568.0135, 7976.846
568.4957, 8014.776
568.9778, 8053.754
569.4599, 8116.750
569.9420, 8199.774
570.4241, 8283.000
570.9063, 8351.475
571.3884, 8418.204
571.8705, 8502.050
572.3526, 8602.881
572.8347, 8699.925
573.3168, 8775.959
573.7990, 8845.990
574.2811, 8921.333
574.7632, 9005.996
575.2453, 9095.120
575.7274, 9187.520
576.2095, 9284.880
576.6917, 9388.982
577.1738, 9504.750
577.6559, 9618.929
578.1380, 9727.647
578.6201, 9830.937
579.1022, 9927.234
579.5844, 10013.08
580.0665, 10104.46
580.5486, 10221.04
581.0307, 10358.33
581.5128, 10473.63
581.9949, 10557.34
582.4771, 10635.70
582.9592, 10716.01
583.4413, 10815.22
583.9234, 10975.30
584.4055, 11279.89
584.8876, 11599.66
585.3698, 11843.62
585.8519, 12017.52
586.3340, 12160.72
586.8161, 12267.07
587.2982, 12360.50
587.7803, 12451.99
588.2625, 12537.95
588.7446, 12635.07
589.2267, 12751.90
589.7088, 12874.61
590.1909, 12985.21
590.6730, 13068.93
591.1552, 13178.29
591.6373, 13324.47
592.1194, 13500.07
592.6015, 13688.63
593.0836, 13891.76
593.5657, 14091.61
594.0479, 14278.18
594.5300, 14456.28
595.0121, 14635.53
595.4942, 14816.83
595.9763, 14997.37
596.4584, 15177.93
596.9406, 15354.52
597.4227, 15523.10
597.9048, 15674.36
598.3869, 15831.88
598.8690, 16016.00
599.3511, 16213.47
599.8333, 16402.26
600.3154, 16573.99
600.7975, 16740.32
601.2796, 16910.04
601.7617, 17083.45
602.2438, 17234.68
602.7260, 17355.93
603.2081, 17469.46
603.6902, 17586.17
604.1723, 17706.81
604.6544, 17836.69
605.1365, 17980.56
605.6187, 18117.92
606.1008, 18212.50
606.5829, 18273.08
607.0650, 18336.46
607.5471, 18422.03
608.0292, 18508.31
608.5114, 18566.42
608.9935, 18601.90
609.4756, 18636.19
609.9577, 18690.65
610.4398, 18738.10
610.9219, 18763.03
611.4041, 18764.14
611.8862, 18741.97
612.3683, 18668.34
612.8504, 18588.95
613.3325, 18542.78
613.8146, 18574.62
614.2968, 18546.73
614.7789, 18435.28
615.2610, 18275.39
615.7431, 18136.29
616.2252, 18020.65
616.7073, 17904.26
617.1895, 17782.78
617.6716, 17653.24
618.1537, 17510.16
618.6358, 17352.24
619.1179, 17184.20
619.6000, 17004.03
620.0822, 16817.96
620.5643, 16634.45
621.0464, 16453.50
621.5285, 16271.20
622.0106, 16084.40
622.4927, 15897.07
622.9749, 15714.31
623.4570, 15548.79
623.9391, 15373.94
624.4212, 15172.48
624.9033, 14960.30
625.3854, 14781.09
625.8676, 14655.22
626.3497, 14520.82
626.8318, 14353.24
627.3139, 14156.45
627.7960, 13968.74
628.2781, 13790.35
628.7603, 13618.25
629.2424, 13456.42
629.7245, 13299.33
630.2066, 13121.36
630.6887, 12912.34
631.1708, 12715.93
631.6530, 12589.91
632.1351, 12497.38
632.6172, 12382.02
633.0993, 12179.69
633.5814, 11998.75
634.0635, 11895.94
634.5457, 11849.32
635.0278, 11774.09
635.5099, 11652.51
635.9920, 11511.71
636.4741, 11351.08
636.9562, 11166.55
637.4384, 11016.62
637.9205, 10905.36
638.4026, 10811.53
638.8847, 10724.33
639.3668, 10642.06
639.8489, 10550.75
640.3311, 10447.20
640.8132, 10342.70
641.2953, 10252.57
641.7774, 10171.05
642.2595, 10082.84
642.7416, 9969.697
643.2238, 9862.093
643.7059, 9784.307
644.1880, 9729.594
644.6701, 9671.915
645.1522, 9603.326
645.6343, 9531.727
646.1165, 9461.375
646.5986, 9392.336
647.0807, 9318.295
647.5628, 9229.286
648.0449, 9148.866
648.5270, 9098.967
649.0092, 9082.655
649.4913, 9059.242
649.9734, 9026.637
650.4555, 8983.514
650.9376, 8919.314
651.4197, 8840.958
651.9019, 8775.656
652.3840, 8739.480
652.8661, 8711.549
653.3482, 8668.511
653.8303, 8616.551
654.3124, 8574.878
654.7946, 8573.483
655.2767, 8564.271
655.7588, 8514.054
656.2409, 8415.059
656.7230, 8346.344
657.2051, 8327.388
657.6872, 8321.064
658.1693, 8306.057
658.6514, 8280.059
659.1335, 8255.777
659.6157, 8232.692
660.0978, 8213.380
660.5799, 8208.454
661.0620, 8213.495
661.5441, 8199.820
662.0262, 8149.938
662.5084, 8094.663
662.9905, 8076.520
663.4726, 8083.760
663.9547, 8084.384
664.4368, 8053.504
664.9189, 8020.229
665.4011, 8003.872
665.8832, 8003.851
666.3653, 7991.667
666.8474, 7946.604
667.3295, 7901.903
667.8116, 7871.982
