##NAMES=Rutile
##RRUFFID=R040049
##IDEAL CHEMISTRY=Ti^4+^O_2_
##LOCALITY=Graves Mountain, Lincoln County, Georgia, USA
##OWNER=RRUFF
##SOURCE=University of Arizona Mineral Museum
##DESCRIPTION=Reddish-black fragments
##STATUS=The identification of this mineral has been confirmed by X-ray diffraction and chemical analysis
##URL=rruff.info/R040049
##MEASURED CHEMISTRY=(Ti_1.00_Fe_0.01_)O_2_
119.0413, 18450.08
119.5234, 18520.79
120.0055, 18562.71
120.4877, 18581.97
120.9698, 18591.13
121.4519, 18582.01
121.9340, 18565.42
122.4161, 18570.38
122.8982, 18614.56
123.3804, 18657.72
123.8625, 18669.62
124.3446, 18654.80
124.8267, 18635.41
125.3088, 18627.05
125.7909, 18630.34
126.2731, 18636.95
126.7552, 18640.00
127.2373, 18650.90
127.7194, 18677.63
128.2015, 18721.11
128.6837, 18774.02
129.1658, 18827.67
129.6479, 18887.81
130.1300, 18935.93
130.6121, 18970.94
131.0942, 18995.45
131.5764, 19008.09
132.0585, 19008.17
132.5406, 19001.76
133.0227, 19010.37
133.5048, 19039.20
133.9869, 19078.90
134.4691, 19141.98
134.9512, 19214.66
135.4333, 19271.86
135.9154, 19294.79
136.3975, 19286.67
136.8796, 19306.31
137.3618, 19381.24
137.8439, 19453.41
138.3260, 19472.59
138.8081, 19448.47
139.2902, 19453.67
139.7723, 19552.54
140.2545, 19750.55
140.7366, 19969.00
141.2187, 20261.28
141.7008, 20546.36
142.1829, 20748.52
142.6650, 20861.63
143.1471, 20873.32
143.6293, 20730.48
144.1114, 20462.87
144.5935, 20167.20
145.0756, 19873.01
145.5577, 19580.18
146.0398, 19279.85
146.5220, 18940.79
147.0041, 18633.76
147.4862, 18414.38
147.9683, 18279.79
148.4504, 18173.53
148.9325, 18046.91
149.4147, 17894.85
149.8968, 17767.36
150.3789, 17691.61
150.8610, 17633.39
151.3431, 17578.48
151.8252, 17523.32
152.3074, 17468.45
152.7895, 17414.36
153.2716, 17358.31
153.7537, 17309.38
154.2358, 17267.69
154.7179, 17231.97
155.2001, 17204.42
155.6822, 17185.94
156.1643, 17170.19
156.6464, 17137.32
157.1285, 17062.23
157.6106, 16997.04
158.0928, 16942.16
158.5749, 16901.04
159.0570, 16880.19
159.5391, 16884.91
160.0212, 16912.25
160.5033, 16929.22
160.9855, 16923.04
161.4676, 16921.07
161.9497, 16941.63
162.4318, 16975.77
162.9139, 16995.68
163.3960, 16975.58
163.8782, 16914.06
164.3603, 16885.35
164.8424, 16910.99
165.3245, 16948.79
165.8066, 16973.19
166.2887, 16982.17
166.7709, 16984.46
167.2530, 16982.91
167.7351, 16978.40
168.2172, 16992.25
168.6993, 17041.25
169.1814, 17104.25
169.6636, 17155.26
170.1457, 17189.32
170.6278, 17216.71
171.1099, 17250.56
171.5920, 17289.24
172.0741, 17319.01
172.5563, 17316.71
173.0384, 17299.78
173.5205, 17321.45
174.0026, 17405.84
174.4847, 17511.35
174.9668, 17602.18
175.4490, 17679.22
175.9311, 17750.30
176.4132, 17820.51
176.8953, 17890.21
177.3774, 17956.85
177.8595, 18019.37
178.3417, 18079.18
178.8238, 18131.03
179.3059, 18175.57
179.7880, 18228.86
180.2701, 18314.87
180.7522, 18445.51
181.2344, 18560.14
181.7165, 18645.34
182.1986, 18715.07
182.6807, 18767.29
183.1628, 18802.93
183.6449, 18842.57
184.1271, 18926.68
184.6092, 19091.66
185.0913, 19228.71
185.5734, 19311.56
186.0555, 19374.14
186.5376, 19443.87
187.0198, 19532.11
187.5019, 19632.58
187.9840, 19731.20
188.4661, 19831.54
188.9482, 19924.12
189.4303, 19993.54
189.9125, 20059.88
190.3946, 20152.04
190.8767, 20287.62
191.3588, 20450.59
191.8409, 20568.46
192.3230, 20590.51
192.8052, 20623.40
193.2873, 20686.52
193.7694, 20772.63
194.2515, 20866.15
194.7336, 20957.41
195.2157, 21048.21
195.6979, 21163.27
196.1800, 21335.58
196.6621, 21492.60
197.1442, 21610.69
197.6263, 21691.95
198.1084, 21740.46
198.5906, 21747.00
199.0727, 21720.40
199.5548, 21757.93
200.0369, 21901.95
200.5190, 22066.26
201.0011, 22205.44
201.4833, 22319.03
201.9654, 22425.59
202.4475, 22540.90
202.9296, 22662.01
203.4117, 22769.23
203.8938, 22857.33
204.3760, 22934.56
204.8581, 23004.09
205.3402, 23066.03
205.8223, 23129.63
206.3044, 23200.04
206.7865, 23278.10
207.2687, 23367.32
207.7508, 23482.77
208.2329, 23604.00
208.7150, 23699.04
209.1971, 23759.62
209.6792, 23818.40
210.1614, 23901.04
210.6435, 24001.01
211.1256, 24107.02
211.6077, 24221.59
212.0898, 24338.57
212.5719, 24444.31
213.0541, 24536.16
213.5362, 24620.09
214.0183, 24699.44
214.5004, 24774.59
214.9825, 24846.35
215.4646, 24911.97
215.9468, 24973.57
216.4289, 25038.13
216.9110, 25104.57
217.3931, 25177.20
217.8752, 25267.01
218.3573, 25366.45
218.8395, 25453.08
219.3216, 25498.22
219.8037, 25507.16
220.2858, 25550.64
220.7679, 25667.70
221.2500, 25779.71
221.7322, 25844.90
222.2143, 25872.61
222.6964, 25896.37
223.1785, 25942.25
223.6606, 26011.04
224.1427, 26084.42
224.6249, 26169.03
225.1070, 26252.45
225.5891, 26338.30
226.0712, 26420.95
226.5533, 26485.03
227.0354, 26506.37
227.5176, 26473.92
227.9997, 26474.53
228.4818, 26544.97
228.9639, 26618.08
229.4460, 26672.59
229.9281, 26705.21
230.4103, 26720.27
230.8924, 26720.78
231.3745, 26705.09
231.8566, 26681.04
232.3387, 26609.60
232.8208, 26562.48
233.3030, 26595.77
233.7851, 26697.65
234.2672, 26802.31
234.7493, 26833.57
235.2314, 26764.45
235.7135, 26719.00
236.1957, 26704.68
236.6778, 26703.50
237.1599, 26721.27
237.6420, 26749.82
238.1241, 26760.81
238.6062, 26715.43
239.0884, 26581.37
239.5705, 26498.93
240.0526, 26516.71
240.5347, 26538.81
241.0168, 26499.60
241.4989, 26397.49
241.9811, 26283.30
242.4632, 26217.29
242.9453, 26222.94
243.4274, 26205.41
243.9095, 26155.86
244.3916, 26093.58
244.8738, 26025.13
245.3559, 25953.93
245.8380, 25886.09
246.3201, 25830.51
246.8022, 25796.47
247.2843, 25742.78
247.7665, 25664.51
248.2486, 25572.03
248.7307, 25468.17
249.2128, 25355.13
249.6949, 25240.28
250.1770, 25130.04
250.6592, 25021.02
251.1413, 24935.94
251.6234, 24904.71
252.1055, 24875.97
252.5876, 24801.78
253.0697, 24679.91
253.5519, 24554.01
254.0340, 24477.96
254.5161, 24474.04
254.9982, 24427.42
255.4803, 24301.07
255.9624, 24157.85
256.4445, 24047.78
256.9267, 23977.07
257.4088, 23916.96
257.8909, 23834.82
258.3730, 23721.93
258.8551, 23639.96
259.3372, 23621.95
259.8194, 23613.84
260.3015, 23572.15
260.7836, 23492.06
261.2657, 23393.80
261.7478, 23291.94
262.2299, 23185.01
262.7121, 23097.68
263.1942, 23043.78
263.6763, 23001.20
264.1584, 22954.66
264.6405, 22902.25
265.1227, 22845.20
265.6048, 22783.66
266.0869, 22716.95
266.5690, 22653.76
267.0511, 22608.07
267.5332, 22556.46
268.0154, 22469.76
268.4975, 22348.18
268.9796, 22232.89
269.4617, 22160.58
269.9438, 22131.79
270.4259, 22097.20
270.9081, 22057.55
271.3902, 22010.28
271.8723, 21948.51
272.3544, 21872.66
272.8365, 21799.18
273.3186, 21738.89
273.8008, 21692.76
274.2829, 21654.12
274.7650, 21650.92
275.2471, 21634.56
275.7292, 21551.13
276.2113, 21406.14
276.6935, 21274.27
277.1756, 21215.76
277.6577, 21217.97
278.1398, 21183.74
278.6219, 21074.97
279.1040, 20960.25
279.5862, 20897.72
280.0683, 20880.38
280.5504, 20845.80
281.0325, 20743.21
281.5146, 20595.11
281.9967, 20497.47
282.4789, 20501.46
282.9610, 20507.54
283.4431, 20445.44
283.9252, 20325.64
284.4073, 20208.36
284.8894, 20122.40
285.3716, 20063.48
285.8537, 20010.63
286.3358, 19966.08
286.8179, 19924.52
287.3000, 19892.43
287.7821, 19863.95
288.2643, 19812.99
288.7464, 19718.47
289.2285, 19600.63
289.7106, 19510.61
290.1927, 19457.31
290.6748, 19412.66
291.1570, 19366.03
291.6391, 19318.01
292.1212, 19269.69
292.6033, 19219.52
293.0854, 19172.27
293.5675, 19139.70
294.0497, 19128.94
294.5318, 19111.20
295.0139, 19065.64
295.4960, 19004.74
295.9781, 18960.07
296.4602, 18946.54
296.9424, 18943.30
297.4245, 18911.41
297.9066, 18846.29
298.3887, 18784.12
298.8708, 18735.17
299.3529, 18696.64
299.8351, 18664.17
300.3172, 18636.80
300.7993, 18614.21
301.2814, 18596.31
301.7635, 18582.56
302.2456, 18573.26
302.7278, 18564.35
303.2099, 18561.39
303.6920, 18576.72
304.1741, 18614.49
304.6562, 18654.71
305.1383, 18678.01
305.6205, 18684.68
306.1026, 18670.61
306.5847, 18604.80
307.0668, 18534.25
307.5489, 18510.24
308.0310, 18539.18
308.5132, 18591.13
308.9953, 18649.16
309.4774, 18712.34
309.9595, 18738.85
310.4416, 18687.25
310.9237, 18626.54
311.4059, 18611.99
311.8880, 18644.66
312.3701, 18693.45
312.8522, 18738.64
313.3343, 18779.68
313.8164, 18818.43
314.2986, 18867.24
314.7807, 18902.86
315.2628, 18903.66
315.7449, 18876.34
316.2270, 18848.26
316.7091, 18833.93
317.1913, 18833.77
317.6734, 18847.51
318.1555, 18892.55
318.6376, 18930.73
319.1197, 18938.03
319.6018, 18927.25
320.0840, 18930.04
320.5661, 18963.41
321.0482, 19017.43
321.5303, 19059.27
322.0124, 19097.46
322.4945, 19115.40
322.9767, 19082.22
323.4588, 19033.11
323.9409, 19029.52
324.4230, 19097.64
324.9051, 19195.84
325.3872, 19239.30
325.8694, 19185.46
326.3515, 19151.52
326.8336, 19163.06
327.3157, 19190.09
327.7978, 19196.57
328.2799, 19174.41
328.7621, 19151.54
329.2442, 19171.07
329.7263, 19271.01
330.2084, 19313.84
330.6905, 19248.89
331.1726, 19165.93
331.6548, 19133.56
332.1369, 19156.38
332.6190, 19189.12
333.1011, 19181.77
333.5832, 19119.69
334.0653, 19102.88
334.5475, 19156.82
335.0296, 19223.28
335.5117, 19282.12
335.9938, 19329.56
336.4759, 19365.34
336.9580, 19387.97
337.4402, 19397.71
337.9223, 19410.79
338.4044, 19437.04
338.8865, 19455.91
339.3686, 19454.40
339.8507, 19442.82
340.3329, 19440.11
340.8150, 19457.95
341.2971, 19490.21
341.7792, 19510.19
342.2613, 19501.93
342.7434, 19501.15
343.2256, 19508.96
343.7077, 19527.07
344.1898, 19561.89
344.6719, 19615.55
345.1540, 19674.70
345.6361, 19712.10
346.1183, 19717.13
346.6004, 19719.29
347.0825, 19710.03
347.5646, 19706.22
348.0467, 19722.50
348.5288, 19760.62
349.0110, 19808.65
349.4931, 19856.18
349.9752, 19909.42
350.4573, 19937.55
350.9394, 19900.36
351.4215, 19870.88
351.9037, 19891.38
352.3858, 19954.56
352.8679, 20020.74
353.3500, 20053.70
353.8321, 20054.62
354.3142, 20064.47
354.7964, 20080.59
355.2785, 20110.60
355.7606, 20175.54
356.2427, 20254.53
356.7248, 20304.96
357.2069, 20290.26
357.6891, 20238.21
358.1712, 20233.55
358.6533, 20301.65
359.1354, 20360.03
359.6175, 20367.84
360.0996, 20351.50
360.5818, 20338.66
361.0639, 20337.46
361.5460, 20344.18
362.0281, 20355.72
362.5102, 20372.79
362.9923, 20388.57
363.4745, 20402.23
363.9566, 20412.43
364.4387, 20418.04
364.9208, 20418.97
365.4029, 20415.40
365.8850, 20403.09
366.3672, 20384.75
366.8493, 20373.53
367.3314, 20369.17
367.8135, 20378.44
368.2956, 20411.56
368.7777, 20466.58
369.2599, 20523.06
369.7420, 20580.06
370.2241, 20630.96
370.7062, 20663.66
371.1883, 20676.13
371.6704, 20673.91
372.1526, 20647.70
372.6347, 20605.77
373.1168, 20596.38
373.5989, 20653.32
374.0810, 20724.30
374.5631, 20767.27
375.0453, 20783.41
375.5274, 20791.71
376.0095, 20798.98
376.4916, 20808.93
376.9737, 20835.90
377.4558, 20895.42
377.9380, 20952.11
378.4201, 20992.72
378.9022, 21021.68
379.3843, 21045.72
379.8664, 21066.89
380.3485, 21087.46
380.8307, 21111.59
381.3128, 21139.11
381.7949, 21170.97
382.2770, 21203.88
382.7591, 21243.19
383.2412, 21294.05
383.7234, 21357.34
384.2055, 21430.39
384.6876, 21511.34
385.1697, 21605.01
385.6518, 21686.10
386.1339, 21754.55
386.6161, 21813.14
387.0982, 21857.03
387.5803, 21891.67
388.0624, 21928.28
388.5445, 21974.42
389.0266, 22030.41
389.5088, 22098.59
389.9909, 22197.87
390.4730, 22287.87
390.9551, 22352.49
391.4372, 22406.81
391.9193, 22467.91
392.4015, 22542.93
392.8836, 22631.37
393.3657, 22736.63
393.8478, 22869.50
394.3299, 22990.16
394.8120, 23083.29
395.2942, 23170.04
395.7763, 23261.45
396.2584, 23360.46
396.7405, 23467.87
397.2226, 23588.58
397.7047, 23722.26
398.1869, 23851.55
398.6690, 23971.16
399.1511, 24091.58
399.6332, 24210.54
400.1153, 24333.27
400.5974, 24475.37
401.0796, 24655.70
401.5617, 24858.09
402.0438, 25044.49
402.5259, 25209.53
403.0080, 25380.66
403.4901, 25581.96
403.9723, 25796.83
404.4544, 25997.93
404.9365, 26175.91
405.4186, 26347.69
405.9007, 26523.20
406.3828, 26702.61
406.8650, 26883.38
407.3471, 27053.01
407.8292, 27238.48
408.3113, 27498.15
408.7934, 27845.64
409.2755, 28174.97
409.7577, 28435.74
410.2398, 28664.17
410.7219, 28909.08
411.2040, 29178.77
411.6861, 29447.31
412.1682, 29679.08
412.6504, 29864.28
413.1325, 30119.15
413.6146, 30492.85
414.0967, 30888.55
414.5788, 31260.08
415.0609, 31609.11
415.5431, 31954.06
416.0252, 32306.38
416.5073, 32663.93
416.9894, 33022.25
417.4715, 33344.39
417.9536, 33717.13
418.4358, 34195.63
418.9179, 34707.43
419.4000, 35179.16
419.8821, 35588.27
420.3642, 35962.38
420.8463, 36339.35
421.3285, 36710.88
421.8106, 37105.35
422.2927, 37532.11
422.7748, 37970.46
423.2569, 38408.76
423.7390, 38848.71
424.2212, 39301.97
424.7033, 39777.66
425.1854, 40272.18
425.6675, 40782.07
426.1496, 41316.91
426.6317, 41844.54
427.1139, 42336.83
427.5960, 42820.09
428.0781, 43336.63
428.5602, 43904.18
429.0423, 44486.52
429.5244, 45030.96
430.0066, 45536.33
430.4887, 46060.51
430.9708, 46630.98
431.4529, 47218.19
431.9350, 47790.66
432.4171, 48350.22
432.8993, 48885.36
433.3814, 49384.74
433.8635, 49857.02
434.3456, 50325.02
434.8277, 50791.88
435.3098, 51239.72
435.7920, 51633.08
436.2741, 51984.23
436.7562, 52415.20
437.2383, 53038.04
437.7204, 53641.54
438.2025, 54083.41
438.6847, 54402.59
439.1668, 54725.76
439.6489, 55117.91
440.1310, 55544.85
440.6131, 55913.13
441.0952, 56211.88
441.5774, 56467.85
442.0595, 56669.84
442.5416, 56838.32
443.0237, 57000.87
443.5058, 57157.50
443.9879, 57272.70
444.4701, 57302.23
444.9522, 57235.11
445.4343, 57159.34
445.9164, 57093.82
446.3985, 57000.04
446.8806, 56868.73
447.3628, 56699.58
447.8449, 56498.77
448.3270, 56272.79
448.8091, 56006.66
449.2912, 55649.85
449.7733, 55173.90
450.2555, 54688.36
450.7375, 54253.11
451.2197, 53799.49
451.7018, 53262.46
452.1839, 52635.57
452.6660, 51976.27
453.1481, 51339.12
453.6302, 50710.57
454.1124, 50031.71
454.5945, 49277.86
455.0766, 48500.03
455.5587, 47735.61
456.0408, 46979.95
456.5229, 46233.48
457.0051, 45517.81
457.4872, 44787.05
457.9693, 43983.38
458.4514, 43116.50
458.9335, 42260.36
459.4156, 41451.10
459.8978, 40674.03
460.3799, 39893.96
460.8620, 39102.65
461.3441, 38325.81
461.8262, 37565.54
462.3083, 36821.95
462.7905, 36101.35
463.2726, 35402.47
463.7547, 34721.01
464.2368, 34046.78
464.7189, 33378.04
465.2010, 32740.57
465.6832, 32157.86
466.1653, 31584.29
466.6474, 30999.12
467.1295, 30416.83
467.6116, 29850.97
468.0938, 29313.22
468.5759, 28801.47
469.0580, 28325.09
469.5401, 27903.59
470.0222, 27457.90
470.5043, 26936.76
470.9865, 26416.85
471.4686, 25939.79
471.9507, 25512.09
472.4328, 25118.53
472.9149, 24766.87
473.3970, 24443.96
473.8792, 24096.66
474.3613, 23711.35
474.8434, 23336.21
475.3255, 23000.20
475.8076, 22696.85
476.2897, 22412.34
476.7719, 22154.02
477.2540, 21902.39
477.7361, 21645.70
478.2182, 21385.12
478.7003, 21119.82
479.1824, 20847.61
479.6646, 20582.10
480.1467, 20349.44
480.6288, 20160.36
481.1109, 19968.60
481.5930, 19766.44
482.0751, 19566.33
482.5573, 19376.31
483.0394, 19195.89
483.5215, 19020.20
484.0036, 18844.53
484.4857, 18671.02
484.9678, 18514.94
485.4500, 18395.58
485.9321, 18268.38
486.4142, 18122.11
486.8963, 17969.06
487.3784, 17814.32
487.8605, 17661.93
488.3427, 17526.35
488.8248, 17434.08
489.3069, 17387.88
489.7890, 17318.77
490.2711, 17213.97
490.7532, 17097.27
491.2354, 16968.36
491.7175, 16838.76
492.1996, 16734.38
492.6817, 16677.02
493.1638, 16637.98
493.6459, 16587.99
494.1281, 16526.82
494.6102, 16449.68
495.0923, 16344.60
495.5744, 16234.70
496.0565, 16165.33
496.5386, 16144.07
497.0208, 16116.93
497.5029, 16073.49
497.9850, 16016.83
498.4671, 15943.18
498.9492, 15855.89
499.4313, 15771.60
499.9135, 15702.49
500.3956, 15648.91
500.8777, 15613.39
501.3598, 15629.77
501.8419, 15623.68
502.3240, 15567.34
502.8062, 15489.81
503.2883, 15421.91
503.7704, 15373.40
504.2525, 15335.50
504.7346, 15294.58
505.2167, 15248.51
505.6989, 15218.20
506.1810, 15218.85
506.6631, 15219.00
507.1452, 15206.10
507.6273, 15181.47
508.1094, 15147.44
508.5916, 15097.63
509.0737, 15047.99
509.5558, 15025.17
510.0379, 15028.16
510.5200, 15026.74
511.0021, 15012.34
511.4843, 14986.28
511.9664, 14945.81
512.4485, 14887.39
512.9306, 14841.17
513.4127, 14821.69
513.8948, 14813.59
514.3770, 14807.13
514.8591, 14799.15
515.3412, 14780.18
515.8233, 14741.42
516.3054, 14687.36
516.7875, 14647.86
517.2697, 14640.34
517.7518, 14626.01
518.2339, 14594.44
518.7160, 14558.18
519.1981, 14532.90
519.6802, 14519.89
520.1624, 14503.66
520.6445, 14463.58
521.1266, 14398.83
521.6087, 14344.17
522.0908, 14298.50
522.5729, 14265.99
523.0551, 14258.13
523.5372, 14260.55
524.0193, 14248.90
524.5014, 14210.37
524.9835, 14168.67
525.4656, 14154.16
525.9478, 14159.79
526.4299, 14145.78
526.9120, 14097.48
527.3941, 14038.42
527.8762, 13992.73
528.3583, 13960.25
528.8405, 13942.43
529.3226, 13960.34
529.8047, 13974.38
530.2868, 13951.32
530.7689, 13902.25
531.2510, 13860.71
531.7332, 13844.16
532.2153, 13842.33
532.6974, 13829.13
533.1795, 13790.55
533.6616, 13766.55
534.1437, 13772.89
534.6259, 13779.57
535.1080, 13764.80
535.5901, 13732.12
536.0722, 13701.41
536.5543, 13689.29
537.0364, 13688.28
537.5186, 13673.51
538.0007, 13640.70
538.4828, 13610.61
538.9649, 13594.60
539.4470, 13583.19
539.9291, 13561.08
540.4113, 13523.55
540.8934, 13502.04
541.3755, 13527.34
541.8576, 13572.53
542.3397, 13592.39
542.8218, 13582.44
543.3040, 13573.38
543.7861, 13591.53
544.2682, 13631.07
544.7503, 13641.51
545.2324, 13588.29
545.7145, 13553.11
546.1967, 13563.07
546.6788, 13593.14
547.1609, 13620.69
547.6430, 13638.60
548.1251, 13646.15
548.6072, 13638.21
549.0894, 13613.79
549.5715, 13608.43
550.0536, 13640.89
550.5357, 13665.76
551.0178, 13654.12
551.4999, 13630.20
551.9821, 13628.07
552.4642, 13659.82
552.9463, 13705.04
553.4284, 13750.29
553.9105, 13794.23
554.3926, 13832.85
554.8748, 13867.40
555.3569, 13887.57
555.8390, 13873.03
556.3211, 13825.53
556.8032, 13814.98
557.2853, 13870.46
557.7675, 13933.74
558.2496, 13975.89
558.7317, 14007.60
559.2138, 14053.22
559.6959, 14120.60
560.1780, 14186.96
560.6602, 14211.64
561.1423, 14175.32
561.6244, 14174.69
562.1065, 14250.33
562.5886, 14323.04
563.0707, 14353.56
563.5529, 14364.02
564.0350, 14400.01
564.5171, 14486.84
564.9992, 14588.84
565.4813, 14653.03
565.9634, 14682.50
566.4456, 14729.28
566.9277, 14811.77
567.4098, 14903.18
567.8919, 14970.93
568.3740, 15018.01
568.8561, 15078.37
569.3383, 15169.42
569.8204, 15263.95
570.3025, 15346.41
570.7846, 15418.63
571.2667, 15483.97
571.7488, 15543.33
572.2310, 15603.41
572.7131, 15675.28
573.1952, 15762.76
573.6773, 15852.85
574.1594, 15946.01
574.6415, 16041.08
575.1237, 16135.98
575.6058, 16232.59
576.0879, 16337.07
576.5700, 16455.54
577.0521, 16574.60
577.5342, 16671.24
578.0164, 16745.13
578.4985, 16818.17
578.9806, 16882.48
579.4627, 16965.96
579.9448, 17114.80
580.4269, 17320.25
580.9091, 17505.68
581.3912, 17639.90
581.8733, 17765.11
582.3554, 17916.91
582.8375, 18083.95
583.3196, 18236.39
583.8018, 18360.74
584.2839, 18470.86
584.7660, 18588.86
585.2481, 18711.09
585.7302, 18851.25
586.2123, 19027.17
586.6945, 19202.80
587.1766, 19357.89
587.6587, 19502.84
588.1408, 19660.98
588.6229, 19844.66
589.1050, 20040.47
589.5872, 20230.89
590.0693, 20417.04
590.5514, 20598.33
591.0335, 20771.93
591.5156, 20947.03
591.9977, 21133.27
592.4799, 21329.63
592.9620, 21530.20
593.4441, 21729.22
593.9262, 21936.39
594.4083, 22163.89
594.8904, 22402.39
595.3726, 22623.13
595.8547, 22816.45
596.3368, 23012.40
596.8189, 23259.53
597.3010, 23576.67
597.7831, 23852.49
598.2653, 24053.70
598.7474, 24244.96
599.2295, 24445.13
599.7116, 24647.22
600.1937, 24836.06
600.6758, 25000.85
601.1580, 25171.99
601.6401, 25396.44
602.1222, 25659.59
602.6043, 25885.71
603.0864, 26057.18
603.5685, 26212.27
604.0507, 26378.78
604.5328, 26556.25
605.0149, 26739.37
605.4970, 26962.34
605.9791, 27151.37
606.4612, 27260.51
606.9434, 27329.60
607.4255, 27407.76
607.9076, 27506.49
608.3897, 27612.53
608.8718, 27716.80
609.3539, 27818.51
609.8361, 27880.37
610.3182, 27896.38
610.8003, 27880.76
611.2824, 27812.62
611.7645, 27731.14
612.2466, 27690.82
612.7288, 27705.86
613.2109, 27690.38
613.6930, 27556.84
614.1751, 27365.21
614.6572, 27229.89
615.1393, 27159.38
615.6215, 27095.04
616.1036, 27009.04
