##NAMES=Rynersonite
##RRUFFID=R080063
##IDEAL CHEMISTRY=CaTa_2_O_6_
##LOCALITY=Brown Derby mine, Ohio City, Quartz Creek District, Gunnison County, Colorado, USA
##OWNER=RRUFF
##SOURCE=Michael Scott
##DESCRIPTION=Pearly white fibrous aggregate
##STATUS=The identification of this mineral has been confirmed only by single crystal X-ray diffraction.
##URL=rruff.info/R080063
119.0398, 535.7535
119.5220, 533.0513
120.0041, 530.0358
120.4862, 527.9918
120.9683, 529.4190
121.4504, 536.3356
121.9325, 543.2646
122.4147, 545.2858
122.8968, 542.0068
123.3789, 538.5535
123.8610, 536.8252
124.3431, 536.5089
124.8252, 537.6910
125.3074, 540.6932
125.7895, 544.8476
126.2716, 548.7828
126.7537, 552.2440
127.2358, 555.9025
127.7179, 559.8615
128.2001, 564.1212
128.6822, 568.8437
129.1643, 574.2565
129.6464, 580.2476
130.1285, 585.0688
130.6107, 586.5037
131.0928, 588.8688
131.5749, 593.7074
132.0570, 600.3935
132.5391, 607.4726
133.0212, 613.7235
133.5034, 619.1786
133.9855, 623.3908
134.4676, 624.1682
134.9497, 625.6895
135.4318, 630.6901
135.9139, 639.2424
136.3960, 649.1539
136.8782, 657.9167
137.3603, 665.1823
137.8424, 673.3254
138.3245, 682.9313
138.8066, 693.2882
139.2887, 703.4739
139.7709, 713.1937
140.2530, 722.9329
140.7351, 733.2831
141.2172, 744.0991
141.6993, 755.3470
142.1814, 766.5109
142.6636, 777.8898
143.1457, 790.8656
143.6278, 806.4202
144.1099, 822.8954
144.5920, 839.2640
145.0741, 855.4067
145.5563, 870.9142
146.0384, 885.4940
146.5205, 899.1300
147.0026, 911.7697
147.4847, 924.4232
147.9668, 935.3470
148.4490, 943.0258
148.9311, 947.2306
149.4132, 949.4963
149.8953, 952.4819
150.3774, 958.4671
150.8595, 960.0838
151.3417, 955.7913
151.8238, 948.4232
152.3059, 939.5436
152.7880, 929.9167
153.2701, 920.0643
153.7522, 911.4468
154.2344, 903.1985
154.7165, 897.6205
155.1986, 895.8341
155.6807, 896.4575
156.1628, 897.5518
156.6449, 898.0433
157.1271, 898.7048
157.6092, 903.0167
158.0913, 913.6217
158.5734, 924.1550
159.0555, 931.9323
159.5376, 938.1144
160.0198, 945.9780
160.5019, 957.8469
160.9840, 972.5457
161.4661, 985.1888
161.9482, 994.3727
162.4303, 1003.100
162.9125, 1012.708
163.3946, 1023.219
163.8767, 1035.594
164.3588, 1052.062
164.8409, 1070.265
165.3230, 1086.224
165.8052, 1097.957
166.2873, 1108.320
166.7694, 1121.165
167.2515, 1137.431
167.7336, 1153.132
168.2157, 1166.205
168.6979, 1177.718
169.1800, 1188.816
169.6621, 1199.897
170.1442, 1210.942
170.6263, 1222.343
171.1084, 1236.132
171.5906, 1246.651
172.0727, 1251.543
172.5548, 1252.753
173.0369, 1253.064
173.5190, 1254.301
174.0011, 1256.106
174.4833, 1255.458
174.9654, 1250.546
175.4475, 1244.634
175.9296, 1238.549
176.4117, 1231.963
176.8938, 1224.167
177.3760, 1214.664
177.8581, 1203.449
178.3402, 1190.485
178.8223, 1175.012
179.3044, 1158.818
179.7865, 1142.394
180.2687, 1125.797
180.7508, 1108.991
181.2329, 1092.043
181.7150, 1074.880
182.1971, 1057.558
182.6792, 1039.885
183.1614, 1022.278
183.6435, 1004.777
184.1256, 987.4904
184.6077, 970.8446
185.0898, 955.6179
185.5719, 941.8760
186.0541, 926.3330
186.5362, 907.3896
187.0183, 887.5062
187.5004, 868.8749
187.9825, 851.6808
188.4646, 835.5068
188.9468, 820.3060
189.4289, 805.9225
189.9110, 791.4321
190.3931, 776.7626
190.8752, 761.8539
191.3573, 746.0118
191.8395, 728.4693
192.3216, 712.0719
192.8037, 699.4130
193.2858, 689.5334
193.7679, 680.5504
194.2500, 671.8944
194.7322, 663.5499
195.2143, 655.2263
195.6964, 646.5365
196.1785, 638.6123
196.6606, 631.5158
197.1427, 625.4264
197.6249, 620.8956
198.1070, 619.0614
198.5891, 619.5271
199.0712, 618.1954
199.5533, 613.4127
200.0354, 608.5099
200.5176, 604.3326
200.9997, 601.0258
201.4818, 598.7497
201.9639, 597.8175
202.4460, 598.2632
202.9281, 598.5455
203.4103, 598.6931
203.8924, 598.6296
204.3745, 597.4908
204.8566, 595.9871
205.3387, 595.8445
205.8208, 598.8279
206.3030, 605.4550
206.7851, 610.4916
207.2672, 612.1683
207.7493, 614.0980
208.2314, 617.7780
208.7135, 623.0414
209.1957, 628.7933
209.6778, 633.9817
210.1599, 638.3800
210.6420, 644.0789
211.1241, 651.8568
211.6062, 659.9464
212.0884, 667.2189
212.5705, 673.7821
213.0526, 680.7252
213.5347, 689.1207
214.0168, 699.1807
214.4989, 709.0052
214.9811, 718.3068
215.4632, 727.6384
215.9453, 737.9798
216.4274, 749.1903
216.9095, 759.2605
217.3916, 766.0209
217.8737, 769.4131
218.3559, 774.1703
218.8380, 781.2706
219.3201, 789.2360
219.8022, 796.7833
220.2843, 803.8201
220.7664, 811.1185
221.2486, 819.4782
221.7307, 828.7179
222.2128, 837.6720
222.6949, 844.7731
223.1770, 852.2659
223.6591, 863.1058
224.1413, 877.7524
224.6234, 893.0509
225.1055, 906.1211
225.5876, 918.2279
226.0697, 931.7991
226.5518, 948.0000
227.0340, 965.6631
227.5161, 982.7567
227.9982, 998.7609
228.4803, 1016.056
228.9624, 1037.251
229.4445, 1060.160
229.9267, 1082.439
230.4088, 1103.562
230.8909, 1123.100
231.3730, 1139.739
231.8551, 1152.691
232.3372, 1164.579
232.8194, 1177.982
233.3015, 1190.741
233.7836, 1200.207
234.2657, 1205.111
234.7478, 1206.401
235.2299, 1206.192
235.7121, 1204.768
236.1942, 1200.994
236.6763, 1194.238
237.1584, 1185.550
237.6405, 1176.021
238.1227, 1166.124
238.6048, 1155.433
239.0869, 1142.528
239.5690, 1124.886
240.0511, 1109.464
240.5332, 1097.411
241.0154, 1087.878
241.4975, 1080.443
241.9796, 1074.932
242.4617, 1070.881
242.9438, 1067.295
243.4259, 1064.677
243.9081, 1061.705
244.3902, 1057.275
244.8723, 1052.915
245.3544, 1050.218
245.8365, 1049.771
246.3186, 1050.771
246.8008, 1051.347
247.2829, 1050.420
247.7650, 1050.710
248.2471, 1050.403
248.7292, 1052.183
249.2113, 1059.419
249.6935, 1073.039
250.1756, 1090.057
250.6577, 1104.700
251.1398, 1115.193
251.6219, 1125.477
252.1040, 1134.321
252.5862, 1143.523
253.0683, 1155.109
253.5504, 1169.498
254.0325, 1185.081
254.5146, 1199.214
254.9967, 1210.837
255.4789, 1222.711
255.9610, 1234.580
256.4431, 1246.781
256.9252, 1259.706
257.4073, 1273.459
257.8894, 1287.748
258.3716, 1302.245
258.8537, 1317.036
259.3358, 1331.843
259.8179, 1347.390
260.3000, 1362.589
260.7821, 1376.478
261.2643, 1388.931
261.7464, 1400.440
262.2285, 1411.546
262.7106, 1422.244
263.1927, 1432.540
263.6748, 1442.796
264.1570, 1452.379
264.6391, 1459.912
265.1212, 1465.434
265.6033, 1471.717
266.0854, 1482.167
266.5675, 1496.887
267.0497, 1507.309
267.5318, 1510.379
268.0139, 1511.026
268.4960, 1513.310
268.9781, 1517.367
269.4602, 1520.514
269.9424, 1520.134
270.4245, 1516.824
270.9066, 1515.494
271.3887, 1518.864
271.8708, 1522.278
272.3529, 1522.054
272.8351, 1518.350
273.3172, 1513.421
273.7993, 1507.512
274.2814, 1501.755
274.7635, 1499.115
275.2456, 1502.175
275.7278, 1505.569
276.2099, 1505.585
276.6920, 1502.488
277.1741, 1498.467
277.6562, 1494.696
278.1383, 1490.381
278.6205, 1484.590
279.1026, 1477.581
279.5847, 1468.423
280.0668, 1457.628
280.5489, 1444.634
281.0310, 1425.863
281.5132, 1397.953
281.9953, 1365.446
282.4774, 1336.031
282.9595, 1310.563
283.4416, 1283.253
283.9237, 1249.706
284.4059, 1211.217
284.8880, 1172.495
285.3701, 1133.910
285.8522, 1096.824
286.3343, 1062.699
286.8164, 1031.403
287.2986, 1000.781
287.7807, 968.4991
288.2628, 935.7835
288.7449, 907.2241
289.2270, 884.3453
289.7091, 864.0823
290.1913, 843.2619
290.6734, 822.4393
291.1555, 803.3675
291.6376, 787.3649
292.1197, 773.7709
292.6018, 760.7937
293.0840, 748.3187
293.5661, 736.8163
294.0482, 726.6474
294.5303, 717.6138
295.0124, 709.4063
295.4945, 702.2797
295.9767, 695.8018
296.4588, 688.8404
296.9409, 680.8165
297.4230, 674.3121
297.9051, 671.6143
298.3872, 670.8822
298.8694, 670.1497
299.3515, 668.8287
299.8336, 667.3518
300.3157, 666.1348
300.7978, 665.1045
301.2799, 664.7509
301.7621, 665.6089
302.2442, 667.0912
302.7263, 668.7072
303.2084, 670.3491
303.6905, 672.2636
304.1726, 674.8951
304.6548, 678.2786
305.1369, 681.3807
305.6190, 683.6205
306.1011, 685.7808
306.5832, 688.3358
307.0653, 691.3332
307.5475, 694.8192
308.0296, 698.6818
308.5117, 702.9581
308.9938, 708.3815
309.4759, 716.1120
309.9580, 723.7450
310.4402, 728.8618
310.9223, 732.2349
311.4044, 736.8649
311.8865, 745.1632
312.3686, 756.3723
312.8507, 767.3632
313.3329, 778.0046
313.8150, 788.5663
314.2971, 799.0339
314.7792, 809.6107
315.2613, 820.7827
315.7434, 833.0032
316.2256, 845.8615
316.7077, 858.5602
317.1898, 871.2776
317.6719, 883.6294
318.1540, 895.2896
318.6361, 906.5951
319.1183, 917.6646
319.6004, 928.3289
320.0825, 939.5021
320.5646, 952.3663
321.0467, 966.9651
321.5288, 983.0174
322.0110, 1002.402
322.4931, 1022.042
322.9752, 1039.085
323.4573, 1052.974
323.9394, 1066.351
324.4215, 1081.605
324.9037, 1098.614
325.3858, 1116.064
325.8679, 1134.328
326.3500, 1152.295
326.8321, 1168.339
327.3142, 1182.969
327.7964, 1199.045
328.2785, 1219.827
328.7606, 1244.062
329.2427, 1265.333
329.7248, 1281.022
330.2069, 1297.672
330.6891, 1320.032
331.1712, 1346.113
331.6533, 1371.936
332.1354, 1395.823
332.6175, 1418.280
333.0996, 1439.816
333.5818, 1459.876
334.0639, 1481.173
334.5460, 1506.367
335.0281, 1533.068
335.5102, 1558.555
335.9923, 1582.126
336.4745, 1604.681
336.9566, 1627.641
337.4387, 1650.990
337.9208, 1673.450
338.4029, 1694.150
338.8850, 1714.057
339.3671, 1733.984
339.8492, 1754.090
340.3314, 1774.040
340.8135, 1793.740
341.2956, 1813.255
341.7777, 1831.718
342.2598, 1848.011
342.7419, 1864.658
343.2241, 1884.911
343.7062, 1907.931
344.1883, 1928.923
344.6704, 1946.082
345.1525, 1959.578
345.6346, 1968.975
346.1168, 1973.176
346.5989, 1976.730
347.0810, 1984.502
347.5631, 1993.756
348.0452, 1999.363
348.5273, 1998.828
349.0095, 1995.175
349.4916, 1992.278
349.9737, 1990.235
350.4558, 1985.181
350.9379, 1974.385
351.4200, 1959.850
351.9022, 1945.281
352.3843, 1931.168
352.8664, 1916.246
353.3485, 1899.779
353.8306, 1881.872
354.3127, 1862.835
354.7949, 1842.323
355.2770, 1821.252
355.7591, 1800.446
356.2412, 1779.921
356.7233, 1759.779
357.2054, 1741.294
357.6876, 1722.821
358.1697, 1700.906
358.6518, 1674.600
359.1339, 1648.533
359.6160, 1628.348
360.0981, 1612.397
360.5803, 1592.432
361.0624, 1562.666
361.5445, 1532.206
362.0266, 1509.866
362.5087, 1494.727
362.9908, 1478.943
363.4730, 1457.934
363.9551, 1433.372
364.4372, 1410.211
364.9193, 1388.364
365.4014, 1367.998
365.8835, 1350.330
366.3657, 1334.188
366.8478, 1316.975
367.3299, 1297.794
367.8120, 1277.723
368.2941, 1258.062
368.7762, 1238.535
369.2584, 1220.578
369.7405, 1206.213
370.2226, 1192.531
370.7047, 1176.369
371.1868, 1157.365
371.6689, 1138.140
372.1511, 1120.943
372.6332, 1105.878
373.1153, 1090.526
373.5974, 1074.535
374.0795, 1058.515
374.5616, 1042.089
375.0438, 1025.800
375.5259, 1010.852
376.0080, 998.1060
376.4901, 986.9348
376.9722, 975.2211
377.4543, 962.1575
377.9365, 949.6245
378.4186, 937.7897
378.9007, 926.5700
379.3828, 916.0704
379.8649, 906.2772
380.3470, 896.8339
380.8292, 887.1282
381.3113, 876.3929
381.7934, 867.8131
382.2755, 863.3557
382.7576, 859.0436
383.2397, 852.1134
383.7219, 843.1144
384.2040, 834.5751
384.6861, 828.4874
385.1682, 824.7397
385.6503, 821.7640
386.1324, 820.9672
386.6146, 819.4124
387.0967, 815.2589
387.5788, 810.5293
388.0609, 807.9633
388.5430, 808.7281
389.0251, 811.4196
389.5073, 813.2579
389.9894, 813.8901
390.4715, 814.3536
390.9536, 814.0321
391.4357, 814.0842
391.9178, 815.1896
392.4000, 817.4323
392.8821, 820.5795
393.3642, 824.6381
393.8463, 829.6548
394.3284, 834.1348
394.8105, 838.0964
395.2927, 841.4581
395.7748, 843.5747
396.2569, 845.2094
396.7390, 847.5961
397.2211, 851.3716
397.7032, 856.2103
398.1854, 861.2948
398.6675, 866.4487
399.1496, 872.4694
399.6317, 880.3441
400.1138, 888.7604
400.5959, 896.8450
401.0781, 904.4271
401.5602, 911.6326
402.0423, 918.1947
402.5244, 924.2184
403.0065, 931.1753
403.4886, 939.8784
403.9708, 948.5613
404.4529, 955.6274
404.9350, 961.6387
405.4171, 968.2648
405.8992, 976.3082
406.3813, 985.2899
406.8635, 994.7133
407.3456, 1004.658
407.8277, 1014.424
408.3098, 1023.719
408.7919, 1032.689
409.2740, 1041.488
409.7562, 1049.992
410.2383, 1058.748
410.7204, 1068.385
411.2025, 1078.610
411.6846, 1088.690
412.1667, 1098.526
412.6489, 1108.077
413.1310, 1117.162
413.6131, 1125.843
414.0952, 1134.642
414.5773, 1142.697
415.0594, 1151.559
415.5416, 1162.698
416.0237, 1176.093
416.5058, 1191.004
416.9879, 1207.480
417.4700, 1224.908
417.9521, 1240.001
418.4343, 1251.440
418.9164, 1262.551
419.3985, 1273.441
419.8806, 1284.803
420.3627, 1297.844
420.8448, 1312.972
421.3270, 1329.020
421.8091, 1344.368
422.2912, 1358.914
422.7733, 1372.666
423.2554, 1383.300
423.7375, 1395.137
424.2197, 1411.439
424.7018, 1431.324
425.1839, 1451.364
425.6660, 1468.993
426.1481, 1484.675
426.6302, 1502.261
427.1124, 1525.475
427.5945, 1545.787
428.0766, 1558.301
428.5587, 1569.362
429.0408, 1586.508
429.5229, 1611.604
430.0051, 1639.262
430.4872, 1661.380
430.9693, 1675.897
431.4514, 1693.113
431.9335, 1714.815
432.4156, 1738.195
432.8978, 1763.362
433.3799, 1789.436
433.8620, 1814.899
434.3441, 1838.491
434.8262, 1860.871
435.3083, 1883.674
435.7905, 1906.644
436.2726, 1930.545
436.7547, 1957.287
437.2368, 1984.366
437.7189, 2009.294
438.2010, 2031.534
438.6832, 2052.886
439.1653, 2074.572
439.6474, 2096.553
440.1295, 2118.806
440.6116, 2140.916
441.0938, 2164.005
441.5759, 2188.976
442.0580, 2215.533
442.5401, 2243.311
443.0222, 2275.597
443.5043, 2306.586
443.9865, 2330.231
444.4686, 2346.900
444.9507, 2360.707
445.4328, 2372.839
445.9149, 2383.964
446.3970, 2395.809
446.8792, 2409.222
447.3613, 2420.880
447.8434, 2429.829
448.3255, 2436.563
448.8076, 2441.909
449.2897, 2445.980
449.7719, 2447.942
450.2540, 2447.210
450.7361, 2443.747
451.2182, 2436.168
451.7003, 2423.457
452.1824, 2408.483
452.6646, 2391.599
453.1467, 2373.250
453.6288, 2354.396
454.1109, 2335.406
454.5930, 2315.474
455.0751, 2292.576
455.5573, 2264.466
456.0394, 2237.710
456.5215, 2214.961
457.0036, 2191.111
457.4857, 2162.071
457.9678, 2128.862
458.4500, 2095.384
458.9321, 2064.588
459.4142, 2036.067
459.8963, 2007.103
460.3784, 1977.561
460.8605, 1947.909
461.3427, 1919.349
461.8248, 1889.940
462.3069, 1856.905
462.7890, 1819.570
463.2711, 1781.622
463.7532, 1747.178
464.2354, 1715.847
464.7175, 1684.919
465.1996, 1654.045
465.6817, 1623.659
466.1638, 1593.970
466.6459, 1564.932
467.1281, 1536.491
467.6102, 1509.600
468.0923, 1482.528
468.5744, 1452.603
469.0565, 1420.065
469.5386, 1390.131
470.0208, 1365.755
470.5029, 1343.819
470.9850, 1318.491
471.4671, 1288.752
471.9492, 1261.369
472.4313, 1238.821
472.9135, 1218.881
473.3956, 1199.546
473.8777, 1180.517
474.3598, 1161.418
474.8419, 1141.792
475.3240, 1121.880
475.8062, 1104.526
476.2883, 1091.272
476.7704, 1078.236
477.2525, 1065.098
477.7346, 1051.600
478.2167, 1037.131
478.6989, 1021.624
479.1810, 1006.425
479.6631, 992.9987
480.1452, 981.5262
480.6273, 971.3651
481.1094, 963.9437
481.5916, 956.4169
482.0737, 947.5636
482.5558, 938.0150
483.0379, 929.0321
483.5200, 921.2493
484.0021, 913.9263
484.4843, 905.5850
484.9664, 895.9742
485.4485, 886.2764
485.9306, 875.3981
486.4127, 865.7083
486.8948, 859.2847
487.3770, 855.7142
487.8591, 852.5282
488.3412, 847.9518
488.8233, 842.9482
489.3054, 840.2235
489.7875, 840.2412
490.2697, 838.1194
490.7518, 830.0321
491.2339, 818.9410
491.7160, 810.8312
492.1981, 806.3700
492.6802, 803.0417
493.1624, 799.7186
493.6445, 796.9548
494.1266, 796.1915
494.6087, 797.5891
495.0908, 798.5907
495.5729, 796.6736
496.0551, 791.8873
496.5372, 788.6390
497.0193, 788.1061
497.5014, 787.4961
497.9835, 785.2357
498.4656, 782.6263
498.9478, 781.4292
499.4299, 782.2367
499.9120, 784.6134
500.3941, 788.2220
500.8762, 793.8317
501.3583, 797.6761
501.8405, 798.2185
502.3226, 798.5413
502.8047, 798.8762
503.2868, 799.9214
503.7689, 802.9642
504.2510, 808.8864
504.7331, 816.0918
505.2152, 821.2326
505.6974, 823.6970
506.1795, 828.1298
506.6616, 838.0593
507.1437, 847.7236
507.6258, 851.3490
508.1079, 850.2539
508.5901, 851.7563
509.0722, 861.1462
509.5543, 874.3151
510.0364, 885.5453
510.5185, 894.7936
511.0006, 903.5355
511.4828, 912.1639
511.9649, 920.9160
512.4470, 930.2238
512.9291, 940.0815
513.4113, 950.3706
513.8934, 960.4399
514.3755, 971.2332
514.8576, 984.4467
515.3397, 999.8073
515.8218, 1014.439
516.3040, 1026.191
516.7861, 1035.461
517.2682, 1044.969
517.7503, 1052.827
518.2324, 1063.355
518.7145, 1078.872
519.1967, 1096.177
519.6788, 1112.631
520.1609, 1127.624
520.6430, 1141.682
521.1251, 1154.987
521.6072, 1167.670
522.0894, 1181.702
522.5715, 1197.808
523.0536, 1214.223
523.5357, 1231.340
524.0178, 1247.961
524.4999, 1262.089
524.9821, 1272.993
525.4642, 1284.113
525.9463, 1299.618
526.4284, 1318.277
526.9105, 1334.957
527.3926, 1348.662
527.8748, 1360.928
528.3569, 1372.539
528.8390, 1383.646
529.3211, 1394.899
529.8032, 1405.376
530.2853, 1417.086
530.7675, 1433.158
531.2496, 1450.849
531.7317, 1464.387
532.2138, 1472.115
532.6959, 1477.182
533.1780, 1483.524
533.6602, 1491.740
534.1423, 1497.387
534.6244, 1498.985
535.1065, 1500.091
535.5886, 1501.564
536.0707, 1503.544
536.5529, 1506.752
537.0350, 1511.362
537.5171, 1515.229
537.9992, 1514.305
538.4813, 1507.463
538.9634, 1501.705
539.4456, 1498.212
539.9277, 1494.897
540.4098, 1491.442
540.8919, 1487.421
541.3740, 1482.027
541.8561, 1474.780
542.3383, 1466.403
542.8204, 1457.823
543.3025, 1448.984
543.7846, 1439.219
544.2667, 1428.053
544.7488, 1416.551
545.2310, 1406.281
545.7131, 1397.026
546.1952, 1386.166
546.6773, 1372.141
547.1594, 1357.568
547.6415, 1344.200
548.1237, 1331.646
548.6058, 1318.384
549.0879, 1303.839
549.5700, 1289.023
550.0521, 1275.815
550.5342, 1265.531
551.0164, 1252.927
551.4985, 1235.657
551.9806, 1218.935
552.4627, 1205.365
552.9448, 1193.874
553.4269, 1182.011
553.9091, 1168.580
554.3912, 1154.602
554.8733, 1141.971
555.3554, 1130.847
555.8375, 1119.633
556.3196, 1108.520
556.8018, 1096.761
557.2839, 1082.899
557.7660, 1067.957
558.2481, 1055.008
558.7302, 1045.920
559.2123, 1038.400
559.6945, 1031.031
560.1766, 1023.488
560.6587, 1014.036
561.1408, 1001.757
561.6229, 988.6298
562.1050, 976.6230
562.5872, 965.7614
563.0693, 957.3066
563.5514, 953.6535
564.0335, 950.0566
564.5156, 944.0195
564.9977, 936.3685
565.4799, 928.5209
565.9620, 921.0933
566.4441, 914.3273
566.9262, 908.8206
567.4083, 905.1038
567.8904, 900.4714
568.3726, 894.0355
568.8547, 887.5539
569.3368, 881.6460
569.8189, 876.0756
570.3010, 870.3231
570.7831, 864.0242
571.2653, 858.0980
571.7474, 853.7135
572.2295, 850.7369
572.7116, 847.9485
573.1937, 845.1732
573.6758, 842.5461
574.1580, 839.9174
574.6401, 837.5062
575.1222, 836.2052
575.6043, 838.1626
576.0864, 838.9059
576.5685, 834.7184
577.0507, 828.3004
577.5328, 824.2911
578.0149, 823.7928
578.4970, 824.5803
578.9791, 824.2386
579.4612, 822.6830
579.9434, 822.1722
580.4255, 824.1022
580.9076, 825.4512
581.3897, 825.1259
581.8718, 824.2323
582.3539, 823.9354
582.8361, 824.5132
583.3182, 825.5547
583.8003, 826.4193
584.2824, 827.2825
584.7645, 829.6000
585.2466, 833.8356
585.7288, 838.2538
586.2108, 842.3799
586.6929, 845.9940
587.1750, 848.4794
587.6572, 849.4230
588.1393, 850.8514
588.6214, 854.4266
589.1035, 858.6382
589.5856, 861.3019
590.0677, 862.3480
590.5499, 862.8434
591.0320, 863.0084
591.5141, 863.8276
591.9962, 869.0217
592.4783, 884.4442
592.9604, 896.0018
593.4426, 902.6052
593.9247, 906.1631
594.4068, 905.9997
594.8889, 903.8063
595.3710, 903.8120
595.8531, 909.0519
596.3353, 917.5636
596.8174, 924.6967
597.2995, 930.0045
597.7816, 936.4790
598.2637, 946.0438
598.7458, 955.5957
599.2280, 962.0519
599.7101, 966.0068
600.1922, 970.7977
600.6743, 978.1388
601.1564, 986.1310
601.6385, 993.4047
602.1207, 1000.046
602.6028, 1006.102
603.0849, 1011.470
603.5670, 1017.281
604.0491, 1025.076
604.5313, 1035.185
605.0134, 1045.231
605.4955, 1056.018
605.9776, 1065.865
606.4597, 1073.062
606.9418, 1079.548
607.4240, 1088.146
607.9061, 1099.482
608.3882, 1111.023
608.8703, 1119.381
609.3524, 1124.863
609.8345, 1131.805
610.3167, 1140.481
610.7988, 1150.025
611.2809, 1160.416
611.7630, 1171.261
612.2451, 1182.102
612.7272, 1192.879
613.2094, 1203.658
613.6915, 1214.913
614.1736, 1225.964
614.6557, 1235.464
615.1378, 1243.651
615.6199, 1252.067
616.1021, 1261.463
