##NAMES=Rynersonite
##RRUFFID=R080063
##IDEAL CHEMISTRY=CaTa_2_O_6_
##LOCALITY=Brown Derby mine, Ohio City, Quartz Creek District, Gunnison County, Colorado, USA
##OWNER=RRUFF
##SOURCE=Michael Scott
##DESCRIPTION=Pearly white fibrous aggregate
##STATUS=The identification of this mineral has been confirmed only by single crystal X-ray diffraction.
##URL=rruff.info/R080063
115.0130, 1129.675
115.4951, 1181.741
115.9772, 1224.576
116.4594, 1258.700
116.9415, 1292.474
117.4236, 1329.434
117.9057, 1367.558
118.3878, 1404.520
118.8699, 1440.870
119.3521, 1475.224
119.8342, 1506.828
120.3163, 1535.468
120.7984, 1563.137
121.2805, 1591.355
121.7626, 1619.406
122.2448, 1646.070
122.7269, 1669.977
123.2090, 1692.605
123.6911, 1715.085
124.1732, 1737.327
124.6553, 1760.300
125.1375, 1784.403
125.6196, 1809.847
126.1017, 1837.301
126.5838, 1867.106
127.0659, 1899.233
127.5480, 1933.245
128.0302, 1968.530
128.5123, 2007.295
128.9944, 2053.899
129.4765, 2107.791
129.9586, 2163.793
130.4407, 2218.032
130.9229, 2271.211
131.4050, 2327.041
131.8871, 2386.222
132.3692, 2446.987
132.8513, 2502.908
133.3334, 2549.467
133.8156, 2585.319
134.2977, 2620.074
134.7798, 2662.370
135.2619, 2701.424
135.7440, 2733.831
136.2261, 2761.088
136.7083, 2793.654
137.1904, 2833.010
137.6725, 2873.513
138.1546, 2909.183
138.6367, 2939.098
139.1188, 2970.532
139.6010, 3005.318
140.0831, 3043.292
140.5652, 3084.958
141.0473, 3131.394
141.5294, 3180.542
142.0115, 3228.092
142.4937, 3271.227
142.9758, 3320.028
143.4579, 3378.214
143.9400, 3446.448
144.4221, 3518.844
144.9042, 3596.016
145.3864, 3676.889
145.8685, 3758.382
146.3506, 3844.650
146.8327, 3926.844
147.3148, 4003.515
147.7969, 4075.727
148.2791, 4139.339
148.7612, 4196.779
149.2433, 4245.556
149.7254, 4280.411
150.2075, 4299.688
150.6896, 4306.651
151.1718, 4302.462
151.6539, 4287.484
152.1360, 4261.480
152.6181, 4220.979
153.1002, 4169.075
153.5823, 4115.111
154.0645, 4048.370
154.5466, 3987.253
155.0287, 3940.284
155.5108, 3912.368
155.9929, 3892.572
156.4750, 3878.999
156.9572, 3872.001
157.4393, 3873.828
157.9214, 3886.020
158.4035, 3906.360
158.8856, 3933.440
159.3677, 3969.186
159.8499, 4009.486
160.3320, 4053.395
160.8141, 4100.728
161.2962, 4151.021
161.7783, 4204.239
162.2604, 4259.919
162.7426, 4317.675
163.2247, 4377.764
163.7068, 4439.610
164.1889, 4502.173
164.6710, 4565.181
165.1531, 4632.533
165.6353, 4708.980
166.1174, 4789.671
166.5995, 4869.375
167.0816, 4944.407
167.5637, 5019.131
168.0458, 5098.112
168.5280, 5180.650
169.0101, 5260.739
169.4922, 5331.241
169.9743, 5396.704
170.4564, 5463.050
170.9385, 5535.796
171.4207, 5608.608
171.9028, 5678.491
172.3849, 5745.284
172.8670, 5802.695
173.3491, 5844.388
173.8312, 5873.790
174.3134, 5897.511
174.7955, 5923.015
175.2776, 5942.386
175.7597, 5944.625
176.2418, 5928.258
176.7239, 5902.583
177.2061, 5876.201
177.6882, 5847.146
178.1703, 5810.667
178.6524, 5762.817
179.1345, 5706.043
179.6166, 5644.919
180.0988, 5579.063
180.5809, 5509.107
181.0630, 5434.695
181.5451, 5355.829
182.0272, 5275.752
182.5093, 5192.795
182.9915, 5108.990
183.4736, 5032.526
183.9557, 4964.903
184.4378, 4898.420
184.9199, 4819.606
185.4020, 4731.154
185.8842, 4641.710
186.3663, 4559.046
186.8484, 4480.057
187.3305, 4395.913
187.8126, 4303.970
188.2947, 4209.601
188.7769, 4121.803
189.2590, 4040.232
189.7411, 3957.751
190.2232, 3865.927
190.7053, 3767.517
191.1874, 3678.817
191.6696, 3601.864
192.1517, 3531.807
192.6338, 3458.097
193.1159, 3380.452
193.5980, 3306.548
194.0801, 3240.899
194.5623, 3183.489
195.0444, 3130.852
195.5265, 3083.439
196.0086, 3040.188
196.4907, 2998.936
196.9728, 2959.585
197.4550, 2922.820
197.9371, 2889.126
198.4192, 2858.507
198.9013, 2830.061
199.3834, 2803.303
199.8655, 2779.151
200.3477, 2760.335
200.8298, 2747.806
201.3119, 2736.555
201.7940, 2723.436
202.2761, 2708.270
202.7582, 2693.063
203.2404, 2677.142
203.7225, 2661.938
204.2046, 2651.891
204.6867, 2647.913
205.1688, 2646.000
205.6509, 2643.335
206.1331, 2639.334
206.6152, 2638.177
207.0973, 2639.880
207.5794, 2644.814
208.0615, 2654.695
208.5436, 2670.601
209.0258, 2688.671
209.5079, 2706.209
209.9900, 2722.533
210.4721, 2740.670
210.9542, 2759.571
211.4363, 2780.839
211.9185, 2810.546
212.4006, 2850.538
212.8827, 2895.274
213.3648, 2939.438
213.8469, 2980.977
214.3290, 3032.154
214.8112, 3099.231
215.2933, 3175.210
215.7754, 3236.785
216.2575, 3280.082
216.7396, 3316.405
217.2217, 3351.566
217.7038, 3385.331
218.1860, 3418.352
218.6681, 3450.544
219.1502, 3481.853
219.6323, 3510.822
220.1144, 3534.270
220.5965, 3560.456
221.0787, 3593.827
221.5608, 3635.241
222.0429, 3681.435
222.5250, 3732.707
223.0071, 3788.600
223.4892, 3844.407
223.9714, 3896.729
224.4535, 3955.132
224.9356, 4026.486
225.4177, 4115.291
225.8998, 4205.134
226.3819, 4293.419
226.8641, 4382.763
227.3462, 4478.942
227.8283, 4581.323
228.3104, 4691.180
228.7925, 4808.494
229.2746, 4938.243
229.7568, 5068.076
230.2389, 5200.037
230.7210, 5332.531
231.2031, 5456.814
231.6852, 5573.129
232.1673, 5680.643
232.6495, 5779.887
233.1316, 5879.176
233.6137, 5951.467
234.0958, 5993.660
234.5779, 6008.227
235.0600, 6001.456
235.5422, 5974.762
236.0243, 5924.502
236.5064, 5847.600
236.9885, 5736.798
237.4706, 5615.124
237.9527, 5482.118
238.4349, 5339.857
238.9170, 5194.025
239.3991, 5041.269
239.8812, 4889.908
240.3633, 4742.935
240.8454, 4600.058
241.3276, 4462.399
241.8097, 4330.928
242.2918, 4206.138
242.7739, 4090.817
243.2560, 3987.486
243.7381, 3889.721
244.2203, 3794.672
244.7024, 3700.250
245.1845, 3614.559
245.6666, 3538.429
246.1487, 3470.819
246.6308, 3408.227
247.1130, 3350.246
247.5951, 3297.702
248.0772, 3251.195
248.5593, 3210.168
249.0414, 3176.298
249.5235, 3150.735
250.0057, 3131.625
250.4878, 3115.660
250.9699, 3103.083
251.4520, 3093.111
251.9341, 3085.313
252.4162, 3079.192
252.8984, 3077.355
253.3805, 3079.852
253.8626, 3086.666
254.3447, 3098.006
254.8268, 3115.782
255.3089, 3134.503
255.7911, 3152.368
256.2732, 3169.221
256.7553, 3187.177
257.2374, 3206.077
257.7195, 3226.338
258.2017, 3248.273
258.6838, 3271.551
259.1659, 3297.697
259.6480, 3327.498
260.1301, 3360.741
260.6122, 3396.462
261.0944, 3435.448
261.5765, 3476.167
262.0586, 3517.438
262.5407, 3559.557
263.0228, 3601.021
263.5049, 3640.147
263.9871, 3677.532
264.4692, 3719.473
264.9513, 3768.033
265.4334, 3818.456
265.9155, 3867.899
266.3976, 3915.980
266.8798, 3961.316
267.3619, 4002.807
267.8440, 4041.098
268.3261, 4078.004
268.8082, 4112.562
269.2903, 4147.571
269.7725, 4186.216
270.2546, 4229.773
270.7367, 4268.487
271.2188, 4299.319
271.7009, 4324.154
272.1830, 4351.394
272.6652, 4380.855
273.1473, 4412.639
273.6294, 4447.476
274.1115, 4485.667
274.5936, 4525.086
275.0757, 4566.200
275.5579, 4608.255
276.0400, 4647.402
276.5221, 4682.813
277.0042, 4718.487
277.4863, 4758.854
277.9684, 4804.804
278.4506, 4843.489
278.9327, 4875.173
279.4148, 4897.788
279.8969, 4909.240
280.3790, 4910.703
280.8611, 4893.183
281.3433, 4850.448
281.8254, 4782.333
282.3075, 4700.346
282.7896, 4603.879
283.2717, 4495.057
283.7538, 4374.705
284.2360, 4242.521
284.7181, 4107.308
285.2002, 3971.286
285.6823, 3834.850
286.1644, 3700.520
286.6465, 3568.985
287.1287, 3441.572
287.6108, 3320.018
288.0929, 3204.360
288.5750, 3095.699
289.0571, 2993.384
289.5392, 2897.959
290.0214, 2814.677
290.5035, 2744.377
290.9856, 2681.653
291.4677, 2621.448
291.9498, 2563.938
292.4319, 2512.025
292.9141, 2466.115
293.3962, 2426.079
293.8783, 2392.812
294.3604, 2366.551
294.8425, 2342.934
295.3246, 2317.226
295.8068, 2290.682
296.2889, 2268.231
296.7710, 2251.841
297.2531, 2238.791
297.7352, 2225.104
298.2173, 2210.923
298.6995, 2196.869
299.1816, 2182.022
299.6637, 2167.794
300.1458, 2158.100
300.6279, 2154.703
301.1100, 2153.374
301.5922, 2148.713
302.0743, 2141.453
302.5564, 2134.674
303.0385, 2130.064
303.5206, 2127.011
304.0027, 2124.830
304.4849, 2123.659
304.9670, 2122.410
305.4491, 2118.815
305.9312, 2114.252
306.4133, 2112.037
306.8954, 2116.250
307.3776, 2122.364
307.8597, 2125.095
308.3418, 2123.813
308.8239, 2123.305
309.3060, 2127.873
309.7881, 2135.505
310.2703, 2142.848
310.7524, 2147.810
311.2345, 2152.647
311.7166, 2158.435
312.1987, 2165.245
312.6808, 2173.868
313.1630, 2186.776
313.6451, 2201.031
314.1272, 2213.573
314.6093, 2222.039
315.0914, 2229.628
315.5735, 2236.732
316.0557, 2243.728
316.5378, 2252.700
317.0199, 2265.351
317.5020, 2279.780
317.9841, 2294.979
318.4662, 2311.503
318.9484, 2327.133
319.4305, 2342.171
319.9126, 2355.870
320.3947, 2366.257
320.8768, 2371.837
321.3589, 2374.684
321.8411, 2375.345
322.3232, 2372.582
322.8053, 2370.869
323.2874, 2372.213
323.7695, 2374.906
324.2516, 2376.239
324.7338, 2377.070
325.2159, 2375.296
325.6980, 2369.774
326.1801, 2359.668
326.6622, 2349.253
327.1443, 2338.718
327.6265, 2328.006
328.1086, 2317.033
328.5907, 2307.134
329.0728, 2295.596
329.5549, 2280.240
330.0370, 2260.937
330.5192, 2247.159
331.0013, 2241.274
331.4834, 2238.801
331.9655, 2237.036
332.4476, 2238.771
332.9297, 2236.156
333.4119, 2226.287
333.8940, 2211.313
334.3761, 2201.207
334.8582, 2198.939
335.3403, 2197.112
335.8224, 2191.697
336.3046, 2180.901
336.7867, 2171.912
337.2688, 2165.710
337.7509, 2160.658
338.2330, 2152.482
338.7151, 2139.531
339.1973, 2128.864
339.6794, 2123.775
340.1615, 2124.596
340.6436, 2124.976
341.1257, 2124.900
341.6078, 2124.519
342.0899, 2123.972
342.5721, 2123.294
343.0542, 2122.523
343.5363, 2121.307
344.0184, 2120.079
344.5005, 2121.143
344.9826, 2124.781
345.4648, 2128.665
345.9469, 2130.950
346.4290, 2131.669
346.9111, 2130.553
347.3932, 2126.460
347.8753, 2121.912
348.3575, 2123.042
348.8396, 2129.295
349.3217, 2134.788
349.8038, 2134.138
350.2859, 2129.752
350.7680, 2127.819
351.2502, 2129.465
351.7323, 2131.954
352.2144, 2132.005
352.6965, 2130.281
353.1786, 2128.779
353.6607, 2128.463
354.1429, 2128.991
354.6250, 2130.059
355.1071, 2131.692
355.5892, 2133.636
356.0713, 2136.412
356.5534, 2139.269
357.0356, 2141.058
357.5177, 2139.665
357.9998, 2138.520
358.4819, 2140.583
358.9640, 2145.355
359.4461, 2150.031
359.9283, 2152.798
360.4104, 2154.998
360.8925, 2157.860
361.3746, 2162.438
361.8567, 2166.293
362.3388, 2167.448
362.8210, 2167.086
363.3031, 2167.954
363.7852, 2170.904
364.2673, 2175.248
364.7494, 2181.505
365.2315, 2191.085
365.7137, 2197.542
366.1958, 2196.473
366.6779, 2192.662
367.1600, 2191.722
367.6421, 2195.708
368.1242, 2201.142
368.6064, 2208.690
369.0885, 2218.604
369.5706, 2224.696
370.0527, 2226.080
370.5348, 2224.412
371.0169, 2220.527
371.4991, 2212.592
371.9812, 2205.833
372.4633, 2202.108
372.9454, 2199.744
373.4275, 2192.604
373.9096, 2178.378
374.3918, 2163.285
374.8739, 2151.135
375.3560, 2143.487
375.8381, 2130.507
376.3202, 2110.135
376.8023, 2087.287
377.2845, 2069.815
377.7666, 2058.713
378.2487, 2048.297
378.7308, 2037.353
379.2129, 2025.674
379.6950, 2012.027
380.1772, 1995.603
380.6593, 1980.721
381.1414, 1971.749
381.6235, 1968.276
382.1056, 1965.925
382.5877, 1964.218
383.0699, 1962.680
383.5520, 1959.810
384.0341, 1955.815
384.5162, 1953.036
384.9983, 1953.137
385.4804, 1955.482
385.9626, 1959.083
386.4447, 1964.098
386.9268, 1968.969
387.4089, 1970.958
387.8910, 1971.552
388.3731, 1974.063
388.8553, 1981.302
389.3374, 1990.286
389.8195, 1998.419
390.3016, 2005.567
390.7837, 2012.173
391.2658, 2017.528
391.7480, 2022.808
392.2301, 2029.342
392.7122, 2038.586
393.1943, 2047.673
393.6764, 2055.850
394.1585, 2062.901
394.6407, 2068.040
395.1228, 2069.300
395.6049, 2070.035
396.0870, 2071.810
396.5691, 2074.828
397.0512, 2078.859
397.5334, 2086.148
398.0155, 2093.711
398.4976, 2097.733
398.9797, 2092.740
399.4618, 2089.631
399.9439, 2090.682
400.4261, 2095.853
400.9082, 2101.946
401.3903, 2111.654
401.8724, 2119.664
402.3545, 2122.223
402.8366, 2116.430
403.3188, 2111.469
403.8009, 2108.276
404.2830, 2106.025
404.7651, 2102.314
405.2472, 2096.408
405.7293, 2091.370
406.2115, 2090.206
406.6936, 2093.269
407.1757, 2087.315
407.6578, 2070.199
408.1399, 2049.848
408.6220, 2035.303
409.1042, 2026.447
409.5863, 2018.050
410.0684, 2009.484
410.5505, 1999.927
411.0326, 1986.011
411.5147, 1967.811
411.9969, 1949.636
412.4790, 1934.369
412.9611, 1921.221
413.4432, 1908.690
413.9253, 1896.543
414.4074, 1884.630
414.8896, 1870.780
415.3717, 1856.869
415.8538, 1847.460
416.3359, 1850.515
416.8180, 1855.401
417.3001, 1851.226
417.7823, 1838.002
418.2644, 1825.229
418.7465, 1818.046
419.2286, 1813.870
419.7107, 1810.372
420.1928, 1807.637
420.6750, 1804.416
421.1571, 1800.320
421.6392, 1795.348
422.1213, 1789.614
422.6034, 1780.929
423.0855, 1773.410
423.5677, 1768.726
424.0498, 1767.439
424.5319, 1767.653
425.0140, 1770.500
425.4961, 1774.238
425.9782, 1777.096
426.4604, 1778.311
426.9425, 1779.829
427.4246, 1781.928
427.9067, 1784.595
428.3888, 1787.412
428.8709, 1789.946
429.3531, 1793.378
429.8352, 1798.646
430.3173, 1806.061
430.7994, 1813.567
431.2815, 1821.552
431.7636, 1828.829
432.2458, 1832.011
432.7279, 1830.664
433.2100, 1832.191
433.6921, 1839.846
434.1742, 1852.294
434.6563, 1864.923
435.1385, 1877.906
435.6206, 1890.523
436.1027, 1902.100
436.5848, 1912.870
437.0669, 1923.188
437.5490, 1932.708
438.0312, 1942.962
438.5133, 1956.153
438.9954, 1971.689
439.4775, 1987.885
439.9596, 2004.583
440.4417, 2021.160
440.9239, 2036.459
441.4060, 2050.433
441.8881, 2065.833
442.3702, 2085.247
442.8523, 2106.197
443.3344, 2126.472
443.8166, 2145.781
444.2987, 2163.937
444.7808, 2180.359
445.2629, 2195.484
445.7450, 2210.758
446.2271, 2224.477
446.7093, 2239.716
447.1914, 2258.012
447.6735, 2280.647
448.1556, 2302.302
448.6377, 2321.561
449.1198, 2340.565
449.6020, 2361.664
450.0841, 2385.414
450.5662, 2409.241
451.0483, 2432.908
451.5304, 2456.445
452.0125, 2478.961
452.4947, 2500.013
452.9768, 2521.997
453.4589, 2546.898
453.9410, 2575.002
454.4231, 2602.268
454.9052, 2628.963
455.3874, 2654.789
455.8695, 2679.047
456.3516, 2702.165
456.8337, 2726.393
457.3158, 2752.720
457.7979, 2780.719
458.2801, 2812.526
458.7622, 2846.923
459.2443, 2876.258
459.7264, 2893.231
460.2085, 2902.588
460.6906, 2909.522
461.1728, 2914.344
461.6549, 2919.036
462.1370, 2926.769
462.6191, 2934.855
463.1012, 2939.139
463.5833, 2938.723
464.0655, 2933.600
464.5476, 2924.464
465.0297, 2911.059
465.5118, 2890.703
465.9939, 2857.890
466.4760, 2821.687
466.9582, 2787.374
467.4403, 2757.992
467.9224, 2725.045
468.4045, 2688.088
468.8866, 2647.821
469.3687, 2603.854
469.8509, 2553.185
470.3330, 2505.745
470.8151, 2464.531
471.2972, 2428.955
471.7793, 2392.592
472.2614, 2354.428
472.7436, 2317.329
473.2257, 2283.257
473.7078, 2252.113
474.1899, 2222.294
474.6720, 2193.381
475.1541, 2166.001
475.6363, 2140.774
476.1184, 2117.769
476.6005, 2097.532
477.0826, 2080.985
477.5647, 2066.936
478.0468, 2052.962
478.5290, 2039.201
479.0111, 2026.899
479.4932, 2018.668
479.9753, 2011.650
480.4574, 2001.956
480.9395, 1987.850
481.4217, 1974.460
481.9038, 1965.305
482.3859, 1958.972
482.8680, 1953.533
483.3501, 1950.226
483.8322, 1945.857
484.3144, 1937.923
484.7965, 1926.871
485.2786, 1918.554
485.7607, 1917.685
486.2428, 1916.782
486.7249, 1912.076
487.2071, 1902.126
487.6892, 1891.302
488.1713, 1877.657
488.6534, 1864.544
489.1355, 1857.211
489.6176, 1857.687
490.0998, 1858.178
490.5819, 1857.318
491.0640, 1854.981
491.5461, 1849.921
492.0282, 1841.801
492.5103, 1833.503
492.9925, 1826.890
493.4746, 1821.764
493.9567, 1817.749
494.4388, 1814.859
494.9209, 1812.406
495.4030, 1809.846
495.8852, 1807.056
496.3673, 1803.626
496.8494, 1798.517
497.3315, 1793.509
497.8136, 1790.179
498.2957, 1788.349
498.7779, 1787.504
499.2600, 1788.102
499.7421, 1789.050
500.2242, 1789.792
500.7063, 1790.453
501.1884, 1790.097
501.6706, 1786.945
502.1527, 1783.350
502.6348, 1781.746
503.1169, 1783.348
503.5990, 1786.010
504.0811, 1790.892
504.5633, 1796.812
505.0454, 1799.331
505.5275, 1797.566
506.0096, 1793.773
506.4917, 1787.785
506.9738, 1779.001
507.4560, 1775.136
507.9381, 1777.084
508.4202, 1781.503
508.9023, 1785.717
509.3844, 1789.657
509.8665, 1791.906
510.3487, 1791.615
510.8308, 1790.614
511.3129, 1792.895
511.7950, 1797.585
512.2772, 1800.571
512.7593, 1796.627
513.2414, 1791.419
513.7235, 1793.184
514.2056, 1801.710
514.6877, 1809.031
515.1699, 1808.694
515.6520, 1805.505
516.1341, 1803.793
516.6162, 1804.553
517.0983, 1806.708
517.5804, 1810.381
518.0626, 1815.099
518.5447, 1820.094
519.0268, 1827.058
519.5089, 1832.284
519.9910, 1833.864
520.4731, 1832.167
520.9553, 1833.167
521.4374, 1838.292
521.9195, 1843.975
522.4016, 1847.948
522.8837, 1849.517
523.3658, 1853.305
523.8480, 1860.107
524.3301, 1867.609
524.8122, 1872.250
525.2943, 1874.238
525.7764, 1877.013
526.2585, 1881.892
526.7407, 1887.665
527.2228, 1892.090
527.7049, 1895.404
528.1870, 1898.812
528.6691, 1903.730
529.1512, 1908.831
529.6334, 1912.829
530.1155, 1915.664
530.5976, 1916.827
531.0797, 1913.451
531.5618, 1909.443
532.0439, 1908.803
532.5261, 1914.903
533.0082, 1920.955
533.4903, 1926.470
533.9724, 1930.691
534.4545, 1932.075
534.9366, 1925.951
535.4188, 1922.241
535.9009, 1924.443
536.3830, 1932.365
536.8651, 1936.783
537.3472, 1937.060
537.8293, 1935.183
538.3115, 1931.495
538.7936, 1925.693
539.2757, 1923.073
539.7578, 1924.379
540.2399, 1927.598
540.7220, 1930.506
541.2042, 1933.059
541.6863, 1935.230
542.1684, 1937.021
542.6505, 1938.415
543.1326, 1939.200
543.6147, 1939.501
544.0969, 1939.854
544.5790, 1940.796
545.0611, 1941.727
545.5432, 1941.763
546.0253, 1940.743
546.5074, 1940.745
546.9896, 1943.752
547.4717, 1947.526
547.9538, 1950.260
548.4359, 1950.983
548.9180, 1951.589
549.4001, 1952.403
549.8823, 1953.176
550.3644, 1953.434
550.8465, 1952.876
551.3286, 1952.433
551.8107, 1952.490
552.2928, 1952.909
552.7750, 1952.789
553.2571, 1952.229
553.7392, 1950.699
554.2213, 1946.625
554.7034, 1940.863
555.1855, 1938.485
555.6677, 1939.933
556.1498, 1943.179
556.6319, 1947.312
557.1140, 1951.510
557.5961, 1954.019
558.0782, 1954.145
558.5604, 1952.729
559.0425, 1949.056
559.5246, 1944.358
560.0067, 1941.417
560.4888, 1943.287
560.9709, 1945.455
561.4531, 1946.139
561.9352, 1945.259
562.4173, 1943.202
562.8994, 1937.528
563.3815, 1932.758
563.8636, 1931.585
564.3458, 1936.560
564.8279, 1937.966
565.3100, 1934.069
565.7921, 1928.835
566.2742, 1927.924
566.7563, 1931.896
567.2385, 1934.546
567.7206, 1934.026
568.2027, 1932.102
568.6848, 1932.834
569.1669, 1935.908
569.6490, 1938.925
570.1312, 1941.005
570.6133, 1942.092
571.0954, 1940.984
571.5775, 1937.917
572.0596, 1936.863
572.5417, 1942.960
573.0239, 1950.666
573.5060, 1954.691
573.9881, 1952.513
574.4702, 1951.187
574.9523, 1953.052
575.4344, 1956.858
575.9166, 1961.027
576.3987, 1967.378
576.8808, 1971.469
577.3629, 1971.464
577.8450, 1969.026
578.3271, 1969.986
578.8093, 1975.514
579.2914, 1980.832
579.7735, 1983.196
580.2556, 1983.265
580.7377, 1987.351
581.2198, 1995.767
581.7020, 2004.333
582.1841, 2008.481
582.6662, 2010.201
583.1483, 2014.835
583.6304, 2023.462
584.1125, 2032.502
584.5947, 2039.364
585.0768, 2044.474
585.5589, 2048.418
586.0410, 2049.798
586.5231, 2051.937
587.0052, 2056.022
587.4873, 2061.974
587.9694, 2069.421
588.4515, 2081.750
588.9337, 2092.058
589.4158, 2096.802
589.8979, 2095.926
590.3800, 2101.143
590.8621, 2115.375
591.3442, 2130.534
591.8264, 2140.859
592.3085, 2145.939
592.7906, 2153.136
593.2727, 2163.026
593.7548, 2173.672
594.2369, 2182.557
594.7191, 2190.297
595.2012, 2199.190
595.6833, 2210.101
596.1654, 2221.872
596.6475, 2232.956
597.1296, 2243.871
597.6118, 2256.073
598.0939, 2272.754
598.5760, 2288.683
599.0581, 2300.701
599.5402, 2308.940
600.0223, 2316.994
600.5045, 2324.510
600.9866, 2333.107
601.4687, 2344.044
601.9508, 2358.329
602.4329, 2370.398
602.9150, 2378.745
603.3972, 2386.866
603.8793, 2398.491
604.3614, 2414.185
604.8435, 2427.566
605.3256, 2437.424
605.8077, 2445.456
606.2899, 2453.267
606.7720, 2461.183
607.2541, 2470.671
607.7362, 2483.438
608.2183, 2496.783
608.7004, 2506.230
609.1826, 2513.176
609.6647, 2522.140
610.1468, 2538.702
610.6289, 2555.550
611.1110, 2567.795
611.5931, 2575.224
612.0753, 2582.317
