##NAMES=Sabinaite
##RRUFFID=R110174
##IDEAL CHEMISTRY=Na_4_Ti^4+^Zr^4+^_2_O_4_(CO_3_)_4_
##LOCALITY=Mont St-Hilaire, Quebec, Canada
##OWNER=RRUFF
##SOURCE=Donald Doell
##DESCRIPTION=Brown pseudohexagonal platy crystals on orthoclase
##STATUS=The identification of this mineral has been confirmed by single-crystal X-ray diffraction.
##URL=rruff.info/R110174
188.8440, 84.16138
189.3261, 86.05590
189.8082, 89.28040
190.2903, 92.84707
190.7725, 96.30199
191.2546, 99.71753
191.7367, 103.1471
192.2188, 106.5271
192.7009, 110.1142
193.1830, 114.3150
193.6652, 119.1080
194.1473, 124.1745
194.6294, 129.4940
195.1115, 135.0193
195.5936, 140.2615
196.0757, 145.4209
196.5579, 149.9209
197.0400, 152.7683
197.5221, 153.9806
198.0042, 153.5683
198.4863, 151.2681
198.9684, 147.0796
199.4506, 142.1541
199.9327, 136.4153
200.4148, 130.2582
200.8969, 124.4176
201.3790, 118.7439
201.8611, 113.8589
202.3433, 110.2443
202.8254, 107.9770
203.3075, 105.9253
203.7896, 103.8808
204.2717, 102.1258
204.7538, 101.5098
205.2360, 102.1935
205.7181, 103.3925
206.2002, 104.6895
206.6823, 106.0762
207.1644, 107.5735
207.6465, 109.1162
208.1287, 110.7987
208.6108, 112.9584
209.0929, 115.6229
209.5750, 118.6885
210.0571, 122.1855
210.5392, 126.2882
211.0214, 130.1001
211.5035, 133.5947
211.9856, 136.7272
212.4677, 139.4573
212.9498, 141.8130
213.4319, 143.7324
213.9140, 145.0860
214.3962, 145.6530
214.8783, 146.3971
215.3604, 147.1562
215.8425, 148.1834
216.3246, 150.6533
216.8067, 155.2309
217.2889, 160.0045
217.7710, 163.8119
218.2531, 166.3523
218.7352, 168.8548
219.2173, 171.5097
219.6994, 174.2362
220.1816, 176.6800
220.6637, 179.3112
221.1458, 180.9307
221.6279, 180.7044
222.1100, 178.2154
222.5921, 174.9644
223.0743, 170.9318
223.5564, 166.2331
224.0385, 161.0156
224.5206, 154.8316
225.0027, 149.0186
225.4848, 144.3577
225.9670, 140.9088
226.4491, 138.6221
226.9312, 137.8840
227.4133, 138.3387
227.8954, 138.3499
228.3775, 138.2533
228.8597, 137.2379
229.3418, 134.7120
229.8239, 130.1485
230.3060, 125.2729
230.7881, 119.9830
231.2702, 114.4405
231.7524, 109.6598
232.2345, 105.9090
232.7166, 102.6088
233.1987, 99.48447
233.6808, 96.52131
234.1629, 93.77476
234.6451, 91.24429
235.1272, 88.92148
235.6093, 86.70998
236.0914, 84.54137
236.5735, 82.57773
237.0556, 80.87721
237.5378, 79.31617
238.0199, 78.32483
238.5020, 78.18478
238.9841, 78.63808
239.4662, 78.58565
239.9483, 77.57112
240.4305, 76.67912
240.9126, 76.55812
241.3947, 77.76891
241.8768, 78.47778
242.3589, 78.27415
242.8410, 77.53171
243.3232, 77.63745
243.8053, 79.07251
244.2874, 80.69624
244.7695, 81.95597
245.2516, 82.84989
245.7337, 83.33714
246.2159, 82.98846
246.6980, 82.28581
247.1801, 82.87402
247.6622, 85.48498
248.1443, 88.28431
248.6264, 90.28910
249.1086, 90.87123
249.5907, 92.22705
250.0728, 94.68136
250.5549, 97.84708
251.0370, 100.7110
251.5191, 103.2255
252.0013, 105.5242
252.4834, 107.6853
252.9655, 109.6747
253.4476, 111.5833
253.9297, 113.5036
254.4118, 115.3011
254.8940, 116.6932
255.3761, 117.5543
255.8582, 118.2403
256.3403, 119.0427
256.8224, 120.3748
257.3046, 120.3894
257.7867, 118.7030
258.2688, 115.9460
258.7509, 113.2243
259.2330, 110.3672
259.7151, 107.9479
260.1973, 106.2602
260.6794, 105.5102
261.1615, 104.6565
261.6436, 103.5208
262.1257, 102.4448
262.6078, 102.0308
263.0900, 102.4074
263.5721, 103.1497
264.0542, 104.1029
264.5363, 105.2609
265.0184, 106.7481
265.5005, 108.5135
265.9827, 110.6906
266.4648, 113.5477
266.9469, 117.1683
267.4290, 121.1814
267.9111, 125.5840
268.3932, 130.3795
268.8754, 135.1113
269.3575, 139.5483
269.8396, 144.2600
270.3217, 149.9851
270.8038, 156.8964
271.2859, 164.0341
271.7681, 170.9319
272.2502, 177.5945
272.7323, 185.3855
273.2144, 194.3212
273.6965, 204.0834
274.1786, 214.1484
274.6608, 224.4667
275.1429, 235.8199
275.6250, 248.2155
276.1071, 261.6948
276.5892, 277.3144
277.0714, 294.9717
277.5535, 314.3673
278.0356, 334.8838
278.5177, 356.3632
278.9998, 380.5500
279.4819, 407.8814
279.9641, 438.2411
280.4462, 470.3319
280.9283, 504.4933
281.4104, 539.3395
281.8925, 575.2850
282.3746, 612.3987
282.8568, 646.1714
283.3389, 676.6097
283.8210, 702.7159
284.3031, 722.4072
284.7852, 735.9849
285.2673, 741.2363
285.7495, 734.8718
286.2316, 717.5687
286.7137, 697.5101
287.1958, 675.1832
287.6779, 651.4205
288.1600, 627.5236
288.6422, 603.4698
289.1243, 579.8099
289.6064, 557.0022
290.0885, 535.0179
290.5706, 514.9756
291.0527, 497.1314
291.5349, 480.8225
292.0170, 465.9305
292.4991, 452.3354
292.9812, 437.2167
293.4633, 418.4305
293.9454, 396.9609
294.4276, 375.8761
294.9097, 355.4565
295.3918, 335.8219
295.8739, 317.0305
296.3560, 299.2887
296.8381, 282.6673
297.3203, 267.2925
297.8024, 253.2544
298.2845, 240.5769
298.7666, 229.2248
299.2487, 219.1894
299.7308, 210.6334
300.2130, 203.2756
300.6951, 196.4445
301.1772, 190.0229
301.6593, 183.9085
302.1414, 177.8922
302.6235, 172.0233
303.1057, 166.2275
303.5878, 160.4981
304.0699, 154.8316
304.5520, 149.3155
305.0341, 143.7681
305.5162, 138.5879
305.9984, 134.3847
306.4805, 131.0603
306.9626, 127.6645
307.4447, 123.2105
307.9268, 118.4323
308.4089, 114.3595
308.8911, 111.3964
309.3732, 108.9818
309.8553, 106.5991
310.3374, 104.3766
310.8195, 102.7066
311.3016, 102.0371
311.7838, 101.9289
312.2659, 102.0290
312.7480, 102.3424
313.2301, 102.6855
313.7122, 102.7895
314.1943, 102.8432
314.6765, 103.2440
315.1586, 104.3591
315.6407, 105.7397
316.1228, 107.0788
316.6049, 108.2612
317.0870, 109.7128
317.5692, 111.6451
318.0513, 113.9434
318.5334, 116.4386
319.0155, 119.1875
319.4976, 122.0271
319.9797, 124.7486
320.4619, 127.2950
320.9440, 130.3173
321.4261, 134.2954
321.9082, 138.6863
322.3903, 142.9614
322.8724, 146.1353
323.3546, 150.0566
323.8367, 155.4466
324.3188, 162.2619
324.8009, 169.1307
325.2830, 175.6667
325.7651, 182.2249
326.2473, 189.0184
326.7294, 196.0301
327.2115, 203.3266
327.6936, 211.5528
328.1757, 220.2658
328.6578, 227.6253
329.1400, 234.1159
329.6221, 238.8611
330.1042, 241.4762
330.5863, 241.0105
331.0684, 239.9818
331.5505, 238.4871
332.0327, 236.4154
332.5148, 233.5419
332.9969, 229.8809
333.4790, 225.3511
333.9611, 219.7529
334.4432, 212.8401
334.9254, 205.7234
335.4075, 198.2334
335.8896, 190.7545
336.3717, 183.8524
336.8538, 177.7263
337.3359, 171.8494
337.8180, 166.1874
338.3001, 160.7621
338.7823, 155.2794
339.2644, 149.8237
339.7465, 144.2733
340.2286, 138.4052
340.7107, 132.1684
341.1928, 126.1935
341.6750, 120.6666
342.1571, 115.5412
342.6392, 111.0518
343.1213, 107.2380
343.6034, 103.6475
344.0855, 99.87280
344.5677, 95.95913
345.0498, 92.15348
345.5319, 88.38319
346.0140, 84.95225
346.4961, 82.66154
346.9782, 81.47771
347.4604, 80.36164
347.9425, 78.51736
348.4246, 76.23381
348.9067, 74.76949
349.3888, 74.31420
349.8709, 74.05817
350.3531, 72.89758
350.8352, 71.06353
351.3173, 69.42107
351.7994, 68.38882
352.2815, 67.75186
352.7636, 67.23703
353.2458, 66.84257
353.7279, 66.35756
354.2100, 65.42637
354.6921, 64.30788
355.1742, 63.46649
355.6563, 63.18542
356.1385, 63.07711
356.6206, 62.87613
357.1027, 62.56052
357.5848, 62.03417
358.0669, 60.83453
358.5490, 59.59460
359.0312, 58.98576
359.5133, 59.37675
359.9954, 59.85503
360.4775, 59.87389
360.9596, 59.59690
361.4417, 59.37122
361.9239, 59.40689
362.4060, 59.47863
362.8881, 59.43438
363.3702, 59.22015
363.8523, 59.09906
364.3344, 59.15493
364.8166, 59.34945
365.2987, 59.64147
365.7808, 60.32499
366.2629, 60.79395
366.7450, 60.76693
367.2271, 60.24561
367.7093, 59.88546
368.1914, 59.90656
368.6735, 60.02022
369.1556, 60.03880
369.6377, 59.85490
370.1198, 59.69579
370.6020, 59.48423
371.0841, 59.29016
371.5662, 59.40063
372.0483, 60.17685
372.5304, 60.81523
373.0125, 60.94939
373.4947, 60.36999
373.9768, 59.85768
374.4589, 59.32853
374.9410, 58.92766
375.4231, 58.96752
375.9052, 59.65911
376.3874, 60.19492
376.8695, 60.25853
377.3516, 59.86782
377.8337, 59.74275
378.3158, 59.92529
378.7979, 60.25160
379.2801, 60.64972
379.7622, 61.13937
380.2443, 61.30895
380.7264, 60.94268
381.2085, 60.32098
381.6906, 60.22721
382.1728, 60.66743
382.6549, 61.24267
383.1370, 61.72194
383.6191, 62.11780
384.1012, 62.46399
384.5833, 62.76774
385.0655, 63.01669
385.5476, 63.05563
386.0297, 62.98511
386.5118, 63.17305
386.9939, 64.01491
387.4760, 65.13528
387.9582, 66.00096
388.4403, 66.60678
388.9224, 67.10305
389.4045, 67.59106
389.8866, 68.04864
390.3687, 68.44576
390.8509, 68.74924
391.3330, 69.00996
391.8151, 69.07020
392.2972, 69.05624
392.7793, 69.47534
393.2614, 71.02862
393.7436, 72.81810
394.2257, 74.23295
394.7078, 75.06931
395.1899, 75.73290
395.6720, 76.03671
396.1541, 76.31422
396.6363, 77.10201
397.1184, 79.06221
397.6005, 81.05674
398.0826, 82.68345
398.5647, 83.87562
399.0468, 85.09423
399.5290, 85.95593
400.0111, 87.10155
400.4932, 89.05588
400.9753, 92.55130
401.4574, 95.88768
401.9395, 98.90063
402.4217, 101.6308
402.9038, 104.1111
403.3859, 105.8261
403.8680, 108.0480
404.3501, 111.4354
404.8322, 116.1571
405.3144, 121.4121
405.7965, 127.2950
406.2786, 133.5234
406.7607, 139.5737
407.2428, 145.3752
407.7249, 151.3807
408.2071, 157.4938
408.6892, 163.8629
409.1713, 171.3343
409.6534, 179.9933
410.1355, 189.4729
410.6176, 199.4143
411.0998, 209.8904
411.5819, 221.1362
412.0640, 233.3017
412.5461, 246.1118
413.0282, 259.2832
413.5103, 272.8377
413.9925, 287.1500
414.4746, 302.7006
414.9567, 319.2335
415.4388, 336.3422
415.9209, 354.2313
416.4030, 371.8970
416.8852, 388.3675
417.3673, 404.2712
417.8494, 420.6752
418.3315, 439.2015
418.8136, 457.5116
419.2957, 474.9841
419.7779, 491.2964
420.2600, 505.4751
420.7421, 517.9376
421.2242, 527.4781
421.7063, 532.9915
422.1884, 534.4385
422.6706, 531.9227
423.1527, 525.2589
423.6348, 514.6720
424.1169, 500.6412
424.5990, 482.0035
425.0811, 460.9309
425.5633, 437.2496
426.0454, 410.4032
426.5275, 384.9566
427.0096, 360.7432
427.4917, 337.7790
427.9738, 316.0052
428.4560, 295.5621
428.9381, 276.0516
429.4202, 257.2360
429.9023, 239.6144
430.3844, 224.0511
430.8665, 210.9186
431.3487, 199.0687
431.8308, 187.9657
432.3129, 177.6402
432.7950, 168.3061
433.2771, 160.0593
433.7592, 152.6654
434.2414, 145.7066
434.7235, 139.1983
435.2056, 133.3363
435.6877, 128.2751
436.1698, 123.8532
436.6519, 119.7287
437.1341, 115.8976
437.6162, 112.2682
438.0983, 108.6468
438.5804, 105.1683
439.0625, 102.0776
439.5446, 99.43972
440.0268, 97.10752
440.5089, 95.00368
440.9910, 93.09880
441.4731, 91.36560
441.9552, 89.85732
442.4373, 88.44256
442.9195, 87.04353
443.4016, 85.65469
443.8837, 84.24807
444.3658, 82.73260
444.8479, 81.23119
445.3300, 79.85047
445.8122, 78.45527
446.2943, 77.36536
446.7764, 77.04185
447.2585, 77.07188
447.7406, 76.39570
448.2227, 73.82787
448.7049, 71.65929
449.1870, 70.67581
449.6691, 71.15025
450.1512, 71.20875
450.6333, 70.66224
451.1154, 69.90858
451.5976, 69.27293
452.0797, 68.70847
452.5618, 68.49776
453.0439, 68.90078
453.5260, 69.57531
454.0081, 69.35819
454.4903, 68.12088
454.9724, 66.82009
455.4545, 65.82146
455.9366, 65.16234
456.4187, 65.23366
456.9008, 66.16495
457.3830, 67.17506
457.8651, 67.26277
458.3472, 66.65042
458.8293, 66.02612
459.3114, 65.48463
459.7935, 65.16707
460.2757, 65.40897
460.7578, 66.10114
461.2399, 66.69675
461.7220, 66.69955
462.2041, 66.53288
462.6862, 66.64416
463.1684, 67.17622
463.6505, 67.62971
464.1326, 67.90635
464.6147, 67.90566
465.0968, 67.49476
465.5789, 65.68187
466.0611, 64.43138
466.5432, 64.79560
467.0253, 66.58250
467.5074, 67.54134
467.9895, 66.52488
468.4716, 65.34064
468.9538, 64.84993
469.4359, 65.37498
469.9180, 65.91206
470.4001, 66.56572
470.8822, 67.16305
471.3643, 67.44363
471.8465, 67.36005
472.3286, 67.06573
472.8107, 66.45226
473.2928, 65.64973
473.7749, 65.46809
474.2570, 66.00208
474.7392, 66.66708
475.2213, 66.91688
475.7034, 66.85520
476.1855, 67.26322
476.6676, 68.30892
477.1497, 69.54336
477.6319, 70.34103
478.1140, 70.81258
478.5961, 71.30533
479.0782, 72.10304
479.5603, 72.91959
480.0424, 73.35007
480.5246, 73.44244
481.0067, 73.57258
481.4888, 73.75869
481.9709, 74.20544
482.4530, 75.11846
482.9352, 76.62342
483.4173, 78.37737
483.8994, 80.38921
484.3815, 82.54087
484.8636, 84.63174
485.3457, 86.42747
485.8279, 88.34315
486.3100, 90.34445
486.7921, 92.45654
487.2742, 95.21426
487.7563, 98.85908
488.2384, 102.9399
488.7206, 107.1445
489.2027, 111.2391
489.6848, 116.0851
490.1669, 121.9261
490.6490, 128.2759
491.1311, 134.4296
491.6133, 140.2517
492.0954, 146.4521
492.5775, 153.3319
493.0596, 160.7369
493.5417, 168.1728
494.0238, 175.6034
494.5060, 183.2587
494.9881, 191.1410
495.4702, 199.3342
495.9523, 208.3176
496.4344, 218.1449
496.9165, 228.5485
497.3987, 239.0269
497.8808, 249.9462
498.3629, 261.7951
498.8450, 274.9741
499.3271, 289.0032
499.8092, 303.2124
500.2914, 317.9212
500.7735, 333.6586
501.2556, 351.9496
501.7377, 370.7276
502.2198, 388.9975
502.7019, 407.3545
503.1841, 423.8397
503.6662, 440.2492
504.1483, 453.8137
504.6304, 461.2975
505.1125, 462.7831
505.5946, 457.9624
506.0768, 446.0791
506.5589, 427.7413
507.0410, 405.2198
507.5231, 377.4067
508.0052, 348.6211
508.4873, 320.0563
508.9695, 292.0532
509.4516, 266.2242
509.9337, 242.5604
510.4158, 221.1419
510.8979, 202.2240
511.3800, 185.5768
511.8622, 171.0158
512.3443, 158.6274
512.8264, 148.0424
513.3085, 138.9179
513.7906, 131.0890
514.2728, 123.9628
514.7549, 117.0508
515.2370, 110.7986
515.7191, 105.7668
516.2012, 102.0216
516.6833, 98.57272
517.1655, 94.82980
517.6476, 91.20729
518.1297, 88.06319
518.6118, 85.82478
519.0939, 83.62789
519.5760, 81.19070
520.0582, 78.72795
520.5403, 76.66853
521.0224, 75.17745
521.5045, 73.89410
521.9866, 72.75339
522.4688, 71.75058
522.9509, 70.80444
523.4330, 69.90324
523.9151, 69.06943
524.3972, 68.37234
524.8793, 67.82003
525.3615, 67.07012
525.8436, 66.03111
526.3257, 64.93880
526.8078, 64.17215
527.2899, 63.67878
527.7720, 63.22589
528.2542, 62.69642
528.7363, 62.18452
529.2184, 61.89282
529.7005, 61.76964
530.1826, 61.51919
530.6647, 60.71303
531.1469, 59.85288
531.6290, 59.45374
532.1111, 59.72022
532.5932, 59.79773
533.0753, 59.14740
533.5574, 58.22717
534.0396, 57.52289
534.5217, 57.25848
535.0038, 57.04574
535.4859, 56.90340
535.9680, 56.77692
536.4501, 56.45781
536.9323, 55.73582
537.4144, 55.18666
537.8965, 55.12371
538.3786, 55.56684
538.8607, 55.54307
539.3428, 54.91092
539.8250, 54.24673
540.3071, 54.16431
540.7892, 54.59680
541.2713, 54.93815
541.7534, 55.13294
542.2355, 55.10562
542.7177, 54.55282
543.1998, 53.65023
543.6819, 52.97283
544.1640, 52.96174
544.6461, 53.17876
545.1282, 53.20735
545.6104, 53.08377
546.0925, 53.03819
546.5746, 53.36520
547.0567, 53.68813
547.5388, 53.69811
548.0209, 53.20434
548.5031, 52.90394
548.9852, 53.12514
549.4673, 53.52037
549.9494, 53.72242
550.4315, 53.62637
550.9136, 53.48070
551.3958, 53.23949
551.8779, 52.98138
552.3600, 52.95937
552.8421, 53.21822
553.3242, 53.55883
553.8063, 53.97305
554.2885, 54.42272
554.7706, 54.58823
555.2527, 54.45921
555.7348, 54.15971
556.2169, 53.59003
556.6990, 52.94211
557.1812, 52.76702
557.6633, 53.24299
558.1454, 53.84547
558.6275, 54.08883
559.1096, 54.10127
559.5917, 54.11362
560.0739, 54.19340
560.5560, 54.31874
561.0381, 54.57533
561.5202, 54.89724
562.0023, 55.00961
562.4844, 54.64016
562.9666, 54.21877
563.4487, 53.90139
563.9308, 53.66672
564.4129, 53.66284
564.8950, 54.02850
565.3771, 54.47240
565.8593, 54.77016
566.3414, 54.91240
566.8235, 54.91077
567.3056, 54.68337
567.7877, 54.44015
568.2698, 54.67171
568.7520, 55.34411
569.2341, 55.83892
569.7162, 55.83209
570.1983, 55.56795
570.6804, 55.51323
571.1625, 55.63531
571.6447, 55.70106
572.1268, 55.41528
572.6089, 55.08295
573.0910, 55.00727
573.5731, 55.23780
574.0552, 55.59704
574.5374, 56.29631
575.0195, 56.94302
575.5016, 57.17361
575.9837, 56.37172
576.4658, 55.82916
576.9479, 55.91156
577.4301, 56.26431
577.9122, 56.14160
578.3943, 55.17083
578.8764, 54.46266
579.3585, 54.34771
579.8406, 54.75784
580.3228, 55.35365
580.8049, 56.21278
581.2870, 56.75337
581.7691, 56.36752
582.2512, 55.30387
582.7333, 54.54403
583.2155, 54.14829
583.6975, 54.00680
584.1796, 54.16494
584.6617, 54.46663
585.1439, 54.64393
585.6260, 54.56335
586.1081, 54.45414
586.5902, 54.48916
587.0723, 54.59164
587.5544, 54.61301
588.0366, 54.44337
588.5187, 54.25371
589.0008, 54.07942
589.4829, 53.92363
589.9650, 53.81531
590.4471, 53.76367
590.9293, 53.74357
591.4114, 53.72120
591.8935, 53.67167
592.3756, 53.84530
592.8577, 54.33770
593.3398, 54.79490
593.8220, 54.79951
594.3041, 54.40553
594.7862, 54.05549
595.2683, 53.87112
595.7504, 53.64524
596.2325, 52.82357
596.7147, 51.71983
597.1968, 51.15885
597.6789, 52.04219
598.1610, 53.14156
598.6431, 53.63454
599.1252, 53.58527
599.6074, 53.33952
600.0895, 52.78778
600.5716, 52.26749
601.0537, 51.96447
601.5358, 51.95339
602.0179, 51.87540
602.5001, 51.62543
602.9822, 51.40752
603.4643, 51.38955
603.9464, 51.63174
604.4285, 51.82471
604.9106, 51.92146
605.3928, 52.01888
605.8749, 52.36544
606.3570, 52.92649
606.8391, 53.20359
607.3212, 52.89226
607.8033, 52.41434
608.2855, 52.47264
608.7676, 52.94038
609.2497, 53.35392
609.7318, 53.40324
610.2139, 53.33221
610.6960, 53.27967
611.1782, 53.25828
611.6603, 53.35477
612.1424, 53.79900
612.6245, 54.22677
613.1066, 54.39422
613.5887, 54.13185
614.0709, 53.96717
614.5530, 53.95016
615.0351, 53.98597
615.5172, 53.92340
615.9993, 53.67370
616.4814, 53.77732
616.9636, 54.42897
617.4457, 55.29124
617.9278, 55.66762
618.4099, 55.60498
618.8920, 55.60520
619.3741, 56.04039
619.8563, 56.53934
620.3384, 56.34969
620.8205, 55.63726
621.3026, 55.23438
621.7847, 56.02724
622.2668, 57.02156
622.7490, 57.37020
623.2311, 56.92762
623.7132, 56.72178
624.1953, 57.13247
624.6774, 57.80384
625.1595, 58.51827
625.6417, 59.52278
626.1238, 60.05132
626.6059, 59.91751
627.0880, 59.50966
627.5701, 59.40234
628.0522, 59.65704
628.5344, 59.55869
629.0165, 58.79527
629.4986, 57.84095
629.9807, 57.80484
630.4628, 58.50160
630.9449, 58.93454
631.4271, 58.42859
631.9092, 57.52770
632.3913, 56.69164
632.8734, 55.94316
633.3555, 55.41745
633.8376, 55.59418
634.3198, 55.68331
634.8019, 55.03987
635.2840, 53.35259
635.7661, 52.26617
636.2482, 52.40903
636.7303, 52.80840
637.2125, 52.78657
637.6946, 52.12786
638.1767, 51.70161
638.6588, 51.62757
639.1409, 51.64301
639.6230, 51.36082
640.1052, 50.79850
640.5873, 50.20358
641.0694, 49.59717
641.5515, 49.06990
642.0336, 48.84219
642.5157, 48.82612
642.9979, 48.76073
643.4800, 48.46679
643.9621, 48.12091
644.4442, 47.81184
644.9263, 47.54850
645.4084, 47.37400
645.8906, 47.46238
646.3727, 47.50544
646.8548, 47.33585
647.3369, 46.92617
647.8190, 46.51121
648.3011, 45.98274
648.7833, 45.61707
649.2654, 45.73397
649.7475, 46.39983
650.2296, 46.70103
650.7117, 46.54140
651.1938, 46.19816
651.6760, 46.00760
652.1581, 45.91504
652.6402, 45.72865
653.1223, 45.30864
653.6044, 44.96926
654.0865, 45.08546
654.5687, 45.47066
655.0508, 45.76500
655.5329, 45.89632
656.0150, 45.85242
656.4971, 45.46595
656.9792, 44.84575
657.4614, 44.55932
657.9435, 44.89431
658.4256, 45.18992
658.9077, 45.24401
659.3898, 45.06193
659.8719, 44.68653
660.3541, 44.03033
660.8362, 43.59082
661.3183, 43.89079
661.8004, 44.71944
662.2825, 45.21411
662.7646, 45.31171
663.2468, 45.36222
663.7289, 45.87496
664.2110, 46.44850
664.6931, 46.46682
665.1752, 45.50337
665.6573, 44.75847
666.1395, 45.05162
666.6216, 45.74012
667.1037, 46.03296
667.5858, 45.52128
668.0679, 44.95222
668.5500, 44.18980
669.0322, 43.48927
669.5143, 43.57800
669.9964, 44.68972
670.4785, 45.41919
670.9606, 45.19713
671.4427, 44.40036
671.9249, 44.04877
672.4070, 44.10389
672.8891, 44.27734
673.3712, 44.46671
673.8533, 44.64233
674.3354, 44.69712
674.8176, 44.65631
675.2997, 44.78421
675.7818, 45.52568
676.2639, 46.23843
676.7460, 46.50433
677.2281, 46.16943
677.7103, 45.76781
678.1924, 45.14435
678.6745, 44.64270
679.1566, 44.54549
679.6387, 44.94367
680.1208, 45.33998
680.6030, 45.74358
681.0851, 46.06084
681.5672, 46.15236
682.0493, 46.05501
682.5314, 45.91648
683.0135, 45.74434
683.4957, 45.61111
683.9778, 45.63213
684.4599, 45.74379
684.9420, 45.82557
685.4241, 45.54531
685.9063, 45.53114
686.3884, 46.33577
