##NAMES=Sabinaite
##RRUFFID=R110174
##IDEAL CHEMISTRY=Na_4_Ti^4+^Zr^4+^_2_O_4_(CO_3_)_4_
##LOCALITY=Mont St-Hilaire, Quebec, Canada
##OWNER=RRUFF
##SOURCE=Donald Doell
##DESCRIPTION=Brown pseudohexagonal platy crystals on orthoclase
##STATUS=The identification of this mineral has been confirmed by single-crystal X-ray diffraction.
##URL=rruff.info/R110174
92.56775, 472.2457
93.04987, 493.2601
93.53198, 521.0119
94.01410, 544.4965
94.49622, 563.0357
94.97833, 578.5560
95.46045, 592.8851
95.94257, 605.9844
96.42468, 618.2400
96.90680, 634.6555
97.38892, 646.8223
97.87103, 652.6525
98.35315, 651.3077
98.83527, 643.1874
99.31738, 630.0806
99.79950, 610.5804
100.2816, 591.0961
100.7637, 569.7480
101.2458, 549.0020
101.7280, 530.8274
102.2101, 515.3611
102.6922, 502.9183
103.1743, 494.8172
103.6564, 490.5773
104.1385, 488.0236
104.6207, 486.8588
105.1028, 486.8365
105.5849, 487.3197
106.0670, 488.7963
106.5491, 489.7784
107.0313, 488.8725
107.5134, 485.9013
107.9955, 481.6528
108.4776, 476.4163
108.9597, 469.6955
109.4418, 464.1079
109.9240, 460.7940
110.4061, 458.5906
110.8882, 456.7350
111.3703, 454.9149
111.8524, 453.3730
112.3345, 452.8557
112.8167, 454.6378
113.2988, 455.7839
113.7809, 455.8000
114.2630, 454.9792
114.7451, 453.6478
115.2272, 451.9854
115.7094, 450.0043
116.1915, 448.2435
116.6736, 446.1704
117.1557, 444.7552
117.6378, 444.5434
118.1199, 445.3524
118.6021, 446.5067
119.0842, 447.3829
119.5663, 447.9828
120.0484, 449.3858
120.5305, 451.6578
121.0126, 454.6529
121.4948, 458.8351
121.9769, 464.4647
122.4590, 469.4891
122.9411, 471.3815
123.4232, 470.8405
123.9053, 469.3678
124.3875, 466.8358
124.8696, 463.6888
125.3517, 461.0995
125.8338, 458.9854
126.3159, 457.8925
126.7980, 458.2027
127.2802, 459.7422
127.7623, 461.6920
128.2444, 463.2419
128.7265, 464.2612
129.2086, 466.2075
129.6907, 469.7261
130.1729, 473.8805
130.6550, 478.4304
131.1371, 483.2809
131.6192, 488.3286
132.1013, 493.1747
132.5834, 496.6017
133.0656, 502.6307
133.5477, 511.6928
134.0298, 522.6037
134.5119, 534.5560
134.9940, 547.2308
135.4761, 560.8103
135.9583, 575.6252
136.4404, 591.5173
136.9225, 608.9167
137.4046, 628.6039
137.8867, 649.7443
138.3688, 671.0605
138.8510, 692.1790
139.3331, 712.9523
139.8152, 732.5446
140.2973, 749.2178
140.7794, 767.4042
141.2615, 788.2522
141.7437, 811.8422
142.2258, 839.2394
142.7079, 872.0176
143.1900, 908.6820
143.6721, 945.9010
144.1542, 985.9182
144.6364, 1023.585
145.1185, 1055.796
145.6006, 1083.380
146.0827, 1100.262
146.5648, 1100.778
147.0469, 1089.614
147.5291, 1068.971
148.0112, 1037.960
148.4933, 999.6603
148.9754, 960.5300
149.4575, 919.2114
149.9396, 879.1116
150.4218, 839.9967
150.9039, 802.5629
151.3860, 767.9374
151.8681, 736.6810
152.3502, 708.5407
152.8323, 683.0104
153.3145, 659.8203
153.7966, 639.9720
154.2787, 623.8918
154.7608, 611.2941
155.2429, 601.5204
155.7250, 594.0677
156.2072, 588.9839
156.6893, 586.1359
157.1714, 586.2111
157.6535, 587.3503
158.1356, 588.9102
158.6177, 590.8353
159.0999, 593.4504
159.5820, 597.3044
160.0641, 602.7514
160.5462, 606.3060
161.0283, 607.3380
161.5104, 607.0299
161.9926, 606.3080
162.4747, 605.2983
162.9568, 603.4397
163.4389, 600.1690
163.9210, 595.5017
164.4031, 589.3896
164.8853, 580.5678
165.3674, 570.6454
165.8495, 562.2294
166.3316, 555.9386
166.8137, 550.3720
167.2958, 543.9202
167.7780, 536.8835
168.2601, 530.6486
168.7422, 526.2167
169.2243, 523.2106
169.7064, 520.1797
170.1885, 516.7977
170.6707, 513.6404
171.1528, 510.9540
171.6349, 508.7400
172.1170, 506.9461
172.5991, 505.5341
173.0812, 504.5030
173.5634, 503.8732
174.0455, 503.7750
174.5276, 504.0289
175.0097, 504.7536
175.4918, 505.8493
175.9739, 506.9798
176.4561, 507.7740
176.9382, 508.1588
177.4203, 508.4507
177.9024, 508.3799
178.3845, 508.4282
178.8666, 508.9795
179.3488, 510.0089
179.8309, 511.1051
180.3130, 511.5727
180.7951, 510.4329
181.2772, 511.0517
181.7593, 514.6887
182.2415, 519.0193
182.7236, 522.4083
183.2057, 524.4509
183.6878, 525.7152
184.1699, 527.0433
184.6520, 528.5782
185.1342, 529.8696
185.6163, 530.5295
186.0984, 531.1036
186.5805, 531.9658
187.0626, 533.1879
187.5447, 535.1561
188.0269, 538.6623
188.5090, 543.6964
188.9911, 549.7548
189.4732, 556.7148
189.9553, 564.6381
190.4374, 573.5240
190.9196, 583.4475
191.4017, 594.4365
191.8838, 606.9056
192.3659, 620.8321
192.8480, 634.8473
193.3301, 648.6223
193.8123, 662.0325
194.2944, 674.9045
194.7765, 687.8074
195.2586, 699.1279
195.7407, 708.1967
196.2228, 715.0046
196.7050, 718.7810
197.1871, 718.8295
197.6692, 715.1964
198.1513, 708.7279
198.6334, 697.5970
199.1155, 685.1293
199.5977, 672.8721
200.0798, 661.0762
200.5619, 650.7093
201.0440, 642.5054
201.5261, 636.4063
202.0082, 632.6624
202.4904, 631.1192
202.9725, 632.2434
203.4546, 636.6524
203.9367, 644.3356
204.4188, 654.6640
204.9009, 666.8922
205.3831, 680.9808
205.8652, 697.2286
206.3473, 715.4665
206.8294, 735.6650
207.3115, 757.9668
207.7936, 782.2709
208.2758, 808.3428
208.7579, 835.8876
209.2400, 865.8619
209.7221, 895.1641
210.2042, 925.0141
210.6863, 953.4111
211.1685, 979.8412
211.6506, 1003.887
212.1327, 1024.484
212.6148, 1039.906
213.0969, 1046.481
213.5790, 1054.952
214.0612, 1064.284
214.5433, 1075.888
215.0254, 1090.514
215.5075, 1108.373
215.9896, 1130.307
216.4717, 1157.479
216.9539, 1191.781
217.4360, 1228.415
217.9181, 1269.758
218.4002, 1312.251
218.8823, 1354.847
219.3644, 1397.219
219.8466, 1434.611
220.3287, 1460.778
220.8108, 1476.205
221.2929, 1478.744
221.7750, 1463.722
222.2571, 1437.229
222.7393, 1404.551
223.2214, 1365.908
223.7035, 1326.611
224.1856, 1291.971
224.6677, 1261.473
225.1498, 1239.065
225.6320, 1229.895
226.1141, 1228.480
226.5962, 1227.735
227.0783, 1228.428
227.5604, 1224.046
228.0425, 1207.223
228.5247, 1180.097
229.0068, 1146.689
229.4889, 1105.526
229.9710, 1059.632
230.4531, 1015.301
230.9352, 973.5159
231.4174, 932.9792
231.8995, 891.7697
232.3816, 850.7793
232.8637, 812.9586
233.3458, 779.5731
233.8279, 750.4131
234.3101, 724.3355
234.7922, 701.8091
235.2743, 682.3074
235.7564, 665.4622
236.2385, 650.9360
236.7206, 638.0363
237.2028, 626.5694
237.6849, 616.5105
238.1670, 607.5699
238.6491, 599.8934
239.1312, 593.3047
239.6133, 587.3655
240.0955, 582.2728
240.5776, 578.2808
241.0597, 575.6048
241.5418, 574.1523
242.0239, 573.5458
242.5060, 573.8943
242.9882, 575.0865
243.4703, 577.2166
243.9524, 580.0371
244.4345, 583.1360
244.9166, 586.1896
245.3987, 589.4362
245.8809, 593.9889
246.3630, 600.7838
246.8451, 607.8033
247.3272, 613.9918
247.8093, 620.3071
248.2914, 628.0967
248.7736, 638.1714
249.2557, 649.9735
249.7378, 661.1038
250.2199, 670.7571
250.7020, 680.7723
251.1841, 691.7765
251.6663, 703.0867
252.1484, 714.0554
252.6305, 724.4553
253.1126, 733.9044
253.5947, 741.4499
254.0768, 747.7098
254.5590, 750.7421
255.0411, 749.8977
255.5232, 746.0627
256.0053, 740.0237
256.4874, 732.1306
256.9695, 722.5076
257.4517, 711.4727
257.9338, 697.6166
258.4159, 683.8270
258.8980, 669.8497
259.3801, 656.0353
259.8622, 642.2518
260.3444, 628.5047
260.8265, 615.6411
261.3086, 605.3203
261.7907, 598.9880
262.2728, 593.1453
262.7549, 587.3626
263.2371, 582.2047
263.7192, 578.4769
264.2013, 576.3458
264.6834, 574.9724
265.1655, 572.9940
265.6476, 569.4561
266.1298, 567.9431
266.6119, 569.2914
267.0940, 572.2648
267.5761, 575.7770
268.0582, 579.6204
268.5403, 584.0992
269.0225, 589.5654
269.5046, 596.1640
269.9867, 603.6334
270.4688, 611.6077
270.9509, 620.6635
271.4330, 631.2166
271.9152, 643.3057
272.3973, 656.9619
272.8794, 672.1478
273.3615, 689.1281
273.8436, 707.6716
274.3257, 726.5151
274.8079, 747.9095
275.2900, 773.4305
275.7721, 803.2296
276.2542, 836.2482
276.7363, 872.0329
277.2184, 910.7868
277.7006, 952.4244
278.1827, 994.9305
278.6648, 1041.644
279.1469, 1095.945
279.6290, 1157.094
280.1111, 1220.505
280.5933, 1284.650
281.0754, 1348.565
281.5575, 1410.464
282.0396, 1473.462
282.5217, 1530.681
283.0038, 1580.647
283.4860, 1622.372
283.9681, 1650.922
284.4502, 1662.696
284.9323, 1659.797
285.4144, 1649.261
285.8965, 1629.749
286.3787, 1606.573
286.8608, 1580.970
287.3429, 1553.747
287.8250, 1527.302
288.3071, 1502.165
288.7892, 1478.617
289.2714, 1457.815
289.7535, 1440.462
290.2356, 1420.790
290.7177, 1395.927
291.1998, 1366.699
291.6819, 1335.170
292.1641, 1302.105
292.6462, 1265.887
293.1283, 1223.522
293.6104, 1175.869
294.0925, 1127.883
294.5746, 1080.023
295.0568, 1033.556
295.5389, 991.0100
296.0210, 952.8137
296.5031, 918.2662
296.9852, 886.5557
297.4673, 857.6936
297.9495, 832.7959
298.4316, 813.9932
298.9137, 798.7800
299.3958, 783.5459
299.8779, 768.0266
300.3600, 753.3536
300.8422, 740.9246
301.3243, 729.8136
301.8064, 718.7148
302.2885, 707.1717
302.7706, 695.5455
303.2527, 684.0709
303.7349, 672.6737
304.2170, 661.8303
304.6991, 651.7353
305.1812, 642.4063
305.6633, 633.8445
306.1454, 626.0840
306.6276, 619.0971
307.1097, 612.9786
307.5918, 607.7143
308.0739, 602.8278
308.5560, 598.1127
309.0381, 593.8913
309.5203, 590.3192
310.0024, 587.3621
310.4845, 585.3002
310.9666, 584.5391
311.4487, 584.9090
311.9308, 585.6074
312.4130, 586.4767
312.8951, 587.6718
313.3772, 588.9558
313.8593, 590.4371
314.3414, 593.0198
314.8235, 597.8262
315.3057, 604.0397
315.7878, 609.6357
316.2699, 614.3427
316.7520, 618.6230
317.2341, 622.5652
317.7162, 626.3232
318.1984, 630.2905
318.6805, 634.9455
319.1626, 639.7220
319.6447, 643.6771
320.1268, 646.7095
320.6089, 649.4338
321.0911, 651.8593
321.5732, 654.3051
322.0553, 657.1556
322.5374, 660.3121
323.0195, 664.2097
323.5016, 669.4332
323.9838, 676.0188
324.4659, 682.9492
324.9480, 689.4344
325.4301, 696.4342
325.9122, 705.2836
326.3943, 716.5157
326.8765, 727.5448
327.3586, 736.4704
327.8407, 743.5851
328.3228, 750.5490
328.8049, 758.6448
329.2870, 765.2728
329.7692, 767.9993
330.2513, 767.0613
330.7334, 764.0908
331.2155, 759.3895
331.6976, 753.2560
332.1797, 746.3554
332.6619, 738.7465
333.1440, 730.3868
333.6261, 720.7540
334.1082, 710.3223
334.5903, 700.0607
335.0724, 690.3469
335.5546, 680.9973
336.0367, 671.7779
336.5188, 662.7134
337.0009, 653.9376
337.4830, 645.9431
337.9651, 638.1448
338.4473, 629.5124
338.9294, 619.7449
339.4115, 609.4359
339.8936, 598.9418
340.3757, 588.2617
340.8578, 577.6213
341.3400, 566.6486
341.8221, 556.2125
342.3042, 547.5935
342.7863, 540.9921
343.2684, 534.6971
343.7505, 527.4853
344.2327, 519.9667
344.7148, 513.7252
345.1969, 509.2889
345.6790, 505.6596
346.1611, 501.7870
346.6432, 497.7205
347.1254, 493.8694
347.6075, 490.3614
348.0896, 487.1201
348.5717, 484.1465
349.0538, 481.4327
349.5359, 478.8737
350.0181, 476.4964
350.5002, 474.2060
350.9823, 471.6171
351.4644, 467.8571
351.9465, 464.5388
352.4286, 463.0819
352.9108, 463.1541
353.3929, 463.1628
353.8750, 462.3984
354.3571, 461.0345
354.8392, 459.4378
355.3214, 457.2897
355.8035, 455.6248
356.2856, 455.3217
356.7677, 455.6651
357.2498, 455.2253
357.7319, 453.4957
358.2141, 451.4673
358.6962, 450.5864
359.1783, 451.0763
359.6604, 451.2709
360.1425, 450.7369
360.6246, 449.9810
361.1068, 449.5391
361.5889, 449.4350
362.0710, 449.2322
362.5531, 448.4925
363.0352, 447.2346
363.5173, 446.4471
363.9995, 446.3080
364.4816, 446.4067
364.9637, 446.7059
365.4458, 447.0980
365.9279, 447.3657
366.4100, 447.4088
366.8922, 447.2207
367.3743, 446.7527
367.8564, 445.5344
368.3385, 444.7118
368.8206, 444.7181
369.3027, 445.0708
369.7849, 445.3120
370.2670, 445.2939
370.7491, 444.9472
371.2312, 444.1139
371.7133, 442.5001
372.1954, 441.3234
372.6776, 440.9013
373.1597, 440.6180
373.6418, 440.0703
374.1239, 439.2873
374.6060, 438.5371
375.0881, 438.0165
375.5703, 437.7276
376.0524, 437.6074
376.5345, 437.7548
377.0166, 437.9554
377.4987, 438.2949
377.9808, 438.6259
378.4630, 438.7924
378.9451, 438.7246
379.4272, 438.3693
379.9093, 437.5320
380.3914, 435.4703
380.8735, 434.1962
381.3557, 433.9074
381.8378, 434.2382
382.3199, 435.1103
382.8020, 436.4031
383.2841, 437.7881
383.7662, 438.9674
384.2484, 439.9950
384.7305, 440.4447
385.2126, 439.8121
385.6947, 439.0537
386.1768, 437.8958
386.6589, 436.8738
387.1411, 437.0770
387.6232, 439.3853
388.1053, 443.0450
388.5874, 445.2866
389.0695, 445.4317
389.5516, 445.3729
390.0338, 445.3942
390.5159, 445.5289
390.9980, 445.7911
391.4801, 446.1878
391.9622, 446.7677
392.4443, 447.5970
392.9265, 448.6808
393.4086, 449.9881
393.8907, 452.0289
394.3728, 453.7859
394.8549, 454.2512
395.3370, 453.8013
395.8192, 453.8840
396.3013, 455.6134
396.7834, 458.5825
397.2655, 461.4941
397.7476, 464.3792
398.2297, 467.1102
398.7119, 469.4015
399.1940, 471.5679
399.6761, 473.9900
400.1582, 476.7406
400.6403, 479.8197
401.1224, 483.2836
401.6046, 487.1413
402.0867, 491.0501
402.5688, 494.6645
403.0509, 498.5997
403.5330, 503.4238
404.0151, 509.1113
404.4973, 515.6329
404.9794, 523.1422
405.4615, 531.4299
405.9436, 540.0790
406.4257, 548.9454
406.9078, 558.4876
407.3900, 568.7827
407.8721, 580.0428
408.3542, 593.1187
408.8363, 608.7822
409.3184, 625.6071
409.8005, 642.1750
410.2827, 658.9756
410.7648, 677.4626
411.2469, 698.2643
411.7290, 721.0735
412.2111, 745.1913
412.6932, 769.8177
413.1754, 797.2024
413.6575, 828.8997
414.1396, 862.8593
414.6217, 897.3948
415.1038, 932.0519
415.5859, 966.9952
416.0681, 1002.486
416.5502, 1038.613
417.0323, 1074.039
417.5144, 1109.869
417.9965, 1143.977
418.4786, 1176.580
418.9608, 1206.659
419.4429, 1233.068
419.9250, 1255.247
420.4071, 1272.841
420.8892, 1285.128
421.3713, 1295.613
421.8535, 1294.022
422.3356, 1276.975
422.8177, 1251.017
423.2998, 1220.160
423.7819, 1185.443
424.2640, 1146.933
424.7462, 1104.020
425.2283, 1056.125
425.7104, 1009.879
426.1925, 965.1613
426.6746, 922.4672
427.1567, 881.9387
427.6389, 843.4633
428.1210, 806.9582
428.6031, 772.1936
429.0852, 739.9124
429.5673, 712.1073
430.0494, 689.4102
430.5316, 668.7001
431.0137, 650.0943
431.4958, 632.9630
431.9779, 617.1687
432.4600, 602.6497
432.9421, 589.4325
433.4243, 577.9443
433.9064, 567.8702
434.3885, 557.5714
434.8706, 546.4205
435.3527, 536.2563
435.8348, 528.8660
436.3170, 523.1160
436.7991, 517.0629
437.2812, 509.6891
437.7633, 502.6784
438.2454, 498.0554
438.7275, 495.4505
439.2097, 492.3503
439.6918, 487.6778
440.1739, 482.4913
440.6560, 478.4120
441.1381, 475.4373
441.6202, 472.6632
442.1024, 469.4184
442.5845, 466.4823
443.0666, 465.2133
443.5487, 465.5869
444.0308, 465.6734
444.5129, 463.8745
444.9951, 460.4517
445.4772, 457.9145
445.9593, 456.8036
446.4414, 455.8203
446.9235, 454.5928
447.4056, 453.2432
447.8878, 451.8971
448.3699, 450.6046
448.8520, 449.5121
449.3341, 448.8841
449.8162, 449.0185
450.2983, 448.7721
450.7805, 447.9667
451.2626, 447.0096
451.7447, 445.8224
452.2268, 444.6481
452.7089, 444.0404
453.1910, 444.4360
453.6732, 445.5548
454.1553, 446.2337
454.6374, 446.3978
455.1195, 446.2007
455.6016, 445.2234
456.0837, 444.2313
456.5659, 443.8620
457.0480, 444.2287
457.5301, 445.0317
458.0122, 446.0791
458.4943, 447.3676
458.9764, 448.5191
459.4586, 449.5012
459.9407, 450.3651
460.4228, 450.9846
460.9049, 451.5400
461.3870, 452.4104
461.8691, 453.9155
462.3513, 455.4760
462.8334, 456.3002
463.3155, 456.4162
463.7976, 456.5388
464.2797, 456.8493
464.7618, 457.3102
465.2440, 458.0336
465.7261, 459.0479
466.2082, 459.5552
466.6903, 458.8002
467.1724, 457.6590
467.6545, 457.1630
468.1367, 457.3862
468.6188, 458.0211
469.1009, 459.0167
469.5830, 460.2152
470.0651, 460.8394
470.5472, 460.1098
471.0294, 459.8629
471.5115, 461.0558
471.9936, 462.7798
472.4757, 463.7708
472.9578, 463.7442
473.4399, 463.5121
473.9221, 464.0341
474.4042, 465.4000
474.8863, 467.0254
475.3684, 469.5905
475.8505, 471.6822
476.3326, 472.3158
476.8148, 472.2051
477.2969, 472.4525
477.7790, 473.5728
478.2611, 475.5397
478.7432, 478.4532
479.2253, 482.7463
479.7075, 486.7283
480.1896, 489.6075
480.6717, 492.6195
481.1538, 496.2841
481.6359, 500.6820
482.1180, 505.8359
482.6002, 511.9310
483.0823, 518.7165
483.5644, 525.6536
484.0465, 532.7531
484.5286, 539.8185
485.0107, 546.0283
485.4929, 552.5631
485.9750, 560.9107
486.4571, 571.2993
486.9392, 582.8253
487.4213, 594.6790
487.9034, 607.3317
488.3856, 621.9066
488.8677, 638.7966
489.3498, 656.6044
489.8319, 673.4026
490.3140, 689.8151
490.7961, 710.3292
491.2783, 736.0880
491.7604, 764.8651
492.2425, 795.1100
492.7246, 827.8810
493.2067, 864.7822
493.6888, 906.2012
494.1710, 953.2159
494.6531, 1006.784
495.1352, 1067.010
495.6173, 1134.443
496.0994, 1206.424
496.5815, 1286.918
497.0637, 1376.559
497.5458, 1476.078
498.0279, 1586.451
498.5100, 1708.467
498.9921, 1841.196
499.4742, 1985.687
499.9564, 2144.690
500.4385, 2308.179
500.9206, 2482.437
501.4027, 2655.767
501.8848, 2828.954
502.3669, 2996.778
502.8491, 3137.755
503.3312, 3244.005
503.8133, 3311.598
504.2954, 3328.693
504.7775, 3294.423
505.2596, 3212.659
505.7418, 3070.193
506.2239, 2886.836
506.7060, 2687.907
507.1881, 2470.311
507.6702, 2257.321
508.1523, 2055.006
508.6345, 1866.607
509.1166, 1698.277
509.5987, 1550.263
510.0808, 1419.338
510.5629, 1303.223
511.0450, 1202.548
511.5272, 1114.838
512.0093, 1041.678
512.4914, 977.1150
512.9735, 920.0692
513.4556, 870.0782
513.9377, 826.9835
514.4199, 790.7098
514.9020, 758.9044
515.3841, 729.2573
515.8662, 701.7899
516.3483, 676.6531
516.8304, 654.6133
517.3126, 634.2936
517.7947, 615.1631
518.2768, 597.6807
518.7589, 582.7881
519.2410, 570.9198
519.7231, 560.8051
520.2053, 550.6146
520.6874, 540.3168
521.1695, 530.7009
521.6516, 521.8386
522.1337, 513.7834
522.6158, 506.7698
523.0980, 500.5115
523.5801, 494.1392
524.0622, 486.8651
524.5443, 479.8559
525.0264, 474.5332
525.5085, 470.6659
525.9907, 467.1823
526.4728, 463.7298
526.9549, 460.4081
527.4370, 457.4288
527.9191, 454.8379
528.4012, 452.1185
528.8834, 449.1915
529.3655, 446.1461
529.8476, 442.9010
530.3297, 439.5733
530.8118, 436.4951
531.2939, 433.8446
531.7761, 431.5212
532.2582, 429.2584
532.7403, 426.8692
533.2224, 424.9052
533.7045, 423.5036
534.1866, 422.3536
534.6688, 421.5335
535.1509, 420.8175
535.6330, 419.6321
536.1151, 417.4652
536.5972, 414.7577
537.0793, 412.6491
537.5615, 411.2193
538.0436, 410.1259
538.5257, 409.6445
539.0078, 409.1957
539.4899, 408.3056
539.9720, 406.9655
540.4542, 405.3778
540.9363, 403.2616
541.4184, 401.1519
541.9005, 399.9799
542.3826, 399.7266
542.8647, 399.4571
543.3469, 398.7385
543.8290, 397.6313
544.3111, 396.1865
544.7932, 394.0519
545.2753, 392.4496
545.7574, 391.7259
546.2396, 391.4654
546.7217, 391.6644
547.2038, 392.0657
547.6859, 391.8409
548.1680, 390.3056
548.6501, 387.8770
549.1323, 386.4564
549.6144, 386.7798
550.0965, 386.8677
550.5786, 386.3429
551.0607, 385.6579
551.5428, 385.0843
552.0250, 384.6682
552.5071, 384.3897
552.9892, 384.3701
553.4713, 384.4320
553.9534, 383.8832
554.4355, 382.5137
554.9177, 381.6342
555.3998, 382.1253
555.8819, 383.1224
556.3640, 383.5045
556.8461, 383.2286
557.3282, 382.5583
557.8104, 381.0888
558.2925, 379.5713
558.7746, 378.9955
559.2567, 379.3353
559.7388, 379.9086
560.2209, 380.3610
560.7031, 380.6718
561.1852, 380.7798
561.6673, 380.8075
562.1494, 380.4271
562.6315, 379.2855
563.1136, 378.0078
563.5958, 376.9741
564.0779, 376.2252
564.5600, 375.7038
565.0421, 375.3869
565.5242, 375.2290
566.0063, 375.0451
566.4885, 374.7313
566.9706, 374.6947
567.4527, 375.4263
567.9348, 376.1734
568.4169, 376.4560
568.8990, 376.2616
569.3812, 375.7785
569.8633, 374.9380
570.3454, 373.9560
570.8275, 373.0620
571.3096, 372.2750
571.7917, 371.7805
572.2739, 371.6657
572.7560, 371.8722
573.2381, 372.4554
573.7202, 373.7401
574.2023, 374.1351
574.6844, 372.7110
575.1666, 371.0345
575.6487, 370.1753
576.1308, 369.9736
576.6129, 369.7677
577.0950, 369.2044
577.5771, 368.5185
578.0593, 368.2485
578.5414, 368.5497
579.0235, 368.8403
579.5056, 369.3682
579.9877, 369.6141
580.4698, 369.1097
580.9520, 368.1441
581.4341, 367.4130
581.9162, 367.3245
582.3983, 367.3961
582.8804, 366.7816
583.3625, 365.5894
583.8447, 365.1323
584.3268, 365.9944
584.8089, 367.0285
585.2910, 366.9326
585.7731, 365.8323
586.2552, 365.0245
586.7374, 364.7026
587.2195, 364.6158
587.7016, 364.9064
588.1837, 365.2765
588.6658, 365.1384
589.1479, 364.3386
589.6301, 363.3490
590.1122, 362.7437
