##NAMES=Sabugalite
##RRUFFID=R080028
##IDEAL CHEMISTRY=HAl(U^6+^O_2_)_4_(PO_4_)_4_&#183;16H_2_O
##LOCALITY=Arcu su Linnarbu, Capoterra, Cagliari, Sardinia, Italy
##OWNER=RRUFF
##SOURCE=Mark N. Feinglos
##DESCRIPTION=Cluster of yellow plates, associated with R080027 bassetite.
##STATUS=The identification of this mineral has been confirmed only by single crystal X-ray diffraction.
##URL=rruff.info/R080028
93.40625, 1137.979
93.88837, 1095.833
94.37048, 1127.481
94.85260, 1217.082
95.33472, 1319.625
95.81683, 1426.750
96.29895, 1540.182
96.78107, 1664.176
97.26318, 1799.335
97.74530, 1944.764
98.22742, 2097.997
98.70953, 2259.644
99.19165, 2430.537
99.67377, 2612.117
100.1559, 2802.496
100.6380, 2993.374
101.1201, 3183.523
101.6022, 3373.339
102.0844, 3559.365
102.5665, 3742.048
103.0486, 3923.827
103.5307, 4104.232
104.0128, 4286.508
104.4949, 4462.271
104.9771, 4632.262
105.4592, 4797.284
105.9413, 4962.522
106.4234, 5119.624
106.9055, 5286.311
107.3876, 5467.624
107.8698, 5663.971
108.3519, 5878.385
108.8340, 6111.435
109.3161, 6364.736
109.7982, 6633.486
110.2803, 6933.215
110.7624, 7240.947
111.2446, 7544.232
111.7267, 7847.803
112.2088, 8145.866
112.6909, 8440.973
113.1730, 8735.229
113.6551, 9017.326
114.1373, 9286.280
114.6194, 9541.189
115.1015, 9784.468
115.5836, 10015.58
116.0657, 10234.32
116.5478, 10438.44
117.0300, 10631.05
117.5121, 10807.23
117.9942, 10959.99
118.4763, 11096.72
118.9584, 11226.41
119.4405, 11347.00
119.9227, 11467.27
120.4048, 11590.46
120.8869, 11716.89
121.3690, 11849.66
121.8511, 11994.42
122.3332, 12147.10
122.8154, 12299.10
123.2975, 12439.29
123.7796, 12578.84
124.2617, 12730.48
124.7438, 12892.75
125.2259, 13069.49
125.7081, 13267.98
126.1902, 13478.77
126.6723, 13627.40
127.1544, 13725.78
127.6365, 13825.95
128.1186, 13932.02
128.6008, 14046.92
129.0829, 14163.93
129.5650, 14273.99
130.0471, 14377.34
130.5292, 14473.78
131.0113, 14560.23
131.4935, 14638.75
131.9756, 14718.76
132.4577, 14805.04
132.9398, 14893.18
133.4219, 14967.72
133.9040, 15028.42
134.3862, 15080.85
134.8683, 15128.99
135.3504, 15172.99
135.8325, 15213.85
136.3146, 15251.10
136.7967, 15284.90
137.2789, 15319.65
137.7610, 15356.30
138.2431, 15392.14
138.7252, 15423.96
139.2073, 15451.43
139.6894, 15476.82
140.1716, 15498.57
140.6537, 15514.85
141.1358, 15544.54
141.6179, 15592.71
142.1000, 15649.96
142.5821, 15696.63
143.0643, 15727.69
143.5464, 15760.15
144.0285, 15802.87
144.5106, 15862.78
144.9927, 15913.59
145.4748, 15948.78
145.9570, 15975.78
146.4391, 16015.20
146.9212, 16077.21
147.4033, 16139.61
147.8854, 16192.49
148.3675, 16227.15
148.8497, 16265.28
149.3318, 16309.26
149.8139, 16357.20
150.2960, 16400.34
150.7781, 16436.70
151.2602, 16469.18
151.7424, 16498.92
152.2245, 16525.31
152.7066, 16549.44
153.1887, 16569.01
153.6708, 16584.39
154.1529, 16603.61
154.6351, 16633.15
155.1172, 16663.18
155.5993, 16687.08
156.0814, 16696.03
156.5635, 16707.40
157.0456, 16727.33
157.5278, 16755.75
158.0099, 16779.12
158.4920, 16788.59
158.9741, 16795.03
159.4562, 16808.15
159.9383, 16837.66
160.4205, 16867.82
160.9026, 16892.46
161.3847, 16911.00
161.8668, 16932.03
162.3489, 16960.49
162.8310, 16992.64
163.3132, 17024.08
163.7953, 17047.33
164.2774, 17073.97
164.7595, 17110.43
165.2416, 17158.00
165.7237, 17209.07
166.2059, 17265.84
166.6880, 17322.91
167.1701, 17372.14
167.6522, 17404.11
168.1343, 17430.49
168.6164, 17459.17
169.0986, 17491.27
169.5807, 17524.63
170.0628, 17558.50
170.5449, 17592.75
171.0270, 17626.84
171.5091, 17656.69
171.9913, 17688.46
172.4734, 17729.30
172.9555, 17782.33
173.4376, 17838.62
173.9197, 17889.80
174.4018, 17938.17
174.8840, 17989.43
175.3661, 18048.91
175.8482, 18111.93
176.3303, 18171.60
176.8124, 18225.68
177.2945, 18279.26
177.7767, 18336.87
178.2588, 18398.73
178.7409, 18463.62
179.2230, 18535.25
179.7051, 18609.46
180.1872, 18676.27
180.6694, 18731.57
181.1515, 18784.50
181.6336, 18850.27
182.1157, 18926.81
182.5978, 18999.04
183.0799, 19048.88
183.5621, 19086.37
184.0442, 19138.86
184.5263, 19215.87
185.0084, 19305.06
185.4905, 19387.39
185.9726, 19462.80
186.4547, 19538.97
186.9369, 19625.09
187.4190, 19718.60
187.9011, 19803.75
188.3832, 19875.11
188.8653, 19939.96
189.3474, 20014.99
189.8296, 20101.23
190.3117, 20191.25
190.7938, 20282.57
191.2759, 20374.34
191.7580, 20458.51
192.2401, 20534.22
192.7223, 20601.66
193.2044, 20663.59
193.6865, 20721.21
194.1686, 20768.01
194.6507, 20795.92
195.1328, 20805.37
195.6150, 20807.39
196.0971, 20804.53
196.5792, 20795.57
197.0613, 20774.37
197.5434, 20739.30
198.0255, 20698.93
198.5077, 20662.22
198.9898, 20629.12
199.4719, 20595.16
199.9540, 20560.78
200.4361, 20525.01
200.9182, 20477.89
201.4004, 20415.75
201.8825, 20354.85
202.3646, 20314.25
202.8467, 20297.13
203.3288, 20277.86
203.8109, 20248.80
204.2931, 20211.82
204.7752, 20184.04
205.2573, 20169.06
205.7394, 20154.88
206.2215, 20125.24
206.7036, 20075.59
207.1858, 20036.12
207.6679, 20016.35
208.1500, 20014.89
208.6321, 20010.96
209.1142, 20003.83
209.5963, 19995.48
210.0785, 19987.81
210.5606, 19980.86
211.0427, 19974.71
211.5248, 19969.85
212.0069, 19966.26
212.4890, 19960.94
212.9712, 19952.92
213.4533, 19944.93
213.9354, 19941.56
214.4175, 19946.33
214.8996, 19944.91
215.3817, 19931.87
215.8639, 19907.23
216.3460, 19887.75
216.8281, 19875.89
217.3102, 19865.52
217.7923, 19848.70
218.2744, 19820.88
218.7566, 19797.67
219.2387, 19784.15
219.7208, 19780.36
220.2029, 19774.94
220.6850, 19767.95
221.1671, 19759.21
221.6493, 19748.11
222.1314, 19732.67
222.6135, 19719.41
223.0956, 19711.78
223.5777, 19710.21
224.0598, 19700.49
224.5420, 19675.81
225.0241, 19650.53
225.5062, 19642.01
225.9883, 19662.42
226.4704, 19673.75
226.9525, 19665.62
227.4347, 19637.03
227.9168, 19610.55
228.3989, 19584.89
228.8810, 19562.69
229.3631, 19547.74
229.8452, 19543.63
230.3274, 19539.55
230.8095, 19533.90
231.2916, 19526.77
231.7737, 19516.54
232.2558, 19501.06
232.7379, 19484.82
233.2201, 19472.68
233.7022, 19466.32
234.1843, 19460.57
234.6664, 19451.96
235.1485, 19440.32
235.6306, 19443.04
236.1128, 19469.61
236.5949, 19500.76
237.0770, 19517.36
237.5591, 19509.77
238.0412, 19506.21
238.5233, 19513.04
239.0055, 19530.33
239.4876, 19544.39
239.9697, 19552.79
240.4518, 19560.89
240.9339, 19574.09
241.4160, 19596.88
241.8982, 19615.81
242.3803, 19626.59
242.8624, 19629.63
243.3445, 19638.81
243.8266, 19656.99
244.3087, 19677.99
244.7909, 19696.57
245.2730, 19710.77
245.7551, 19725.82
246.2372, 19741.31
246.7193, 19757.37
247.2014, 19779.34
247.6836, 19812.46
248.1657, 19844.38
248.6478, 19863.28
249.1299, 19857.81
249.6120, 19864.98
250.0941, 19896.89
250.5762, 19948.47
251.0584, 19976.59
251.5405, 19969.31
252.0226, 19954.67
252.5047, 19952.26
252.9868, 19967.22
253.4689, 19983.64
253.9511, 20002.56
254.4332, 20022.71
254.9153, 20034.82
255.3974, 20036.76
255.8795, 20034.86
256.3617, 20030.66
256.8438, 20017.32
257.3259, 20021.08
257.8080, 20050.38
258.2901, 20097.78
258.7722, 20134.44
259.2544, 20154.65
259.7365, 20173.50
260.2186, 20201.09
260.7007, 20242.29
261.1828, 20275.29
261.6649, 20296.35
262.1471, 20308.59
262.6292, 20321.80
263.1113, 20334.27
263.5934, 20350.09
264.0755, 20371.92
264.5576, 20401.87
265.0398, 20430.40
265.5219, 20457.57
266.0040, 20483.25
266.4861, 20507.35
266.9682, 20528.85
267.4503, 20551.70
267.9325, 20578.70
268.4146, 20612.79
268.8967, 20640.35
269.3788, 20659.44
269.8609, 20674.51
270.3430, 20693.33
270.8252, 20716.71
271.3073, 20741.20
271.7894, 20764.28
272.2715, 20785.35
272.7536, 20810.84
273.2357, 20841.94
273.7179, 20874.73
274.2000, 20903.92
274.6821, 20928.78
275.1642, 20950.94
275.6463, 20968.64
276.1284, 20981.73
276.6106, 21004.86
277.0927, 21042.20
277.5748, 21080.39
278.0569, 21098.87
278.5390, 21094.60
279.0211, 21096.89
279.5032, 21117.47
279.9854, 21153.93
280.4675, 21185.29
280.9496, 21211.56
281.4317, 21233.47
281.9138, 21247.57
282.3959, 21253.29
282.8781, 21271.63
283.3602, 21316.35
283.8423, 21376.97
284.3244, 21402.27
284.8065, 21387.89
285.2886, 21366.76
285.7708, 21369.29
286.2529, 21394.19
286.7350, 21419.29
287.2171, 21440.03
287.6992, 21457.72
288.1813, 21475.87
288.6635, 21494.47
289.1456, 21512.22
289.6277, 21530.85
290.1098, 21548.94
290.5919, 21556.13
291.0740, 21548.46
291.5562, 21532.51
292.0383, 21519.48
292.5204, 21509.27
293.0025, 21502.41
293.4846, 21501.82
293.9667, 21505.45
294.4489, 21507.21
294.9310, 21508.27
295.4131, 21503.35
295.8952, 21478.57
296.3773, 21437.60
296.8594, 21402.18
297.3416, 21386.60
297.8237, 21385.17
298.3058, 21386.43
298.7879, 21390.44
299.2700, 21393.40
299.7521, 21390.57
300.2343, 21382.83
300.7164, 21373.20
301.1985, 21359.85
301.6806, 21346.18
302.1627, 21335.71
302.6448, 21327.86
303.1270, 21328.61
303.6091, 21350.54
304.0912, 21384.68
304.5733, 21413.63
305.0554, 21426.71
305.5375, 21432.55
306.0197, 21438.65
306.5018, 21445.04
306.9839, 21454.13
307.4660, 21474.55
307.9481, 21497.05
308.4302, 21507.92
308.9124, 21494.07
309.3945, 21476.11
309.8766, 21469.21
310.3587, 21472.58
310.8408, 21482.12
311.3229, 21504.28
311.8051, 21527.70
312.2872, 21538.98
312.7693, 21527.44
313.2514, 21516.44
313.7335, 21521.51
314.2156, 21538.41
314.6978, 21554.70
315.1799, 21563.49
315.6620, 21570.17
316.1441, 21577.95
316.6262, 21586.94
317.1083, 21597.89
317.5905, 21611.67
318.0726, 21627.23
318.5547, 21643.11
319.0368, 21663.74
319.5189, 21680.30
320.0010, 21687.03
320.4832, 21681.75
320.9653, 21675.86
321.4474, 21673.80
321.9295, 21672.60
322.4116, 21668.81
322.8937, 21655.97
323.3759, 21646.45
323.8580, 21645.24
324.3401, 21653.08
324.8222, 21660.88
325.3043, 21669.98
325.7864, 21677.37
326.2686, 21680.73
326.7507, 21666.43
327.2328, 21662.89
327.7149, 21679.45
328.1970, 21713.65
328.6791, 21740.71
329.1613, 21755.85
329.6434, 21766.78
330.1255, 21777.22
330.6076, 21787.24
331.0897, 21796.22
331.5718, 21801.77
332.0540, 21806.24
332.5361, 21817.82
333.0182, 21849.57
333.5003, 21871.31
333.9824, 21866.17
334.4645, 21816.30
334.9467, 21796.25
335.4288, 21820.09
335.9109, 21864.11
336.3930, 21887.46
336.8751, 21879.76
337.3572, 21876.58
337.8394, 21891.15
338.3215, 21924.53
338.8036, 21948.23
339.2857, 21959.54
339.7678, 21965.97
340.2499, 21975.69
340.7321, 21988.97
341.2142, 22002.73
341.6963, 22015.77
342.1784, 22028.63
342.6605, 22044.83
343.1426, 22065.03
343.6248, 22084.19
344.1069, 22096.45
344.5890, 22101.96
345.0711, 22111.14
345.5532, 22126.89
346.0353, 22144.72
346.5175, 22154.75
346.9996, 22157.08
347.4817, 22156.55
347.9638, 22151.81
348.4459, 22145.93
348.9280, 22152.89
349.4102, 22176.19
349.8923, 22201.87
350.3744, 22209.43
350.8565, 22203.00
351.3386, 22198.58
351.8207, 22204.87
352.3029, 22217.71
352.7850, 22232.96
353.2671, 22250.84
353.7492, 22263.91
354.2313, 22260.36
354.7134, 22248.44
355.1956, 22242.57
355.6777, 22249.11
356.1598, 22262.64
356.6419, 22281.05
357.1240, 22303.42
357.6061, 22324.24
358.0883, 22343.28
358.5704, 22357.86
359.0525, 22363.40
359.5346, 22353.04
360.0167, 22345.33
360.4988, 22350.97
360.9810, 22366.89
361.4631, 22386.64
361.9452, 22414.66
362.4273, 22439.75
362.9094, 22452.40
363.3915, 22447.26
363.8737, 22448.73
364.3558, 22472.45
364.8379, 22504.14
365.3200, 22527.10
365.8021, 22532.92
366.2842, 22534.08
366.7664, 22531.62
367.2485, 22525.75
367.7306, 22524.85
368.2127, 22534.85
368.6948, 22547.69
369.1769, 22558.21
369.6591, 22564.58
370.1412, 22571.58
370.6233, 22582.75
371.1054, 22595.54
371.5875, 22598.79
372.0696, 22579.02
372.5518, 22566.11
373.0339, 22574.46
373.5160, 22614.65
373.9981, 22645.75
374.4802, 22665.90
374.9623, 22678.70
375.4445, 22689.25
375.9266, 22697.18
376.4087, 22703.75
376.8908, 22708.34
377.3729, 22711.06
377.8550, 22717.27
378.3372, 22726.82
378.8193, 22740.04
379.3014, 22757.81
379.7835, 22780.45
380.2656, 22804.33
380.7477, 22830.04
381.2299, 22855.14
381.7120, 22873.37
382.1941, 22884.37
382.6762, 22892.48
383.1583, 22896.23
383.6404, 22898.40
384.1226, 22911.73
384.6047, 22939.28
385.0868, 22971.02
385.5689, 22998.14
386.0510, 23019.85
386.5331, 23033.54
387.0153, 23033.38
387.4974, 23026.82
387.9795, 23024.36
388.4616, 23026.37
388.9437, 23030.07
389.4258, 23029.86
389.9080, 23031.28
390.3901, 23042.67
390.8722, 23072.40
391.3543, 23106.40
391.8364, 23137.25
392.3185, 23164.31
392.8007, 23186.24
393.2828, 23195.56
393.7649, 23203.59
394.2470, 23218.28
394.7291, 23242.33
395.2112, 23267.89
395.6934, 23290.71
396.1755, 23313.05
396.6576, 23338.52
397.1397, 23373.48
397.6218, 23405.95
398.1039, 23430.99
398.5861, 23447.70
399.0682, 23464.93
399.5503, 23483.96
400.0324, 23503.82
400.5145, 23523.71
400.9966, 23543.66
401.4788, 23564.41
401.9609, 23586.96
402.4430, 23610.77
402.9251, 23633.48
403.4072, 23656.49
403.8893, 23676.74
404.3714, 23693.76
404.8535, 23709.38
405.3357, 23712.97
405.8178, 23700.18
406.2999, 23680.75
406.7820, 23669.43
407.2641, 23667.85
407.7462, 23664.51
408.2284, 23656.66
408.7105, 23644.37
409.1926, 23626.45
409.6747, 23602.52
410.1568, 23576.34
410.6389, 23548.95
411.1211, 23521.61
411.6032, 23499.16
412.0853, 23481.90
412.5674, 23471.31
413.0495, 23470.98
413.5316, 23479.74
414.0138, 23490.94
414.4959, 23502.47
414.9780, 23513.76
415.4601, 23522.44
415.9422, 23528.08
416.4243, 23536.12
416.9065, 23551.59
417.3886, 23571.94
417.8707, 23593.28
418.3528, 23618.77
418.8349, 23640.27
419.3170, 23648.05
419.7992, 23645.57
420.2813, 23649.13
420.7634, 23672.42
421.2455, 23699.72
421.7276, 23720.36
422.2097, 23730.46
422.6919, 23739.47
423.1740, 23749.44
423.6561, 23759.85
424.1382, 23770.13
424.6203, 23778.45
425.1024, 23788.21
425.5846, 23802.01
426.0667, 23820.30
426.5488, 23833.61
427.0309, 23842.29
427.5130, 23845.77
427.9951, 23841.98
428.4773, 23821.76
428.9594, 23814.88
429.4415, 23826.61
429.9236, 23851.51
430.4057, 23878.17
430.8878, 23909.60
431.3700, 23933.71
431.8521, 23942.84
432.3342, 23937.19
432.8163, 23937.66
433.2984, 23946.40
433.7805, 23954.66
434.2627, 23946.92
434.7448, 23925.87
435.2269, 23918.53
435.7090, 23934.46
436.1911, 23965.19
436.6732, 23999.81
437.1554, 24036.75
437.6375, 24063.20
438.1196, 24058.71
438.6017, 24041.15
439.0838, 24040.94
439.5659, 24063.39
440.0481, 24092.34
440.5302, 24120.41
441.0123, 24144.82
441.4944, 24160.98
441.9765, 24158.64
442.4586, 24154.65
442.9408, 24160.10
443.4229, 24174.20
443.9050, 24188.61
444.3871, 24206.79
444.8692, 24219.82
445.3513, 24220.39
445.8335, 24196.68
446.3156, 24179.98
446.7977, 24179.33
447.2798, 24188.68
447.7619, 24197.48
448.2440, 24202.87
448.7262, 24209.76
449.2083, 24219.01
449.6904, 24230.66
450.1725, 24244.20
450.6546, 24260.71
451.1367, 24277.57
451.6189, 24293.52
452.1010, 24309.99
452.5831, 24320.21
453.0652, 24320.85
453.5473, 24317.96
454.0294, 24327.80
454.5116, 24352.52
454.9937, 24373.06
455.4758, 24377.06
455.9579, 24368.47
456.4400, 24370.80
456.9221, 24384.69
457.4043, 24402.20
457.8864, 24416.84
458.3685, 24428.79
458.8506, 24439.29
459.3327, 24448.14
459.8148, 24455.84
460.2970, 24462.65
460.7791, 24468.73
461.2612, 24474.51
461.7433, 24482.27
462.2254, 24488.76
462.7076, 24488.32
463.1897, 24479.58
463.6718, 24477.79
464.1539, 24500.83
464.6360, 24530.84
465.1181, 24549.70
465.6003, 24529.73
466.0824, 24523.30
466.5645, 24557.81
467.0466, 24619.98
467.5287, 24658.67
468.0108, 24647.13
468.4930, 24629.65
468.9751, 24620.22
469.4572, 24618.41
469.9393, 24626.05
470.4214, 24649.69
470.9035, 24676.20
471.3857, 24689.49
471.8678, 24682.90
472.3499, 24684.02
472.8320, 24699.94
473.3141, 24726.00
473.7962, 24748.69
474.2784, 24769.04
474.7605, 24780.10
475.2426, 24770.70
475.7247, 24746.04
476.2068, 24739.29
476.6889, 24753.84
477.1711, 24773.52
477.6532, 24777.85
478.1353, 24772.70
478.6174, 24774.49
479.0995, 24792.33
479.5816, 24814.92
480.0638, 24829.68
480.5459, 24837.98
481.0280, 24845.18
481.5101, 24852.75
481.9922, 24860.80
482.4743, 24870.21
482.9565, 24881.76
483.4386, 24889.28
483.9207, 24885.56
484.4028, 24878.41
484.8849, 24876.10
485.3670, 24884.72
485.8492, 24893.94
486.3313, 24905.09
486.8134, 24916.82
487.2955, 24921.30
487.7776, 24913.27
488.2597, 24905.32
488.7419, 24902.07
489.2240, 24903.77
489.7061, 24911.02
490.1882, 24925.83
490.6703, 24943.50
491.1524, 24958.91
491.6346, 24971.71
492.1167, 24984.32
492.5988, 24997.92
493.0809, 25010.36
493.5630, 25014.57
494.0451, 25010.56
494.5273, 25007.01
495.0094, 25011.74
495.4915, 25019.88
495.9736, 25018.29
496.4557, 25005.70
496.9378, 24994.62
497.4200, 25001.85
497.9021, 25016.74
498.3842, 25022.14
498.8663, 25006.37
499.3484, 24989.88
499.8305, 24988.51
500.3127, 24997.04
500.7948, 25001.79
501.2769, 24995.97
501.7590, 24987.23
502.2411, 24979.91
502.7232, 24975.17
503.2054, 24965.54
503.6875, 24941.86
504.1696, 24918.12
504.6517, 24905.20
505.1338, 24912.70
505.6159, 24913.46
506.0981, 24903.98
506.5802, 24887.31
507.0623, 24869.26
507.5444, 24847.15
508.0265, 24831.47
508.5086, 24830.00
508.9908, 24839.61
509.4729, 24833.39
509.9550, 24810.20
510.4371, 24781.12
510.9192, 24751.82
511.4013, 24724.36
511.8835, 24708.66
512.3655, 24709.08
512.8477, 24712.95
513.3298, 24706.69
513.8119, 24692.75
514.2940, 24676.61
514.7761, 24658.21
515.2582, 24640.95
515.7404, 24627.53
516.2225, 24617.71
516.7046, 24609.10
517.1867, 24607.80
517.6688, 24602.28
518.1509, 24581.48
518.6331, 24530.02
519.1152, 24496.60
519.5973, 24507.14
520.0794, 24532.47
520.5615, 24535.22
521.0436, 24495.66
521.5258, 24462.96
522.0079, 24445.14
522.4900, 24439.69
522.9721, 24435.79
523.4542, 24433.49
523.9363, 24432.29
524.4185, 24434.45
524.9006, 24439.98
525.3827, 24437.46
525.8648, 24427.82
526.3469, 24407.61
526.8290, 24359.97
527.3112, 24296.16
527.7933, 24261.37
528.2754, 24278.23
528.7575, 24306.83
529.2396, 24299.55
529.7217, 24264.56
530.2039, 24225.88
530.6860, 24186.83
531.1681, 24154.95
531.6502, 24138.38
532.1323, 24136.76
532.6144, 24132.29
533.0966, 24112.20
533.5787, 24089.68
534.0608, 24073.89
534.5429, 24070.96
535.0250, 24066.58
535.5071, 24060.81
535.9893, 24052.35
536.4714, 24039.06
536.9535, 24018.72
537.4356, 23998.25
537.9177, 23979.89
538.3998, 23963.00
538.8820, 23944.94
539.3641, 23926.99
539.8462, 23903.84
540.3283, 23867.59
540.8104, 23821.43
541.2925, 23788.69
541.7747, 23771.96
542.2568, 23759.16
542.7389, 23738.40
543.2210, 23711.63
543.7031, 23682.87
544.1852, 23651.20
544.6674, 23621.56
545.1495, 23603.30
545.6316, 23591.36
546.1137, 23572.96
546.5958, 23537.28
547.0779, 23498.13
547.5601, 23459.23
548.0422, 23420.76
548.5243, 23393.98
549.0064, 23388.04
549.4885, 23389.64
549.9706, 23391.29
550.4528, 23399.63
550.9349, 23393.91
551.4170, 23368.33
551.8991, 23332.62
552.3812, 23301.46
552.8633, 23276.71
553.3455, 23248.05
553.8276, 23211.90
554.3097, 23170.74
554.7918, 23129.62
555.2739, 23089.33
555.7560, 23057.10
556.2382, 23047.96
556.7203, 23048.55
557.2024, 23025.98
557.6845, 22978.44
558.1666, 22927.24
558.6487, 22885.38
559.1309, 22852.53
559.6130, 22830.97
560.0951, 22829.80
560.5772, 22822.67
561.0593, 22789.14
561.5414, 22742.07
562.0236, 22704.72
562.5057, 22692.50
562.9878, 22679.70
563.4699, 22658.98
563.9520, 22630.90
564.4341, 22600.88
564.9163, 22567.62
565.3984, 22533.79
565.8805, 22498.59
566.3626, 22459.72
566.8447, 22434.24
567.3268, 22425.66
567.8090, 22419.49
568.2911, 22398.75
568.7732, 22364.71
569.2553, 22329.88
569.7374, 22295.59
570.2195, 22263.49
570.7017, 22234.93
571.1838, 22209.48
571.6659, 22186.19
572.1480, 22171.59
572.6301, 22153.54
573.1122, 22119.36
573.5944, 22070.32
574.0765, 22021.02
574.5586, 21974.87
575.0407, 21932.88
575.5228, 21895.70
576.0049, 21865.26
576.4871, 21835.51
576.9692, 21806.99
577.4513, 21778.13
577.9334, 21746.53
578.4155, 21710.92
578.8976, 21677.79
579.3798, 21651.06
579.8619, 21624.99
580.3440, 21580.58
580.8261, 21515.62
581.3082, 21464.33
581.7903, 21449.29
582.2725, 21456.60
582.7546, 21446.96
583.2367, 21421.19
583.7188, 21388.27
584.2009, 21348.08
584.6830, 21307.65
585.1652, 21279.22
585.6473, 21266.54
586.1294, 21248.95
586.6115, 21203.14
587.0936, 21150.33
587.5757, 21113.46
588.0579, 21113.96
588.5400, 21111.87
589.0221, 21105.85
589.5042, 21091.39
589.9863, 21057.70
