##NAMES=Sabugalite
##RRUFFID=R080028
##IDEAL CHEMISTRY=HAl(U^6+^O_2_)_4_(PO_4_)_4_&#183;16H_2_O
##LOCALITY=Arcu su Linnarbu, Capoterra, Cagliari, Sardinia, Italy
##OWNER=RRUFF
##SOURCE=Mark N. Feinglos
##DESCRIPTION=Cluster of yellow plates, associated with R080027 bassetite.
##STATUS=The identification of this mineral has been confirmed only by single crystal X-ray diffraction.
##URL=rruff.info/R080028
94.51007, 0.0000000E+00
94.99219, 1361.204
95.47430, 1364.612
95.95642, 1371.314
96.43854, 1380.191
96.92065, 1389.086
97.40277, 1391.304
97.88489, 1388.045
98.36700, 1382.964
98.84912, 1374.664
99.33124, 1365.613
99.81335, 1358.323
100.2955, 1353.763
100.7776, 1350.429
101.2597, 1345.335
101.7418, 1335.126
102.2239, 1325.095
102.7061, 1316.572
103.1882, 1309.266
103.6703, 1301.981
104.1524, 1293.286
104.6345, 1285.256
105.1166, 1280.935
105.5988, 1281.148
106.0809, 1282.896
106.5630, 1283.891
107.0451, 1284.111
107.5272, 1283.404
108.0093, 1281.078
108.4915, 1277.972
108.9736, 1274.578
109.4557, 1271.044
109.9378, 1267.273
110.4199, 1263.127
110.9020, 1258.998
111.3842, 1253.629
111.8663, 1246.442
112.3484, 1237.973
112.8305, 1229.193
113.3126, 1221.013
113.7947, 1213.458
114.2769, 1202.492
114.7590, 1186.293
115.2411, 1168.702
115.7232, 1151.435
116.2053, 1134.143
116.6874, 1115.088
117.1696, 1091.976
117.6517, 1063.349
118.1338, 1037.273
118.6159, 1014.551
119.0980, 993.7361
119.5801, 973.6702
120.0623, 954.1825
120.5444, 935.1290
121.0265, 915.9865
121.5086, 896.4474
121.9907, 878.8806
122.4728, 865.8876
122.9550, 855.5451
123.4371, 842.4772
123.9192, 823.3089
124.4013, 803.5505
124.8834, 789.2753
125.3655, 780.6117
125.8476, 774.0953
126.3298, 767.5348
126.8119, 761.0218
127.2940, 753.8364
127.7761, 744.1746
128.2582, 734.7284
128.7404, 727.3132
129.2225, 722.4084
129.7046, 718.8634
130.1867, 714.4393
130.6688, 707.4844
131.1509, 703.0000
131.6331, 703.2452
132.1152, 705.0993
132.5973, 705.6222
133.0794, 703.3772
133.5615, 699.0426
134.0436, 695.4812
134.5258, 692.3006
135.0079, 690.4188
135.4900, 690.8474
135.9721, 692.6230
136.4542, 694.1675
136.9363, 694.4548
137.4185, 693.5428
137.9006, 692.6129
138.3827, 691.1295
138.8648, 690.0953
139.3469, 689.9867
139.8290, 690.7840
140.3112, 692.2744
140.7933, 694.6823
141.2754, 697.7897
141.7575, 699.8264
142.2396, 699.2523
142.7217, 698.2806
143.2039, 699.7234
143.6860, 704.2787
144.1681, 708.8552
144.6502, 710.5767
145.1323, 710.3463
145.6144, 709.8757
146.0966, 709.2057
146.5787, 708.7388
147.0608, 710.0280
147.5429, 714.5817
148.0250, 718.9015
148.5071, 720.8410
148.9893, 720.9203
149.4714, 720.6693
149.9535, 720.9967
150.4356, 721.8751
150.9177, 723.6909
151.3998, 727.1086
151.8820, 731.0155
152.3641, 735.4718
152.8462, 740.2365
153.3283, 744.6721
153.8104, 748.0762
154.2925, 750.2334
154.7747, 751.7977
155.2568, 751.7284
155.7389, 751.9272
156.2210, 753.6051
156.7031, 756.9835
157.1852, 761.4791
157.6673, 766.2872
158.1495, 772.4311
158.6316, 776.8967
159.1137, 778.4320
159.5958, 778.9057
160.0779, 779.7763
160.5600, 781.4950
161.0422, 784.5059
161.5243, 790.3094
162.0064, 800.5944
162.4885, 809.3804
162.9706, 813.9477
163.4527, 816.1804
163.9349, 819.9175
164.4170, 826.9827
164.8991, 835.7631
165.3812, 842.9811
165.8633, 847.9852
166.3454, 853.5996
166.8276, 861.3966
167.3097, 871.2291
167.7918, 882.2816
168.2739, 894.4904
168.7560, 907.6989
169.2381, 921.5455
169.7203, 935.9520
170.2024, 951.0412
170.6845, 967.0841
171.1666, 984.0755
171.6487, 1001.699
172.1308, 1020.363
172.6130, 1039.319
173.0951, 1057.795
173.5772, 1075.436
174.0593, 1093.133
174.5414, 1112.957
175.0235, 1136.528
175.5057, 1158.648
175.9878, 1177.262
176.4699, 1194.561
176.9520, 1212.680
177.4341, 1232.530
177.9162, 1253.737
178.3984, 1275.447
178.8805, 1297.784
179.3626, 1320.528
179.8447, 1344.209
180.3268, 1368.190
180.8089, 1391.696
181.2911, 1414.108
181.7732, 1435.898
182.2553, 1460.141
182.7374, 1490.662
183.2195, 1519.527
183.7016, 1543.453
184.1838, 1564.758
184.6659, 1587.522
185.1480, 1614.315
185.6301, 1644.946
186.1122, 1677.015
186.5943, 1713.188
187.0765, 1747.612
187.5586, 1776.685
188.0407, 1801.652
188.5228, 1827.103
189.0049, 1856.133
189.4870, 1888.117
189.9692, 1918.995
190.4513, 1949.406
190.9334, 1978.259
191.4155, 2005.608
191.8976, 2031.204
192.3797, 2053.225
192.8619, 2069.152
193.3440, 2080.311
193.8261, 2091.154
194.3082, 2105.232
194.7903, 2117.056
195.2724, 2120.618
195.7546, 2115.479
196.2367, 2105.181
196.7188, 2090.367
197.2009, 2071.904
197.6830, 2049.934
198.1651, 2023.257
198.6473, 1994.002
199.1294, 1965.819
199.6115, 1939.568
200.0936, 1912.284
200.5757, 1881.123
201.0578, 1848.488
201.5400, 1817.203
202.0221, 1788.816
202.5042, 1762.654
202.9863, 1736.147
203.4684, 1708.146
203.9505, 1682.143
204.4327, 1659.183
204.9148, 1638.478
205.3969, 1618.828
205.8790, 1599.421
206.3611, 1580.542
206.8432, 1563.331
207.3254, 1549.838
207.8075, 1535.618
208.2896, 1519.613
208.7717, 1502.339
209.2538, 1484.294
209.7359, 1465.752
210.2181, 1446.851
210.7002, 1429.580
211.1823, 1416.019
211.6644, 1402.017
212.1465, 1387.147
212.6286, 1371.253
213.1108, 1354.080
213.5929, 1335.345
214.0750, 1315.159
214.5571, 1295.783
215.0392, 1277.627
215.5213, 1259.621
216.0035, 1241.552
216.4856, 1223.466
216.9677, 1205.973
217.4498, 1189.611
217.9319, 1174.220
218.4140, 1155.810
218.8962, 1130.894
219.3783, 1107.366
219.8604, 1089.434
220.3425, 1075.644
220.8246, 1061.164
221.3067, 1042.576
221.7889, 1020.605
222.2710, 1000.532
222.7531, 982.7253
223.2352, 966.2091
223.7173, 951.0488
224.1994, 936.9683
224.6816, 922.5591
225.1637, 906.8131
225.6458, 890.1120
226.1279, 874.0859
226.6100, 859.4707
227.0921, 844.8037
227.5743, 828.7712
228.0564, 811.5859
228.5385, 794.7875
229.0206, 779.6443
229.5027, 765.3260
229.9848, 750.2706
230.4670, 733.7113
230.9491, 717.1904
231.4312, 702.0846
231.9133, 688.3688
232.3954, 674.9601
232.8775, 660.8296
233.3597, 647.1216
233.8418, 635.5732
234.3239, 626.9562
234.8060, 619.1559
235.2881, 609.5361
235.7702, 597.7936
236.2524, 587.0831
236.7345, 579.4512
237.2166, 573.0941
237.6987, 566.8026
238.1808, 560.4506
238.6629, 553.5902
239.1451, 544.9070
239.6272, 533.5861
240.1093, 524.7414
240.5914, 521.8874
241.0735, 521.0954
241.5556, 520.1779
242.0378, 518.6222
242.5199, 516.4031
243.0020, 513.1089
243.4841, 508.2041
243.9662, 504.2987
244.4483, 502.3425
244.9305, 501.1892
245.4126, 500.1647
245.8947, 499.1190
246.3768, 498.3004
246.8589, 498.1759
247.3410, 499.0908
247.8232, 499.6111
248.3053, 499.3187
248.7874, 498.8302
249.2695, 498.5407
249.7516, 498.5071
250.2337, 498.4865
250.7159, 498.0816
251.1980, 496.9979
251.6801, 496.3595
252.1622, 497.0804
252.6443, 497.5291
253.1264, 496.2841
253.6086, 493.4454
254.0907, 490.6025
254.5728, 490.0879
255.0549, 493.5921
255.5370, 494.1357
256.0191, 488.9623
256.5013, 483.5937
256.9834, 481.0158
257.4655, 481.4276
257.9476, 483.2632
258.4297, 484.8821
258.9118, 486.2058
259.3940, 487.6378
259.8761, 489.7967
260.3582, 491.5156
260.8403, 491.9512
261.3224, 491.2603
261.8045, 490.2911
262.2867, 489.8084
262.7688, 489.8451
263.2509, 490.2332
263.7330, 490.7796
264.2151, 491.7529
264.6972, 493.6996
265.1794, 496.3027
265.6615, 498.5692
266.1436, 499.6074
266.6257, 499.3500
267.1078, 499.5240
267.5899, 499.8873
268.0721, 500.8017
268.5542, 502.8313
269.0363, 505.6131
269.5184, 508.0669
270.0005, 509.2758
270.4826, 509.4238
270.9648, 511.1813
271.4469, 516.3510
271.9290, 520.8809
272.4111, 522.7278
272.8932, 522.7131
273.3753, 522.9610
273.8575, 524.7487
274.3396, 527.7165
274.8217, 529.9957
275.3038, 530.8466
275.7859, 531.9965
276.2680, 534.2253
276.7502, 537.1239
277.2323, 539.6940
277.7144, 541.2973
278.1965, 542.6014
278.6786, 545.9044
279.1607, 552.5406
279.6429, 558.3043
280.1250, 561.6494
280.6071, 563.4280
281.0892, 565.0341
281.5713, 566.9088
282.0534, 569.0603
282.5356, 571.7177
283.0177, 575.2566
283.4998, 578.0299
283.9819, 578.5698
284.4640, 578.3564
284.9461, 580.3143
285.4283, 585.6445
285.9104, 591.1698
286.3925, 591.6563
286.8746, 586.7225
287.3567, 582.5520
287.8388, 580.8885
288.3210, 580.4586
288.8031, 580.1440
289.2852, 579.8984
289.7673, 578.3771
290.2494, 573.3488
290.7315, 565.0197
291.2137, 557.7220
291.6958, 553.1796
292.1779, 549.3674
292.6600, 544.2581
293.1421, 537.6669
293.6242, 529.9915
294.1064, 520.9930
294.5885, 511.0187
295.0706, 502.1559
295.5527, 495.3002
296.0348, 489.1484
296.5169, 482.7695
296.9991, 476.1446
297.4812, 469.1132
297.9633, 461.2983
298.4454, 453.0884
298.9275, 445.6664
299.4096, 439.4529
299.8918, 433.6010
300.3739, 427.6760
300.8560, 421.6457
301.3381, 415.2935
301.8202, 408.1060
302.3023, 400.8751
302.7845, 394.9975
303.2666, 390.9417
303.7487, 387.1794
304.2308, 382.8126
304.7129, 378.0475
305.1950, 373.4741
305.6772, 369.0478
306.1593, 365.2775
306.6414, 363.1549
307.1235, 362.8617
307.6056, 362.1470
308.0877, 359.7378
308.5699, 356.2143
309.0520, 352.9604
309.5341, 350.3834
310.0162, 347.8041
310.4983, 343.8458
310.9804, 338.7664
311.4626, 335.1980
311.9447, 335.2412
312.4268, 336.8705
312.9089, 336.9553
313.3910, 335.0195
313.8731, 332.3608
314.3553, 329.6498
314.8374, 327.0158
315.3195, 324.9251
315.8016, 323.9540
316.2837, 323.2833
316.7658, 322.0743
317.2480, 320.3055
317.7301, 318.2215
318.2122, 315.7517
318.6943, 313.1077
319.1764, 310.8100
319.6585, 309.0039
320.1407, 307.4217
320.6228, 305.7831
321.1049, 304.1426
321.5870, 302.9117
322.0691, 302.4402
322.5512, 302.3585
323.0334, 302.0272
323.5155, 301.4955
323.9976, 300.6084
324.4797, 298.7721
324.9618, 296.4485
325.4439, 295.3474
325.9261, 296.5139
326.4082, 297.9399
326.8903, 296.4077
327.3724, 291.9322
327.8545, 288.4286
328.3366, 287.8964
328.8188, 289.0446
329.3009, 289.8667
329.7830, 290.0828
330.2651, 289.8507
330.7472, 289.1507
331.2293, 288.0641
331.7115, 287.0021
332.1936, 285.4354
332.6757, 284.2829
333.1578, 284.9739
333.6399, 287.5654
334.1220, 289.8622
334.6042, 290.3252
335.0863, 289.3047
335.5684, 288.4954
336.0505, 288.4175
336.5326, 288.0788
337.0147, 286.6824
337.4969, 284.4099
337.9790, 281.9875
338.4611, 279.5120
338.9432, 277.3427
339.4253, 276.2064
339.9074, 276.2322
340.3896, 276.7471
340.8717, 277.7587
341.3538, 279.0482
341.8359, 280.1832
342.3180, 281.0423
342.8001, 281.7401
343.2823, 282.6373
343.7644, 283.8901
344.2465, 284.0925
344.7286, 281.9196
345.2107, 279.1033
345.6928, 277.7330
346.1750, 278.0823
346.6571, 278.7495
347.1392, 278.4527
347.6213, 277.1467
348.1034, 276.2501
348.5855, 275.7921
349.0677, 275.7136
349.5498, 276.1635
350.0319, 277.0262
350.5140, 277.8340
350.9961, 278.3442
351.4782, 278.5599
351.9604, 278.5037
352.4425, 277.5848
352.9246, 277.1421
353.4067, 278.3679
353.8888, 280.2342
354.3709, 280.6308
354.8531, 278.6248
355.3352, 275.6089
355.8173, 274.3554
356.2994, 276.0971
356.7815, 276.7032
357.2636, 274.7434
357.7458, 272.0926
358.2279, 270.5152
358.7100, 270.3274
359.1921, 270.8948
359.6742, 271.6739
360.1563, 272.8120
360.6385, 273.0629
361.1206, 271.3046
361.6027, 269.7649
362.0848, 270.0808
362.5669, 271.7657
363.0490, 272.9863
363.5312, 272.3644
364.0133, 270.2497
364.4954, 269.5410
364.9775, 272.3608
365.4596, 273.9928
365.9417, 272.1649
366.4239, 268.9990
366.9060, 267.6346
367.3881, 269.3351
367.8702, 272.5735
368.3523, 274.1727
368.8344, 272.4859
369.3166, 271.7862
369.7987, 272.9406
370.2808, 274.3903
370.7629, 274.9244
371.2450, 274.4275
371.7271, 273.5850
372.2093, 273.0519
372.6914, 272.7513
373.1735, 273.2801
373.6556, 275.6447
374.1377, 277.7807
374.6198, 279.1901
375.1020, 279.7870
375.5841, 279.2563
376.0662, 277.1763
376.5483, 274.2296
377.0304, 273.8582
377.5125, 278.6386
377.9947, 282.3537
378.4768, 283.9838
378.9589, 284.1818
379.4410, 283.0832
379.9231, 280.8361
380.4052, 278.7393
380.8874, 279.0468
381.3695, 282.6413
381.8516, 285.7522
382.3337, 287.3124
382.8158, 288.9732
383.2979, 291.8192
383.7801, 295.6834
384.2622, 299.5035
384.7443, 302.3725
385.2264, 304.3514
385.7085, 306.2421
386.1906, 307.4154
386.6728, 309.4959
387.1549, 313.8557
387.6370, 319.2339
388.1191, 323.6954
388.6012, 326.3748
389.0833, 327.8702
389.5655, 329.0541
390.0476, 329.8173
390.5297, 330.7707
391.0118, 332.3556
391.4939, 334.0705
391.9760, 335.2004
392.4582, 335.6258
392.9403, 336.7744
393.4224, 340.5815
393.9045, 346.4656
394.3866, 350.7296
394.8687, 352.3353
395.3509, 353.0721
395.8330, 354.1849
396.3151, 355.6210
396.7972, 357.2576
397.2793, 359.0386
397.7614, 360.9980
398.2436, 362.7655
398.7257, 364.2018
399.2078, 367.3244
399.6899, 374.2619
400.1720, 383.3043
400.6541, 390.6372
401.1363, 395.4641
401.6184, 399.7481
402.1005, 404.8061
402.5826, 410.2122
403.0647, 414.8482
403.5468, 418.3810
404.0290, 420.9753
404.5111, 423.0996
404.9932, 425.0279
405.4753, 424.6494
405.9574, 420.5023
406.4395, 414.5419
406.9217, 408.6121
407.4038, 402.8354
407.8859, 396.4598
408.3680, 388.9168
408.8501, 380.2081
409.3322, 371.0686
409.8144, 361.7130
410.2965, 351.6968
410.7786, 339.3254
411.2607, 326.4407
411.7428, 316.3519
412.2249, 310.5283
412.7071, 307.2320
413.1892, 303.0635
413.6713, 296.7193
414.1534, 291.9597
414.6355, 290.2220
415.1176, 288.9425
415.5998, 285.9704
416.0819, 281.4007
416.5640, 277.0134
417.0461, 274.4693
417.5282, 273.7967
418.0103, 272.9284
418.4925, 272.1067
418.9746, 270.8022
419.4567, 268.4318
419.9388, 265.6418
420.4209, 263.1902
420.9030, 261.4326
421.3852, 260.3552
421.8673, 260.0053
422.3494, 260.5738
422.8315, 261.3989
423.3136, 263.3348
423.7957, 264.7870
424.2779, 264.3163
424.7600, 262.1652
425.2421, 260.1016
425.7242, 259.9363
426.2063, 261.3874
426.6884, 261.5460
427.1706, 259.3083
427.6527, 257.6409
428.1348, 258.1796
428.6169, 259.9219
429.0990, 261.6047
429.5811, 263.0009
430.0633, 263.6872
430.5454, 262.5662
431.0275, 259.5797
431.5096, 257.7361
431.9917, 258.5953
432.4738, 260.2539
432.9560, 260.5983
433.4381, 259.6441
433.9202, 258.6539
434.4023, 258.1478
434.8844, 258.0189
435.3665, 258.0976
435.8487, 258.3697
436.3308, 258.8608
436.8129, 259.7903
437.2950, 260.9555
437.7771, 261.5564
438.2592, 261.4143
438.7414, 260.8742
439.2235, 259.6455
439.7056, 258.1586
440.1877, 257.6270
440.6698, 258.6108
441.1519, 260.1748
441.6341, 260.7968
442.1162, 260.1377
442.5983, 259.4737
443.0804, 258.7505
443.5625, 258.1284
444.0446, 257.8120
444.5268, 257.7451
445.0089, 257.6651
445.4910, 257.4089
445.9731, 256.9528
446.4552, 256.0590
446.9373, 254.2627
447.4195, 252.5638
447.9016, 251.3237
448.3837, 250.1512
448.8658, 248.3514
449.3479, 245.8123
449.8300, 243.4388
450.3122, 242.7481
450.7943, 244.4006
451.2764, 245.2554
451.7585, 244.7931
452.2406, 243.9921
452.7227, 243.1624
453.2049, 242.2845
453.6870, 241.1738
454.1691, 239.5974
454.6512, 237.8953
455.1333, 237.0670
455.6154, 237.5169
456.0976, 237.6317
456.5797, 236.5151
457.0618, 235.0867
457.5439, 233.9872
458.0260, 233.3150
458.5081, 232.8597
458.9903, 232.4945
459.4724, 232.2243
459.9545, 232.1030
460.4366, 232.2022
460.9187, 232.2669
461.4008, 231.9816
461.8830, 231.5120
462.3651, 231.2989
462.8472, 231.9662
463.3293, 232.3343
463.8114, 230.9239
464.2935, 228.3383
464.7756, 226.9058
465.2578, 227.6698
465.7399, 229.4633
466.2220, 230.2377
466.7041, 229.5950
467.1862, 229.6567
467.6683, 231.6164
468.1505, 233.6758
468.6326, 234.3543
469.1147, 233.6536
469.5968, 232.2400
470.0789, 230.4445
470.5610, 228.4318
471.0432, 227.3416
471.5253, 228.1058
472.0074, 228.6591
472.4895, 229.0145
472.9716, 228.9351
473.4537, 227.8769
473.9359, 225.8756
474.4180, 223.9094
474.9001, 223.2850
475.3822, 224.2220
475.8643, 224.6892
476.3464, 223.8817
476.8286, 223.4728
477.3107, 224.2738
477.7928, 225.7661
478.2749, 227.1053
478.7570, 227.9185
479.2391, 228.4195
479.7213, 229.1066
480.2034, 230.0963
480.6855, 230.2611
481.1676, 228.9755
481.6497, 227.0841
482.1318, 224.8385
482.6140, 222.4137
483.0961, 221.0383
483.5782, 222.1110
484.0603, 224.2410
484.5424, 225.0645
485.0245, 224.4581
485.5067, 224.1328
485.9888, 225.3839
486.4709, 227.3292
486.9530, 227.5647
487.4351, 225.0793
487.9172, 223.2209
488.3994, 223.7481
488.8815, 225.3016
489.3636, 226.0177
489.8457, 225.5592
490.3278, 224.7952
490.8099, 224.5764
491.2921, 224.9424
491.7742, 224.8965
492.2563, 224.0896
492.7384, 223.3441
493.2205, 222.5522
493.7026, 222.0930
494.1848, 222.8340
494.6669, 225.0212
495.1490, 227.3816
495.6311, 227.5968
496.1132, 224.5048
496.5953, 223.0376
497.0775, 224.4996
497.5596, 226.3877
498.0417, 228.1250
498.5238, 229.4973
499.0059, 230.2124
499.4880, 230.0086
499.9702, 229.2768
500.4523, 228.7895
500.9344, 228.5882
501.4165, 228.3448
501.8986, 227.8367
502.3807, 227.3752
502.8629, 227.2757
503.3450, 227.5316
503.8271, 227.8280
504.3092, 228.4065
504.7913, 228.7690
505.2734, 227.5394
505.7556, 224.6702
506.2377, 223.0424
506.7198, 224.8002
507.2019, 228.7336
507.6840, 231.0459
508.1661, 231.4323
508.6483, 231.0613
509.1304, 229.3076
509.6125, 227.4330
510.0946, 227.1432
510.5767, 228.5794
511.0588, 230.4067
511.5410, 231.4788
512.0231, 231.7962
512.5052, 231.4131
512.9873, 228.7378
513.4694, 227.2512
513.9515, 228.7623
514.4337, 231.2795
514.9158, 232.3250
515.3979, 231.2684
515.8800, 229.7462
516.3621, 230.1207
516.8442, 232.6936
517.3264, 233.8238
517.8085, 231.9198
518.2906, 230.6178
518.7727, 232.2936
519.2548, 235.4221
519.7369, 237.4137
520.2191, 237.2599
520.7012, 236.0700
521.1833, 234.6983
521.6654, 233.2325
522.1475, 232.4312
522.6296, 232.6473
523.1118, 233.2217
523.5939, 233.3578
524.0760, 233.1420
524.5581, 233.3343
525.0402, 234.1871
525.5223, 235.3753
526.0045, 237.0605
526.4866, 238.9153
526.9687, 239.9591
527.4508, 239.7043
527.9329, 238.8248
528.4150, 238.6448
528.8972, 239.9912
529.3793, 240.0432
529.8614, 237.1629
530.3435, 234.5811
530.8256, 234.3376
531.3077, 235.9099
531.7899, 237.6904
532.2720, 238.7567
532.7541, 239.3327
533.2362, 240.0332
533.7183, 241.0327
534.2004, 241.6663
534.6826, 241.7428
535.1647, 241.4678
535.6468, 240.6211
536.1289, 239.4110
536.6110, 238.6812
537.0931, 238.9440
537.5753, 239.9948
538.0574, 241.7749
538.5395, 244.3485
539.0216, 246.3167
539.5037, 247.0220
539.9858, 246.8528
540.4680, 246.3050
540.9501, 245.2149
541.4322, 244.6850
541.9143, 245.6929
542.3964, 246.9634
542.8785, 246.9867
543.3607, 245.9019
543.8428, 245.0619
544.3249, 245.3619
544.8070, 246.4968
545.2891, 247.3296
545.7712, 247.0463
546.2534, 247.6157
546.7355, 250.6878
547.2176, 253.4032
547.6997, 252.9491
548.1818, 249.8094
548.6639, 246.9705
549.1461, 246.9369
549.6282, 248.9305
550.1103, 249.5998
550.5924, 248.3452
551.0745, 247.3254
551.5566, 247.3947
552.0388, 247.8350
552.5209, 248.1108
553.0030, 248.1763
553.4851, 248.2896
553.9672, 248.5694
554.4493, 249.0082
554.9315, 249.7129
555.4136, 250.6913
555.8957, 251.3924
556.3778, 251.3634
556.8599, 250.9718
557.3420, 251.2938
557.8242, 252.7554
558.3063, 253.7973
558.7884, 254.2285
559.2705, 254.0405
559.7526, 253.0739
560.2347, 251.4276
560.7169, 249.3518
561.1990, 246.9220
561.6811, 244.4148
562.1632, 243.2365
562.6453, 244.6902
563.1274, 245.2345
563.6096, 243.5474
564.0917, 241.6579
564.5738, 241.3632
565.0559, 242.4572
565.5380, 243.0772
566.0201, 241.5456
566.5023, 238.7669
566.9844, 237.1961
567.4665, 237.0105
567.9486, 236.8533
568.4307, 236.1705
568.9128, 235.3092
569.3950, 234.6504
569.8771, 234.1674
570.3592, 234.1382
570.8413, 235.1683
571.3234, 236.3500
571.8055, 236.6469
572.2877, 236.1544
572.7698, 235.5968
573.2519, 235.3401
573.7340, 235.3702
574.2161, 235.7059
574.6982, 237.2052
575.1804, 237.4438
575.6625, 234.9569
576.1446, 232.5699
576.6267, 232.3377
577.1088, 233.6933
577.5909, 234.6831
578.0731, 234.0179
578.5552, 232.7330
579.0373, 233.5308
579.5194, 237.0361
580.0015, 239.0880
580.4836, 238.0218
580.9658, 236.0968
581.4479, 234.7085
581.9300, 233.9110
582.4121, 233.8692
582.8942, 235.4203
583.3763, 237.1212
583.8585, 237.2597
584.3406, 236.2762
584.8227, 235.9780
585.3048, 237.1078
585.7869, 238.5062
586.2690, 238.5200
586.7512, 236.7693
587.2333, 235.4400
587.7154, 234.7121
588.1975, 234.1748
588.6796, 233.6943
589.1617, 233.2729
589.6439, 232.7874
590.1260, 232.2257
590.6081, 232.0498
