##NAMES=Sadanagaite
##RRUFFID=R080070
##IDEAL CHEMISTRY=NaCa_2_(Mg_3_Al_2_)(Si_5_Al_3_)O_22_(OH)_2_
##LOCALITY=Ilmen Mts, Chelyabinsk Oblast', Urals Region, Russia
##OWNER=RRUFF
##SOURCE=Michael Scott
##DESCRIPTION=Unconsolidated aggregate of black to dark brown grains showing strong pleochroism
##STATUS=The identification of this mineral has been confirmed only by single crystal X-ray diffraction.
##URL=rruff.info/R080070
155.6807, 263.4051
156.1628, 262.5258
156.6449, 262.6187
157.1271, 263.3988
157.6092, 263.7002
158.0913, 263.2484
158.5734, 262.7377
159.0555, 262.2596
159.5376, 261.8554
160.0198, 261.6710
160.5019, 261.8829
160.9840, 262.3215
161.4661, 262.3720
161.9482, 261.7603
162.4303, 261.0688
162.9125, 260.6743
163.3946, 260.5674
163.8767, 260.5692
164.3588, 260.7387
164.8409, 260.8961
165.3230, 260.7220
165.8052, 260.0000
166.2873, 259.0733
166.7694, 258.3801
167.2515, 257.9454
167.7336, 257.6601
168.2157, 257.5446
168.6979, 257.5171
169.1800, 257.4907
169.6621, 257.4361
170.1442, 257.3548
170.6263, 257.2180
171.1084, 256.8540
171.5906, 256.7362
172.0727, 257.2726
172.5548, 258.0618
173.0369, 258.5453
173.5190, 258.3624
174.0011, 257.5787
174.4833, 256.7452
174.9654, 255.5385
175.4475, 254.6173
175.9296, 254.2402
176.4117, 254.2519
176.8938, 254.3806
177.3760, 254.4458
177.8581, 254.4505
178.3402, 254.2531
178.8223, 253.6074
179.3044, 253.0253
179.7865, 252.7651
180.2687, 252.7486
180.7508, 252.6869
181.2329, 252.2969
181.7150, 251.5270
182.1971, 251.2012
182.6792, 251.9093
183.1614, 252.5127
183.6435, 252.1472
184.1256, 250.8653
184.6077, 249.5984
185.0898, 249.2510
185.5719, 249.8969
186.0541, 250.1272
186.5362, 249.4833
187.0183, 248.6591
187.5004, 248.3891
187.9825, 248.7766
188.4646, 249.1884
188.9468, 248.9360
189.4289, 248.1832
189.9110, 247.5813
190.3931, 247.3368
190.8752, 247.3101
191.3573, 247.3623
191.8395, 247.5839
192.3216, 247.5929
192.8037, 246.8022
193.2858, 245.5567
193.7679, 244.6613
194.2500, 244.7831
194.7322, 245.5675
195.2143, 245.8309
195.6964, 245.2824
196.1785, 244.6047
196.6606, 244.2241
197.1427, 244.0226
197.6249, 243.7375
198.1070, 243.1011
198.5891, 242.1728
199.0712, 241.5741
199.5533, 241.5765
200.0354, 241.6348
200.5176, 241.5097
200.9997, 241.2693
201.4818, 241.0902
201.9639, 241.1225
202.4460, 241.3708
202.9281, 241.6139
203.4103, 242.0759
203.8924, 242.3168
204.3745, 242.0716
204.8566, 241.4648
205.3387, 240.8234
205.8208, 240.4453
206.3030, 240.3729
206.7851, 240.1563
207.2672, 239.4191
207.7493, 238.8998
208.2314, 239.1158
208.7135, 239.8855
209.1957, 240.5649
209.6778, 240.5257
210.1599, 239.6179
210.6420, 239.1698
211.1241, 239.5523
211.6062, 239.9746
212.0884, 240.0512
212.5705, 239.7723
213.0526, 239.3157
213.5347, 238.8060
214.0168, 238.2316
214.4989, 237.7822
214.9811, 237.5062
215.4632, 237.3031
215.9453, 237.1939
216.4274, 237.1507
216.9095, 236.9441
217.3916, 236.2497
217.8737, 235.0851
218.3559, 234.5028
218.8380, 235.1986
219.3201, 236.0437
219.8022, 236.0000
220.2843, 234.9919
220.7664, 233.7348
221.2486, 232.6541
221.7307, 231.7787
222.2128, 231.2444
222.6949, 231.3674
223.1770, 231.6886
223.6591, 231.6329
224.1413, 231.1263
224.6234, 230.6505
225.1055, 230.6856
225.5876, 230.9902
226.0697, 231.1274
226.5518, 230.9302
227.0340, 230.5301
227.5161, 230.1005
227.9982, 229.6329
228.4803, 229.1604
228.9624, 228.6922
229.4445, 228.2350
229.9267, 227.7917
230.4088, 227.3562
230.8909, 226.9463
231.3730, 226.5743
231.8551, 226.1885
232.3372, 225.9873
232.8194, 226.2764
233.3015, 226.7101
233.7836, 226.8721
234.2657, 226.5593
234.7478, 225.9314
235.2299, 225.3049
235.7121, 224.5732
236.1942, 224.0759
236.6763, 224.0578
237.1584, 224.2266
237.6405, 224.2562
238.1227, 223.9897
238.6048, 223.5713
239.0869, 223.4132
239.5690, 223.8438
240.0511, 223.9376
240.5332, 223.2641
241.0154, 222.3374
241.4975, 221.7387
241.9796, 221.7230
242.4617, 221.9681
242.9438, 221.6039
243.4259, 219.8351
243.9081, 218.7297
244.3902, 218.8671
244.8723, 219.5280
245.3544, 220.0613
245.8365, 220.2123
246.3186, 220.1266
246.8008, 220.1608
247.2829, 220.7063
247.7650, 220.7610
248.2471, 219.8690
248.7292, 218.7134
249.2113, 217.8911
249.6935, 217.6116
250.1756, 217.7151
250.6577, 217.9103
251.1398, 218.4781
251.6219, 218.6985
252.1040, 218.3786
252.5862, 217.8304
253.0683, 217.3133
253.5504, 216.9084
254.0325, 216.5418
254.5146, 216.0843
254.9967, 215.3872
255.4789, 214.9004
255.9610, 214.6792
256.4431, 214.6351
256.9252, 214.7406
257.4073, 214.9786
257.8894, 215.2528
258.3716, 215.4362
258.8537, 215.4960
259.3358, 215.5336
259.8179, 215.5576
260.3000, 215.5558
260.7821, 215.5898
261.2643, 215.6535
261.7464, 215.5352
262.2285, 214.9365
262.7106, 213.6931
263.1927, 212.7624
263.6748, 212.1620
264.1570, 211.8779
264.6391, 212.0268
265.1212, 212.5898
265.6033, 213.2157
266.0854, 213.6160
266.5675, 213.7600
267.0497, 213.6927
267.5318, 213.1033
268.0139, 212.5179
268.4960, 212.4799
268.9781, 212.9862
269.4602, 213.4231
269.9424, 213.3124
270.4245, 212.6922
270.9066, 212.1007
271.3887, 211.4214
271.8708, 210.8707
272.3529, 210.6924
272.8351, 210.8588
273.3172, 211.0297
273.7993, 210.9866
274.2814, 210.7975
274.7635, 210.6977
275.2456, 210.6766
275.7278, 210.7634
276.2099, 211.1335
276.6920, 211.7261
277.1741, 212.0299
277.6562, 211.7520
278.1383, 211.0334
278.6205, 210.2181
279.1026, 209.1468
279.5847, 208.3032
280.0668, 208.0831
280.5489, 208.4089
281.0310, 208.8571
281.5132, 209.3816
281.9953, 209.8528
282.4774, 210.1260
282.9595, 210.1978
283.4416, 210.1042
283.9237, 209.8105
284.4059, 209.3530
284.8880, 208.8664
285.3701, 208.3398
285.8522, 207.8591
286.3343, 207.4731
286.8164, 207.1796
287.2986, 207.0379
287.7807, 207.2341
288.2628, 207.6272
288.7449, 207.7324
289.2270, 207.3934
289.7091, 206.9145
290.1913, 206.5118
290.6734, 206.1777
291.1555, 205.8851
291.6376, 205.6434
292.1197, 205.4344
292.6018, 205.2219
293.0840, 205.0258
293.5661, 204.7760
294.0482, 204.2783
294.5303, 203.7043
295.0124, 203.4023
295.4945, 203.7401
295.9767, 204.3085
296.4588, 204.2866
296.9409, 203.4843
297.4230, 202.7450
297.9051, 202.7018
298.3872, 202.9137
298.8694, 202.8325
299.3515, 202.1912
299.8336, 201.3926
300.3157, 200.9772
300.7978, 200.9950
301.2799, 201.0861
301.7621, 201.2567
302.2442, 201.3610
302.7263, 201.2576
303.2084, 200.9114
303.6905, 200.4082
304.1726, 199.7742
304.6548, 199.0023
305.1369, 198.2962
305.6190, 197.5932
306.1011, 197.0818
306.5832, 197.0221
307.0653, 197.4088
307.5475, 197.7465
308.0296, 197.6141
308.5117, 197.0457
308.9938, 196.4024
309.4759, 195.5186
309.9580, 194.8409
310.4402, 194.8191
310.9223, 195.2859
311.4044, 195.6036
311.8865, 195.1615
312.3686, 194.1881
312.8507, 193.7498
313.3329, 194.2130
313.8150, 194.6020
314.2971, 194.2496
314.7792, 193.4757
315.2613, 192.8667
315.7434, 192.7255
316.2256, 192.8859
316.7077, 192.9810
317.1898, 192.9613
317.6719, 193.0180
318.1540, 193.5039
318.6361, 194.0085
319.1183, 194.0175
319.6004, 193.2902
320.0825, 192.2702
320.5646, 191.4935
321.0467, 190.9616
321.5288, 190.6693
322.0110, 190.8512
322.4931, 191.1384
322.9752, 191.2004
323.4573, 190.9803
323.9394, 190.7896
324.4215, 191.0197
324.9037, 191.6566
325.3858, 192.0451
325.8679, 191.9821
326.3500, 191.7050
326.8321, 191.3821
327.3142, 191.0155
327.7964, 190.5797
328.2785, 189.9700
328.7606, 189.2514
329.2427, 188.7299
329.7248, 188.4346
330.2069, 188.3320
330.6891, 188.5060
331.1712, 188.8342
331.6533, 189.0555
332.1354, 189.0238
332.6175, 188.8267
333.0996, 188.6297
333.5818, 188.4286
334.0639, 188.2371
334.5460, 188.0348
335.0281, 187.8553
335.5102, 187.7338
335.9923, 187.6645
336.4745, 187.6885
336.9566, 187.9472
337.4387, 188.4655
337.9208, 188.7593
338.4029, 188.4190
338.8850, 187.9638
339.3671, 187.9947
339.8492, 188.5984
340.3314, 189.1086
340.8135, 188.8912
341.2956, 188.0770
341.7777, 187.4815
342.2598, 187.2315
342.7419, 187.2791
343.2241, 187.7397
343.7062, 188.5072
344.1883, 189.0120
344.6704, 188.7577
345.1525, 188.0889
345.6346, 187.7612
346.1168, 187.8675
346.5989, 188.1385
347.0810, 188.5244
347.5631, 188.9311
348.0452, 189.1770
348.5273, 189.1976
349.0095, 189.0554
349.4916, 188.7266
349.9737, 188.2053
350.4558, 187.8698
350.9379, 188.1269
351.4200, 188.5331
351.9022, 188.2771
352.3843, 187.0095
352.8664, 185.9587
353.3485, 186.2859
353.8306, 187.6009
354.3127, 188.3115
354.7949, 187.8342
355.2770, 186.8405
355.7591, 186.1419
356.2412, 185.7269
356.7233, 185.3578
357.2054, 184.8285
357.6876, 184.3300
358.1697, 184.2651
358.6518, 184.7449
359.1339, 185.2213
359.6160, 185.0856
360.0981, 184.4882
360.5803, 184.2541
361.0624, 184.8171
361.5445, 185.5283
362.0266, 185.8889
362.5087, 185.9125
362.9908, 185.7892
363.4730, 185.6373
363.9551, 185.3914
364.4372, 184.8555
364.9193, 183.7863
365.4014, 182.8567
365.8835, 182.3607
366.3657, 182.1997
366.8478, 182.2300
367.3299, 182.4413
367.8120, 182.6756
368.2941, 182.6516
368.7762, 182.2983
369.2584, 182.0215
369.7405, 181.9824
370.2226, 181.9827
370.7047, 181.8533
371.1868, 181.5658
371.6689, 181.1147
372.1511, 180.4121
372.6332, 179.4470
373.1153, 178.9842
373.5974, 179.3700
374.0795, 179.8596
374.5616, 180.1775
375.0438, 180.3138
375.5259, 180.3116
376.0080, 180.1980
376.4901, 179.9528
376.9722, 179.4921
377.4543, 178.4793
377.9365, 177.6871
378.4186, 177.3504
378.9007, 177.2006
379.3828, 176.9066
379.8649, 176.3881
380.3470, 175.8724
380.8292, 175.6966
381.3113, 176.0298
381.7934, 176.2051
382.2755, 176.2740
382.7576, 176.1672
383.2397, 175.7668
383.7219, 175.1381
384.2040, 174.4752
384.6861, 173.9284
385.1682, 173.4924
385.6503, 173.0926
386.1324, 172.5202
386.6146, 172.2344
387.0967, 172.6309
387.5788, 173.2591
388.0609, 173.5058
388.5430, 173.1111
389.0251, 172.3976
389.5073, 172.0492
389.9894, 172.3913
390.4715, 172.4057
390.9536, 171.5669
391.4357, 170.7888
391.9178, 170.8016
392.4000, 171.5643
392.8821, 172.3848
393.3642, 172.5440
393.8463, 172.0148
394.3284, 171.7279
394.8105, 171.9819
395.2927, 172.1333
395.7748, 171.9097
396.2569, 171.4510
396.7390, 170.9857
397.2211, 170.6163
397.7032, 170.3310
398.1854, 170.1440
398.6675, 170.1322
399.1496, 169.9834
399.6317, 169.3259
400.1138, 168.6712
400.5959, 168.4860
401.0781, 168.8405
401.5602, 169.2791
402.0423, 169.4401
402.5244, 169.3304
403.0065, 168.9594
403.4886, 168.0434
403.9708, 167.2927
404.4529, 167.3495
404.9350, 167.9619
405.4171, 168.4246
405.8992, 168.3520
406.3813, 167.9982
406.8635, 167.7372
407.3456, 167.5720
407.8277, 167.4747
408.3098, 167.5177
408.7919, 167.5751
409.2740, 167.4146
409.7562, 166.9253
410.2383, 166.4751
410.7204, 166.3223
411.2025, 166.3857
411.6846, 166.4067
412.1667, 166.2938
412.6489, 166.2038
413.1310, 166.4591
413.6131, 167.0566
414.0952, 167.2580
414.5773, 166.4533
415.0594, 165.5245
415.5416, 165.4159
416.0237, 166.0837
416.5058, 166.7050
416.9879, 166.7256
417.4700, 166.2584
417.9521, 165.9325
418.4343, 165.7641
418.9164, 165.6875
419.3985, 165.6835
419.8806, 165.7604
420.3627, 165.9890
420.8448, 166.3889
421.3270, 166.7728
421.8091, 166.8488
422.2912, 166.4771
422.7733, 166.1763
423.2554, 165.9864
423.7375, 165.8265
424.2197, 165.5947
424.7018, 165.3417
425.1839, 165.2425
425.6660, 165.4415
426.1481, 165.8845
426.6302, 166.2136
427.1124, 166.6517
427.5945, 166.6569
428.0766, 165.7896
428.5587, 164.6575
429.0408, 163.8271
429.5229, 163.4809
430.0051, 163.4698
430.4872, 163.7015
430.9693, 164.3400
431.4514, 164.5335
431.9335, 163.7712
432.4156, 162.9792
432.8978, 162.4551
433.3799, 162.2005
433.8620, 162.1570
434.3441, 162.3847
434.8262, 162.7226
435.3083, 162.6320
435.7905, 161.9051
436.2726, 161.3274
436.7547, 161.3394
437.2368, 161.5420
437.7189, 161.5835
438.2010, 161.3899
438.6832, 161.1656
439.1653, 161.2215
439.6474, 161.4485
440.1295, 161.1057
440.6116, 159.6872
441.0938, 158.4500
441.5759, 158.8118
442.0580, 160.2836
442.5401, 161.4106
443.0222, 161.7496
443.5043, 161.5890
443.9865, 160.9985
444.4686, 160.0511
444.9507, 159.3852
445.4328, 159.3998
445.9149, 159.7782
446.3970, 159.7540
446.8792, 159.1444
447.3613, 158.7295
447.8434, 158.9213
448.3255, 159.3300
448.8076, 159.4939
449.2897, 159.3333
449.7719, 158.9783
450.2540, 158.5040
450.7361, 157.8947
451.2182, 157.5637
451.7003, 157.6367
452.1824, 157.8035
452.6646, 158.0875
453.1467, 158.3603
453.6288, 158.4105
454.1109, 158.1449
454.5930, 157.6703
455.0751, 157.1665
455.5573, 156.4443
456.0394, 156.0855
456.5215, 156.2937
457.0036, 156.6271
457.4857, 156.8630
457.9678, 156.9844
458.4500, 157.0666
458.9321, 157.1712
459.4142, 157.2828
459.8963, 157.2995
460.3784, 157.1380
460.8605, 157.0308
461.3427, 157.0804
461.8248, 157.1843
462.3069, 157.2840
462.7890, 157.3642
463.2711, 157.3192
463.7532, 156.9227
464.2354, 156.2139
464.7175, 155.8027
465.1996, 155.8871
465.6817, 156.0774
466.1638, 155.9647
466.6459, 155.7267
467.1281, 155.8601
467.6102, 156.9518
468.0923, 158.1004
468.5744, 158.1513
469.0565, 157.2157
469.5386, 156.4220
470.0208, 156.2193
470.5029, 156.3752
470.9850, 156.5141
471.4671, 156.6381
471.9492, 156.7427
472.4313, 156.8899
472.9135, 156.9811
473.3956, 156.8331
473.8777, 156.4668
474.3598, 156.1927
474.8419, 156.2932
475.3240, 156.7042
475.8062, 156.7731
476.2883, 156.1190
476.7704, 155.6431
477.2525, 155.5905
477.7346, 155.7864
478.2167, 156.1155
478.6989, 156.5104
479.1810, 156.7654
479.6631, 156.5327
480.1452, 155.6059
480.6273, 155.2647
481.1094, 156.1310
481.5916, 156.9499
482.0737, 157.2166
482.5558, 157.1707
483.0379, 157.3293
483.5200, 157.9833
484.0021, 158.7426
484.4843, 158.7493
484.9664, 157.7734
485.4485, 157.1076
485.9306, 157.2360
486.4127, 157.5588
486.8948, 157.7564
487.3770, 157.8061
487.8591, 157.7152
488.3412, 157.3461
488.8233, 156.8830
489.3054, 156.6965
489.7875, 156.8063
490.2697, 157.0355
490.7518, 157.3271
491.2339, 157.6722
491.7160, 158.0846
492.1981, 158.6543
492.6802, 159.0224
493.1624, 158.9096
493.6445, 158.5450
494.1266, 158.1800
494.6087, 157.8668
495.0908, 157.8180
495.5729, 158.3026
496.0551, 159.3088
496.5372, 159.9474
497.0193, 159.9556
497.5014, 159.9612
497.9835, 160.1323
498.4656, 160.4256
498.9478, 160.8708
499.4299, 161.4502
499.9120, 161.8798
500.3941, 161.6562
500.8762, 160.4677
501.3583, 159.8653
501.8405, 160.2450
502.3226, 160.8110
502.8047, 161.4693
503.2868, 162.0831
503.7689, 162.4137
504.2510, 162.3121
504.7331, 162.0237
505.2152, 162.0239
505.6974, 162.3708
506.1795, 162.6439
506.6616, 162.6797
507.1437, 162.6912
507.6258, 162.8597
508.1079, 163.1591
508.5901, 163.4203
509.0722, 163.4176
509.5543, 163.4017
510.0364, 163.8828
510.5185, 164.8503
511.0006, 165.5789
511.4828, 165.7285
511.9649, 165.4241
512.4470, 164.8353
512.9291, 163.7683
513.4113, 163.0952
513.8934, 163.3270
514.3755, 163.8903
514.8576, 164.1910
515.3397, 164.1902
515.8218, 164.1717
516.3040, 164.3481
516.7861, 164.6913
517.2682, 164.9936
517.7503, 165.5614
518.2324, 165.6875
518.7145, 164.8294
519.1967, 163.7873
519.6788, 163.3222
520.1609, 163.5477
520.6430, 164.0675
521.1251, 164.5430
521.6072, 164.9729
522.0894, 165.2304
522.5715, 165.3344
523.0536, 165.2200
523.5357, 164.6249
524.0178, 163.9382
524.4999, 163.6913
524.9821, 164.0571
525.4642, 164.4459
525.9463, 164.2000
526.4284, 163.4863
526.9105, 163.0928
527.3926, 163.2122
527.8748, 163.4117
528.3569, 163.4249
528.8390, 163.2460
529.3211, 162.8474
529.8032, 161.9431
530.2853, 161.1423
530.7675, 160.8664
531.2496, 160.9154
531.7317, 160.8977
532.2138, 160.6978
532.6959, 160.4598
533.1780, 160.4008
533.6602, 160.6141
534.1423, 160.3971
534.6244, 159.2319
535.1065, 158.2669
535.5886, 158.1055
536.0707, 158.3760
536.5529, 158.5082
537.0350, 158.2731
537.5171, 157.8053
537.9992, 157.2908
538.4813, 156.7128
538.9634, 156.1791
539.4456, 155.6747
539.9277, 155.2463
540.4098, 154.9844
540.8919, 154.8063
541.3740, 154.5122
541.8561, 153.9266
542.3383, 153.4032
542.8204, 153.5220
543.3025, 154.1979
543.7846, 154.5968
544.2667, 154.4686
544.7488, 154.0956
545.2310, 153.7722
545.7131, 153.4859
546.1952, 153.0739
546.6773, 152.2513
547.1594, 151.5397
547.6415, 151.4231
548.1237, 151.6866
548.6058, 151.7556
549.0879, 151.3945
549.5700, 150.8502
550.0521, 150.5395
550.5342, 150.5928
551.0164, 150.4865
551.4985, 150.1871
551.9806, 149.7922
552.4627, 149.2079
552.9448, 148.5817
553.4269, 148.1929
553.9091, 148.1859
554.3912, 148.3434
554.8733, 148.2688
555.3554, 147.9172
555.8375, 147.6441
556.3196, 147.6178
556.8018, 147.5307
557.2839, 146.9926
557.7660, 146.2302
558.2481, 145.9291
558.7302, 146.7566
559.2123, 147.6397
559.6945, 147.2825
560.1766, 145.9644
560.6587, 144.9682
561.1408, 144.7323
561.6229, 144.7794
562.1050, 144.5397
562.5872, 143.9682
563.0693, 143.3589
563.5514, 142.6245
564.0335, 141.9463
564.5156, 141.3635
564.9977, 140.9168
565.4799, 140.6935
565.9620, 140.7255
566.4441, 140.8982
566.9262, 141.0749
567.4083, 141.3340
567.8904, 141.2717
568.3726, 140.3389
568.8547, 139.6517
569.3368, 139.8598
569.8189, 140.5003
570.3010, 140.7780
570.7831, 140.3647
571.2653, 139.7106
571.7474, 139.3589
572.2295, 139.2635
572.7116, 139.0173
573.1937, 138.5082
573.6758, 137.9581
574.1580, 137.4318
574.6401, 137.0035
575.1222, 136.9763
575.6043, 137.9018
576.0864, 138.6398
576.5685, 138.4441
577.0507, 137.7399
577.5328, 137.2113
578.0149, 137.0320
578.4970, 137.0282
578.9791, 137.0597
579.4612, 137.1420
579.9434, 136.8713
580.4255, 135.6141
580.9076, 134.7519
581.3897, 134.8192
581.8718, 135.2568
582.3539, 135.4565
582.8361, 135.2820
583.3182, 135.0060
583.8003, 134.9009
584.2824, 134.9394
584.7645, 134.9208
585.2466, 134.8315
585.7288, 134.7159
586.2108, 134.5105
586.6929, 134.3326
587.1750, 134.4075
587.6572, 134.8384
588.1393, 135.1329
588.6214, 134.9838
589.1035, 134.6112
589.5856, 134.2314
590.0677, 133.8925
590.5499, 133.7314
591.0320, 133.8612
591.5141, 134.1982
591.9962, 134.4349
592.4783, 134.6959
592.9604, 134.6575
593.4426, 134.0610
593.9247, 133.3814
594.4068, 132.9501
594.8889, 132.7449
595.3710, 132.5468
595.8531, 132.1979
596.3353, 131.8076
596.8174, 131.6404
597.2995, 131.7252
597.7816, 131.8854
598.2637, 132.1518
598.7458, 132.4064
599.2280, 132.5477
599.7101, 132.5893
600.1922, 132.6102
600.6743, 132.6639
601.1564, 132.6805
601.6385, 132.6833
602.1207, 132.6044
602.6028, 132.1361
603.0849, 131.1446
603.5670, 130.1282
604.0491, 129.7381
604.5313, 130.0604
605.0134, 130.4911
605.4955, 131.2444
605.9776, 131.8471
606.4597, 132.2369
606.9418, 132.3544
607.4240, 131.9728
607.9061, 131.0870
608.3882, 130.2516
608.8703, 130.1970
609.3524, 130.8549
609.8345, 131.2971
610.3167, 131.4473
610.7988, 131.5534
611.2809, 131.8853
611.7630, 132.1718
612.2451, 131.9414
612.7272, 131.0077
613.2094, 130.2615
613.6915, 130.2471
614.1736, 130.5650
614.6557, 130.7346
615.1378, 130.7291
615.6199, 130.7309
616.1021, 130.8674
616.5842, 131.0420
617.0663, 130.9635
617.5484, 130.2905
618.0305, 129.9457
618.5126, 130.1001
618.9948, 130.3898
619.4769, 130.6320
619.9590, 130.8389
620.4411, 131.1144
620.9232, 131.5407
621.4053, 131.9464
621.8875, 131.9955
622.3696, 131.6959
622.8517, 131.5729
623.3338, 131.8661
623.8159, 132.0524
624.2980, 131.3842
624.7802, 130.2246
625.2623, 129.8175
625.7444, 130.9554
626.2265, 132.0296
626.7086, 132.2314
627.1907, 131.9515
627.6729, 131.6612
628.1550, 131.4824
628.6371, 131.4564
629.1192, 131.6375
629.6013, 131.9969
630.0834, 132.3090
630.5656, 132.7121
631.0477, 132.8228
631.5298, 132.4512
632.0119, 131.9113
632.4940, 131.2707
632.9761, 130.6396
633.4583, 130.3723
633.9404, 130.9311
634.4225, 131.7628
634.9046, 131.9737
635.3867, 131.5986
635.8688, 131.0148
636.3510, 130.2305
636.8331, 129.5486
637.3152, 129.3859
637.7973, 129.8077
638.2794, 130.0916
638.7615, 130.2852
639.2437, 130.2791
639.7258, 129.8659
640.2079, 129.2917
640.6900, 128.8723
641.1721, 128.6963
641.6542, 128.7031
642.1364, 128.8874
642.6185, 129.2197
643.1006, 129.2507
643.5827, 128.7293
644.0648, 128.4641
644.5469, 129.0908
645.0291, 129.8831
645.5112, 130.1804
645.9933, 129.9366
646.4754, 129.5725
646.9575, 129.0616
647.4396, 128.6774
647.9218, 128.9477
648.4039, 129.6689
648.8860, 129.8978
649.3681, 129.2106
649.8502, 128.2267
650.3323, 127.9351
650.8145, 128.6024
651.2966, 128.7324
651.7787, 127.6427
