##NAMES=Sadanagaite
##RRUFFID=R080070
##IDEAL CHEMISTRY=NaCa_2_(Mg_3_Al_2_)(Si_5_Al_3_)O_22_(OH)_2_
##LOCALITY=Ilmen Mts, Chelyabinsk Oblast', Urals Region, Russia
##OWNER=RRUFF
##SOURCE=Michael Scott
##DESCRIPTION=Unconsolidated aggregate of black to dark brown grains showing strong pleochroism
##STATUS=The identification of this mineral has been confirmed only by single crystal X-ray diffraction.
##URL=rruff.info/R080070
156.4750, 216.6456
156.9572, 216.2280
157.4393, 215.8378
157.9214, 215.2162
158.4035, 214.5752
158.8856, 214.0450
159.3677, 213.7229
159.8499, 213.4435
160.3320, 212.9600
160.8141, 212.3742
161.2962, 212.3313
161.7783, 213.8072
162.2604, 215.5778
162.7426, 216.6334
163.2247, 216.1712
163.7068, 215.3812
164.1889, 214.6092
164.6710, 213.8859
165.1531, 213.4654
165.6353, 213.7778
166.1174, 214.3546
166.5995, 214.6913
167.0816, 214.3264
167.5637, 213.8691
168.0458, 213.6664
168.5280, 213.7254
169.0101, 213.9793
169.4922, 214.6726
169.9743, 215.4775
170.4564, 215.9315
170.9385, 215.5089
171.4207, 214.8560
171.9028, 214.5380
172.3849, 214.5866
172.8670, 214.7648
173.3491, 214.9863
173.8312, 215.2063
174.3134, 215.3387
174.7955, 215.2419
175.2776, 215.0817
175.7597, 215.0983
176.2418, 215.3291
176.7239, 215.5322
177.2061, 215.4136
177.6882, 215.0787
178.1703, 214.8153
178.6524, 214.7495
179.1345, 214.8450
179.6166, 215.1425
180.0988, 215.7099
180.5809, 216.1440
181.0630, 215.8473
181.5451, 214.9702
182.0272, 214.1293
182.5093, 213.4190
182.9915, 212.9780
183.4736, 213.3080
183.9557, 214.5942
184.4378, 216.0942
184.9199, 216.8912
185.4020, 217.0203
185.8842, 216.8320
186.3663, 216.3750
186.8484, 215.7256
187.3305, 215.1631
187.8126, 214.6930
188.2947, 214.3406
188.7769, 214.2615
189.2590, 214.4368
189.7411, 214.4526
190.2232, 213.8746
190.7053, 212.8398
191.1874, 212.2617
191.6696, 212.2991
192.1517, 212.6459
192.6338, 212.7032
193.1159, 212.4581
193.5980, 212.2764
194.0801, 212.5098
194.5623, 213.1084
195.0444, 213.3118
195.5265, 212.9429
196.0086, 212.2975
196.4907, 212.0152
196.9728, 212.1282
197.4550, 212.3206
197.9371, 212.4346
198.4192, 212.4702
198.9013, 212.3773
199.3834, 212.0733
199.8655, 211.7176
200.3477, 211.7730
200.8298, 212.3335
201.3119, 212.8805
201.7940, 213.0523
202.2761, 212.8066
202.7582, 212.7079
203.2404, 212.8894
203.7225, 213.1896
204.2046, 213.0600
204.6867, 212.3454
205.1688, 211.7379
205.6509, 211.8013
206.1331, 212.6926
206.6152, 213.1973
207.0973, 213.1032
207.5794, 212.6149
208.0615, 212.3697
208.5436, 212.4326
209.0258, 212.5668
209.5079, 212.5530
209.9900, 212.2742
210.4721, 212.4509
210.9542, 213.3748
211.4363, 214.7108
211.9185, 215.2211
212.4006, 214.5580
212.8827, 213.8154
213.3648, 213.7227
213.8469, 214.4898
214.3290, 215.1047
214.8112, 215.4302
215.2933, 215.5593
215.7754, 215.8810
216.2575, 216.5441
216.7396, 217.1167
217.2217, 217.2649
217.7038, 216.7505
218.1860, 216.5715
218.6681, 216.9648
219.1502, 217.7159
219.6323, 218.0150
220.1144, 217.7171
220.5965, 217.2168
221.0787, 216.6800
221.5608, 215.9761
222.0429, 215.6102
222.5250, 215.6870
223.0071, 216.1198
223.4892, 216.6530
223.9714, 217.5489
224.4535, 218.1475
224.9356, 217.9927
225.4177, 216.5958
225.8998, 215.6438
226.3819, 215.3325
226.8641, 215.5051
227.3462, 215.6553
227.8283, 215.8287
228.3104, 215.9074
228.7925, 215.7952
229.2746, 215.3158
229.7568, 215.0495
230.2389, 215.1163
230.7210, 215.3887
231.2031, 215.3968
231.6852, 214.7645
232.1673, 214.4203
232.6495, 214.9854
233.1316, 217.3743
233.6137, 218.5583
234.0958, 217.9284
234.5779, 216.1524
235.0600, 215.1048
235.5422, 215.0011
236.0243, 215.3002
236.5064, 215.8611
236.9885, 217.0992
237.4706, 217.6186
237.9527, 216.9567
238.4349, 215.6943
238.9170, 215.3555
239.3991, 216.5415
239.8812, 217.7510
240.3633, 218.3207
240.8454, 217.9125
241.3276, 217.7211
241.8097, 217.9289
242.2918, 218.2881
242.7739, 218.1625
243.2560, 216.9735
243.7381, 216.2026
244.2203, 216.6260
244.7024, 219.1115
245.1845, 220.2699
245.6666, 219.4453
246.1487, 217.6080
246.6308, 216.6229
247.1130, 216.8873
247.5951, 217.3573
248.0772, 217.6927
248.5593, 217.8780
249.0414, 217.9722
249.5235, 217.8712
250.0057, 217.7425
250.4878, 217.9301
250.9699, 218.7894
251.4520, 219.3127
251.9341, 218.9741
252.4162, 217.4038
252.8984, 216.9030
253.3805, 218.1628
253.8626, 219.9637
254.3447, 220.3644
254.8268, 218.5677
255.3089, 217.0195
255.7911, 216.5201
256.2732, 217.2209
256.7553, 217.6394
257.2374, 217.6309
257.7195, 217.4842
258.2017, 217.5851
258.6838, 218.0966
259.1659, 218.4796
259.6480, 218.5371
260.1301, 218.2480
260.6122, 218.2379
261.0944, 218.6730
261.5765, 219.1831
262.0586, 219.3596
262.5407, 219.0981
263.0228, 218.7862
263.5049, 218.4495
263.9871, 218.0971
264.4692, 218.0447
264.9513, 218.4211
265.4334, 218.8922
265.9155, 219.2091
266.3976, 219.4221
266.8798, 219.2325
267.3619, 218.3047
267.8440, 216.8309
268.3261, 216.5605
268.8082, 217.8596
269.2903, 219.5859
269.7725, 220.9149
270.2546, 221.8438
270.7367, 222.2731
271.2188, 221.9890
271.7009, 221.2218
272.1830, 220.9934
272.6652, 221.4503
273.1473, 222.0475
273.6294, 222.4074
274.1115, 222.4797
274.5936, 222.6161
275.0757, 222.8673
275.5579, 223.1925
276.0400, 223.4262
276.5221, 223.5127
277.0042, 223.7253
277.4863, 224.4523
277.9684, 225.7874
278.4506, 226.2074
278.9327, 225.3367
279.4148, 223.8470
279.8969, 223.1707
280.3790, 223.3906
280.8611, 223.8496
281.3433, 224.3068
281.8254, 224.7634
282.3075, 224.9521
282.7896, 224.7755
283.2717, 224.5382
283.7538, 224.9320
284.2360, 225.9993
284.7181, 226.6340
285.2002, 225.9655
285.6823, 224.2139
286.1644, 223.5589
286.6465, 224.2222
287.1287, 225.1929
287.6108, 224.9915
288.0929, 223.6924
288.5750, 222.7037
289.0571, 222.7805
289.5392, 223.5898
290.0214, 223.7414
290.5035, 223.1758
290.9856, 222.4535
291.4677, 222.3389
291.9498, 222.6828
292.4319, 222.5275
292.9141, 221.3163
293.3962, 219.5672
293.8783, 218.4893
294.3604, 218.0961
294.8425, 217.9818
295.3246, 217.8993
295.8068, 217.8291
296.2889, 217.6714
296.7710, 217.2958
297.2531, 216.9502
297.7352, 217.2482
298.2173, 218.1005
298.6995, 218.7467
299.1816, 218.4933
299.6637, 217.6409
300.1458, 216.7655
300.6279, 215.8700
301.1100, 215.1811
301.5922, 215.0981
302.0743, 215.5122
302.5564, 215.9896
303.0385, 216.3641
303.5206, 216.6113
304.0027, 216.7107
304.4849, 216.6616
304.9670, 216.4388
305.4491, 215.8450
305.9312, 215.0448
306.4133, 214.4330
306.8954, 214.4268
307.3776, 214.5915
307.8597, 214.4376
308.3418, 213.9055
308.8239, 213.4115
309.3060, 213.4699
309.7881, 213.7409
310.2703, 213.6856
310.7524, 212.5155
311.2345, 211.3612
311.7166, 211.2335
312.1987, 212.1057
312.6808, 212.8549
313.1630, 212.7514
313.6451, 212.2304
314.1272, 211.7562
314.6093, 211.3808
315.0914, 211.1801
315.5735, 211.3592
316.0557, 211.8218
316.5378, 212.0628
317.0199, 211.6348
317.5020, 211.0389
317.9841, 210.6271
318.4662, 210.4913
318.9484, 210.5453
319.4305, 210.9407
319.9126, 211.5250
320.3947, 211.8960
320.8768, 211.8548
321.3589, 211.6351
321.8411, 211.2799
322.3232, 210.5974
322.8053, 210.2785
323.2874, 210.7803
323.7695, 211.6664
324.2516, 212.2455
324.7338, 212.2153
325.2159, 212.0428
325.6980, 211.8429
326.1801, 211.6074
326.6622, 211.4051
327.1443, 211.2565
327.6265, 211.1357
328.1086, 211.0174
328.5907, 210.9789
329.0728, 210.8566
329.5549, 210.5005
330.0370, 209.9053
330.5192, 209.7432
331.0013, 210.4316
331.4834, 211.1996
331.9655, 211.4780
332.4476, 210.7079
332.9297, 210.4383
333.4119, 211.1066
333.8940, 212.4079
334.3761, 212.9535
334.8582, 212.4138
335.3403, 211.6242
335.8224, 210.9584
336.3046, 210.3767
336.7867, 210.0381
337.2688, 209.9886
337.7509, 210.1445
338.2330, 210.3954
338.7151, 210.8251
339.1973, 211.0778
339.6794, 210.9318
340.1615, 210.3610
340.6436, 210.0422
341.1257, 210.0187
341.6078, 210.1674
342.0899, 210.3615
342.5721, 210.6039
343.0542, 210.8530
343.5363, 211.0952
344.0184, 211.3359
344.5005, 211.6479
344.9826, 212.0551
345.4648, 212.3520
345.9469, 212.1327
346.4290, 211.5083
346.9111, 211.4457
347.3932, 212.3176
347.8753, 213.5756
348.3575, 214.1238
348.8396, 214.0054
349.3217, 213.7641
349.8038, 213.6062
350.2859, 213.5989
350.7680, 214.0847
351.2502, 215.2722
351.7323, 216.2890
352.2144, 215.7936
352.6965, 214.2297
353.1786, 212.9539
353.6607, 212.8425
354.1429, 213.3079
354.6250, 213.6699
355.1071, 213.9006
355.5892, 214.0917
356.0713, 214.4069
356.5534, 214.7136
357.0356, 214.8115
357.5177, 214.4897
357.9998, 214.0530
358.4819, 213.6372
358.9640, 213.2639
359.4461, 213.0707
359.9283, 213.2102
360.4104, 213.5149
360.8925, 213.8843
361.3746, 214.4877
361.8567, 214.8127
362.3388, 214.4054
362.8210, 213.5579
363.3031, 212.9269
363.7852, 213.0810
364.2673, 213.2045
364.7494, 212.8292
365.2315, 211.7025
365.7137, 210.8268
366.1958, 210.4519
366.6779, 210.4189
367.1600, 210.5383
367.6421, 211.3587
368.1242, 211.7420
368.6064, 211.2294
369.0885, 209.7570
369.5706, 208.7155
370.0527, 208.2874
370.5348, 208.1439
371.0169, 208.1056
371.4991, 208.4771
371.9812, 208.4148
372.4633, 207.5826
372.9454, 206.2864
373.4275, 205.6766
373.9096, 206.1474
374.3918, 206.6095
374.8739, 206.5052
375.3560, 205.6541
375.8381, 205.0695
376.3202, 204.8364
376.8023, 204.7658
377.2845, 204.5533
377.7666, 204.1619
378.2487, 203.8312
378.7308, 203.6392
379.2129, 203.5744
379.6950, 203.6447
380.1772, 203.8914
380.6593, 204.0573
381.1414, 203.8412
381.6235, 203.2857
382.1056, 202.7658
382.5877, 202.3579
383.0699, 202.0316
383.5520, 201.7760
384.0341, 201.5776
384.5162, 201.3200
384.9983, 200.7724
385.4804, 200.1304
385.9626, 199.8733
386.4447, 200.1031
386.9268, 200.4189
387.4089, 200.4268
387.8910, 200.2076
388.3731, 199.9432
388.8553, 199.6220
389.3374, 199.3491
389.8195, 199.3203
390.3016, 199.5137
390.7837, 199.5721
391.2658, 199.1509
391.7480, 198.5313
392.2301, 197.9954
392.7122, 197.5621
393.1943, 197.3103
393.6764, 197.4484
394.1585, 197.8276
394.6407, 198.0197
395.1228, 197.7529
395.6049, 197.3687
396.0870, 197.0446
396.5691, 196.8503
397.0512, 196.5651
397.5334, 195.9616
398.0155, 195.3023
398.4976, 194.9227
398.9797, 195.0730
399.4618, 195.2651
399.9439, 195.4333
400.4261, 195.5752
400.9082, 195.6514
401.3903, 195.6780
401.8724, 195.6177
402.3545, 195.4138
402.8366, 194.8957
403.3188, 194.6133
403.8009, 194.6505
404.2830, 194.9178
404.7651, 195.1944
405.2472, 195.4664
405.7293, 195.7889
406.2115, 196.3102
406.6936, 197.0490
407.1757, 197.1205
407.6578, 196.3650
408.1399, 195.3774
408.6220, 194.8274
409.1042, 194.7078
409.5863, 194.6770
410.0684, 194.6627
410.5505, 194.6667
411.0326, 194.7070
411.5147, 194.7822
411.9969, 194.8394
412.4790, 194.8554
412.9611, 194.8253
413.4432, 194.7252
413.9253, 194.5392
414.4074, 194.3341
414.8896, 193.9493
415.3717, 193.5859
415.8538, 193.7275
416.3359, 195.2686
416.8180, 196.9906
417.3001, 197.6260
417.7823, 197.1902
418.2644, 196.7591
418.7465, 196.9269
419.2286, 197.4106
419.7107, 197.9525
420.1928, 198.6845
420.6750, 199.1975
421.1571, 199.2003
421.6392, 198.8549
422.1213, 198.5821
422.6034, 198.3046
423.0855, 198.2838
423.5677, 198.7570
424.0498, 200.0000
424.5319, 200.7966
425.0140, 200.7477
425.4961, 200.3655
425.9782, 200.1666
426.4604, 200.2978
426.9425, 200.4107
427.4246, 200.5046
427.9067, 200.5591
428.3888, 200.3994
428.8709, 199.9356
429.3531, 199.4191
429.8352, 198.9241
430.3173, 198.3968
430.7994, 198.2545
431.2815, 198.6365
431.7636, 199.1926
432.2458, 199.3419
432.7279, 199.0638
433.2100, 198.6712
433.6921, 198.1597
434.1742, 197.6309
434.6563, 197.6066
435.1385, 198.1051
435.6206, 198.5189
436.1027, 198.3415
436.5848, 197.6750
437.0669, 196.6839
437.5490, 195.2096
438.0312, 193.8996
438.5133, 193.6305
438.9954, 194.1356
439.4775, 194.6706
439.9596, 194.8965
440.4417, 194.9585
440.9239, 194.9501
441.4060, 194.8786
441.8881, 194.8304
442.3702, 194.9630
442.8523, 195.0945
443.3344, 195.0513
443.8166, 194.7920
444.2987, 194.3430
444.7808, 193.4142
445.2629, 192.2591
445.7450, 191.6195
446.2271, 191.9766
446.7093, 192.5984
447.1914, 193.3047
447.6735, 194.2402
448.1556, 194.7271
448.6377, 194.5105
449.1198, 194.0125
449.6020, 193.6529
450.0841, 193.5199
450.5662, 193.3656
451.0483, 193.1918
451.5304, 192.9672
452.0125, 192.4579
452.4947, 191.4814
452.9768, 190.7694
453.4589, 190.8709
453.9410, 191.8127
454.4231, 192.4630
454.9052, 192.7906
455.3874, 192.8659
455.8695, 192.7097
456.3516, 192.3481
456.8337, 191.9666
457.3158, 191.5123
457.7979, 191.1634
458.2801, 191.4073
458.7622, 192.1532
459.2443, 192.7657
459.7264, 192.6265
460.2085, 192.1646
460.6906, 191.9777
461.1728, 192.2131
461.6549, 192.4470
462.1370, 192.2019
462.6191, 191.7992
463.1012, 191.7163
463.5833, 192.5499
464.0655, 193.3488
464.5476, 193.6138
465.0297, 193.3992
465.5118, 193.2517
465.9939, 193.3764
466.4760, 193.5605
466.9582, 193.6743
467.4403, 193.5580
467.9224, 193.6481
468.4045, 194.2263
468.8866, 194.8963
469.3687, 195.0586
469.8509, 194.3680
470.3330, 193.7908
470.8151, 193.5400
471.2972, 193.5974
471.7793, 193.8212
472.2614, 194.3154
472.7436, 194.7037
473.2257, 194.6054
473.7078, 194.0077
474.1899, 193.7625
474.6720, 193.9844
475.1541, 194.4246
475.6363, 194.7656
476.1184, 195.0112
476.6005, 195.1841
477.0826, 195.2144
477.5647, 195.2232
478.0468, 195.4741
478.5290, 195.9376
479.0111, 196.3477
479.4932, 196.3968
479.9753, 196.3391
480.4574, 196.5208
480.9395, 197.0969
481.4217, 197.6067
481.9038, 197.6837
482.3859, 197.5268
482.8680, 197.4256
483.3501, 197.2677
483.8322, 197.3807
484.3144, 198.0541
484.7965, 199.2306
485.2786, 200.1691
485.7607, 200.5780
486.2428, 200.8500
486.7249, 201.2095
487.2071, 201.8782
487.6892, 202.1137
488.1713, 201.5880
488.6534, 200.8615
489.1355, 200.8151
489.6176, 201.7385
490.0998, 202.4988
490.5819, 202.7794
491.0640, 202.6980
491.5461, 202.8673
492.0282, 203.3294
492.5103, 203.7639
492.9925, 203.8195
493.4746, 203.6160
493.9567, 203.8391
494.4388, 204.6069
494.9209, 205.4360
495.4030, 205.6630
495.8852, 205.5126
496.3673, 205.5676
496.8494, 206.1593
497.3315, 206.9292
497.8136, 207.5760
498.2957, 208.1155
498.7779, 208.5957
499.2600, 209.0459
499.7421, 209.4486
500.2242, 209.7852
500.7063, 210.0476
501.1884, 210.2954
501.6706, 210.6201
502.1527, 210.9109
502.6348, 211.0491
503.1169, 210.7116
503.5990, 210.5974
504.0811, 210.8126
504.5633, 211.3075
505.0454, 211.9435
505.5275, 212.8615
506.0096, 213.6597
506.4917, 214.1597
506.9738, 214.3447
507.4560, 214.4180
507.9381, 214.2990
508.4202, 214.2810
508.9023, 214.7518
509.3844, 215.6798
509.8665, 216.5557
510.3487, 217.3515
510.8308, 217.9327
511.3129, 217.8744
511.7950, 217.3231
512.2772, 216.9592
512.7593, 217.2893
513.2414, 217.9265
513.7235, 218.4500
514.2056, 218.8481
514.6877, 219.1567
515.1699, 219.2054
515.6520, 219.2733
516.1341, 219.6980
516.6162, 220.9720
517.0983, 221.7756
517.5804, 221.0990
518.0626, 219.7926
518.5447, 219.2523
519.0268, 220.4450
519.5089, 221.6310
519.9910, 222.3469
520.4731, 222.6379
520.9553, 223.2547
521.4374, 224.5995
521.9195, 225.6636
522.4016, 225.6913
522.8837, 224.3470
523.3658, 223.8510
523.8480, 224.4652
524.3301, 225.4194
524.8122, 225.6642
525.2943, 225.2406
525.7764, 224.7322
526.2585, 224.1846
526.7407, 223.7735
527.2228, 223.9585
527.7049, 224.6417
528.1870, 225.2392
528.6691, 225.3084
529.1512, 225.1489
529.6334, 225.1106
530.1155, 225.2196
530.5976, 225.3246
531.0797, 225.1913
531.5618, 225.0724
532.0439, 225.2408
532.5261, 226.1366
533.0082, 226.7849
533.4903, 226.7658
533.9724, 226.3493
534.4545, 226.1179
534.9366, 226.4946
535.4188, 226.6356
535.9009, 226.3262
536.3830, 225.5762
536.8651, 224.6353
537.3472, 223.2528
537.8293, 222.1830
538.3115, 222.1149
538.7936, 223.1487
539.2757, 223.8039
539.7578, 224.0011
540.2399, 223.8340
540.7220, 223.1974
541.2042, 222.2161
541.6863, 221.5758
542.1684, 221.5931
542.6505, 221.9202
543.1326, 222.1472
543.6147, 222.2706
544.0969, 222.2841
544.5790, 222.2395
545.0611, 222.0405
545.5432, 221.4786
546.0253, 220.5128
546.5074, 219.7856
546.9896, 219.9323
547.4717, 220.2319
547.9538, 220.0921
548.4359, 218.8630
548.9180, 217.9509
549.4001, 217.7866
549.8823, 217.9035
550.3644, 217.4561
550.8465, 215.9734
551.3286, 214.8077
551.8107, 214.3185
552.2928, 214.4397
552.7750, 214.7780
553.2571, 215.4086
553.7392, 215.9016
554.2213, 215.9078
554.7034, 215.5055
555.1855, 215.1205
555.6677, 214.7632
556.1498, 214.4888
556.6319, 214.4755
557.1140, 214.5779
557.5961, 214.4805
558.0782, 214.0031
558.5604, 213.4464
559.0425, 213.1068
559.5246, 212.8751
560.0067, 212.5094
560.4888, 211.6390
560.9709, 210.8631
561.4531, 210.6113
561.9352, 210.8888
562.4173, 210.8082
562.8994, 209.7951
563.3815, 208.7669
563.8636, 208.1890
564.3458, 208.2472
564.8279, 208.3133
565.3100, 208.5197
565.7921, 208.5715
566.2742, 207.8805
566.7563, 206.3069
567.2385, 205.3940
567.7206, 205.6635
568.2027, 206.5460
568.6848, 206.7801
569.1669, 206.4464
569.6490, 206.1207
570.1312, 206.1935
570.6133, 206.4209
571.0954, 206.5116
571.5775, 206.4522
572.0596, 206.1599
572.5417, 205.3749
573.0239, 204.4519
573.5060, 203.6716
573.9881, 203.0097
574.4702, 202.6767
574.9523, 203.0741
575.4344, 203.7099
575.9166, 203.9540
576.3987, 203.2914
576.8808, 202.8795
577.3629, 202.9797
577.8450, 203.4018
578.3271, 203.5110
578.8093, 203.2404
579.2914, 202.8409
579.7735, 202.3091
580.2556, 201.7053
580.7377, 201.6104
581.2198, 202.0796
581.7020, 202.4250
582.1841, 201.7306
582.6662, 200.5096
583.1483, 200.1039
583.6304, 200.8158
584.1125, 201.6849
584.5947, 201.9196
585.0768, 201.7560
585.5589, 201.5400
586.0410, 201.4630
586.5231, 201.2844
587.0052, 200.8448
587.4873, 200.2284
587.9694, 199.6650
588.4515, 199.1506
588.9337, 198.7480
589.4158, 198.4743
589.8979, 198.3304
590.3800, 198.3272
590.8621, 198.6176
591.3442, 198.7736
591.8264, 198.3613
592.3085, 197.3022
592.7906, 196.9197
593.2727, 197.3698
593.7548, 198.0626
594.2369, 198.3768
594.7191, 198.3565
595.2012, 198.1217
595.6833, 197.5516
596.1654, 197.0786
596.6475, 197.4219
597.1296, 198.2347
597.6118, 198.7214
598.0939, 198.2429
598.5760, 197.5943
599.0581, 197.2308
599.5402, 197.1339
600.0223, 196.9291
600.5045, 196.2089
600.9866, 195.6589
601.4687, 195.6861
601.9508, 196.5371
602.4329, 196.8458
602.9150, 196.3241
603.3972, 195.6565
603.8793, 195.5331
604.3614, 196.0287
604.8435, 196.1882
605.3256, 195.8037
605.8077, 195.2633
606.2899, 195.1443
606.7720, 195.4022
607.2541, 195.8519
607.7362, 196.4895
608.2183, 197.2128
608.7004, 198.0771
609.1826, 198.9641
609.6647, 199.4335
610.1468, 198.9998
610.6289, 198.3017
611.1110, 197.4827
611.5931, 196.5267
612.0753, 196.3953
612.5574, 198.4951
613.0395, 200.5232
613.5216, 201.0756
614.0037, 199.2973
614.4858, 198.2794
614.9680, 198.2421
615.4501, 198.6646
615.9322, 198.9494
616.4143, 199.0829
616.8964, 199.2529
617.3785, 199.4335
617.8607, 199.7709
618.3428, 200.7882
618.8249, 202.2697
619.3070, 203.3125
619.7891, 203.2196
620.2712, 202.6856
620.7534, 202.2227
621.2355, 201.8739
621.7176, 201.8549
622.1997, 202.5632
622.6818, 203.3975
623.1639, 204.0670
623.6461, 204.5527
624.1282, 204.8240
624.6103, 204.5178
625.0924, 204.3081
625.5745, 204.7006
626.0566, 206.1170
626.5388, 206.8775
627.0209, 206.7527
627.5030, 206.2774
627.9851, 206.1481
628.4672, 206.3503
628.9493, 206.5925
629.4315, 206.7514
629.9136, 207.0161
630.3957, 207.8841
630.8778, 209.1307
631.3599, 210.0710
631.8420, 210.1552
632.3242, 209.9865
632.8063, 209.9813
633.2884, 210.1219
633.7705, 210.2578
634.2526, 210.4792
634.7347, 210.5648
635.2169, 210.3706
635.6990, 209.8432
636.1811, 209.3412
636.6632, 208.8274
637.1453, 208.3827
637.6274, 208.1180
638.1096, 208.0838
638.5917, 207.8022
639.0738, 207.1698
639.5559, 206.5132
640.0380, 206.2535
640.5201, 206.3278
641.0023, 206.5148
641.4844, 206.8898
641.9665, 207.0900
642.4486, 206.4865
642.9307, 205.4275
643.4128, 204.6800
643.8950, 205.0348
644.3771, 205.3180
644.8592, 204.7504
645.3413, 203.5461
645.8234, 202.8588
646.3055, 203.5422
646.7877, 204.0837
647.2698, 203.8916
647.7519, 202.9243
648.2340, 202.4820
648.7161, 202.7216
649.1982, 203.0518
649.6804, 203.0508
650.1625, 202.7441
650.6446, 202.3125
651.1267, 201.7341
651.6088, 201.2827
652.0909, 201.3071
652.5731, 201.6471
