##NAMES=Safflorite
##RRUFFID=R100115
##IDEAL CHEMISTRY=(Co^2+^,Fe^2+^,Ni^2+^)As_2_
##LOCALITY=Hudson Bay (Rustex) mine, Gowganda area, Ontario, Canada
##OWNER=RRUFF
##SOURCE=Robert Woodside
##DESCRIPTION=Steel gray elongated tablets arranged as sixling twins
##STATUS=The identification of this mineral has been confirmed only by single crystal X-ray diffraction.
##URL=rruff.info/R100115
145.7269, 47.01156
146.2090, 46.69133
146.6911, 46.69252
147.1732, 46.76197
147.6553, 46.87649
148.1375, 46.95679
148.6196, 46.89304
149.1017, 46.71004
149.5838, 46.47860
150.0659, 46.24030
150.5480, 45.97412
151.0302, 45.59920
151.5123, 44.99294
151.9944, 44.42802
152.4765, 44.15730
152.9586, 44.14792
153.4408, 44.14057
153.9229, 43.86719
154.4050, 43.31741
154.8871, 42.99727
155.3692, 43.32503
155.8513, 43.64021
156.3335, 43.50856
156.8156, 42.93618
157.2977, 42.33400
157.7798, 42.25631
158.2619, 42.95966
158.7440, 43.44121
159.2262, 43.69481
159.7083, 43.71568
160.1904, 43.41074
160.6725, 42.78788
161.1546, 42.01790
161.6367, 41.41005
162.1189, 41.12369
162.6010, 40.76215
163.0831, 40.06067
163.5652, 39.41064
164.0473, 39.26428
164.5294, 39.78191
165.0115, 40.65479
165.4937, 41.13689
165.9758, 41.07092
166.4579, 40.83290
166.9400, 40.31722
167.4221, 39.67509
167.9042, 39.17421
168.3864, 38.96532
168.8685, 38.88599
169.3506, 38.40092
169.8327, 37.02566
170.3148, 36.15155
170.7969, 36.79730
171.2791, 38.51665
171.7612, 39.73112
172.2433, 39.53086
172.7254, 38.53074
173.2075, 38.11110
173.6896, 38.50765
174.1718, 39.03133
174.6539, 39.31577
175.1360, 39.36265
175.6181, 38.89140
176.1002, 37.13969
176.5823, 35.10793
177.0645, 33.90518
177.5466, 33.83562
178.0287, 34.37421
178.5108, 34.93518
178.9929, 35.54745
179.4750, 36.07751
179.9572, 36.61175
180.4393, 36.99268
180.9214, 36.99454
181.4035, 36.49133
181.8856, 35.74432
182.3677, 35.33591
182.8499, 35.50389
183.3320, 35.58498
183.8141, 35.29691
184.2962, 34.92106
184.7783, 34.77623
185.2604, 35.02744
185.7425, 35.54276
186.2247, 35.85411
186.7068, 35.84807
187.1889, 35.74752
187.6710, 35.59171
188.1531, 35.36086
188.6352, 35.00417
189.1174, 34.48830
189.5995, 33.85194
190.0816, 33.31675
190.5637, 32.78081
191.0458, 32.45939
191.5279, 32.43133
192.0101, 32.64606
192.4922, 33.09696
192.9743, 33.84307
193.4564, 34.77484
193.9385, 34.99508
194.4206, 33.86483
194.9028, 32.88358
195.3849, 32.73345
195.8670, 33.17823
196.3491, 33.47046
196.8312, 33.07566
197.3133, 32.19577
197.7955, 31.87086
198.2776, 32.58871
198.7597, 33.35219
199.2418, 33.59417
199.7239, 33.37167
200.2060, 33.06454
200.6882, 32.83661
201.1703, 32.70775
201.6524, 32.70287
202.1345, 32.99194
202.6166, 33.23528
203.0987, 33.00447
203.5809, 32.27961
204.0630, 31.79074
204.5451, 32.32245
205.0272, 33.19997
205.5093, 33.38195
205.9914, 32.33330
206.4735, 30.97768
206.9557, 30.56326
207.4378, 31.30633
207.9199, 31.98494
208.4020, 31.82638
208.8841, 31.39753
209.3662, 31.29344
209.8484, 31.81326
210.3305, 32.51254
210.8126, 32.52043
211.2947, 31.46872
211.7768, 30.68009
212.2589, 30.67811
212.7411, 31.06337
213.2232, 31.55458
213.7053, 32.08024
214.1874, 32.48541
214.6695, 32.32084
215.1516, 31.01874
215.6338, 30.19065
216.1159, 30.50492
216.5980, 31.20714
217.0801, 31.45794
217.5622, 30.86521
218.0443, 29.85973
218.5265, 29.69898
219.0086, 31.28832
219.4907, 32.44419
219.9728, 32.97492
220.4549, 32.96614
220.9370, 32.33009
221.4192, 31.02530
221.9013, 29.43141
222.3834, 28.67843
222.8655, 29.65494
223.3476, 30.48635
223.8297, 31.22062
224.3119, 31.70256
224.7940, 31.62034
225.2761, 30.82916
225.7582, 29.68356
226.2403, 29.21991
226.7224, 30.29285
227.2045, 31.04997
227.6867, 31.12899
228.1688, 30.88437
228.6509, 30.78327
229.1330, 31.02863
229.6151, 31.46143
230.0972, 31.66955
230.5794, 31.65121
231.0615, 31.43719
231.5436, 30.71910
232.0257, 29.87496
232.5078, 29.55923
232.9899, 30.08261
233.4721, 30.99655
233.9542, 31.28537
234.4363, 30.75610
234.9184, 30.24758
235.4005, 29.92748
235.8826, 29.76903
236.3648, 29.74276
236.8469, 29.85947
237.3290, 30.05514
237.8111, 30.25856
238.2932, 30.50582
238.7753, 30.61247
239.2575, 30.40010
239.7396, 30.00934
240.2217, 29.73678
240.7038, 29.66223
241.1859, 29.72803
241.6680, 29.94840
242.1502, 30.33632
242.6323, 30.51616
243.1144, 30.17249
243.5965, 29.49875
244.0786, 28.98409
244.5607, 28.72973
245.0428, 28.65065
245.5250, 28.67154
246.0071, 28.78310
246.4892, 28.95243
246.9713, 29.28244
247.4534, 29.66898
247.9355, 29.76860
248.4177, 29.42646
248.8998, 28.96869
249.3819, 28.58010
249.8640, 28.27372
250.3461, 28.11889
250.8282, 28.24999
251.3104, 28.57952
251.7925, 28.81039
252.2746, 29.00360
252.7567, 28.94973
253.2388, 28.29412
253.7209, 27.32137
254.2031, 26.68514
254.6852, 26.98500
255.1673, 27.92368
255.6494, 28.31051
256.1315, 27.84275
256.6136, 27.27675
257.0958, 26.88918
257.5779, 26.65726
258.0600, 26.55805
258.5421, 26.62725
259.0242, 26.79942
259.5063, 26.84010
259.9885, 26.69572
260.4706, 26.49592
260.9527, 26.12547
261.4348, 25.77500
261.9169, 25.75899
262.3990, 26.31247
262.8812, 27.14984
263.3633, 27.39215
263.8454, 26.58787
264.3275, 25.94327
264.8096, 25.72889
265.2917, 25.79716
265.7739, 26.05423
266.2560, 26.47379
266.7381, 26.93077
267.2202, 27.11647
267.7023, 26.90314
268.1844, 26.62372
268.6666, 26.31948
269.1487, 25.98981
269.6308, 25.56819
270.1129, 25.04147
270.5950, 24.57803
271.0771, 24.52442
271.5593, 25.09741
272.0414, 25.67823
272.5235, 26.42024
273.0056, 27.02982
273.4877, 27.19710
273.9698, 26.88389
274.4520, 26.38630
274.9341, 26.16894
275.4162, 26.43675
275.8983, 26.55172
276.3804, 26.42222
276.8625, 26.24225
277.3446, 26.14057
277.8268, 26.12967
278.3089, 26.12813
278.7910, 26.02303
279.2731, 25.74541
279.7552, 25.60975
280.2373, 25.72700
280.7195, 25.86321
281.2016, 26.00933
281.6837, 26.09110
282.1658, 25.88987
282.6479, 25.10204
283.1300, 23.52891
283.6122, 22.83077
284.0943, 23.59540
284.5764, 24.52006
285.0585, 25.21886
285.5406, 25.64514
286.0227, 25.86395
286.5049, 25.93218
286.9870, 25.84772
287.4691, 25.43322
287.9512, 24.15797
288.4333, 23.14725
288.9154, 22.90756
289.3976, 23.16256
289.8797, 23.34451
290.3618, 23.09326
290.8439, 22.52875
291.3260, 22.32638
291.8081, 22.88488
292.2903, 23.33764
292.7724, 23.52151
293.2545, 23.52131
293.7366, 23.41529
294.2187, 23.23155
294.7008, 23.05781
295.1830, 23.13288
295.6651, 23.86135
296.1472, 24.34843
296.6293, 24.34649
297.1114, 24.18132
297.5935, 24.30865
298.0757, 24.85715
298.5578, 25.41599
299.0399, 25.26527
299.5220, 23.77468
300.0041, 22.72846
300.4862, 22.23110
300.9684, 22.10543
301.4505, 22.35683
301.9326, 22.92776
302.4147, 23.49100
302.8968, 23.64033
303.3789, 23.21445
303.8611, 22.97788
304.3432, 22.84396
304.8253, 22.94302
305.3074, 23.69628
305.7895, 24.90718
306.2716, 25.62980
306.7538, 24.89472
307.2359, 22.56674
307.7180, 21.55875
308.2001, 23.10385
308.6822, 24.49767
309.1643, 24.32607
309.6465, 23.00492
310.1286, 21.76759
310.6107, 21.40761
311.0928, 21.79840
311.5749, 22.08530
312.0570, 22.34528
312.5392, 22.43608
313.0213, 22.14301
313.5034, 21.68992
313.9855, 21.43272
314.4676, 21.53711
314.9497, 21.90824
315.4319, 22.31756
315.9140, 22.91274
316.3961, 23.33207
316.8782, 23.54670
317.3603, 23.57169
317.8424, 23.38061
318.3245, 22.97147
318.8066, 22.44995
319.2888, 21.94913
319.7709, 21.37841
320.2530, 21.10791
320.7351, 21.30987
321.2172, 21.68132
321.6993, 22.07647
322.1815, 22.43764
322.6636, 22.64779
323.1457, 22.54011
323.6278, 22.02454
324.1099, 21.90029
324.5920, 22.70197
325.0742, 23.34009
325.5563, 23.05527
326.0384, 22.09072
326.5205, 21.28364
327.0026, 21.24814
327.4847, 21.90033
327.9669, 22.28585
328.4490, 22.19503
328.9311, 22.11766
329.4132, 22.23179
329.8953, 22.43140
330.3774, 22.54074
330.8596, 22.47651
331.3417, 22.27537
331.8238, 22.03263
332.3059, 21.58682
332.7880, 21.30597
333.2701, 21.29706
333.7523, 21.41162
334.2344, 21.56308
334.7165, 21.70948
335.1986, 21.74815
335.6807, 21.50034
336.1628, 20.74111
336.6450, 20.28318
337.1271, 20.11526
337.6092, 20.21316
338.0913, 20.75832
338.5734, 21.63401
339.0555, 22.36389
339.5377, 22.46999
340.0198, 21.88269
340.5019, 21.54617
340.9840, 21.90920
341.4661, 22.02823
341.9482, 21.22900
342.4304, 19.94039
342.9125, 19.09504
343.3946, 19.30477
343.8767, 20.32143
344.3588, 20.93644
344.8409, 20.73001
345.3231, 20.56982
345.8052, 20.71338
346.2873, 20.86683
346.7694, 20.56308
347.2515, 19.66116
347.7336, 18.61288
348.2158, 18.32992
348.6979, 19.44073
349.1800, 20.20108
349.6621, 20.45716
350.1442, 20.52938
350.6263, 20.63220
351.1085, 20.78594
351.5906, 20.86352
352.0727, 20.69198
352.5548, 20.20190
353.0369, 19.93116
353.5190, 20.20007
354.0012, 20.36911
354.4833, 20.07145
354.9654, 19.49923
355.4475, 19.09757
355.9296, 19.20173
356.4117, 19.69206
356.8939, 19.86831
357.3760, 19.33882
357.8581, 19.02575
358.3402, 19.32122
358.8223, 19.80804
359.3044, 19.97064
359.7865, 19.61398
360.2686, 19.06502
360.7508, 18.95917
361.2329, 19.55141
361.7150, 19.91983
362.1971, 19.87067
362.6792, 19.66314
363.1613, 19.36086
363.6435, 19.01666
364.1256, 18.77704
364.6077, 18.85256
365.0898, 19.27203
365.5719, 19.51910
366.0540, 19.48743
366.5362, 19.38444
367.0183, 19.22465
367.5004, 19.06132
367.9825, 18.98666
368.4646, 19.05480
368.9467, 19.24798
369.4289, 19.56167
369.9110, 20.13325
370.3931, 20.50959
370.8752, 20.38993
371.3573, 20.08848
371.8394, 19.92688
372.3216, 20.01298
372.8037, 20.13581
373.2858, 19.98829
373.7679, 19.54306
374.2500, 19.23186
374.7321, 19.24417
375.2143, 19.33624
375.6964, 19.37244
376.1785, 19.33781
376.6606, 19.18906
377.1427, 18.72989
377.6248, 18.10913
378.1070, 17.95596
378.5891, 18.53768
379.0712, 19.07563
379.5533, 18.86251
380.0354, 18.24782
380.5175, 17.90788
380.9997, 18.22416
381.4818, 18.74901
381.9639, 18.91489
382.4460, 18.71512
382.9281, 18.51763
383.4102, 18.52641
383.8924, 18.59548
384.3745, 18.47109
384.8566, 18.08499
385.3387, 17.73406
385.8208, 17.59212
386.3029, 17.61709
386.7851, 17.72092
387.2672, 17.91127
387.7493, 18.09690
388.2314, 18.13598
388.7135, 18.04439
389.1956, 18.01772
389.6778, 18.24264
390.1599, 18.45878
390.6420, 18.30951
391.1241, 17.80609
391.6062, 17.42201
392.0883, 17.56615
392.5705, 18.08719
393.0526, 18.16644
393.5347, 17.22793
394.0168, 16.51543
394.4989, 16.67458
394.9810, 17.38578
395.4632, 18.10547
395.9453, 18.66570
396.4274, 18.96916
396.9095, 18.78047
397.3916, 17.69951
397.8737, 17.09936
398.3559, 17.47992
398.8380, 18.06266
399.3201, 18.15919
399.8022, 17.73936
400.2843, 17.25294
400.7664, 17.11636
401.2485, 17.34577
401.7307, 17.34942
402.2128, 16.91527
402.6949, 16.52424
403.1770, 16.17385
403.6591, 15.99391
404.1412, 16.29216
404.6234, 17.22590
405.1055, 18.41911
405.5876, 18.93147
406.0697, 18.26169
406.5518, 17.72083
407.0339, 17.35471
407.5161, 17.11488
407.9982, 16.94540
408.4803, 16.85254
408.9624, 16.91148
409.4445, 17.25618
409.9266, 17.91829
410.4088, 18.32669
410.8909, 18.26459
411.3730, 18.16614
411.8551, 18.21507
412.3372, 18.30113
412.8193, 18.22441
413.3015, 17.86985
413.7836, 17.35605
414.2657, 16.94207
414.7478, 16.66642
415.2299, 16.36731
415.7120, 15.62152
416.1942, 15.10272
416.6763, 15.55317
417.1584, 16.97888
417.6405, 18.27310
418.1226, 18.31114
418.6047, 17.29969
419.0869, 16.70734
419.5690, 16.84742
420.0511, 17.02755
420.5332, 16.68821
421.0153, 16.07005
421.4974, 15.67948
421.9796, 15.82464
422.4617, 16.12584
422.9438, 16.05978
423.4259, 15.63320
423.9080, 15.37297
424.3901, 15.53008
424.8723, 15.93696
425.3544, 16.34928
425.8365, 16.79516
426.3186, 17.10723
426.8007, 17.30721
427.2828, 17.30058
427.7650, 16.76943
428.2471, 15.61275
428.7292, 14.53368
429.2113, 14.20799
429.6934, 14.66140
430.1755, 15.04868
430.6577, 15.48135
431.1398, 15.74009
431.6219, 15.49192
432.1040, 14.96027
432.5861, 14.76005
433.0682, 15.21567
433.5504, 16.03261
434.0325, 16.51639
434.5146, 16.46938
434.9967, 16.39407
435.4788, 16.21561
435.9609, 16.07471
436.4431, 16.15863
436.9252, 16.44267
437.4073, 16.66567
437.8894, 16.54173
438.3715, 16.05208
438.8536, 15.95305
439.3358, 16.63584
439.8179, 17.28112
440.3000, 17.91507
440.7821, 18.33383
441.2642, 18.16609
441.7463, 17.26065
442.2284, 16.06463
442.7105, 15.38972
443.1927, 15.33664
443.6748, 15.49560
444.1569, 16.22324
444.6390, 16.82690
445.1211, 16.76740
445.6032, 16.19973
446.0854, 15.78030
446.5675, 16.09965
447.0496, 16.92360
447.5317, 17.35607
448.0138, 17.33867
448.4959, 17.06971
448.9781, 16.38899
449.4602, 15.60832
449.9423, 15.03530
450.4244, 14.72096
450.9065, 14.67348
451.3886, 15.12176
451.8708, 15.91881
452.3529, 16.24104
452.8350, 15.75286
453.3171, 15.11141
453.7992, 15.04671
454.2813, 15.43205
454.7635, 15.72216
455.2456, 15.75765
455.7277, 15.67005
456.2098, 15.49776
456.6919, 15.27766
457.1740, 15.21566
457.6562, 15.46343
458.1383, 15.87952
458.6204, 16.06033
459.1025, 15.86229
459.5846, 15.77110
460.0667, 15.85266
460.5489, 16.09199
461.0310, 16.62153
461.5131, 17.38930
461.9952, 17.96627
462.4773, 17.90638
462.9594, 17.18247
463.4416, 16.67834
463.9237, 16.33589
464.4058, 16.26032
464.8879, 16.86353
465.3700, 17.62236
465.8521, 17.66936
466.3343, 16.69592
466.8164, 15.45125
467.2985, 15.42641
467.7806, 17.44650
468.2627, 18.09893
468.7448, 15.46888
469.2270, 13.06777
469.7091, 12.74767
470.1912, 14.02493
470.6733, 15.31804
471.1554, 15.66144
471.6375, 15.37005
472.1197, 15.21522
472.6018, 15.20775
473.0839, 15.30068
473.5660, 15.66797
474.0481, 16.01090
474.5302, 15.96559
475.0124, 15.47550
475.4945, 15.08205
475.9766, 15.34846
476.4587, 15.95238
476.9408, 16.01003
477.4229, 15.33242
477.9051, 14.59187
478.3872, 14.18148
478.8693, 14.13561
479.3514, 14.49906
479.8335, 15.89783
480.3156, 17.01276
480.7978, 16.93011
481.2799, 16.09433
481.7620, 15.38936
482.2441, 15.09358
482.7262, 15.10962
483.2083, 15.36052
483.6904, 16.00301
484.1725, 16.26464
484.6547, 15.87667
485.1368, 15.38565
485.6189, 14.93114
486.1010, 14.61516
486.5831, 14.62428
487.0652, 15.07738
487.5474, 15.82968
488.0295, 16.50146
488.5116, 17.34824
488.9937, 17.60409
489.4758, 16.68879
489.9579, 15.67589
490.4401, 15.36132
490.9222, 15.69789
491.4043, 16.06425
491.8864, 15.93876
492.3685, 15.43249
492.8506, 15.09586
493.3328, 15.00929
493.8149, 14.90068
494.2970, 14.55659
494.7791, 14.18516
495.2612, 14.01121
495.7433, 14.08640
496.2255, 14.25622
496.7076, 14.44779
497.1897, 14.64303
497.6718, 14.76280
498.1539, 14.77089
498.6360, 14.81203
499.1182, 15.07112
499.6003, 15.48276
500.0824, 15.69860
500.5645, 15.53048
501.0466, 15.33538
501.5287, 15.26765
502.0109, 15.30951
502.4930, 15.48607
502.9751, 15.81558
503.4572, 16.07361
503.9393, 15.90187
504.4214, 15.08528
504.9036, 14.61669
505.3857, 14.77480
505.8678, 14.96599
506.3499, 14.92398
506.8320, 14.69514
507.3141, 14.35450
507.7963, 13.92460
508.2784, 13.58263
508.7605, 13.84067
509.2426, 15.09889
509.7247, 15.88176
510.2068, 15.68386
510.6890, 15.28539
511.1711, 14.92053
511.6532, 14.69957
512.1353, 14.86318
512.6174, 15.86136
513.0995, 17.15471
513.5817, 17.37722
514.0638, 16.36040
514.5459, 15.32480
515.0280, 14.59047
515.5101, 14.18740
515.9922, 14.16764
516.4744, 14.56806
516.9565, 15.01993
517.4386, 15.51156
517.9207, 15.89504
518.4028, 15.85453
518.8849, 15.39157
519.3671, 15.01429
519.8492, 15.11757
520.3313, 15.55965
520.8134, 15.62107
521.2955, 14.98503
521.7776, 14.45494
522.2598, 14.12782
522.7419, 13.98756
523.2240, 14.07820
523.7061, 14.37309
524.1882, 14.72797
524.6703, 15.00815
525.1525, 15.21451
525.6346, 15.41843
526.1167, 15.83676
526.5988, 15.94435
527.0809, 15.28976
527.5630, 14.46964
528.0452, 14.15304
528.5273, 14.49431
529.0094, 15.03998
529.4915, 15.40718
529.9736, 15.59086
530.4557, 15.50049
530.9379, 15.01105
531.4200, 14.49614
531.9021, 14.13628
532.3842, 13.91655
532.8663, 13.84576
533.3484, 13.99092
533.8306, 14.15394
534.3127, 14.13139
534.7948, 14.03201
535.2769, 14.15710
535.7590, 14.59223
536.2411, 15.07326
536.7233, 15.35878
537.2054, 15.43901
537.6875, 15.34197
538.1696, 14.68613
538.6517, 14.29324
539.1339, 14.70782
539.6160, 15.49547
540.0981, 15.97693
540.5802, 15.94155
541.0623, 15.73204
541.5444, 15.84756
542.0266, 16.38098
542.5087, 16.71288
542.9908, 16.64598
543.4728, 16.58126
543.9550, 16.65673
544.4371, 16.81071
544.9192, 16.98654
545.4013, 17.18744
545.8834, 17.24126
546.3655, 16.82805
546.8477, 15.98647
547.3298, 15.29308
547.8119, 14.78863
548.2940, 14.53502
548.7761, 14.75210
549.2582, 15.28110
549.7404, 15.68979
550.2225, 15.94433
550.7046, 16.00718
551.1867, 15.69576
551.6688, 15.18701
552.1509, 14.92034
552.6331, 15.03550
553.1152, 15.27415
553.5973, 15.31330
554.0794, 15.10837
554.5615, 14.97084
555.0436, 14.98995
555.5258, 14.96814
556.0079, 14.76022
556.4900, 14.48951
556.9721, 14.35561
557.4542, 14.42719
557.9363, 14.58481
558.4185, 14.69096
558.9006, 14.75734
559.3827, 14.65305
559.8648, 14.16724
560.3469, 13.78698
560.8290, 13.83139
561.3112, 14.09802
561.7933, 14.22849
562.2754, 14.07241
562.7575, 13.87789
563.2396, 13.88048
563.7217, 14.03652
564.2039, 14.18523
564.6860, 14.29113
565.1681, 14.40838
565.6502, 14.59955
566.1323, 14.85904
566.6144, 15.06636
567.0966, 15.28353
567.5787, 15.37945
568.0608, 15.35004
568.5429, 15.15176
569.0250, 14.57027
569.5071, 13.61620
569.9893, 12.79199
570.4714, 12.74515
570.9535, 13.53418
571.4356, 14.04935
571.9177, 14.30960
572.3998, 14.24185
572.8820, 13.43351
573.3641, 12.49814
573.8462, 12.13657
574.3283, 12.51680
574.8104, 13.23674
575.2925, 14.21666
575.7747, 15.27218
576.2568, 15.39254
576.7389, 14.24312
577.2210, 13.24177
577.7031, 13.36390
578.1852, 14.21560
578.6674, 14.81699
579.1495, 15.12554
579.6316, 15.23664
580.1137, 15.02528
580.5958, 14.72026
581.0779, 14.64568
581.5601, 14.81111
582.0422, 14.97580
582.5243, 14.98158
583.0064, 14.80850
583.4885, 14.31474
583.9706, 12.73575
584.4528, 11.97328
584.9349, 12.90897
585.4170, 14.10642
585.8991, 14.39427
586.3812, 13.81120
586.8633, 13.20596
587.3455, 13.19694
587.8276, 13.58809
588.3097, 13.81542
588.7918, 13.82365
589.2739, 14.05487
589.7560, 14.96400
590.2382, 15.85377
590.7203, 15.77996
591.2024, 14.76262
591.6845, 13.96447
592.1666, 13.83478
592.6487, 14.00021
593.1309, 14.24653
593.6130, 14.51101
594.0951, 14.61242
594.5772, 14.45350
595.0593, 14.22426
595.5414, 14.27692
596.0236, 14.77297
596.5057, 15.07226
596.9878, 14.98306
597.4699, 14.92668
597.9520, 15.21414
598.4341, 15.62137
598.9163, 15.71443
599.3984, 15.30455
599.8805, 14.75862
600.3626, 14.61547
600.8447, 14.86007
601.3268, 14.91719
601.8090, 14.61298
602.2911, 14.35330
602.7732, 14.59497
603.2553, 15.05653
603.7374, 15.11301
604.2195, 14.40202
604.7017, 13.81674
605.1838, 13.99596
605.6659, 14.51886
606.1480, 14.69265
606.6301, 14.42998
607.1122, 14.16221
607.5944, 14.26960
608.0765, 14.67923
608.5586, 14.83339
609.0407, 14.46378
609.5228, 14.19941
610.0049, 14.07702
610.4871, 14.08692
610.9692, 14.29143
611.4513, 14.63926
611.9334, 14.94366
612.4155, 15.07596
612.8976, 15.07690
613.3798, 15.01153
613.8619, 14.86736
614.3440, 14.79377
614.8261, 14.87175
615.3082, 14.99487
615.7903, 15.03096
616.2725, 14.98719
616.7546, 14.96587
617.2367, 15.15334
617.7188, 15.21411
618.2009, 14.80332
618.6830, 14.10668
619.1652, 13.48589
619.6473, 13.07266
620.1294, 12.91059
620.6115, 13.12222
621.0936, 13.80634
621.5757, 14.11091
622.0579, 13.62675
622.5400, 13.23704
623.0221, 13.13348
623.5042, 13.25799
623.9863, 13.64597
624.4684, 14.28804
624.9506, 14.78655
625.4327, 14.56649
625.9147, 13.96686
626.3969, 14.01636
626.8790, 14.82000
627.3611, 15.65317
627.8432, 16.21548
628.3253, 16.51426
628.8074, 16.50061
629.2896, 16.05192
629.7717, 15.74604
630.2538, 15.93277
630.7359, 16.06262
631.2180, 15.52966
631.7001, 14.60081
632.1823, 14.02741
632.6644, 14.19672
633.1465, 14.80621
633.6286, 15.39337
634.1107, 16.05422
634.5928, 16.19592
635.0750, 15.39351
635.5571, 14.55991
636.0392, 13.99030
636.5213, 13.73401
637.0034, 13.97240
637.4855, 14.93725
637.9677, 15.79240
638.4498, 15.79130
638.9319, 15.29486
639.4140, 14.99193
639.8961, 14.97670
640.3782, 15.03130
640.8604, 15.03038
641.3425, 14.95476
641.8246, 14.72228
642.3067, 14.07923
642.7888, 13.63225
