##NAMES=Safflorite
##RRUFFID=R100115
##IDEAL CHEMISTRY=(Co^2+^,Fe^2+^,Ni^2+^)As_2_
##LOCALITY=Hudson Bay (Rustex) mine, Gowganda area, Ontario, Canada
##OWNER=RRUFF
##SOURCE=Robert Woodside
##DESCRIPTION=Steel gray elongated tablets arranged as sixling twins
##STATUS=The identification of this mineral has been confirmed only by single crystal X-ray diffraction.
##URL=rruff.info/R100115
139.1977, 8.435837
139.6798, 9.797046
140.1619, 10.90225
140.6440, 11.66417
141.1262, 12.26456
141.6083, 12.84478
142.0904, 13.55919
142.5725, 14.06229
143.0546, 14.28537
143.5367, 14.21407
144.0189, 14.05185
144.5010, 13.35719
144.9831, 12.78666
145.4652, 12.87678
145.9473, 14.53952
146.4294, 15.95639
146.9116, 16.69295
147.3937, 16.64330
147.8758, 16.72456
148.3579, 17.15738
148.8400, 17.71774
149.3221, 18.18707
149.8043, 18.67490
150.2864, 18.93221
150.7685, 18.67752
151.2506, 17.70289
151.7327, 17.29287
152.2149, 18.47630
152.6970, 20.23503
153.1791, 21.24771
153.6612, 20.36467
154.1433, 19.27207
154.6254, 18.83806
155.1076, 19.38940
155.5897, 19.63295
156.0718, 18.44351
156.5539, 16.69349
157.0360, 15.81836
157.5181, 17.40643
158.0003, 19.36310
158.4824, 20.30593
158.9645, 19.75740
159.4466, 19.08971
159.9287, 19.08519
160.4108, 19.51303
160.8930, 19.88542
161.3751, 19.89445
161.8572, 19.78420
162.3393, 19.62652
162.8214, 19.20176
163.3035, 19.17973
163.7857, 20.80589
164.2678, 23.52281
164.7499, 25.60859
165.2320, 25.78020
165.7141, 25.01861
166.1963, 24.30471
166.6784, 23.75198
167.1605, 23.41833
167.6426, 23.71429
168.1247, 24.40243
168.6068, 24.57449
169.0890, 23.09705
169.5711, 20.90897
170.0532, 19.36829
170.5353, 18.79613
171.0174, 18.85485
171.4995, 19.42790
171.9817, 20.41414
172.4638, 21.24190
172.9459, 21.35697
173.4280, 21.02562
173.9101, 20.78411
174.3922, 20.76996
174.8744, 20.86075
175.3565, 20.90892
175.8386, 20.91301
176.3207, 20.84139
176.8028, 20.56751
177.2849, 20.18596
177.7671, 19.96722
178.2492, 19.98143
178.7313, 20.18235
179.2134, 20.56702
179.6955, 21.13672
180.1777, 21.64176
180.6598, 21.91099
181.1419, 21.95109
181.6240, 21.78002
182.1061, 21.32764
182.5882, 20.71713
183.0704, 20.22266
183.5525, 19.83946
184.0346, 19.63198
184.5167, 19.73684
184.9988, 20.12389
185.4809, 20.50194
185.9631, 20.85972
186.4452, 21.13915
186.9273, 21.12616
187.4094, 20.80137
187.8915, 20.31528
188.3736, 19.70518
188.8558, 18.96446
189.3379, 18.45402
189.8200, 18.25920
190.3021, 18.35224
190.7842, 18.72826
191.2663, 19.48011
191.7485, 20.14924
192.2306, 20.18856
192.7127, 19.54928
193.1948, 19.00131
193.6769, 18.72572
194.1591, 18.69174
194.6412, 18.78060
195.1233, 19.03432
195.6054, 19.28616
196.0875, 19.31695
196.5696, 19.07516
197.0518, 18.99146
197.5339, 19.29724
198.0160, 19.90202
198.4981, 19.87949
198.9802, 19.03061
199.4623, 18.02005
199.9445, 17.53153
200.4266, 17.65386
200.9087, 17.88074
201.3908, 18.11834
201.8729, 18.36517
202.3550, 18.66366
202.8372, 19.07788
203.3193, 19.41722
203.8014, 19.42476
204.2835, 18.97224
204.7656, 18.65664
205.2477, 18.64728
205.7299, 18.92930
206.2120, 19.15510
206.6941, 19.36882
207.1762, 19.46119
207.6583, 19.22886
208.1405, 18.45958
208.6226, 18.03436
209.1047, 18.28307
209.5868, 19.18144
210.0689, 19.55704
210.5510, 19.14873
211.0332, 18.61104
211.5153, 18.63647
211.9974, 19.49286
212.4795, 20.22127
212.9616, 20.66846
213.4437, 20.83724
213.9259, 20.61634
214.4080, 19.68319
214.8901, 18.78606
215.3722, 18.72030
215.8543, 19.91591
216.3364, 20.93988
216.8186, 21.57490
217.3007, 21.82144
217.7828, 21.74526
218.2649, 21.07301
218.7470, 20.41282
219.2291, 20.35091
219.7113, 21.20385
220.1934, 21.95837
220.6755, 22.43279
221.1576, 22.63640
221.6397, 22.89954
222.1218, 23.26051
222.6040, 23.62665
223.0861, 23.95012
223.5682, 24.31765
224.0503, 24.43274
224.5324, 24.08376
225.0146, 23.33439
225.4967, 23.15964
225.9788, 23.94867
226.4609, 24.84884
226.9430, 25.18094
227.4251, 24.60961
227.9073, 24.15867
228.3894, 23.95270
228.8715, 23.97851
229.3536, 24.11724
229.8357, 24.37042
230.3178, 24.73495
230.8000, 25.21313
231.2821, 25.81017
231.7642, 26.53728
232.2463, 27.61243
232.7284, 28.89910
233.2105, 29.36001
233.6927, 28.69617
234.1748, 27.57816
234.6569, 26.40877
235.1390, 25.20945
235.6211, 23.90264
236.1032, 22.36036
236.5854, 20.67686
237.0675, 19.29117
237.5496, 18.09651
238.0317, 17.33644
238.5138, 17.24154
238.9960, 18.24312
239.4781, 18.95615
239.9602, 19.20028
240.4423, 19.09702
240.9244, 19.10516
241.4065, 19.29206
241.8887, 19.49298
242.3708, 19.59474
242.8529, 19.46185
243.3350, 19.56816
243.8171, 20.04506
244.2992, 20.74884
244.7814, 21.26611
245.2635, 21.66723
245.7456, 21.77901
246.2277, 21.41626
246.7098, 20.15925
247.1919, 19.54251
247.6741, 19.85777
248.1562, 20.68293
248.6383, 20.97915
249.1204, 20.42273
249.6025, 19.92508
250.0846, 19.91704
250.5668, 20.60548
251.0489, 21.03758
251.5310, 21.07807
252.0131, 20.95288
252.4952, 21.13066
252.9774, 21.81487
253.4595, 22.37634
253.9416, 22.50584
254.4237, 22.04525
254.9058, 22.02398
255.3879, 22.64595
255.8701, 23.51114
256.3522, 23.99039
256.8343, 23.92071
257.3164, 23.87033
257.7985, 24.05090
258.2806, 24.50525
258.7628, 24.76876
259.2449, 24.80070
259.7270, 24.70541
260.2091, 24.65653
260.6912, 24.74685
261.1733, 24.58422
261.6555, 24.03245
262.1376, 23.09608
262.6197, 22.02210
263.1018, 20.71015
263.5839, 19.44693
264.0660, 18.47808
264.5482, 17.78540
265.0303, 17.52867
265.5124, 17.92656
265.9945, 18.86551
266.4766, 19.19212
266.9587, 18.75691
267.4409, 18.11384
267.9230, 17.76762
268.4051, 17.76164
268.8872, 17.75942
269.3693, 17.70571
269.8514, 17.60914
270.3336, 17.49212
270.8157, 17.34182
271.2978, 17.22535
271.7799, 17.19776
272.2620, 17.26200
272.7441, 17.37945
273.2263, 17.58377
273.7084, 17.80743
274.1905, 17.88047
274.6726, 17.80504
275.1548, 17.56690
275.6369, 16.97969
276.1190, 16.05977
276.6011, 15.67795
277.0832, 16.03340
277.5653, 16.76664
278.0475, 17.19813
278.5296, 17.31757
279.0117, 17.32479
279.4938, 17.35030
279.9759, 17.37492
280.4580, 17.18248
280.9402, 16.69914
281.4223, 16.17142
281.9044, 16.07288
282.3865, 16.37766
282.8686, 16.54052
283.3507, 16.10762
283.8329, 15.28273
284.3150, 14.99757
284.7971, 15.32478
285.2792, 15.84965
285.7613, 16.12956
286.2434, 16.18701
286.7256, 16.14475
287.2077, 15.92574
287.6898, 15.67262
288.1719, 15.81458
288.6540, 16.37370
289.1361, 16.94294
289.6183, 16.98139
290.1004, 16.68262
290.5825, 16.74414
291.0646, 17.75707
291.5467, 18.93637
292.0288, 18.72316
292.5110, 17.22431
292.9931, 15.70376
293.4752, 15.17054
293.9573, 15.34565
294.4394, 15.71921
294.9215, 16.32252
295.4037, 16.84671
295.8858, 16.77031
296.3679, 16.22548
296.8500, 15.81034
297.3321, 15.99590
297.8142, 16.52313
298.2964, 17.15032
298.7785, 18.00214
299.2606, 18.45839
299.7427, 17.39308
300.2248, 15.42028
300.7069, 14.09273
301.1891, 14.98562
301.6712, 16.54379
302.1533, 17.20816
302.6354, 16.69615
303.1176, 15.97309
303.5997, 15.54189
304.0818, 15.36631
304.5639, 15.37976
305.0460, 15.90751
305.5281, 16.35972
306.0103, 16.16543
306.4924, 15.29206
306.9745, 14.59954
307.4566, 14.60076
307.9387, 15.01299
308.4208, 15.52410
308.9030, 16.32546
309.3851, 16.94401
309.8672, 17.10298
310.3493, 16.84158
310.8314, 16.48830
311.3135, 16.12047
311.7957, 15.74010
312.2778, 15.33194
312.7599, 14.68221
313.2420, 14.27689
313.7241, 14.32718
314.2062, 14.74599
314.6884, 15.25925
315.1705, 16.11499
315.6526, 16.80164
316.1347, 17.00137
316.6168, 16.32241
317.0989, 15.88937
317.5811, 16.20048
318.0632, 16.82806
318.5453, 17.01297
319.0274, 15.97706
319.5095, 15.11046
319.9916, 14.90918
320.4738, 15.61842
320.9559, 16.15682
321.4380, 16.42186
321.9201, 16.53102
322.4022, 16.60639
322.8843, 16.65140
323.3665, 16.65796
323.8486, 16.62605
324.3307, 16.55631
324.8128, 16.43216
325.2949, 16.15537
325.7770, 15.91295
326.2592, 15.87466
326.7413, 16.26791
327.2234, 16.42014
327.7055, 16.18075
328.1876, 15.64605
328.6697, 15.22702
329.1519, 14.92162
329.6340, 14.73472
330.1161, 14.65478
330.5982, 14.65838
331.0803, 14.89969
331.5625, 15.52494
332.0446, 16.26287
332.5267, 16.51447
333.0088, 16.14409
333.4909, 15.80570
333.9731, 15.90429
334.4552, 16.45431
334.9373, 16.22315
335.4194, 14.95337
335.9015, 13.57904
336.3836, 13.48195
336.8658, 14.70378
337.3479, 15.67661
337.8300, 15.84690
338.3121, 15.43694
338.7942, 15.32283
339.2763, 15.53804
339.7585, 15.71738
340.2406, 15.41305
340.7227, 14.74811
341.2048, 14.35408
341.6869, 14.41381
342.1690, 14.72823
342.6512, 14.99812
343.1333, 15.22715
343.6154, 15.44901
344.0975, 15.81150
344.5796, 16.16625
345.0617, 16.10592
345.5439, 15.49639
346.0260, 14.88936
346.5081, 15.07991
346.9902, 15.76787
347.4723, 16.18642
347.9544, 15.69379
348.4366, 14.89812
348.9187, 14.45197
349.4008, 14.37824
349.8829, 14.41534
350.3650, 14.45410
350.8471, 14.47042
351.3293, 14.43282
351.8114, 14.29585
352.2935, 14.13537
352.7756, 13.90007
353.2577, 13.64288
353.7398, 13.61423
354.2220, 14.27357
354.7041, 15.00578
355.1862, 15.31278
355.6683, 14.88199
356.1504, 14.46227
356.6325, 14.36975
357.1147, 14.45994
357.5968, 14.45201
358.0789, 14.02224
358.5610, 13.69396
359.0431, 13.75132
359.5252, 14.33479
360.0074, 14.73009
360.4895, 14.76208
360.9716, 14.59660
361.4537, 14.40281
361.9359, 14.02913
362.4180, 13.80739
362.9001, 13.81925
363.3822, 14.05440
363.8643, 14.31317
364.3464, 14.65220
364.8286, 14.96099
365.3107, 15.18863
365.7928, 15.39316
366.2749, 15.38265
366.7570, 15.02609
367.2391, 14.49250
367.7213, 14.22761
368.2034, 14.33758
368.6855, 14.48227
369.1676, 14.53002
369.6497, 14.47370
370.1318, 14.35631
370.6140, 14.13104
371.0961, 13.93235
371.5782, 14.00984
372.0603, 14.40272
372.5424, 14.62245
373.0245, 14.44094
373.5067, 13.99744
373.9888, 13.94815
374.4709, 14.33782
374.9530, 14.68380
375.4351, 14.41836
375.9172, 13.70648
376.3994, 13.42125
376.8815, 13.82308
377.3636, 14.45902
377.8457, 14.61768
378.3278, 14.36421
378.8099, 14.04383
379.2921, 13.79268
379.7742, 13.61484
380.2563, 13.54663
380.7384, 13.59780
381.2205, 13.66388
381.7026, 13.60284
382.1848, 13.49812
382.6669, 13.49757
383.1490, 13.87467
383.6311, 14.20300
384.1132, 14.04054
384.5953, 13.47287
385.0775, 13.01036
385.5596, 13.06088
386.0417, 13.26180
386.5238, 13.28019
387.0059, 12.86832
387.4880, 12.62676
387.9702, 12.90031
388.4523, 13.49549
388.9344, 14.04232
389.4165, 14.63594
389.8987, 14.98702
390.3808, 14.86877
390.8629, 14.13878
391.3450, 13.67288
391.8271, 13.88496
392.3092, 14.25574
392.7914, 14.31141
393.2735, 13.62785
393.7556, 13.13617
394.2377, 12.98032
394.7198, 13.11497
395.2019, 13.27051
395.6841, 13.56513
396.1662, 13.72636
396.6483, 13.52692
397.1304, 12.62430
397.6125, 12.40377
398.0946, 13.14013
398.5768, 14.27603
399.0589, 14.84158
399.5410, 14.71540
400.0231, 14.55115
400.5052, 14.59757
400.9873, 14.80462
401.4695, 14.71958
401.9516, 14.28779
402.4337, 13.84712
402.9158, 13.70566
403.3979, 13.84102
403.8800, 14.10718
404.3622, 14.56433
404.8443, 14.99219
405.3264, 14.93025
405.8085, 14.44251
406.2906, 13.92595
406.7727, 13.66520
407.2549, 13.52196
407.7370, 13.25075
408.2191, 12.82656
408.7012, 12.40434
409.1833, 11.85197
409.6654, 11.43897
410.1476, 11.63163
410.6297, 13.52201
411.1118, 15.28119
411.5939, 15.32118
412.0760, 13.96972
412.5581, 12.80425
413.0403, 12.77527
413.5224, 13.07456
414.0045, 13.10332
414.4866, 12.58737
414.9687, 12.20776
415.4508, 12.23238
415.9330, 12.50094
416.4151, 12.77171
416.8972, 13.16152
417.3793, 13.38903
417.8614, 13.24046
418.3436, 12.65916
418.8257, 12.47547
419.3078, 13.07334
419.7899, 13.75962
420.2720, 14.08462
420.7542, 13.98974
421.2363, 13.61324
421.7184, 12.74772
422.2005, 11.68100
422.6826, 11.18960
423.1647, 11.43223
423.6469, 11.82490
424.1290, 12.20543
424.6111, 12.57567
425.0932, 12.61760
425.5753, 12.23543
426.0574, 11.81975
426.5396, 11.85210
427.0217, 12.30851
427.5038, 12.72273
427.9859, 13.02099
428.4680, 13.18353
428.9501, 13.06279
429.4323, 12.69565
429.9144, 12.44346
430.3965, 12.69248
430.8786, 13.17484
431.3607, 13.35864
431.8428, 13.15792
432.3250, 12.96025
432.8071, 13.17775
433.2892, 13.62434
433.7713, 13.98571
434.2534, 14.32873
434.7355, 14.38527
435.2177, 13.66964
435.6998, 12.38729
436.1819, 11.55062
436.6640, 11.95569
437.1461, 12.71683
437.6282, 13.28625
438.1104, 13.58189
438.5925, 13.67342
439.0746, 13.32705
439.5567, 12.85141
440.0388, 12.67791
440.5209, 13.22375
441.0031, 13.67926
441.4852, 13.89551
441.9673, 13.87632
442.4494, 13.72378
442.9315, 13.35884
443.4136, 12.95752
443.8958, 12.60029
444.3779, 12.23840
444.8600, 12.08727
445.3421, 12.21743
445.8242, 12.49637
446.3063, 12.66549
446.7885, 12.70720
447.2706, 12.77292
447.7527, 12.97466
448.2348, 13.25105
448.7169, 13.22128
449.1991, 12.85911
449.6812, 12.50062
450.1633, 12.45393
450.6454, 12.64987
451.1275, 12.89972
451.6096, 13.22424
452.0918, 13.44389
452.5739, 13.14131
453.0560, 12.52619
453.5381, 12.19122
454.0202, 12.67011
454.5023, 13.40511
454.9845, 13.95098
455.4666, 14.28844
455.9487, 14.43454
456.4308, 14.25855
456.9129, 13.96945
457.3951, 13.74130
457.8772, 13.51723
458.3593, 13.49929
458.8414, 14.04861
459.3235, 14.83427
459.8056, 15.13185
460.2878, 13.96483
460.7699, 13.13712
461.2520, 13.54446
461.7341, 15.49544
462.2162, 15.96649
462.6983, 13.81039
463.1805, 11.35624
463.6626, 10.52946
464.1447, 12.05846
464.6268, 13.11610
465.1089, 13.36155
465.5910, 13.08845
466.0732, 12.92247
466.5553, 12.86144
467.0374, 12.92108
467.5195, 13.21183
468.0016, 13.65125
468.4837, 13.71354
468.9659, 13.36891
469.4480, 12.97373
469.9301, 12.93336
470.4122, 13.11281
470.8943, 13.08332
471.3764, 12.66516
471.8586, 12.22538
472.3407, 12.18332
472.8228, 12.44981
473.3049, 12.79150
473.7870, 13.24405
474.2691, 13.61683
474.7513, 13.73037
475.2334, 13.58495
475.7155, 13.39139
476.1976, 13.07476
476.6797, 12.84657
477.1619, 12.90145
477.6440, 13.69958
478.1261, 14.15604
478.6082, 13.83741
479.0903, 13.07293
479.5724, 12.52862
480.0546, 12.22136
480.5367, 12.14836
481.0188, 12.40530
481.5009, 13.00062
481.9830, 13.36186
482.4651, 13.43341
482.9473, 13.35957
483.4294, 13.17767
483.9115, 12.83313
484.3936, 12.80349
484.8757, 13.23775
485.3578, 13.79785
485.8400, 13.85516
486.3221, 13.42630
486.8042, 12.94917
487.2863, 12.54987
487.7684, 12.22954
488.2505, 11.97804
488.7327, 11.79737
489.2148, 11.74615
489.6969, 11.98117
490.1790, 12.32946
490.6611, 12.53983
491.1432, 12.53445
491.6254, 12.52324
492.1075, 12.68699
492.5896, 12.92833
493.0717, 13.10635
493.5538, 13.22087
494.0359, 13.21153
494.5181, 12.94490
495.0002, 12.47996
495.4823, 12.19378
495.9644, 12.25422
496.4465, 12.43328
496.9286, 12.66123
497.4108, 13.03611
497.8929, 13.17605
498.3750, 12.95204
498.8571, 12.60365
499.3392, 12.42667
499.8214, 12.49722
500.3035, 12.49110
500.7856, 12.33190
501.2677, 12.06658
501.7498, 11.77182
502.2319, 11.41840
502.7141, 11.33076
503.1962, 11.93698
503.6783, 12.98384
504.1604, 13.43765
504.6425, 13.23900
505.1246, 12.87496
505.6068, 12.69535
506.0889, 12.70400
506.5710, 12.96320
507.0531, 13.69531
507.5352, 14.29586
508.0174, 14.13323
508.4995, 13.45938
508.9816, 12.84371
509.4637, 12.49374
509.9458, 12.29834
510.4279, 12.25577
510.9101, 12.36496
511.3922, 12.42596
511.8743, 12.33406
512.3564, 12.22088
512.8385, 12.17635
513.3206, 12.27328
513.8027, 12.31713
514.2849, 12.29628
514.7670, 12.22905
515.2491, 12.13433
515.7312, 11.99364
516.2133, 11.87515
516.6954, 11.76379
517.1776, 11.69169
517.6597, 11.86458
518.1418, 12.30535
518.6239, 12.74620
519.1060, 12.98765
519.5881, 13.07748
520.0703, 13.24384
520.5524, 13.52529
521.0345, 13.69941
521.5167, 13.31404
521.9988, 12.68903
522.4809, 12.47018
522.9630, 13.13195
523.4451, 13.87912
523.9272, 14.17075
524.4094, 14.07970
524.8915, 13.78644
525.3736, 13.13349
525.8557, 12.49616
526.3378, 12.02526
526.8199, 11.73937
527.3021, 11.58564
527.7842, 11.74676
528.2663, 11.90641
528.7484, 11.84374
529.2305, 11.26377
529.7126, 11.03397
530.1948, 11.31106
530.6769, 11.82815
531.1590, 12.16719
531.6411, 12.32655
532.1232, 12.30587
532.6053, 12.00092
533.0875, 11.55719
533.5696, 11.54171
534.0517, 11.95587
534.5338, 12.43327
535.0159, 12.70447
535.4980, 12.86560
535.9802, 13.20656
536.4623, 13.77428
536.9444, 14.16743
537.4265, 13.82366
537.9086, 13.16122
538.3907, 12.76490
538.8729, 12.95581
539.3550, 13.22768
539.8371, 13.41431
540.3192, 13.50027
540.8013, 13.44653
541.2834, 13.22822
541.7656, 12.88268
542.2477, 12.23259
542.7298, 11.26035
543.2119, 10.96001
543.6940, 11.81963
544.1761, 12.76902
544.6583, 13.15415
545.1404, 12.79266
545.6225, 12.58928
546.1046, 12.60101
546.5867, 12.68569
547.0688, 12.64294
547.5510, 12.47809
548.0331, 12.32822
548.5152, 12.20784
548.9973, 12.14961
549.4794, 12.31286
549.9615, 12.63149
550.4437, 12.79214
550.9258, 12.40506
551.4079, 11.88960
551.8900, 11.71988
552.3721, 11.90807
552.8542, 12.16732
553.3364, 12.52698
553.8185, 12.77946
554.3006, 12.70047
554.7827, 11.92943
555.2648, 11.47307
555.7469, 11.83215
556.2291, 12.51093
556.7112, 12.78427
557.1933, 12.29628
557.6754, 11.95378
558.1575, 11.93017
558.6396, 12.15997
559.1218, 12.37805
559.6039, 12.57269
560.0860, 12.79482
560.5681, 13.14792
561.0502, 13.58671
561.5323, 13.66964
562.0145, 13.37875
562.4966, 12.98070
562.9787, 12.73613
563.4608, 12.56401
563.9429, 12.24125
564.4250, 11.63972
564.9072, 11.17240
565.3893, 11.32835
565.8714, 11.82578
566.3535, 12.21958
566.8356, 12.42687
567.3177, 12.40977
567.7999, 11.88925
568.2820, 11.05279
568.7641, 10.69552
569.2462, 11.36070
569.7283, 12.15390
570.2104, 12.87327
570.6926, 13.56895
571.1747, 13.64946
571.6568, 12.75805
572.1389, 11.83559
572.6210, 11.71633
573.1031, 12.47830
573.5853, 13.04758
574.0674, 13.33758
574.5495, 13.39721
575.0316, 13.14332
575.5137, 12.66840
575.9958, 12.41407
576.4780, 12.66698
576.9601, 13.05320
577.4422, 13.18118
577.9243, 13.06780
578.4065, 12.76971
578.8886, 11.97317
579.3707, 11.27106
579.8528, 11.18367
580.3350, 11.75790
580.8171, 12.10515
581.2992, 11.66393
581.7813, 11.14933
582.2634, 11.04281
582.7455, 11.65598
583.2277, 12.01149
583.7098, 11.88194
584.1919, 11.70361
584.6740, 12.18867
585.1561, 13.56896
585.6382, 14.31040
586.1204, 13.96314
586.6025, 13.00850
587.0846, 12.40146
587.5667, 12.13121
588.0488, 12.08767
588.5309, 12.41017
589.0131, 12.83765
589.4952, 12.87011
589.9773, 12.56194
590.4594, 12.38269
590.9415, 12.87918
591.4236, 13.47270
591.9058, 13.60881
592.3879, 13.07658
592.8700, 12.69900
593.3521, 12.94090
593.8342, 13.33230
594.3163, 13.41952
594.7985, 12.86312
595.2806, 12.49022
595.7627, 12.41388
596.2448, 12.49895
596.7269, 12.46137
597.2090, 12.24700
597.6912, 12.17429
598.1733, 12.42438
598.6554, 12.83125
599.1375, 12.76891
599.6196, 12.26301
600.1017, 11.86690
600.5839, 12.12603
601.0660, 12.64751
601.5481, 12.71705
602.0302, 12.31720
602.5123, 11.99345
602.9944, 12.26905
603.4766, 12.69996
603.9587, 12.84719
604.4408, 12.47447
604.9229, 12.20250
605.4050, 12.26783
605.8871, 12.49426
606.3693, 12.67199
606.8514, 12.76170
607.3335, 12.85194
607.8156, 12.96202
608.2977, 13.07255
608.7798, 13.12912
609.2620, 13.11774
609.7441, 13.13124
610.2262, 13.25942
610.7083, 13.42127
611.1904, 13.21396
611.6725, 12.66379
612.1547, 12.29627
612.6368, 12.78705
613.1189, 13.53012
613.6010, 13.56917
614.0831, 12.80652
614.5652, 12.06103
615.0474, 11.79311
615.5295, 11.78641
616.0116, 11.86755
616.4937, 12.13471
616.9758, 12.23412
617.4579, 11.89383
617.9401, 11.44074
618.4222, 11.28268
618.9043, 11.52240
619.3864, 11.87150
619.8685, 12.36843
620.3506, 12.89393
620.8328, 13.06150
621.3149, 12.83858
621.7970, 12.70326
622.2791, 12.89743
622.7612, 13.30023
623.2433, 13.66679
623.7255, 13.98597
624.2076, 14.18733
624.6897, 14.15484
625.1718, 14.01935
625.6539, 13.97666
626.1360, 14.06192
626.6182, 13.91582
627.1003, 12.97256
627.5824, 11.98593
628.0645, 11.53991
628.5466, 12.07592
629.0287, 12.53851
629.5109, 12.98426
629.9930, 13.28370
630.4751, 13.22054
630.9572, 12.65576
631.4393, 12.22416
631.9214, 12.01137
632.4036, 12.01569
632.8857, 12.36567
633.3678, 13.02137
633.8499, 13.48391
634.3320, 13.43439
634.8141, 13.15365
635.2963, 13.07438
635.7784, 13.15134
636.2606, 13.18996
