##NAMES=Safflorite
##RRUFFID=R070611
##IDEAL CHEMISTRY=(Co^2+^,Fe^2+^,Ni^2+^)As_2_
##LOCALITY=Timiskaming County, Ontario, Canada
##OWNER=RRUFF
##SOURCE=
##DESCRIPTION=Dark gray tarnished metallic prismatic crystals embedded in metalic spherules with native silver. Crystal structure reported in Yang et al (2008). This is the structure type sample.
##STATUS=The identification of this mineral is confirmed by single-crystal X-ray diffraction and chemical analysis.
##URL=rruff.info/R070611
##MEASURED CHEMISTRY=(Co_0.61_Ni_0.22_Fe_0.17_)_Σ=1_(As_1.99_S_0.01_)_Σ=2_
90.32306, 1317.839
90.80518, 1352.301
91.28729, 1387.679
91.76941, 1423.851
92.25153, 1454.759
92.73364, 1491.863
93.21576, 1540.126
93.69788, 1598.652
94.17999, 1662.941
94.66211, 1728.768
95.14423, 1797.551
95.62634, 1863.530
96.10846, 1920.510
96.59058, 1978.162
97.07269, 2046.582
97.55481, 2129.225
98.03693, 2218.490
98.51904, 2297.519
99.00116, 2366.004
99.48328, 2427.706
99.96539, 2479.145
100.4475, 2523.957
100.9296, 2564.853
101.4117, 2580.606
101.8939, 2582.831
102.3760, 2568.450
102.8581, 2523.160
103.3402, 2476.964
103.8223, 2455.945
104.3044, 2461.197
104.7866, 2478.081
105.2687, 2514.001
105.7508, 2553.607
106.2329, 2573.834
106.7150, 2555.991
107.1971, 2510.278
107.6793, 2476.815
108.1614, 2467.056
108.6435, 2454.661
109.1256, 2424.552
109.6077, 2381.357
110.0898, 2338.777
110.5720, 2309.323
111.0541, 2295.005
111.5362, 2284.415
112.0183, 2280.683
112.5004, 2277.586
112.9825, 2267.801
113.4647, 2251.365
113.9468, 2237.628
114.4289, 2244.399
114.9110, 2303.240
115.3931, 2339.898
115.8752, 2346.207
116.3574, 2333.746
116.8395, 2313.187
117.3216, 2289.314
117.8037, 2262.598
118.2858, 2235.069
118.7680, 2198.112
119.2501, 2168.863
119.7322, 2153.936
120.2143, 2151.608
120.6964, 2156.716
121.1785, 2168.370
121.6607, 2185.175
122.1428, 2195.476
122.6249, 2192.460
123.1070, 2186.946
123.5891, 2193.952
124.0712, 2217.701
124.5534, 2233.024
125.0355, 2201.339
125.5176, 2139.665
125.9997, 2093.824
126.4818, 2088.953
126.9639, 2113.774
127.4461, 2135.477
127.9282, 2153.965
128.4103, 2163.513
128.8924, 2159.770
129.3745, 2143.983
129.8566, 2124.733
130.3387, 2106.394
130.8209, 2087.804
131.3030, 2078.480
131.7851, 2089.602
132.2672, 2104.079
132.7493, 2114.572
133.2314, 2119.138
133.7136, 2118.314
134.1957, 2111.235
134.6778, 2088.531
135.1599, 2077.603
135.6420, 2087.455
136.1241, 2105.429
136.6063, 2121.711
137.0884, 2131.770
137.5705, 2135.256
138.0526, 2130.583
138.5347, 2103.378
139.0168, 2083.037
139.4990, 2078.383
139.9811, 2083.533
140.4632, 2088.816
140.9453, 2088.460
141.4274, 2082.231
141.9095, 2066.491
142.3917, 2023.382
142.8738, 1988.177
143.3559, 1984.849
143.8380, 2010.485
144.3201, 2038.379
144.8022, 2043.111
145.2844, 2021.748
145.7665, 2012.296
146.2486, 2027.974
146.7307, 2050.430
147.2128, 2059.834
147.6949, 2051.895
148.1771, 2037.390
148.6592, 2030.234
149.1413, 2029.391
149.6234, 2022.021
150.1055, 1995.321
150.5877, 1957.789
151.0698, 1934.432
151.5519, 1936.925
152.0340, 1947.308
152.5161, 1945.539
152.9982, 1931.308
153.4804, 1918.416
153.9625, 1921.296
154.4446, 1940.662
154.9267, 1951.247
155.4088, 1931.676
155.8909, 1910.546
156.3731, 1909.872
156.8552, 1935.040
157.3373, 1967.761
157.8194, 1982.008
158.3015, 1971.114
158.7836, 1958.435
159.2658, 1945.329
159.7479, 1934.314
160.2300, 1929.296
160.7121, 1932.350
161.1942, 1939.125
161.6763, 1935.872
162.1585, 1905.873
162.6406, 1888.708
163.1227, 1902.443
163.6048, 1929.170
164.0869, 1944.615
164.5690, 1932.708
165.0512, 1897.082
165.5333, 1876.833
166.0154, 1884.295
166.4975, 1894.333
166.9796, 1903.272
167.4617, 1910.158
167.9439, 1914.971
168.4260, 1918.001
168.9081, 1919.488
169.3902, 1913.615
169.8723, 1889.906
170.3544, 1869.205
170.8366, 1865.624
171.3187, 1877.873
171.8008, 1891.612
172.2829, 1892.118
172.7650, 1875.115
173.2471, 1866.383
173.7293, 1870.531
174.2114, 1880.229
174.6935, 1891.609
175.1756, 1904.169
175.6577, 1912.924
176.1398, 1908.460
176.6220, 1889.557
177.1041, 1876.634
177.5862, 1878.844
178.0683, 1888.499
178.5504, 1893.388
179.0325, 1890.729
179.5147, 1882.601
179.9968, 1869.479
180.4789, 1850.930
180.9610, 1836.056
181.4431, 1830.451
181.9252, 1832.376
182.4074, 1834.971
182.8895, 1835.739
183.3716, 1837.624
183.8537, 1845.947
184.3358, 1862.092
184.8179, 1873.513
185.3001, 1865.557
185.7822, 1837.964
186.2643, 1818.001
186.7464, 1819.077
187.2285, 1827.876
187.7106, 1835.132
188.1928, 1839.331
188.6749, 1841.525
189.1570, 1844.006
189.6391, 1848.380
190.1212, 1846.582
190.6033, 1831.305
191.0855, 1812.021
191.5676, 1793.828
192.0497, 1778.049
192.5318, 1767.410
193.0139, 1769.015
193.4960, 1791.648
193.9782, 1809.056
194.4603, 1813.911
194.9424, 1812.608
195.4245, 1811.911
195.9066, 1815.236
196.3887, 1819.969
196.8709, 1816.840
197.3530, 1792.691
197.8351, 1778.149
198.3172, 1786.967
198.7993, 1805.515
199.2814, 1815.663
199.7636, 1805.882
200.2457, 1780.046
200.7278, 1764.190
201.2099, 1768.989
201.6920, 1773.658
202.1741, 1773.496
202.6563, 1770.720
203.1384, 1770.653
203.6205, 1777.733
204.1026, 1791.476
204.5847, 1794.004
205.0668, 1772.752
205.5490, 1754.189
206.0311, 1747.381
206.5132, 1750.415
206.9953, 1757.347
207.4774, 1764.327
207.9595, 1771.563
208.4417, 1772.895
208.9238, 1764.386
209.4059, 1754.824
209.8880, 1748.698
210.3701, 1745.670
210.8522, 1741.907
211.3344, 1732.386
211.8165, 1716.044
212.2986, 1715.531
212.7807, 1747.191
213.2628, 1780.870
213.7449, 1798.405
214.2271, 1798.116
214.7092, 1785.698
215.1913, 1763.348
215.6734, 1729.294
216.1555, 1703.838
216.6376, 1682.337
217.1198, 1672.525
217.6019, 1689.261
218.0840, 1734.509
218.5661, 1779.852
219.0482, 1793.844
219.5303, 1776.688
220.0125, 1764.967
220.4946, 1769.629
220.9767, 1779.373
221.4588, 1780.556
221.9409, 1770.609
222.4230, 1756.359
222.9052, 1742.469
223.3873, 1729.062
223.8694, 1720.683
224.3515, 1719.954
224.8336, 1724.548
225.3158, 1732.106
225.7979, 1743.968
226.2800, 1753.945
226.7621, 1755.150
227.2442, 1749.029
227.7263, 1740.266
228.2085, 1729.417
228.6906, 1717.284
229.1727, 1703.699
229.6548, 1684.745
230.1369, 1672.716
230.6190, 1685.143
231.1012, 1716.959
231.5833, 1741.000
232.0654, 1735.334
232.5475, 1709.949
233.0296, 1699.939
233.5117, 1717.623
233.9939, 1739.860
234.4760, 1748.949
234.9581, 1746.449
235.4402, 1739.828
235.9223, 1732.503
236.4044, 1724.501
236.8866, 1714.970
237.3687, 1699.260
237.8508, 1688.280
238.3329, 1691.776
238.8150, 1707.374
239.2971, 1722.013
239.7793, 1725.099
240.2614, 1717.867
240.7435, 1713.546
241.2256, 1716.995
241.7077, 1719.450
242.1898, 1713.584
242.6720, 1701.066
243.1541, 1690.532
243.6362, 1691.146
244.1183, 1702.538
244.6004, 1708.432
245.0825, 1704.006
245.5647, 1697.208
246.0468, 1690.770
246.5289, 1685.324
247.0110, 1682.093
247.4931, 1684.417
247.9752, 1692.698
248.4574, 1694.422
248.9395, 1683.810
249.4216, 1670.790
249.9037, 1658.951
250.3858, 1648.649
250.8679, 1639.707
251.3501, 1632.348
251.8322, 1626.735
252.3143, 1620.535
252.7964, 1610.746
253.2785, 1603.138
253.7606, 1598.611
254.2428, 1598.014
254.7249, 1603.341
255.2070, 1622.462
255.6891, 1659.036
256.1712, 1673.107
256.6534, 1634.909
257.1355, 1597.932
257.6176, 1584.553
258.0997, 1591.839
258.5818, 1602.757
259.0639, 1600.687
259.5461, 1583.772
260.0282, 1574.152
260.5103, 1578.469
260.9924, 1585.063
261.4745, 1592.529
261.9566, 1599.304
262.4388, 1602.472
262.9209, 1598.346
263.4030, 1586.079
263.8851, 1577.027
264.3672, 1574.609
264.8493, 1572.637
265.3315, 1571.329
265.8136, 1569.114
266.2957, 1562.073
266.7778, 1543.818
267.2599, 1512.931
267.7420, 1498.653
268.2242, 1523.233
268.7063, 1544.935
269.1884, 1551.683
269.6705, 1544.859
270.1526, 1530.684
270.6347, 1512.754
271.1169, 1490.871
271.5990, 1473.272
272.0811, 1461.822
272.5632, 1453.364
273.0453, 1447.909
273.5274, 1444.837
274.0096, 1443.244
274.4917, 1442.474
274.9738, 1442.536
275.4559, 1443.617
275.9380, 1443.280
276.4201, 1446.679
276.9023, 1461.174
277.3844, 1480.178
277.8665, 1491.319
278.3486, 1485.267
278.8307, 1463.594
279.3128, 1444.973
279.7950, 1430.650
280.2771, 1418.497
280.7592, 1405.880
281.2413, 1395.387
281.7234, 1392.019
282.2055, 1399.754
282.6877, 1416.354
283.1698, 1427.982
283.6519, 1436.722
284.1340, 1436.890
284.6161, 1419.638
285.0982, 1395.167
285.5804, 1377.289
286.0625, 1373.890
286.5446, 1381.899
287.0267, 1389.491
287.5088, 1402.618
287.9909, 1406.552
288.4731, 1391.618
288.9552, 1369.245
289.4373, 1352.946
289.9194, 1349.471
290.4015, 1354.759
290.8836, 1357.156
291.3658, 1356.295
291.8479, 1352.605
292.3300, 1338.344
292.8121, 1324.994
293.2942, 1327.223
293.7763, 1350.906
294.2585, 1383.869
294.7406, 1399.231
295.2227, 1387.501
295.7048, 1374.033
296.1869, 1360.630
296.6690, 1347.433
297.1512, 1333.067
297.6333, 1317.342
298.1154, 1304.190
298.5975, 1301.878
299.0796, 1318.200
299.5617, 1327.777
300.0439, 1323.886
300.5260, 1316.983
301.0081, 1315.724
301.4902, 1321.344
301.9723, 1326.757
302.4544, 1319.903
302.9366, 1293.083
303.4187, 1277.963
303.9008, 1285.128
304.3829, 1296.513
304.8650, 1303.828
305.3471, 1305.526
305.8293, 1303.456
306.3114, 1297.736
306.7935, 1286.192
307.2756, 1281.557
307.7577, 1292.535
308.2398, 1303.360
308.7220, 1307.945
309.2041, 1306.218
309.6862, 1301.061
310.1683, 1293.182
310.6504, 1282.177
311.1325, 1277.647
311.6147, 1282.695
312.0968, 1291.867
312.5789, 1308.498
313.0610, 1328.028
313.5431, 1340.553
314.0252, 1337.220
314.5074, 1320.060
314.9895, 1305.491
315.4716, 1293.399
315.9537, 1284.624
316.4358, 1282.092
316.9179, 1282.372
317.4001, 1279.039
317.8822, 1266.150
318.3643, 1248.909
318.8464, 1246.112
319.3285, 1268.587
319.8106, 1285.061
320.2928, 1280.925
320.7749, 1266.955
321.2570, 1256.740
321.7391, 1256.916
322.2212, 1260.610
322.7033, 1252.443
323.1855, 1226.095
323.6676, 1207.244
324.1497, 1206.398
324.6318, 1215.443
325.1139, 1230.310
325.5960, 1251.102
326.0782, 1270.905
326.5603, 1281.328
327.0424, 1281.749
327.5245, 1277.291
328.0066, 1264.784
328.4887, 1250.699
328.9709, 1240.049
329.4530, 1233.540
329.9351, 1228.831
330.4172, 1225.167
330.8993, 1222.335
331.3814, 1215.327
331.8636, 1193.639
332.3457, 1178.813
332.8278, 1194.234
333.3099, 1237.957
333.7920, 1275.108
334.2741, 1278.790
334.7563, 1258.283
335.2384, 1246.782
335.7205, 1250.829
336.2026, 1259.246
336.6847, 1263.153
337.1668, 1263.523
337.6490, 1263.913
338.1311, 1270.285
338.6132, 1276.183
339.0953, 1267.737
339.5774, 1241.141
340.0595, 1214.327
340.5417, 1200.647
341.0238, 1196.950
341.5059, 1195.974
341.9880, 1195.935
342.4701, 1198.326
342.9522, 1208.117
343.4344, 1224.933
343.9165, 1234.844
344.3986, 1225.665
344.8807, 1204.417
345.3628, 1194.288
345.8449, 1202.174
346.3271, 1212.913
346.8092, 1219.218
347.2913, 1221.409
347.7734, 1221.103
348.2555, 1219.862
348.7376, 1215.279
349.2198, 1198.612
349.7019, 1157.126
350.1840, 1132.718
350.6661, 1154.981
351.1482, 1199.038
351.6303, 1221.910
352.1125, 1209.502
352.5946, 1182.036
353.0767, 1170.506
353.5588, 1181.387
354.0409, 1187.777
354.5230, 1182.944
355.0052, 1175.309
355.4873, 1173.765
355.9694, 1179.302
356.4515, 1185.267
356.9336, 1183.954
357.4157, 1172.906
357.8979, 1169.582
358.3800, 1184.117
358.8621, 1196.684
359.3442, 1192.779
359.8263, 1176.118
360.3084, 1161.778
360.7906, 1161.850
361.2727, 1175.350
361.7548, 1181.407
362.2369, 1171.346
362.7190, 1164.048
363.2011, 1168.094
363.6833, 1177.290
364.1654, 1180.548
364.6475, 1171.905
365.1296, 1156.360
365.6117, 1149.935
366.0938, 1162.166
366.5760, 1170.294
367.0581, 1174.522
367.5402, 1173.191
368.0223, 1160.512
368.5044, 1136.103
368.9865, 1111.883
369.4687, 1108.010
369.9508, 1133.331
370.4329, 1154.266
370.9150, 1171.554
371.3971, 1182.800
371.8792, 1184.239
372.3614, 1177.123
372.8435, 1167.498
373.3256, 1161.063
373.8077, 1157.935
374.2898, 1152.687
374.7719, 1143.457
375.2541, 1134.187
375.7362, 1120.532
376.2183, 1108.118
376.7004, 1109.837
377.1825, 1140.981
377.6646, 1186.624
378.1468, 1204.442
378.6289, 1185.978
379.1110, 1160.985
379.5931, 1133.331
380.0752, 1109.630
380.5573, 1099.876
381.0395, 1110.322
381.5216, 1126.755
382.0037, 1131.645
382.4858, 1124.896
382.9679, 1123.632
383.4500, 1138.866
383.9322, 1157.268
384.4143, 1161.880
384.8964, 1150.701
385.3785, 1137.818
385.8606, 1130.596
386.3427, 1127.565
386.8249, 1124.686
387.3070, 1120.647
387.7891, 1118.241
388.2712, 1123.191
388.7533, 1134.704
389.2354, 1140.630
389.7176, 1133.674
390.1997, 1122.888
390.6818, 1116.886
391.1639, 1116.278
391.6460, 1118.266
392.1281, 1120.585
392.6103, 1123.766
393.0924, 1131.586
393.5745, 1156.877
394.0566, 1173.213
394.5387, 1161.304
395.0208, 1132.141
395.5030, 1110.852
395.9851, 1110.108
396.4672, 1121.934
396.9493, 1124.929
397.4314, 1114.220
397.9135, 1100.560
398.3957, 1072.988
398.8778, 1048.739
399.3599, 1050.834
399.8420, 1081.755
400.3241, 1117.126
400.8062, 1122.705
401.2884, 1084.838
401.7705, 1064.659
402.2526, 1071.972
402.7347, 1085.362
403.2168, 1098.765
403.6989, 1109.808
404.1811, 1115.954
404.6632, 1114.832
405.1453, 1107.117
405.6274, 1098.129
406.1095, 1081.533
406.5916, 1073.145
407.0738, 1085.200
407.5559, 1103.964
408.0380, 1111.217
408.5201, 1098.532
409.0022, 1077.786
409.4843, 1069.195
409.9665, 1075.485
410.4486, 1079.789
410.9307, 1073.190
411.4128, 1066.607
411.8949, 1070.610
412.3770, 1085.812
412.8592, 1098.529
413.3413, 1095.414
413.8234, 1080.835
414.3055, 1073.716
414.7876, 1079.874
415.2697, 1085.837
415.7519, 1074.264
416.2340, 1051.666
416.7161, 1040.999
417.1982, 1059.592
417.6803, 1085.873
418.1624, 1097.274
418.6446, 1093.971
419.1267, 1085.032
419.6088, 1072.040
420.0909, 1058.790
420.5730, 1057.769
421.0551, 1080.301
421.5373, 1097.856
422.0194, 1098.446
422.5015, 1087.910
422.9836, 1073.907
423.4657, 1058.622
423.9478, 1045.932
424.4300, 1042.316
424.9121, 1052.373
425.3942, 1061.204
425.8763, 1068.384
426.3584, 1074.741
426.8405, 1083.063
427.3227, 1091.834
427.8048, 1094.193
428.2869, 1082.473
428.7690, 1057.504
429.2511, 1047.476
429.7332, 1072.928
430.2154, 1092.089
430.6975, 1092.670
431.1796, 1083.870
431.6617, 1078.880
432.1438, 1083.569
432.6259, 1092.060
433.1081, 1092.357
433.5902, 1080.932
434.0723, 1072.585
434.5544, 1071.200
435.0365, 1072.541
435.5186, 1074.880
436.0008, 1077.824
436.4829, 1080.778
436.9650, 1082.342
437.4471, 1083.252
437.9292, 1088.276
438.4113, 1100.786
438.8935, 1110.779
439.3756, 1108.183
439.8577, 1098.451
440.3398, 1092.744
440.8219, 1098.562
441.3040, 1105.527
441.7862, 1101.970
442.2683, 1089.258
442.7504, 1077.355
443.2325, 1069.128
443.7146, 1065.954
444.1967, 1072.825
444.6789, 1096.005
445.1610, 1111.091
445.6431, 1105.336
446.1252, 1090.433
446.6073, 1079.902
447.0894, 1076.506
447.5716, 1077.801
448.0537, 1082.624
448.5358, 1092.715
449.0179, 1092.474
449.5000, 1067.982
449.9821, 1048.809
450.4643, 1052.286
450.9464, 1070.345
451.4285, 1084.992
451.9106, 1085.826
452.3927, 1078.239
452.8748, 1079.205
453.3570, 1096.650
453.8391, 1108.640
454.3212, 1111.719
454.8033, 1110.024
455.2854, 1105.771
455.7675, 1099.720
456.2497, 1092.933
456.7318, 1086.951
457.2139, 1081.690
457.6960, 1073.340
458.1782, 1057.054
458.6603, 1044.741
459.1424, 1045.364
459.6245, 1054.091
460.1066, 1060.171
460.5887, 1054.298
461.0709, 1049.295
461.5530, 1068.192
462.0351, 1110.016
462.5172, 1137.861
462.9993, 1132.269
463.4814, 1108.417
463.9636, 1094.295
464.4457, 1092.943
464.9278, 1089.248
465.4099, 1072.875
465.8920, 1053.403
466.3741, 1045.499
466.8563, 1051.242
467.3384, 1059.520
467.8205, 1058.734
468.3026, 1047.685
468.7847, 1048.194
469.2668, 1076.162
469.7490, 1097.106
470.2311, 1093.339
470.7132, 1074.309
471.1953, 1055.127
471.6774, 1042.693
472.1595, 1037.879
472.6417, 1044.804
473.1238, 1075.484
473.6059, 1091.830
474.0880, 1083.377
474.5701, 1067.961
475.0522, 1054.214
475.5344, 1043.897
476.0165, 1036.875
476.4986, 1037.215
476.9807, 1041.803
477.4628, 1027.902
477.9449, 980.3846
478.4271, 947.6131
478.9092, 969.8618
479.3913, 1016.530
479.8734, 1046.694
480.3555, 1046.666
480.8376, 1038.230
481.3198, 1038.622
481.8019, 1045.902
482.2840, 1052.594
482.7661, 1057.173
483.2482, 1059.180
483.7303, 1056.916
484.2125, 1049.850
484.6946, 1044.639
485.1767, 1040.610
485.6588, 1039.886
486.1409, 1047.762
486.6230, 1061.468
487.1052, 1070.272
487.5873, 1066.749
488.0694, 1053.461
488.5515, 1042.377
489.0336, 1034.414
489.5157, 1027.688
489.9979, 1019.650
490.4800, 1014.230
490.9621, 1015.978
491.4442, 1025.281
491.9263, 1037.589
492.4084, 1048.924
492.8906, 1059.360
493.3727, 1066.710
493.8548, 1070.569
494.3369, 1071.561
494.8190, 1069.875
495.3011, 1065.883
495.7833, 1060.172
496.2654, 1052.837
496.7475, 1044.098
497.2296, 1030.703
497.7117, 1013.401
498.1938, 1007.835
498.6760, 1024.019
499.1581, 1047.085
499.6402, 1057.550
500.1223, 1055.797
500.6044, 1048.637
501.0865, 1034.196
501.5687, 1017.524
502.0508, 1000.533
502.5329, 984.8502
503.0150, 977.8763
503.4971, 986.4091
503.9792, 1006.855
504.4614, 1018.004
504.9435, 1014.890
505.4256, 1008.769
505.9077, 991.3581
506.3898, 976.6959
506.8719, 982.4357
507.3541, 1010.412
507.8362, 1043.704
508.3183, 1065.823
508.8004, 1077.052
509.2825, 1070.617
509.7646, 1023.145
510.2468, 988.0370
510.7289, 995.0466
511.2110, 1025.143
511.6931, 1046.732
512.1752, 1047.119
512.6573, 1036.914
513.1395, 1024.642
513.6216, 1010.922
514.1037, 1006.881
514.5858, 1019.268
515.0679, 1036.604
515.5500, 1044.565
516.0322, 1043.666
516.5143, 1041.659
516.9964, 1041.203
517.4785, 1039.600
517.9606, 1034.547
518.4427, 1026.180
518.9249, 1014.663
519.4070, 999.2446
519.8891, 982.5086
520.3712, 973.4003
520.8533, 975.9352
521.3354, 981.5167
521.8176, 997.0491
522.2997, 1010.628
522.7818, 1010.791
523.2639, 997.7876
523.7460, 981.2901
524.2281, 968.6382
524.7103, 960.1021
525.1924, 958.8922
525.6745, 967.6673
526.1566, 979.0508
526.6387, 994.0931
527.1208, 1008.392
527.6030, 1016.023
528.0851, 1014.783
528.5672, 1010.819
529.0493, 1007.354
529.5314, 1005.025
530.0135, 1007.489
530.4957, 1016.867
530.9778, 1024.343
531.4599, 1019.770
531.9420, 1003.076
532.4241, 993.4617
532.9063, 1000.105
533.3884, 1004.820
533.8705, 995.0877
534.3526, 977.8343
534.8347, 965.1250
535.3168, 961.8133
535.7990, 967.4037
536.2811, 983.5979
536.7632, 1021.533
537.2453, 1040.090
537.7274, 1022.204
538.2095, 1002.170
538.6917, 995.5956
539.1738, 999.1884
539.6559, 1001.825
540.1380, 995.7701
540.6201, 988.1798
541.1022, 996.7405
541.5844, 1024.049
542.0665, 1039.794
542.5486, 1029.195
543.0307, 1008.566
543.5128, 995.8117
543.9949, 990.9782
544.4771, 990.7524
544.9592, 1000.314
545.4413, 1009.989
545.9234, 1006.771
546.4055, 992.1620
546.8876, 979.7714
547.3698, 977.6763
547.8519, 983.3940
548.3340, 988.2640
548.8161, 993.6749
549.2982, 996.2601
549.7803, 993.7378
550.2625, 989.9603
550.7446, 986.7147
551.2267, 984.9481
551.7088, 986.7886
552.1909, 996.2097
552.6730, 1010.490
553.1552, 1011.712
553.6373, 991.6057
554.1194, 977.4316
554.6015, 987.8937
555.0836, 1004.803
555.5657, 1009.452
556.0479, 997.8875
556.5300, 985.5052
557.0121, 981.4086
557.4942, 983.0012
557.9763, 986.6376
558.4584, 991.9198
558.9406, 995.3588
559.4227, 994.0859
559.9048, 988.6492
560.3869, 983.1843
560.8690, 970.0099
561.3511, 966.3822
561.8333, 987.4232
562.3154, 1013.834
562.7975, 1022.797
563.2796, 1010.695
563.7617, 992.5921
564.2438, 984.2015
564.7260, 985.5216
565.2081, 986.3268
565.6902, 984.8997
566.1723, 985.6904
566.6544, 995.5859
567.1365, 1006.119
567.6187, 1003.874
568.1008, 982.9196
568.5829, 964.5999
569.0650, 971.5437
569.5471, 994.9615
570.0292, 1009.517
570.5114, 1011.103
570.9935, 1005.544
571.4756, 995.5573
571.9577, 981.7937
572.4398, 972.9547
572.9219, 969.3249
573.4041, 969.8256
573.8862, 981.0965
574.3683, 993.3441
574.8504, 988.5394
575.3325, 964.5458
575.8146, 943.8585
576.2968, 958.5471
576.7789, 1012.503
577.2610, 1035.646
577.7431, 1003.823
578.2252, 973.7022
578.7073, 965.5403
579.1895, 970.6404
579.6716, 978.4744
580.1537, 986.7904
580.6358, 994.3524
581.1179, 1000.650
581.6000, 1005.293
582.0822, 1007.423
582.5643, 1007.169
