##NAMES=Safflorite
##RRUFFID=R070611
##IDEAL CHEMISTRY=(Co^2+^,Fe^2+^,Ni^2+^)As_2_
##LOCALITY=Timiskaming County, Ontario, Canada
##OWNER=RRUFF
##SOURCE=
##DESCRIPTION=Dark gray tarnished metallic prismatic crystals embedded in metalic spherules with native silver. Crystal structure reported in Yang et al (2008). This is the structure type sample.
##STATUS=The identification of this mineral is confirmed by single-crystal X-ray diffraction and chemical analysis.
##URL=rruff.info/R070611
##MEASURED CHEMISTRY=(Co_0.61_Ni_0.22_Fe_0.17_)_Σ=1_(As_1.99_S_0.01_)_Σ=2_
84.67974, 11037.28
85.16186, 11107.43
85.64397, 11212.60
86.12609, 11372.28
86.60821, 11537.17
87.09032, 11644.31
87.57244, 11662.87
88.05456, 11615.21
88.53667, 11499.46
89.01879, 11305.02
89.50091, 11120.34
89.98302, 11032.65
90.46514, 11027.96
90.94726, 11052.47
91.42937, 11083.96
91.91148, 11122.78
92.39360, 11176.65
92.87572, 11257.43
93.35783, 11337.77
93.83995, 11346.50
94.32207, 11279.66
94.80418, 11221.98
95.28630, 11269.00
95.76842, 11416.64
96.25053, 11517.24
96.73265, 11527.35
97.21477, 11456.64
97.69688, 11365.06
98.17900, 11236.23
98.66112, 11119.79
99.14323, 11082.69
99.62535, 11127.83
100.1075, 11238.91
100.5896, 11436.85
101.0717, 11778.60
101.5538, 12010.38
102.0359, 12127.22
102.5181, 12136.04
103.0002, 12047.12
103.4823, 11785.39
103.9644, 11516.95
104.4465, 11335.34
104.9286, 11248.71
105.4107, 11236.84
105.8929, 11339.94
106.3750, 11564.38
106.8571, 11701.91
107.3392, 11694.64
107.8213, 11626.34
108.3034, 11569.37
108.7856, 11479.28
109.2677, 11442.64
109.7498, 11495.46
110.2319, 11674.63
110.7140, 11825.63
111.1961, 11924.59
111.6783, 11981.78
112.1604, 12010.80
112.6425, 11986.53
113.1246, 11954.67
113.6067, 11939.91
114.0888, 11972.38
114.5710, 11985.62
115.0531, 11939.91
115.5352, 11849.61
116.0173, 11771.94
116.4994, 11717.78
116.9815, 11694.44
117.4637, 11708.71
117.9458, 11811.26
118.4279, 11917.23
118.9100, 11987.12
119.3921, 12020.08
119.8742, 11995.39
120.3564, 11816.82
120.8385, 11572.71
121.3206, 11422.42
121.8027, 11522.16
122.2848, 11724.43
122.7669, 11857.87
123.2491, 11897.39
123.7312, 11890.96
124.2133, 11875.66
124.6954, 11852.60
125.1775, 11827.43
125.6596, 11794.16
126.1417, 11761.08
126.6239, 11752.19
127.1060, 11786.86
127.5881, 11832.70
128.0702, 11804.58
128.5523, 11700.81
129.0345, 11626.05
129.5166, 11736.57
129.9987, 11998.59
130.4808, 12157.51
130.9629, 12081.59
131.4450, 11827.28
131.9271, 11701.21
132.4093, 11725.09
132.8914, 11797.81
133.3735, 11766.10
133.8556, 11617.24
134.3377, 11497.30
134.8198, 11483.63
135.3020, 11587.05
135.7841, 11665.45
136.2662, 11710.82
136.7483, 11734.31
137.2304, 11764.39
137.7125, 11808.90
138.1947, 11840.17
138.6768, 11822.11
139.1589, 11709.85
139.6410, 11702.73
140.1231, 11868.93
140.6052, 12173.70
141.0874, 12339.08
141.5695, 12291.05
142.0516, 12188.61
142.5337, 12175.97
143.0158, 12335.39
143.4979, 12434.13
143.9801, 12339.75
144.4622, 12088.96
144.9443, 11881.94
145.4264, 11736.06
145.9085, 11623.98
146.3906, 11513.29
146.8728, 11399.88
147.3549, 11292.41
147.8370, 11191.42
148.3191, 11084.93
148.8012, 11008.73
149.2833, 11017.44
149.7655, 11054.92
150.2476, 11000.91
150.7297, 10739.91
151.2118, 10475.24
151.6939, 10287.90
152.1760, 10224.83
152.6582, 10189.96
153.1403, 10198.12
153.6224, 10236.76
154.1045, 10238.95
154.5866, 10167.96
155.0687, 10072.01
155.5508, 9981.901
156.0330, 9906.790
156.5151, 9835.833
156.9972, 9754.268
157.4793, 9661.344
157.9614, 9604.237
158.4435, 9625.279
158.9257, 9679.001
159.4078, 9716.107
159.8899, 9716.842
160.3720, 9700.600
160.8541, 9664.318
161.3362, 9598.234
161.8184, 9563.355
162.3005, 9635.593
162.7826, 9754.092
163.2647, 9813.159
163.7468, 9726.177
164.2289, 9587.170
164.7111, 9461.336
165.1932, 9355.307
165.6753, 9270.113
166.1574, 9211.825
166.6395, 9176.019
167.1216, 9149.939
167.6038, 9107.080
168.0859, 9077.123
168.5680, 9100.145
169.0501, 9239.732
169.5322, 9370.256
170.0143, 9358.203
170.4965, 9221.714
170.9786, 9093.575
171.4607, 9080.369
171.9428, 9134.537
172.4249, 9179.322
172.9070, 9172.004
173.3892, 9150.576
173.8713, 9179.756
174.3534, 9261.082
174.8355, 9307.325
175.3176, 9189.971
175.7997, 8969.709
176.2818, 8804.422
176.7640, 8810.702
177.2461, 8903.685
177.7282, 8939.950
178.2103, 8908.530
178.6924, 8852.032
179.1745, 8806.604
179.6567, 8773.197
180.1388, 8757.130
180.6209, 8768.786
181.1030, 8799.714
181.5851, 8835.861
182.0672, 8884.056
182.5494, 8917.783
183.0315, 8866.180
183.5136, 8737.221
183.9957, 8642.344
184.4778, 8704.672
184.9599, 8879.924
185.4421, 8966.661
185.9242, 8913.560
186.4063, 8775.502
186.8884, 8644.997
187.3705, 8521.699
187.8526, 8433.843
188.3348, 8426.665
188.8169, 8491.212
189.2990, 8541.109
189.7811, 8554.085
190.2632, 8538.833
190.7453, 8521.940
191.2275, 8503.295
191.7096, 8484.447
192.1917, 8459.384
192.6738, 8427.615
193.1559, 8421.450
193.6380, 8466.601
194.1202, 8552.031
194.6023, 8591.534
195.0844, 8576.726
195.5665, 8537.290
196.0486, 8509.483
196.5307, 8493.878
197.0129, 8483.652
197.4950, 8476.930
197.9771, 8473.717
198.4592, 8471.733
198.9413, 8470.263
199.4234, 8471.062
199.9055, 8470.005
200.3877, 8460.689
200.8698, 8479.638
201.3519, 8566.231
201.8340, 8734.937
202.3161, 8838.029
202.7982, 8864.772
203.2804, 8826.938
203.7625, 8737.021
204.2446, 8573.797
204.7267, 8423.942
205.2088, 8340.920
205.6909, 8335.127
206.1731, 8347.724
206.6552, 8383.254
207.1373, 8431.354
207.6194, 8450.716
208.1015, 8436.043
208.5836, 8404.628
209.0658, 8359.805
209.5479, 8289.388
210.0300, 8256.287
210.5121, 8286.607
210.9942, 8366.940
211.4763, 8389.608
211.9585, 8326.753
212.4406, 8252.061
212.9227, 8240.113
213.4048, 8324.941
213.8869, 8372.150
214.3690, 8332.952
214.8512, 8209.824
215.3333, 8183.041
215.8154, 8291.653
216.2975, 8448.883
216.7796, 8572.332
217.2617, 8675.757
217.7439, 8710.983
218.2260, 8642.573
218.7081, 8455.308
219.1902, 8339.536
219.6723, 8313.380
220.1544, 8342.409
220.6366, 8388.284
221.1187, 8472.269
221.6008, 8529.488
222.0829, 8527.721
222.5650, 8443.006
223.0471, 8422.786
223.5293, 8517.733
224.0114, 8644.318
224.4935, 8649.158
224.9756, 8459.047
225.4577, 8271.678
225.9398, 8156.476
226.4220, 8118.274
226.9041, 8141.710
227.3862, 8271.244
227.8683, 8445.048
228.3504, 8513.174
228.8325, 8407.771
229.3147, 8301.178
229.7968, 8272.723
230.2789, 8367.023
230.7610, 8435.289
231.2431, 8471.854
231.7252, 8482.972
232.2074, 8488.704
232.6895, 8492.246
233.1716, 8485.861
233.6537, 8465.127
234.1358, 8427.044
234.6179, 8379.415
235.1001, 8305.769
235.5822, 8221.391
236.0643, 8194.200
236.5464, 8259.927
237.0285, 8337.021
237.5106, 8375.326
237.9928, 8349.813
238.4749, 8338.967
238.9570, 8361.589
239.4391, 8408.263
239.9212, 8414.485
240.4033, 8359.071
240.8855, 8288.652
241.3676, 8234.997
241.8497, 8208.690
242.3318, 8177.183
242.8139, 8125.734
243.2960, 8059.447
243.7781, 8041.182
244.2603, 8096.362
244.7424, 8170.709
245.2245, 8216.346
245.7066, 8196.170
246.1887, 8225.804
246.6708, 8355.954
247.1530, 8578.433
247.6351, 8682.621
248.1172, 8627.223
248.5993, 8499.482
249.0814, 8365.461
249.5635, 8200.037
250.0457, 8083.593
250.5278, 8038.946
251.0099, 8066.856
251.4920, 8094.254
251.9741, 8122.628
252.4562, 8148.408
252.9384, 8166.473
253.4205, 8170.513
253.9026, 8179.495
254.3847, 8191.258
254.8668, 8204.499
255.3489, 8261.917
255.8311, 8394.721
256.3132, 8537.461
256.7953, 8613.893
257.2774, 8605.663
257.7595, 8574.258
258.2416, 8529.125
258.7238, 8468.229
259.2059, 8414.907
259.6880, 8359.132
260.1701, 8321.915
260.6522, 8338.729
261.1343, 8438.406
261.6165, 8516.385
262.0986, 8537.187
262.5807, 8495.570
263.0628, 8465.988
263.5449, 8448.265
264.0270, 8442.575
264.5092, 8455.277
264.9913, 8498.551
265.4734, 8523.280
265.9555, 8506.839
266.4376, 8445.795
266.9197, 8404.816
267.4019, 8389.426
267.8840, 8387.024
268.3661, 8377.947
268.8482, 8357.553
269.3303, 8346.418
269.8124, 8343.919
270.2946, 8347.727
270.7767, 8412.565
271.2588, 8566.121
271.7409, 8738.621
272.2230, 8828.799
272.7051, 8828.901
273.1873, 8783.055
273.6694, 8685.133
274.1515, 8530.938
274.6336, 8442.917
275.1157, 8432.332
275.5978, 8464.762
276.0800, 8499.403
276.5620, 8539.912
277.0442, 8557.541
277.5263, 8532.225
278.0084, 8464.271
278.4905, 8404.931
278.9726, 8349.574
279.4547, 8312.225
279.9369, 8326.285
280.4190, 8395.686
280.9011, 8455.572
281.3832, 8481.293
281.8653, 8473.661
282.3474, 8433.617
282.8296, 8351.410
283.3117, 8264.747
283.7938, 8237.288
284.2759, 8268.529
284.7580, 8294.648
285.2401, 8273.788
285.7223, 8217.069
286.2044, 8199.979
286.6865, 8229.236
287.1686, 8278.621
287.6507, 8318.521
288.1328, 8348.865
288.6150, 8366.177
289.0971, 8361.670
289.5792, 8341.486
290.0613, 8333.473
290.5434, 8342.333
291.0255, 8346.236
291.5077, 8306.619
291.9898, 8231.078
292.4719, 8167.631
292.9540, 8126.680
293.4361, 8114.195
293.9182, 8159.348
294.4004, 8272.056
294.8825, 8392.876
295.3646, 8459.110
295.8467, 8477.686
296.3288, 8471.669
296.8109, 8449.363
297.2931, 8410.167
297.7752, 8344.291
298.2573, 8247.837
298.7394, 8156.275
299.2215, 8109.158
299.7036, 8096.351
300.1858, 8092.547
300.6679, 8086.412
301.1500, 8082.498
301.6321, 8089.396
302.1142, 8108.528
302.5963, 8126.894
303.0785, 8124.809
303.5606, 8113.967
304.0427, 8117.526
304.5248, 8171.303
305.0069, 8229.794
305.4890, 8249.418
305.9712, 8227.754
306.4533, 8179.832
306.9354, 8086.454
307.4175, 7978.150
307.8996, 7903.744
308.3817, 7899.588
308.8639, 7925.141
309.3460, 7956.540
309.8281, 7992.937
310.3102, 8029.106
310.7923, 8062.780
311.2744, 8094.339
311.7566, 8124.261
312.2387, 8158.034
312.7208, 8186.041
313.2029, 8192.184
313.6850, 8175.605
314.1671, 8182.688
314.6493, 8275.405
315.1314, 8385.935
315.6135, 8444.475
316.0956, 8394.473
316.5777, 8321.497
317.0598, 8249.711
317.5420, 8180.192
318.0241, 8119.506
318.5062, 8047.551
318.9883, 7996.539
319.4704, 7993.670
319.9525, 8102.347
320.4347, 8200.871
320.9168, 8254.896
321.3989, 8265.965
321.8810, 8280.908
322.3631, 8332.431
322.8452, 8375.864
323.3273, 8380.284
323.8094, 8284.386
324.2916, 8213.783
324.7737, 8200.436
325.2558, 8238.915
325.7379, 8248.043
326.2200, 8212.723
326.7021, 8156.904
327.1843, 8091.864
327.6664, 7977.947
328.1485, 7909.095
328.6306, 7899.062
329.1127, 7941.787
329.5948, 8007.630
330.0770, 8142.665
330.5591, 8251.195
331.0412, 8267.255
331.5233, 8117.766
332.0054, 8036.993
332.4875, 8072.956
332.9697, 8182.692
333.4518, 8210.857
333.9339, 8115.304
334.4160, 8013.469
334.8981, 7982.396
335.3802, 8058.882
335.8624, 8051.052
336.3445, 7906.271
336.8266, 7703.660
337.3087, 7648.101
337.7908, 7775.725
338.2729, 7917.280
338.7551, 7983.784
339.2372, 7969.529
339.7193, 7958.531
340.2014, 7953.285
340.6835, 7953.333
341.1656, 7958.065
341.6478, 7967.588
342.1299, 7981.772
342.6120, 8008.056
343.0941, 8042.524
343.5762, 8056.648
344.0583, 8049.069
344.5405, 8024.992
345.0226, 7972.604
345.5047, 7898.979
345.9868, 7860.572
346.4689, 7920.596
346.9510, 8031.226
347.4332, 8059.999
347.9153, 7998.928
348.3974, 7921.896
348.8795, 7895.509
349.3616, 7913.251
349.8438, 7957.750
350.3259, 8072.948
350.8080, 8187.452
351.2901, 8189.783
351.7722, 8081.644
352.2543, 7958.333
352.7365, 7876.583
353.2186, 7833.224
353.7007, 7824.377
354.1828, 7887.543
354.6649, 7952.603
355.1470, 7965.088
355.6292, 7928.411
356.1113, 7875.299
356.5934, 7767.894
357.0755, 7677.837
357.5576, 7680.547
358.0397, 7891.104
358.5219, 8090.946
359.0040, 8164.567
359.4861, 8135.994
359.9682, 8103.276
360.4503, 8121.733
360.9324, 8136.455
361.4146, 8107.090
361.8967, 7967.309
362.3788, 7870.645
362.8609, 7889.236
363.3430, 7982.083
363.8251, 8036.224
364.3073, 7977.655
364.7894, 7919.501
365.2715, 7913.604
365.7536, 8012.524
366.2357, 8072.419
366.7178, 8060.068
367.1999, 8009.614
367.6820, 7980.417
368.1642, 7983.412
368.6463, 7995.459
369.1284, 8017.700
369.6105, 8064.250
370.0926, 8060.792
370.5747, 7971.873
371.0569, 7859.459
371.5390, 7808.357
372.0211, 7850.373
372.5032, 7880.298
372.9853, 7860.226
373.4674, 7789.123
373.9496, 7764.376
374.4317, 7797.023
374.9138, 7853.932
375.3959, 7910.034
375.8780, 7969.464
376.3601, 7993.789
376.8423, 7959.306
377.3244, 7886.198
377.8065, 7878.137
378.2886, 7947.582
378.7707, 7994.401
379.2528, 7886.334
379.7350, 7656.750
380.2171, 7534.204
380.6992, 7594.296
381.1813, 7740.952
381.6634, 7817.313
382.1455, 7825.973
382.6277, 7798.867
383.1098, 7722.998
383.5919, 7632.334
384.0740, 7601.493
384.5561, 7657.509
385.0382, 7728.896
385.5204, 7724.702
386.0025, 7671.254
386.4846, 7643.001
386.9667, 7693.972
387.4488, 7780.811
387.9309, 7871.114
388.4131, 7966.805
388.8952, 8038.183
389.3773, 8048.680
389.8594, 8026.437
390.3415, 8013.251
390.8236, 8042.870
391.3058, 8071.183
391.7879, 8076.411
392.2700, 8056.981
392.7521, 8027.903
393.2342, 7976.247
393.7163, 7925.286
394.1985, 7896.479
394.6806, 7925.645
395.1627, 7944.376
395.6448, 7935.271
396.1269, 7900.154
396.6090, 7865.203
397.0912, 7815.018
397.5733, 7777.773
398.0554, 7768.510
398.5375, 7796.111
399.0196, 7840.283
399.5017, 7921.360
399.9839, 8017.123
400.4660, 8056.167
400.9481, 8012.946
401.4302, 7955.438
401.9123, 7911.792
402.3944, 7884.336
402.8766, 7858.396
403.3587, 7824.954
403.8408, 7804.674
404.3229, 7844.141
404.8050, 7955.198
405.2871, 8053.319
405.7693, 8106.733
406.2514, 8118.395
406.7335, 8124.197
407.2156, 8129.953
407.6977, 8101.579
408.1798, 7963.432
408.6620, 7739.625
409.1441, 7574.992
409.6262, 7520.659
410.1083, 7546.488
410.5904, 7618.551
411.0725, 7733.483
411.5546, 7833.878
412.0367, 7865.189
412.5189, 7855.563
413.0010, 7853.160
413.4831, 7872.897
413.9652, 7895.611
414.4473, 7899.949
414.9294, 7892.529
415.4116, 7893.769
415.8937, 7916.773
416.3758, 7951.242
416.8579, 7993.719
417.3400, 8048.942
417.8221, 8092.681
418.3043, 8114.998
418.7864, 8118.811
419.2685, 8108.446
419.7506, 8101.973
420.2327, 8066.041
420.7148, 7966.002
421.1970, 7784.972
421.6791, 7667.049
422.1612, 7670.319
422.6433, 7721.854
423.1254, 7760.151
423.6075, 7787.759
424.0897, 7797.802
424.5718, 7778.867
425.0539, 7737.444
425.5360, 7722.764
426.0181, 7755.029
426.5002, 7784.495
426.9824, 7775.532
427.4645, 7711.669
427.9466, 7674.941
428.4287, 7673.777
428.9108, 7697.808
429.3929, 7735.499
429.8751, 7791.660
430.3572, 7826.007
430.8393, 7796.885
431.3214, 7717.920
431.8035, 7707.885
432.2856, 7779.450
432.7678, 7861.377
433.2499, 7851.357
433.7320, 7772.910
434.2141, 7726.533
434.6962, 7770.688
435.1783, 7853.563
435.6605, 7899.040
436.1426, 7909.323
436.6247, 7910.905
437.1068, 7935.060
437.5889, 7957.974
438.0710, 7943.553
438.5532, 7854.685
439.0353, 7772.948
439.5174, 7743.604
439.9995, 7761.547
440.4816, 7813.030
440.9637, 7950.940
441.4459, 8076.445
441.9280, 8131.357
442.4101, 8093.380
442.8922, 8032.665
443.3743, 7945.430
443.8564, 7849.324
444.3386, 7769.064
444.8207, 7714.786
445.3028, 7667.849
445.7849, 7617.147
446.2670, 7561.442
446.7491, 7548.123
447.2313, 7613.731
447.7134, 7682.589
448.1955, 7690.078
448.6776, 7603.289
449.1597, 7552.267
449.6418, 7566.559
450.1240, 7618.896
450.6061, 7617.518
451.0882, 7550.740
451.5703, 7489.526
452.0524, 7475.701
452.5345, 7506.053
453.0167, 7548.620
453.4988, 7605.333
453.9809, 7661.276
454.4630, 7676.352
454.9451, 7664.756
455.4272, 7694.906
455.9094, 7856.313
456.3914, 8048.557
456.8736, 8098.235
457.3557, 8010.856
457.8378, 7911.948
458.3199, 7929.917
458.8020, 7981.208
459.2841, 7953.348
459.7663, 7734.576
460.2484, 7547.186
460.7305, 7563.026
461.2126, 7719.932
461.6947, 7840.703
462.1768, 7838.387
462.6590, 7796.224
463.1411, 7751.574
463.6232, 7702.923
464.1053, 7669.936
464.5874, 7668.580
465.0695, 7679.965
465.5517, 7678.048
466.0338, 7629.368
466.5159, 7610.022
466.9980, 7641.760
467.4801, 7722.575
467.9622, 7794.231
468.4444, 7855.978
468.9265, 7909.488
469.4086, 7962.144
469.8907, 8020.552
470.3728, 8039.511
470.8549, 8009.152
471.3371, 7944.190
471.8192, 7868.063
472.3013, 7780.267
472.7834, 7701.984
473.2655, 7637.488
473.7477, 7590.819
474.2298, 7581.576
474.7119, 7613.099
475.1940, 7657.710
475.6761, 7694.025
476.1582, 7722.598
476.6404, 7744.862
477.1225, 7766.504
477.6046, 7777.398
478.0867, 7749.168
478.5688, 7693.396
479.0509, 7670.976
479.5331, 7767.161
480.0152, 7876.652
480.4973, 7918.458
480.9794, 7852.743
481.4615, 7772.897
481.9436, 7666.887
482.4258, 7569.430
482.9079, 7540.368
483.3900, 7664.080
483.8721, 7779.329
484.3542, 7849.077
484.8363, 7870.557
485.3185, 7866.764
485.8006, 7814.293
486.2827, 7761.834
486.7648, 7755.270
487.2469, 7817.060
487.7290, 7844.445
488.2112, 7813.190
488.6933, 7747.679
489.1754, 7715.659
489.6575, 7719.345
490.1396, 7733.532
490.6217, 7753.500
491.1039, 7774.479
491.5860, 7766.358
492.0681, 7723.222
492.5502, 7680.889
493.0323, 7697.492
493.5144, 7746.213
493.9966, 7695.527
494.4787, 7761.779
494.9608, 7794.081
495.4429, 7794.305
495.9250, 7663.575
496.4071, 7704.092
496.8893, 7677.292
497.3714, 7648.631
497.8535, 7715.929
498.3356, 7609.066
498.8177, 7676.731
499.2998, 7676.038
499.7820, 7707.996
500.2641, 7672.216
500.7462, 7658.585
501.2283, 7714.587
501.7104, 7733.488
502.1925, 7693.551
502.6746, 7733.146
503.1567, 7633.252
503.6389, 7657.521
504.1210, 7735.892
504.6031, 7704.091
505.0852, 7749.625
505.5673, 7767.000
506.0494, 7653.080
506.5316, 7770.062
507.0137, 7788.527
507.4958, 7705.813
507.9779, 7750.437
508.4600, 7727.183
508.9421, 7711.373
509.4243, 7704.392
509.9064, 7694.970
510.3885, 7665.292
510.8706, 7627.030
511.3527, 7599.426
511.8348, 7578.466
512.3170, 7582.340
512.7991, 7649.986
513.2812, 7759.486
513.7633, 7835.877
514.2454, 7838.388
514.7275, 7807.218
515.2097, 7757.727
515.6918, 7681.907
516.1739, 7621.234
516.6560, 7591.445
517.1381, 7576.193
517.6202, 7555.594
518.1024, 7510.460
518.5845, 7490.016
519.0666, 7509.146
519.5487, 7560.830
520.0308, 7605.851
520.5129, 7651.130
520.9951, 7672.235
521.4772, 7646.771
521.9593, 7574.482
522.4414, 7503.064
522.9235, 7430.644
523.4056, 7374.339
523.8878, 7352.375
524.3699, 7365.772
524.8520, 7421.886
525.3341, 7576.239
525.8162, 7737.541
526.2983, 7755.905
526.7805, 7649.378
527.2626, 7557.875
527.7447, 7587.599
528.2268, 7664.974
528.7089, 7725.670
529.1910, 7761.986
529.6732, 7769.853
530.1553, 7717.788
530.6374, 7643.302
531.1195, 7604.409
531.6016, 7658.276
532.0837, 7701.880
532.5659, 7698.083
533.0480, 7647.731
533.5301, 7635.426
534.0122, 7688.673
534.4943, 7743.899
534.9764, 7757.461
535.4586, 7718.700
535.9407, 7685.825
536.4228, 7661.967
536.9049, 7645.567
537.3870, 7636.178
537.8691, 7633.687
538.3513, 7629.002
538.8334, 7614.836
539.3155, 7597.391
539.7976, 7599.922
540.2797, 7620.932
540.7618, 7622.698
541.2440, 7531.774
541.7261, 7420.431
542.2082, 7388.581
542.6903, 7479.908
543.1724, 7598.234
543.6545, 7742.865
544.1367, 7870.752
544.6188, 7905.487
545.1009, 7691.326
545.5830, 7506.540
546.0651, 7463.462
546.5472, 7575.626
547.0294, 7662.273
547.5115, 7739.601
547.9936, 7772.228
548.4757, 7726.111
548.9578, 7551.683
549.4399, 7434.103
549.9221, 7385.423
550.4042, 7391.021
550.8863, 7447.409
551.3684, 7561.178
551.8505, 7627.503
552.3326, 7580.818
552.8148, 7461.851
553.2969, 7397.356
553.7790, 7385.245
554.2611, 7389.294
554.7432, 7376.923
555.2253, 7363.615
555.7075, 7376.989
556.1896, 7432.240
556.6717, 7487.251
557.1538, 7512.923
557.6359, 7518.396
558.1180, 7518.069
558.6002, 7512.604
559.0823, 7506.257
559.5644, 7503.235
560.0465, 7503.558
560.5286, 7491.640
561.0107, 7422.511
561.4929, 7382.751
561.9750, 7426.294
562.4571, 7597.591
562.9392, 7742.213
563.4213, 7871.747
563.9034, 7958.644
564.3856, 7942.603
564.8677, 7816.509
565.3498, 7695.002
565.8319, 7604.922
566.3140, 7548.286
566.7961, 7538.724
567.2783, 7573.791
567.7604, 7616.299
568.2424, 7664.762
568.7245, 7695.000
569.2067, 7660.936
569.6888, 7540.703
570.1709, 7431.996
570.6530, 7373.949
571.1351, 7372.442
571.6172, 7435.159
572.0994, 7710.506
572.5815, 7896.551
573.0636, 7842.574
573.5457, 7592.449
574.0278, 7465.638
574.5099, 7573.646
574.9921, 7682.814
575.4742, 7688.828
575.9563, 7565.659
576.4384, 7468.960
576.9205, 7400.108
