##NAMES=Sainfeldite
##RRUFFID=R060273
##IDEAL CHEMISTRY=Ca_5_(As^5+^O_4_)_2_(As^5+^O_3_OH)_2_&#183;4H_2_O
##LOCALITY=Grube Gift (Gift mine), Sainte Marie-aux-mines, Alsace, France
##OWNER=RRUFF
##SOURCE=Michael Scott
##DESCRIPTION=Bladed colorless crystals
##STATUS=The identification of this mineral is confirmed by single-crystal X-ray diffraction and chemical analysis.
##URL=rruff.info/R060273
##MEASURED CHEMISTRY=(Ca_4.98_Mn_0.02_)_Σ=5_(As_1.00_O_4_)_2_(As_1.00_O_3_OH)_2_·4H_2_O
90.01007, 0.0000000E+00
90.49219, 85.59159
90.97430, 81.93979
91.45642, 80.64403
91.93854, 83.98598
92.42065, 89.01994
92.90277, 91.34551
93.38489, 90.47737
93.86700, 87.98815
94.34912, 84.59861
94.83124, 80.67209
95.31335, 78.43087
95.79547, 80.70109
96.27759, 86.20098
96.75970, 89.57273
97.24182, 89.62629
97.72394, 87.74651
98.20605, 86.69772
98.68817, 86.50516
99.17029, 86.94313
99.65240, 87.91105
100.1345, 89.43176
100.6166, 91.36399
101.0988, 94.20535
101.5809, 97.61594
102.0630, 98.57999
102.5451, 96.38664
103.0272, 93.02885
103.5093, 90.39482
103.9915, 88.21516
104.4736, 87.55161
104.9557, 89.01430
105.4378, 93.04917
105.9199, 96.84956
106.4020, 101.2278
106.8842, 104.9984
107.3663, 105.9617
107.8484, 101.5185
108.3305, 97.26686
108.8126, 95.24302
109.2947, 97.50882
109.7769, 98.56892
110.2590, 97.14277
110.7411, 94.28512
111.2232, 93.31088
111.7053, 97.11772
112.1874, 100.8210
112.6696, 102.1981
113.1517, 96.59120
113.6338, 93.43706
114.1159, 96.04279
114.5980, 103.3556
115.0801, 107.8700
115.5623, 104.7009
116.0444, 99.53667
116.5265, 96.78561
117.0086, 99.99831
117.4907, 103.6818
117.9728, 105.5722
118.4550, 105.5407
118.9371, 105.7532
119.4192, 107.5903
119.9013, 110.1392
120.3834, 112.2078
120.8655, 112.7212
121.3477, 112.9618
121.8298, 114.0019
122.3119, 116.1087
122.7940, 118.0223
123.2761, 118.7319
123.7582, 118.5685
124.2404, 118.2692
124.7225, 116.2831
125.2046, 115.0576
125.6867, 117.9975
126.1688, 126.3950
126.6509, 137.0671
127.1331, 147.1229
127.6152, 156.6308
128.0973, 165.9314
128.5794, 174.3395
129.0615, 182.6865
129.5436, 192.9440
130.0258, 205.6470
130.5079, 220.3493
130.9900, 236.2489
131.4721, 253.2100
131.9542, 272.5533
132.4363, 295.6734
132.9185, 322.3285
133.4006, 350.6197
133.8827, 379.0344
134.3648, 408.6622
134.8469, 444.7934
135.3290, 487.1963
135.8112, 537.3682
136.2933, 596.5982
136.7754, 665.2324
137.2575, 741.1390
137.7396, 825.4577
138.2217, 916.5966
138.7039, 1010.257
139.1860, 1106.894
139.6681, 1205.589
140.1502, 1308.202
140.6323, 1415.518
141.1144, 1520.812
141.5966, 1622.714
142.0787, 1721.703
142.5608, 1812.375
143.0429, 1893.505
143.5250, 1966.877
144.0071, 2034.838
144.4893, 2092.867
144.9714, 2151.885
145.4535, 2215.392
145.9356, 2282.467
146.4177, 2357.258
146.8998, 2440.542
147.3820, 2531.777
147.8641, 2632.839
148.3462, 2745.743
148.8283, 2865.276
149.3104, 2990.099
149.7925, 3120.067
150.2747, 3254.752
150.7568, 3393.688
151.2389, 3536.511
151.7210, 3679.126
152.2031, 3826.821
152.6852, 3969.685
153.1674, 4103.179
153.6495, 4220.899
154.1316, 4334.411
154.6137, 4446.821
155.0958, 4558.290
155.5779, 4660.727
156.0601, 4749.312
156.5422, 4830.456
157.0243, 4908.562
157.5064, 4983.400
157.9885, 5056.280
158.4706, 5124.076
158.9528, 5185.016
159.4349, 5256.444
159.9170, 5352.063
160.3991, 5457.792
160.8812, 5557.350
161.3633, 5641.481
161.8455, 5722.119
162.3276, 5802.843
162.8097, 5881.627
163.2918, 5967.177
163.7739, 6062.142
164.2560, 6158.859
164.7382, 6217.060
165.2203, 6274.027
165.7024, 6333.621
166.1845, 6390.081
166.6666, 6442.836
167.1487, 6493.065
167.6309, 6543.236
168.1130, 6592.173
168.5951, 6636.417
169.0772, 6672.358
169.5593, 6704.663
170.0414, 6738.514
170.5236, 6778.046
171.0057, 6811.989
171.4878, 6830.323
171.9699, 6836.368
172.4520, 6839.744
172.9341, 6845.208
173.4163, 6851.336
173.8984, 6855.955
174.3805, 6856.820
174.8626, 6858.800
175.3447, 6869.273
175.8268, 6886.158
176.3090, 6900.031
176.7911, 6899.737
177.2732, 6892.915
177.7553, 6892.125
178.2374, 6902.091
178.7195, 6917.491
179.2017, 6932.888
179.6838, 6948.274
180.1659, 6962.375
180.6480, 6972.795
181.1301, 6981.218
181.6122, 6992.017
182.0944, 7007.692
182.5765, 7025.427
183.0586, 7040.178
183.5407, 7051.747
184.0228, 7064.085
184.5049, 7083.462
184.9871, 7107.273
185.4692, 7125.125
185.9513, 7131.579
186.4334, 7130.942
186.9155, 7132.713
187.3976, 7136.883
187.8798, 7143.455
188.3619, 7153.794
188.8440, 7167.319
189.3261, 7179.574
189.8082, 7189.118
190.2903, 7196.327
190.7725, 7202.193
191.2546, 7206.543
191.7367, 7210.852
192.2188, 7218.549
192.7009, 7229.328
193.1830, 7235.974
193.6652, 7234.231
194.1473, 7225.507
194.6294, 7217.705
195.1115, 7210.088
195.5936, 7205.692
196.0757, 7210.701
196.5579, 7225.479
197.0400, 7238.815
197.5221, 7245.388
198.0042, 7245.734
198.4863, 7248.360
198.9684, 7253.899
199.4506, 7260.416
199.9327, 7264.232
200.4148, 7264.880
200.8969, 7267.188
201.3790, 7273.749
201.8611, 7284.671
202.3433, 7295.064
202.8254, 7305.271
203.3075, 7314.221
203.7896, 7318.938
204.2717, 7318.237
204.7538, 7318.804
205.2360, 7323.782
205.7181, 7333.572
206.2002, 7343.557
206.6823, 7354.201
207.1644, 7364.420
207.6465, 7372.484
208.1287, 7378.487
208.6108, 7382.024
209.0929, 7381.945
209.5750, 7377.120
210.0571, 7375.958
210.5392, 7380.216
211.0214, 7386.889
211.5035, 7388.811
211.9856, 7383.878
212.4677, 7380.421
212.9498, 7382.700
213.4319, 7392.148
213.9140, 7401.460
214.3962, 7410.772
214.8783, 7419.751
215.3604, 7427.322
215.8425, 7432.908
216.3246, 7438.198
216.8067, 7444.327
217.2889, 7452.068
217.7710, 7456.892
218.2531, 7456.983
218.7352, 7454.773
219.2173, 7456.729
219.6994, 7465.080
220.1816, 7473.126
220.6637, 7477.485
221.1458, 7476.084
221.6279, 7477.157
222.1100, 7481.560
222.5921, 7488.363
223.0743, 7496.083
223.5564, 7507.687
224.0385, 7515.319
224.5206, 7513.918
225.0027, 7497.927
225.4848, 7488.522
225.9670, 7488.146
226.4491, 7494.019
226.9312, 7498.831
227.4133, 7501.447
227.8954, 7504.768
228.3775, 7510.269
228.8597, 7519.406
229.3418, 7526.633
229.8239, 7530.031
230.3060, 7531.647
230.7881, 7538.060
231.2702, 7553.721
231.7524, 7567.017
232.2345, 7571.601
232.7166, 7561.530
233.1987, 7556.717
233.6808, 7559.798
234.1629, 7567.513
234.6451, 7571.017
235.1272, 7568.032
235.6093, 7564.553
236.0914, 7563.747
236.5735, 7568.698
237.0556, 7569.734
237.5378, 7565.219
238.0199, 7557.611
238.5020, 7553.221
238.9841, 7554.732
239.4662, 7555.710
239.9483, 7552.263
240.4305, 7538.485
240.9126, 7534.860
241.3947, 7546.977
241.8768, 7567.330
242.3589, 7576.729
242.8410, 7567.902
243.3232, 7558.930
243.8053, 7557.896
244.2874, 7569.404
244.7695, 7577.172
245.2516, 7578.849
245.7337, 7577.719
246.2159, 7581.775
246.6980, 7595.506
247.1801, 7607.499
247.6622, 7612.714
248.1443, 7607.577
248.6264, 7606.142
249.1086, 7609.804
249.5907, 7616.573
250.0728, 7622.423
250.5549, 7627.292
251.0370, 7631.293
251.5191, 7633.738
252.0013, 7632.773
252.4834, 7636.600
252.9655, 7648.410
253.4476, 7662.863
253.9297, 7668.800
254.4118, 7659.519
254.8940, 7653.978
255.3761, 7661.122
255.8582, 7686.807
256.3403, 7701.069
256.8224, 7699.713
257.3046, 7690.284
257.7867, 7685.290
258.2688, 7686.452
258.7509, 7688.617
259.2330, 7690.010
259.7151, 7690.316
260.1973, 7692.873
260.6794, 7698.956
261.1615, 7706.226
261.6436, 7710.626
262.1257, 7710.433
262.6078, 7711.768
263.0900, 7717.378
263.5721, 7728.101
264.0542, 7734.056
264.5363, 7732.455
265.0184, 7729.265
265.5005, 7733.393
265.9827, 7748.371
266.4648, 7759.731
266.9469, 7761.481
267.4290, 7753.217
267.9111, 7752.462
268.3932, 7763.118
268.8754, 7775.136
269.3575, 7775.397
269.8396, 7759.680
270.3217, 7747.991
270.8038, 7746.432
271.2859, 7754.409
271.7681, 7759.189
272.2502, 7759.278
272.7323, 7759.381
273.2144, 7765.491
273.6965, 7779.358
274.1786, 7789.938
274.6608, 7794.513
275.1429, 7793.745
275.6250, 7791.577
276.1071, 7786.886
276.5892, 7784.064
277.0714, 7788.240
277.5535, 7800.305
278.0356, 7811.487
278.5177, 7820.005
278.9998, 7826.537
279.4819, 7833.433
279.9641, 7840.661
280.4462, 7849.019
280.9283, 7860.639
281.4104, 7875.702
281.8925, 7886.626
282.3746, 7891.183
282.8568, 7891.706
283.3389, 7893.977
283.8210, 7897.802
284.3031, 7904.419
284.7852, 7915.971
285.2673, 7931.945
285.7495, 7945.871
286.2316, 7955.729
286.7137, 7964.548
287.1958, 7980.336
287.6779, 8003.258
288.1600, 8024.599
288.6422, 8038.347
289.1243, 8045.351
289.6064, 8050.933
290.0885, 8055.177
290.5706, 8059.303
291.0527, 8066.272
291.5349, 8075.870
292.0170, 8083.992
292.4991, 8089.208
292.9812, 8091.377
293.4633, 8087.922
293.9454, 8077.453
294.4276, 8067.024
294.9097, 8067.698
295.3918, 8077.590
295.8739, 8086.757
296.3560, 8089.184
296.8381, 8087.477
297.3203, 8087.054
297.8024, 8087.846
298.2845, 8090.835
298.7666, 8098.885
299.2487, 8110.265
299.7308, 8120.029
300.2130, 8128.251
300.6951, 8132.802
301.1772, 8126.771
301.6593, 8110.289
302.1414, 8096.492
302.6235, 8102.277
303.1057, 8119.055
303.5878, 8129.050
304.0699, 8121.306
304.5520, 8108.176
305.0341, 8102.696
305.5162, 8104.580
305.9984, 8111.318
306.4805, 8124.292
306.9626, 8140.136
307.4447, 8153.960
307.9268, 8164.468
308.4089, 8172.530
308.8911, 8178.551
309.3732, 8182.595
309.8553, 8185.158
310.3374, 8185.707
310.8195, 8185.214
311.3016, 8184.457
311.7838, 8183.126
312.2659, 8182.624
312.7480, 8183.531
313.2301, 8186.053
313.7122, 8190.586
314.1943, 8200.460
314.6765, 8210.626
315.1586, 8217.386
315.6407, 8219.630
316.1228, 8220.759
316.6049, 8219.636
317.0870, 8218.793
317.5692, 8222.360
318.0513, 8236.177
318.5334, 8251.014
319.0155, 8262.777
319.4976, 8271.088
319.9797, 8276.286
320.4619, 8274.624
320.9440, 8271.034
321.4261, 8271.076
321.9082, 8278.478
322.3903, 8287.199
322.8724, 8295.001
323.3546, 8301.787
323.8367, 8310.885
324.3188, 8326.962
324.8009, 8343.665
325.2830, 8356.012
325.7651, 8355.380
326.2473, 8359.780
326.7294, 8375.835
327.2115, 8401.628
327.6936, 8421.137
328.1757, 8427.141
328.6578, 8431.230
329.1400, 8439.134
329.6221, 8452.728
330.1042, 8467.354
330.5863, 8481.994
331.0684, 8497.578
331.5505, 8516.838
332.0327, 8543.523
332.5148, 8569.378
332.9969, 8591.481
333.4790, 8609.109
333.9611, 8623.328
334.4432, 8633.176
334.9254, 8640.090
335.4075, 8645.995
335.8896, 8649.593
336.3717, 8655.029
336.8538, 8664.227
337.3359, 8677.854
337.8180, 8689.581
338.3001, 8699.222
338.7823, 8707.428
339.2644, 8715.179
339.7465, 8723.168
340.2286, 8727.911
340.7107, 8727.593
341.1928, 8723.065
341.6750, 8719.531
342.1571, 8716.112
342.6392, 8716.380
343.1213, 8725.536
343.6034, 8743.605
344.0855, 8757.910
344.5677, 8765.517
345.0498, 8768.740
345.5319, 8771.436
346.0140, 8773.450
346.4961, 8779.243
346.9782, 8795.239
347.4604, 8818.779
347.9425, 8834.889
348.4246, 8841.014
348.9067, 8843.947
349.3888, 8855.120
349.8709, 8872.880
350.3531, 8887.561
350.8352, 8892.385
351.3173, 8891.356
351.7994, 8891.728
352.2815, 8893.761
352.7636, 8897.167
353.2458, 8902.067
353.7279, 8908.088
354.2100, 8914.487
354.6921, 8922.895
355.1742, 8930.069
355.6563, 8931.798
356.1385, 8928.389
356.6206, 8923.936
357.1027, 8923.058
357.5848, 8921.969
358.0669, 8915.531
358.5490, 8897.982
359.0312, 8881.269
359.5133, 8874.582
359.9954, 8875.127
360.4775, 8874.189
360.9596, 8866.146
361.4417, 8856.061
361.9239, 8846.471
362.4060, 8836.418
362.8881, 8830.821
363.3702, 8837.924
363.8523, 8849.421
364.3344, 8852.593
364.8166, 8834.225
365.2987, 8815.502
365.7808, 8805.003
366.2629, 8803.894
366.7450, 8804.065
367.2271, 8804.720
367.7093, 8806.056
368.1914, 8808.261
368.6735, 8813.427
369.1556, 8817.354
369.6377, 8816.767
370.1198, 8812.869
370.6020, 8816.696
371.0841, 8833.631
371.5662, 8853.357
372.0483, 8870.179
372.5304, 8882.216
373.0125, 8894.974
373.4947, 8907.881
373.9768, 8921.627
374.4589, 8938.143
374.9410, 8957.998
375.4231, 8979.475
375.9052, 9001.823
376.3874, 9024.882
376.8695, 9051.412
377.3516, 9082.985
377.8337, 9115.911
378.3158, 9147.009
378.7979, 9176.521
379.2801, 9203.178
379.7622, 9226.327
380.2443, 9246.466
380.7264, 9266.642
381.2085, 9286.701
381.6906, 9306.910
382.1728, 9326.826
382.6549, 9346.863
383.1370, 9369.627
383.6191, 9397.730
384.1012, 9425.156
384.5833, 9439.598
385.0655, 9442.763
385.5476, 9447.551
386.0297, 9463.892
386.5118, 9486.458
386.9939, 9506.403
387.4760, 9522.949
387.9582, 9536.673
388.4403, 9547.893
388.9224, 9556.853
389.4045, 9564.010
389.8866, 9570.635
390.3687, 9574.925
390.8509, 9574.987
391.3330, 9570.949
391.8151, 9564.423
392.2972, 9558.411
392.7793, 9549.395
393.2614, 9533.688
393.7436, 9507.987
394.2257, 9479.146
394.7078, 9448.785
395.1899, 9417.551
395.6720, 9387.116
396.1541, 9360.490
396.6363, 9332.964
397.1184, 9301.846
397.6005, 9265.460
398.0826, 9230.192
398.5647, 9193.173
399.0468, 9159.132
399.5290, 9133.795
400.0111, 9130.534
400.4932, 9121.957
400.9753, 9100.435
401.4574, 9065.924
401.9395, 9038.547
402.4217, 9020.341
402.9038, 9006.688
403.3859, 8994.389
403.8680, 8982.179
404.3501, 8974.483
404.8322, 8973.402
405.3144, 8976.113
405.7965, 8974.851
406.2786, 8968.322
406.7607, 8962.028
407.2428, 8958.861
407.7249, 8958.938
408.2071, 8957.033
408.6892, 8952.386
409.1713, 8947.859
409.6534, 8947.238
410.1355, 8950.408
410.6176, 8954.717
411.0998, 8960.031
411.5819, 8965.630
412.0640, 8968.610
412.5461, 8969.127
413.0282, 8971.690
413.5103, 8982.782
413.9925, 8997.999
414.4746, 9008.291
414.9567, 9011.808
415.4388, 9011.218
415.9209, 9004.877
416.4030, 8996.285
416.8852, 8993.985
417.3673, 9008.791
417.8494, 9027.421
418.3315, 9037.922
418.8136, 9039.399
419.2957, 9041.624
419.7779, 9049.567
420.2600, 9061.144
420.7421, 9074.146
421.2242, 9088.488
421.7063, 9103.813
422.1884, 9122.110
422.6706, 9141.952
423.1527, 9158.558
423.6348, 9168.293
424.1169, 9176.507
424.5990, 9185.998
425.0811, 9198.588
425.5633, 9208.675
426.0454, 9209.027
426.5275, 9209.744
427.0096, 9224.976
427.4917, 9270.169
427.9738, 9306.076
428.4560, 9321.382
428.9381, 9317.359
429.4202, 9321.140
429.9023, 9335.129
430.3844, 9352.167
430.8665, 9368.222
431.3487, 9384.005
431.8308, 9392.889
432.3129, 9391.703
432.7950, 9386.517
433.2771, 9390.345
433.7592, 9403.359
434.2414, 9418.209
434.7235, 9432.284
435.2056, 9445.432
435.6877, 9456.949
436.1698, 9466.663
436.6519, 9475.683
437.1341, 9484.035
437.6162, 9492.370
438.0983, 9503.253
438.5804, 9520.075
439.0625, 9535.948
439.5446, 9541.193
440.0268, 9538.245
440.5089, 9535.792
440.9910, 9541.193
441.4731, 9548.145
441.9552, 9551.941
442.4373, 9552.408
442.9195, 9547.700
443.4016, 9531.939
443.8837, 9512.128
444.3658, 9496.760
444.8479, 9494.095
445.3300, 9490.501
445.8122, 9480.932
446.2943, 9466.025
446.7764, 9451.524
447.2585, 9440.233
447.7406, 9427.980
448.2227, 9412.080
448.7049, 9388.013
449.1870, 9369.311
449.6691, 9358.249
450.1512, 9351.502
450.6333, 9343.985
451.1154, 9334.634
451.5976, 9326.868
452.0797, 9323.224
452.5618, 9322.978
453.0439, 9314.837
453.5260, 9297.376
454.0081, 9276.976
454.4903, 9256.467
454.9724, 9236.106
455.4545, 9223.851
455.9366, 9222.751
456.4187, 9226.079
456.9008, 9221.248
457.3830, 9209.409
457.8651, 9200.040
458.3472, 9199.426
458.8293, 9203.587
459.3114, 9205.688
459.7935, 9205.670
460.2757, 9204.440
460.7578, 9201.464
461.2399, 9198.106
461.7220, 9196.240
462.2041, 9196.369
462.6862, 9197.938
463.1684, 9202.341
463.6505, 9207.925
464.1326, 9210.792
464.6147, 9206.834
465.0968, 9201.745
465.5789, 9198.268
466.0611, 9196.679
466.5432, 9195.657
467.0253, 9196.937
467.5074, 9197.487
467.9895, 9194.743
468.4716, 9183.338
468.9538, 9175.220
469.4359, 9172.406
469.9180, 9173.459
470.4001, 9174.131
470.8822, 9175.575
471.3643, 9174.847
471.8465, 9170.111
472.3286, 9160.907
472.8107, 9153.781
473.2928, 9149.050
473.7749, 9146.248
474.2570, 9146.162
474.7392, 9148.824
475.2213, 9148.686
475.7034, 9143.500
476.1855, 9136.141
476.6676, 9131.899
477.1497, 9130.688
477.6319, 9132.034
478.1140, 9137.584
478.5961, 9144.743
479.0782, 9147.827
479.5603, 9145.940
480.0424, 9146.275
480.5246, 9159.597
481.0067, 9177.413
481.4888, 9187.436
481.9709, 9177.663
482.4530, 9168.483
482.9352, 9172.688
483.4173, 9186.368
483.8994, 9197.198
484.3815, 9200.095
484.8636, 9199.938
485.3457, 9198.240
485.8279, 9194.068
486.3100, 9192.485
486.7921, 9196.542
487.2742, 9201.965
487.7563, 9205.049
488.2384, 9204.503
488.7206, 9203.913
489.2027, 9203.721
489.6848, 9203.831
490.1669, 9203.935
490.6490, 9204.261
491.1311, 9204.111
491.6133, 9202.476
492.0954, 9199.464
492.5775, 9199.980
493.0596, 9204.753
493.5417, 9210.251
494.0238, 9211.249
494.5060, 9209.158
494.9881, 9211.030
495.4702, 9220.335
495.9523, 9231.616
496.4344, 9236.734
496.9165, 9236.859
497.3987, 9236.423
497.8808, 9235.094
498.3629, 9235.995
498.8450, 9243.859
499.3271, 9259.391
499.8092, 9272.936
500.2914, 9280.280
500.7735, 9282.668
501.2556, 9281.355
501.7377, 9270.346
502.2198, 9263.094
502.7019, 9265.892
503.1841, 9274.688
503.6662, 9278.442
504.1483, 9267.478
504.6304, 9260.922
505.1125, 9266.056
505.5946, 9284.259
506.0768, 9297.193
506.5589, 9304.614
507.0410, 9307.204
507.5231, 9303.700
508.0052, 9292.534
508.4873, 9286.755
508.9695, 9289.090
509.4516, 9295.662
509.9337, 9298.536
510.4158, 9298.011
510.8979, 9300.013
511.3800, 9310.670
511.8622, 9324.439
512.3443, 9327.168
512.8264, 9319.315
513.3085, 9311.053
513.7906, 9308.407
514.2728, 9310.557
514.7549, 9318.449
515.2370, 9335.844
515.7191, 9347.955
516.2012, 9338.744
516.6833, 9319.761
517.1655, 9308.595
517.6476, 9318.439
518.1297, 9329.701
518.6118, 9335.775
519.0939, 9336.974
519.5760, 9338.440
520.0582, 9340.697
520.5403, 9343.449
521.0224, 9346.732
521.5045, 9351.154
521.9866, 9354.011
522.4688, 9354.103
522.9509, 9353.793
523.4330, 9356.682
523.9151, 9363.698
524.3972, 9368.166
524.8793, 9367.479
525.3615, 9364.240
525.8436, 9365.932
526.3257, 9372.486
526.8078, 9379.078
527.2899, 9382.669
527.7720, 9384.415
528.2542, 9387.564
528.7363, 9392.408
529.2184, 9395.562
529.7005, 9391.130
530.1826, 9384.249
530.6647, 9382.208
531.1469, 9389.533
531.6290, 9397.969
532.1111, 9403.596
532.5932, 9406.932
533.0753, 9409.047
533.5574, 9406.875
534.0396, 9406.691
534.5217, 9412.587
535.0038, 9425.115
535.4859, 9431.880
535.9680, 9428.993
536.4501, 9423.620
536.9323, 9419.471
537.4144, 9416.063
537.8965, 9415.325
538.3786, 9418.165
538.8607, 9422.564
539.3428, 9426.035
539.8250, 9428.769
540.3071, 9428.787
540.7892, 9423.753
541.2713, 9417.230
541.7534, 9421.007
542.2355, 9433.901
542.7177, 9442.816
543.1998, 9433.491
543.6819, 9417.170
544.1640, 9412.469
544.6461, 9421.188
545.1282, 9431.409
545.6104, 9434.521
546.0925, 9434.521
546.5746, 9435.893
547.0567, 9440.621
547.5388, 9445.690
548.0209, 9450.543
548.5031, 9454.904
548.9852, 9458.302
549.4673, 9460.264
549.9494, 9461.626
550.4315, 9462.513
550.9136, 9462.936
551.3958, 9463.083
551.8779, 9462.434
552.3600, 9462.459
552.8421, 9464.190
553.3242, 9467.768
553.8063, 9472.267
554.2885, 9478.251
554.7706, 9483.535
555.2527, 9484.181
555.7348, 9480.985
556.2169, 9478.754
556.6990, 9478.287
557.1812, 9480.317
557.6633, 9488.459
558.1454, 9500.766
558.6275, 9509.950
559.1096, 9507.649
559.5917, 9503.359
560.0739, 9505.925
560.5560, 9516.089
561.0381, 9524.636
561.5202, 9526.401
562.0023, 9525.922
562.4844, 9526.436
562.9666, 9527.872
563.4487, 9531.140
563.9308, 9537.196
564.4129, 9544.527
564.8950, 9550.744
565.3771, 9554.904
565.8593, 9559.989
566.3414, 9568.169
566.8235, 9577.459
567.3056, 9576.976
567.7877, 9564.929
568.2698, 9555.715
568.7520, 9560.863
569.2341, 9576.189
569.7162, 9585.975
570.1983, 9589.559
570.6804, 9590.091
571.1625, 9589.302
571.6447, 9587.766
572.1268, 9586.332
572.6089, 9585.187
573.0910, 9584.444
573.5731, 9584.410
574.0552, 9584.887
574.5374, 9585.483
575.0195, 9585.153
575.5016, 9586.051
575.9837, 9590.316
576.4658, 9597.491
576.9479, 9601.572
577.4301, 9601.766
577.9122, 9599.714
578.3943, 9594.906
578.8764, 9585.803
579.3585, 9583.426
579.8406, 9589.266
580.3228, 9598.437
580.8049, 9605.719
581.2870, 9611.219
581.7691, 9618.745
582.2512, 9629.206
582.7333, 9640.833
583.2155, 9652.408
583.6975, 9662.968
584.1796, 9670.277
