##NAMES=Sainfeldite
##RRUFFID=R060273
##IDEAL CHEMISTRY=Ca_5_(As^5+^O_4_)_2_(As^5+^O_3_OH)_2_&#183;4H_2_O
##LOCALITY=Grube Gift (Gift mine), Sainte Marie-aux-mines, Alsace, France
##OWNER=RRUFF
##SOURCE=Michael Scott
##DESCRIPTION=Bladed colorless crystals
##STATUS=The identification of this mineral is confirmed by single-crystal X-ray diffraction and chemical analysis.
##URL=rruff.info/R060273
##MEASURED CHEMISTRY=(Ca_4.98_Mn_0.02_)_Σ=5_(As_1.00_O_4_)_2_(As_1.00_O_3_OH)_2_·4H_2_O
91.53320, 1429.041
92.01532, 1420.627
92.49744, 1414.431
92.97955, 1435.477
93.46167, 1458.590
93.94379, 1458.358
94.42590, 1439.706
94.90802, 1413.854
95.39014, 1388.386
95.87225, 1362.590
96.35437, 1339.898
96.83649, 1326.002
97.31860, 1315.196
97.80072, 1301.080
98.28284, 1278.476
98.76495, 1248.225
99.24707, 1220.372
99.72919, 1196.853
100.2113, 1173.827
100.6934, 1149.468
101.1755, 1124.417
101.6577, 1100.368
102.1398, 1078.149
102.6219, 1057.057
103.1040, 1041.624
103.5861, 1034.344
104.0682, 1028.717
104.5504, 1020.338
105.0325, 1008.864
105.5146, 997.8974
105.9967, 992.9540
106.4788, 997.7037
106.9609, 998.6947
107.4431, 993.9243
107.9252, 985.2747
108.4073, 974.2606
108.8894, 960.2729
109.3715, 946.6315
109.8536, 940.1869
110.3358, 942.4330
110.8179, 943.5590
111.3000, 936.2389
111.7821, 921.5393
112.2642, 910.1971
112.7463, 909.9327
113.2285, 912.8542
113.7106, 910.6282
114.1927, 900.8873
114.6748, 888.5800
115.1569, 880.9042
115.6390, 879.7891
116.1212, 878.2730
116.6033, 873.8417
117.0854, 868.1725
117.5675, 862.7810
118.0496, 858.3517
118.5317, 854.7944
119.0139, 851.7254
119.4960, 848.5585
119.9781, 846.6656
120.4602, 847.1141
120.9423, 848.9757
121.4244, 850.6249
121.9066, 850.7260
122.3887, 849.0861
122.8708, 848.6467
123.3529, 850.8936
123.8350, 852.7485
124.3171, 852.7615
124.7993, 850.8882
125.2814, 847.8570
125.7635, 843.9195
126.2456, 838.6047
126.7277, 836.1156
127.2098, 838.2690
127.6920, 842.4894
128.1741, 846.5322
128.6562, 850.1169
129.1383, 852.6645
129.6204, 852.7299
130.1025, 850.6138
130.5847, 848.7493
131.0668, 848.2841
131.5489, 848.8806
132.0310, 849.3254
132.5131, 849.1032
132.9952, 848.9938
133.4774, 849.8561
133.9595, 851.6893
134.4416, 853.4310
134.9237, 853.9033
135.4058, 852.8563
135.8879, 852.3517
136.3701, 852.9214
136.8522, 854.0897
137.3343, 855.4407
137.8164, 856.9196
138.2985, 859.0862
138.7806, 863.4344
139.2628, 873.1446
139.7449, 878.9645
140.2270, 876.6936
140.7091, 872.3773
141.1912, 871.9875
141.6733, 878.1990
142.1555, 888.6037
142.6376, 894.8525
143.1197, 891.9816
143.6018, 890.1666
144.0839, 891.2077
144.5660, 893.8967
145.0482, 896.2552
145.5303, 897.1216
146.0124, 896.6715
146.4945, 896.2819
146.9766, 895.0254
147.4587, 894.6716
147.9409, 896.8745
148.4230, 901.0334
148.9051, 904.3816
149.3872, 904.7683
149.8693, 902.5496
150.3514, 901.0411
150.8336, 900.4700
151.3157, 900.5209
151.7978, 900.8475
152.2799, 901.4050
152.7620, 902.5639
153.2441, 905.7524
153.7263, 909.7252
154.2084, 912.2237
154.6905, 910.8027
155.1726, 907.6188
155.6547, 907.8457
156.1368, 913.3619
156.6190, 918.9923
157.1011, 921.4916
157.5832, 922.0449
158.0653, 923.0464
158.5474, 926.9208
159.0295, 933.2311
159.5117, 936.0000
159.9938, 930.7198
160.4759, 926.1531
160.9580, 925.7513
161.4401, 928.7882
161.9222, 932.8182
162.4044, 935.5929
162.8865, 936.7516
163.3686, 938.8824
163.8507, 944.2182
164.3328, 948.5865
164.8149, 949.8922
165.2971, 948.1984
165.7792, 944.9105
166.2613, 941.4345
166.7434, 937.1086
167.2255, 934.9068
167.7076, 937.6675
168.1898, 940.3389
168.6719, 938.8820
169.1540, 932.6466
169.6361, 924.5214
170.1182, 918.6008
170.6003, 916.3064
171.0825, 912.6566
171.5646, 906.9025
172.0467, 899.9106
172.5288, 892.3013
173.0109, 884.1122
173.4930, 876.1464
173.9752, 869.6827
174.4573, 864.4859
174.9394, 860.6903
175.4215, 859.3381
175.9036, 859.3906
176.3857, 858.3959
176.8679, 855.2189
177.3500, 851.4018
177.8321, 849.2132
178.3142, 848.7908
178.7963, 848.1601
179.2784, 845.5892
179.7606, 841.3957
180.2427, 838.3862
180.7248, 837.8945
181.2069, 838.4480
181.6890, 839.0003
182.1711, 839.5026
182.6533, 839.4323
183.1354, 837.5273
183.6175, 833.2952
184.0996, 831.1564
184.5817, 834.2548
185.0638, 838.5477
185.5460, 842.2180
186.0281, 844.8117
186.5102, 846.1558
186.9923, 845.7926
187.4744, 843.0984
187.9565, 840.2751
188.4387, 836.4537
188.9208, 833.2772
189.4029, 832.6180
189.8850, 834.8854
190.3671, 838.1036
190.8492, 838.3454
191.3314, 832.9089
191.8135, 828.7543
192.2956, 827.5078
192.7777, 826.9899
193.2598, 824.8334
193.7419, 820.1830
194.2241, 814.5692
194.7062, 811.6949
195.1883, 816.7543
195.6704, 818.5609
196.1525, 813.9427
196.6346, 806.8963
197.1168, 802.2673
197.5989, 802.2177
198.0810, 805.1107
198.5631, 806.2319
199.0452, 803.7978
199.5273, 802.0726
200.0095, 802.2119
200.4916, 803.4264
200.9737, 804.4699
201.4558, 804.8136
201.9379, 804.6086
202.4200, 804.2315
202.9022, 803.4594
203.3843, 802.9229
203.8664, 803.1481
204.3485, 803.8264
204.8306, 804.0784
205.3127, 803.4514
205.7949, 802.2375
206.2770, 800.9141
206.7591, 798.7925
207.2412, 797.9194
207.7233, 800.5269
208.2054, 805.9756
208.6876, 810.2338
209.1697, 811.4473
209.6518, 810.6419
210.1339, 809.3434
210.6160, 807.1943
211.0981, 805.7410
211.5803, 806.8849
212.0624, 810.6337
212.5445, 813.5986
213.0266, 814.5789
213.5087, 814.1016
213.9908, 812.1559
214.4730, 808.4368
214.9551, 804.9370
215.4372, 804.3129
215.9193, 807.1115
216.4014, 809.3750
216.8836, 810.2393
217.3657, 809.9745
217.8478, 808.0499
218.3299, 804.2983
218.8120, 800.5358
219.2941, 799.5906
219.7763, 802.4882
220.2584, 804.8260
220.7405, 805.9316
221.2226, 806.1774
221.7047, 805.6226
222.1868, 804.3093
222.6690, 802.5286
223.1511, 800.5718
223.6332, 797.8904
224.1153, 796.3548
224.5974, 796.9784
225.0795, 798.0875
225.5617, 798.6346
226.0438, 798.2827
226.5259, 797.1811
227.0080, 795.3978
227.4901, 791.7988
227.9722, 789.7302
228.4544, 790.4219
228.9365, 791.7755
229.4186, 792.3245
229.9007, 791.6123
230.3828, 789.9590
230.8649, 787.8400
231.3471, 784.3152
231.8292, 781.8945
232.3113, 781.3248
232.7934, 781.3165
233.2755, 780.6335
233.7576, 778.9910
234.2398, 777.2347
234.7219, 776.8389
235.2040, 779.1710
235.6861, 780.4333
236.1682, 779.3840
236.6503, 777.9519
237.1325, 778.1976
237.6146, 780.5969
238.0967, 783.6264
238.5788, 785.0099
239.0609, 783.9814
239.5430, 782.8484
240.0252, 781.3609
240.5073, 779.9525
240.9894, 779.2176
241.4715, 779.2900
241.9536, 779.5390
242.4357, 779.0507
242.9179, 777.5903
243.4000, 776.4579
243.8821, 775.5784
244.3642, 775.1811
244.8463, 775.6633
245.3284, 777.1351
245.8106, 779.0012
246.2927, 780.6039
246.7748, 781.9337
247.2569, 783.3126
247.7390, 785.6352
248.2211, 787.6719
248.7033, 787.3800
249.1854, 784.1741
249.6675, 780.8459
250.1496, 780.5323
250.6317, 782.7870
251.1138, 784.8939
251.5960, 786.7978
252.0781, 788.0545
252.5602, 787.7672
253.0423, 785.6263
253.5244, 783.2717
254.0065, 782.1547
254.4887, 781.9619
254.9708, 781.9570
255.4529, 781.6889
255.9350, 781.6221
256.4171, 782.5728
256.8992, 784.7507
257.3813, 787.0922
257.8635, 789.4727
258.3456, 791.4610
258.8277, 792.0194
259.3098, 789.4542
259.7919, 786.1153
260.2740, 786.1359
260.7562, 790.5536
261.2383, 793.8261
261.7204, 790.4557
262.2025, 784.5897
262.6846, 781.5681
263.1667, 784.3007
263.6489, 788.8277
264.1310, 789.1227
264.6131, 784.1699
265.0952, 779.3997
265.5773, 777.5008
266.0594, 776.9372
266.5416, 776.3008
267.0237, 775.0666
267.5058, 774.0703
267.9879, 774.6383
268.4700, 777.1177
268.9521, 779.5840
269.4343, 782.1465
269.9164, 784.0324
270.3985, 784.0504
270.8806, 781.7457
271.3627, 779.2475
271.8448, 779.6611
272.3270, 783.7455
272.8091, 786.7694
273.2912, 785.5075
273.7733, 784.1547
274.2554, 785.5756
274.7375, 790.2164
275.2197, 796.0069
275.7018, 801.2719
276.1839, 806.2533
276.6660, 808.9764
277.1481, 806.0685
277.6302, 802.9781
278.1124, 802.5980
278.5945, 805.0040
279.0766, 808.2370
279.5587, 810.3665
280.0408, 811.2478
280.5229, 812.4306
281.0051, 814.6024
281.4872, 816.5475
281.9693, 817.8552
282.4514, 818.4940
282.9335, 818.5334
283.4156, 817.7832
283.8978, 816.2122
284.3799, 815.3333
284.8620, 815.7963
285.3441, 816.3464
285.8262, 817.0266
286.3083, 817.4673
286.7905, 816.8549
287.2726, 814.1998
287.7547, 809.8756
288.2368, 807.6429
288.7189, 809.3048
289.2010, 811.0706
289.6832, 812.1166
290.1653, 812.5513
290.6474, 812.7217
291.1295, 812.9068
291.6116, 812.8428
292.0938, 811.2685
292.5759, 806.2811
293.0580, 802.5540
293.5401, 802.2479
294.0222, 803.0951
294.5043, 802.6182
294.9865, 799.7089
295.4686, 794.9874
295.9507, 789.6089
296.4328, 781.7320
296.9149, 776.7302
297.3970, 776.0016
297.8792, 777.5103
298.3613, 780.2181
298.8434, 783.6236
299.3255, 786.6132
299.8076, 787.0480
300.2897, 783.2776
300.7719, 780.6520
301.2540, 779.4612
301.7361, 779.2502
302.2182, 780.2142
302.7003, 782.1324
303.1824, 784.0084
303.6646, 784.5428
304.1467, 783.2722
304.6288, 782.3119
305.1109, 781.8517
305.5930, 781.5068
306.0751, 780.7784
306.5573, 779.9099
307.0394, 779.7910
307.5215, 781.5162
308.0036, 785.3293
308.4857, 787.4932
308.9678, 786.2921
309.4500, 785.0568
309.9321, 784.8050
310.4142, 785.2487
310.8963, 785.5490
311.3784, 785.0414
311.8605, 783.9441
312.3427, 783.9894
312.8248, 786.3651
313.3069, 788.5848
313.7890, 790.1846
314.2711, 791.3754
314.7532, 792.4025
315.2354, 793.3643
315.7175, 794.3859
316.1996, 795.8596
316.6817, 798.3527
317.1638, 800.4083
317.6459, 801.0316
318.1281, 801.6425
318.6102, 803.7605
319.0923, 807.7908
319.5744, 812.5833
320.0565, 816.0074
320.5386, 816.6832
321.0208, 819.2435
321.5029, 825.2955
321.9850, 831.8871
322.4671, 837.3148
322.9492, 841.3467
323.4313, 844.6389
323.9135, 847.5760
324.3956, 849.6491
324.8777, 854.0318
325.3598, 863.6220
325.8419, 872.8461
326.3240, 878.9911
326.8062, 882.8561
327.2883, 887.1833
327.7704, 894.3305
328.2525, 904.0700
328.7346, 912.5002
329.2167, 918.2568
329.6989, 924.2316
330.1810, 931.7997
330.6631, 939.9036
331.1452, 946.5793
331.6273, 950.5611
332.1094, 953.1813
332.5916, 958.8553
333.0737, 970.2211
333.5558, 980.1703
334.0379, 987.6103
334.5200, 993.2774
335.0021, 997.5564
335.4843, 1000.631
335.9664, 1002.891
336.4485, 1004.866
336.9306, 1006.476
337.4127, 1008.041
337.8948, 1008.737
338.3770, 1010.031
338.8591, 1013.690
339.3412, 1019.381
339.8233, 1024.414
340.3055, 1025.462
340.7876, 1021.959
341.2697, 1020.140
341.7518, 1020.787
342.2339, 1022.549
342.7160, 1025.411
343.1982, 1028.987
343.6803, 1032.568
344.1624, 1035.773
344.6445, 1038.581
345.1266, 1040.625
345.6087, 1040.442
346.0909, 1042.018
346.5730, 1048.587
347.0551, 1056.737
347.5372, 1061.877
348.0193, 1061.858
348.5014, 1059.200
348.9836, 1058.704
349.4657, 1061.292
349.9478, 1062.944
350.4299, 1062.783
350.9120, 1061.175
351.3941, 1058.086
351.8763, 1053.545
352.3584, 1048.061
352.8405, 1041.688
353.3226, 1034.345
353.8047, 1028.266
354.2868, 1025.214
354.7690, 1021.957
355.2511, 1016.223
355.7332, 1008.397
356.2153, 1000.447
356.6974, 994.0049
357.1795, 988.5198
357.6617, 981.6386
358.1438, 972.7153
358.6259, 963.7722
359.1080, 954.8887
359.5901, 946.9334
360.0722, 941.6337
360.5544, 940.6595
361.0365, 941.3919
361.5186, 939.8181
362.0007, 935.5660
362.4828, 931.9641
362.9649, 930.2372
363.4471, 930.0131
363.9292, 931.0688
364.4113, 933.6281
364.8934, 936.3844
365.3755, 938.1014
365.8576, 939.0396
366.3398, 940.5929
366.8219, 942.9924
367.3040, 946.3027
367.7861, 950.2755
368.2682, 954.9123
368.7503, 961.0706
369.2325, 970.0959
369.7146, 980.6104
370.1967, 989.6907
370.6788, 996.6945
371.1609, 1004.971
371.6430, 1018.515
372.1252, 1035.551
372.6073, 1049.799
373.0894, 1058.186
373.5715, 1065.279
374.0536, 1074.046
374.5357, 1084.413
375.0179, 1096.537
375.5000, 1111.107
375.9821, 1126.768
376.4642, 1140.417
376.9463, 1151.458
377.4284, 1162.092
377.9106, 1174.352
378.3927, 1186.428
378.8748, 1194.606
379.3569, 1197.632
379.8390, 1198.727
380.3211, 1202.054
380.8033, 1208.146
381.2854, 1213.370
381.7675, 1218.750
382.2496, 1222.238
382.7317, 1220.759
383.2138, 1214.932
383.6960, 1209.825
384.1781, 1209.583
384.6602, 1213.723
385.1423, 1214.919
385.6244, 1211.352
386.1065, 1207.464
386.5887, 1205.240
387.0708, 1203.582
387.5529, 1200.657
388.0350, 1195.666
388.5171, 1188.861
388.9992, 1180.786
389.4814, 1171.431
389.9635, 1160.595
390.4456, 1148.169
390.9277, 1134.374
391.4098, 1118.764
391.8919, 1101.675
392.3741, 1084.583
392.8562, 1069.455
393.3383, 1056.973
393.8204, 1040.631
394.3025, 1017.336
394.7846, 993.6703
395.2668, 970.7284
395.7489, 949.1008
396.2310, 929.5259
396.7131, 912.4882
397.1952, 897.4890
397.6773, 882.7414
398.1595, 868.2491
398.6416, 853.9550
399.1237, 838.8066
399.6058, 824.4211
400.0879, 811.9899
400.5700, 801.8412
401.0522, 793.8033
401.5343, 788.3611
402.0164, 786.3124
402.4985, 782.1624
402.9806, 772.2676
403.4627, 763.5289
403.9449, 759.6144
404.4270, 759.3370
404.9091, 759.3022
405.3912, 757.3968
405.8733, 754.2172
406.3554, 751.5713
406.8376, 749.4170
407.3197, 747.8681
407.8018, 747.5406
408.2839, 747.5665
408.7660, 746.5634
409.2481, 743.7897
409.7303, 742.1832
410.2124, 745.5660
410.6945, 753.5848
411.1766, 760.7937
411.6587, 766.1348
412.1408, 770.1903
412.6230, 772.9343
413.1051, 774.6391
413.5872, 777.4523
414.0693, 782.9306
414.5514, 789.8336
415.0335, 796.5215
415.5157, 802.9874
415.9978, 808.1678
416.4799, 810.0092
416.9620, 810.2845
417.4441, 814.3322
417.9262, 824.7523
418.4084, 835.7775
418.8905, 844.0945
419.3726, 850.4677
419.8547, 856.6486
420.3368, 863.1033
420.8189, 870.0535
421.3011, 877.9413
421.7832, 886.9590
422.2653, 896.0090
422.7474, 905.1710
423.2295, 914.1892
423.7116, 922.7405
424.1938, 930.8807
424.6759, 939.2673
425.1580, 948.6505
425.6401, 958.8762
426.1222, 967.3108
426.6043, 972.7011
427.0865, 978.0452
427.5686, 984.9117
428.0507, 991.9307
428.5328, 996.9687
429.0149, 999.2444
429.4970, 1000.028
429.9792, 1001.627
430.4613, 1004.923
430.9434, 1007.080
431.4255, 1007.873
431.9076, 1007.960
432.3897, 1007.245
432.8719, 1006.093
433.3540, 1005.370
433.8361, 1005.840
434.3182, 1007.322
434.8003, 1008.559
435.2824, 1010.038
435.7646, 1010.431
436.2467, 1008.646
436.7288, 1006.125
437.2109, 1004.712
437.6930, 1005.003
438.1751, 1005.214
438.6573, 1002.734
439.1394, 997.3275
439.6215, 992.6639
440.1036, 991.1227
440.5857, 988.1802
441.0678, 980.0217
441.5500, 967.8325
442.0321, 956.2323
442.5142, 947.9375
442.9963, 941.5143
443.4784, 934.6920
443.9605, 927.5994
444.4427, 919.0696
444.9248, 908.2706
445.4069, 895.6976
445.8890, 882.5281
446.3711, 868.7892
446.8532, 854.3937
447.3354, 838.1649
447.8175, 821.4132
448.2996, 807.1436
448.7817, 796.1670
449.2638, 786.8901
449.7459, 777.6754
450.2281, 768.5153
450.7102, 760.8778
451.1923, 757.2375
451.6744, 752.9823
452.1565, 744.2979
452.6386, 732.4304
453.1208, 721.3168
453.6029, 712.8962
454.0850, 706.7410
454.5671, 701.6960
455.0492, 698.7272
455.5313, 695.6104
456.0135, 692.4642
456.4956, 689.0643
456.9777, 685.0600
457.4598, 680.5106
457.9419, 675.8196
458.4240, 671.2800
458.9062, 666.8977
459.3883, 663.1231
459.8704, 661.1252
460.3525, 658.3865
460.8346, 653.4547
461.3167, 647.8118
461.7989, 643.5255
462.2810, 641.3841
462.7631, 640.0449
463.2452, 637.0471
463.7273, 631.8232
464.2094, 628.4077
464.6916, 629.8789
465.1737, 630.8066
465.6558, 627.0107
466.1379, 619.7097
466.6200, 613.6179
467.1021, 612.1627
467.5843, 613.1904
468.0664, 612.2512
468.5485, 609.0428
469.0306, 606.0547
469.5127, 604.7105
469.9948, 604.0598
470.4770, 602.6876
470.9591, 600.5023
471.4412, 597.7781
471.9233, 593.7824
472.4054, 589.5509
472.8875, 587.4359
473.3697, 587.9709
473.8518, 588.7369
474.3339, 587.3694
474.8160, 583.8951
475.2981, 581.6194
475.7802, 581.3036
476.2624, 581.3505
476.7445, 581.1086
477.2266, 580.7019
477.7087, 580.4902
478.1908, 580.6189
478.6729, 580.7789
479.1551, 580.4316
479.6372, 579.5131
480.1193, 578.1534
480.6014, 575.1641
481.0835, 572.8398
481.5656, 573.1314
482.0478, 575.2551
482.5299, 576.9612
483.0120, 576.7678
483.4941, 575.0526
483.9762, 573.0927
484.4583, 570.3684
484.9405, 568.5090
485.4226, 568.6219
485.9047, 569.1119
486.3868, 568.5477
486.8689, 566.8384
487.3510, 565.3046
487.8332, 565.7632
488.3153, 567.5359
488.7974, 566.7032
489.2795, 561.6595
489.7616, 557.6424
490.2437, 559.7889
490.7259, 564.5911
491.2080, 566.5306
491.6901, 563.5146
492.1722, 559.6953
492.6543, 558.2006
493.1364, 558.2928
493.6186, 557.6747
494.1007, 555.5838
494.5828, 553.4189
495.0649, 553.0038
495.5470, 554.5723
496.0291, 555.1293
496.5113, 553.2698
496.9934, 551.5970
497.4755, 552.0219
497.9576, 553.8558
498.4397, 555.4447
498.9218, 556.0242
499.4040, 555.6010
499.8861, 554.0370
500.3682, 549.8243
500.8503, 547.3193
501.3324, 547.8710
501.8145, 548.7596
502.2967, 548.1901
502.7788, 546.3972
503.2609, 544.7097
503.7430, 544.0642
504.2251, 544.2079
504.7072, 544.0541
505.1894, 543.0910
505.6715, 543.0252
506.1536, 546.3956
506.6357, 549.4373
507.1178, 548.2793
507.5999, 542.7058
508.0821, 537.4453
508.5642, 536.9287
509.0463, 539.4001
509.5284, 539.1005
510.0105, 534.9155
510.4926, 531.5480
510.9748, 532.6529
511.4569, 536.4802
511.9390, 538.8128
512.4211, 539.0011
512.9032, 538.4453
513.3853, 537.2039
513.8674, 535.8343
514.3495, 535.6129
514.8317, 536.8138
515.3138, 537.9160
515.7959, 537.1627
516.2780, 534.3287
516.7601, 533.1144
517.2422, 535.1166
517.7244, 536.6675
518.2065, 536.5750
518.6886, 535.2499
519.1707, 532.8344
519.6528, 529.5144
520.1349, 526.6682
520.6171, 526.9769
521.0992, 531.8747
521.5813, 534.0823
522.0634, 531.3178
522.5455, 527.9855
523.0276, 524.9789
523.5098, 522.6483
523.9919, 521.5380
524.4740, 522.0569
524.9561, 523.3785
525.4382, 524.4861
525.9203, 525.3752
526.4025, 525.6859
526.8846, 524.5832
527.3667, 523.8858
527.8488, 526.3449
528.3309, 531.2723
528.8130, 534.0351
529.2952, 531.6704
529.7773, 527.8010
530.2594, 525.7226
530.7415, 525.1452
531.2236, 524.1458
531.7057, 521.6492
532.1879, 518.9592
532.6700, 518.7409
533.1521, 522.7242
533.6342, 525.2817
534.1163, 525.7219
534.5984, 525.2109
535.0806, 523.7899
535.5627, 522.0413
536.0448, 521.3680
536.5269, 522.7631
537.0090, 525.3032
537.4911, 526.0157
537.9733, 523.6962
538.4554, 522.2095
538.9375, 522.8326
539.4196, 523.7011
539.9017, 523.6225
540.3839, 522.6800
540.8660, 521.7394
541.3481, 521.5120
541.8302, 521.5761
542.3123, 520.7894
542.7944, 519.0065
543.2766, 517.7318
543.7587, 517.9452
544.2408, 518.6589
544.7229, 518.4111
545.2050, 517.1159
545.6871, 515.7459
546.1693, 514.7200
546.6514, 513.7347
547.1335, 512.2425
547.6156, 510.3502
548.0977, 508.8675
548.5798, 508.3173
549.0620, 508.4814
549.5441, 508.6278
550.0262, 507.9868
550.5083, 508.4043
550.9904, 511.5861
551.4725, 514.5363
551.9547, 514.4244
552.4368, 511.7345
552.9189, 509.2133
553.4010, 508.9576
553.8831, 510.4070
554.3652, 511.5074
554.8474, 512.6229
555.3295, 512.4603
555.8116, 508.3806
556.2937, 504.5066
556.7758, 504.4659
557.2579, 508.1932
557.7401, 511.7962
558.2222, 512.8636
558.7043, 512.3975
559.1864, 512.0707
559.6685, 511.9300
560.1506, 511.6464
560.6328, 511.0922
561.1149, 510.2678
561.5970, 508.9919
562.0791, 506.8965
562.5612, 505.5775
563.0433, 505.4889
563.5255, 506.1624
564.0076, 507.9031
564.4897, 510.1859
564.9718, 511.1918
565.4539, 509.5953
565.9360, 506.4132
566.4182, 505.2241
566.9003, 507.8110
567.3824, 509.0146
567.8645, 507.5410
568.3466, 505.5524
568.8287, 504.6074
569.3109, 504.4443
569.7930, 503.5375
570.2751, 500.1155
570.7572, 496.2042
571.2393, 497.0456
571.7214, 503.1758
572.2036, 507.3786
572.6857, 506.4026
573.1678, 503.5439
573.6499, 502.9850
574.1320, 504.6537
574.6141, 505.2921
575.0963, 502.7522
575.5784, 499.8250
576.0605, 498.9778
576.5426, 499.8724
577.0247, 501.3424
577.5068, 502.9979
577.9890, 504.0281
578.4711, 502.6674
578.9532, 496.9968
579.4353, 493.8852
579.9174, 494.7808
580.3995, 496.4416
580.8817, 498.0141
581.3638, 499.0698
581.8459, 498.8449
582.3280, 496.8486
582.8101, 494.4907
583.2922, 494.6959
583.7744, 497.7901
584.2565, 498.3300
584.7386, 493.6613
585.2207, 489.0710
585.7029, 488.7484
586.1850, 491.3575
