##NAMES=Sakhaite
##RRUFFID=R060637
##IDEAL CHEMISTRY=Ca_48_Mg_16_Al(SiO_3_OH)_4_(CO_3_)_16_(BO_3_)_28_&#183;(H_2_O)_3_(HCl)_3_
##LOCALITY=Titovskoe, Sakha (Yakutia) Republic, Russia
##OWNER=RRUFF
##SOURCE=Michael Scott
##DESCRIPTION=Dark grey octahedron buried in calcite
##STATUS=The identification of this mineral has been confirmed by single-crystal X-ray diffraction.
##URL=rruff.info/R060637
118.148, 4159.909
118.630, 4322.769
119.112, 4509.652
119.594, 4696.101
120.076, 4860.765
120.559, 4982.831
121.041, 5096.561
121.523, 5233.232
122.005, 5389.132
122.487, 5526.618
122.969, 5607.694
123.451, 5654.909
123.933, 5704.266
124.415, 5775.569
124.898, 5854.779
125.380, 5926.119
125.862, 5988.959
126.344, 6045.501
126.826, 6095.166
127.308, 6139.099
127.790, 6182.143
128.272, 6223.234
128.755, 6265.367
129.237, 6316.340
129.719, 6378.683
130.201, 6447.689
130.683, 6511.728
131.165, 6570.630
131.647, 6640.188
132.129, 6738.568
132.611, 6862.411
133.094, 6983.720
133.576, 7089.180
134.058, 7187.574
134.540, 7321.863
135.022, 7498.706
135.504, 7689.534
135.986, 7870.401
136.468, 8044.119
136.951, 8189.084
137.433, 8290.925
137.915, 8346.708
138.397, 8359.507
138.879, 8403.273
139.361, 8439.528
139.843, 8468.664
140.325, 8469.383
140.807, 8469.310
141.290, 8500.597
141.772, 8524.271
142.254, 8540.745
142.736, 8528.438
143.218, 8553.292
143.700, 8563.254
144.182, 8572.604
144.664, 8602.688
145.146, 8608.392
145.629, 8718.294
146.111, 8813.606
146.593, 8870.167
147.075, 8885.474
147.557, 8909.435
148.039, 8937.947
148.521, 8977.329
149.003, 9034.367
149.486, 9129.733
149.968, 9221.531
150.450, 9304.112
150.932, 9380.166
151.414, 9439.240
151.896, 9477.404
152.378, 9500.841
152.860, 9519.954
153.342, 9524.208
153.825, 9534.615
154.307, 9561.025
154.789, 9626.390
155.271, 9674.859
155.753, 9681.262
156.235, 9661.233
156.717, 9663.943
157.199, 9727.548
157.682, 9799.378
158.164, 9847.939
158.646, 9840.041
159.128, 9833.013
159.610, 9841.872
160.092, 9865.151
160.574, 9890.651
161.056, 9911.617
161.538, 9932.761
162.020, 9958.585
162.503, 9994.913
162.985, 10032.040
163.467, 10070.040
163.949, 10109.850
164.431, 10134.400
164.913, 10121.990
165.395, 10091.280
165.878, 10070.170
166.360, 10079.300
166.842, 10097.460
167.324, 10110.660
167.806, 10117.060
168.288, 10119.880
168.770, 10121.020
169.252, 10120.490
169.734, 10117.980
170.217, 10111.560
170.699, 10104.120
171.181, 10097.720
171.663, 10090.380
172.145, 10088.360
172.627, 10102.110
173.109, 10128.400
173.591, 10151.350
174.073, 10161.340
174.556, 10160.780
175.038, 10152.920
175.520, 10133.850
176.002, 10111.490
176.484, 10095.750
176.966, 10086.240
177.448, 10077.580
177.930, 10058.750
178.413, 10036.760
178.895, 10027.880
179.377, 10053.830
179.859, 10092.810
180.341, 10105.900
180.823, 10090.750
181.305, 10067.150
181.787, 10048.010
182.269, 10035.740
182.751, 10039.680
183.234, 10085.140
183.716, 10150.740
184.198, 10175.730
184.680, 10151.240
185.162, 10102.000
185.644, 10058.520
186.126, 10020.440
186.609, 9980.405
187.091, 9918.834
187.573, 9846.604
188.055, 9822.736
188.537, 9868.968
189.019, 9943.912
189.501, 9964.104
189.983, 9928.583
190.465, 9882.118
190.947, 9860.779
191.430, 9861.209
191.912, 9848.411
192.394, 9808.706
192.876, 9756.293
193.358, 9739.424
193.840, 9762.628
194.322, 9791.497
194.804, 9793.815
195.287, 9769.464
195.769, 9744.922
196.251, 9724.881
196.733, 9710.010
197.215, 9706.621
197.697, 9718.105
198.179, 9730.651
198.661, 9726.635
199.143, 9704.670
199.626, 9682.271
200.108, 9662.878
200.590, 9646.857
201.072, 9641.325
201.554, 9647.349
202.036, 9661.406
202.518, 9651.871
203.000, 9645.008
203.482, 9637.497
203.965, 9629.370
204.447, 9618.792
204.929, 9611.381
205.411, 9602.700
205.893, 9593.969
206.375, 9587.003
206.857, 9576.780
207.339, 9569.787
207.822, 9561.505
208.304, 9553.813
208.786, 9544.844
209.268, 9536.270
209.750, 9528.971
210.232, 9520.967
210.714, 9511.851
211.196, 9502.856
211.678, 9483.929
212.161, 9476.464
212.643, 9460.038
213.125, 9467.188
213.607, 9468.616
214.089, 9464.630
214.571, 9439.008
215.053, 9441.323
215.536, 9432.440
216.018, 9423.102
216.500, 9429.348
216.982, 9406.873
217.464, 9412.873
217.946, 9407.506
218.428, 9407.340
218.910, 9395.910
219.392, 9387.664
219.874, 9383.200
220.357, 9377.659
220.839, 9368.044
221.321, 9354.409
221.803, 9332.720
222.285, 9302.193
222.767, 9265.301
223.249, 9221.864
223.731, 9159.736
224.214, 9116.950
224.696, 9107.307
225.178, 9134.925
225.660, 9149.943
226.142, 9147.030
226.624, 9136.073
227.106, 9130.471
227.588, 9137.133
228.070, 9135.559
228.553, 9116.930
229.035, 9075.729
229.517, 9047.046
229.999, 9038.607
230.481, 9036.972
230.963, 9019.473
231.445, 8971.063
231.927, 8931.648
232.410, 8917.774
232.892, 8941.600
233.374, 8946.694
233.856, 8924.247
234.338, 8887.869
234.820, 8862.137
235.302, 8851.857
235.784, 8845.493
236.266, 8839.886
236.749, 8837.240
237.231, 8829.807
237.713, 8817.517
238.195, 8800.610
238.677, 8777.298
239.159, 8735.561
239.641, 8705.253
240.123, 8702.830
240.605, 8754.162
241.088, 8777.412
241.570, 8761.477
242.052, 8719.317
242.534, 8687.461
243.016, 8663.432
243.498, 8652.824
243.980, 8661.253
244.462, 8704.364
244.945, 8732.065
245.427, 8737.982
245.909, 8726.966
246.391, 8716.220
246.873, 8703.835
247.355, 8693.707
247.837, 8688.812
248.319, 8693.722
248.801, 8693.477
249.284, 8685.522
249.766, 8671.814
250.248, 8661.269
250.730, 8656.868
251.212, 8652.344
251.694, 8642.718
252.176, 8621.616
252.658, 8612.273
253.141, 8624.702
253.623, 8652.703
254.105, 8657.130
254.587, 8622.705
255.069, 8587.126
255.551, 8577.233
256.033, 8603.393
256.515, 8630.985
256.997, 8659.211
257.480, 8686.134
257.962, 8701.325
258.444, 8699.063
258.926, 8692.694
259.408, 8691.207
259.890, 8694.652
260.372, 8702.057
260.854, 8713.321
261.336, 8728.100
261.819, 8747.625
262.301, 8775.169
262.783, 8801.553
263.265, 8817.261
263.747, 8816.761
264.229, 8822.052
264.711, 8836.822
265.194, 8860.484
265.676, 8889.926
266.158, 8929.613
266.640, 8967.132
267.122, 8988.133
267.604, 8985.297
268.086, 8993.185
268.568, 9019.572
269.050, 9063.148
269.533, 9102.798
270.015, 9130.530
270.497, 9172.680
270.979, 9201.279
271.461, 9238.688
271.943, 9273.957
272.425, 9307.199
272.907, 9332.353
273.389, 9367.953
273.872, 9399.374
274.354, 9430.615
274.836, 9467.685
275.318, 9494.017
275.800, 9530.422
276.282, 9573.176
276.764, 9665.070
277.246, 9742.773
277.728, 9806.034
278.211, 9855.275
278.693, 9889.786
279.175, 9909.012
279.657, 9917.097
280.139, 9910.905
280.621, 9894.220
281.103, 9887.119
281.585, 9891.443
282.068, 9897.431
282.550, 9898.494
283.032, 9894.686
283.514, 9880.743
283.996, 9854.918
284.478, 9818.347
284.960, 9768.205
285.442, 9700.532
285.924, 9643.051
286.407, 9634.916
286.889, 9671.328
287.371, 9679.767
287.853, 9628.464
288.335, 9543.639
288.817, 9506.280
289.299, 9519.510
289.781, 9547.716
290.263, 9564.591
290.746, 9570.584
291.228, 9567.695
291.710, 9551.626
292.192, 9529.870
292.674, 9524.622
293.156, 9536.162
293.638, 9544.490
294.121, 9520.520
294.603, 9476.309
295.085, 9457.320
295.567, 9489.053
296.049, 9539.576
296.531, 9547.676
297.013, 9515.145
297.495, 9479.151
297.977, 9471.780
298.460, 9484.042
298.942, 9492.218
299.424, 9483.807
299.906, 9476.108
300.388, 9499.682
300.870, 9551.334
301.352, 9601.091
301.834, 9625.247
302.316, 9631.807
302.798, 9633.623
303.281, 9627.692
303.763, 9625.427
304.245, 9634.011
304.727, 9649.161
305.209, 9662.718
305.691, 9674.766
306.173, 9682.976
306.655, 9692.026
307.138, 9703.195
307.620, 9713.849
308.102, 9724.017
308.584, 9732.239
309.066, 9742.973
309.548, 9752.702
310.030, 9762.389
310.512, 9773.476
310.995, 9781.981
311.477, 9793.046
311.959, 9803.090
312.441, 9813.602
312.923, 9823.101
313.405, 9832.911
313.887, 9843.735
314.369, 9852.872
314.851, 9865.894
315.334, 9878.760
315.816, 9891.590
316.298, 9902.055
316.780, 9904.780
317.262, 9887.248
317.744, 9868.906
318.226, 9862.668
318.708, 9876.847
319.190, 9887.423
319.673, 9880.392
320.155, 9865.271
320.637, 9859.543
321.119, 9880.930
321.601, 9902.060
322.083, 9908.808
322.565, 9892.653
323.047, 9882.707
323.530, 9890.069
324.012, 9905.228
324.494, 9913.843
324.976, 9901.077
325.458, 9892.866
325.940, 9901.326
326.422, 9936.888
326.904, 9954.833
327.387, 9944.672
327.869, 9918.096
328.351, 9890.113
328.833, 9851.801
329.315, 9821.776
329.797, 9807.488
330.279, 9812.955
330.761, 9809.499
331.243, 9791.479
331.725, 9768.588
332.208, 9750.250
332.690, 9733.501
333.172, 9727.156
333.654, 9740.926
334.136, 9775.735
334.618, 9779.213
335.100, 9738.184
335.582, 9682.345
336.065, 9637.064
336.547, 9604.164
337.029, 9577.380
337.511, 9554.162
337.993, 9535.729
338.475, 9532.967
338.957, 9553.139
339.439, 9571.250
339.922, 9565.319
340.404, 9532.339
340.886, 9497.029
341.368, 9464.388
341.850, 9431.388
342.332, 9381.825
342.814, 9309.560
343.296, 9255.377
343.778, 9265.853
344.261, 9336.091
344.743, 9365.228
345.225, 9333.552
345.707, 9266.902
346.189, 9205.916
346.671, 9151.028
347.153, 9116.854
347.635, 9123.337
348.117, 9159.044
348.600, 9184.846
349.082, 9195.612
349.564, 9197.722
350.046, 9200.021
350.528, 9201.127
351.010, 9195.683
351.492, 9174.302
351.974, 9145.944
352.457, 9124.898
352.939, 9111.865
353.421, 9107.627
353.903, 9119.206
354.385, 9140.473
354.867, 9158.083
355.349, 9165.895
355.831, 9167.886
356.314, 9167.102
356.796, 9163.875
357.278, 9159.584
357.760, 9159.199
358.242, 9157.451
358.724, 9147.437
359.206, 9113.078
359.688, 9081.011
360.170, 9068.513
360.652, 9074.225
361.135, 9079.945
361.617, 9075.683
362.099, 9068.755
362.581, 9065.138
363.063, 9062.348
363.545, 9066.887
364.027, 9084.879
364.509, 9113.255
364.991, 9137.860
365.474, 9155.313
365.956, 9168.346
366.438, 9178.323
366.920, 9182.122
367.402, 9188.064
367.884, 9194.669
368.366, 9203.866
368.849, 9221.319
369.331, 9259.423
369.813, 9293.961
370.295, 9315.745
370.777, 9320.004
371.259, 9323.525
371.741, 9325.211
372.223, 9326.477
372.705, 9329.182
373.188, 9331.392
373.670, 9337.923
374.152, 9350.011
374.634, 9367.760
375.116, 9391.292
375.598, 9426.627
376.080, 9458.709
376.562, 9465.304
377.044, 9438.707
377.527, 9424.195
378.009, 9435.051
378.491, 9467.528
378.973, 9503.419
379.455, 9544.491
379.937, 9582.547
380.419, 9611.574
380.901, 9631.717
381.384, 9643.259
381.866, 9640.619
382.348, 9636.134
382.830, 9665.044
383.312, 9724.824
383.794, 9773.810
384.276, 9766.497
384.758, 9726.131
385.240, 9713.998
385.723, 9743.886
386.205, 9786.859
386.687, 9807.147
387.169, 9811.620
387.651, 9822.105
388.133, 9818.994
388.615, 9820.680
389.097, 9821.202
389.579, 9820.622
390.062, 9815.640
390.544, 9816.265
391.026, 9803.857
391.508, 9795.077
391.990, 9785.418
392.472, 9774.926
392.954, 9761.102
393.436, 9751.579
393.918, 9740.333
394.401, 9729.014
394.883, 9720.097
395.365, 9708.357
395.847, 9721.156
396.329, 9733.737
396.811, 9736.086
397.293, 9729.826
397.776, 9724.742
398.258, 9726.463
398.740, 9725.956
399.222, 9718.362
399.704, 9695.462
400.186, 9678.214
400.668, 9676.678
401.150, 9678.800
401.632, 9656.150
402.115, 9585.170
402.597, 9526.009
403.079, 9504.139
403.561, 9529.628
404.043, 9532.571
404.525, 9502.527
405.007, 9463.188
405.489, 9447.919
405.971, 9463.010
406.454, 9470.841
406.936, 9457.632
407.418, 9428.411
407.900, 9414.764
408.382, 9418.694
408.864, 9427.829
409.346, 9437.290
409.828, 9445.410
410.310, 9432.918
410.793, 9386.250
411.275, 9331.882
411.757, 9328.301
412.239, 9369.329
412.721, 9401.623
413.203, 9373.055
413.685, 9316.224
414.167, 9293.000
414.650, 9316.557
415.132, 9347.523
415.614, 9343.826
416.096, 9319.700
416.578, 9305.727
417.060, 9332.191
417.542, 9363.266
418.024, 9369.648
418.507, 9349.464
418.989, 9326.834
419.471, 9316.478
419.953, 9309.096
420.435, 9295.719
420.917, 9251.477
421.399, 9223.787
421.881, 9238.893
422.363, 9288.358
422.845, 9325.877
423.328, 9333.818
423.810, 9334.805
424.292, 9340.862
424.774, 9363.724
425.256, 9374.450
425.738, 9366.621
426.220, 9347.956
426.703, 9332.659
427.185, 9318.242
427.667, 9310.921
428.149, 9315.158
428.631, 9333.017
429.113, 9343.317
429.595, 9346.535
430.077, 9340.827
430.559, 9315.245
431.042, 9262.296
431.524, 9231.209
432.006, 9205.602
432.488, 9178.658
432.970, 9150.463
433.452, 9117.237
433.934, 9090.506
434.416, 9061.773
434.898, 9062.336
435.381, 9050.678
435.863, 9014.864
436.345, 8971.749
436.827, 8945.049
437.309, 8931.067
437.791, 8915.916
438.273, 8879.652
438.755, 8844.075
439.237, 8844.659
439.720, 8885.172
440.202, 8917.650
440.684, 8897.174
441.166, 8851.281
441.648, 8816.065
442.130, 8807.389
442.612, 8808.478
443.094, 8818.427
443.577, 8834.180
444.059, 8839.876
444.541, 8813.731
445.023, 8787.646
445.505, 8783.668
445.987, 8834.924
446.469, 8855.770
446.951, 8819.376
447.434, 8750.164
447.916, 8693.601
448.398, 8647.631
448.880, 8617.910
449.362, 8608.651
449.844, 8621.960
450.326, 8639.063
450.808, 8667.855
451.290, 8689.510
451.772, 8683.092
452.255, 8643.359
452.737, 8598.717
453.219, 8548.422
453.701, 8499.875
454.183, 8482.385
454.665, 8498.299
455.147, 8513.650
455.629, 8501.059
456.112, 8467.812
456.594, 8449.393
457.076, 8451.634
457.558, 8456.059
458.040, 8434.268
458.522, 8395.507
459.004, 8365.841
459.486, 8366.716
459.969, 8377.254
460.451, 8375.115
460.933, 8360.736
461.415, 8342.816
461.897, 8321.094
462.379, 8301.113
462.861, 8289.591
463.343, 8297.158
463.825, 8299.889
464.308, 8281.228
464.790, 8250.213
465.272, 8229.557
465.754, 8230.397
466.236, 8237.780
466.718, 8248.731
467.200, 8267.451
467.682, 8273.242
468.164, 8256.408
468.647, 8232.181
469.129, 8214.611
469.611, 8202.461
470.093, 8200.318
470.575, 8213.288
471.057, 8237.115
471.539, 8248.743
472.021, 8244.859
472.504, 8237.486
472.986, 8237.689
473.468, 8245.614
473.950, 8235.596
474.432, 8202.998
474.914, 8160.831
475.396, 8121.557
475.878, 8087.101
476.361, 8069.758
476.843, 8088.763
477.325, 8122.763
477.807, 8132.334
478.289, 8118.796
478.771, 8102.833
479.253, 8103.700
479.735, 8110.177
480.217, 8106.771
480.699, 8084.438
481.182, 8061.130
481.664, 8045.127
482.146, 8035.764
482.628, 8031.355
483.110, 8030.979
483.592, 8035.040
484.074, 8046.420
484.556, 8067.834
485.039, 8080.070
485.521, 8059.782
486.003, 8052.951
486.485, 8048.262
486.967, 8043.054
487.449, 8037.353
487.931, 8029.685
488.413, 8024.556
488.896, 8018.410
489.378, 8012.222
489.860, 8007.452
490.342, 8000.070
490.824, 7995.277
491.306, 7989.449
491.788, 7984.096
492.270, 7977.718
492.752, 7971.657
493.234, 7966.620
493.717, 7961.016
494.199, 7954.520
494.681, 7949.196
495.163, 7941.779
495.645, 7936.199
496.127, 7930.492
496.609, 7935.639
497.091, 7932.260
497.574, 7935.830
498.056, 7950.337
498.538, 7965.843
499.020, 7983.845
499.502, 7997.566
499.984, 7996.893
500.466, 7959.449
500.948, 7925.741
501.431, 7912.658
501.913, 7919.972
502.395, 7924.438
502.877, 7910.257
503.359, 7902.103
503.841, 7914.300
504.323, 7967.531
504.805, 8002.881
505.287, 8012.882
505.770, 8008.797
506.252, 8012.621
506.734, 8030.504
507.216, 8033.905
507.698, 8004.746
508.180, 7951.354
508.662, 7935.800
509.144, 7962.268
509.626, 7995.240
510.109, 8002.668
510.591, 7990.756
511.073, 7981.756
511.555, 7978.147
512.037, 7981.999
512.519, 8001.150
513.001, 8030.361
513.484, 8055.621
513.966, 8072.146
514.448, 8080.422
514.930, 8075.250
515.412, 8057.191
515.894, 8047.027
516.376, 8060.163
516.858, 8081.608
517.340, 8099.816
517.822, 8111.302
518.305, 8121.055
518.787, 8129.429
519.269, 8136.507
519.751, 8143.047
520.233, 8154.982
520.715, 8157.820
521.197, 8143.300
521.679, 8110.648
522.161, 8094.330
522.644, 8098.433
523.126, 8110.749
523.608, 8123.864
524.090, 8138.095
524.572, 8143.895
525.054, 8136.576
525.536, 8126.979
526.018, 8124.981
526.500, 8126.820
526.983, 8127.728
527.465, 8127.754
527.947, 8125.539
528.429, 8134.153
528.911, 8141.523
529.393, 8142.371
529.875, 8145.740
530.357, 8148.497
530.840, 8150.674
531.322, 8150.539
531.804, 8153.390
532.286, 8155.045
532.768, 8156.651
533.250, 8159.922
533.732, 8160.124
534.214, 8163.369
534.696, 8165.398
535.179, 8167.985
535.661, 8169.368
536.143, 8171.090
536.625, 8204.390
537.107, 8223.622
537.589, 8226.511
538.071, 8225.375
538.554, 8219.153
539.036, 8211.948
539.518, 8213.501
540.000, 8223.515
540.482, 8227.199
540.964, 8212.596
541.446, 8190.523
541.928, 8184.495
542.410, 8193.887
542.893, 8209.711
543.375, 8228.841
543.857, 8249.245
544.339, 8269.843
544.821, 8293.120
545.303, 8307.785
545.785, 8295.378
546.267, 8273.300
546.750, 8267.324
547.232, 8304.929
547.714, 8339.559
548.196, 8356.805
548.678, 8357.616
549.160, 8356.382
549.642, 8356.347
550.124, 8351.399
550.606, 8335.914
551.089, 8301.909
551.571, 8286.526
552.053, 8294.619
552.535, 8313.792
553.017, 8331.657
553.499, 8348.477
553.981, 8354.592
554.463, 8343.558
554.945, 8324.364
555.428, 8315.359
555.910, 8316.047
556.392, 8322.619
556.874, 8337.891
557.356, 8355.520
557.838, 8369.271
558.320, 8379.112
558.802, 8379.380
559.284, 8345.742
559.767, 8309.617
560.249, 8304.153
560.731, 8372.922
561.213, 8431.644
561.695, 8453.483
562.177, 8449.991
562.659, 8452.911
563.141, 8472.598
563.623, 8488.295
564.106, 8489.910
564.588, 8475.855
565.070, 8480.861
565.552, 8509.921
566.034, 8547.425
566.516, 8584.189
566.998, 8620.442
567.481, 8646.779
567.963, 8660.087
568.445, 8668.732
568.927, 8683.245
569.409, 8703.524
569.891, 8715.452
570.373, 8733.603
570.855, 8750.240
571.337, 8765.449
571.820, 8774.943
572.302, 8791.815
572.784, 8805.735
573.266, 8819.530
573.748, 8837.440
574.230, 8847.767
574.712, 8865.613
575.194, 8880.456
575.677, 8894.608
576.159, 8925.532
576.641, 8938.782
577.123, 8954.965
577.605, 8977.705
578.087, 9004.832
578.569, 9031.618
579.051, 9060.999
579.533, 9079.276
580.016, 9074.674
580.498, 9051.319
580.980, 9039.169
581.462, 9038.091
581.944, 9049.213
582.426, 9090.415
582.908, 9143.019
583.390, 9159.086
583.872, 9114.986
584.355, 9071.427
584.837, 9086.227
585.319, 9135.601
585.801, 9177.336
586.283, 9198.719
586.765, 9204.995
587.247, 9182.880
587.729, 9137.779
588.211, 9126.050
588.694, 9187.811
589.176, 9254.789
589.658, 9298.584
590.140, 9313.409
590.622, 9327.012
591.104, 9342.179
591.586, 9351.924
592.068, 9344.765
592.550, 9319.934
593.033, 9301.519
593.515, 9294.377
593.997, 9295.876
594.479, 9285.062
594.961, 9298.803
595.443, 9306.583
595.925, 9308.723
596.407, 9288.330
596.890, 9297.034
597.372, 9294.077
597.854, 9290.643
598.336, 9303.440
598.818, 9286.326
599.300, 9298.866
599.782, 9299.569
600.264, 9297.528
600.747, 9295.897
601.229, 9271.542
601.711, 9259.818
602.193, 9259.154
602.675, 9275.746
603.157, 9316.829
603.639, 9373.682
604.121, 9417.679
604.604, 9449.354
605.086, 9466.269
605.568, 9452.870
606.050, 9422.697
606.532, 9432.906
607.014, 9436.906
607.496, 9446.508
607.978, 9454.747
608.460, 9461.702
608.943, 9463.519
609.425, 9471.970
609.907, 9477.761
610.389, 9483.446
610.871, 9492.830
611.353, 9495.394
611.835, 9504.721
612.317, 9511.348
612.799, 9519.575
613.282, 9532.226
613.764, 9543.800
614.246, 9554.359
614.728, 9560.865
615.210, 9572.606
615.692, 9582.248
616.174, 9591.808
616.656, 9603.129
617.138, 9616.777
617.621, 9636.883
618.103, 9655.420
618.585, 9672.473
619.067, 9683.607
619.549, 9702.386
620.031, 9718.101
620.513, 9733.689
620.995, 9753.547
621.477, 9765.537
621.960, 9785.331
622.442, 9802.006
622.924, 9820.107
623.406, 9835.124
623.888, 9851.094
624.370, 9870.146
624.852, 9884.065
625.334, 9882.156
625.817, 9890.069
626.299, 9910.376
626.781, 9935.511
627.263, 9962.881
627.745, 9992.554
628.227, 10007.230
628.709, 10001.400
629.191, 9993.646
629.674, 10015.060
630.156, 10054.930
630.638, 10082.470
631.120, 10075.750
631.602, 10065.630
632.084, 10085.270
632.566, 10124.020
633.048, 10150.500
633.531, 10134.370
634.013, 10118.700
634.495, 10122.060
634.977, 10146.640
635.459, 10179.360
635.941, 10229.300
636.423, 10275.750
636.905, 10303.380
637.387, 10303.980
637.870, 10322.620
638.352, 10366.080
638.834, 10412.300
639.316, 10424.240
639.798, 10408.780
640.280, 10414.710
