##NAMES=Salammoniac
##RRUFFID=R061022
##IDEAL CHEMISTRY=N^3-^H_4_Cl
##LOCALITY=Schoeller mine, Kladno, Bohemia, Czech Republic
##OWNER=RRUFF
##SOURCE=Michael Scott
##DESCRIPTION=A crust of colorless tabular crystals
##STATUS=The identification of this mineral has been confirmed by X-ray diffraction and chemical analysis
##URL=rruff.info/R061022
##MEASURED CHEMISTRY=NH_4_Cl_1.00_ ; N, H not measured but estimated by stoichiometry
118.8382, 2166.206
119.3203, 2169.236
119.8024, 2177.511
120.2845, 2190.534
120.7667, 2206.516
121.2488, 2224.627
121.7309, 2245.094
122.2130, 2267.126
122.6951, 2291.511
123.1772, 2316.827
123.6594, 2341.110
124.1415, 2364.030
124.6236, 2388.577
125.1057, 2417.272
125.5878, 2449.388
126.0699, 2484.458
126.5521, 2523.579
127.0342, 2565.703
127.5163, 2608.618
127.9984, 2652.254
128.4805, 2696.628
128.9626, 2741.824
129.4448, 2787.823
129.9269, 2834.184
130.4090, 2881.206
130.8911, 2928.935
131.3732, 2975.653
131.8553, 3020.836
132.3375, 3065.459
132.8196, 3110.648
133.3017, 3155.867
133.7838, 3199.109
134.2659, 3237.888
134.7480, 3270.920
135.2302, 3302.004
135.7123, 3332.265
136.1944, 3360.067
136.6765, 3384.427
137.1586, 3405.079
137.6407, 3422.041
138.1229, 3435.530
138.6050, 3445.223
139.0871, 3451.143
139.5692, 3453.254
140.0513, 3451.562
140.5334, 3445.613
141.0156, 3434.793
141.4977, 3420.678
141.9798, 3406.630
142.4619, 3393.380
142.9440, 3378.459
143.4261, 3360.078
143.9083, 3338.915
144.3904, 3317.625
144.8725, 3297.814
145.3546, 3277.822
145.8367, 3255.317
146.3188, 3229.489
146.8010, 3202.759
147.2831, 3177.109
147.7652, 3152.604
148.2473, 3128.631
148.7294, 3105.196
149.2115, 3082.083
149.6937, 3058.965
150.1758, 3035.532
150.6579, 3012.628
151.1400, 2991.575
151.6221, 2972.873
152.1042, 2955.496
152.5864, 2938.800
153.0685, 2923.189
153.5506, 2909.353
154.0327, 2897.629
154.5148, 2887.697
154.9969, 2877.929
155.4791, 2868.001
155.9612, 2858.708
156.4433, 2849.734
156.9254, 2841.521
157.4075, 2834.708
157.8896, 2829.679
158.3718, 2826.426
158.8539, 2825.137
159.3360, 2826.306
159.8181, 2828.570
160.3002, 2831.966
160.7823, 2836.186
161.2645, 2840.614
161.7466, 2844.815
162.2287, 2848.771
162.7108, 2852.574
163.1929, 2856.680
163.6750, 2860.316
164.1572, 2863.284
164.6393, 2865.503
165.1214, 2866.515
165.6035, 2866.002
166.0856, 2863.807
166.5677, 2859.638
167.0499, 2853.257
167.5320, 2844.954
168.0141, 2835.557
168.4962, 2825.476
168.9783, 2812.559
169.4604, 2794.366
169.9426, 2772.054
170.4247, 2747.108
170.9068, 2719.984
171.3889, 2690.586
171.8710, 2658.273
172.3531, 2622.109
172.8353, 2584.293
173.3174, 2546.367
173.7995, 2507.956
174.2816, 2468.839
174.7637, 2427.890
175.2458, 2385.241
175.7280, 2344.685
176.2101, 2306.638
176.6922, 2270.436
177.1743, 2235.810
177.6564, 2202.837
178.1385, 2171.323
178.6207, 2141.478
179.1028, 2113.590
179.5849, 2085.856
180.0670, 2057.263
180.5491, 2029.839
181.0313, 2004.389
181.5134, 1980.853
181.9955, 1959.019
182.4776, 1938.552
182.9597, 1919.715
183.4418, 1901.690
183.9240, 1883.963
184.4061, 1867.228
184.8882, 1852.430
185.3703, 1839.402
185.8524, 1826.695
186.3345, 1812.479
186.8167, 1795.798
187.2988, 1780.511
187.7809, 1766.539
188.2630, 1753.776
188.7451, 1742.496
189.2272, 1732.656
189.7094, 1723.499
190.1915, 1714.135
190.6736, 1704.606
191.1557, 1694.461
191.6378, 1683.229
192.1199, 1671.472
192.6021, 1659.722
193.0842, 1648.087
193.5663, 1636.678
194.0484, 1626.160
194.5305, 1616.458
195.0126, 1606.242
195.4948, 1595.218
195.9769, 1583.408
196.4590, 1570.539
196.9411, 1556.155
197.4232, 1541.541
197.9053, 1528.210
198.3875, 1515.992
198.8696, 1503.708
199.3517, 1490.528
199.8338, 1476.767
200.3159, 1463.695
200.7980, 1452.217
201.2802, 1440.550
201.7623, 1427.250
202.2444, 1412.587
202.7265, 1397.758
203.2086, 1383.710
203.6907, 1370.480
204.1729, 1357.309
204.6550, 1344.838
205.1371, 1331.831
205.6192, 1317.090
206.1013, 1300.999
206.5834, 1285.293
207.0656, 1272.184
207.5477, 1262.278
208.0298, 1250.776
208.5119, 1235.542
208.9940, 1220.355
209.4761, 1206.742
209.9583, 1194.667
210.4404, 1183.115
210.9225, 1170.835
211.4046, 1157.387
211.8867, 1145.130
212.3689, 1134.923
212.8510, 1125.020
213.3331, 1114.675
213.8152, 1103.830
214.2973, 1092.868
214.7794, 1082.248
215.2616, 1071.939
215.7437, 1062.064
216.2258, 1052.568
216.7079, 1043.497
217.1900, 1034.937
217.6721, 1026.873
218.1543, 1019.047
218.6364, 1011.264
219.1185, 1003.621
219.6006, 995.6218
220.0827, 986.7472
220.5648, 977.9578
221.0470, 969.9265
221.5291, 962.7474
222.0112, 956.0544
222.4933, 949.5566
222.9754, 943.3525
223.4575, 936.8340
223.9397, 929.7849
224.4218, 922.6284
224.9039, 915.5956
225.3860, 908.7635
225.8681, 902.2482
226.3502, 896.3018
226.8324, 890.9526
227.3145, 885.3384
227.7966, 878.8737
228.2787, 872.4180
228.7608, 866.8801
229.2429, 862.3777
229.7251, 858.0983
230.2072, 853.3007
230.6893, 848.0754
231.1714, 842.9431
231.6535, 838.4540
232.1356, 833.8631
232.6178, 827.8815
233.0999, 820.1680
233.5820, 812.8072
234.0641, 807.9285
234.5462, 804.6721
235.0283, 801.1895
235.5105, 796.8438
235.9926, 792.0892
236.4747, 787.5603
236.9568, 783.3304
237.4389, 779.1500
237.9210, 774.8334
238.4032, 770.4963
238.8853, 766.3272
239.3674, 762.4015
239.8495, 758.7004
240.3316, 755.2264
240.8137, 752.1292
241.2959, 748.8619
241.7780, 744.9841
242.2601, 740.8241
242.7422, 736.6868
243.2243, 732.6139
243.7064, 728.7423
244.1886, 725.3697
244.6707, 722.6945
245.1528, 720.0499
245.6349, 717.3076
246.1170, 714.4330
246.5991, 711.2885
247.0813, 707.7569
247.5634, 704.1424
248.0455, 701.1448
248.5276, 699.3022
249.0097, 696.8646
249.4918, 693.0648
249.9740, 688.7308
250.4561, 684.3957
250.9382, 680.2410
251.4203, 676.4705
251.9024, 673.5098
252.3845, 671.6145
252.8667, 670.0181
253.3488, 668.9969
253.8309, 667.9385
254.3130, 666.2087
254.7951, 663.6410
255.2772, 660.7590
255.7594, 658.5497
256.2415, 657.4401
256.7236, 656.1125
257.2057, 654.2348
257.6878, 652.2916
258.1699, 650.7585
258.6520, 649.7050
259.1342, 648.6865
259.6163, 646.8929
260.0984, 643.4111
260.5805, 641.1159
261.0626, 640.7457
261.5447, 640.8058
262.0269, 640.4033
262.5090, 639.3450
262.9911, 637.9008
263.4732, 636.4288
263.9553, 634.9833
264.4374, 633.3259
264.9196, 630.9146
265.4017, 628.7482
265.8838, 627.8418
266.3659, 628.0198
266.8480, 627.9702
267.3301, 626.0861
267.8123, 621.5744
268.2944, 618.6424
268.7765, 617.9323
269.2586, 617.8861
269.7407, 618.1815
270.2228, 618.5111
270.7050, 618.2201
271.1871, 616.5972
271.6692, 613.4218
272.1513, 611.0009
272.6334, 609.2921
273.1155, 608.1689
273.5977, 607.9240
274.0798, 608.2797
274.5619, 608.4822
275.0440, 607.9379
275.5261, 606.6605
276.0082, 605.6360
276.4904, 605.2130
276.9725, 604.6287
277.4546, 603.3058
277.9367, 601.5814
278.4188, 600.3682
278.9009, 600.3492
279.3831, 601.2183
279.8652, 600.9384
280.3473, 598.4001
280.8294, 596.2200
281.3115, 595.3363
281.7936, 595.2990
282.2758, 595.2732
282.7579, 594.8718
283.2400, 594.1937
283.7221, 593.5262
284.2042, 592.9744
284.6863, 592.2868
285.1685, 591.2541
285.6506, 590.0922
286.1327, 589.1469
286.6148, 588.5557
287.0969, 588.1628
287.5790, 587.6552
288.0612, 586.9086
288.5433, 586.3562
289.0254, 586.3932
289.5075, 586.5354
289.9896, 586.0880
290.4717, 584.8485
290.9539, 583.3329
291.4360, 582.2087
291.9181, 581.5309
292.4002, 581.0176
292.8823, 580.8168
293.3644, 580.6738
293.8466, 580.2829
294.3287, 579.5963
294.8108, 578.8849
295.2929, 578.3984
295.7750, 578.1600
296.2571, 578.0297
296.7393, 578.0336
297.2214, 578.1182
297.7035, 578.3889
298.1856, 578.8014
298.6677, 578.8900
299.1498, 578.1345
299.6320, 576.6572
300.1141, 575.8832
300.5962, 576.5208
301.0783, 577.2141
301.5604, 577.1436
302.0425, 576.4003
302.5247, 575.4660
303.0068, 574.6034
303.4889, 573.7562
303.9710, 572.6956
304.4531, 570.9713
304.9352, 569.6594
305.4174, 569.5205
305.8995, 570.1957
306.3816, 570.7933
306.8637, 571.0258
307.3458, 570.8640
307.8279, 570.1307
308.3101, 568.6456
308.7922, 567.2803
309.2743, 566.3570
309.7564, 565.7198
310.2385, 565.1108
310.7206, 564.4509
311.2028, 563.8040
311.6849, 563.3034
312.1670, 562.9752
312.6491, 562.4824
313.1312, 561.6263
313.6133, 560.6233
314.0955, 559.6611
314.5776, 558.7619
315.0597, 558.1091
315.5418, 558.0813
316.0239, 558.6419
316.5060, 558.6016
316.9882, 557.4216
317.4703, 555.9196
317.9524, 554.6682
318.4345, 553.7106
318.9166, 553.0386
319.3987, 552.7462
319.8809, 552.7565
320.3630, 552.5638
320.8451, 551.9709
321.3272, 551.3723
321.8093, 551.1676
322.2914, 551.1896
322.7736, 550.7527
323.2557, 549.3658
323.7378, 547.4932
324.2199, 546.3900
324.7020, 546.3943
325.1841, 546.3721
325.6663, 545.9091
326.1484, 545.1522
326.6305, 544.3583
327.1126, 543.5910
327.5947, 542.8710
328.0768, 542.2177
328.5590, 541.6109
329.0411, 541.1404
329.5232, 541.1183
330.0053, 541.1053
330.4874, 540.4117
330.9695, 538.9106
331.4517, 537.4028
331.9338, 536.7815
332.4159, 537.1533
332.8980, 537.2336
333.3801, 536.6207
333.8622, 535.9777
334.3444, 535.9989
334.8265, 536.5876
335.3086, 536.8490
335.7907, 536.0413
336.2729, 534.3384
336.7550, 533.2056
337.2371, 533.1837
337.7192, 533.0919
338.2013, 532.3104
338.6834, 531.0735
339.1656, 529.9231
339.6477, 529.1049
340.1298, 528.5573
340.6119, 528.1835
341.0940, 528.3352
341.5761, 528.0250
342.0583, 526.7533
342.5404, 525.0362
343.0225, 523.4988
343.5046, 522.3190
343.9867, 521.3907
344.4688, 520.5913
344.9510, 520.0035
345.4331, 519.3263
345.9152, 518.8144
346.3973, 518.0379
346.8794, 516.3061
347.3615, 513.7531
347.8437, 511.5592
348.3258, 510.8344
348.8079, 511.6820
349.2900, 511.9512
349.7721, 511.5203
350.2542, 510.7510
350.7364, 509.5889
351.2185, 508.1999
351.7006, 506.9175
352.1827, 505.9399
352.6648, 505.1933
353.1469, 504.3771
353.6291, 503.1257
354.1112, 502.2528
354.5933, 502.3637
355.0754, 502.6944
355.5575, 502.1701
356.0396, 500.4778
356.5218, 498.4475
357.0039, 497.5500
357.4860, 498.7899
357.9681, 499.0113
358.4502, 497.4101
358.9323, 495.5053
359.4145, 494.4304
359.8966, 494.1752
360.3787, 493.8744
360.8608, 492.6548
361.3429, 490.4073
361.8250, 488.5395
362.3072, 487.0993
362.7893, 485.9629
363.2714, 485.2510
363.7535, 484.8094
364.2356, 484.3937
364.7177, 483.8633
365.1999, 483.2393
365.6820, 482.6315
366.1641, 482.4409
366.6462, 481.6615
367.1283, 479.6105
367.6104, 477.2661
368.0926, 475.6938
368.5747, 475.1624
369.0568, 474.9201
369.5389, 473.6933
370.0210, 470.8272
370.5031, 468.8112
370.9853, 468.4635
371.4674, 468.2703
371.9495, 467.4303
372.4316, 465.9971
372.9137, 464.5338
373.3958, 463.5233
373.8780, 462.9426
374.3601, 462.2672
374.8422, 461.6223
375.3243, 460.6869
375.8064, 459.1561
376.2885, 457.3517
376.7707, 455.7302
377.2528, 454.4997
377.7349, 453.5482
378.2170, 452.6953
378.6991, 452.0513
379.1812, 451.1810
379.6634, 449.7039
380.1455, 448.1379
380.6276, 446.8888
381.1097, 446.0272
381.5918, 445.2687
382.0739, 444.3526
382.5561, 443.2881
383.0382, 442.2030
383.5203, 441.1458
384.0024, 440.0197
384.4845, 438.5797
384.9666, 436.9961
385.4488, 435.7932
385.9309, 435.5725
386.4130, 435.8098
386.8951, 435.2386
387.3772, 433.6415
387.8593, 432.0701
388.3415, 431.0985
388.8236, 430.4759
389.3057, 429.9609
389.7878, 429.6093
390.2699, 429.1223
390.7520, 428.0319
391.2342, 426.4514
391.7163, 425.3743
392.1984, 425.3851
392.6805, 425.6005
393.1626, 424.8000
393.6447, 422.9891
394.1269, 421.3314
394.6090, 420.2711
395.0911, 419.6394
395.5732, 419.2610
396.0553, 419.1429
396.5374, 418.9951
397.0196, 418.6082
397.5017, 417.9795
397.9838, 417.2041
398.4659, 416.2045
398.9480, 415.1337
399.4301, 413.9684
399.9123, 412.7861
400.3944, 411.8555
400.8765, 411.3289
401.3586, 411.0654
401.8407, 410.7261
402.3228, 410.2275
402.8050, 409.8428
403.2871, 409.7938
403.7692, 409.7952
404.2513, 409.5275
404.7334, 408.9316
405.2155, 408.1385
405.6977, 407.2253
406.1798, 406.1144
406.6619, 405.5445
407.1440, 406.2358
407.6261, 406.6845
408.1082, 405.9642
408.5904, 404.4555
409.0725, 403.0450
409.5546, 402.2274
410.0367, 401.9273
410.5188, 401.9068
411.0009, 402.4097
411.4831, 402.8880
411.9652, 403.5023
412.4473, 403.9715
412.9294, 403.9753
413.4115, 403.4866
413.8936, 402.8073
414.3758, 402.2724
414.8579, 401.8803
415.3400, 401.6513
415.8221, 401.4760
416.3042, 401.5877
416.7863, 402.3264
417.2685, 403.3999
417.7506, 404.2928
418.2327, 404.7190
418.7148, 404.7050
419.1969, 404.1750
419.6790, 402.6241
420.1612, 401.7405
420.6433, 402.6533
421.1254, 403.9210
421.6075, 404.2638
422.0896, 403.4623
422.5717, 402.4854
423.0539, 402.2938
423.5360, 402.8419
424.0181, 403.4445
424.5002, 404.1554
424.9823, 404.7239
425.4644, 404.9641
425.9466, 404.9513
426.4287, 404.8542
426.9108, 404.5574
427.3929, 404.3477
427.8750, 404.8034
428.3571, 405.9735
428.8393, 406.8638
429.3214, 406.9279
429.8035, 406.5201
430.2856, 406.3081
430.7677, 406.3532
431.2498, 406.3759
431.7320, 406.2099
432.2141, 405.9335
432.6962, 405.6220
433.1783, 405.2575
433.6604, 405.1184
434.1425, 405.5977
434.6247, 406.7091
435.1068, 407.5052
435.5889, 407.6598
436.0710, 407.7534
436.5531, 408.2453
437.0352, 408.9882
437.5174, 409.4698
437.9995, 409.3939
438.4816, 409.0045
438.9637, 408.9613
439.4458, 409.5419
439.9279, 410.0620
440.4101, 410.5622
440.8922, 410.9474
441.3743, 411.0850
441.8564, 410.9890
442.3385, 410.8345
442.8206, 410.7774
443.3028, 410.8145
443.7849, 411.0158
444.2670, 411.6209
444.7491, 412.1285
445.2312, 412.2930
445.7133, 412.3200
446.1955, 412.5288
446.6776, 413.0586
447.1597, 413.7431
447.6418, 414.2318
448.1239, 414.3840
448.6060, 414.7748
449.0882, 415.9457
449.5703, 416.9826
450.0524, 417.3031
450.5345, 416.9838
451.0166, 416.5158
451.4987, 416.1320
451.9809, 415.8791
452.4630, 415.9868
452.9451, 416.5927
453.4272, 417.1877
453.9093, 417.5569
454.3914, 417.7643
454.8736, 417.8300
455.3557, 417.7208
455.8378, 417.6105
456.3199, 417.6931
456.8020, 417.9059
457.2841, 417.9348
457.7663, 417.6129
458.2484, 417.3453
458.7305, 417.6191
459.2126, 418.3630
459.6947, 419.1704
460.1768, 420.1694
460.6590, 421.0573
461.1411, 421.6094
461.6232, 421.8317
462.1053, 421.7516
462.5874, 421.3154
463.0695, 420.6981
463.5517, 420.3969
464.0338, 420.6879
464.5159, 420.7589
464.9980, 420.0765
465.4801, 419.4085
465.9622, 419.7342
466.4444, 421.0044
466.9265, 422.1020
467.4086, 421.9095
467.8907, 420.4210
468.3728, 419.5482
468.8549, 420.0522
469.3371, 420.3183
469.8192, 419.5518
470.3013, 418.5573
470.7834, 418.5179
471.2655, 419.8206
471.7477, 421.5256
472.2298, 422.1723
472.7119, 421.5346
473.1940, 420.9178
473.6761, 420.4451
474.1582, 419.9630
474.6404, 419.2477
475.1225, 418.4638
475.6046, 418.0432
476.0867, 418.3725
476.5688, 419.0358
477.0509, 419.1659
477.5331, 418.6767
478.0152, 418.2881
478.4973, 418.3685
478.9794, 418.5783
479.4615, 418.4453
479.9436, 417.9113
480.4258, 417.5824
480.9079, 418.0334
481.3900, 418.7882
481.8721, 418.9265
482.3542, 418.3244
482.8363, 417.7453
483.3185, 417.8300
483.8006, 418.4121
484.2827, 418.5136
484.7648, 417.6235
485.2469, 416.8741
485.7290, 416.8300
486.2112, 417.1150
486.6933, 417.0959
487.1754, 416.6025
487.6575, 416.0743
488.1396, 416.1087
488.6217, 416.9057
489.1039, 417.3138
489.5860, 417.4671
490.0681, 417.1736
490.5502, 415.8563
491.0323, 414.1337
491.5144, 413.1128
491.9966, 413.3607
492.4787, 414.3091
492.9608, 414.8091
493.4429, 414.8387
493.9250, 414.4803
494.4071, 413.2675
494.8893, 412.0570
495.3714, 411.2680
495.8535, 410.8886
496.3356, 410.7346
496.8177, 410.8069
497.2998, 410.9656
497.7820, 410.8849
498.2641, 410.5556
498.7462, 409.9956
499.2283, 408.6811
499.7104, 407.5101
500.1925, 407.9284
500.6747, 410.3338
501.1568, 412.0884
501.6389, 411.5468
502.1210, 409.6489
502.6031, 407.7130
503.0852, 405.9096
503.5674, 404.5241
504.0495, 403.8532
504.5316, 403.8170
505.0137, 403.7527
505.4958, 403.8990
505.9779, 403.7356
506.4601, 402.8706
506.9422, 401.7131
507.4243, 400.6791
507.9064, 399.9138
508.3885, 399.5826
508.8706, 400.0080
509.3528, 401.3963
509.8349, 401.9216
510.3170, 400.9693
510.7991, 399.8135
511.2812, 398.4091
511.7633, 397.1502
512.2454, 396.7704
512.7275, 397.5873
513.2097, 398.5366
513.6918, 397.6859
514.1739, 394.7382
514.6560, 392.8339
515.1381, 393.0380
515.6202, 393.5431
516.1024, 393.3190
516.5845, 392.5083
517.0666, 391.5045
517.5487, 390.3531
518.0308, 389.1903
518.5129, 388.2436
518.9951, 387.4767
519.4772, 386.4984
519.9593, 385.0301
520.4414, 383.5296
520.9235, 382.8177
521.4056, 382.9404
521.8878, 382.8918
522.3699, 382.5472
522.8520, 381.9382
523.3341, 380.9305
523.8162, 379.6508
524.2983, 378.5494
524.7805, 377.8941
525.2626, 377.4905
525.7447, 376.7884
526.2268, 375.6089
526.7089, 374.3823
527.1910, 372.9452
527.6732, 371.6036
528.1553, 370.6919
528.6374, 370.0891
529.1195, 369.3036
529.6016, 367.8920
530.0837, 366.1207
530.5659, 365.0318
531.0480, 364.8896
531.5301, 364.7359
532.0122, 364.5446
532.4943, 364.0737
532.9764, 362.8674
533.4586, 360.9618
533.9407, 359.3847
534.4228, 359.0411
534.9049, 359.3902
535.3870, 359.4450
535.8691, 359.1645
536.3513, 358.4949
536.8334, 357.1812
537.3155, 355.5813
537.7976, 354.6132
538.2797, 354.4086
538.7618, 354.4270
539.2440, 355.1214
539.7261, 355.6196
540.2082, 354.7003
540.6903, 352.4059
541.1724, 349.9595
541.6545, 348.2945
542.1367, 347.3420
542.6188, 346.5078
543.1009, 345.8853
543.5830, 345.2690
544.0651, 344.6847
544.5472, 344.0669
545.0294, 343.3510
545.5115, 342.5322
545.9936, 341.6429
546.4757, 340.5939
546.9578, 339.4749
547.4399, 339.0516
547.9221, 339.8817
548.4042, 340.0880
548.8863, 338.0623
549.3684, 335.3716
549.8505, 333.6445
550.3326, 333.1787
550.8148, 332.9821
551.2969, 332.6327
551.7790, 332.0970
552.2611, 331.2358
552.7432, 330.0296
553.2253, 328.8131
553.7075, 327.8343
554.1896, 327.0289
554.6717, 326.0918
555.1538, 324.5899
555.6359, 323.5615
556.1180, 323.7706
556.6002, 324.2064
557.0823, 323.7064
557.5644, 322.2261
558.0465, 320.6543
558.5286, 319.7951
559.0107, 319.5622
559.4929, 319.1559
559.9750, 318.6347
560.4571, 317.8219
560.9392, 316.3783
561.4213, 314.8733
561.9034, 313.7846
562.3856, 313.1839
562.8677, 312.8055
563.3498, 312.5119
563.8319, 312.2744
564.3140, 312.0315
564.7961, 311.7994
565.2783, 311.4505
565.7604, 310.8884
566.2425, 310.1800
566.7246, 309.4894
567.2067, 308.8636
567.6888, 308.0861
568.1710, 306.8294
568.6531, 305.5355
569.1352, 304.7475
569.6173, 304.4601
570.0994, 304.3298
570.5815, 304.1525
571.0637, 303.9009
571.5458, 303.4571
572.0279, 302.5865
572.5100, 301.8643
572.9921, 301.2491
573.4742, 300.8362
573.9564, 300.9080
574.4385, 301.2913
574.9206, 301.3771
575.4027, 300.6472
575.8848, 299.4109
576.3669, 298.5423
576.8491, 298.0979
577.3312, 297.7350
577.8133, 297.4782
578.2954, 297.1475
578.7775, 296.4261
579.2596, 295.3526
579.7418, 294.6522
580.2239, 294.9940
580.7060, 295.5475
581.1881, 295.4245
581.6702, 294.7139
582.1523, 293.9351
582.6345, 293.3104
583.1166, 292.7629
583.5988, 292.1570
584.0809, 291.4367
584.5630, 290.8192
585.0451, 290.2209
585.5272, 289.7955
586.0093, 289.6846
586.4915, 289.7959
586.9736, 290.0067
587.4557, 290.2684
587.9378, 290.4298
588.4199, 290.1728
588.9020, 289.4386
589.3842, 288.7734
589.8663, 288.1238
590.3484, 287.7019
590.8305, 287.8188
591.3126, 288.2159
591.7947, 288.3174
592.2769, 287.8673
592.7590, 287.2682
593.2411, 286.6899
593.7232, 286.2162
594.2053, 286.1032
594.6874, 286.4185
595.1696, 286.9217
595.6517, 287.4719
596.1338, 288.0618
596.6159, 288.1385
597.0980, 287.2624
597.5801, 286.5016
598.0623, 286.1465
598.5444, 285.9887
599.0265, 285.8878
599.5086, 285.7647
599.9907, 285.4408
600.4728, 284.6156
600.9550, 283.4239
601.4371, 282.9220
601.9192, 283.3893
602.4013, 283.8672
602.8834, 284.0589
603.3655, 284.0814
603.8477, 284.0145
604.3298, 283.8658
604.8119, 283.6656
605.2940, 283.3812
605.7761, 283.0839
606.2582, 282.7932
606.7404, 282.5459
607.2225, 282.5560
607.7046, 282.9395
608.1867, 283.6136
608.6688, 284.4727
609.1509, 285.9001
609.6331, 286.5555
610.1152, 286.1048
610.5973, 285.2480
611.0794, 284.0399
611.5615, 282.7551
612.0436, 281.8548
612.5258, 281.5518
613.0079, 281.5747
613.4900, 281.5506
613.9721, 281.4820
614.4542, 281.2657
