##NAMES=Salammoniac
##RRUFFID=R060521
##IDEAL CHEMISTRY=N^3-^H_4_Cl
##LOCALITY=Tien-Shan Mountains, Tadzhikistan, U.S.S.R
##OWNER=RRUFF
##SOURCE=Michael Scott
##DESCRIPTION=White dendritic
##STATUS=The identification of this mineral has been confirmed by X-ray diffraction and chemical analysis
##URL=rruff.info/R060521
##MEASURED CHEMISTRY=NH_4_Cl_1.00_ ; N, H not measured but estimated by stoichiometry
107.6215, 1540.303
108.1036, 1560.349
108.5858, 1584.473
109.0679, 1606.731
109.5500, 1625.514
110.0321, 1643.861
110.5142, 1663.255
110.9963, 1683.885
111.4785, 1705.416
111.9606, 1727.945
112.4427, 1751.460
112.9248, 1775.168
113.4069, 1801.396
113.8890, 1826.589
114.3712, 1848.193
114.8533, 1864.784
115.3354, 1878.484
115.8175, 1889.072
116.2996, 1896.475
116.7817, 1904.181
117.2639, 1912.741
117.7460, 1922.545
118.2281, 1934.094
118.7102, 1948.506
119.1923, 1964.049
119.6744, 1978.946
120.1566, 1992.352
120.6387, 2008.167
121.1208, 2028.232
121.6029, 2052.273
122.0850, 2079.660
122.5671, 2110.083
123.0493, 2143.613
123.5314, 2180.704
124.0135, 2222.045
124.4956, 2265.436
124.9777, 2308.672
125.4598, 2351.922
125.9420, 2395.241
126.4241, 2437.042
126.9062, 2479.063
127.3883, 2524.567
127.8704, 2574.487
128.3525, 2627.780
128.8347, 2683.194
129.3168, 2740.953
129.7989, 2800.323
130.2810, 2862.609
130.7631, 2926.628
131.2452, 2990.096
131.7274, 3052.653
132.2095, 3114.143
132.6916, 3174.187
133.1737, 3233.323
133.6558, 3290.453
134.1379, 3346.699
134.6201, 3402.053
135.1022, 3454.170
135.5843, 3502.349
136.0664, 3546.637
136.5485, 3584.918
137.0306, 3616.635
137.5128, 3644.032
137.9949, 3671.510
138.4770, 3700.159
138.9591, 3723.745
139.4412, 3740.214
139.9233, 3749.155
140.4055, 3754.094
140.8876, 3754.862
141.3697, 3751.609
141.8518, 3744.531
142.3339, 3733.363
142.8160, 3718.978
143.2982, 3701.306
143.7803, 3679.808
144.2624, 3657.277
144.7445, 3634.400
145.2266, 3610.226
145.7087, 3583.584
146.1909, 3552.747
146.6730, 3521.188
147.1551, 3489.832
147.6372, 3458.560
148.1193, 3428.337
148.6014, 3399.750
149.0836, 3372.376
149.5657, 3343.414
150.0478, 3311.408
150.5299, 3279.657
151.0120, 3249.368
151.4941, 3219.681
151.9763, 3192.741
152.4584, 3169.498
152.9405, 3149.336
153.4226, 3128.679
153.9047, 3105.928
154.3868, 3083.442
154.8690, 3062.500
155.3511, 3042.621
155.8332, 3024.942
156.3153, 3010.241
156.7974, 2998.312
157.2795, 2987.428
157.7617, 2977.635
158.2438, 2968.584
158.7259, 2960.032
159.2080, 2950.536
159.6901, 2942.933
160.1722, 2938.615
160.6544, 2937.488
161.1365, 2937.061
161.6186, 2936.496
162.1007, 2936.210
162.5828, 2936.568
163.0649, 2938.175
163.5471, 2939.998
164.0292, 2941.682
164.5113, 2943.188
164.9934, 2944.279
165.4755, 2945.340
165.9576, 2945.736
166.4398, 2944.695
166.9219, 2942.302
167.4040, 2938.046
167.8861, 2931.777
168.3682, 2923.492
168.8503, 2912.819
169.3325, 2900.100
169.8146, 2884.729
170.2967, 2865.970
170.7788, 2842.552
171.2609, 2815.926
171.7430, 2788.045
172.2252, 2759.110
172.7073, 2727.231
173.1894, 2689.892
173.6715, 2648.057
174.1536, 2605.333
174.6357, 2561.964
175.1179, 2518.469
175.6000, 2475.154
176.0821, 2432.362
176.5642, 2390.288
177.0463, 2349.240
177.5284, 2309.028
178.0106, 2269.771
178.4927, 2231.470
178.9748, 2193.971
179.4569, 2157.644
179.9390, 2121.982
180.4211, 2088.295
180.9033, 2058.151
181.3854, 2031.010
181.8675, 2005.093
182.3496, 1978.272
182.8317, 1951.953
183.3138, 1928.313
183.7960, 1908.146
184.2781, 1889.741
184.7602, 1871.366
185.2423, 1852.882
185.7244, 1834.665
186.2065, 1816.092
186.6887, 1797.673
187.1708, 1781.290
187.6529, 1767.582
188.1350, 1755.075
188.6171, 1741.506
189.0992, 1726.790
189.5814, 1712.287
190.0635, 1698.906
190.5456, 1686.386
191.0277, 1674.401
191.5098, 1663.124
191.9919, 1651.909
192.4741, 1639.566
192.9562, 1626.115
193.4383, 1612.329
193.9204, 1598.615
194.4025, 1585.004
194.8846, 1572.113
195.3668, 1560.148
195.8489, 1548.785
196.3310, 1537.624
196.8131, 1526.811
197.2952, 1515.115
197.7773, 1501.028
198.2595, 1484.522
198.7416, 1468.819
199.2237, 1454.704
199.7058, 1441.486
200.1879, 1427.489
200.6700, 1412.508
201.1522, 1397.121
201.6343, 1381.631
202.1164, 1366.043
202.5985, 1350.305
203.0806, 1334.531
203.5627, 1318.687
204.0449, 1302.960
204.5270, 1287.449
205.0091, 1271.701
205.4912, 1255.101
205.9733, 1237.332
206.4554, 1220.659
206.9376, 1205.584
207.4197, 1191.768
207.9018, 1177.326
208.3839, 1162.059
208.8660, 1146.621
209.3481, 1131.631
209.8303, 1117.087
210.3124, 1102.673
210.7945, 1088.236
211.2766, 1073.992
211.7587, 1060.271
212.2408, 1047.111
212.7230, 1034.341
213.2051, 1021.656
213.6872, 1008.900
214.1693, 996.6891
214.6514, 985.2742
215.1335, 974.4357
215.6157, 963.8001
216.0978, 953.3549
216.5799, 942.9143
217.0620, 932.1005
217.5441, 920.4451
218.0262, 909.7321
218.5084, 900.3915
218.9905, 892.0134
219.4726, 883.0053
219.9547, 872.8453
220.4368, 862.7227
220.9189, 853.6022
221.4011, 845.8792
221.8832, 837.9349
222.3653, 829.3957
222.8474, 820.5449
223.3295, 812.2181
223.8116, 804.7200
224.2938, 797.5645
224.7759, 790.4745
225.2580, 783.4314
225.7401, 776.6328
226.2222, 770.1067
226.7043, 763.8239
227.1865, 757.3525
227.6686, 750.7282
228.1507, 744.0406
228.6328, 737.3273
229.1149, 730.2822
229.5970, 724.0248
230.0792, 719.0856
230.5613, 714.9944
231.0434, 709.9930
231.5255, 703.6235
232.0076, 697.1407
232.4897, 691.3388
232.9719, 686.6591
233.4540, 681.7103
233.9361, 676.3012
234.4182, 670.5786
234.9003, 664.9606
235.3824, 659.4713
235.8646, 654.0490
236.3467, 648.5629
236.8288, 642.5402
237.3109, 637.5497
237.7930, 634.1170
238.2751, 631.6357
238.7573, 628.3290
239.2394, 623.6202
239.7215, 618.8822
240.2036, 614.7365
240.6857, 611.5787
241.1678, 608.0912
241.6500, 604.1816
242.1321, 599.9776
242.6142, 595.6824
243.0963, 591.1072
243.5784, 586.7536
244.0605, 582.9417
244.5427, 579.9742
245.0248, 576.6934
245.5069, 572.8729
245.9890, 568.8246
246.4711, 565.3360
246.9532, 562.7216
247.4354, 560.1062
247.9175, 557.0782
248.3996, 553.2501
248.8817, 550.3075
249.3638, 548.7335
249.8459, 547.7839
250.3281, 546.0361
250.8102, 543.0505
251.2923, 540.0377
251.7744, 537.3831
252.2565, 535.1979
252.7386, 532.9925
253.2208, 530.5942
253.7029, 528.3058
254.1850, 526.6231
254.6671, 525.8553
255.1492, 525.0685
255.6313, 523.9474
256.1135, 522.4212
256.5956, 521.0173
257.0777, 519.7849
257.5598, 518.6245
258.0419, 517.3610
258.5240, 515.8328
259.0062, 514.5903
259.4883, 513.9116
259.9704, 513.8727
260.4525, 513.3278
260.9346, 512.0538
261.4167, 510.5629
261.8989, 509.4650
262.3810, 508.9187
262.8631, 508.4114
263.3452, 507.9669
263.8273, 507.5798
264.3094, 506.4930
264.7916, 504.4431
265.2737, 502.1170
265.7558, 499.9975
266.2379, 497.9046
266.7200, 496.7487
267.2021, 497.0423
267.6843, 498.5724
268.1664, 499.1786
268.6485, 498.6081
269.1306, 497.6289
269.6127, 496.8667
270.0948, 496.3669
270.5770, 495.8455
271.0591, 495.2230
271.5412, 494.5382
272.0233, 493.9471
272.5054, 493.4035
272.9875, 493.0850
273.4697, 493.3201
273.9518, 494.2894
274.4339, 494.5489
274.9160, 493.7219
275.3981, 492.2046
275.8802, 491.2023
276.3624, 490.8357
276.8445, 490.5881
277.3266, 490.0880
277.8087, 489.3056
278.2908, 488.8022
278.7729, 488.7153
279.2551, 488.8314
279.7372, 488.6796
280.2193, 488.2429
280.7014, 487.6542
281.1835, 486.9041
281.6656, 485.9976
282.1478, 485.2474
282.6299, 484.6722
283.1120, 484.2449
283.5941, 483.9500
284.0762, 483.7916
284.5583, 483.6667
285.0405, 483.5070
285.5226, 483.3251
286.0047, 483.2457
286.4868, 483.2803
286.9689, 483.3789
287.4510, 483.5721
287.9332, 483.8424
288.4153, 483.8532
288.8974, 483.2241
289.3795, 482.2130
289.8616, 481.8757
290.3438, 482.2631
290.8259, 482.9628
291.3080, 483.9098
291.7901, 484.9399
292.2722, 485.0695
292.7543, 483.5840
293.2365, 481.1701
293.7186, 479.3305
294.2007, 478.0827
294.6828, 477.2989
295.1649, 477.0511
295.6470, 477.2158
296.1292, 477.4215
296.6113, 477.7224
297.0934, 477.8497
297.5755, 477.1012
298.0576, 475.5696
298.5397, 474.2649
299.0219, 474.2087
299.5040, 474.8939
299.9861, 475.1976
300.4682, 474.8077
300.9503, 474.1810
301.4324, 473.8419
301.9146, 473.7440
302.3967, 473.6662
302.8788, 473.3446
303.3609, 473.0025
303.8430, 473.0311
304.3251, 473.5669
304.8073, 474.1523
305.2894, 474.3510
305.7715, 474.2642
306.2536, 474.1478
306.7357, 474.1985
307.2178, 474.2387
307.7000, 474.0361
308.1821, 473.5413
308.6642, 473.0414
309.1463, 472.6886
309.6284, 472.4721
310.1105, 472.3750
310.5927, 472.8065
311.0748, 473.0529
311.5569, 472.4708
312.0390, 471.0535
312.5211, 469.5956
313.0032, 468.2975
313.4854, 467.2776
313.9675, 466.6805
314.4496, 466.8841
314.9317, 467.2337
315.4138, 467.6465
315.8959, 468.0455
316.3781, 467.9596
316.8602, 466.6394
317.3423, 465.0793
317.8244, 464.0343
318.3065, 464.0901
318.7886, 464.0829
319.2708, 463.4786
319.7529, 462.4988
320.2350, 461.7665
320.7171, 461.8628
321.1992, 461.9538
321.6813, 461.5561
322.1635, 460.2654
322.6456, 459.2535
323.1277, 458.9644
323.6098, 459.0511
324.0919, 458.9353
324.5740, 458.3576
325.0562, 457.7157
325.5383, 457.0909
326.0204, 456.4514
326.5025, 455.9863
326.9846, 456.0232
327.4667, 456.1197
327.9489, 455.8046
328.4310, 454.5796
328.9131, 453.5113
329.3952, 452.8012
329.8773, 452.4621
330.3594, 452.0976
330.8416, 451.6633
331.3237, 451.2490
331.8058, 450.9288
332.2879, 450.8112
332.7700, 450.5905
333.2521, 450.1847
333.7343, 449.6408
334.2164, 449.2071
334.6985, 448.9633
335.1806, 448.7019
335.6627, 448.3024
336.1448, 447.7195
336.6270, 447.1412
337.1091, 446.5984
337.5912, 446.0490
338.0733, 445.4046
338.5554, 444.6772
339.0375, 443.8415
339.5197, 442.8187
340.0018, 441.5966
340.4839, 440.6398
340.9660, 440.0418
341.4481, 439.5439
341.9302, 438.7856
342.4124, 437.7317
342.8945, 436.7841
343.3766, 436.0501
343.8587, 435.5128
344.3408, 435.1344
344.8229, 434.9476
345.3051, 434.6970
345.7872, 434.1372
346.2693, 433.3002
346.7514, 432.3479
347.2335, 431.2753
347.7156, 430.1718
348.1978, 429.2563
348.6799, 428.5195
349.1620, 427.8049
349.6441, 427.1803
350.1262, 426.4962
350.6083, 425.2670
351.0905, 423.2849
351.5726, 421.2734
352.0547, 420.0817
352.5368, 419.5519
353.0189, 419.2062
353.5010, 418.9751
353.9832, 418.7126
354.4653, 418.2284
354.9474, 417.5045
355.4295, 416.6689
355.9116, 415.8472
356.3937, 414.9652
356.8759, 413.9260
357.3580, 412.6048
357.8401, 411.1772
358.3222, 409.7025
358.8043, 408.1909
359.2864, 406.7831
359.7686, 405.2638
360.2507, 404.0257
360.7328, 403.5250
361.2149, 404.5367
361.6970, 405.1381
362.1791, 404.2992
362.6613, 402.4728
363.1434, 400.7054
363.6255, 399.2976
364.1076, 398.0405
364.5897, 396.8406
365.0718, 395.7196
365.5540, 394.6234
366.0361, 393.7296
366.5182, 392.7954
367.0003, 391.5305
367.4824, 389.5518
367.9645, 387.6089
368.4467, 385.8356
368.9288, 384.2708
369.4109, 382.8198
369.8930, 381.6645
370.3751, 380.4958
370.8572, 379.0733
371.3394, 377.0608
371.8215, 375.4106
372.3036, 374.3436
372.7857, 373.6834
373.2678, 372.7738
373.7499, 371.4738
374.2321, 370.1483
374.7142, 368.9648
375.1963, 367.9236
375.6784, 367.0183
376.1605, 366.3678
376.6426, 365.6974
377.1248, 364.5026
377.6069, 362.6473
378.0890, 361.0177
378.5711, 360.0467
379.0532, 359.5962
379.5353, 358.6612
380.0175, 357.1585
380.4996, 355.5527
380.9817, 354.3313
381.4638, 353.4462
381.9459, 352.4314
382.4280, 351.1758
382.9102, 349.7766
383.3923, 348.3362
383.8744, 346.8667
384.3565, 345.6420
384.8386, 345.2382
385.3207, 345.1422
385.8029, 344.1378
386.2850, 341.9375
386.7671, 339.6771
387.2492, 338.8298
387.7313, 338.8181
388.2134, 338.3421
388.6956, 336.1811
389.1777, 333.7191
389.6598, 332.2744
390.1419, 331.8291
390.6240, 331.5397
391.1061, 331.0970
391.5883, 330.4576
392.0704, 329.5655
392.5525, 328.3026
393.0346, 326.9389
393.5167, 325.4677
393.9988, 323.9644
394.4810, 322.6194
394.9631, 321.4953
395.4452, 320.5482
395.9273, 319.7717
396.4094, 319.1943
396.8915, 318.6900
397.3737, 318.3937
397.8558, 318.1015
398.3379, 317.5621
398.8200, 316.2889
399.3021, 315.2489
399.7842, 314.7522
400.2664, 314.7928
400.7485, 314.5082
401.2306, 313.4568
401.7127, 312.5060
402.1948, 312.3016
402.6769, 313.4984
403.1591, 313.9814
403.6412, 313.4014
404.1233, 312.1413
404.6054, 311.1295
405.0875, 310.4455
405.5696, 309.8073
406.0518, 309.0860
406.5339, 308.2787
407.0160, 307.6189
407.4981, 307.1552
407.9802, 306.7367
408.4623, 306.1043
408.9445, 305.2684
409.4266, 304.7546
409.9087, 304.8947
410.3908, 305.2915
410.8729, 304.8506
411.3550, 303.5996
411.8372, 302.3995
412.3193, 301.8347
412.8014, 301.7728
413.2835, 301.9401
413.7656, 302.3395
414.2477, 302.8016
414.7299, 303.1279
415.2120, 303.3672
415.6941, 303.6317
416.1762, 304.1093
416.6583, 304.5401
417.1404, 304.6242
417.6226, 304.3658
418.1047, 304.1149
418.5868, 303.9017
419.0689, 303.8663
419.5510, 304.1816
420.0331, 305.3932
420.5153, 306.2831
420.9974, 306.1096
421.4795, 305.2414
421.9616, 304.6139
422.4437, 304.6038
422.9258, 304.7694
423.4080, 305.0152
423.8901, 305.4662
424.3722, 305.5423
424.8543, 304.6914
425.3364, 303.7008
425.8185, 303.3590
426.3007, 304.2017
426.7828, 304.9121
427.2649, 305.2443
427.7470, 305.2682
428.2291, 305.4494
428.7112, 305.8084
429.1934, 306.2813
429.6755, 306.9069
430.1576, 307.7649
430.6397, 308.3120
431.1218, 308.4748
431.6039, 308.4118
432.0861, 308.2942
432.5682, 308.1067
433.0503, 308.1154
433.5324, 308.4486
434.0145, 309.0429
434.4966, 309.7237
434.9788, 310.4974
435.4609, 311.2416
435.9430, 311.8661
436.4251, 312.3904
436.9072, 312.8763
437.3893, 313.3646
437.8715, 313.7570
438.3536, 313.7906
438.8357, 313.6135
439.3178, 313.6389
439.7999, 314.2115
440.2820, 314.9971
440.7642, 315.6827
441.2463, 316.2526
441.7284, 316.8534
442.2105, 317.7601
442.6926, 318.6456
443.1747, 319.1849
443.6569, 318.9214
444.1390, 318.7374
444.6211, 318.8742
445.1032, 319.2935
445.5853, 319.8828
446.0674, 320.9082
446.5496, 321.8563
447.0317, 322.4998
447.5138, 322.7082
447.9959, 323.0577
448.4780, 323.7121
448.9601, 324.4106
449.4423, 324.9004
449.9244, 325.0931
450.4065, 325.2628
450.8886, 325.4249
451.3707, 325.5974
451.8528, 325.8263
452.3350, 326.0586
452.8171, 326.5083
453.2992, 327.4696
453.7813, 328.9538
454.2634, 329.8678
454.7455, 330.1112
455.2277, 330.0312
455.7098, 330.0285
456.1919, 330.0896
456.6740, 330.1393
457.1561, 330.1241
457.6382, 330.1062
458.1204, 330.1521
458.6025, 330.2754
459.0846, 330.5600
459.5667, 331.3433
460.0488, 332.2192
460.5309, 332.5382
461.0131, 332.0663
461.4952, 331.7257
461.9773, 332.4505
462.4594, 333.6545
462.9415, 334.4893
463.4236, 334.0761
463.9058, 333.7377
464.3879, 334.2871
464.8700, 335.5930
465.3521, 336.4131
465.8342, 335.7154
466.3163, 334.9849
466.7985, 335.0971
467.2806, 336.8255
467.7627, 338.0846
468.2448, 338.4324
468.7269, 338.4550
469.2090, 339.0509
469.6912, 340.8048
470.1733, 342.0489
470.6554, 342.2016
471.1375, 341.4189
471.6196, 341.2943
472.1017, 342.0302
472.5839, 342.8538
473.0660, 343.2783
473.5481, 343.2990
474.0302, 343.0739
474.5123, 342.5255
474.9944, 341.9881
475.4766, 342.0467
475.9587, 342.6186
476.4408, 343.1554
476.9229, 343.3584
477.4050, 343.4459
477.8871, 343.6573
478.3693, 344.0207
478.8514, 344.7682
479.3335, 346.4622
479.8156, 348.4708
480.2977, 349.9572
480.7798, 350.6139
481.2620, 351.2769
481.7441, 352.4376
482.2262, 353.9032
482.7083, 355.3900
483.1904, 356.1050
483.6725, 357.5004
484.1547, 361.1044
484.6368, 366.5882
485.1189, 369.7045
485.6010, 369.0852
486.0831, 366.5011
486.5652, 362.6639
487.0474, 356.1873
487.5295, 351.4315
488.0116, 349.1296
488.4937, 348.0590
488.9758, 346.4086
489.4579, 343.7810
489.9401, 341.7943
490.4222, 340.9116
490.9043, 340.9522
491.3864, 341.0953
491.8685, 341.3482
492.3506, 341.6619
492.8328, 342.1940
493.3149, 342.8079
493.7970, 342.7868
494.2791, 342.0001
494.7612, 340.9779
495.2433, 340.2349
495.7255, 339.7254
496.2076, 339.3264
496.6897, 339.0817
497.1718, 338.8472
497.6539, 338.3921
498.1360, 337.8048
498.6182, 337.4156
499.1003, 337.7422
499.5824, 338.0965
500.0645, 337.8813
500.5466, 336.8364
501.0287, 336.0984
501.5109, 336.3485
501.9930, 336.9015
502.4751, 337.0709
502.9572, 336.4372
503.4393, 335.8038
503.9214, 335.2411
504.4036, 334.7437
504.8857, 334.2879
505.3678, 333.9164
505.8499, 333.5027
506.3320, 332.9646
506.8141, 332.2862
507.2963, 331.7727
507.7784, 331.4698
508.2605, 331.1979
508.7426, 330.6554
509.2247, 329.8799
509.7068, 329.5180
510.1890, 329.8352
510.6711, 330.3403
511.1532, 330.1678
511.6353, 329.4199
512.1174, 328.6087
512.5995, 327.9253
513.0817, 327.3547
513.5638, 326.9775
514.0459, 326.7755
514.5280, 326.4071
515.0101, 325.4471
515.4922, 324.3261
515.9744, 323.4725
516.4565, 323.1006
516.9386, 322.7481
517.4207, 322.3581
517.9028, 321.8778
518.3849, 321.2191
518.8671, 320.0839
519.3492, 319.0770
519.8313, 318.3833
520.3134, 317.9794
520.7955, 317.4374
521.2776, 316.7516
521.7598, 315.9259
522.2419, 314.8673
522.7240, 313.4297
523.2061, 312.5769
523.6882, 312.4957
524.1703, 312.6241
524.6525, 312.2556
525.1346, 311.4084
525.6167, 310.3282
526.0988, 309.0216
526.5809, 307.6134
527.0630, 306.2606
527.5452, 304.9912
528.0273, 303.9207
528.5094, 303.3463
528.9915, 302.8804
529.4736, 301.9055
529.9557, 300.3461
530.4379, 299.1272
530.9200, 299.1906
531.4021, 299.6637
531.8842, 299.6815
532.3663, 298.8022
532.8484, 297.7759
533.3306, 296.6559
533.8127, 295.5190
534.2948, 294.5649
534.7769, 294.2135
535.2590, 293.5561
535.7411, 292.2580
536.2233, 290.3545
536.7054, 288.7854
537.1875, 287.6396
537.6696, 286.6936
538.1517, 285.8105
538.6339, 285.0000
539.1160, 284.2672
539.5981, 283.6262
540.0802, 283.0419
540.5623, 282.5412
541.0444, 282.0772
541.5266, 281.3451
542.0087, 280.0848
542.4908, 278.6976
542.9729, 277.8077
543.4550, 277.3268
543.9371, 276.8749
544.4193, 276.2064
544.9014, 275.4888
545.3835, 274.9176
545.8656, 274.5226
546.3477, 273.9517
546.8298, 273.0161
547.3120, 271.8547
547.7941, 270.5855
548.2762, 269.0203
548.7583, 267.6164
549.2404, 266.3518
549.7225, 265.2798
550.2047, 264.5336
550.6868, 264.3292
551.1689, 264.0397
551.6510, 263.5525
552.1331, 262.8613
552.6152, 261.8277
553.0974, 260.3658
553.5795, 259.0052
554.0616, 258.1819
554.5437, 257.8010
555.0258, 257.3242
555.5079, 256.7299
555.9901, 256.0054
556.4722, 254.9845
556.9543, 253.8324
557.4364, 252.9210
557.9185, 252.5160
558.4006, 252.1208
558.8828, 251.1724
559.3649, 249.9229
559.8470, 248.9378
560.3291, 248.6100
560.8112, 248.4377
561.2933, 248.2619
561.7755, 248.0684
562.2576, 247.7036
562.7397, 247.1281
563.2218, 246.3821
563.7039, 245.4034
564.1860, 243.8511
564.6682, 243.0385
565.1503, 243.3385
565.6324, 243.9093
566.1145, 243.5958
566.5966, 242.2984
567.0787, 241.0338
567.5609, 239.9475
568.0430, 239.1178
568.5251, 238.9557
569.0072, 239.3608
569.4893, 239.5297
569.9714, 238.7918
570.4536, 237.6612
570.9357, 236.8827
571.4178, 236.4542
571.8999, 236.0449
572.3820, 235.2838
572.8641, 234.5381
573.3463, 234.1810
573.8284, 234.4192
574.3105, 234.6410
574.7926, 234.7941
575.2747, 234.7795
575.7568, 234.4653
576.2390, 233.5066
576.7211, 232.6819
577.2032, 232.0642
577.6853, 231.6408
578.1674, 231.4111
578.6495, 231.4283
579.1317, 231.4961
579.6138, 231.6296
580.0959, 231.7787
580.5780, 231.3631
581.0601, 230.3181
581.5422, 229.3978
582.0244, 229.3978
582.5065, 229.9975
582.9886, 230.4619
583.4707, 230.7330
583.9528, 230.6838
584.4349, 229.8452
584.9171, 228.7040
585.3992, 227.9897
585.8813, 228.4917
586.3634, 228.8878
586.8455, 228.4157
587.3276, 227.3979
587.8098, 226.7343
588.2919, 226.8418
588.7740, 227.0813
589.2561, 227.3486
589.7382, 227.6481
590.2203, 227.6004
590.7025, 227.0125
591.1846, 226.4236
591.6667, 226.2649
592.1488, 226.5865
592.6309, 226.5601
593.1130, 226.0944
593.5952, 225.5238
594.0773, 225.3197
594.5594, 225.3735
595.0415, 225.2246
595.5236, 224.6295
596.0057, 224.0342
596.4879, 224.0293
596.9700, 224.4164
597.4521, 224.7309
597.9342, 224.6501
598.4163, 224.5324
598.8984, 224.5656
599.3806, 224.7445
599.8627, 224.9686
600.3448, 225.4130
600.8269, 225.7214
601.3090, 225.6510
601.7911, 224.9965
602.2733, 224.8091
602.7554, 225.3160
603.2375, 225.9682
603.7196, 226.2938
604.2017, 226.2922
