##NAMES=Salesite
##RRUFFID=R050170
##IDEAL CHEMISTRY=Cu^2+^(I^5+^O_3_)(OH)
##LOCALITY=Chuquicamata, Chile
##OWNER=RRUFF
##SOURCE=Marcus Origlieri
##DESCRIPTION=Green crystalline crust
##STATUS=The identification of this mineral has been confirmed by single-crystal X-ray diffraction.
##URL=rruff.info/R050170
93.46680, 40.94007
93.94891, 40.75167
94.43103, 40.81227
94.91315, 40.76325
95.39526, 40.62150
95.87738, 40.57754
96.35950, 40.65824
96.84161, 40.54741
97.32373, 40.01538
97.80585, 39.35012
98.28796, 38.84307
98.77008, 38.52090
99.25220, 38.39887
99.73431, 38.53497
100.2164, 39.01384
100.6985, 39.42701
101.1807, 39.69627
101.6628, 39.97983
102.1449, 40.38735
102.6270, 40.94141
103.1091, 41.67183
103.5912, 42.81230
104.0734, 44.27938
104.5555, 46.31417
105.0376, 49.31632
105.5197, 52.96080
106.0018, 56.65294
106.4839, 59.93816
106.9661, 62.87407
107.4482, 64.96754
107.9303, 66.49374
108.4124, 67.18282
108.8945, 66.51519
109.3766, 64.54055
109.8588, 62.21843
110.3409, 60.68929
110.8230, 60.03283
111.3051, 59.59382
111.7872, 59.27967
112.2693, 59.13728
112.7515, 59.21074
113.2336, 59.46519
113.7157, 60.06273
114.1978, 61.29193
114.6799, 63.13531
115.1620, 64.95993
115.6442, 66.24973
116.1263, 67.04101
116.6084, 68.05066
117.0905, 69.74258
117.5726, 71.52432
118.0547, 72.97798
118.5369, 74.01937
119.0190, 74.93295
119.5011, 76.11246
119.9832, 77.62736
120.4653, 79.25710
120.9474, 80.93481
121.4296, 82.70699
121.9117, 84.67712
122.3938, 86.89111
122.8759, 89.22001
123.3580, 91.26258
123.8401, 92.40378
124.3223, 93.89530
124.8044, 96.09694
125.2865, 98.69507
125.7686, 101.3718
126.2507, 104.0719
126.7328, 106.6621
127.2150, 107.2794
127.6971, 105.8718
128.1792, 103.1524
128.6613, 98.82899
129.1434, 93.17309
129.6255, 87.42870
130.1077, 82.38598
130.5898, 78.13252
131.0719, 74.45413
131.5540, 71.28501
132.0361, 68.68880
132.5182, 66.73487
133.0004, 65.44637
133.4825, 64.72941
133.9646, 64.85687
134.4467, 65.51987
134.9288, 66.08422
135.4109, 66.09200
135.8931, 65.75700
136.3752, 65.87964
136.8573, 66.83940
137.3394, 67.82076
137.8215, 68.38329
138.3036, 68.59103
138.7858, 68.66512
139.2679, 68.80522
139.7500, 69.04114
140.2321, 69.10080
140.7142, 69.00512
141.1963, 68.70717
141.6785, 68.04405
142.1606, 67.08150
142.6427, 66.09588
143.1248, 65.47026
143.6069, 65.48919
144.0890, 65.21462
144.5712, 64.83677
145.0533, 64.11911
145.5354, 62.86538
146.0175, 61.03300
146.4996, 58.74306
146.9817, 56.19909
147.4639, 53.37789
147.9460, 50.28738
148.4281, 46.61427
148.9102, 42.75048
149.3923, 39.13626
149.8744, 35.91508
150.3566, 33.09018
150.8387, 30.72267
151.3208, 28.85255
151.8029, 27.12433
152.2850, 25.34590
152.7671, 23.58872
153.2493, 22.13084
153.7314, 21.14960
154.2135, 20.50043
154.6956, 19.84996
155.1777, 19.19603
155.6598, 18.55236
156.1420, 17.91575
156.6241, 17.28527
157.1062, 16.72078
157.5883, 16.29153
158.0704, 15.93047
158.5525, 15.57224
159.0347, 15.18618
159.5168, 14.84169
159.9989, 14.66101
160.4810, 14.70784
160.9631, 14.77073
161.4452, 14.79801
161.9274, 14.80602
162.4095, 14.80656
162.8916, 14.80363
163.3737, 14.80106
163.8558, 14.80764
164.3379, 14.78578
164.8201, 14.83122
165.3022, 14.99162
165.7843, 15.21672
166.2664, 15.44088
166.7485, 15.62536
167.2306, 15.77643
167.7128, 15.95474
168.1949, 16.38756
168.6770, 16.60869
169.1591, 16.34556
169.6412, 15.78276
170.1233, 15.29080
170.6055, 15.12686
171.0876, 15.28819
171.5697, 15.50270
172.0518, 15.79943
172.5339, 16.10966
173.0160, 16.44918
173.4982, 16.79307
173.9803, 17.03502
174.4624, 17.05016
174.9445, 16.85441
175.4266, 16.81569
175.9087, 17.03431
176.3909, 17.34081
176.8730, 17.60615
177.3551, 17.82257
177.8372, 18.02337
178.3193, 18.23673
178.8014, 18.45553
179.2836, 18.65036
179.7657, 18.75641
180.2478, 18.85518
180.7299, 19.09129
181.2120, 19.51086
181.6941, 19.94416
182.1763, 20.19709
182.6584, 20.37884
183.1405, 20.70315
183.6226, 21.36863
184.1047, 22.25378
184.5868, 22.95059
185.0690, 23.34713
185.5511, 23.70631
186.0332, 24.25050
186.5153, 24.85500
186.9974, 25.27928
187.4795, 25.32461
187.9617, 25.01573
188.4438, 24.71278
188.9259, 24.37449
189.4080, 24.08912
189.8901, 23.84209
190.3722, 23.66565
190.8544, 23.63684
191.3365, 23.86634
191.8186, 24.39124
192.3007, 24.63768
192.7828, 24.14782
193.2649, 23.81231
193.7471, 24.08019
194.2292, 24.81105
194.7113, 25.53791
195.1934, 25.80329
195.6755, 25.49455
196.1576, 25.44861
196.6398, 25.90844
197.1219, 26.35454
197.6040, 26.46311
198.0861, 26.27381
198.5682, 26.09726
199.0503, 26.26410
199.5325, 26.87154
200.0146, 27.22594
200.4967, 27.27257
200.9788, 27.13607
201.4609, 26.81869
201.9430, 26.34535
202.4252, 25.89417
202.9073, 25.66440
203.3894, 25.68795
203.8715, 25.58111
204.3536, 25.22933
204.8357, 24.79760
205.3179, 24.50688
205.8000, 24.39643
206.2821, 24.17164
206.7642, 23.45368
207.2463, 22.31841
207.7284, 21.23537
208.2106, 20.32434
208.6927, 19.50506
209.1748, 18.66290
209.6569, 17.77184
210.1390, 16.90348
210.6211, 16.09576
211.1033, 15.34949
211.5854, 14.69869
212.0675, 14.18084
212.5496, 13.76251
213.0317, 13.36321
213.5138, 12.96991
213.9960, 12.62567
214.4781, 12.37579
214.9602, 12.18930
215.4423, 12.00318
215.9244, 11.74235
216.4065, 11.45154
216.8886, 11.32538
217.3708, 11.47239
217.8529, 11.62660
218.3350, 11.69489
218.8171, 11.68125
219.2992, 11.59131
219.7813, 11.40786
220.2635, 11.14700
220.7456, 10.91822
221.2277, 10.71754
221.7098, 10.56244
222.1919, 10.48227
222.6740, 10.44655
223.1562, 10.39488
223.6383, 10.26836
224.1204, 10.08329
224.6025, 10.04364
225.0846, 10.27045
225.5667, 10.53339
226.0489, 10.87075
226.5310, 11.20208
227.0131, 11.39421
227.4952, 11.34498
227.9773, 11.07031
228.4594, 10.81625
228.9416, 10.46387
229.4237, 10.26021
229.9058, 10.35285
230.3879, 10.63532
230.8700, 10.91869
231.3521, 11.07842
231.8343, 11.12096
232.3164, 11.14378
232.7985, 11.11410
233.2806, 11.10116
233.7627, 11.12153
234.2448, 11.17248
234.7270, 11.24842
235.2091, 11.34817
235.6912, 11.46863
236.1733, 11.57984
236.6554, 11.74926
237.1375, 11.84253
237.6197, 11.75064
238.1018, 11.54704
238.5839, 11.39647
239.0660, 11.39885
239.5481, 11.52857
240.0302, 11.64085
240.5124, 11.74406
240.9945, 11.82532
241.4766, 11.88806
241.9587, 11.92616
242.4408, 11.90621
242.9229, 11.78248
243.4051, 11.61797
243.8872, 11.61710
244.3693, 11.80807
244.8514, 12.08661
245.3335, 12.51113
245.8156, 13.00748
246.2978, 13.31856
246.7799, 13.26190
247.2620, 13.02987
247.7441, 13.06391
248.2262, 13.47141
248.7083, 13.86902
249.1905, 13.99831
249.6726, 13.94121
250.1547, 13.99625
250.6368, 14.27211
251.1189, 14.72399
251.6010, 15.28952
252.0832, 16.00789
252.5653, 16.66027
253.0474, 17.07568
253.5295, 17.30625
254.0116, 17.58836
254.4937, 17.95786
254.9759, 18.44724
255.4580, 19.10313
255.9401, 19.93237
256.4222, 20.74778
256.9043, 21.45189
257.3864, 22.04836
257.8686, 22.54660
258.3507, 22.90591
258.8328, 23.21337
259.3149, 23.53355
259.7970, 23.86814
260.2791, 24.23328
260.7613, 24.68046
261.2434, 25.18292
261.7255, 25.59871
262.2076, 25.92287
262.6897, 26.12584
263.1718, 26.07467
263.6540, 25.86864
264.1361, 25.85419
264.6182, 26.40232
265.1003, 27.39413
265.5824, 28.11069
266.0645, 28.39767
266.5467, 28.58481
267.0288, 28.86982
267.5109, 29.19893
267.9930, 29.45046
268.4751, 29.54484
268.9572, 29.50299
269.4394, 29.40570
269.9215, 29.18095
270.4036, 29.01270
270.8857, 29.06935
271.3678, 29.20489
271.8499, 29.17837
272.3321, 28.82239
272.8142, 28.24398
273.2963, 27.83486
273.7784, 27.75495
274.2605, 27.57902
274.7426, 27.19394
275.2248, 26.65869
275.7069, 26.03184
276.1890, 25.32802
276.6711, 24.57985
277.1532, 23.89325
277.6353, 23.36320
278.1175, 22.70579
278.5996, 21.85359
279.0817, 20.88078
279.5638, 19.79932
280.0459, 18.60848
280.5280, 17.45055
281.0102, 16.62067
281.4923, 16.32123
281.9744, 15.93904
282.4565, 15.26088
282.9386, 14.57442
283.4207, 14.13655
283.9029, 14.00076
284.3850, 13.98180
284.8671, 13.78003
285.3492, 13.26284
285.8313, 12.89395
286.3134, 12.81561
286.7956, 12.77361
287.2777, 12.57521
287.7598, 12.22014
288.2419, 11.87959
288.7240, 11.77697
289.2061, 12.00723
289.6883, 12.13081
290.1704, 12.14114
290.6525, 12.06209
291.1346, 11.81407
291.6167, 11.45854
292.0988, 11.18486
292.5810, 11.19446
293.0631, 11.52608
293.5452, 11.72365
294.0273, 11.63135
294.5094, 11.56131
294.9915, 11.62581
295.4737, 11.79725
295.9558, 11.98560
296.4379, 12.11691
296.9200, 12.20279
297.4021, 12.42300
297.8842, 12.79419
298.3664, 13.29533
298.8485, 13.97569
299.3306, 14.77567
299.8127, 15.62465
300.2948, 16.48548
300.7769, 17.33681
301.2591, 18.08507
301.7412, 18.65895
302.2233, 19.19862
302.7054, 19.72170
303.1875, 20.21074
303.6696, 20.67375
304.1518, 21.10935
304.6339, 21.46216
305.1160, 21.59774
305.5981, 21.21507
306.0802, 21.06730
306.5623, 21.30548
307.0445, 21.68109
307.5266, 21.99009
308.0087, 22.18405
308.4908, 22.35843
308.9729, 22.65547
309.4550, 23.14187
309.9372, 23.58671
310.4193, 23.98321
310.9014, 24.35425
311.3835, 24.71444
311.8656, 25.06410
312.3477, 25.39400
312.8299, 25.69723
313.3120, 25.98411
313.7941, 26.18382
314.2762, 26.16423
314.7583, 26.19876
315.2404, 26.48054
315.7226, 26.91795
316.2047, 27.28502
316.6868, 27.41954
317.1689, 27.32639
317.6510, 27.07589
318.1331, 26.43380
318.6153, 25.89134
319.0974, 25.65409
319.5795, 25.56441
320.0616, 25.41319
320.5437, 25.09791
321.0258, 24.59670
321.5080, 23.82352
321.9901, 22.55987
322.4722, 21.27996
322.9543, 19.91012
323.4364, 18.58728
323.9185, 17.43162
324.4007, 16.49323
324.8828, 15.72864
325.3649, 15.08253
325.8470, 14.63018
326.3291, 14.15677
326.8112, 13.54960
327.2934, 13.00154
327.7755, 12.64178
328.2576, 12.48560
328.7397, 12.46825
329.2218, 12.53602
329.7039, 12.72310
330.1861, 12.82671
330.6682, 12.80618
331.1503, 12.75369
331.6324, 12.67960
332.1145, 12.60377
332.5966, 12.55586
333.0788, 12.55433
333.5609, 12.60086
334.0430, 12.72632
334.5251, 13.11719
335.0072, 13.38686
335.4893, 13.30481
335.9715, 13.09106
336.4536, 13.08692
336.9357, 13.47159
337.4178, 14.09855
337.8999, 14.51572
338.3820, 14.59180
338.8642, 14.63585
339.3463, 14.54268
339.8284, 14.50311
340.3105, 14.73340
340.7926, 15.27606
341.2747, 15.93656
341.7568, 16.40751
342.2390, 16.56852
342.7211, 16.83705
343.2032, 17.34060
343.6853, 17.83038
344.1674, 18.11993
344.6495, 18.24040
345.1317, 18.38324
345.6138, 18.73920
346.0959, 19.32304
346.5780, 19.86991
347.0601, 20.28231
347.5422, 20.75466
348.0244, 21.35637
348.5065, 22.05515
348.9886, 22.79735
349.4707, 23.55419
349.9528, 24.31642
350.4349, 25.03616
350.9171, 25.75274
351.3992, 26.36433
351.8813, 26.76519
352.3634, 27.10823
352.8455, 27.57385
353.3276, 28.22393
353.8098, 28.90980
354.2919, 29.34080
354.7740, 29.38053
355.2561, 29.58423
355.7382, 30.19300
356.2203, 30.84041
356.7025, 31.34241
357.1846, 31.67126
357.6667, 31.87274
358.1488, 31.92060
358.6309, 31.80167
359.1130, 31.88902
359.5952, 32.44322
360.0773, 32.91623
360.5594, 33.03558
361.0415, 32.90973
361.5236, 32.76410
362.0057, 32.71128
362.4879, 32.74306
362.9700, 32.86512
363.4521, 33.17285
363.9342, 33.35316
364.4163, 33.33702
364.8984, 33.13358
365.3806, 32.66285
365.8627, 31.85488
366.3448, 31.04738
366.8269, 30.77372
367.3090, 31.11430
367.7911, 31.22787
368.2733, 30.79331
368.7554, 30.15949
369.2375, 29.56366
369.7196, 29.01593
370.2017, 28.44855
370.6838, 27.76069
371.1660, 26.99688
371.6481, 26.40771
372.1302, 26.12367
372.6123, 25.81042
373.0944, 25.19215
373.5765, 24.38123
374.0587, 23.60970
374.5408, 22.94491
375.0229, 22.38366
375.5050, 22.00573
375.9871, 21.85416
376.4692, 21.51244
376.9514, 20.55858
377.4335, 19.40147
377.9156, 18.66463
378.3977, 18.52087
378.8798, 18.48092
379.3619, 18.19161
379.8441, 17.70524
380.3262, 17.25209
380.8083, 16.90410
381.2904, 16.59024
381.7725, 16.20416
382.2546, 15.74957
382.7368, 15.34039
383.2189, 15.03709
383.7010, 14.78849
384.1831, 14.51181
384.6652, 14.19384
385.1473, 13.91775
385.6295, 13.78469
386.1116, 13.76089
386.5937, 13.61284
387.0758, 13.15243
387.5579, 12.73227
388.0400, 12.60890
388.5222, 12.71451
389.0043, 12.82945
389.4864, 12.87352
389.9685, 12.82911
390.4506, 12.62172
390.9327, 12.16553
391.4149, 11.76932
391.8970, 11.53002
392.3791, 11.36866
392.8612, 11.20425
393.3433, 11.01719
393.8254, 10.80307
394.3076, 10.55112
394.7897, 10.24728
395.2718, 9.985441
395.7539, 9.743805
396.2360, 9.557960
396.7181, 9.479136
397.2003, 9.478201
397.6824, 9.468876
398.1645, 9.390454
398.6466, 9.269348
399.1287, 9.239794
399.6108, 9.441210
400.0930, 9.566119
400.5751, 9.567923
401.0572, 9.485450
401.5393, 9.332805
402.0214, 9.124045
402.5035, 8.920671
402.9857, 8.826463
403.4678, 8.912767
403.9499, 8.900273
404.4320, 8.690500
404.9141, 8.485051
405.3962, 8.386279
405.8784, 8.380988
406.3605, 8.403728
406.8426, 8.410091
407.3247, 8.400535
407.8068, 8.371803
408.2889, 8.261000
408.7711, 8.227736
409.2532, 8.437675
409.7353, 8.676960
410.2174, 8.662971
410.6995, 8.296408
411.1816, 7.846247
411.6638, 7.728539
412.1459, 8.013157
412.6280, 8.253707
413.1101, 8.383637
413.5922, 8.457463
414.0743, 8.490376
414.5565, 8.489297
415.0386, 8.471109
415.5207, 8.441513
416.0028, 8.403609
416.4849, 8.358367
416.9670, 8.283288
417.4492, 8.258084
417.9313, 8.400359
418.4134, 8.593291
418.8955, 8.666365
419.3776, 8.526667
419.8597, 8.381598
420.3419, 8.477772
420.8240, 8.783525
421.3061, 8.991095
421.7882, 8.968781
422.2703, 8.875551
422.7524, 8.911515
423.2346, 9.071957
423.7167, 9.219707
424.1988, 9.272162
424.6809, 9.298632
425.1630, 9.429095
425.6451, 9.676455
426.1273, 9.860106
426.6094, 9.818329
427.0915, 9.594816
427.5736, 9.468231
428.0557, 9.453138
428.5378, 9.514811
429.0200, 9.702999
429.5021, 9.951620
429.9842, 10.09615
430.4663, 10.06636
430.9484, 10.00020
431.4305, 10.13481
431.9127, 10.59630
432.3948, 10.96027
432.8769, 11.26049
433.3590, 11.43267
433.8411, 11.31000
434.3232, 10.97558
434.8054, 10.76459
435.2875, 10.95677
435.7696, 11.50386
436.2517, 11.90297
436.7338, 12.06265
437.2159, 12.17483
437.6981, 12.12228
438.1802, 12.09938
438.6623, 12.38465
439.1444, 13.04854
439.6265, 13.82207
440.1086, 14.27003
440.5908, 14.24736
441.0729, 14.37547
441.5550, 14.68332
442.0371, 15.12107
442.5192, 15.72435
443.0013, 16.44546
443.4835, 17.18614
443.9656, 17.89097
444.4477, 18.56053
444.9298, 19.16434
445.4119, 19.67202
445.8940, 20.19871
446.3762, 20.75004
446.8583, 21.35668
447.3404, 22.04539
447.8225, 22.82031
448.3046, 23.66703
448.7867, 24.61658
449.2689, 25.63861
449.7510, 26.56900
450.2331, 27.35069
450.7152, 28.10364
451.1973, 28.93644
451.6794, 29.81661
452.1616, 30.66730
452.6437, 31.45819
453.1258, 32.21669
453.6079, 32.90836
454.0900, 33.56029
454.5721, 34.36992
455.0543, 35.48093
455.5364, 36.71668
456.0185, 37.68729
456.5006, 38.31097
456.9827, 39.03277
457.4648, 40.02160
457.9470, 41.11821
458.4291, 42.23869
458.9112, 43.33953
459.3933, 44.22508
459.8754, 44.66148
460.3575, 44.67505
460.8397, 45.20646
461.3218, 46.81899
461.8039, 48.20201
462.2860, 48.89892
462.7681, 49.20644
463.2502, 49.52412
463.7324, 49.99408
464.2145, 50.49588
464.6966, 50.84205
465.1787, 51.00393
465.6608, 51.08511
466.1429, 50.98841
466.6251, 50.90861
467.1072, 50.97849
467.5893, 51.13548
468.0714, 51.23085
468.5535, 51.17660
469.0356, 50.99139
469.5178, 50.73857
469.9999, 50.44295
470.4820, 50.00713
470.9641, 49.34152
471.4462, 48.56401
471.9283, 47.67365
472.4105, 46.69306
472.8926, 45.86787
473.3747, 45.55408
473.8568, 45.56878
474.3389, 45.16889
474.8210, 44.16444
475.3032, 43.17804
475.7853, 42.76647
476.2674, 42.64147
476.7495, 42.23536
477.2316, 41.33186
477.7137, 40.33361
478.1959, 39.54317
478.6780, 38.88477
479.1601, 38.14001
479.6422, 37.26340
480.1243, 36.22282
480.6064, 34.91963
481.0886, 33.28098
481.5707, 31.86693
482.0528, 30.85430
482.5349, 29.95205
483.0170, 29.02332
483.4991, 28.04884
483.9813, 27.01168
484.4634, 25.89002
484.9455, 24.72578
485.4276, 23.63403
485.9097, 22.57062
486.3918, 21.66278
486.8740, 20.96800
487.3561, 20.37515
487.8382, 19.83113
488.3203, 19.31170
488.8024, 18.79355
489.2845, 18.25439
489.7667, 17.69353
490.2488, 17.08688
490.7309, 16.28071
491.2130, 15.68957
491.6951, 15.54651
492.1772, 15.57668
492.6594, 15.51953
493.1415, 15.30936
493.6236, 14.98994
494.1057, 14.55920
494.5878, 14.03433
495.0699, 13.57034
495.5521, 13.17068
496.0342, 12.86077
496.5163, 12.71197
496.9984, 12.66522
497.4805, 12.59973
497.9626, 12.52123
498.4448, 12.37570
498.9269, 12.06183
499.4090, 11.63306
499.8911, 11.28071
500.3732, 11.07280
500.8553, 10.95851
501.3375, 10.86785
501.8196, 10.79705
502.3017, 10.77575
502.7838, 10.84878
503.2659, 10.93533
503.7480, 11.03273
504.2302, 11.10122
504.7123, 11.02699
505.1944, 10.73213
505.6765, 10.30751
506.1586, 10.01804
506.6407, 9.908657
507.1228, 9.873284
507.6049, 10.00085
508.0871, 10.12125
508.5692, 10.09319
509.0513, 9.935695
509.5334, 9.778279
510.0155, 9.721193
510.4977, 9.746760
510.9798, 9.780340
511.4619, 9.849881
511.9440, 9.863363
512.4261, 9.761233
512.9083, 9.608652
513.3904, 9.422457
513.8725, 9.205250
514.3546, 9.086689
514.8367, 9.287792
515.3188, 9.656204
515.8010, 9.721546
516.2831, 9.392009
516.7652, 9.003778
517.2473, 8.753453
517.7294, 8.628312
518.2115, 8.557809
518.6937, 8.511800
519.1758, 8.563143
519.6579, 8.874383
520.1400, 9.265925
520.6221, 9.419693
521.1042, 9.263737
521.5864, 8.990053
522.0685, 8.789694
522.5506, 8.661327
523.0327, 8.627730
523.5148, 8.808473
523.9969, 8.933041
524.4791, 8.886225
524.9612, 8.741705
525.4433, 8.598652
525.9254, 8.494931
526.4075, 8.412080
526.8896, 8.299334
527.3718, 8.120505
527.8539, 8.109143
528.3360, 8.485011
528.8181, 8.789477
529.3002, 8.780993
529.7823, 8.576838
530.2645, 8.397131
530.7466, 8.324258
531.2287, 8.321101
531.7108, 8.385094
532.1929, 8.506031
532.6750, 8.501322
533.1572, 8.248890
533.6393, 7.990538
534.1214, 8.036532
534.6035, 8.334350
535.0856, 8.565610
535.5677, 8.685126
536.0499, 8.699885
536.5320, 8.532630
537.0141, 8.257680
537.4962, 8.106161
537.9783, 8.184581
538.4604, 8.372046
538.9426, 8.450720
539.4247, 8.339229
539.9068, 8.332571
540.3889, 8.531754
540.8710, 8.731454
541.3531, 8.816618
541.8353, 8.815330
542.3174, 8.817103
542.7995, 8.872707
543.2816, 8.944104
543.7637, 8.927841
544.2458, 8.772537
544.7280, 8.702113
545.2101, 8.847036
545.6922, 8.997813
546.1743, 9.016088
546.6564, 8.936102
547.1385, 8.897218
547.6207, 9.017834
548.1028, 9.173739
548.5849, 9.128428
549.0670, 8.892722
549.5491, 8.781885
550.0313, 8.958014
550.5134, 9.236826
550.9955, 9.317676
551.4776, 9.191076
551.9597, 9.143994
552.4418, 9.292285
552.9240, 9.488366
553.4061, 9.652540
553.8882, 9.766654
554.3703, 9.792752
554.8524, 9.705781
555.3345, 9.555004
555.8167, 9.450262
556.2988, 9.390579
556.7809, 9.384040
557.2630, 9.442980
557.7451, 9.535587
558.2272, 9.705295
558.7094, 9.893282
559.1915, 9.965403
559.6736, 9.835286
560.1557, 9.579348
560.6378, 9.311973
561.1199, 9.004658
561.6021, 8.887175
562.0842, 9.140631
562.5663, 9.465873
563.0484, 9.631658
563.5305, 9.652579
564.0126, 9.618008
564.4948, 9.538527
564.9769, 9.435171
565.4590, 9.300452
565.9411, 9.152246
566.4232, 9.088983
566.9053, 9.166198
567.3875, 9.280468
567.8696, 9.260339
568.3517, 9.035804
568.8338, 8.915615
569.3159, 8.920786
569.7980, 9.008937
570.2802, 9.256331
570.7623, 9.554818
571.2444, 9.675058
571.7265, 9.509598
572.2086, 9.242731
572.6907, 9.240390
573.1729, 9.605038
573.6550, 9.819398
574.1371, 9.752087
574.6192, 9.639635
575.1013, 9.564404
575.5834, 9.526656
576.0656, 9.521869
576.5477, 9.556453
577.0298, 9.604045
577.5119, 9.605494
577.9940, 9.583792
578.4761, 9.685911
578.9583, 9.978820
579.4404, 10.28911
579.9225, 10.44700
580.4046, 10.45551
580.8867, 10.45937
581.3688, 10.50388
581.8510, 10.49796
582.3331, 10.31402
582.8152, 10.08569
583.2973, 10.04531
583.7794, 10.24431
584.2615, 10.49251
584.7437, 10.55983
585.2258, 10.43330
585.7079, 10.35729
586.1900, 10.35901
586.6721, 10.37957
587.1542, 10.39343
587.6363, 10.42343
588.1184, 10.50056
588.6005, 10.63121
589.0826, 10.78104
589.5648, 10.95034
590.0469, 11.11629
590.5290, 11.17389
591.0111, 11.09445
591.4932, 11.02014
591.9753, 11.01448
592.4575, 11.07901
