##NAMES=Saleeite
##RRUFFID=R070618
##IDEAL CHEMISTRY=Mg(U^6+^O_2_)_2_(PO_4_)_2_&#183;10H_2_O
##LOCALITY=Shinkolobwe mine, near Kolweze, Katanga, Zaire
##OWNER=RRUFF
##SOURCE=James Shigley
##DESCRIPTION=Lemon-yellow platy aggregates, associated with green metatorbernite
##STATUS=The identification of this mineral is confirmed by single-crystal X-ray diffraction and chemical analysis.
##URL=rruff.info/R070618
##MEASURED CHEMISTRY=Mg_1.00_(UO_2_)_1.96_(PO_4_)_2.04_Â·5.01H_2_O
136.8755, 1854.496
137.3576, 1848.608
137.8397, 1843.243
138.3218, 1837.975
138.8040, 1838.984
139.2861, 1851.228
139.7682, 1864.519
140.2503, 1872.746
140.7324, 1875.538
141.2145, 1876.626
141.6967, 1879.385
142.1788, 1883.314
142.6609, 1893.280
143.1430, 1914.031
143.6251, 1939.318
144.1072, 1961.471
144.5894, 1978.336
145.0715, 1993.552
145.5536, 2014.356
146.0357, 2041.897
146.5178, 2065.089
146.9999, 2074.142
147.4821, 2074.007
147.9642, 2082.571
148.4463, 2107.972
148.9284, 2143.160
149.4105, 2177.286
149.8927, 2209.841
150.3748, 2242.626
150.8569, 2277.309
151.3390, 2313.865
151.8211, 2351.118
152.3032, 2387.061
152.7854, 2424.213
153.2675, 2465.016
153.7496, 2510.926
154.2317, 2559.050
154.7138, 2604.277
155.1959, 2646.645
155.6781, 2685.298
156.1602, 2716.513
156.6423, 2745.282
157.1244, 2777.964
157.6065, 2818.993
158.0886, 2865.916
158.5708, 2906.160
159.0529, 2928.835
159.5350, 2956.408
160.0171, 2998.551
160.4992, 3049.332
160.9813, 3097.991
161.4635, 3136.181
161.9456, 3163.292
162.4277, 3187.980
162.9098, 3209.367
163.3919, 3229.278
163.8740, 3250.539
164.3562, 3271.631
164.8383, 3287.387
165.3204, 3291.188
165.8025, 3277.489
166.2846, 3272.288
166.7667, 3284.294
167.2489, 3297.751
167.7310, 3300.832
168.2131, 3291.700
168.6952, 3277.853
169.1773, 3268.886
169.6594, 3265.064
170.1416, 3267.099
170.6237, 3277.158
171.1058, 3292.387
171.5879, 3308.196
172.0700, 3322.527
172.5521, 3340.266
173.0343, 3372.504
173.5164, 3420.208
173.9985, 3472.631
174.4806, 3522.584
174.9627, 3574.674
175.4448, 3640.319
175.9270, 3724.395
176.4091, 3823.883
176.8912, 3929.982
177.3733, 4041.271
177.8554, 4161.132
178.3375, 4288.012
178.8197, 4422.634
179.3018, 4579.406
179.7839, 4775.992
180.2660, 4992.681
180.7481, 5197.078
181.2302, 5378.407
181.7124, 5562.103
182.1945, 5774.602
182.6766, 6017.229
183.1587, 6278.119
183.6408, 6558.121
184.1229, 6851.170
184.6051, 7151.816
185.0872, 7454.286
185.5693, 7768.537
186.0514, 8114.308
186.5335, 8498.283
187.0156, 8902.188
187.4978, 9296.749
187.9799, 9706.892
188.4620, 10171.89
188.9441, 10718.16
189.4262, 11327.06
189.9083, 11920.29
190.3905, 12524.98
190.8726, 13072.12
191.3547, 13574.84
191.8368, 14013.13
192.3189, 14365.08
192.8010, 14624.48
193.2832, 14789.54
193.7653, 14801.18
194.2474, 14587.48
194.7295, 14263.96
195.2116, 13808.79
195.6937, 13258.92
196.1759, 12680.60
196.6580, 12128.01
197.1401, 11601.49
197.6222, 11076.60
198.1043, 10530.30
198.5864, 10004.94
199.0686, 9518.842
199.5507, 9068.053
200.0328, 8639.458
200.5149, 8222.885
200.9970, 7819.664
201.4791, 7417.471
201.9613, 7004.851
202.4434, 6600.560
202.9255, 6211.522
203.4076, 5841.551
203.8897, 5489.996
204.3718, 5157.708
204.8540, 4844.361
205.3361, 4563.471
205.8182, 4328.011
206.3003, 4114.166
206.7824, 3898.660
207.2645, 3677.713
207.7467, 3471.124
208.2288, 3307.679
208.7109, 3208.457
209.1930, 3103.977
209.6751, 2980.579
210.1572, 2855.248
210.6394, 2747.382
211.1215, 2662.615
211.6036, 2590.497
212.0857, 2514.179
212.5678, 2429.657
213.0499, 2355.705
213.5321, 2297.763
214.0142, 2251.850
214.4963, 2212.240
214.9784, 2178.222
215.4605, 2147.830
215.9426, 2117.368
216.4248, 2085.556
216.9069, 2058.311
217.3890, 2039.927
217.8711, 2027.635
218.3532, 2015.791
218.8353, 2003.361
219.3175, 1989.231
219.7996, 1970.487
220.2817, 1945.512
220.7638, 1923.525
221.2459, 1913.513
221.7280, 1911.492
222.2102, 1900.657
222.6923, 1871.019
223.1744, 1835.062
223.6565, 1809.880
224.1386, 1796.235
224.6207, 1788.823
225.1029, 1789.003
225.5850, 1795.158
226.0671, 1792.507
226.5492, 1770.645
227.0313, 1742.009
227.5134, 1722.174
227.9956, 1713.902
228.4777, 1706.159
228.9598, 1687.931
229.4419, 1659.321
229.9240, 1634.204
230.4061, 1619.623
230.8883, 1608.966
231.3704, 1597.411
231.8525, 1584.953
232.3346, 1568.593
232.8167, 1543.344
233.2988, 1508.100
233.7810, 1474.794
234.2631, 1448.645
234.7452, 1425.196
235.2273, 1401.911
235.7094, 1378.794
236.1915, 1353.741
236.6737, 1322.045
237.1558, 1281.448
237.6379, 1246.594
238.1200, 1225.629
238.6021, 1209.875
239.0842, 1193.563
239.5664, 1175.253
240.0485, 1156.593
240.5306, 1139.190
241.0127, 1122.042
241.4948, 1109.716
241.9769, 1107.896
242.4591, 1108.638
242.9412, 1105.896
243.4233, 1097.796
243.9054, 1087.461
244.3875, 1078.571
244.8696, 1069.248
245.3518, 1067.101
245.8339, 1080.489
246.3160, 1097.165
246.7981, 1107.719
247.2802, 1109.060
247.7623, 1105.086
248.2445, 1101.483
248.7266, 1097.033
249.2087, 1096.147
249.6908, 1099.559
250.1729, 1106.242
250.6550, 1115.850
251.1372, 1128.298
251.6193, 1142.727
252.1014, 1157.331
252.5835, 1169.651
253.0656, 1187.752
253.5477, 1217.747
254.0299, 1250.136
254.5120, 1277.339
254.9941, 1296.900
255.4762, 1312.125
255.9583, 1328.675
256.4405, 1345.617
256.9226, 1366.155
257.4047, 1392.904
257.8868, 1421.426
258.3689, 1449.307
258.8510, 1475.574
259.3332, 1498.920
259.8153, 1516.687
260.2974, 1526.770
260.7795, 1534.833
261.2616, 1541.464
261.7437, 1546.637
262.2259, 1549.307
262.7080, 1549.425
263.1901, 1549.525
263.6722, 1554.449
264.1543, 1567.389
264.6364, 1579.132
265.1186, 1588.822
265.6007, 1597.533
266.0828, 1605.392
266.5649, 1612.649
267.0470, 1620.757
267.5291, 1631.788
268.0113, 1644.735
268.4934, 1663.396
268.9755, 1688.926
269.4576, 1718.335
269.9397, 1751.471
270.4218, 1787.448
270.9040, 1822.749
271.3861, 1850.265
271.8682, 1862.117
272.3503, 1882.621
272.8324, 1912.346
273.3145, 1948.683
273.7967, 1991.991
274.2788, 2041.482
274.7609, 2092.881
275.2430, 2140.036
275.7251, 2178.161
276.2072, 2222.647
276.6894, 2277.690
277.1715, 2334.402
277.6536, 2385.904
278.1357, 2431.658
278.6178, 2477.135
279.0999, 2531.159
279.5821, 2602.744
280.0642, 2656.199
280.5463, 2685.740
281.0284, 2705.528
281.5105, 2721.607
281.9926, 2735.504
282.4748, 2747.535
282.9569, 2760.488
283.4390, 2781.604
283.9211, 2774.636
284.4032, 2730.781
284.8853, 2671.017
285.3675, 2599.669
285.8496, 2520.706
286.3317, 2440.053
286.8138, 2364.474
287.2959, 2294.594
287.7780, 2223.385
288.2602, 2151.170
288.7423, 2077.781
289.2244, 1999.907
289.7065, 1919.866
290.1886, 1844.022
290.6707, 1779.154
291.1529, 1726.378
291.6350, 1670.249
292.1171, 1606.820
292.5992, 1543.845
293.0813, 1481.971
293.5634, 1422.856
294.0456, 1369.563
294.5277, 1325.038
295.0098, 1289.212
295.4919, 1252.828
295.9740, 1210.116
296.4561, 1173.142
296.9383, 1149.103
297.4204, 1132.771
297.9025, 1114.052
298.3846, 1085.265
298.8667, 1048.576
299.3488, 1022.133
299.8310, 1015.935
300.3131, 1009.736
300.7952, 1000.555
301.2773, 988.8964
301.7594, 975.2517
302.2415, 959.6243
302.7237, 943.1617
303.2058, 930.5250
303.6879, 923.9411
304.1700, 918.4692
304.6521, 914.0696
305.1342, 909.9957
305.6164, 906.1512
306.0985, 902.6284
306.5806, 897.8590
307.0627, 886.7723
307.5448, 860.7278
308.0269, 843.5398
308.5091, 843.8907
308.9912, 850.2577
309.4733, 851.8066
309.9554, 844.8148
310.4375, 834.3928
310.9196, 830.4008
311.4018, 837.8723
311.8839, 840.0500
312.3660, 831.5291
312.8481, 820.2488
313.3302, 810.3680
313.8123, 803.2580
314.2945, 799.9811
314.7766, 803.4078
315.2587, 816.5750
315.7408, 825.6094
316.2229, 828.3369
316.7050, 827.6168
317.1872, 824.9282
317.6693, 820.3045
318.1514, 812.6246
318.6335, 797.4591
319.1156, 772.6921
319.5977, 759.2253
320.0799, 771.6335
320.5620, 783.8422
321.0441, 782.9725
321.5262, 771.0266
322.0083, 758.3015
322.4904, 753.7067
322.9726, 756.7417
323.4547, 757.0303
323.9368, 754.2617
324.4189, 748.7255
324.9010, 737.3312
325.3831, 723.4085
325.8653, 714.3950
326.3474, 717.4204
326.8295, 728.3774
327.3116, 731.0161
327.7937, 720.1305
328.2758, 710.3646
328.7580, 709.8635
329.2401, 714.0101
329.7222, 716.0963
330.2043, 713.0849
330.6864, 706.7606
331.1685, 698.9308
331.6507, 687.5488
332.1328, 681.6563
332.6149, 693.7528
333.0970, 710.0200
333.5791, 715.2504
334.0612, 702.9487
334.5434, 684.9584
335.0255, 675.2600
335.5076, 674.4650
335.9897, 672.5766
336.4718, 663.6074
336.9539, 653.7470
337.4361, 649.8183
337.9182, 653.1292
338.4003, 658.5258
338.8824, 663.9262
339.3645, 668.8020
339.8466, 668.6591
340.3288, 659.5179
340.8109, 648.4272
341.2930, 643.4075
341.7751, 644.5417
342.2572, 646.6750
342.7393, 647.1725
343.2215, 646.8658
343.7036, 648.5895
344.1857, 654.1254
344.6678, 658.2474
345.1499, 650.9983
345.6320, 634.8342
346.1142, 627.0987
346.5963, 640.2137
347.0784, 660.4427
347.5605, 670.3369
348.0426, 667.9667
348.5247, 661.8919
349.0069, 658.5867
349.4890, 657.5228
349.9711, 654.4125
350.4532, 646.1473
350.9353, 638.0333
351.4174, 633.8436
351.8996, 633.3660
352.3817, 634.8250
352.8638, 637.5542
353.3459, 641.3024
353.8280, 644.7689
354.3102, 647.6545
354.7923, 650.6166
355.2744, 653.9807
355.7565, 657.5760
356.2386, 661.6094
356.7207, 666.5061
357.2029, 670.7587
357.6850, 670.2180
358.1671, 659.9565
358.6492, 653.0270
359.1313, 653.1217
359.6134, 656.3369
360.0956, 658.3692
360.5777, 658.0318
361.0598, 656.8184
361.5419, 656.8344
362.0240, 658.3129
362.5061, 660.6964
362.9883, 665.3087
363.4704, 669.7606
363.9525, 672.1858
364.4346, 672.6545
364.9167, 672.5230
365.3988, 672.8567
365.8810, 673.4365
366.3631, 676.5767
366.8452, 689.3217
367.3273, 697.3838
367.8094, 691.7407
368.2915, 677.5087
368.7737, 665.6533
369.2558, 663.4740
369.7379, 669.5140
370.2200, 675.2458
370.7021, 681.5769
371.1842, 686.3251
371.6664, 689.3502
372.1485, 690.5939
372.6306, 689.4629
373.1127, 685.6279
373.5948, 680.7289
374.0769, 678.3428
374.5591, 680.0447
375.0412, 679.9857
375.5233, 677.4720
376.0054, 672.8218
376.4875, 664.5831
376.9696, 653.0143
377.4518, 642.6846
377.9339, 639.1348
378.4160, 642.5605
378.8981, 645.5381
379.3802, 646.5610
379.8623, 647.8789
380.3445, 653.1123
380.8266, 660.5375
381.3087, 663.4401
381.7908, 654.2133
382.2729, 637.4037
382.7550, 626.3080
383.2372, 622.1624
383.7193, 621.2155
384.2014, 623.3892
384.6835, 626.8940
385.1656, 628.3946
385.6477, 625.4853
386.1299, 621.6016
386.6120, 620.9011
387.0941, 623.2659
387.5762, 624.8123
388.0583, 622.8092
388.5404, 619.4772
389.0226, 619.6256
389.5047, 624.9093
389.9868, 630.0025
390.4689, 631.0558
390.9510, 630.0558
391.4331, 632.1713
391.9153, 639.5590
392.3974, 648.2416
392.8795, 651.3469
393.3616, 646.6624
393.8437, 646.5395
394.3258, 654.3348
394.8080, 666.3252
395.2901, 681.1483
395.7722, 697.8682
396.2543, 711.3961
396.7364, 716.2352
397.2185, 711.3528
397.7007, 712.1633
398.1828, 719.1807
398.6649, 730.3325
399.1470, 748.1798
399.6291, 769.4534
400.1112, 786.7054
400.5934, 795.1016
401.0755, 798.0973
401.5576, 810.1297
402.0397, 844.0980
402.5218, 870.8226
403.0039, 890.2559
403.4861, 900.5214
403.9682, 897.5738
404.4503, 880.9221
404.9324, 857.8078
405.4145, 839.8761
405.8966, 831.0419
406.3788, 814.7150
406.8609, 780.9793
407.3430, 747.4618
407.8251, 722.6339
408.3072, 706.2220
408.7893, 693.2942
409.2715, 681.5926
409.7536, 670.5586
410.2357, 654.8536
410.7178, 630.2233
411.1999, 608.2078
411.6820, 594.6403
412.1642, 586.6349
412.6463, 580.0269
413.1284, 573.1712
413.6105, 567.0935
414.0926, 563.5499
414.5747, 562.6927
415.0569, 562.3582
415.5390, 563.4551
416.0211, 563.3212
416.5032, 557.0454
416.9853, 541.9838
417.4674, 531.3683
417.9496, 537.1429
418.4317, 552.4788
418.9138, 560.7305
419.3959, 557.5828
419.8780, 549.7614
420.3601, 543.8775
420.8423, 539.9546
421.3244, 537.1807
421.8065, 536.0986
422.2886, 535.6804
422.7707, 536.1859
423.2528, 537.0261
423.7350, 534.7402
424.2171, 525.4467
424.6992, 511.1034
425.1813, 508.4207
425.6634, 530.4942
426.1455, 546.8854
426.6277, 547.0060
427.1098, 538.5006
427.5919, 531.6283
428.0740, 530.2663
428.5561, 532.1956
429.0382, 533.5598
429.5204, 534.5557
430.0025, 534.5118
430.4846, 532.8348
430.9667, 530.7867
431.4488, 529.2009
431.9309, 528.0276
432.4131, 526.6480
432.8952, 524.3163
433.3773, 521.1319
433.8594, 518.9573
434.3415, 518.5330
434.8236, 518.1108
435.3058, 516.5602
435.7879, 514.7635
436.2700, 514.0013
436.7521, 514.8273
437.2342, 516.7670
437.7163, 519.8304
438.1985, 524.2983
438.6806, 526.9025
439.1627, 526.5112
439.6448, 523.7741
440.1269, 518.4045
440.6090, 510.0155
441.0912, 504.1198
441.5733, 506.6760
442.0554, 513.3362
442.5375, 514.2289
443.0196, 507.2081
443.5017, 498.9352
443.9839, 494.8689
444.4660, 494.9724
444.9481, 496.1773
445.4302, 499.5391
445.9123, 502.9004
446.3944, 505.1313
446.8766, 506.2711
447.3587, 506.5023
447.8408, 505.8675
448.3229, 504.5278
448.8050, 502.9527
449.2871, 502.1912
449.7693, 499.7425
450.2514, 491.4153
450.7335, 483.7701
451.2156, 484.6714
451.6977, 494.4655
452.1798, 505.2728
452.6620, 508.0818
453.1441, 501.9156
453.6262, 495.3853
454.1083, 484.1878
454.5904, 477.0853
455.0725, 480.0710
455.5547, 488.6978
456.0368, 495.2499
456.5189, 495.7993
457.0010, 491.5609
457.4832, 483.3349
457.9653, 468.3649
458.4474, 459.6248
458.9295, 467.4503
459.4116, 479.1718
459.8937, 484.9349
460.3759, 483.4880
460.8580, 479.4184
461.3401, 475.1626
461.8222, 470.7404
462.3043, 465.5067
462.7864, 458.4733
463.2686, 453.7769
463.7507, 456.5362
464.2328, 465.3248
464.7149, 472.4124
465.1970, 477.7788
465.6791, 480.4078
466.1613, 477.8526
466.6434, 471.6742
467.1255, 467.0559
467.6076, 466.6512
468.0897, 468.7744
468.5718, 469.2826
469.0540, 467.1022
469.5361, 464.9368
470.0182, 461.5718
470.5003, 459.1143
470.9824, 460.8358
471.4645, 466.1804
471.9467, 470.2143
472.4288, 467.3506
472.9109, 457.2168
473.3930, 451.9085
473.8751, 456.2356
474.3572, 460.2399
474.8394, 461.7971
475.3215, 461.3943
475.8036, 459.7344
476.2857, 457.0237
476.7678, 453.7037
477.2499, 449.5969
477.7321, 444.2220
478.2142, 442.4069
478.6963, 447.8913
479.1784, 454.8109
479.6605, 458.4211
480.1426, 458.7855
480.6248, 458.6146
481.1069, 459.4351
481.5890, 460.4674
482.0711, 460.5182
482.5532, 459.5109
483.0353, 457.4265
483.5175, 453.5185
483.9996, 448.6253
484.4817, 446.2299
484.9638, 448.6169
485.4459, 450.5280
485.9280, 449.6997
486.4102, 447.3727
486.8923, 445.1143
487.3744, 443.4232
487.8565, 442.6499
488.3386, 443.6360
488.8207, 447.7976
489.3029, 448.5782
489.7850, 443.7510
490.2671, 438.3488
490.7492, 433.1743
491.2313, 429.3081
491.7134, 428.8984
492.1956, 433.7844
492.6777, 441.4955
493.1598, 444.5324
493.6419, 440.3284
494.1240, 438.1781
494.6061, 443.2627
495.0883, 449.2058
495.5704, 451.2477
496.0525, 448.8650
496.5346, 445.2940
497.0167, 441.0133
497.4988, 437.3401
497.9810, 439.5554
498.4631, 449.7950
498.9452, 458.6232
499.4273, 457.2794
499.9094, 449.0293
500.3915, 446.2331
500.8737, 456.1914
501.3558, 464.7292
501.8379, 462.9239
502.3200, 454.6412
502.8021, 447.4969
503.2842, 444.0104
503.7664, 442.8304
504.2485, 442.0629
504.7306, 441.9726
505.2127, 441.5111
505.6948, 437.6206
506.1769, 436.1877
506.6591, 443.2513
507.1412, 455.4460
507.6233, 464.2791
508.1054, 464.1709
508.5875, 457.7810
509.0696, 452.6406
509.5518, 447.5875
510.0339, 446.7159
510.5160, 456.1050
510.9981, 466.4220
511.4802, 470.8126
511.9623, 468.5115
512.4445, 463.4492
512.9266, 456.5567
513.4087, 449.1383
513.8908, 445.2260
514.3729, 445.5615
514.8550, 447.1695
515.3372, 448.9987
515.8193, 450.4765
516.3014, 449.8382
516.7835, 444.0363
517.2656, 439.8906
517.7477, 441.7523
518.2299, 447.0049
518.7120, 451.6732
519.1941, 454.6042
519.6762, 455.6478
520.1583, 454.2815
520.6404, 449.5349
521.1226, 446.7413
521.6047, 447.4691
522.0868, 448.2101
522.5689, 447.0975
523.0510, 445.0221
523.5331, 443.6029
524.0153, 443.5723
524.4974, 445.0013
524.9795, 449.1673
525.4616, 457.6876
525.9437, 461.6417
526.4258, 455.8544
526.9080, 447.9065
527.3901, 441.8675
527.8722, 438.1177
528.3543, 437.5890
528.8364, 442.2677
529.3185, 449.7400
529.8007, 457.2933
530.2828, 464.7968
530.7649, 469.8258
531.2470, 470.7736
531.7291, 468.6325
532.2112, 465.9891
532.6934, 462.6118
533.1755, 459.2954
533.6576, 456.0036
534.1397, 452.9807
534.6218, 450.1126
535.1039, 447.6022
535.5861, 446.3253
536.0682, 447.2064
536.5503, 450.1478
537.0324, 453.0237
537.5145, 456.3015
537.9966, 458.8623
538.4788, 459.6059
538.9609, 459.9865
539.4430, 461.9753
539.9251, 466.0534
540.4072, 469.8796
540.8893, 469.2302
541.3715, 465.2083
541.8536, 467.9546
542.3357, 481.8065
542.8178, 494.6292
543.2999, 496.1234
543.7820, 489.5425
544.2642, 482.8240
544.7463, 474.5748
545.2284, 469.3011
545.7105, 469.4416
546.1926, 474.6122
546.6747, 485.8506
547.1569, 503.6962
547.6390, 521.8569
548.1211, 531.4257
548.6032, 529.7502
549.0853, 529.7582
549.5674, 531.9100
550.0496, 534.9680
550.5317, 539.0877
551.0138, 543.6400
551.4959, 546.6945
551.9780, 546.9059
552.4601, 548.3481
552.9423, 561.4464
553.4244, 589.6484
553.9065, 606.9493
554.3886, 603.3772
554.8707, 593.5480
555.3528, 586.2858
555.8350, 581.9495
556.3171, 582.0295
556.7992, 590.5401
557.2813, 601.3263
557.7634, 608.4772
558.2455, 612.1552
558.7277, 613.7742
559.2098, 614.0735
559.6919, 612.2375
560.1740, 606.2400
560.6561, 592.1934
561.1382, 582.5667
561.6204, 583.7103
562.1025, 584.0272
562.5846, 573.8683
563.0667, 555.9604
563.5488, 539.8932
564.0309, 531.8951
564.5131, 529.3029
564.9952, 523.9101
565.4773, 513.6844
565.9594, 506.5849
566.4415, 509.5365
566.9236, 512.2742
567.4058, 505.4850
567.8879, 490.1209
568.3700, 478.4577
568.8521, 480.8854
569.3342, 488.9649
569.8163, 489.8501
570.2985, 483.5677
570.7806, 475.6299
571.2627, 467.7457
571.7448, 461.0784
572.2269, 458.9140
572.7090, 463.6626
573.1912, 467.4900
573.6733, 471.3576
574.1554, 472.8175
574.6375, 467.8987
575.1196, 458.2831
575.6017, 450.4619
576.0839, 449.3733
576.5660, 452.9168
577.0481, 452.4803
577.5302, 445.1127
578.0123, 440.8713
578.4944, 446.1854
578.9766, 452.4508
579.4587, 452.2069
579.9408, 445.5930
580.4229, 440.9181
580.9050, 445.6105
581.3871, 453.8729
581.8693, 456.5931
582.3514, 453.5931
582.8335, 447.3766
583.3156, 437.4314
583.7977, 427.1554
584.2798, 425.6988
584.7620, 439.4219
585.2441, 448.5752
585.7262, 450.0271
586.2083, 447.3711
586.6904, 439.9391
587.1725, 430.3996
587.6547, 426.3798
588.1368, 434.2124
588.6189, 449.3359
589.1010, 455.4793
589.5831, 448.8919
590.0652, 444.0199
590.5474, 445.3433
591.0295, 448.6410
591.5116, 451.5721
591.9937, 453.8891
592.4758, 455.1571
592.9579, 453.5974
593.4401, 451.7733
593.9222, 455.2015
594.4043, 462.7472
594.8864, 464.1812
595.3685, 452.8654
595.8506, 436.5284
596.3328, 431.6087
596.8149, 447.5475
597.2970, 456.3843
597.7791, 453.0417
598.2612, 446.9693
598.7433, 442.6845
599.2255, 440.7136
599.7076, 440.7956
600.1897, 443.1096
600.6718, 446.2965
601.1539, 447.3470
601.6360, 445.9975
602.1182, 443.9674
602.6003, 440.3917
603.0824, 437.5412
603.5645, 438.0604
604.0466, 441.2372
604.5287, 442.8978
605.0109, 439.2990
605.4930, 435.7419
605.9751, 437.6348
606.4572, 443.3102
606.9393, 447.3186
607.4214, 447.5160
607.9036, 446.8362
608.3857, 450.4351
608.8678, 461.5693
609.3499, 465.1200
609.8320, 450.4532
610.3141, 440.1605
610.7963, 449.0989
611.2784, 466.4453
611.7605, 472.5386
612.2426, 458.5703
612.7247, 440.3148
613.2068, 439.3633
613.6890, 453.7338
614.1711, 463.3728
614.6532, 464.9648
615.1353, 463.1181
615.6174, 459.6644
616.0995, 455.4881
616.5817, 454.6656
617.0638, 460.9154
617.5459, 466.5084
618.0280, 467.6688
618.5101, 466.7275
618.9922, 467.1432
619.4744, 469.4823
619.9565, 471.4788
620.4386, 470.9211
620.9207, 467.8450
621.4028, 463.0168
621.8849, 453.8755
622.3671, 447.2742
622.8492, 444.9745
623.3313, 445.8693
623.8134, 450.9764
624.2955, 460.4431
624.7776, 465.7744
625.2598, 455.8990
625.7419, 440.5847
626.2240, 439.1860
626.7061, 452.0189
627.1882, 462.3992
627.6703, 460.4888
628.1525, 450.4690
628.6346, 443.7209
629.1167, 441.6085
629.5988, 440.9341
630.0809, 443.4680
630.5630, 445.9190
631.0452, 445.5942
631.5273, 443.2574
