##NAMES=Salesite
##RRUFFID=R050170
##IDEAL CHEMISTRY=Cu^2+^(I^5+^O_3_)(OH)
##LOCALITY=Chuquicamata, Chile
##OWNER=RRUFF
##SOURCE=Marcus Origlieri
##DESCRIPTION=Green crystalline crust
##STATUS=The identification of this mineral has been confirmed by single-crystal X-ray diffraction.
##URL=rruff.info/R050170
93.26398, 0.0000000E+00
93.74609, 40.67416
94.22821, 34.39790
94.71033, 39.46581
95.19244, 52.97334
95.67456, 64.42371
96.15668, 69.13733
96.63879, 68.60928
97.12091, 66.43742
97.60303, 61.64279
98.08514, 58.86080
98.56726, 65.86452
99.04938, 82.88145
99.53149, 101.6337
100.0136, 117.9026
100.4957, 131.5598
100.9778, 147.3438
101.4600, 166.6088
101.9421, 186.8178
102.4242, 199.5674
102.9063, 201.3108
103.3884, 205.4676
103.8705, 219.9755
104.3527, 246.8999
104.8348, 278.1315
105.3169, 311.1303
105.7990, 347.1811
106.2811, 398.4547
106.7632, 467.1354
107.2454, 548.3847
107.7275, 637.2698
108.2096, 732.7141
108.6917, 839.5761
109.1738, 967.2399
109.6559, 1121.914
110.1381, 1249.618
110.6202, 1352.254
111.1023, 1427.719
111.5844, 1474.462
112.0665, 1454.080
112.5486, 1441.759
113.0308, 1457.115
113.5129, 1508.778
113.9950, 1558.895
114.4771, 1592.082
114.9592, 1622.443
115.4413, 1670.986
115.9235, 1754.992
116.4056, 1848.989
116.8877, 1941.097
117.3698, 2031.499
117.8519, 2119.552
118.3340, 2202.098
118.8162, 2281.910
119.2983, 2365.237
119.7804, 2460.853
120.2625, 2559.070
120.7446, 2648.529
121.2267, 2708.728
121.7089, 2786.083
122.1910, 2912.027
122.6731, 3081.447
123.1552, 3270.451
123.6373, 3438.971
124.1194, 3624.407
124.6016, 3876.660
125.0837, 4198.544
125.5658, 4599.225
126.0479, 5063.667
126.5300, 5594.923
127.0121, 6261.237
127.4943, 7177.376
127.9764, 8272.959
128.4585, 9411.081
128.9406, 10755.62
129.4227, 12049.94
129.9048, 12829.31
130.3869, 13087.13
130.8691, 12882.15
131.3512, 12092.15
131.8333, 10765.28
132.3154, 9391.850
132.7975, 8216.165
133.2796, 7236.001
133.7618, 6456.958
134.2439, 5879.600
134.7260, 5459.554
135.2081, 5152.488
135.6902, 4955.194
136.1723, 4833.346
136.6545, 4780.721
137.1366, 4796.744
137.6187, 4836.402
138.1008, 4896.990
138.5829, 4978.846
139.0650, 5086.443
139.5472, 5222.066
140.0293, 5374.665
140.5114, 5534.553
140.9935, 5696.905
141.4756, 5891.021
141.9577, 6114.288
142.4399, 6373.158
142.9220, 6688.675
143.4041, 7054.627
143.8862, 7488.295
144.3683, 8005.945
144.8504, 8597.265
145.3326, 9288.088
145.8147, 10090.63
146.2968, 11008.73
146.7789, 11925.47
147.2610, 12975.43
147.7431, 13916.11
148.2253, 14568.44
148.7074, 15007.88
149.1895, 15055.55
149.6716, 14631.85
150.1537, 13707.21
150.6358, 12640.22
151.1180, 11300.35
151.6001, 9878.352
152.0822, 8592.626
152.5643, 7432.345
153.0464, 6409.804
153.5285, 5541.270
154.0107, 4850.978
154.4928, 4248.967
154.9749, 3738.099
155.4570, 3305.114
155.9391, 2931.404
156.4212, 2629.294
156.9034, 2367.659
157.3855, 2135.596
157.8676, 1934.102
158.3497, 1763.360
158.8318, 1631.730
159.3139, 1528.733
159.7961, 1435.348
160.2782, 1345.781
160.7603, 1265.177
161.2424, 1196.326
161.7245, 1141.271
162.2066, 1093.956
162.6888, 1056.667
163.1709, 1025.798
163.6530, 993.4136
164.1351, 950.5408
164.6172, 908.7155
165.0993, 875.7680
165.5815, 855.5657
166.0636, 840.1443
166.5457, 827.0959
167.0278, 815.8636
167.5099, 804.7617
167.9920, 791.1758
168.4742, 778.1453
168.9563, 768.3708
169.4384, 762.7582
169.9205, 760.2264
170.4026, 763.3275
170.8847, 770.1807
171.3669, 772.6500
171.8490, 759.6610
172.3311, 741.5433
172.8132, 731.3500
173.2953, 740.4224
173.7774, 750.9180
174.2596, 742.8611
174.7417, 718.7765
175.2238, 696.8187
175.7059, 692.6136
176.1880, 698.9511
176.6701, 704.4107
177.1523, 704.6312
177.6344, 702.6268
178.1165, 702.3094
178.5986, 703.5670
179.0807, 704.2945
179.5628, 701.5975
180.0450, 696.9744
180.5271, 693.8608
181.0092, 691.8661
181.4913, 692.7678
181.9734, 700.3911
182.4555, 714.8337
182.9377, 732.2458
183.4198, 749.3998
183.9019, 766.7219
184.3840, 785.1129
184.8661, 799.5486
185.3482, 816.2737
185.8304, 854.2584
186.3125, 915.1513
186.7946, 982.0853
187.2767, 1037.029
187.7588, 1081.925
188.2409, 1125.107
188.7231, 1182.173
189.2052, 1241.830
189.6873, 1259.278
190.1694, 1230.479
190.6515, 1180.302
191.1336, 1134.766
191.6158, 1093.878
192.0979, 1058.028
192.5800, 1024.045
193.0621, 993.7516
193.5442, 980.2533
194.0263, 985.8893
194.5085, 1000.654
194.9906, 1011.566
195.4727, 1018.652
195.9548, 1023.735
196.4369, 1025.665
196.9190, 1024.877
197.4012, 1029.807
197.8833, 1041.794
198.3654, 1056.444
198.8475, 1063.063
199.3296, 1060.097
199.8117, 1065.964
200.2939, 1091.757
200.7760, 1137.584
201.2581, 1181.969
201.7402, 1224.118
202.2223, 1265.351
202.7044, 1304.950
203.1866, 1340.232
203.6687, 1386.645
204.1508, 1451.650
204.6329, 1536.017
205.1150, 1631.371
205.5971, 1739.918
206.0793, 1856.610
206.5614, 1971.624
207.0435, 2082.436
207.5256, 2197.200
208.0077, 2331.006
208.4898, 2495.269
208.9720, 2608.293
209.4541, 2671.422
209.9362, 2681.043
210.4183, 2622.016
210.9004, 2481.345
211.3825, 2310.842
211.8647, 2124.521
212.3468, 1914.416
212.8289, 1725.114
213.3110, 1559.278
213.7931, 1412.301
214.2752, 1275.584
214.7574, 1145.220
215.2395, 1031.682
215.7216, 940.3448
216.2037, 876.7433
216.6858, 818.1497
217.1679, 764.8514
217.6500, 716.0536
218.1322, 670.0577
218.6143, 624.4568
219.0964, 585.6750
219.5785, 558.1441
220.0606, 544.4237
220.5427, 532.4708
221.0249, 521.8430
221.5070, 513.1804
221.9891, 509.5966
222.4712, 515.8806
222.9533, 518.2222
223.4354, 508.8076
223.9176, 480.3499
224.3997, 461.3220
224.8818, 455.9538
225.3639, 457.9841
225.8460, 451.7051
226.3281, 430.9118
226.8103, 412.5309
227.2924, 405.1657
227.7745, 414.4355
228.2566, 418.9380
228.7387, 416.5132
229.2208, 410.2341
229.7030, 407.3008
230.1851, 408.8031
230.6672, 411.8609
231.1493, 415.8864
231.6314, 422.5952
232.1135, 425.2353
232.5957, 421.2403
233.0778, 414.2933
233.5599, 413.0888
234.0420, 421.8344
234.5241, 429.4852
235.0062, 430.6284
235.4884, 420.7917
235.9705, 417.6443
236.4526, 423.8593
236.9347, 435.5769
237.4168, 444.9620
237.8989, 451.2935
238.3811, 456.3917
238.8632, 460.3690
239.3453, 461.8998
239.8274, 466.6943
240.3095, 477.0670
240.7916, 489.5331
241.2738, 497.5779
241.7559, 500.2711
242.2380, 499.9652
242.7201, 495.5194
243.2022, 482.2802
243.6843, 481.6280
244.1665, 499.9840
244.6486, 527.1232
245.1307, 544.9838
245.6128, 548.4088
246.0949, 551.2211
246.5770, 558.1198
247.0592, 570.6052
247.5413, 581.0038
248.0234, 587.6219
248.5055, 593.2353
248.9876, 602.4953
249.4697, 618.5813
249.9519, 632.4803
250.4340, 639.9874
250.9161, 638.4607
251.3982, 645.2369
251.8803, 665.2207
252.3624, 689.4839
252.8446, 704.8423
253.3267, 707.0357
253.8088, 708.7448
254.2909, 711.0549
254.7730, 712.4184
255.2551, 728.2449
255.7373, 763.2825
256.2194, 807.9409
256.7015, 849.6150
257.1836, 885.2427
257.6657, 925.1185
258.1478, 971.7435
258.6299, 1024.768
259.1121, 1082.950
259.5942, 1146.713
260.0763, 1215.208
260.5584, 1290.779
261.0405, 1376.121
261.5226, 1459.610
262.0048, 1538.798
262.4869, 1613.083
262.9690, 1687.278
263.4511, 1762.553
263.9332, 1835.249
264.4153, 1900.475
264.8975, 1955.585
265.3796, 2012.894
265.8617, 2074.720
266.3438, 2140.604
266.8259, 2211.397
267.3080, 2285.741
267.7902, 2366.843
268.2723, 2457.489
268.7544, 2562.978
269.2365, 2662.050
269.7186, 2747.000
270.2007, 2823.117
270.6829, 2914.234
271.1650, 3019.423
271.6471, 3141.641
272.1292, 3280.376
272.6113, 3435.433
273.0934, 3607.703
273.5756, 3795.629
274.0577, 3999.393
274.5398, 4224.799
275.0219, 4471.202
275.5040, 4737.357
275.9861, 5025.240
276.4683, 5336.453
276.9504, 5660.721
277.4325, 6012.063
277.9146, 6362.389
278.3967, 6649.466
278.8788, 6875.331
279.3610, 7025.661
279.8431, 7103.155
280.3252, 7109.626
280.8073, 6977.882
281.2894, 6688.497
281.7715, 6284.535
282.2537, 5827.833
282.7358, 5313.520
283.2179, 4795.545
283.7000, 4285.105
284.1821, 3782.261
284.6642, 3338.595
285.1464, 2953.414
285.6285, 2624.142
286.1106, 2356.856
286.5927, 2151.680
287.0748, 1971.853
287.5569, 1802.956
288.0391, 1645.316
288.5212, 1506.777
289.0033, 1386.923
289.4854, 1284.351
289.9675, 1201.058
290.4496, 1135.743
290.9318, 1076.943
291.4139, 1017.715
291.8960, 961.3213
292.3781, 922.4456
292.8602, 901.9730
293.3423, 886.9946
293.8245, 864.5350
294.3066, 835.9813
294.7887, 807.5870
295.2708, 780.9139
295.7529, 756.1324
296.2350, 734.0627
296.7172, 714.7939
297.1993, 697.2253
297.6814, 676.9850
298.1635, 657.1697
298.6456, 647.5825
299.1277, 653.4015
299.6099, 667.0454
300.0920, 677.8087
300.5741, 686.0826
301.0562, 693.4664
301.5383, 696.1658
302.0204, 699.5807
302.5026, 714.3097
302.9847, 744.2682
303.4668, 782.2861
303.9489, 823.6019
304.4310, 866.8130
304.9131, 909.7968
305.3953, 955.3367
305.8774, 997.9788
306.3595, 1028.557
306.8416, 1043.930
307.3237, 1054.527
307.8058, 1066.468
308.2880, 1080.220
308.7701, 1096.780
309.2522, 1118.613
309.7343, 1142.524
310.2164, 1163.485
310.6985, 1180.334
311.1807, 1203.623
311.6628, 1245.240
312.1449, 1297.509
312.6270, 1347.416
313.1091, 1387.074
313.5912, 1425.158
314.0734, 1463.490
314.5555, 1502.252
315.0376, 1553.826
315.5197, 1625.604
316.0018, 1713.628
316.4839, 1811.843
316.9661, 1908.078
317.4482, 2024.580
317.9303, 2171.179
318.4124, 2346.012
318.8945, 2542.995
319.3766, 2765.431
319.8588, 3005.322
320.3409, 3255.957
320.8230, 3544.404
321.3051, 3808.846
321.7872, 4066.267
322.2693, 4292.831
322.7515, 4415.717
323.2336, 4439.563
323.7157, 4339.204
324.1978, 4086.651
324.6799, 3600.914
325.1620, 3122.570
325.6442, 2653.109
326.1263, 2215.090
326.6084, 1848.498
327.0905, 1573.578
327.5726, 1355.593
328.0547, 1190.264
328.5369, 1091.083
329.0190, 1005.053
329.5011, 934.7474
329.9832, 876.2056
330.4653, 825.3348
330.9474, 780.8518
331.4296, 745.7546
331.9117, 723.5673
332.3938, 715.2173
332.8759, 702.1919
333.3580, 680.2065
333.8401, 657.4237
334.3223, 640.2891
334.8044, 628.9415
335.2865, 622.8547
335.7686, 623.3464
336.2507, 629.3226
336.7328, 634.7453
337.2150, 639.2530
337.6971, 643.9081
338.1792, 650.6273
338.6613, 661.5877
339.1434, 664.3109
339.6255, 653.6436
340.1077, 637.8962
340.5898, 637.9573
341.0719, 657.6107
341.5540, 677.2371
342.0361, 685.3198
342.5182, 681.1763
343.0003, 685.8873
343.4825, 700.9171
343.9646, 721.3075
344.4467, 741.2974
344.9288, 760.6782
345.4109, 777.4867
345.8930, 789.0538
346.3752, 797.4199
346.8573, 810.4168
347.3394, 828.3118
347.8215, 849.5533
348.3036, 871.5496
348.7857, 895.1800
349.2679, 925.5240
349.7500, 966.6578
350.2321, 1012.219
350.7142, 1049.412
351.1963, 1078.746
351.6784, 1106.900
352.1606, 1137.930
352.6427, 1170.891
353.1248, 1203.687
353.6069, 1235.118
354.0890, 1269.715
354.5711, 1312.741
355.0533, 1362.905
355.5354, 1417.526
356.0175, 1479.505
356.4996, 1542.354
356.9817, 1599.207
357.4638, 1648.973
357.9460, 1697.902
358.4281, 1746.120
358.9102, 1797.340
359.3923, 1856.194
359.8744, 1926.857
360.3565, 2004.228
360.8387, 2087.638
361.3208, 2176.605
361.8029, 2261.834
362.2850, 2334.732
362.7671, 2404.287
363.2492, 2477.684
363.7314, 2552.685
364.2135, 2636.971
364.6956, 2743.749
365.1777, 2863.394
365.6598, 2964.576
366.1419, 3017.993
366.6241, 3068.147
367.1062, 3138.065
367.5883, 3245.415
368.0704, 3338.906
368.5525, 3407.258
369.0346, 3459.611
369.5168, 3511.328
369.9989, 3568.511
370.4810, 3619.358
370.9631, 3662.292
371.4452, 3697.502
371.9273, 3723.381
372.4095, 3743.440
372.8916, 3750.875
373.3737, 3739.135
373.8558, 3702.339
374.3379, 3658.082
374.8200, 3609.685
375.3022, 3555.461
375.7843, 3487.661
376.2664, 3404.526
376.7485, 3310.189
377.2306, 3207.181
377.7127, 3095.184
378.1949, 2971.874
378.6770, 2834.221
379.1591, 2690.659
379.6412, 2562.115
380.1233, 2449.124
380.6054, 2335.288
381.0876, 2211.383
381.5697, 2080.009
382.0518, 1953.628
382.5339, 1833.160
383.0160, 1718.224
383.4981, 1607.156
383.9803, 1500.860
384.4624, 1411.036
384.9445, 1346.663
385.4266, 1295.356
385.9087, 1230.090
386.3908, 1153.270
386.8730, 1086.798
387.3551, 1050.463
387.8372, 1033.619
388.3193, 1018.712
388.8014, 1003.860
389.2835, 987.0633
389.7657, 962.4327
390.2478, 934.0779
390.7299, 912.1653
391.2120, 908.6779
391.6941, 909.0692
392.1762, 901.2283
392.6584, 884.0813
393.1405, 865.3350
393.6226, 849.2651
394.1047, 833.6670
394.5868, 816.3953
395.0689, 796.3006
395.5511, 774.8820
396.0332, 752.8479
396.5153, 730.0352
396.9974, 705.5387
397.4795, 675.7394
397.9616, 646.6433
398.4438, 621.5906
398.9259, 602.7516
399.4080, 584.7449
399.8901, 567.6685
400.3722, 550.9918
400.8543, 533.8770
401.3365, 513.3830
401.8186, 495.8166
402.3007, 483.9507
402.7828, 478.8222
403.2649, 469.8015
403.7470, 453.5502
404.2292, 436.9361
404.7113, 426.5662
405.1934, 424.1996
405.6755, 422.7079
406.1576, 421.1089
406.6397, 419.6871
407.1219, 420.5804
407.6040, 425.1340
408.0861, 426.7482
408.5682, 419.4375
409.0503, 403.5228
409.5324, 391.9883
410.0146, 385.5331
410.4967, 383.0292
410.9788, 384.9615
411.4609, 390.6599
411.9430, 393.6612
412.4251, 389.1416
412.9073, 381.1561
413.3894, 379.0342
413.8715, 382.6809
414.3536, 387.5873
414.8357, 392.0405
415.3178, 394.9160
415.8000, 393.5400
416.2821, 385.7237
416.7642, 376.6485
417.2463, 370.4942
417.7284, 366.9039
418.2105, 365.1110
418.6927, 366.4810
419.1748, 368.2696
419.6569, 367.7958
420.1390, 364.4242
420.6211, 362.3949
421.1032, 366.4078
421.5854, 371.7094
422.0675, 373.1716
422.5496, 360.9473
423.0317, 353.5140
423.5138, 360.0730
423.9959, 377.9201
424.4781, 390.0219
424.9602, 389.4315
425.4423, 385.4736
425.9244, 382.1308
426.4065, 377.6101
426.8886, 377.4504
427.3708, 384.3197
427.8529, 394.4254
428.3350, 401.9017
428.8171, 405.7590
429.2992, 408.6196
429.7813, 410.0034
430.2635, 410.0694
430.7456, 416.5955
431.2277, 432.9740
431.7098, 448.3099
432.1919, 451.0722
432.6740, 439.6979
433.1562, 436.2932
433.6383, 445.7040
434.1204, 461.2682
434.6025, 468.5337
435.0846, 467.7250
435.5667, 468.4269
436.0489, 477.8748
436.5310, 492.7874
437.0131, 501.6747
437.4952, 503.9331
437.9773, 506.5446
438.4594, 516.8777
438.9415, 532.5312
439.4236, 548.3663
439.9058, 562.1560
440.3879, 576.3467
440.8700, 596.5381
441.3521, 620.1343
441.8342, 637.9536
442.3163, 638.2061
442.7985, 635.0391
443.2806, 638.9366
443.7627, 651.6331
444.2448, 669.8620
444.7269, 694.0331
445.2090, 722.2407
445.6912, 752.1364
446.1733, 787.2746
446.6554, 819.8857
447.1375, 843.6993
447.6196, 860.2366
448.1017, 886.3422
448.5839, 926.8796
449.0660, 974.0093
449.5481, 1024.786
450.0302, 1086.408
450.5123, 1136.233
450.9944, 1163.788
451.4766, 1186.173
451.9587, 1232.933
452.4408, 1313.237
452.9229, 1393.541
453.4050, 1465.646
453.8871, 1530.091
454.3693, 1596.253
454.8514, 1664.627
455.3335, 1733.594
455.8156, 1800.943
456.2977, 1867.268
456.7798, 1941.620
457.2620, 2027.761
457.7441, 2117.337
458.2262, 2196.817
458.7083, 2268.495
459.1904, 2346.605
459.6725, 2438.131
460.1547, 2539.460
460.6368, 2643.479
461.1189, 2751.248
461.6010, 2869.923
462.0831, 3007.367
462.5652, 3157.973
463.0474, 3313.713
463.5295, 3477.510
464.0116, 3641.558
464.4937, 3796.675
464.9758, 3949.261
465.4579, 4107.854
465.9401, 4280.265
466.4222, 4455.148
466.9043, 4630.739
467.3864, 4809.274
467.8685, 4970.398
468.3506, 5113.641
468.8328, 5237.335
469.3149, 5341.488
469.7970, 5439.821
470.2791, 5495.936
470.7612, 5505.675
471.2433, 5471.587
471.7255, 5396.687
472.2076, 5270.789
472.6897, 5129.014
473.1718, 4981.155
473.6539, 4827.793
474.1360, 4662.224
474.6182, 4479.099
475.1003, 4303.362
475.5824, 4162.269
476.0645, 4052.979
476.5466, 3954.110
477.0287, 3858.527
477.5109, 3774.677
477.9930, 3719.602
478.4751, 3689.936
478.9572, 3669.659
479.4393, 3654.961
479.9214, 3641.940
480.4036, 3626.064
480.8857, 3606.983
481.3678, 3585.817
481.8499, 3572.890
482.3320, 3554.310
482.8141, 3514.687
483.2963, 3444.070
483.7784, 3358.554
484.2605, 3260.950
484.7426, 3153.407
485.2247, 3041.660
485.7068, 2931.011
486.1890, 2814.272
486.6711, 2687.039
487.1532, 2546.176
487.6353, 2408.318
488.1174, 2273.193
488.5995, 2144.465
489.0817, 2025.752
489.5638, 1919.820
490.0459, 1819.996
490.5280, 1725.686
491.0101, 1637.284
491.4922, 1552.735
491.9744, 1470.643
492.4565, 1397.079
492.9386, 1335.512
493.4207, 1284.053
493.9028, 1231.648
494.3849, 1177.519
494.8671, 1125.858
495.3492, 1079.215
495.8313, 1037.626
496.3134, 1001.006
496.7955, 970.3542
497.2776, 942.4493
497.7598, 914.0309
498.2419, 885.7996
498.7240, 860.3244
499.2061, 842.3466
499.6882, 824.5965
500.1703, 800.1888
500.6525, 769.0884
501.1346, 740.8227
501.6167, 716.3829
502.0988, 697.6680
502.5809, 686.4482
503.0630, 688.9622
503.5452, 689.5369
504.0273, 686.5203
504.5094, 680.2864
504.9915, 671.2119
505.4736, 655.6641
505.9557, 642.8250
506.4379, 636.3677
506.9200, 635.7348
507.4021, 630.8059
507.8842, 620.9843
508.3663, 608.0234
508.8484, 590.5498
509.3306, 568.3141
509.8127, 554.5045
510.2948, 551.0919
510.7769, 553.1583
511.2590, 556.0135
511.7411, 559.0030
512.2233, 558.1263
512.7054, 548.7698
513.1875, 537.4083
513.6696, 534.7000
514.1517, 539.2789
514.6339, 543.5991
515.1160, 543.2473
515.5981, 540.1780
516.0802, 536.2762
516.5623, 531.9435
517.0444, 525.9894
517.5266, 512.8854
518.0087, 499.8789
518.4908, 494.8752
518.9729, 511.8721
519.4550, 523.4622
519.9371, 520.4207
520.4193, 506.4471
520.9014, 497.9555
521.3835, 497.4536
521.8656, 499.2088
522.3477, 502.5036
522.8298, 508.3103
523.3120, 506.6011
523.7941, 494.4345
524.2762, 480.8501
524.7583, 475.0259
525.2404, 477.2266
525.7225, 479.9481
526.2047, 483.1410
526.6868, 484.3536
527.1689, 475.6346
527.6510, 459.1140
528.1331, 448.0322
528.6152, 453.3383
529.0974, 465.6404
529.5795, 471.6642
530.0616, 471.7338
530.5437, 470.5480
531.0258, 473.3459
531.5079, 475.2602
531.9901, 470.5666
532.4722, 454.8396
532.9543, 441.8175
533.4364, 436.1719
533.9185, 436.4847
534.4006, 440.7280
534.8828, 455.6300
535.3649, 466.5616
535.8470, 467.7337
536.3291, 461.4579
536.8112, 460.9142
537.2933, 470.1242
537.7755, 478.7350
538.2576, 481.0110
538.7397, 475.6360
539.2218, 475.4759
539.7039, 481.9893
540.1860, 489.6957
540.6682, 492.1356
541.1503, 489.7661
541.6324, 487.6237
542.1145, 486.6618
542.5966, 486.5047
543.0787, 486.6237
543.5609, 487.0567
544.0430, 487.9380
544.5251, 490.2946
545.0072, 492.5324
545.4893, 492.2957
545.9714, 489.8038
546.4536, 488.4189
546.9357, 490.5934
547.4178, 494.1674
547.8999, 497.9973
548.3820, 503.4978
548.8641, 505.4664
549.3463, 499.2207
549.8284, 490.1602
550.3105, 485.2878
550.7926, 485.2963
551.2747, 488.8008
551.7568, 497.4971
552.2390, 509.5585
552.7211, 517.1571
553.2032, 519.4131
553.6853, 519.9176
554.1674, 519.1475
554.6495, 517.4277
555.1317, 520.9041
555.6138, 530.1501
556.0959, 539.6889
556.5780, 544.3344
557.0601, 545.1301
557.5422, 544.0168
558.0244, 539.9492
558.5065, 538.0845
558.9886, 547.3378
559.4707, 562.4244
559.9528, 572.5608
560.4349, 568.8309
560.9171, 563.0134
561.3992, 560.2813
561.8813, 560.7014
562.3634, 563.6140
562.8455, 571.1330
563.3276, 579.2123
563.8098, 586.7817
564.2919, 595.4593
564.7740, 597.5235
565.2561, 589.5370
565.7382, 578.3405
566.2203, 569.2340
566.7025, 561.0514
567.1846, 560.8237
567.6667, 572.0295
568.1488, 588.0898
568.6309, 595.5240
569.1130, 594.6194
569.5952, 590.2021
570.0773, 580.3817
570.5594, 570.4037
571.0415, 572.0411
571.5236, 584.1718
572.0057, 596.2172
572.4879, 602.4906
572.9700, 604.3007
573.4521, 602.1257
573.9342, 595.2552
574.4163, 588.7701
574.8984, 584.2765
575.3806, 581.6711
575.8627, 580.8104
576.3448, 581.9333
576.8269, 584.5438
577.3090, 590.0754
577.7911, 596.8245
578.2733, 600.9164
578.7554, 601.2378
579.2375, 600.9033
579.7196, 600.4817
580.2017, 600.0927
580.6838, 600.5970
581.1660, 601.8123
581.6481, 604.9428
582.1302, 612.8849
582.6123, 623.8704
583.0944, 629.7665
583.5765, 629.6702
584.0587, 627.8343
584.5408, 627.7100
585.0229, 628.9257
585.5050, 630.9208
585.9871, 633.9747
586.4692, 637.0748
586.9513, 638.6704
587.4334, 639.9528
587.9155, 643.3630
588.3976, 653.3997
588.8798, 661.9753
589.3619, 665.2411
589.8440, 663.2008
590.3261, 663.5084
590.8082, 665.7047
591.2903, 670.8304
591.7725, 680.2972
592.2546, 695.3220
