##NAMES=Samarskite-(Y)
##RRUFFID=R070161
##IDEAL CHEMISTRY=YFe^3+^Nb^5+^_2_O_8_
##LOCALITY=Tveit mine, Iveland, Setesdal Valley, Aust-Agder, Norway
##OWNER=RRUFF
##SOURCE=James Shigley
##DESCRIPTION=Black vitreous dense prismatic crystal
##STATUS=The identification of this mineral has been made only by X-ray diffraction.
##URL=rruff.info/R070161
160.7882, 3605.411
161.2704, 3621.183
161.7525, 3621.804
162.2346, 3618.038
162.7167, 3617.009
163.1988, 3621.658
163.6809, 3627.434
164.1631, 3633.157
164.6452, 3638.549
165.1273, 3642.414
165.6094, 3642.520
166.0915, 3641.408
166.5736, 3641.286
167.0558, 3633.972
167.5379, 3635.213
168.0200, 3666.025
168.5021, 3723.720
168.9842, 3769.211
169.4663, 3764.032
169.9485, 3733.007
170.4306, 3711.732
170.9127, 3724.582
171.3948, 3748.260
171.8769, 3761.981
172.3590, 3764.999
172.8412, 3761.884
173.3233, 3748.114
173.8054, 3730.541
174.2875, 3724.026
174.7696, 3747.967
175.2517, 3782.994
175.7339, 3801.999
176.2160, 3801.052
176.6981, 3792.719
177.1802, 3787.891
177.6623, 3786.120
178.1444, 3785.808
178.6266, 3784.122
179.1087, 3783.455
179.5908, 3790.604
180.0729, 3809.814
180.5550, 3829.501
181.0371, 3830.169
181.5193, 3814.067
182.0014, 3798.583
182.4835, 3798.207
182.9656, 3808.185
183.4477, 3813.552
183.9298, 3809.099
184.4120, 3801.273
184.8941, 3802.141
185.3762, 3811.675
185.8583, 3824.430
186.3404, 3838.268
186.8225, 3852.344
187.3047, 3862.695
187.7868, 3867.340
188.2689, 3867.890
188.7510, 3868.792
189.2331, 3870.167
189.7152, 3870.772
190.1974, 3867.993
190.6795, 3862.244
191.1616, 3859.186
191.6437, 3862.523
192.1258, 3870.317
192.6080, 3870.899
193.0901, 3862.279
193.5722, 3854.273
194.0543, 3862.282
194.5364, 3886.693
195.0185, 3907.237
195.5007, 3913.556
195.9828, 3906.825
196.4649, 3908.052
196.9470, 3920.480
197.4291, 3933.657
197.9112, 3929.049
198.3934, 3904.326
198.8755, 3880.242
199.3576, 3864.341
199.8397, 3856.610
200.3218, 3858.942
200.8039, 3874.379
201.2861, 3895.867
201.7682, 3910.199
202.2503, 3916.616
202.7324, 3919.163
203.2145, 3920.231
203.6966, 3920.264
204.1788, 3913.730
204.6609, 3896.148
205.1430, 3875.101
205.6251, 3872.923
206.1072, 3895.613
206.5893, 3919.493
207.0715, 3928.463
207.5536, 3918.108
208.0357, 3915.407
208.5178, 3926.652
208.9999, 3946.079
209.4820, 3951.325
209.9642, 3937.448
210.4463, 3920.325
210.9284, 3909.990
211.4105, 3906.977
211.8926, 3910.219
212.3747, 3924.338
212.8569, 3945.376
213.3390, 3947.031
213.8211, 3919.384
214.3032, 3889.691
214.7853, 3880.825
215.2674, 3900.110
215.7496, 3919.641
216.2317, 3937.637
216.7138, 3953.363
217.1959, 3956.223
217.6780, 3939.990
218.1601, 3919.683
218.6423, 3908.424
219.1244, 3907.063
219.6065, 3913.115
220.0886, 3930.292
220.5707, 3959.066
221.0528, 3972.270
221.5350, 3963.437
222.0171, 3946.831
222.4992, 3937.267
222.9813, 3937.997
223.4634, 3939.043
223.9455, 3938.177
224.4277, 3935.158
224.9098, 3932.621
225.3919, 3929.579
225.8740, 3927.896
226.3561, 3930.173
226.8382, 3938.585
227.3204, 3946.915
227.8025, 3954.576
228.2846, 3962.383
228.7667, 3963.001
229.2488, 3951.331
229.7310, 3936.458
230.2131, 3931.406
230.6952, 3942.227
231.1773, 3952.336
231.6594, 3956.369
232.1415, 3952.025
232.6237, 3952.127
233.1058, 3960.118
233.5879, 3970.369
234.0700, 3973.531
234.5521, 3965.419
235.0342, 3957.204
235.5164, 3952.592
235.9985, 3952.701
236.4806, 3952.483
236.9627, 3952.390
237.4448, 3951.738
237.9269, 3948.384
238.4091, 3937.171
238.8912, 3931.439
239.3733, 3937.210
239.8554, 3959.821
240.3375, 3978.269
240.8196, 3993.162
241.3018, 4003.578
241.7839, 4007.146
242.2660, 3999.497
242.7481, 3991.844
243.2302, 3988.256
243.7123, 3989.413
244.1945, 3993.266
244.6766, 4002.473
245.1587, 4013.302
245.6408, 4017.667
246.1229, 4013.269
246.6050, 4006.011
247.0872, 3997.449
247.5693, 3985.178
248.0514, 3977.856
248.5335, 3977.188
249.0156, 3980.949
249.4977, 3983.349
249.9799, 3982.521
250.4620, 3983.343
250.9441, 3988.354
251.4262, 3999.895
251.9083, 4010.122
252.3904, 4019.487
252.8726, 4027.343
253.3547, 4031.440
253.8368, 4030.233
254.3189, 4027.928
254.8010, 4027.071
255.2831, 4030.289
255.7653, 4027.615
256.2474, 4016.655
256.7295, 4000.396
257.2116, 3986.255
257.6937, 3971.432
258.1758, 3963.898
258.6580, 3970.571
259.1401, 4000.548
259.6222, 4016.675
260.1043, 4012.218
260.5864, 3995.406
261.0685, 3990.997
261.5507, 4006.521
262.0328, 4019.007
262.5149, 4012.947
262.9970, 3976.561
263.4791, 3963.419
263.9612, 3985.730
264.4434, 4027.523
264.9255, 4041.921
265.4076, 4017.448
265.8897, 3992.693
266.3718, 3990.232
266.8539, 4017.883
267.3361, 4034.363
267.8182, 4035.260
268.3003, 4025.483
268.7824, 4016.704
269.2645, 4008.867
269.7466, 4002.319
270.2288, 3996.935
270.7109, 3992.580
271.1930, 3989.940
271.6751, 3987.909
272.1572, 3988.509
272.6393, 3999.275
273.1215, 4024.023
273.6036, 4045.217
274.0857, 4051.285
274.5678, 4040.151
275.0499, 4033.848
275.5320, 4035.467
276.0142, 4040.309
276.4963, 4036.389
276.9784, 4006.079
277.4605, 4025.816
277.9426, 4037.047
278.4247, 4040.229
278.9069, 4011.254
279.3890, 4023.803
279.8711, 4019.711
280.3532, 4014.937
280.8354, 4033.330
281.3175, 4009.033
281.7996, 4027.059
282.2817, 4028.190
282.7638, 4037.053
283.2459, 4029.173
283.7281, 4026.464
284.2102, 4040.505
284.6923, 4045.271
285.1744, 4035.463
285.6565, 4044.818
286.1386, 4019.936
286.6208, 4025.097
287.1029, 4043.221
287.5850, 4034.255
288.0671, 4043.917
288.5492, 4046.483
289.0313, 4016.811
289.5135, 4043.206
289.9956, 4031.782
290.4777, 4029.546
290.9598, 4021.359
291.4419, 4013.257
291.9240, 4015.261
292.4062, 4026.122
292.8883, 4036.045
293.3704, 4040.478
293.8525, 4040.398
294.3346, 4037.884
294.8167, 4032.652
295.2989, 4027.010
295.7810, 4021.246
296.2631, 4016.609
296.7452, 4018.039
297.2273, 4035.287
297.7094, 4058.499
298.1916, 4068.508
298.6737, 4063.836
299.1558, 4053.236
299.6379, 4044.169
300.1200, 4036.066
300.6021, 4027.103
301.0843, 4012.190
301.5664, 3997.767
302.0485, 3994.101
302.5306, 4001.716
303.0127, 4012.229
303.4948, 4021.413
303.9770, 4028.201
304.4591, 4030.749
304.9412, 4027.517
305.4233, 4020.043
305.9054, 4007.014
306.3875, 3988.696
306.8697, 3974.092
307.3518, 3969.668
307.8339, 3973.187
308.3160, 3981.573
308.7981, 4002.735
309.2802, 4021.835
309.7624, 4024.214
310.2445, 4011.333
310.7266, 3999.257
311.2087, 3997.147
311.6908, 4000.732
312.1729, 4005.360
312.6551, 4010.966
313.1372, 4016.013
313.6193, 4020.294
314.1014, 4023.599
314.5835, 4024.431
315.0656, 4018.738
315.5478, 4012.003
316.0299, 4008.895
316.5120, 4014.784
316.9941, 4019.712
317.4762, 4018.236
317.9583, 4012.161
318.4405, 4008.790
318.9226, 4013.272
319.4047, 4019.516
319.8868, 4023.984
320.3689, 4028.048
320.8510, 4027.425
321.3332, 4014.306
321.8153, 3994.640
322.2974, 3986.299
322.7795, 4009.006
323.2616, 4031.444
323.7437, 4038.214
324.2259, 4015.220
324.7080, 3997.951
325.1901, 3989.055
325.6722, 3988.219
326.1543, 3994.473
326.6364, 4026.655
327.1186, 4049.138
327.6007, 4046.809
328.0828, 3999.102
328.5649, 3974.167
329.0470, 3988.098
329.5291, 4019.999
330.0113, 4036.766
330.4934, 4032.377
330.9755, 4020.742
331.4576, 4003.069
331.9397, 3976.376
332.4218, 3958.679
332.9040, 3951.085
333.3861, 3951.693
333.8682, 3959.329
334.3503, 3978.740
334.8324, 3995.311
335.3145, 4005.820
335.7967, 4010.210
336.2788, 4009.307
336.7609, 3999.290
337.2430, 3990.000
337.7251, 3994.798
338.2072, 4018.763
338.6894, 4033.625
339.1715, 4030.346
339.6536, 4012.585
340.1357, 4005.367
340.6178, 4011.161
341.0999, 4018.861
341.5821, 4019.342
342.0642, 4012.518
342.5463, 4001.945
343.0284, 3985.782
343.5105, 3968.265
343.9926, 3962.767
344.4748, 3969.775
344.9569, 3979.619
345.4390, 3984.417
345.9211, 3985.580
346.4032, 3991.993
346.8853, 4007.151
347.3675, 4023.275
347.8496, 4025.557
348.3317, 4015.604
348.8138, 4005.090
349.2959, 4001.161
349.7780, 4001.769
350.2602, 4002.628
350.7423, 4003.324
351.2244, 4004.246
351.7065, 4004.736
352.1887, 4005.610
352.6708, 4009.185
353.1529, 4023.460
353.6350, 4037.770
354.1171, 4035.979
354.5992, 4015.717
355.0814, 3998.094
355.5635, 4006.605
356.0456, 4027.365
356.5277, 4038.446
357.0098, 4017.276
357.4919, 3993.677
357.9741, 3990.207
358.4562, 4006.345
358.9383, 4021.759
359.4204, 4025.369
359.9025, 4023.220
360.3846, 4021.166
360.8668, 4024.889
361.3489, 4025.217
361.8310, 4013.873
362.3131, 3993.961
362.7952, 3982.484
363.2773, 3996.867
363.7595, 4013.379
364.2416, 4017.390
364.7237, 3994.738
365.2058, 3975.929
365.6879, 3960.888
366.1700, 3952.614
366.6522, 3959.768
367.1343, 4014.596
367.6164, 4058.355
368.0985, 4065.840
368.5806, 4012.353
369.0627, 3976.662
369.5449, 3965.044
370.0270, 3969.146
370.5091, 3976.632
370.9912, 3993.432
371.4733, 4004.631
371.9554, 4002.653
372.4376, 3984.129
372.9197, 3981.197
373.4018, 4001.723
373.8839, 4028.545
374.3660, 4042.417
374.8481, 4039.529
375.3303, 4036.135
375.8124, 4034.799
376.2945, 4035.725
376.7766, 4042.598
377.2587, 4058.132
377.7408, 4070.338
378.2230, 4067.038
378.7051, 4048.150
379.1872, 4031.449
379.6693, 4020.401
380.1514, 4012.519
380.6335, 4000.743
381.1157, 3984.963
381.5978, 3973.419
382.0799, 3971.661
382.5620, 3978.459
383.0441, 3991.345
383.5262, 4011.879
384.0084, 4032.549
384.4905, 4045.683
384.9726, 4051.471
385.4547, 4050.909
385.9368, 4037.870
386.4189, 4021.609
386.9011, 4013.769
387.3832, 4014.825
387.8653, 4023.467
388.3474, 4051.200
388.8295, 4083.587
389.3116, 4098.020
389.7938, 4067.617
390.2759, 4030.870
390.7580, 4013.258
391.2401, 4013.113
391.7222, 4013.573
392.2043, 4006.106
392.6865, 3995.925
393.1686, 3986.842
393.6507, 3976.844
394.1328, 3972.259
394.6149, 3975.042
395.0970, 3984.733
395.5792, 3999.998
396.0613, 4035.288
396.5434, 4064.159
397.0255, 4073.646
397.5076, 4051.057
397.9897, 4033.562
398.4719, 4028.288
398.9540, 4028.107
399.4361, 4022.172
399.9182, 4001.367
400.4003, 3986.201
400.8824, 3982.515
401.3646, 3991.521
401.8467, 4001.130
402.3288, 4012.843
402.8109, 4023.339
403.2930, 4028.743
403.7751, 4026.934
404.2573, 4027.150
404.7394, 4032.518
405.2215, 4040.915
405.7036, 4041.085
406.1857, 4030.991
406.6678, 4021.454
407.1500, 4021.790
407.6321, 4031.592
408.1142, 4035.633
408.5963, 4030.999
409.0784, 4023.052
409.5605, 4020.010
410.0427, 4021.765
410.5248, 4026.688
411.0069, 4037.380
411.4890, 4050.314
411.9711, 4057.465
412.4532, 4058.664
412.9354, 4054.154
413.4175, 4036.998
413.8996, 4014.696
414.3817, 4002.748
414.8638, 4013.286
415.3459, 4031.920
415.8281, 4046.967
416.3102, 4058.669
416.7923, 4068.174
417.2744, 4079.865
417.7565, 4087.651
418.2386, 4084.187
418.7208, 4058.264
419.2029, 4037.646
419.6850, 4038.738
420.1671, 4053.573
420.6492, 4064.297
421.1313, 4062.984
421.6135, 4058.522
422.0956, 4052.778
422.5777, 4043.323
423.0598, 4042.347
423.5420, 4060.147
424.0241, 4083.522
424.5062, 4098.089
424.9883, 4103.984
425.4704, 4100.067
425.9525, 4079.230
426.4347, 4043.405
426.9168, 4028.757
427.3989, 4046.834
427.8810, 4069.764
428.3631, 4077.222
428.8452, 4063.563
429.3274, 4056.537
429.8095, 4060.180
430.2916, 4070.130
430.7737, 4077.544
431.2558, 4082.619
431.7379, 4083.643
432.2201, 4078.015
432.7022, 4066.640
433.1843, 4055.266
433.6664, 4042.916
434.1485, 4036.404
434.6306, 4050.378
435.1128, 4078.874
435.5949, 4097.888
436.0770, 4094.439
436.5591, 4080.687
437.0412, 4074.576
437.5233, 4075.252
438.0055, 4076.467
438.4876, 4075.546
438.9697, 4072.020
439.4518, 4064.079
439.9339, 4047.900
440.4160, 4035.231
440.8982, 4032.988
441.3803, 4039.734
441.8624, 4052.398
442.3445, 4086.239
442.8266, 4112.207
443.3087, 4110.701
443.7909, 4075.547
444.2730, 4047.818
444.7551, 4040.870
445.2372, 4043.556
445.7193, 4045.499
446.2014, 4041.614
446.6836, 4041.723
447.1657, 4048.954
447.6478, 4061.847
448.1299, 4071.801
448.6120, 4079.342
449.0941, 4083.144
449.5763, 4081.020
450.0584, 4068.632
450.5405, 4065.232
451.0226, 4075.235
451.5047, 4089.171
451.9868, 4087.312
452.4690, 4065.353
452.9511, 4057.106
453.4332, 4083.389
453.9153, 4133.934
454.3974, 4152.446
454.8795, 4136.788
455.3617, 4111.803
455.8438, 4096.856
456.3259, 4090.702
456.8080, 4089.408
457.2901, 4093.920
457.7722, 4099.785
458.2544, 4100.930
458.7365, 4098.448
459.2186, 4096.151
459.7007, 4092.749
460.1828, 4092.483
460.6649, 4103.032
461.1471, 4126.958
461.6292, 4144.662
462.1113, 4143.796
462.5934, 4131.197
463.0755, 4115.163
463.5576, 4087.077
464.0398, 4066.955
464.5219, 4065.195
465.0040, 4079.274
465.4861, 4091.042
465.9682, 4093.009
466.4503, 4095.510
466.9325, 4104.875
467.4146, 4132.528
467.8967, 4144.542
468.3788, 4131.567
468.8609, 4107.823
469.3430, 4096.258
469.8252, 4100.167
470.3073, 4109.243
470.7894, 4125.052
471.2715, 4145.886
471.7536, 4144.318
472.2357, 4114.369
472.7179, 4083.506
473.2000, 4076.106
473.6821, 4090.752
474.1642, 4110.900
474.6463, 4138.047
475.1284, 4161.740
475.6106, 4158.499
476.0927, 4133.100
476.5748, 4112.551
477.0569, 4114.772
477.5390, 4128.820
478.0211, 4142.195
478.5033, 4154.499
478.9854, 4159.812
479.4675, 4146.135
479.9496, 4125.413
480.4317, 4112.260
480.9138, 4113.879
481.3960, 4121.309
481.8781, 4136.013
482.3602, 4154.499
482.8423, 4164.804
483.3244, 4155.674
483.8065, 4144.200
484.2887, 4137.957
484.7708, 4138.997
485.2529, 4141.622
485.7350, 4148.423
486.2171, 4155.108
486.6992, 4156.672
487.1814, 4149.865
487.6635, 4143.964
488.1456, 4139.866
488.6277, 4137.896
489.1098, 4140.656
489.5919, 4149.725
490.0741, 4158.504
490.5562, 4162.997
491.0383, 4163.266
491.5204, 4160.909
492.0026, 4154.679
492.4847, 4150.081
492.9668, 4157.072
493.4489, 4173.118
493.9310, 4187.151
494.4131, 4196.816
494.8953, 4200.600
495.3774, 4192.697
495.8595, 4174.468
496.3416, 4158.004
496.8237, 4151.490
497.3058, 4150.264
497.7880, 4149.007
498.2701, 4145.078
498.7522, 4145.597
499.2343, 4161.270
499.7164, 4182.163
500.1985, 4192.758
500.6807, 4180.625
501.1628, 4165.390
501.6449, 4147.712
502.1270, 4127.343
502.6091, 4124.906
503.0912, 4161.392
503.5734, 4197.212
504.0555, 4206.348
504.5376, 4155.613
505.0197, 4179.946
505.5018, 4194.412
505.9839, 4199.541
506.4661, 4167.368
506.9482, 4183.363
507.4303, 4180.054
507.9124, 4175.954
508.3945, 4198.728
508.8766, 4171.980
509.3588, 4194.329
509.8409, 4197.079
510.3230, 4208.798
510.8051, 4201.095
511.2872, 4199.391
511.7693, 4217.115
512.2515, 4224.083
512.7336, 4214.143
513.2157, 4226.433
513.6978, 4199.007
514.1799, 4206.432
514.6620, 4228.893
515.1442, 4219.931
515.6263, 4232.576
516.1084, 4215.172
516.5905, 4220.527
517.0726, 4228.045
517.5547, 4237.140
518.0369, 4254.398
518.5190, 4263.825
519.0011, 4260.940
519.4832, 4251.079
519.9653, 4244.148
520.4474, 4241.545
520.9296, 4239.347
521.4117, 4236.135
521.8938, 4232.054
522.3759, 4231.644
522.8580, 4237.131
523.3401, 4238.754
523.8223, 4221.099
524.3044, 4187.747
524.7865, 4176.427
525.2686, 4196.264
525.7507, 4227.788
526.2328, 4247.338
526.7150, 4255.900
527.1971, 4257.601
527.6792, 4244.970
528.1613, 4232.222
528.6434, 4239.510
529.1255, 4264.493
529.6077, 4281.953
530.0898, 4267.985
530.5719, 4246.162
531.0540, 4236.421
531.5361, 4250.116
532.0182, 4260.674
532.5004, 4258.369
532.9825, 4249.488
533.4646, 4244.000
533.9467, 4242.446
534.4288, 4244.790
534.9109, 4254.412
535.3931, 4270.023
535.8752, 4273.193
536.3573, 4256.883
536.8394, 4242.128
537.3215, 4244.444
537.8036, 4265.727
538.2858, 4279.287
538.7679, 4283.115
539.2500, 4281.451
539.7321, 4278.188
540.2142, 4273.961
540.6964, 4272.529
541.1785, 4275.630
541.6606, 4281.809
542.1427, 4289.212
542.6248, 4297.839
543.1069, 4307.678
543.5891, 4323.284
544.0712, 4337.395
544.5533, 4342.869
545.0354, 4337.628
545.5175, 4329.618
545.9996, 4316.262
546.4818, 4304.222
546.9639, 4300.829
547.4460, 4317.643
547.9281, 4331.460
548.4102, 4336.838
548.8923, 4336.411
549.3745, 4340.431
549.8566, 4354.245
550.3387, 4363.408
550.8208, 4359.197
551.3029, 4340.002
551.7850, 4335.044
552.2672, 4348.221
552.7493, 4363.160
553.2314, 4358.726
553.7135, 4338.165
554.1956, 4329.453
554.6777, 4341.651
555.1599, 4360.517
555.6420, 4366.590
556.1241, 4361.894
556.6062, 4352.813
557.0883, 4335.307
557.5704, 4319.976
558.0526, 4317.246
558.5347, 4327.028
559.0168, 4340.361
559.4989, 4355.326
559.9810, 4370.444
560.4631, 4385.062
560.9453, 4402.833
561.4274, 4413.544
561.9095, 4408.232
562.3916, 4397.516
562.8737, 4396.946
563.3558, 4412.436
563.8380, 4427.584
564.3201, 4441.668
564.8022, 4452.814
565.2843, 4445.905
565.7664, 4415.204
566.2485, 4391.521
566.7307, 4401.774
567.2128, 4439.066
567.6949, 4459.524
568.1770, 4460.283
568.6591, 4450.337
569.1412, 4430.299
569.6234, 4407.456
570.1055, 4397.840
570.5876, 4414.734
571.0697, 4435.273
571.5518, 4441.870
572.0339, 4438.152
572.5161, 4433.458
572.9982, 4423.926
573.4803, 4420.910
573.9624, 4433.775
574.4445, 4465.788
574.9266, 4488.323
575.4088, 4494.987
575.8909, 4495.000
576.3730, 4494.330
576.8551, 4495.417
577.3372, 4488.008
577.8193, 4465.851
578.3015, 4441.720
578.7836, 4442.542
579.2657, 4470.669
579.7478, 4486.489
580.2299, 4469.636
580.7120, 4436.629
581.1942, 4429.894
581.6763, 4447.479
582.1584, 4469.792
582.6405, 4483.105
583.1226, 4493.553
583.6047, 4510.900
584.0869, 4537.545
584.5690, 4558.026
585.0511, 4561.673
585.5332, 4555.143
586.0153, 4545.300
586.4974, 4524.960
586.9796, 4511.823
587.4617, 4513.175
587.9438, 4523.770
588.4259, 4530.541
588.9080, 4531.966
589.3901, 4531.547
589.8723, 4528.599
590.3544, 4523.572
590.8365, 4527.089
591.3186, 4541.143
591.8007, 4555.992
592.2828, 4563.999
592.7650, 4566.103
593.2471, 4568.074
593.7292, 4570.362
594.2113, 4572.952
594.6934, 4577.974
595.1755, 4583.139
595.6577, 4583.151
596.1398, 4567.157
596.6219, 4555.715
597.1040, 4574.092
597.5862, 4610.036
598.0683, 4627.795
598.5504, 4591.788
599.0325, 4555.127
599.5146, 4542.388
599.9968, 4558.347
600.4789, 4570.997
600.9610, 4576.114
601.4431, 4581.733
601.9252, 4595.941
602.4073, 4624.326
602.8895, 4635.407
603.3716, 4622.520
603.8537, 4601.208
604.3358, 4595.044
604.8179, 4603.018
605.3000, 4612.240
605.7822, 4618.173
606.2643, 4623.697
606.7464, 4638.221
607.2285, 4658.162
607.7106, 4668.581
608.1927, 4651.559
608.6749, 4627.529
609.1570, 4613.792
609.6391, 4612.021
610.1212, 4609.761
610.6033, 4594.048
611.0854, 4581.446
611.5676, 4584.644
612.0497, 4622.288
612.5318, 4648.475
613.0139, 4658.854
613.4960, 4660.725
613.9781, 4666.408
614.4603, 4679.405
614.9424, 4679.778
615.4245, 4655.506
615.9066, 4620.600
616.3887, 4619.581
616.8708, 4651.205
617.3530, 4682.493
617.8351, 4694.719
618.3172, 4693.582
618.7993, 4681.725
619.2814, 4659.646
619.7635, 4648.045
620.2457, 4677.401
620.7278, 4714.954
621.2099, 4727.190
621.6920, 4691.123
622.1741, 4665.374
622.6563, 4673.306
623.1384, 4697.176
623.6205, 4712.361
624.1026, 4716.189
624.5847, 4713.981
625.0668, 4701.583
625.5490, 4684.854
626.0311, 4688.143
626.5132, 4715.871
626.9953, 4737.780
627.4774, 4733.750
627.9595, 4712.169
628.4417, 4708.518
628.9238, 4722.799
629.4059, 4737.353
629.8880, 4737.079
630.3701, 4728.995
630.8522, 4721.566
631.3344, 4715.375
631.8165, 4713.637
632.2986, 4719.082
632.7807, 4729.667
633.2628, 4742.886
633.7449, 4769.125
634.2271, 4784.821
634.7092, 4781.777
635.1913, 4766.805
635.6734, 4755.669
636.1555, 4748.167
636.6376, 4745.462
637.1198, 4749.866
637.6019, 4759.598
638.0840, 4764.853
638.5661, 4765.613
639.0482, 4762.107
639.5303, 4749.575
640.0125, 4733.644
640.4946, 4727.389
640.9767, 4731.945
641.4588, 4743.615
641.9409, 4767.262
642.4230, 4793.137
642.9052, 4809.264
643.3873, 4808.112
643.8694, 4804.960
644.3515, 4805.307
644.8336, 4806.475
645.3157, 4803.041
645.7979, 4784.231
646.2800, 4777.586
646.7621, 4794.069
647.2442, 4826.346
647.7263, 4840.122
648.2084, 4832.559
648.6906, 4820.893
649.1727, 4812.684
649.6548, 4807.509
650.1369, 4782.416
650.6190, 4805.500
651.1011, 4818.717
651.5833, 4822.598
652.0654, 4789.176
652.5475, 4803.922
653.0296, 4799.365
653.5117, 4794.016
653.9938, 4815.542
654.4760, 4787.546
654.9581, 4808.645
655.4402, 4810.146
655.9223, 4820.618
656.4044, 4811.666
656.8865, 4823.679
657.3687, 4830.065
657.8508, 4824.179
658.3329, 4821.709
658.8150, 4830.144
