##NAMES=Sampleite
##RRUFFID=R090072
##IDEAL CHEMISTRY=NaCaCu^2+^_5_(P^5+^O_4_)_4_Cl&#183;5H_2_O
##LOCALITY=Engaño Feliz mine, Las Pintadas dist., Tierra Amarilla, Copiapó Province, Chile
##OWNER=RRUFF
##SOURCE=Bob Jenkins
##DESCRIPTION=Blue bladed crystals in radial aggregates associated with elongated, forest-green libethenite and dark-green atacamite. This is the polymorph or polytype described in Giester et al (2007)
##STATUS=The identification of this mineral has been confirmed by single-crystal X-ray diffraction.
##URL=rruff.info/R090072
92.07813, 8.147788
92.56024, 8.339044
93.04236, 8.208564
93.52448, 7.834851
94.00659, 7.508246
94.48871, 7.585143
94.97083, 7.843100
95.45294, 7.577834
95.93506, 6.537968
96.41718, 5.297044
96.89929, 4.915848
97.38141, 5.406670
97.86353, 6.106654
98.34564, 6.537426
98.82776, 6.708161
99.30988, 7.084033
99.79199, 7.990986
100.2741, 9.070992
100.7562, 8.606917
101.2383, 6.017687
101.7205, 3.496028
102.2026, 3.327858
102.6847, 6.263150
103.1668, 8.653440
103.6489, 9.612030
104.1310, 9.094399
104.6132, 8.870052
105.0953, 9.175963
105.5774, 9.553033
106.0595, 9.492054
106.5416, 9.196662
107.0237, 8.107950
107.5059, 5.517572
107.9880, -1.7810090E-02
108.4701, -2.444139
108.9522, 0.1454096
109.4343, 5.465938
109.9164, 9.429203
110.3986, 13.09232
110.8807, 14.42583
111.3628, 12.29435
111.8449, 1.706866
112.3270, -4.217868
112.8091, -1.584063
113.2913, 6.709456
113.7734, 12.49215
114.2555, 12.58121
114.7376, 11.12477
115.2197, 10.31541
115.7018, 10.90344
116.1840, 11.75877
116.6661, 12.58596
117.1482, 13.42816
117.6303, 14.50462
118.1124, 16.12207
118.5945, 17.92630
119.0767, 19.59854
119.5588, 21.35929
120.0409, 22.72268
120.5230, 22.59570
121.0051, 21.12386
121.4872, 21.21875
121.9694, 25.89325
122.4515, 32.97891
122.9336, 39.49790
123.4157, 43.51421
123.8978, 46.74851
124.3799, 50.18536
124.8621, 53.75595
125.3442, 58.91317
125.8263, 67.89671
126.3084, 79.56416
126.7905, 91.16973
127.2726, 101.5500
127.7548, 110.8604
128.2369, 118.9162
128.7190, 125.4207
129.2011, 131.7893
129.6832, 140.1936
130.1653, 150.2372
130.6474, 160.0139
131.1296, 168.1429
131.6117, 174.9855
132.0938, 181.9786
132.5759, 189.1233
133.0580, 196.7856
133.5401, 205.4367
134.0223, 215.1070
134.5044, 225.8269
134.9865, 237.5359
135.4686, 250.3613
135.9507, 264.1657
136.4328, 278.4709
136.9150, 294.2758
137.3971, 314.9938
137.8792, 341.3967
138.3613, 370.1086
138.8434, 400.4138
139.3255, 433.5688
139.8077, 460.2381
140.2898, 480.6602
140.7719, 493.8855
141.2540, 491.1634
141.7361, 468.8142
142.2182, 436.6989
142.7004, 402.3293
143.1825, 362.6043
143.6646, 328.9522
144.1467, 305.2213
144.6288, 291.5931
145.1109, 279.7636
145.5931, 269.3542
146.0752, 260.9531
146.5573, 255.3154
147.0394, 254.3143
147.5215, 253.4398
148.0036, 251.5063
148.4858, 247.9775
148.9679, 245.3794
149.4500, 243.3908
149.9321, 242.4312
150.4142, 243.1652
150.8963, 247.7298
151.3785, 252.0196
151.8606, 254.6904
152.3427, 254.6757
152.8248, 255.6670
153.3069, 257.7206
153.7890, 260.8319
154.2712, 264.2603
154.7533, 268.0591
155.2354, 271.7844
155.7175, 275.0109
156.1996, 278.2124
156.6817, 279.8474
157.1639, 278.3314
157.6460, 275.1317
158.1281, 273.4373
158.6102, 275.2137
159.0923, 277.6728
159.5744, 279.4382
160.0566, 279.8779
160.5387, 280.2555
161.0208, 280.9696
161.5029, 281.8968
161.9850, 282.6702
162.4671, 283.3868
162.9493, 283.7920
163.4314, 283.7095
163.9135, 282.9811
164.3956, 281.9299
164.8777, 280.7004
165.3598, 279.2682
165.8420, 277.5250
166.3241, 274.2206
166.8062, 271.1112
167.2883, 269.8517
167.7704, 272.7677
168.2525, 275.7278
168.7346, 276.1411
169.2168, 274.2807
169.6989, 271.8547
170.1810, 269.7401
170.6631, 267.6800
171.1452, 265.3656
171.6273, 262.8600
172.1095, 259.9678
172.5916, 256.2781
173.0737, 251.8603
173.5558, 247.5011
174.0379, 243.4181
174.5201, 239.8282
175.0022, 236.9947
175.4843, 234.3959
175.9664, 232.9254
176.4485, 233.9317
176.9306, 237.3640
177.4128, 241.8940
177.8949, 246.7218
178.3770, 251.7826
178.8591, 257.0439
179.3412, 261.4630
179.8233, 266.4090
180.3055, 274.6391
180.7876, 286.3693
181.2697, 298.7784
181.7518, 309.0258
182.2339, 317.6683
182.7160, 326.8732
183.1982, 337.8511
183.6803, 349.9156
184.1624, 361.5320
184.6445, 372.6170
185.1266, 383.4241
185.6087, 394.4400
186.0909, 405.6043
186.5730, 415.9727
187.0551, 424.3816
187.5372, 431.6141
188.0193, 440.6748
188.5014, 451.7184
188.9836, 463.9499
189.4657, 476.3285
189.9478, 488.8784
190.4299, 503.3365
190.9120, 520.8965
191.3941, 541.0313
191.8763, 562.1526
192.3584, 584.7982
192.8405, 606.4675
193.3226, 625.4388
193.8047, 641.6391
194.2868, 652.2548
194.7690, 657.0334
195.2511, 655.7460
195.7332, 645.0445
196.2153, 624.2437
196.6974, 595.5959
197.1795, 562.1116
197.6617, 523.3371
198.1438, 483.9213
198.6259, 444.5813
199.1080, 405.4572
199.5901, 371.4997
200.0722, 343.2732
200.5544, 319.7773
201.0365, 300.2981
201.5186, 285.1061
202.0007, 271.3925
202.4828, 257.6759
202.9649, 243.8118
203.4471, 232.1115
203.9292, 223.0177
204.4113, 215.4268
204.8934, 206.8596
205.3755, 196.9815
205.8576, 187.7893
206.3398, 180.4198
206.8219, 175.1426
207.3040, 169.8045
207.7861, 164.3021
208.2682, 158.8617
208.7503, 153.8206
209.2325, 149.0163
209.7146, 145.2661
210.1967, 143.3053
210.6788, 143.6628
211.1609, 143.1775
211.6430, 141.4970
212.1252, 139.1930
212.6073, 137.5287
213.0894, 136.5626
213.5715, 136.0816
214.0536, 135.9853
214.5357, 136.2430
215.0179, 136.9865
215.5000, 138.1604
215.9821, 139.8532
216.4642, 142.4909
216.9463, 146.6694
217.4284, 150.4672
217.9105, 152.8921
218.3927, 153.2760
218.8748, 154.4313
219.3569, 156.5065
219.8390, 159.2650
220.3211, 162.1829
220.8032, 165.0403
221.2854, 168.5011
221.7675, 173.0548
222.2496, 179.1292
222.7317, 184.8946
223.2138, 190.6307
223.6959, 195.9082
224.1781, 199.7607
224.6602, 201.3747
225.1423, 202.9533
225.6244, 205.6637
226.1065, 210.7370
226.5886, 213.2937
227.0708, 212.5464
227.5529, 209.6929
228.0350, 207.2813
228.5171, 205.9524
228.9992, 203.9520
229.4813, 200.5914
229.9635, 195.6556
230.4456, 190.0492
230.9277, 183.5867
231.4098, 176.6161
231.8919, 169.6361
232.3740, 162.5333
232.8562, 155.6753
233.3383, 149.0221
233.8204, 142.1525
234.3025, 136.9588
234.7846, 134.2114
235.2667, 132.7085
235.7489, 130.2988
236.2310, 126.4262
236.7131, 122.5615
237.1952, 119.0770
237.6773, 115.9731
238.1594, 113.4561
238.6416, 111.6502
239.1237, 110.3538
239.6058, 109.2610
240.0879, 108.3817
240.5700, 107.6821
241.0521, 107.2875
241.5343, 107.4395
242.0164, 106.7791
242.4985, 104.8158
242.9806, 102.3731
243.4627, 100.6804
243.9448, 100.1285
244.4270, 99.66098
244.9091, 99.02391
245.3912, 98.21439
245.8733, 97.23660
246.3554, 96.16685
246.8375, 94.86080
247.3197, 93.00668
247.8018, 89.96146
248.2839, 87.52384
248.7660, 86.18059
249.2481, 86.01499
249.7302, 86.36005
250.2124, 87.58187
250.6945, 88.98124
251.1766, 89.83781
251.6587, 90.28149
252.1408, 89.90019
252.6229, 88.29262
253.1051, 85.30956
253.5872, 83.23986
254.0693, 82.34392
254.5514, 82.02216
255.0335, 81.70479
255.5156, 81.44594
255.9978, 81.04677
256.4799, 80.24401
256.9620, 79.04700
257.4441, 79.00332
257.9262, 80.78479
258.4083, 82.84274
258.8904, 83.55237
259.3726, 81.95432
259.8547, 81.50467
260.3368, 83.44289
260.8189, 87.40959
261.3010, 88.82529
261.7831, 86.36372
262.2653, 83.44353
262.7474, 82.89796
263.2295, 85.56345
263.7116, 88.17232
264.1937, 90.30967
264.6758, 92.04214
265.1580, 93.83527
265.6401, 95.64097
266.1222, 97.57872
266.6043, 99.56112
267.0864, 101.3161
267.5685, 104.2418
268.0507, 108.8914
268.5328, 114.7362
269.0149, 119.6818
269.4970, 123.3241
269.9791, 127.1614
270.4612, 132.2413
270.9434, 138.7622
271.4255, 145.5303
271.9076, 152.7505
272.3897, 160.0517
272.8718, 166.3230
273.3539, 171.1596
273.8361, 176.2818
274.3182, 182.6717
274.8003, 190.4431
275.2824, 198.3717
275.7645, 206.3969
276.2466, 214.5027
276.7288, 222.4913
277.2109, 230.1655
277.6930, 238.5638
278.1751, 247.7589
278.6572, 257.7328
279.1393, 269.6757
279.6215, 283.9019
280.1036, 299.4879
280.5857, 315.1541
281.0678, 330.8296
281.5499, 346.7942
282.0320, 362.9761
282.5142, 379.4113
282.9963, 395.9679
283.4784, 413.0347
283.9605, 429.0601
284.4426, 442.3136
284.9247, 452.7962
285.4069, 460.7397
285.8890, 466.4032
286.3711, 469.5830
286.8532, 469.4457
287.3353, 465.9273
287.8174, 459.4207
288.2996, 449.4864
288.7817, 436.3654
289.2638, 423.2102
289.7459, 410.7770
290.2280, 398.9492
290.7101, 386.9625
291.1923, 374.7373
291.6744, 362.8992
292.1565, 351.7794
292.6386, 341.3601
293.1207, 331.6203
293.6028, 322.6475
294.0850, 314.2231
294.5671, 305.6947
295.0492, 297.0526
295.5313, 288.1462
296.0134, 278.6382
296.4955, 268.8081
296.9777, 259.5595
297.4598, 251.1529
297.9419, 243.3001
298.4240, 235.9155
298.9061, 228.9618
299.3882, 222.0457
299.8704, 215.0640
300.3525, 207.9801
300.8346, 200.3861
301.3167, 192.1404
301.7988, 184.0588
302.2809, 177.0880
302.7631, 171.0067
303.2452, 164.9224
303.7273, 158.2503
304.2094, 151.4093
304.6915, 144.9393
305.1736, 138.7785
305.6558, 133.3445
306.1379, 129.4001
306.6200, 126.3982
307.1021, 123.3237
307.5842, 119.5674
308.0663, 115.6355
308.5485, 111.8561
309.0306, 108.2549
309.5127, 104.9337
309.9948, 102.2029
310.4769, 99.72241
310.9590, 97.04659
311.4412, 93.44576
311.9233, 90.13330
312.4054, 88.13223
312.8875, 87.23577
313.3696, 86.46352
313.8517, 85.38044
314.3339, 84.13749
314.8160, 82.83750
315.2981, 81.43255
315.7802, 80.11202
316.2623, 78.84401
316.7444, 77.72208
317.2266, 76.97660
317.7087, 77.22206
318.1908, 77.53551
318.6729, 77.17855
319.1550, 75.55803
319.6371, 74.57174
320.1193, 75.91747
320.6014, 78.15218
321.0835, 78.92785
321.5656, 75.68430
322.0477, 72.43345
322.5298, 71.05220
323.0120, 72.12388
323.4941, 72.71518
323.9762, 71.85878
324.4583, 70.35963
324.9404, 69.08833
325.4225, 67.91225
325.9047, 67.24240
326.3868, 67.40367
326.8689, 68.42349
327.3510, 69.21375
327.8331, 69.41724
328.3152, 69.53762
328.7974, 69.92449
329.2795, 71.14471
329.7616, 71.96947
330.2437, 72.21156
330.7258, 71.94839
331.2079, 71.57838
331.6901, 70.78661
332.1722, 70.19890
332.6543, 70.12547
333.1364, 70.74303
333.6185, 71.59792
334.1006, 73.02213
334.5828, 74.57808
335.0649, 75.07899
335.5470, 73.77779
336.0291, 72.74184
336.5112, 72.85319
336.9933, 74.39024
337.4755, 75.64148
337.9576, 76.54722
338.4397, 77.22139
338.9218, 77.81857
339.4039, 78.33711
339.8860, 78.76915
340.3681, 79.11227
340.8503, 79.36808
341.3324, 79.60070
341.8145, 79.93187
342.2966, 79.90163
342.7787, 78.77379
343.2608, 76.47606
343.7430, 74.76450
344.2251, 73.93122
344.7072, 73.95161
345.1893, 75.22683
345.6714, 77.90261
346.1535, 80.14650
346.6357, 80.30949
347.1178, 78.74619
347.5999, 77.63205
348.0820, 77.27906
348.5641, 77.26430
349.0462, 76.82192
349.5284, 76.03616
350.0105, 75.52493
350.4926, 75.95197
350.9747, 76.84028
351.4568, 77.10207
351.9389, 76.66348
352.4211, 75.89983
352.9032, 74.80228
353.3853, 73.65791
353.8674, 73.17899
354.3495, 74.42705
354.8316, 75.99507
355.3138, 76.00209
355.7959, 74.58599
356.2780, 73.19618
356.7601, 72.71651
357.2422, 72.88762
357.7243, 73.50052
358.2065, 75.12438
358.6886, 76.20602
359.1707, 75.07334
359.6528, 72.40528
360.1349, 70.24987
360.6170, 69.87840
361.0992, 70.21003
361.5813, 70.68262
362.0634, 71.46280
362.5455, 71.49987
363.0276, 69.59717
363.5097, 66.84251
363.9919, 64.85494
364.4740, 65.68001
364.9561, 65.94349
365.4382, 63.78040
365.9203, 58.81738
366.4024, 55.07993
366.8846, 54.46619
367.3667, 54.77425
367.8488, 54.22141
368.3309, 51.76022
368.8130, 49.37730
369.2951, 46.94735
369.7773, 44.62748
370.2594, 43.47888
370.7415, 44.59967
371.2236, 45.86809
371.7057, 46.32444
372.1878, 45.52605
372.6700, 44.75565
373.1521, 44.02898
373.6342, 43.32933
374.1163, 42.56494
374.5984, 41.47944
375.0805, 40.86635
375.5627, 41.22080
376.0448, 42.69934
376.5269, 43.08885
377.0090, 41.97471
377.4911, 40.50050
377.9732, 39.99648
378.4554, 40.65009
378.9375, 41.00929
379.4196, 40.49958
379.9017, 39.58044
380.3838, 40.10066
380.8659, 42.19342
381.3481, 44.64216
381.8302, 46.84406
382.3123, 48.73003
382.7944, 49.72771
383.2765, 49.70176
383.7586, 48.99073
384.2408, 47.55251
384.7229, 45.62562
385.2050, 44.60372
385.6871, 46.05160
386.1692, 48.67946
386.6513, 50.02021
387.1335, 49.96666
387.6156, 49.42115
388.0977, 48.96672
388.5798, 48.62331
389.0619, 48.43559
389.5440, 48.56122
390.0262, 48.70700
390.5083, 48.52557
390.9904, 48.09303
391.4725, 47.77575
391.9546, 47.85583
392.4367, 48.10536
392.9189, 48.39618
393.4010, 48.84381
393.8831, 48.95771
394.3652, 48.39693
394.8473, 47.36414
395.3294, 46.18150
395.8116, 44.12695
396.2937, 42.68089
396.7758, 42.74831
397.2579, 44.55354
397.7400, 46.04668
398.2221, 46.89234
398.7043, 47.21070
399.1864, 47.09322
399.6685, 46.14585
400.1506, 45.22738
400.6327, 44.32395
401.1148, 43.48553
401.5970, 42.97704
402.0791, 43.16863
402.5612, 43.26772
403.0433, 42.87815
403.5254, 41.72349
404.0075, 40.83229
404.4897, 40.15462
404.9718, 39.78356
405.4539, 39.96407
405.9360, 40.92242
406.4181, 41.76905
406.9002, 42.49820
407.3824, 42.99333
407.8645, 41.77700
408.3466, 38.39937
408.8287, 35.02331
409.3108, 33.68699
409.7929, 34.31596
410.2751, 35.16072
410.7572, 36.14853
411.2393, 36.90772
411.7214, 36.32965
412.2035, 34.58535
412.6856, 33.29981
413.1678, 33.87089
413.6499, 35.48794
414.1320, 36.51267
414.6141, 36.88477
415.0962, 36.57761
415.5783, 34.86963
416.0605, 32.54221
416.5426, 31.07134
417.0247, 31.84620
417.5068, 32.90873
417.9889, 32.13131
418.4710, 29.96393
418.9532, 28.47100
419.4353, 29.25861
419.9174, 30.91404
420.3995, 32.38396
420.8816, 33.56217
421.3637, 34.36444
421.8459, 34.48207
422.3280, 34.26148
422.8101, 34.23139
423.2922, 34.74475
423.7743, 35.25607
424.2564, 35.55700
424.7386, 35.62017
425.2207, 35.77645
425.7028, 36.24674
426.1849, 36.69021
426.6670, 36.89287
427.1491, 36.86724
427.6313, 36.55464
428.1134, 35.66042
428.5955, 34.53573
429.0776, 34.19619
429.5597, 34.99994
430.0418, 35.88009
430.5240, 36.47723
431.0061, 36.78827
431.4882, 36.77693
431.9703, 36.29720
432.4524, 35.81623
432.9345, 35.81026
433.4167, 36.27750
433.8988, 37.22453
434.3809, 38.83838
434.8630, 40.75144
435.3451, 41.92634
435.8272, 42.38867
436.3094, 42.90018
436.7915, 44.07867
437.2736, 45.68249
437.7557, 46.95464
438.2378, 47.73028
438.7199, 48.82273
439.2020, 51.59418
439.6841, 55.26949
440.1663, 58.25977
440.6484, 58.93495
441.1305, 59.37154
441.6126, 61.31480
442.0947, 64.60044
442.5768, 68.19893
443.0590, 71.88379
443.5411, 75.47702
444.0232, 78.78564
444.5053, 81.55775
444.9874, 84.53543
445.4695, 88.04208
445.9517, 91.85728
446.4338, 95.66386
446.9159, 98.74564
447.3980, 102.4770
447.8801, 107.3524
448.3622, 113.4688
448.8444, 119.6112
449.3265, 125.1822
449.8086, 131.3315
450.2907, 138.9798
450.7728, 149.3807
451.2549, 158.5606
451.7371, 165.8666
452.2192, 172.0409
452.7013, 178.5990
453.1834, 185.5161
453.6655, 192.7868
454.1476, 201.1500
454.6298, 210.2153
455.1119, 215.5866
455.5940, 216.9149
456.0761, 216.1698
456.5582, 215.5387
457.0403, 214.6380
457.5225, 211.3408
458.0046, 205.2552
458.4867, 196.6394
458.9688, 185.1777
459.4509, 171.2841
459.9330, 157.1646
460.4152, 143.1536
460.8973, 129.8049
461.3794, 117.8286
461.8615, 107.0950
462.3436, 97.81409
462.8257, 90.90152
463.3079, 85.08813
463.7900, 78.87114
464.2721, 70.20867
464.7542, 62.92600
465.2363, 59.25099
465.7184, 58.20350
466.2006, 57.00193
466.6827, 54.78119
467.1648, 52.42698
467.6469, 50.22355
468.1290, 48.11874
468.6111, 46.47340
469.0933, 45.57963
469.5754, 44.93705
470.0575, 44.06654
470.5396, 42.72007
471.0217, 41.66618
471.5038, 41.09635
471.9860, 40.84873
472.4681, 40.26918
472.9502, 39.17089
473.4323, 38.36775
473.9144, 38.44318
474.3965, 39.35457
474.8787, 39.81719
475.3608, 39.80894
475.8429, 39.45763
476.3250, 38.79749
476.8071, 37.88020
477.2892, 36.89154
477.7714, 35.67064
478.2535, 34.72676
478.7356, 35.26342
479.2177, 36.90938
479.6998, 38.05021
480.1819, 37.29420
480.6641, 35.82410
481.1462, 34.76783
481.6283, 34.21189
482.1104, 34.06922
482.5925, 34.63166
483.0746, 35.43697
483.5568, 36.01078
484.0389, 36.14171
484.5210, 36.09975
485.0031, 36.05410
485.4852, 35.90609
485.9673, 35.34709
486.4495, 33.41490
486.9316, 31.93735
487.4137, 31.67292
487.8958, 32.95081
488.3779, 33.76949
488.8600, 33.79808
489.3422, 33.71799
489.8243, 34.35598
490.3064, 36.24833
490.7885, 36.83475
491.2706, 35.29543
491.7527, 32.66454
492.2349, 31.59649
492.7170, 32.21450
493.1991, 33.05860
493.6812, 33.31267
494.1633, 33.18926
494.6454, 33.84529
495.1276, 35.33624
495.6097, 36.43382
496.0918, 35.30535
496.5739, 33.00880
497.0560, 31.94776
497.5381, 33.11717
498.0203, 34.61667
498.5024, 34.78254
498.9845, 33.98815
499.4666, 33.06355
499.9487, 32.28606
500.4308, 31.58106
500.9130, 30.68032
501.3951, 29.59094
501.8772, 29.28442
502.3593, 31.18546
502.8414, 33.23502
503.3235, 34.07968
503.8057, 32.56952
504.2878, 31.25692
504.7699, 29.97263
505.2520, 29.01202
505.7341, 28.95252
506.2162, 30.28535
506.6984, 31.55996
507.1805, 32.49409
507.6626, 33.06990
508.1447, 32.99588
508.6268, 32.11214
509.1089, 31.17266
509.5911, 30.72549
510.0732, 30.73193
510.5553, 30.72346
511.0374, 30.62658
511.5195, 30.65625
512.0016, 31.47228
512.4838, 32.71824
512.9659, 33.13920
513.4480, 31.61388
513.9301, 29.71992
514.4122, 29.40472
514.8943, 30.36071
515.3765, 31.28707
515.8586, 31.67916
516.3407, 31.60317
516.8228, 30.73647
517.3049, 28.69781
517.7870, 27.82342
518.2692, 30.37984
518.7513, 33.79932
519.2334, 35.60699
519.7155, 33.86032
520.1976, 32.36752
520.6797, 31.49259
521.1619, 31.13990
521.6440, 31.11436
522.1261, 31.69507
522.6082, 32.10182
523.0903, 31.99038
523.5724, 31.34779
524.0546, 30.89635
524.5367, 30.63883
525.0188, 30.57531
525.5009, 30.80232
525.9830, 31.28660
526.4651, 31.67548
526.9473, 31.98675
527.4294, 32.00840
527.9115, 31.01315
528.3936, 29.38194
528.8757, 28.36527
529.3578, 28.94561
529.8400, 30.16583
530.3221, 31.36669
530.8042, 32.44936
531.2863, 32.87782
531.7684, 31.71912
532.2505, 30.19020
532.7327, 29.17864
533.2148, 28.86649
533.6969, 28.91156
534.1790, 29.17657
534.6611, 29.77598
535.1432, 30.84228
535.6254, 33.27113
536.1075, 35.05220
536.5896, 35.77037
537.0717, 35.70288
537.5538, 35.78652
538.0359, 36.16240
538.5181, 36.35174
539.0002, 35.97842
539.4823, 35.06939
539.9644, 34.91087
540.4465, 35.56041
540.9286, 36.66908
541.4108, 38.28770
541.8929, 40.19048
542.3750, 41.20214
542.8571, 40.92689
543.3392, 40.28944
543.8214, 40.42854
544.3035, 41.07311
544.7856, 41.56358
545.2677, 41.20866
545.7498, 40.90812
546.2319, 41.31157
546.7141, 42.36600
547.1962, 43.71018
547.6783, 45.73419
548.1604, 47.58636
548.6425, 48.82276
549.1246, 49.29914
549.6068, 49.40366
550.0889, 48.78540
550.5710, 48.04675
551.0531, 47.69689
551.5352, 47.64258
552.0173, 48.25589
552.4995, 49.89678
552.9816, 52.01897
553.4637, 53.09130
553.9458, 52.93560
554.4279, 52.98913
554.9100, 54.08453
555.3922, 55.85952
555.8743, 56.89147
556.3564, 57.17263
556.8385, 57.03915
557.3206, 56.36037
557.8027, 55.55308
558.2849, 55.46721
558.7670, 56.39568
559.2491, 57.23963
559.7312, 57.03225
560.2133, 56.25421
560.6954, 55.55650
561.1776, 55.68946
561.6597, 55.39276
562.1418, 53.89330
562.6239, 51.54267
563.1060, 49.65927
563.5881, 48.61491
564.0703, 47.86831
564.5524, 47.41887
565.0345, 47.34315
565.5166, 46.51128
565.9987, 44.44267
566.4808, 42.43386
566.9630, 41.60345
567.4451, 42.06281
567.9272, 42.24675
568.4093, 41.99002
568.8914, 41.54293
569.3735, 41.35877
569.8557, 41.33608
570.3378, 40.92149
570.8199, 39.55296
571.3020, 38.10324
571.7841, 38.04624
572.2662, 38.99042
572.7484, 39.49006
573.2305, 38.19701
573.7126, 36.60892
574.1947, 35.71855
574.6768, 35.63479
575.1589, 35.88630
575.6411, 36.54576
576.1232, 37.34692
576.6053, 38.11103
577.0874, 39.01219
577.5695, 39.56007
578.0516, 39.63887
578.5338, 39.43528
579.0159, 39.14990
579.4980, 38.68646
579.9801, 38.49427
580.4622, 38.66111
580.9443, 39.17459
581.4265, 40.13477
581.9086, 41.54032
582.3907, 42.82747
582.8728, 43.56676
583.3549, 43.99355
583.8370, 44.63161
584.3192, 45.48875
584.8013, 46.40632
