##NAMES=Sampleite
##RRUFFID=R070018
##IDEAL CHEMISTRY=NaCaCu^2+^_5_(P^5+^O_4_)_4_Cl&#183;5H_2_O
##LOCALITY=Endeavour 26 Open Cut, Northparkes mine, Goonumbla, NSW, Australia
##OWNER=RRUFF
##SOURCE=Mark Mauthner
##DESCRIPTION=Electric-blue platy crystals on limonitic matrix
##STATUS=The identification of this mineral has been confirmed by single-crystal X-ray diffraction.
##URL=rruff.info/R070018
126.1309, 1359.183
126.6130, 1458.763
127.0951, 1560.299
127.5772, 1661.170
128.0593, 1756.688
128.5415, 1846.347
129.0236, 1941.739
129.5057, 2051.705
129.9878, 2170.490
130.4699, 2291.274
130.9520, 2412.342
131.4342, 2535.084
131.9163, 2664.606
132.3984, 2805.153
132.8805, 2935.527
133.3626, 3046.911
133.8447, 3142.395
134.3269, 3221.886
134.8090, 3283.256
135.2911, 3331.236
135.7732, 3371.733
136.2553, 3400.124
136.7374, 3432.869
137.2196, 3469.624
137.7017, 3515.490
138.1838, 3578.656
138.6659, 3664.681
139.1480, 3767.957
139.6301, 3873.186
140.1123, 3971.512
140.5944, 4087.917
141.0765, 4229.799
141.5586, 4391.187
142.0407, 4565.514
142.5228, 4751.292
143.0050, 4946.770
143.4871, 5145.409
143.9692, 5346.478
144.4513, 5554.061
144.9334, 5766.668
145.4155, 5986.160
145.8977, 6217.915
146.3798, 6467.732
146.8619, 6731.415
147.3440, 6970.669
147.8261, 7168.466
148.3082, 7356.650
148.7904, 7540.858
149.2725, 7720.939
149.7546, 7895.523
150.2367, 8066.993
150.7188, 8233.326
151.2010, 8361.561
151.6831, 8425.149
152.1652, 8476.960
152.6473, 8521.561
153.1294, 8562.842
153.6115, 8606.280
154.0937, 8657.062
154.5758, 8714.337
155.0579, 8750.669
155.5400, 8746.808
156.0221, 8743.436
156.5042, 8749.498
156.9864, 8765.117
157.4685, 8786.379
157.9506, 8809.219
158.4327, 8834.008
158.9148, 8887.052
159.3969, 8992.595
159.8791, 9096.273
160.3612, 9172.313
160.8433, 9229.353
161.3254, 9294.657
161.8075, 9388.475
162.2896, 9509.855
162.7718, 9630.156
163.2539, 9754.943
163.7360, 9874.246
164.2181, 9979.816
164.7002, 10075.52
165.1823, 10173.94
165.6645, 10283.93
166.1466, 10405.71
166.6287, 10531.38
167.1108, 10673.74
167.5929, 10808.24
168.0750, 10923.41
168.5572, 11020.14
169.0393, 11104.11
169.5214, 11176.20
170.0035, 11237.62
170.4856, 11303.59
170.9677, 11387.75
171.4499, 11463.90
171.9320, 11511.12
172.4141, 11534.33
172.8962, 11558.96
173.3783, 11602.21
173.8604, 11661.30
174.3426, 11714.27
174.8247, 11758.02
175.3068, 11798.86
175.7889, 11839.39
176.2710, 11879.89
176.7531, 11920.36
177.2353, 11960.60
177.7174, 12001.19
178.1995, 12043.67
178.6816, 12090.92
179.1637, 12137.36
179.6458, 12174.25
180.1280, 12203.94
180.6101, 12246.40
181.0922, 12322.63
181.5743, 12416.13
182.0564, 12476.51
182.5385, 12480.33
183.0207, 12477.27
183.5028, 12497.28
183.9849, 12539.32
184.4670, 12596.54
184.9491, 12673.55
185.4312, 12760.19
185.9134, 12833.17
186.3955, 12892.66
186.8776, 12937.91
187.3597, 12958.45
187.8418, 12957.95
188.3239, 12970.54
188.8061, 13017.53
189.2882, 13084.35
189.7703, 13143.12
190.2524, 13197.79
190.7345, 13236.92
191.2166, 13238.24
191.6988, 13207.50
192.1809, 13198.98
192.6630, 13246.00
193.1451, 13318.86
193.6272, 13367.48
194.1093, 13382.88
194.5915, 13396.33
195.0736, 13436.51
195.5557, 13498.68
196.0378, 13544.09
196.5199, 13547.56
197.0020, 13538.38
197.4842, 13556.41
197.9663, 13606.67
198.4484, 13662.40
198.9305, 13711.06
199.4126, 13751.71
199.8947, 13772.89
200.3769, 13753.39
200.8590, 13732.83
201.3411, 13761.58
201.8232, 13844.94
202.3053, 13922.29
202.7874, 13949.33
203.2696, 13934.45
203.7517, 13919.14
204.2338, 13904.54
204.7159, 13902.69
205.1980, 13930.07
205.6801, 13985.88
206.1623, 14034.60
206.6444, 14049.62
207.1265, 14038.86
207.6086, 14036.03
208.0907, 14049.84
208.5728, 14067.83
209.0550, 14077.96
209.5371, 14081.54
210.0192, 14086.51
210.5013, 14099.74
210.9834, 14117.89
211.4656, 14129.83
211.9477, 14131.47
212.4298, 14132.10
212.9119, 14139.00
213.3940, 14150.91
213.8761, 14163.91
214.3583, 14172.79
214.8404, 14181.74
215.3225, 14203.95
215.8046, 14247.15
216.2867, 14287.34
216.7688, 14304.14
217.2510, 14305.56
217.7331, 14308.21
218.2152, 14318.60
218.6973, 14334.35
219.1794, 14350.94
219.6615, 14367.90
220.1437, 14387.22
220.6258, 14411.56
221.1079, 14439.03
221.5900, 14467.48
222.0721, 14501.66
222.5542, 14532.67
223.0364, 14544.54
223.5185, 14533.63
224.0006, 14522.87
224.4827, 14526.12
224.9648, 14536.58
225.4469, 14545.02
225.9291, 14546.68
226.4112, 14549.79
226.8933, 14569.87
227.3754, 14609.04
227.8575, 14632.84
228.3396, 14610.66
228.8218, 14572.72
229.3039, 14560.05
229.7860, 14585.32
230.2681, 14615.65
230.7502, 14618.39
231.2323, 14595.32
231.7145, 14579.63
232.1966, 14580.78
232.6787, 14597.14
233.1608, 14629.79
233.6429, 14683.47
234.1250, 14727.87
234.6072, 14735.46
235.0893, 14712.94
235.5714, 14695.03
236.0535, 14691.56
236.5356, 14694.32
237.0177, 14693.19
237.4999, 14688.05
237.9820, 14685.07
238.4641, 14682.36
238.9462, 14684.01
239.4283, 14706.36
239.9104, 14762.86
240.3926, 14817.92
240.8747, 14826.24
241.3568, 14796.26
241.8389, 14780.03
242.3210, 14814.05
242.8031, 14868.59
243.2853, 14887.19
243.7674, 14856.95
244.2495, 14823.79
244.7316, 14835.82
245.2137, 14879.01
245.6958, 14906.47
246.1780, 14898.65
246.6601, 14875.40
247.1422, 14856.37
247.6243, 14842.09
248.1064, 14832.74
248.5885, 14828.00
249.0707, 14828.92
249.5528, 14837.24
250.0349, 14856.88
250.5170, 14880.75
250.9991, 14906.28
251.4812, 14932.65
251.9634, 14953.97
252.4455, 14966.46
252.9276, 14971.79
253.4097, 14975.35
253.8918, 14974.26
254.3739, 14976.02
254.8561, 14986.03
255.3382, 15001.95
255.8203, 15016.73
256.3024, 15026.64
256.7845, 15035.93
257.2667, 15056.61
257.7488, 15096.53
258.2309, 15121.87
258.7130, 15110.88
259.1951, 15082.09
259.6772, 15064.92
260.1594, 15067.38
260.6415, 15079.35
261.1236, 15087.32
261.6057, 15089.63
262.0878, 15096.60
262.5699, 15120.54
263.0521, 15143.35
263.5342, 15139.52
264.0163, 15107.43
264.4984, 15079.90
264.9805, 15092.71
265.4626, 15153.14
265.9448, 15185.44
266.4269, 15163.08
266.9090, 15136.46
267.3911, 15136.71
267.8732, 15161.74
268.3553, 15195.05
268.8375, 15227.97
269.3196, 15259.29
269.8017, 15267.16
270.2838, 15223.98
270.7659, 15192.79
271.2480, 15200.38
271.7302, 15233.77
272.2123, 15269.37
272.6944, 15296.24
273.1765, 15314.43
273.6586, 15324.18
274.1407, 15321.53
274.6229, 15314.82
275.1050, 15295.42
275.5871, 15276.18
276.0692, 15276.27
276.5513, 15300.56
277.0334, 15329.79
277.5156, 15330.28
277.9977, 15275.42
278.4798, 15245.22
278.9619, 15243.53
279.4440, 15260.22
279.9261, 15300.69
280.4083, 15358.25
280.8904, 15407.31
281.3725, 15417.53
281.8546, 15380.00
282.3367, 15361.00
282.8188, 15363.92
283.3010, 15380.87
283.7831, 15418.31
284.2652, 15468.10
284.7473, 15514.86
285.2294, 15549.32
285.7115, 15571.11
286.1937, 15576.88
286.6758, 15556.03
287.1579, 15531.21
287.6400, 15495.79
288.1221, 15463.09
288.6042, 15452.53
289.0864, 15473.89
289.5685, 15512.08
290.0506, 15532.88
290.5327, 15523.44
291.0148, 15528.73
291.4969, 15574.19
291.9791, 15625.10
292.4612, 15659.10
292.9433, 15670.98
293.4254, 15663.99
293.9075, 15632.47
294.3896, 15572.80
294.8718, 15534.79
295.3539, 15540.73
295.8360, 15554.34
296.3181, 15555.95
296.8002, 15546.43
297.2823, 15534.53
297.7645, 15525.37
298.2466, 15518.44
298.7287, 15510.91
299.2108, 15501.36
299.6929, 15494.29
300.1750, 15493.03
300.6572, 15495.77
301.1393, 15499.67
301.6214, 15502.97
302.1035, 15507.69
302.5856, 15515.43
303.0677, 15525.95
303.5499, 15543.46
304.0320, 15577.21
304.5141, 15615.40
304.9962, 15638.81
305.4783, 15642.10
305.9604, 15641.94
306.4426, 15650.23
306.9247, 15664.11
307.4068, 15673.44
307.8889, 15674.72
308.3710, 15671.56
308.8531, 15669.05
309.3353, 15667.52
309.8174, 15663.43
310.2995, 15651.20
310.7816, 15638.04
311.2637, 15633.39
311.7458, 15638.59
312.2280, 15648.60
312.7101, 15661.24
313.1922, 15676.25
313.6743, 15681.08
314.1564, 15666.06
314.6385, 15649.88
315.1207, 15644.88
315.6028, 15648.17
316.0849, 15648.38
316.5670, 15638.02
317.0491, 15621.09
317.5313, 15614.84
318.0134, 15636.15
318.4955, 15646.50
318.9776, 15629.15
319.4597, 15602.54
319.9418, 15586.48
320.4240, 15587.82
320.9061, 15603.55
321.3882, 15631.50
321.8703, 15687.82
322.3524, 15717.40
322.8345, 15690.68
323.3167, 15665.74
323.7988, 15691.48
324.2809, 15757.67
324.7630, 15809.57
325.2451, 15793.75
325.7272, 15711.19
326.2094, 15664.48
326.6915, 15686.01
327.1736, 15709.75
327.6557, 15718.34
328.1378, 15719.21
328.6199, 15725.85
329.1021, 15745.86
329.5842, 15770.34
330.0663, 15775.92
330.5484, 15750.66
331.0305, 15740.65
331.5126, 15773.61
331.9948, 15814.37
332.4769, 15837.39
332.9590, 15838.69
333.4411, 15832.04
333.9232, 15830.08
334.4053, 15832.10
334.8875, 15828.03
335.3696, 15809.38
335.8517, 15795.59
336.3338, 15808.11
336.8159, 15837.98
337.2980, 15855.29
337.7802, 15839.09
338.2623, 15806.53
338.7444, 15779.69
339.2265, 15757.93
339.7086, 15750.52
340.1907, 15770.08
340.6729, 15805.88
341.1550, 15831.70
341.6371, 15846.71
342.1192, 15851.98
342.6013, 15840.00
343.0834, 15818.52
343.5656, 15809.70
344.0477, 15822.95
344.5298, 15843.66
345.0119, 15849.20
345.4940, 15837.48
345.9761, 15820.34
346.4583, 15784.92
346.9404, 15753.78
347.4225, 15749.18
347.9046, 15771.24
348.3867, 15803.94
348.8688, 15836.47
349.3510, 15868.91
349.8331, 15884.37
350.3152, 15869.04
350.7973, 15854.78
351.2794, 15845.32
351.7615, 15844.09
352.2437, 15858.17
352.7258, 15890.82
353.2079, 15932.93
353.6900, 15965.62
354.1721, 15993.40
354.6542, 16001.19
355.1364, 15972.90
355.6185, 15939.70
356.1006, 15923.68
356.5827, 15925.62
357.0648, 15930.24
357.5469, 15920.65
358.0291, 15897.36
358.5112, 15888.55
358.9933, 15905.27
359.4754, 15922.07
359.9575, 15926.51
360.4396, 15924.74
360.9218, 15928.04
361.4039, 15943.81
361.8860, 15961.53
362.3681, 15962.82
362.8502, 15945.97
363.3323, 15930.86
363.8145, 15918.58
364.2966, 15915.89
364.7787, 15935.41
365.2608, 15980.52
365.7430, 16014.28
366.2251, 16006.55
366.7072, 15975.38
367.1893, 15959.68
367.6714, 15966.86
368.1535, 15977.45
368.6357, 15973.15
369.1178, 15955.42
369.5999, 15944.13
370.0820, 15936.96
370.5641, 15939.46
371.0462, 15964.33
371.5284, 16002.80
372.0105, 16028.80
372.4926, 16028.59
372.9747, 16012.21
373.4568, 16005.00
373.9389, 16018.70
374.4211, 16024.05
374.9032, 16010.32
375.3853, 15994.02
375.8674, 15993.96
376.3495, 16009.79
376.8316, 16020.89
377.3138, 16003.24
377.7959, 15953.28
378.2780, 15926.60
378.7601, 15935.22
379.2422, 15956.23
379.7243, 15998.52
380.2065, 16046.27
380.6886, 16077.21
381.1707, 16081.10
381.6528, 16065.58
382.1349, 16040.01
382.6170, 15997.30
383.0992, 15972.34
383.5813, 15984.28
384.0634, 16008.17
384.5455, 16031.67
385.0276, 16053.07
385.5097, 16069.96
385.9919, 16085.44
386.4740, 16095.02
386.9561, 16080.15
387.4382, 16031.82
387.9203, 15989.54
388.4024, 15983.26
388.8846, 16001.93
389.3667, 16018.96
389.8488, 16032.28
390.3309, 16042.18
390.8130, 16049.00
391.2951, 16052.51
391.7773, 16048.90
392.2594, 16034.52
392.7415, 16022.27
393.2236, 16035.58
393.7057, 16090.15
394.1878, 16120.73
394.6700, 16102.95
395.1521, 16077.47
395.6342, 16076.34
396.1163, 16096.41
396.5984, 16113.74
397.0805, 16110.64
397.5627, 16090.54
398.0448, 16077.18
398.5269, 16080.30
399.0090, 16077.86
399.4911, 16055.68
399.9732, 16033.10
400.4554, 16030.63
400.9375, 16052.89
401.4196, 16086.26
401.9017, 16119.82
402.3838, 16155.40
402.8659, 16169.21
403.3481, 16140.94
403.8302, 16113.68
404.3123, 16114.03
404.7944, 16131.21
405.2765, 16140.44
405.7586, 16126.61
406.2408, 16104.58
406.7229, 16093.15
407.2050, 16092.32
407.6871, 16103.78
408.1692, 16139.81
408.6513, 16177.21
409.1335, 16176.54
409.6156, 16130.56
410.0977, 16094.73
410.5798, 16097.91
411.0619, 16116.86
411.5440, 16121.91
412.0262, 16110.07
412.5083, 16095.96
412.9904, 16090.85
413.4725, 16094.19
413.9546, 16096.15
414.4367, 16095.90
414.9189, 16095.51
415.4010, 16088.01
415.8831, 16083.49
416.3652, 16100.12
416.8473, 16142.32
417.3294, 16189.74
417.8116, 16212.43
418.2937, 16204.93
418.7758, 16192.75
419.2579, 16155.83
419.7400, 16133.64
420.2221, 16154.74
420.7043, 16202.08
421.1864, 16237.63
421.6685, 16238.43
422.1506, 16219.66
422.6327, 16213.43
423.1148, 16223.16
423.5970, 16223.62
424.0791, 16191.17
424.5612, 16159.06
425.0433, 16169.73
425.5254, 16226.32
426.0075, 16267.63
426.4897, 16249.87
426.9718, 16203.67
427.4539, 16175.80
427.9360, 16170.84
428.4181, 16176.97
428.9002, 16189.13
429.3824, 16205.62
429.8645, 16216.54
430.3466, 16216.85
430.8287, 16218.35
431.3108, 16225.17
431.7929, 16234.65
432.2751, 16244.69
432.7572, 16254.29
433.2393, 16260.55
433.7214, 16258.66
434.2035, 16245.86
434.6856, 16240.77
435.1678, 16246.97
435.6499, 16257.20
436.1320, 16274.67
436.6141, 16293.52
437.0962, 16305.38
437.5783, 16306.74
438.0605, 16298.28
438.5426, 16273.54
439.0247, 16227.49
439.5068, 16208.93
439.9889, 16254.44
440.4710, 16302.25
440.9532, 16291.18
441.4353, 16232.06
441.9174, 16195.87
442.3995, 16235.57
442.8816, 16301.59
443.3637, 16326.63
443.8459, 16312.44
444.3280, 16304.24
444.8101, 16327.74
445.2922, 16368.73
445.7743, 16388.63
446.2564, 16378.76
446.7386, 16370.87
447.2207, 16376.40
447.7028, 16381.97
448.1849, 16372.70
448.6670, 16348.98
449.1491, 16322.21
449.6313, 16300.22
450.1134, 16283.87
450.5955, 16285.04
451.0776, 16330.63
451.5597, 16356.92
452.0418, 16335.71
452.5240, 16301.21
453.0061, 16289.30
453.4882, 16307.71
453.9703, 16333.97
454.4524, 16347.54
454.9345, 16349.03
455.4167, 16341.27
455.8988, 16316.25
456.3809, 16298.83
456.8630, 16325.15
457.3451, 16367.62
457.8272, 16370.95
458.3094, 16297.22
458.7915, 16224.33
459.2736, 16211.98
459.7557, 16240.66
460.2378, 16262.27
460.7199, 16263.17
461.2021, 16257.93
461.6842, 16264.19
462.1663, 16284.83
462.6484, 16300.08
463.1305, 16307.98
463.6126, 16312.95
464.0948, 16314.98
464.5769, 16315.82
465.0590, 16318.12
465.5411, 16323.05
466.0232, 16329.87
466.5053, 16337.72
466.9875, 16347.51
467.4696, 16355.18
467.9517, 16366.51
468.4338, 16369.54
468.9159, 16349.91
469.3980, 16316.65
469.8802, 16294.85
470.3623, 16300.74
470.8444, 16319.12
471.3265, 16329.96
471.8086, 16333.35
472.2907, 16331.03
472.7729, 16323.61
473.2550, 16310.66
473.7371, 16285.87
474.2192, 16246.21
474.7013, 16224.82
475.1834, 16243.67
475.6656, 16270.35
476.1477, 16273.24
476.6298, 16259.48
477.1119, 16262.96
477.5940, 16305.33
478.0761, 16366.71
478.5583, 16389.77
479.0404, 16347.05
479.5225, 16313.11
480.0046, 16293.65
480.4867, 16280.19
480.9688, 16266.35
481.4510, 16253.10
481.9331, 16246.46
482.4152, 16252.30
482.8973, 16266.04
483.3794, 16277.22
483.8615, 16286.57
484.3437, 16288.15
484.8258, 16269.07
485.3079, 16250.04
485.7900, 16259.59
486.2721, 16300.77
486.7542, 16337.79
487.2364, 16361.14
487.7185, 16371.21
488.2006, 16360.67
488.6827, 16333.48
489.1649, 16313.86
489.6470, 16316.99
490.1291, 16337.14
490.6112, 16355.44
491.0933, 16384.46
491.5754, 16393.13
492.0576, 16364.08
492.5397, 16327.69
493.0218, 16303.34
493.5039, 16293.10
493.9860, 16291.56
494.4681, 16296.97
494.9503, 16306.36
495.4324, 16305.97
495.9145, 16288.71
496.3966, 16286.02
496.8787, 16325.98
497.3608, 16372.22
497.8430, 16388.36
498.3251, 16371.99
498.8072, 16351.12
499.2893, 16332.21
499.7714, 16319.39
500.2535, 16322.07
500.7357, 16338.75
501.2178, 16354.18
501.6999, 16360.98
502.1820, 16359.13
502.6641, 16348.29
503.1462, 16317.95
503.6284, 16294.72
504.1105, 16276.65
504.5926, 16267.69
505.0747, 16276.37
505.5568, 16297.70
506.0389, 16315.01
506.5211, 16315.14
507.0032, 16305.69
507.4853, 16313.71
507.9674, 16347.93
508.4495, 16368.63
508.9316, 16351.30
509.4138, 16328.29
509.8959, 16329.47
510.3780, 16353.57
510.8601, 16371.58
511.3422, 16366.59
511.8243, 16351.65
512.3065, 16343.86
512.7886, 16341.62
513.2707, 16326.35
513.7528, 16283.09
514.2349, 16239.22
514.7170, 16253.69
515.1992, 16377.87
515.6813, 16449.81
516.1634, 16430.86
516.6455, 16395.74
517.1276, 16385.18
517.6097, 16394.44
518.0919, 16403.01
518.5740, 16400.15
519.0561, 16388.42
519.5382, 16370.21
520.0203, 16343.18
520.5024, 16325.37
520.9846, 16330.01
521.4667, 16332.86
521.9488, 16306.89
522.4309, 16261.84
522.9130, 16236.69
523.3951, 16247.38
523.8773, 16279.29
524.3594, 16339.24
524.8415, 16411.25
525.3236, 16446.98
525.8057, 16428.83
526.2878, 16385.90
526.7700, 16355.18
527.2521, 16337.99
527.7342, 16326.37
528.2163, 16316.44
528.6984, 16315.64
529.1805, 16335.87
529.6627, 16363.40
530.1448, 16379.13
530.6269, 16376.32
531.1090, 16365.23
531.5911, 16353.52
532.0732, 16342.03
532.5554, 16348.13
533.0375, 16381.11
533.5196, 16413.44
534.0017, 16432.27
534.4838, 16437.04
534.9659, 16423.06
535.4481, 16373.49
535.9302, 16336.19
536.4123, 16337.51
536.8944, 16362.51
537.3765, 16403.44
537.8586, 16453.10
538.3408, 16477.02
538.8229, 16439.52
539.3050, 16352.32
539.7871, 16310.96
540.2692, 16343.09
540.7513, 16381.55
541.2335, 16430.99
541.7156, 16472.93
542.1977, 16489.92
542.6798, 16482.73
543.1619, 16467.87
543.6440, 16454.28
544.1262, 16441.86
544.6083, 16427.12
545.0904, 16409.77
545.5725, 16407.49
546.0546, 16434.64
546.5367, 16470.79
547.0189, 16480.37
547.5010, 16458.73
547.9831, 16439.26
548.4652, 16425.26
548.9473, 16414.45
549.4294, 16407.96
549.9116, 16403.24
550.3937, 16394.10
550.8758, 16377.65
551.3579, 16360.09
551.8400, 16352.52
552.3221, 16356.16
552.8043, 16363.09
553.2864, 16375.42
553.7685, 16388.02
554.2506, 16396.80
554.7327, 16404.31
555.2148, 16415.87
555.6970, 16435.13
556.1791, 16453.41
556.6612, 16462.35
557.1433, 16466.15
557.6254, 16478.32
558.1075, 16500.58
558.5897, 16508.86
559.0718, 16476.86
559.5539, 16412.23
560.0360, 16387.49
560.5181, 16445.40
561.0002, 16489.95
561.4824, 16519.91
561.9645, 16528.15
562.4466, 16493.56
562.9287, 16426.00
563.4108, 16371.83
563.8929, 16367.42
564.3751, 16397.67
564.8572, 16433.62
565.3393, 16476.66
565.8214, 16502.71
566.3035, 16501.37
566.7856, 16483.21
567.2678, 16455.86
567.7499, 16418.37
568.2320, 16395.24
568.7141, 16400.00
569.1962, 16409.51
569.6783, 16403.55
570.1605, 16393.91
570.6426, 16408.61
571.1247, 16456.22
571.6068, 16510.64
572.0889, 16533.83
572.5710, 16523.01
573.0532, 16517.99
573.5353, 16525.28
574.0174, 16527.90
574.4995, 16514.88
574.9816, 16495.16
575.4637, 16479.82
575.9459, 16470.93
576.4280, 16464.03
576.9101, 16460.76
577.3922, 16455.94
577.8743, 16432.34
578.3564, 16394.15
578.8386, 16382.12
579.3207, 16425.09
579.8028, 16497.82
580.2849, 16529.82
580.7670, 16493.36
581.2491, 16466.27
581.7313, 16438.46
582.2134, 16428.63
582.6955, 16461.92
583.1776, 16519.26
583.6597, 16557.19
584.1418, 16551.81
584.6240, 16536.23
585.1061, 16562.49
585.5882, 16617.38
586.0703, 16628.85
586.5524, 16579.09
587.0345, 16514.92
587.5167, 16468.98
587.9988, 16441.69
588.4809, 16435.75
588.9630, 16472.02
589.4451, 16499.38
589.9272, 16509.31
590.4094, 16506.04
590.8915, 16490.77
591.3736, 16465.75
591.8557, 16432.40
592.3378, 16383.20
592.8199, 16338.94
593.3021, 16369.76
593.7842, 16489.36
594.2663, 16565.63
594.7484, 16550.45
595.2305, 16504.19
595.7126, 16483.97
596.1948, 16486.23
596.6769, 16490.41
597.1590, 16494.72
597.6411, 16499.07
598.1232, 16504.34
598.6053, 16509.26
599.0875, 16514.14
599.5696, 16517.99
600.0517, 16513.48
600.5338, 16489.36
601.0159, 16449.69
601.4980, 16435.21
601.9802, 16457.07
602.4623, 16478.43
602.9444, 16490.24
603.4265, 16495.66
603.9086, 16494.54
604.3907, 16487.49
604.8729, 16484.77
605.3550, 16503.97
605.8371, 16517.60
606.3192, 16489.30
606.8013, 16435.59
607.2834, 16400.51
607.7656, 16399.37
608.2477, 16419.18
608.7298, 16446.83
609.2119, 16484.41
609.6940, 16501.58
610.1761, 16483.81
610.6583, 16465.05
611.1404, 16459.25
611.6225, 16454.17
612.1046, 16425.81
612.5867, 16372.74
613.0688, 16349.65
613.5510, 16430.50
614.0331, 16535.15
614.5152, 16536.47
614.9973, 16451.99
615.4794, 16399.42
615.9615, 16430.89
616.4437, 16495.91
616.9258, 16514.59
617.4079, 16473.71
617.8900, 16446.07
618.3721, 16439.94
618.8542, 16437.49
619.3364, 16438.20
619.8185, 16437.66
620.3006, 16426.58
620.7827, 16403.36
621.2648, 16388.84
621.7469, 16405.67
622.2291, 16439.63
622.7112, 16468.74
