##NAMES=Samsonite
##RRUFFID=R060998
##IDEAL CHEMISTRY=Ag^1+^_4_Mn^2+^Sb^3+^_2_S^2-^_6_
##LOCALITY=Samson Vein, St. Andreasberg, Harz, Germany
##OWNER=RRUFF
##SOURCE=Michael Scott
##DESCRIPTION=Deep red to black metallic elongated and striated prismatic crystals associated with quartz
##STATUS=The identification of this mineral is confirmed by single-crystal X-ray diffraction and chemical analysis.
##URL=rruff.info/R060998
##MEASURED CHEMISTRY=Ag_4.00_Mn_1.00_Sb_2.00_S_6.00_; trace amounts of Fe
142.2531, 690.5754
142.7353, 702.1948
143.2174, 698.0601
143.6995, 696.9314
144.1816, 699.1111
144.6637, 704.7101
145.1458, 715.0831
145.6280, 737.4169
146.1101, 757.0968
146.5922, 763.9969
147.0743, 746.4846
147.5564, 733.4918
148.0385, 729.1357
148.5207, 733.7349
149.0028, 738.9515
149.4849, 746.2996
149.9670, 753.5733
150.4491, 758.5224
150.9312, 759.0549
151.4134, 759.4670
151.8955, 760.3987
152.3776, 761.7971
152.8597, 764.1043
153.3418, 768.6222
153.8239, 773.8895
154.3060, 777.6964
154.7882, 779.1776
155.2703, 779.6883
155.7524, 779.3482
156.2345, 776.1829
156.7166, 775.6502
157.1987, 779.2928
157.6809, 786.3679
158.1630, 794.8615
158.6451, 806.0322
159.1272, 817.1663
159.6093, 826.7983
160.0914, 835.7272
160.5736, 841.6658
161.0557, 841.4928
161.5378, 836.2052
162.0199, 833.5665
162.5020, 840.5114
162.9841, 849.9637
163.4663, 855.4440
163.9484, 849.3524
164.4305, 843.2147
164.9126, 842.8538
165.3947, 848.6121
165.8768, 856.7252
166.3590, 869.2583
166.8411, 882.2186
167.3232, 890.0929
167.8053, 884.2198
168.2874, 876.2856
168.7695, 876.7717
169.2517, 888.8633
169.7338, 899.5765
170.2159, 896.8113
170.6980, 885.2850
171.1801, 875.9613
171.6622, 878.1932
172.1444, 884.2072
172.6265, 884.4966
173.1086, 874.5156
173.5907, 864.5001
174.0728, 864.8282
174.5549, 873.8990
175.0371, 884.4556
175.5192, 893.4331
176.0013, 900.4592
176.4834, 904.6868
176.9655, 904.8676
177.4476, 903.1674
177.9298, 902.6530
178.4119, 903.1818
178.8940, 902.4800
179.3761, 896.6196
179.8582, 887.9413
180.3403, 882.2319
180.8224, 884.5350
181.3046, 889.8700
181.7867, 886.6111
182.2688, 873.9307
182.7509, 863.1714
183.2330, 870.8627
183.7151, 892.5817
184.1973, 909.6555
184.6794, 912.4793
185.1615, 904.3829
185.6436, 892.8611
186.1257, 876.5358
186.6078, 862.2092
187.0900, 861.3997
187.5721, 872.9539
188.0542, 884.5175
188.5363, 890.0273
189.0184, 890.2025
189.5005, 888.6784
189.9827, 885.5944
190.4648, 881.1913
190.9469, 874.7495
191.4290, 866.2668
191.9111, 859.2921
192.3932, 855.8139
192.8754, 855.8049
193.3575, 859.1132
193.8396, 867.0906
194.3217, 877.1616
194.8038, 882.8739
195.2859, 884.1984
195.7681, 881.4941
196.2502, 871.8136
196.7323, 854.9673
197.2144, 845.4882
197.6965, 848.1630
198.1786, 859.8205
198.6608, 867.0417
199.1429, 868.7466
199.6250, 869.4729
200.1071, 875.0877
200.5892, 886.5750
201.0714, 893.3969
201.5535, 891.6589
202.0356, 882.1827
202.5177, 872.7614
202.9998, 861.3751
203.4819, 854.3543
203.9641, 864.8557
204.4462, 898.8282
204.9283, 920.5916
205.4104, 913.1598
205.8925, 874.4176
206.3746, 853.3999
206.8568, 853.5843
207.3389, 866.2797
207.8210, 881.3768
208.3031, 902.5374
208.7852, 913.9462
209.2673, 904.0334
209.7494, 865.6445
210.2316, 849.4199
210.7137, 864.2424
211.1958, 893.8072
211.6779, 904.1405
212.1600, 888.5838
212.6421, 871.1307
213.1243, 863.0632
213.6064, 867.2893
214.0885, 869.8488
214.5706, 868.6870
215.0527, 866.3105
215.5348, 870.7700
216.0170, 885.3009
216.4991, 900.0291
216.9812, 909.9264
217.4633, 914.5891
217.9454, 914.9433
218.4275, 909.6280
218.9097, 900.0654
219.3918, 891.9020
219.8739, 885.1879
220.3560, 879.9594
220.8381, 875.9075
221.3202, 872.1776
221.8024, 872.2540
222.2845, 878.2067
222.7666, 888.9360
223.2487, 895.5383
223.7308, 896.0985
224.2129, 894.9832
224.6951, 895.8616
225.1772, 900.8333
225.6593, 903.1354
226.1414, 901.0576
226.6235, 894.7751
227.1056, 888.9956
227.5878, 881.7573
228.0699, 877.0776
228.5520, 879.4522
229.0341, 894.3083
229.5162, 905.2151
229.9983, 907.2059
230.4805, 899.5364
230.9626, 899.2641
231.4447, 912.2353
231.9268, 927.3508
232.4089, 932.1750
232.8910, 922.0217
233.3732, 910.2556
233.8553, 899.0405
234.3374, 887.9473
234.8195, 880.0799
235.3016, 875.4911
235.7837, 874.1003
236.2658, 876.0615
236.7480, 882.6973
237.2301, 890.5522
237.7122, 899.8714
238.1943, 912.0462
238.6764, 918.1600
239.1585, 916.6171
239.6407, 910.0438
240.1228, 901.6794
240.6049, 888.1767
241.0870, 878.3376
241.5691, 875.4398
242.0512, 881.4333
242.5334, 887.1863
243.0155, 893.5348
243.4976, 899.1346
243.9797, 900.9464
244.4618, 894.7562
244.9439, 891.5751
245.4261, 897.0454
245.9082, 917.5062
246.3903, 925.9106
246.8724, 914.7868
247.3545, 894.9390
247.8366, 888.9259
248.3188, 904.5087
248.8009, 921.5325
249.2830, 933.0795
249.7651, 939.4490
250.2472, 938.6209
250.7293, 925.9780
251.2115, 908.0448
251.6936, 900.0642
252.1757, 906.5673
252.6578, 915.8840
253.1399, 924.1132
253.6220, 933.0967
254.1042, 935.9099
254.5863, 929.5103
255.0684, 917.9962
255.5505, 912.0206
256.0326, 913.7381
256.5147, 917.3999
256.9969, 920.7787
257.4790, 924.3857
257.9611, 925.8826
258.4432, 923.4451
258.9253, 919.3286
259.4074, 920.5981
259.8896, 929.4178
260.3717, 939.7336
260.8538, 950.4551
261.3359, 965.6428
261.8180, 967.5641
262.3001, 948.9750
262.7823, 918.6763
263.2644, 904.0914
263.7465, 910.6571
264.2286, 922.3878
264.7107, 930.7006
265.1928, 934.8826
265.6750, 938.9365
266.1571, 944.1063
266.6392, 948.9796
267.1213, 948.2309
267.6034, 939.1585
268.0855, 930.6976
268.5677, 928.8278
269.0498, 935.4892
269.5319, 939.9487
270.0140, 940.8331
270.4961, 939.3300
270.9782, 938.8902
271.4604, 939.3188
271.9425, 941.3817
272.4246, 946.3709
272.9067, 955.1342
273.3888, 961.3203
273.8709, 963.0198
274.3531, 962.5479
274.8352, 968.1273
275.3173, 981.7852
275.7994, 994.4319
276.2815, 999.2575
276.7636, 995.3485
277.2457, 993.0424
277.7278, 993.8824
278.2100, 996.5784
278.6921, 996.2649
279.1742, 991.6455
279.6563, 990.2928
280.1384, 999.1100
280.6205, 1018.229
281.1027, 1035.617
281.5848, 1051.439
282.0669, 1063.129
282.5490, 1060.333
283.0311, 1040.840
283.5132, 1024.099
283.9954, 1025.678
284.4775, 1044.840
284.9596, 1060.105
285.4417, 1068.180
285.9238, 1072.345
286.4059, 1078.622
286.8881, 1086.878
287.3702, 1098.867
287.8523, 1119.464
288.3344, 1146.872
288.8165, 1165.559
289.2986, 1171.635
289.7808, 1171.886
290.2629, 1178.870
290.7450, 1192.385
291.2271, 1207.790
291.7092, 1222.434
292.1913, 1236.521
292.6735, 1251.192
293.1556, 1266.589
293.6377, 1281.994
294.1198, 1297.454
294.6019, 1312.692
295.0840, 1324.022
295.5662, 1324.494
296.0483, 1319.255
296.5304, 1322.661
297.0125, 1337.247
297.4946, 1358.761
297.9767, 1383.754
298.4589, 1411.537
298.9410, 1438.145
299.4231, 1460.059
299.9052, 1479.161
300.3873, 1498.261
300.8694, 1517.408
301.3516, 1537.284
301.8337, 1559.397
302.3158, 1583.251
302.7979, 1606.693
303.2800, 1626.784
303.7621, 1646.392
304.2443, 1670.770
304.7264, 1701.138
305.2085, 1732.145
305.6906, 1760.362
306.1727, 1785.602
306.6548, 1808.234
307.1370, 1826.670
307.6191, 1843.315
308.1012, 1860.109
308.5833, 1876.911
309.0654, 1894.817
309.5475, 1915.947
310.0297, 1938.445
310.5118, 1959.164
310.9939, 1972.569
311.4760, 1985.940
311.9581, 2006.601
312.4402, 2036.668
312.9224, 2064.536
313.4045, 2084.695
313.8866, 2098.625
314.3687, 2108.147
314.8508, 2109.340
315.3329, 2109.976
315.8151, 2113.551
316.2972, 2120.272
316.7793, 2131.273
317.2614, 2148.380
317.7435, 2169.703
318.2256, 2192.994
318.7078, 2217.600
319.1899, 2244.059
319.6720, 2273.938
320.1541, 2307.486
320.6362, 2338.648
321.1183, 2367.601
321.6005, 2391.960
322.0826, 2409.293
322.5647, 2425.708
323.0468, 2428.406
323.5289, 2414.662
324.0110, 2384.322
324.4932, 2337.205
324.9753, 2268.047
325.4574, 2185.656
325.9395, 2097.027
326.4216, 1984.822
326.9037, 1885.938
327.3859, 1810.948
327.8680, 1759.043
328.3501, 1700.544
328.8322, 1619.229
329.3143, 1543.514
329.7964, 1491.113
330.2786, 1482.247
330.7607, 1468.239
331.2428, 1445.448
331.7249, 1414.748
332.2070, 1379.114
332.6891, 1331.421
333.1712, 1286.784
333.6534, 1254.441
334.1355, 1240.099
334.6176, 1225.104
335.0997, 1209.165
335.5818, 1191.790
336.0639, 1169.501
336.5461, 1137.673
337.0282, 1109.642
337.5103, 1093.105
337.9924, 1091.540
338.4745, 1086.694
338.9566, 1077.242
339.4388, 1064.757
339.9209, 1052.894
340.4030, 1042.568
340.8851, 1029.351
341.3672, 1009.503
341.8493, 982.4589
342.3315, 961.0483
342.8136, 946.0221
343.2957, 935.1198
343.7778, 924.6246
344.2599, 914.6112
344.7420, 906.3270
345.2242, 902.1963
345.7063, 900.9473
346.1884, 895.8491
346.6705, 886.7776
347.1526, 874.5511
347.6347, 856.8948
348.1169, 835.5760
348.5990, 820.0408
349.0811, 817.9245
349.5632, 823.0863
350.0453, 822.6842
350.5274, 816.5629
351.0096, 808.9401
351.4917, 801.7742
351.9738, 795.9202
352.4559, 793.6797
352.9380, 799.7948
353.4201, 806.5416
353.9023, 803.2264
354.3844, 790.8400
354.8665, 777.8180
355.3486, 768.6969
355.8307, 762.9326
356.3128, 760.0403
356.7950, 761.7317
357.2771, 763.8418
357.7592, 763.3913
358.2413, 760.8024
358.7234, 757.6214
359.2055, 753.4423
359.6877, 749.6725
360.1698, 747.6830
360.6519, 748.8216
361.1340, 749.5056
361.6161, 747.4287
362.0982, 743.7576
362.5804, 741.0189
363.0625, 741.8883
363.5446, 742.4677
364.0267, 740.3927
364.5088, 734.0612
364.9909, 729.1159
365.4731, 727.0569
365.9552, 726.9788
366.4373, 727.5889
366.9194, 732.7540
367.4015, 734.7576
367.8836, 730.2808
368.3658, 717.3309
368.8479, 707.0061
369.3300, 698.9597
369.8121, 693.9392
370.2942, 693.0389
370.7763, 700.7498
371.2585, 706.1431
371.7406, 706.5226
372.2227, 702.0657
372.7048, 699.8896
373.1869, 702.1964
373.6690, 703.9998
374.1512, 700.4253
374.6333, 687.5927
375.1154, 681.0132
375.5975, 684.5923
376.0796, 695.2274
376.5617, 700.6214
377.0439, 699.8268
377.5260, 696.9556
378.0081, 694.9399
378.4902, 693.9731
378.9723, 689.1836
379.4544, 678.3759
379.9366, 666.5392
380.4187, 664.7600
380.9008, 673.2740
381.3829, 680.4609
381.8650, 677.7946
382.3471, 668.2579
382.8293, 665.4569
383.3114, 670.6784
383.7935, 678.3362
384.2756, 681.8717
384.7577, 682.1493
385.2398, 682.6976
385.7219, 686.0068
386.2040, 690.0429
386.6862, 691.8690
387.1683, 691.4847
387.6504, 689.3047
388.1325, 684.4550
388.6146, 678.2236
389.0967, 672.7615
389.5789, 668.2556
390.0610, 665.2120
390.5431, 664.2646
391.0252, 665.2738
391.5073, 667.5061
391.9894, 675.4022
392.4716, 681.8032
392.9537, 679.7311
393.4358, 662.2516
393.9179, 646.5624
394.4000, 638.6787
394.8821, 637.2796
395.3643, 639.2134
395.8464, 648.7148
396.3285, 657.1835
396.8106, 659.4851
397.2927, 651.6260
397.7748, 648.5928
398.2570, 658.3553
398.7391, 672.0092
399.2212, 677.8096
399.7033, 667.0781
400.1854, 657.8127
400.6675, 653.7158
401.1497, 655.1140
401.6318, 656.7329
402.1139, 659.1767
402.5960, 661.2482
403.0781, 661.5016
403.5602, 658.1398
404.0424, 657.9215
404.5245, 664.1252
405.0066, 673.9312
405.4887, 673.8333
405.9708, 660.5181
406.4529, 647.1255
406.9351, 642.0646
407.4172, 645.6722
407.8993, 650.0050
408.3814, 654.3380
408.8635, 659.4700
409.3456, 669.1223
409.8278, 683.0195
410.3099, 692.0579
410.7920, 690.1117
411.2741, 679.7328
411.7562, 666.4210
412.2383, 649.2953
412.7205, 636.3406
413.2026, 637.7477
413.6847, 649.6362
414.1668, 662.1519
414.6489, 676.2516
415.1310, 685.9221
415.6132, 680.9382
416.0953, 662.8700
416.5774, 646.2502
417.0595, 639.1127
417.5416, 638.5557
418.0237, 642.0145
418.5059, 651.4191
418.9880, 660.3674
419.4701, 667.3212
419.9522, 671.4072
420.4343, 670.2061
420.9164, 655.2300
421.3986, 640.8277
421.8807, 634.8298
422.3628, 640.8472
422.8449, 646.2083
423.3270, 649.1065
423.8091, 649.9197
424.2913, 649.1369
424.7734, 642.2427
425.2555, 638.6929
425.7376, 642.1318
426.2197, 652.7984
426.7018, 658.2039
427.1840, 654.8849
427.6661, 649.9573
428.1482, 649.1294
428.6303, 655.3252
429.1124, 657.5815
429.5945, 653.0478
430.0767, 644.7370
430.5588, 641.6862
431.0409, 644.6620
431.5230, 650.0972
432.0051, 657.5536
432.4872, 666.9534
432.9694, 672.4857
433.4515, 673.8522
433.9336, 672.0876
434.4157, 666.3458
434.8978, 657.5423
435.3799, 652.5944
435.8621, 657.6298
436.3442, 667.0388
436.8263, 669.0352
437.3084, 663.8359
437.7905, 656.3842
438.2726, 646.8123
438.7548, 638.4509
439.2369, 637.6501
439.7190, 651.3122
440.2011, 664.6358
440.6832, 661.2283
441.1653, 647.1280
441.6474, 639.5109
442.1295, 656.1935
442.6117, 675.5107
443.0938, 681.5156
443.5759, 667.8956
444.0580, 657.2818
444.5401, 661.7272
445.0222, 671.9610
445.5044, 676.6502
445.9865, 666.5635
446.4686, 658.1224
446.9507, 655.8555
447.4328, 659.9402
447.9149, 663.5367
448.3971, 668.2683
448.8792, 671.0549
449.3613, 669.2861
449.8434, 658.3405
450.3255, 653.6231
450.8076, 659.9524
451.2898, 671.1742
451.7719, 669.7032
452.2540, 651.4617
452.7361, 634.2963
453.2182, 626.2482
453.7003, 627.2415
454.1825, 629.5781
454.6646, 633.5436
455.1467, 637.7267
455.6288, 638.2211
456.1109, 636.2638
456.5930, 640.8821
457.0752, 658.8214
457.5573, 681.3892
458.0394, 694.9319
458.5215, 699.5892
459.0036, 695.4111
459.4857, 673.4028
459.9679, 645.6615
460.4500, 629.9973
460.9321, 631.2159
461.4142, 638.1000
461.8963, 646.6225
462.3784, 654.8768
462.8606, 659.3595
463.3427, 653.7622
463.8248, 648.1920
464.3069, 649.2034
464.7890, 657.5580
465.2711, 662.9033
465.7533, 656.3212
466.2354, 649.2144
466.7175, 650.3949
467.1996, 675.8212
467.6817, 691.3730
468.1638, 691.3958
468.6460, 679.6492
469.1281, 668.4921
469.6102, 656.1301
470.0923, 647.0992
470.5744, 643.7258
471.0565, 647.1099
471.5387, 650.7457
472.0208, 655.0282
472.5029, 658.8919
472.9850, 661.4227
473.4671, 662.6895
473.9492, 661.2650
474.4314, 655.3448
474.9135, 647.2985
475.3956, 644.1935
475.8777, 645.9753
476.3598, 648.9947
476.8419, 650.8817
477.3241, 651.9738
477.8062, 652.8066
478.2883, 653.2952
478.7704, 654.1301
479.2525, 656.6743
479.7346, 660.0587
480.2168, 662.3948
480.6989, 662.8291
481.1810, 661.9257
481.6631, 659.5362
482.1452, 655.6890
482.6273, 652.1101
483.1095, 648.7768
483.5916, 646.3934
484.0737, 645.5356
484.5558, 646.1327
485.0379, 648.4238
485.5201, 654.2876
486.0022, 661.9288
486.4843, 666.4383
486.9664, 664.7312
487.4485, 663.7712
487.9306, 666.9858
488.4128, 675.8243
488.8949, 677.0608
489.3770, 667.0178
489.8591, 655.3652
490.3412, 653.1983
490.8233, 661.9211
491.3055, 668.2992
491.7876, 669.9944
492.2697, 667.7462
492.7518, 660.5604
493.2339, 648.6916
493.7160, 641.4297
494.1982, 650.5670
494.6803, 667.9495
495.1624, 672.2299
495.6445, 660.6642
496.1266, 647.1812
496.6087, 645.8732
497.0908, 651.1745
497.5729, 653.4460
498.0551, 644.8983
498.5372, 635.9412
499.0193, 633.6019
499.5014, 636.8679
499.9835, 640.9833
500.4656, 645.6060
500.9478, 649.3788
501.4299, 651.5200
501.9120, 651.5603
502.3941, 650.7822
502.8762, 644.4756
503.3583, 639.2029
503.8405, 644.2379
504.3226, 672.3395
504.8047, 691.1743
505.2868, 692.8376
505.7689, 679.2801
506.2510, 665.7222
506.7332, 651.1279
507.2153, 639.2325
507.6974, 632.4123
508.1795, 630.7534
508.6616, 633.5309
509.1437, 641.7300
509.6259, 651.6877
510.1080, 658.7201
510.5901, 662.9492
511.0722, 665.0296
511.5543, 664.7993
512.0364, 662.8234
512.5186, 659.4224
513.0007, 654.7169
513.4828, 650.0398
513.9649, 643.8810
514.4470, 639.3495
514.9291, 640.5652
515.4113, 650.7401
515.8934, 660.3776
516.3755, 664.1862
516.8576, 664.7361
517.3397, 666.1943
517.8218, 671.0997
518.3040, 675.5483
518.7861, 679.1887
519.2682, 681.9858
519.7503, 681.0054
520.2324, 672.9539
520.7145, 664.4764
521.1967, 659.7071
521.6788, 660.2625
522.1609, 659.6381
522.6430, 656.9688
523.1251, 653.8009
523.6072, 653.1194
524.0894, 655.1089
524.5715, 657.1042
525.0536, 656.6928
525.5357, 656.0012
526.0178, 664.8499
526.4999, 683.1893
526.9821, 697.9996
527.4642, 696.2444
527.9463, 684.6371
528.4284, 674.7164
528.9105, 668.1328
529.3926, 664.0994
529.8748, 662.6708
530.3569, 663.2866
530.8390, 665.0206
531.3211, 671.9282
531.8032, 675.7792
532.2853, 668.7756
532.7675, 652.1656
533.2496, 644.5010
533.7317, 658.6693
534.2138, 675.9820
534.6959, 686.3026
535.1780, 686.0723
535.6602, 685.6295
536.1423, 686.3599
536.6244, 685.8932
537.1065, 679.3771
537.5886, 663.9636
538.0707, 652.7081
538.5529, 650.1434
539.0350, 654.0397
539.5171, 653.5152
539.9992, 648.0954
540.4813, 644.8882
540.9634, 651.9341
541.4456, 665.1940
541.9277, 671.8911
542.4098, 669.9214
542.8919, 666.3489
543.3740, 668.8986
543.8561, 674.7714
544.3383, 679.0180
544.8204, 678.9736
545.3025, 677.4421
545.7846, 674.8267
546.2667, 671.7386
546.7488, 670.7287
547.2310, 675.6597
547.7131, 680.4770
548.1952, 682.6116
548.6773, 682.0174
549.1594, 677.7920
549.6415, 666.1971
550.1237, 653.6876
550.6058, 646.7488
551.0879, 647.1633
551.5700, 648.4609
552.0521, 648.9393
552.5342, 650.1495
553.0164, 658.7166
553.4985, 675.7471
553.9806, 689.4756
554.4627, 692.2278
554.9448, 686.4681
555.4269, 680.9203
555.9091, 675.5751
556.3912, 671.7831
556.8733, 672.4838
557.3554, 675.2292
557.8375, 675.8185
558.3196, 672.2456
558.8018, 668.0300
559.2839, 664.3958
559.7660, 661.9164
560.2481, 661.7026
560.7302, 666.3956
561.2123, 671.3392
561.6945, 673.5712
562.1766, 672.6385
562.6587, 676.2888
563.1408, 694.0989
563.6229, 708.2587
564.1050, 707.1381
564.5872, 681.1072
565.0693, 665.1967
565.5514, 662.5729
566.0335, 667.2689
566.5156, 669.9597
566.9977, 670.4874
567.4799, 671.8598
567.9620, 675.6928
568.4441, 680.5493
568.9262, 682.4550
569.4083, 681.6528
569.8904, 680.5815
570.3726, 681.3641
570.8547, 682.6558
571.3368, 681.5411
571.8189, 677.0541
572.3010, 675.7926
572.7831, 689.1865
573.2653, 705.2272
573.7474, 710.3440
574.2295, 685.6132
574.7116, 666.6515
575.1937, 664.8745
575.6758, 675.5331
576.1580, 683.2317
576.6401, 689.0804
577.1222, 689.9346
577.6042, 682.9813
578.0864, 667.5054
578.5685, 658.0115
579.0506, 654.9332
579.5327, 656.4373
580.0148, 663.6540
580.4969, 675.9656
580.9791, 682.4084
581.4612, 681.1921
581.9433, 675.1904
582.4254, 663.0968
582.9075, 648.7624
583.3896, 644.0401
583.8718, 663.6505
584.3539, 687.4830
584.8360, 698.6296
585.3181, 698.3759
585.8002, 693.7324
586.2823, 681.8456
586.7645, 671.2722
587.2466, 667.3313
587.7287, 671.8242
588.2108, 678.6337
588.6929, 691.6880
589.1750, 703.9429
589.6572, 708.9676
590.1393, 703.1653
590.6214, 698.1832
591.1035, 695.9394
591.5856, 694.6286
592.0677, 689.0948
592.5499, 678.8483
593.0320, 669.4509
593.5141, 661.9257
593.9962, 657.2781
594.4783, 660.0157
594.9604, 669.9676
595.4426, 681.4299
595.9247, 693.4752
596.4068, 703.1572
596.8889, 704.8145
597.3710, 695.0045
597.8531, 687.3704
598.3353, 693.0149
598.8174, 703.9484
599.2995, 710.2859
599.7816, 707.0663
600.2637, 701.6666
600.7458, 695.2010
601.2280, 687.6068
601.7101, 677.7001
602.1922, 658.9214
602.6743, 649.1373
603.1564, 658.8740
603.6385, 688.1691
604.1207, 704.5796
604.6028, 706.5453
605.0849, 702.7858
605.5670, 698.9370
606.0491, 695.5305
606.5313, 695.6374
607.0134, 700.4980
607.4955, 705.7635
607.9776, 706.0001
608.4597, 703.2397
608.9418, 701.4685
609.4240, 701.5388
609.9061, 703.7894
610.3882, 710.9324
610.8703, 721.0974
611.3524, 726.8512
611.8345, 721.9789
612.3167, 716.1714
612.7988, 713.6893
613.2809, 715.1757
613.7630, 715.8503
614.2451, 715.5665
614.7272, 714.7202
615.2094, 713.5679
615.6915, 712.1005
616.1736, 710.4177
616.6557, 708.3999
617.1378, 706.4897
617.6199, 704.0503
618.1021, 701.8421
618.5842, 704.0902
619.0663, 717.0732
619.5484, 730.4869
620.0305, 729.1115
620.5126, 716.6795
620.9948, 707.9707
621.4769, 716.9814
621.9590, 727.2906
622.4411, 727.7363
622.9232, 716.1606
623.4053, 706.7094
623.8875, 700.1909
624.3696, 698.1600
624.8517, 702.7827
625.3338, 721.8530
625.8159, 728.9931
626.2980, 719.4351
626.7802, 703.0034
627.2623, 693.6221
627.7444, 691.4237
628.2265, 694.3790
628.7086, 705.3141
629.1907, 717.4205
629.6729, 714.1220
630.1550, 698.2388
630.6371, 683.7612
631.1192, 678.4261
631.6013, 678.7051
632.0834, 683.8248
632.5656, 693.5058
633.0477, 699.0862
633.5298, 691.6258
634.0119, 682.1129
634.4940, 678.5034
634.9761, 685.6155
635.4583, 690.8984
635.9404, 693.1918
636.4225, 693.9921
