##NAMES=Samuelsonite
##RRUFFID=R080081
##IDEAL CHEMISTRY=Ca_9_Mn^2+^_4_Al_2_(PO_4_)_10_(OH)_2_
##LOCALITY=Buranga pegmatite,  Gatumba District,  Gisenyi Province,  Rwanda
##OWNER=RRUFF
##SOURCE=Michael Scott
##DESCRIPTION=Golden brown, flattened, striated crystals associated with blue trolleite
##STATUS=The identification of this mineral has been confirmed only by single crystal X-ray diffraction.
##URL=rruff.info/R080081
92.52344, 131.6416
93.00555, 130.6897
93.48767, 130.9228
93.96979, 135.3797
94.45190, 139.5247
94.93402, 142.6360
95.41614, 143.2932
95.89825, 142.4816
96.38037, 141.5183
96.86249, 140.4272
97.34460, 139.3852
97.82672, 138.8669
98.30884, 138.1189
98.79095, 137.0439
99.27307, 135.5065
99.75519, 133.4863
100.2373, 131.3394
100.7194, 129.2180
101.2015, 127.3467
101.6837, 125.5801
102.1658, 124.0544
102.6479, 122.9557
103.1300, 122.3027
103.6121, 121.7093
104.0942, 120.7753
104.5764, 119.6839
105.0585, 118.7645
105.5406, 118.3858
106.0227, 118.2742
106.5048, 117.5684
106.9869, 115.9409
107.4691, 114.0546
107.9512, 112.1034
108.4333, 110.1544
108.9154, 108.3615
109.3975, 106.8307
109.8796, 105.5559
110.3618, 104.5555
110.8439, 104.0075
111.3260, 103.5684
111.8081, 103.0688
112.2902, 102.5048
112.7723, 102.0017
113.2544, 101.7467
113.7366, 101.9080
114.2187, 102.0332
114.7008, 102.2018
115.1829, 102.3008
115.6650, 102.1793
116.1471, 101.7802
116.6293, 101.2486
117.1114, 100.9237
117.5935, 100.8051
118.0756, 100.8372
118.5577, 101.0766
119.0398, 101.4633
119.5220, 101.8628
120.0041, 102.2208
120.4862, 102.5443
120.9683, 102.8454
121.4504, 103.0818
121.9325, 103.3616
122.4147, 103.8358
122.8968, 104.5289
123.3789, 105.1097
123.8610, 105.3212
124.3431, 105.3559
124.8252, 105.3559
125.3074, 105.3273
125.7895, 105.3320
126.2716, 105.5247
126.7537, 106.0339
127.2358, 106.5044
127.7179, 106.8948
128.2001, 107.1736
128.6822, 107.2791
129.1643, 107.1365
129.6464, 106.7777
130.1285, 106.6195
130.6107, 107.1068
131.0928, 107.3767
131.5749, 107.0922
132.0570, 106.4009
132.5391, 105.6583
133.0212, 105.1791
133.5034, 105.0067
133.9855, 104.8260
134.4676, 104.6220
134.9497, 104.4247
135.4318, 104.1921
135.9139, 103.9436
136.3960, 103.8237
136.8782, 104.0719
137.3603, 104.8135
137.8424, 105.1891
138.3245, 104.9144
138.8066, 104.3390
139.2887, 103.8568
139.7709, 103.5571
140.2530, 103.3392
140.7351, 103.0719
141.2172, 102.7604
141.6993, 102.4922
142.1814, 102.3002
142.6636, 102.1816
143.1457, 102.1091
143.6278, 101.9956
144.1099, 102.0460
144.5920, 102.5345
145.0741, 103.4448
145.5563, 104.2596
146.0384, 104.4710
146.5205, 104.0109
147.0026, 103.5332
147.4847, 102.9676
147.9668, 102.5369
148.4490, 102.4732
148.9311, 102.7976
149.4132, 103.2168
149.8953, 103.2688
150.3774, 102.7426
150.8595, 102.2561
151.3417, 101.7280
151.8238, 101.3198
152.3059, 101.1963
152.7880, 101.4121
153.2701, 101.8551
153.7522, 102.2418
154.2344, 102.5741
154.7165, 102.8303
155.1986, 102.9729
155.6807, 103.0493
156.1628, 103.0903
156.6449, 103.1001
157.1271, 103.1220
157.6092, 103.3507
158.0913, 103.9769
158.5734, 104.5562
159.0555, 104.9709
159.5376, 105.2439
160.0198, 105.4104
160.5019, 105.4332
160.9840, 105.4000
161.4661, 105.6014
161.9482, 106.1987
162.4303, 106.8490
162.9125, 107.3010
163.3946, 107.5635
163.8767, 107.8521
164.3588, 108.3764
164.8409, 108.9785
165.3230, 109.4042
165.8052, 109.6167
166.2873, 109.6277
166.7694, 109.3374
167.2515, 108.5945
167.7336, 108.0752
168.2157, 108.2500
168.6979, 108.7848
169.1800, 109.3382
169.6621, 109.8114
170.1442, 110.1784
170.6263, 110.3461
171.1084, 110.1779
171.5906, 110.0181
172.0727, 110.0119
172.5548, 110.0767
173.0369, 110.0779
173.5190, 109.9045
174.0011, 109.5988
174.4833, 109.5236
174.9654, 110.0647
175.4475, 110.4614
175.9296, 110.5593
176.4117, 110.3932
176.8938, 110.0176
177.3760, 109.4311
177.8581, 108.6183
178.3402, 108.2145
178.8223, 108.6872
179.3044, 109.0656
179.7865, 108.9564
180.2687, 108.4371
180.7508, 107.8094
181.2329, 107.3149
181.7150, 106.9633
182.1971, 106.7078
182.6792, 106.6700
183.1614, 106.6149
183.6435, 106.3857
184.1256, 105.9860
184.6077, 105.5514
185.0898, 105.2123
185.5719, 104.9737
186.0541, 104.6451
186.5362, 104.0520
187.0183, 103.4655
187.5004, 103.1926
187.9825, 103.2787
188.4646, 103.4102
188.9468, 103.2401
189.4289, 102.8542
189.9110, 102.6077
190.3931, 102.7987
190.8752, 103.1105
191.3573, 102.9521
191.8395, 102.0936
192.3216, 101.3003
192.8037, 101.2354
193.2858, 101.6801
193.7679, 102.1915
194.2500, 102.6527
194.7322, 103.0372
195.2143, 103.2381
195.6964, 103.1302
196.1785, 103.0250
196.6606, 103.0295
197.1427, 103.1574
197.6249, 103.4478
198.1070, 104.0094
198.5891, 104.8012
199.0712, 105.4079
199.5533, 105.7370
200.0354, 105.9573
200.5176, 106.0022
200.9997, 105.9816
201.4818, 106.1182
201.9639, 106.6143
202.4460, 107.4785
202.9281, 108.3155
203.4103, 109.0497
203.8924, 109.8197
204.3745, 110.6952
204.8566, 111.6494
205.3387, 112.5810
205.8208, 113.3816
206.3030, 114.0186
206.7851, 114.8774
207.2672, 116.1968
207.7493, 117.4925
208.2314, 118.5313
208.7135, 119.3527
209.1957, 120.1459
209.6778, 121.0833
210.1599, 122.1855
210.6420, 123.2645
211.1241, 124.2417
211.6062, 125.2613
212.0884, 126.4383
212.5705, 127.7451
213.0526, 129.0518
213.5347, 130.2511
214.0168, 131.3273
214.4989, 132.3597
214.9811, 133.3102
215.4632, 134.2529
215.9453, 135.2673
216.4274, 136.3489
216.9095, 137.3808
217.3916, 138.2469
217.8737, 138.9446
218.3559, 139.6773
218.8380, 140.4464
219.3201, 141.2612
219.8022, 142.2559
220.2843, 143.4400
220.7664, 144.3767
221.2486, 144.5068
221.7307, 144.0457
222.2128, 143.9261
222.6949, 144.5802
223.1770, 145.4815
223.6591, 146.0621
224.1413, 146.2898
224.6234, 146.3148
225.1055, 146.1110
225.5876, 145.7819
226.0697, 145.5183
226.5518, 145.4757
227.0340, 145.4705
227.5161, 145.2334
227.9982, 144.7393
228.4803, 144.0911
228.9624, 143.2528
229.4445, 142.3254
229.9267, 141.4187
230.4088, 140.5649
230.8909, 139.7692
231.3730, 139.1387
231.8551, 138.8731
232.3372, 138.2490
232.8194, 136.6053
233.3015, 134.5756
233.7836, 132.9242
234.2657, 132.0537
234.7478, 131.5991
235.2299, 130.7133
235.7121, 129.1651
236.1942, 127.6283
236.6763, 126.1483
237.1584, 124.8367
237.6405, 123.8757
238.1227, 123.3817
238.6048, 123.1218
239.0869, 122.4816
239.5690, 121.1931
240.0511, 119.9745
240.5332, 119.0890
241.0154, 118.2777
241.4975, 117.2139
241.9796, 115.7511
242.4617, 114.1595
242.9438, 113.1721
243.4259, 113.3266
243.9081, 113.2569
244.3902, 112.6600
244.8723, 111.8665
245.3544, 111.2084
245.8365, 110.8093
246.3186, 110.5345
246.8008, 110.0612
247.2829, 109.1704
247.7650, 108.3928
248.2471, 107.6900
248.7292, 107.1306
249.2113, 106.8457
249.6935, 106.8634
250.1756, 107.0016
250.6577, 106.8990
251.1398, 106.3057
251.6219, 105.8187
252.1040, 105.4645
252.5862, 105.1991
253.0683, 104.9829
253.5504, 104.8056
254.0325, 104.6859
254.5146, 104.6583
254.9967, 104.7783
255.4789, 104.9017
255.9610, 104.9314
256.4431, 105.0184
256.9252, 105.3556
257.4073, 105.9739
257.8894, 106.6578
258.3716, 107.1208
258.8537, 107.2736
259.3358, 107.3937
259.8179, 107.4113
260.3000, 107.4387
260.7821, 107.5922
261.2643, 107.8877
261.7464, 108.2262
262.2285, 108.5050
262.7106, 108.7117
263.1927, 108.8988
263.6748, 109.0749
264.1570, 109.2251
264.6391, 109.2890
265.1212, 109.2707
265.6033, 109.3228
266.0854, 109.6338
266.5675, 110.2142
267.0497, 110.6031
267.5318, 110.5730
268.0139, 110.4968
268.4960, 110.7053
268.9781, 111.2052
269.4602, 111.7344
269.9424, 112.1127
270.4245, 112.3411
270.9066, 112.5308
271.3887, 112.6302
271.8708, 112.7337
272.3529, 112.9122
272.8351, 113.1642
273.3172, 113.4609
273.7993, 113.8386
274.2814, 114.2315
274.7635, 114.4586
275.2456, 114.4060
275.7278, 114.3099
276.2099, 114.3919
276.6920, 114.6182
277.1741, 114.6866
277.6562, 114.3451
278.1383, 113.8275
278.6205, 113.6410
279.1026, 113.9375
279.5847, 114.2318
280.0668, 114.1523
280.5489, 113.7601
281.0310, 113.4341
281.5132, 113.3637
281.9953, 113.3590
282.4774, 113.1391
282.9595, 112.6712
283.4416, 112.1889
283.9237, 111.8328
284.4059, 111.5798
284.8880, 111.3283
285.3701, 111.0433
285.8522, 110.7713
286.3343, 110.5701
286.8164, 110.4358
287.2986, 110.2925
287.7807, 110.1107
288.2628, 109.8892
288.7449, 109.6154
289.2270, 109.2574
289.7091, 108.9007
290.1913, 108.5459
290.6734, 108.2255
291.1555, 108.0772
291.6376, 108.3948
292.1197, 108.9107
292.6018, 108.9170
293.0840, 108.1837
293.5661, 107.4093
294.0482, 107.0793
294.5303, 107.0320
295.0124, 106.9976
295.4945, 106.9557
295.9767, 106.8238
296.4588, 106.3722
296.9409, 105.4719
297.4230, 104.6951
297.9051, 104.5944
298.3872, 104.7084
298.8694, 104.4458
299.3515, 103.4995
299.8336, 102.3555
300.3157, 101.6837
300.7978, 101.5578
301.2799, 101.4411
301.7621, 101.1853
302.2442, 100.8103
302.7263, 100.2944
303.2084, 99.61440
303.6905, 98.90134
304.1726, 98.27430
304.6548, 97.73637
305.1369, 97.24915
305.6190, 96.86794
306.1011, 96.47940
306.5832, 95.98117
307.0653, 95.37053
307.5475, 94.75716
308.0296, 94.28325
308.5117, 93.92703
308.9938, 93.40224
309.4759, 92.63303
309.9580, 91.71761
310.4402, 90.65892
310.9223, 89.50887
311.4044, 88.44992
311.8865, 87.62817
312.3686, 87.00498
312.8507, 86.38779
313.3329, 85.72850
313.8150, 85.16230
314.2971, 84.91018
314.7792, 84.77501
315.2613, 84.36424
315.7434, 83.35484
316.2256, 82.05177
316.7077, 81.13496
317.1898, 80.71244
317.6719, 80.35896
318.1540, 79.86124
318.6361, 79.33749
319.1183, 78.95094
319.6004, 78.79586
320.0825, 78.65791
320.5646, 78.16845
321.0467, 77.24381
321.5288, 76.50352
322.0110, 76.27550
322.4931, 76.23990
322.9752, 76.18371
323.4573, 76.07565
323.9394, 75.93559
324.4215, 75.76908
324.9037, 75.57790
325.3858, 75.41441
325.8679, 75.39441
326.3500, 75.28542
326.8321, 74.85643
327.3142, 74.15768
327.7964, 73.50952
328.2785, 73.18441
328.7606, 73.10831
329.2427, 72.90452
329.7248, 72.48539
330.2069, 72.05645
330.6891, 71.73143
331.1712, 71.48840
331.6533, 71.28932
332.1354, 71.17056
332.6175, 71.05811
333.0996, 70.76297
333.5818, 70.20895
334.0639, 69.71435
334.5460, 69.53597
335.0281, 69.47449
335.5102, 69.29358
335.9923, 68.88582
336.4745, 68.44797
336.9566, 68.22733
337.4387, 68.23778
337.9208, 68.24067
338.4029, 68.12875
338.8850, 67.99881
339.3671, 67.98931
339.8492, 68.12546
340.3314, 68.17150
340.8135, 67.90682
341.2956, 67.37470
341.7777, 66.84977
342.2598, 66.35353
342.7419, 65.91751
343.2241, 65.53770
343.7062, 65.21934
344.1883, 65.01582
344.6704, 65.04478
345.1525, 65.19131
345.6346, 65.20653
346.1168, 65.06414
346.5989, 64.83504
347.0810, 64.49696
347.5631, 64.11289
348.0452, 63.79737
348.5273, 63.62268
349.0095, 63.49012
349.4916, 63.28569
349.9737, 63.00886
350.4558, 62.72710
350.9379, 62.47732
351.4200, 62.23852
351.9022, 61.96181
352.3843, 61.61159
352.8664, 61.32055
353.3485, 61.24241
353.8306, 61.31474
354.3127, 61.28402
354.7949, 61.05886
355.2770, 60.74043
355.7591, 60.41793
356.2412, 60.08754
356.7233, 59.85573
357.2054, 59.82447
357.6876, 59.89507
358.1697, 59.91709
358.6518, 59.87016
359.1339, 59.78544
359.6160, 59.70037
360.0981, 59.60225
360.5803, 59.42801
361.0624, 59.10973
361.5445, 58.75821
362.0266, 58.45906
362.5087, 58.21018
362.9908, 57.99413
363.4730, 57.83319
363.9551, 57.67712
364.4372, 57.37337
364.9193, 56.84249
365.4014, 56.31297
365.8835, 55.83728
366.3657, 55.43486
366.8478, 55.18436
367.3299, 55.14234
367.8120, 55.13688
368.2941, 54.84722
368.7762, 54.16956
369.2584, 53.68580
369.7405, 53.59414
370.2226, 53.66370
370.7047, 53.68884
371.1868, 53.63939
371.6689, 53.56539
372.1511, 53.50636
372.6332, 53.46355
373.1153, 53.44059
373.5974, 53.40393
374.0795, 53.41696
374.5616, 53.63091
375.0438, 53.92690
375.5259, 53.95227
376.0080, 53.46485
376.4901, 52.68777
376.9722, 52.42589
377.4543, 53.24060
377.9365, 53.83678
378.4186, 53.92970
378.9007, 53.80914
379.3828, 53.74819
379.8649, 53.83381
380.3470, 54.06852
380.8292, 54.48810
381.3113, 55.25651
381.7934, 55.69949
382.2755, 55.61891
382.7576, 55.43217
383.2397, 55.28571
383.7219, 55.23523
384.2040, 55.35303
384.6861, 55.71021
385.1682, 56.29129
385.6503, 56.83891
386.1324, 57.40026
386.6146, 57.86865
387.0967, 58.18156
387.5788, 58.40083
388.0609, 58.56557
388.5430, 58.69361
389.0251, 58.87056
389.5073, 59.27851
389.9894, 59.99625
390.4715, 60.79803
390.9536, 61.79702
391.4357, 62.76532
391.9178, 63.47859
392.4000, 63.97060
392.8821, 64.53125
393.3642, 65.50684
393.8463, 66.91924
394.3284, 68.04025
394.8105, 68.56416
395.2927, 69.14999
395.7748, 70.02462
396.2569, 71.10749
396.7390, 72.26186
397.2211, 73.42327
397.7032, 74.61002
398.1854, 75.85088
398.6675, 77.15069
399.1496, 78.50603
399.6317, 80.07578
400.1138, 81.61278
400.5959, 82.82911
401.0781, 83.68510
401.5602, 84.60462
402.0423, 86.05025
402.5244, 87.96534
403.0065, 89.73317
403.4886, 91.14229
403.9708, 92.59531
404.4529, 94.43298
404.9350, 96.53582
405.4171, 98.58760
405.8992, 100.3698
406.3813, 102.0550
406.8635, 104.0311
407.3456, 106.3604
407.8277, 108.4181
408.3098, 109.7819
408.7919, 110.7419
409.2740, 111.8298
409.7562, 113.1749
410.2383, 114.3946
410.7204, 115.2170
411.2025, 115.7341
411.6846, 116.2912
412.1667, 117.0647
412.6489, 117.6487
413.1310, 117.4679
413.6131, 116.5597
414.0952, 115.4486
414.5773, 113.9743
415.0594, 112.5018
415.5416, 111.6773
416.0237, 111.3818
416.5058, 110.4562
416.9879, 107.9966
417.4700, 104.3181
417.9521, 101.1647
418.4343, 98.62778
418.9164, 96.40054
419.3985, 94.42578
419.8806, 92.69901
420.3627, 91.26026
420.8448, 90.11474
421.3270, 89.16123
421.8091, 88.26236
422.2912, 87.46128
422.7733, 86.59825
423.2554, 85.52907
423.7375, 84.52940
424.2197, 83.75426
424.7018, 83.20312
425.1839, 82.83373
425.6660, 82.63663
426.1481, 82.57614
426.6302, 82.39405
427.1124, 81.81284
427.5945, 81.46198
428.0766, 81.60156
428.5587, 81.91090
429.0408, 82.02601
429.5229, 81.85188
430.0051, 81.63306
430.4872, 81.72331
430.9693, 82.18555
431.4514, 82.69028
431.9335, 83.34969
432.4156, 83.94742
432.8978, 84.32761
433.3799, 84.57089
433.8620, 84.88779
434.3441, 85.40891
434.8262, 86.08972
435.3083, 86.83028
435.7905, 87.68173
436.2726, 88.44268
436.7547, 88.95309
437.2368, 89.39039
437.7189, 89.90717
438.2010, 90.53459
438.6832, 91.19628
439.1653, 91.84000
439.6474, 92.46439
440.1295, 93.09798
440.6116, 93.81255
441.0938, 94.39857
441.5759, 94.58485
442.0580, 94.48442
442.5401, 94.42390
443.0222, 94.51176
443.5043, 94.66660
443.9865, 94.83659
444.4686, 95.01386
444.9507, 95.14331
445.4328, 95.20539
445.9149, 95.19548
446.3970, 95.07543
446.8792, 94.76801
447.3613, 94.58505
447.8434, 94.67551
448.3255, 94.90701
448.8076, 95.13943
449.2897, 95.34471
449.7719, 95.51919
450.2540, 95.65995
450.7361, 95.76680
451.2182, 95.83733
451.7003, 95.83598
452.1824, 95.84351
452.6646, 95.83066
453.1467, 95.85904
453.6288, 96.03574
454.1109, 96.40845
454.5930, 96.91345
455.0751, 97.44040
455.5573, 98.06161
456.0394, 98.55446
456.5215, 98.88954
457.0036, 99.14343
457.4857, 99.33707
457.9678, 99.48808
458.4500, 99.63454
458.9321, 99.81967
459.4142, 100.0191
459.8963, 100.0986
460.3784, 100.0766
460.8605, 99.88856
461.3427, 99.48519
461.8248, 98.94864
462.3069, 98.36189
462.7890, 97.74567
463.2711, 97.04189
463.7532, 96.18159
464.2354, 95.16761
464.7175, 94.09949
465.1996, 92.96537
465.6817, 91.81357
466.1638, 90.65711
466.6459, 89.50828
467.1281, 88.39928
467.6102, 87.35836
468.0923, 86.34998
468.5744, 85.35904
469.0565, 84.37473
469.5386, 83.33250
470.0208, 82.10768
470.5029, 80.93813
470.9850, 80.33749
471.4671, 80.39700
471.9492, 80.34318
472.4313, 79.89535
472.9135, 79.28755
473.3956, 78.73499
473.8777, 78.26992
474.3598, 77.88366
474.8419, 77.58003
475.3240, 77.35208
475.8062, 77.13613
476.2883, 76.90894
476.7704, 76.72036
477.2525, 76.59820
477.7346, 76.51343
478.2167, 76.44546
478.6989, 76.38332
479.1810, 76.29108
479.6631, 76.05344
480.1452, 75.52898
480.6273, 75.60542
481.1094, 76.99110
481.5916, 78.25413
482.0737, 78.83274
482.5558, 78.98193
483.0379, 79.17374
483.5200, 79.63097
484.0021, 80.26762
484.4843, 80.93081
484.9664, 81.62170
485.4485, 82.34856
485.9306, 83.19367
486.4127, 84.00465
486.8948, 84.68010
487.3770, 85.22843
487.8591, 85.71060
488.3412, 86.07438
488.8233, 86.42033
489.3054, 87.01452
489.7875, 87.89317
490.2697, 88.64289
490.7518, 89.02079
491.2339, 89.13978
491.7160, 89.26628
492.1981, 89.40916
492.6802, 89.53199
493.1624, 89.70121
493.6445, 89.80959
494.1266, 89.63654
494.6087, 89.15196
495.0908, 88.64707
495.5729, 88.41769
496.0551, 88.45541
496.5372, 88.15085
497.0193, 87.41203
497.5014, 86.49947
497.9835, 85.32632
498.4656, 84.08228
498.9478, 83.07287
499.4299, 82.38306
499.9120, 81.75404
500.3941, 80.80254
500.8762, 79.42248
501.3583, 78.11335
501.8405, 77.02714
502.3226, 75.86032
502.8047, 74.39394
503.2868, 72.78494
503.7689, 71.37351
504.2510, 70.34341
504.7331, 69.47192
505.2152, 68.32692
505.6974, 66.85456
506.1795, 65.42075
506.6616, 64.05007
507.1437, 62.80180
507.6258, 61.78905
508.1079, 60.95601
508.5901, 60.05214
509.0722, 58.88755
509.5543, 57.61540
510.0364, 56.39129
510.5185, 55.22178
511.0006, 54.28340
511.4828, 53.75774
511.9649, 53.43160
512.4470, 52.85249
512.9291, 51.97565
513.4113, 51.05688
513.8934, 50.08565
514.3755, 49.15417
514.8576, 48.35173
515.3397, 47.68818
515.8218, 47.16927
516.3040, 46.81351
516.7861, 46.59440
517.2682, 46.32555
517.7503, 45.94668
518.2324, 45.59304
518.7145, 45.29053
519.1967, 45.00741
519.6788, 44.69853
520.1609, 44.36465
520.6430, 44.05687
521.1251, 43.81814
521.6072, 43.64812
522.0894, 43.57854
522.5715, 43.66875
523.0536, 43.76759
523.5357, 43.87159
524.0178, 43.93353
524.4999, 43.87965
524.9821, 43.68312
525.4642, 43.45699
525.9463, 43.30449
526.4284, 43.21138
526.9105, 43.09118
527.3926, 42.90401
527.8748, 42.78080
528.3569, 42.91435
528.8390, 43.20330
529.3211, 43.28941
529.8032, 42.85281
530.2853, 42.53096
530.7675, 42.78233
531.2496, 43.37537
531.7317, 43.88647
532.2138, 44.19500
532.6959, 44.33830
533.1780, 44.34289
533.6602, 44.17706
534.1423, 44.06815
534.6244, 44.00726
535.1065, 44.00148
535.5886, 44.09437
536.0707, 44.23193
536.5529, 44.32535
537.0350, 44.34033
537.5171, 44.33644
537.9992, 44.40350
538.4813, 44.54540
538.9634, 44.74129
539.4456, 45.07369
539.9277, 45.36692
540.4098, 45.45479
540.8919, 45.45550
541.3740, 45.63540
541.8561, 46.18382
542.3383, 46.76931
542.8204, 46.90377
543.3025, 46.64446
543.7846, 46.56223
544.2667, 46.84885
544.7488, 47.24844
545.2310, 47.41801
545.7131, 47.39668
546.1952, 47.62037
546.6773, 48.39703
547.1594, 49.21015
547.6415, 49.68339
548.1237, 49.92462
548.6058, 50.22432
549.0879, 50.69587
549.5700, 51.28679
550.0521, 51.91961
550.5342, 52.61657
551.0164, 53.27982
551.4985, 53.80543
551.9806, 54.40262
552.4627, 55.16232
552.9448, 56.06597
553.4269, 57.09224
553.9091, 58.23847
554.3912, 59.42498
554.8733, 60.52959
555.3554, 61.56222
555.8375, 62.44971
556.3196, 62.94407
556.8018, 63.57501
557.2839, 64.84917
557.7660, 66.52686
558.2481, 67.90373
558.7302, 68.52357
559.2123, 68.98071
559.6945, 69.95016
560.1766, 71.30480
560.6587, 72.45622
561.1408, 73.20930
561.6229, 73.76225
562.1050, 74.36165
562.5872, 75.02271
563.0693, 75.58277
563.5514, 75.86267
564.0335, 76.21795
564.5156, 76.97177
564.9977, 77.89742
565.4799, 78.58583
565.9620, 78.87202
566.4441, 78.89491
566.9262, 78.82006
567.4083, 78.55141
567.8904, 78.57475
568.3726, 79.06148
568.8547, 79.68239
569.3368, 80.41420
569.8189, 81.18508
570.3010, 81.88789
570.7831, 82.48780
571.2653, 83.02106
571.7474, 83.48888
572.2295, 83.90928
572.7116, 84.46482
573.1937, 85.22531
573.6758, 86.01484
574.1580, 86.64848
574.6401, 87.18286
575.1222, 87.84534
575.6043, 88.77670
576.0864, 89.70439
576.5685, 90.42410
577.0507, 91.06551
577.5328, 91.85444
578.0149, 92.84389
578.4970, 93.90942
578.9791, 94.89735
579.4612, 95.79456
579.9434, 96.95115
580.4255, 98.45873
580.9076, 100.1316
581.3897, 102.1234
581.8718, 104.1830
582.3539, 105.9583
582.8361, 107.4133
583.3182, 108.9243
583.8003, 111.0618
584.2824, 113.6852
584.7645, 115.7304
585.2466, 117.1702
585.7288, 118.1184
586.2108, 118.6270
586.6929, 118.6499
587.1750, 118.1361
587.6572, 117.0902
588.1393, 115.4638
588.6214, 113.0047
