##NAMES=Sanbornite
##RRUFFID=R050001
##IDEAL CHEMISTRY=BaSi_2_O_5_
##LOCALITY=Empire #1 mine, Fresno County, California, USA
##OWNER=RRUFF
##SOURCE=University of Arizona Mineral Museum
##DESCRIPTION=An aggregate of white to colorless pearly anhedral plates
##STATUS=The identification of this mineral has been confirmed by X-ray diffraction and chemical analysis
##URL=rruff.info/R050001
##MEASURED CHEMISTRY=Ba_1.00_Si_2.00_O_5_
115.7161, 31.18781
116.1982, 32.29861
116.6804, 32.63289
117.1625, 32.89101
117.6446, 32.96944
118.1267, 33.82656
118.6088, 37.17906
119.0909, 40.89176
119.5731, 43.06325
120.0552, 42.94063
120.5373, 41.79500
121.0194, 41.39157
121.5015, 41.73067
121.9836, 42.88306
122.4658, 45.61460
122.9479, 48.79057
123.4300, 51.30127
123.9121, 52.65495
124.3942, 53.27952
124.8763, 54.07276
125.3585, 54.65019
125.8406, 56.19056
126.3227, 59.27694
126.8048, 63.18421
127.2869, 67.15233
127.7690, 70.76949
128.2512, 74.15640
128.7333, 77.64613
129.2154, 80.91823
129.6975, 84.75507
130.1796, 89.80498
130.6617, 95.37267
131.1439, 100.2917
131.6260, 103.7188
132.1081, 106.0371
132.5902, 110.2656
133.0723, 117.9155
133.5544, 126.0837
134.0366, 135.2385
134.5187, 144.4755
135.0008, 152.2535
135.4829, 157.3297
135.9650, 159.8800
136.4471, 163.6806
136.9293, 169.4559
137.4114, 175.5872
137.8935, 180.9697
138.3756, 186.2564
138.8577, 193.3085
139.3398, 203.8249
139.8220, 217.8848
140.3041, 229.0243
140.7862, 233.2149
141.2683, 238.9540
141.7504, 249.9315
142.2325, 265.7571
142.7147, 283.9954
143.1968, 302.8584
143.6789, 322.3934
144.1610, 345.0016
144.6431, 368.1061
145.1252, 395.8408
145.6074, 433.2668
146.0895, 479.1128
146.5716, 525.5004
147.0537, 567.2366
147.5358, 603.5016
148.0179, 633.8555
148.5001, 662.3428
148.9822, 682.2117
149.4643, 687.8041
149.9464, 679.0533
150.4285, 661.1113
150.9106, 636.4266
151.3928, 604.9150
151.8749, 570.5120
152.3570, 530.7444
152.8391, 489.8028
153.3212, 449.6001
153.8033, 410.2226
154.2855, 375.7983
154.7676, 351.7699
155.2497, 336.0607
155.7318, 319.9571
156.2139, 301.0754
156.6960, 281.6732
157.1782, 264.3059
157.6603, 249.2271
158.1424, 235.3968
158.6245, 221.5375
159.1066, 208.3365
159.5887, 198.0161
160.0709, 191.6426
160.5530, 188.3092
161.0351, 187.7664
161.5172, 190.9402
161.9993, 193.4001
162.4814, 190.9475
162.9636, 185.5489
163.4457, 180.4905
163.9278, 176.5848
164.4099, 173.8158
164.8920, 172.5610
165.3741, 173.4252
165.8563, 174.1091
166.3384, 173.0269
166.8205, 170.8200
167.3026, 168.4494
167.7847, 166.0107
168.2668, 163.7371
168.7490, 162.3749
169.2311, 162.5600
169.7132, 162.1663
170.1953, 158.9369
170.6774, 154.5777
171.1595, 151.9113
171.6417, 152.9960
172.1238, 156.2807
172.6059, 157.7583
173.0880, 156.5726
173.5701, 155.2444
174.0522, 154.0682
174.5344, 153.6077
175.0165, 154.9699
175.4986, 159.4361
175.9807, 165.6201
176.4628, 169.7586
176.9449, 171.3382
177.4271, 171.6188
177.9092, 169.9418
178.3913, 167.7402
178.8734, 167.0362
179.3555, 169.0322
179.8376, 172.9598
180.3197, 176.6302
180.8019, 180.0428
181.2840, 183.1564
181.7661, 185.5688
182.2482, 187.8474
182.7303, 190.6543
183.2124, 194.2992
183.6946, 198.6965
184.1767, 203.6078
184.6588, 208.9384
185.1409, 214.9911
185.6230, 222.4369
186.1051, 230.2736
186.5873, 237.0372
187.0694, 241.7561
187.5515, 245.8378
188.0336, 253.5867
188.5157, 268.0848
188.9978, 280.8612
189.4800, 288.9991
189.9621, 295.1500
190.4442, 302.1491
190.9263, 311.2180
191.4084, 321.5410
191.8905, 331.1119
192.3727, 339.4611
192.8548, 347.9265
193.3369, 355.7482
193.8190, 364.2373
194.3011, 375.0229
194.7832, 388.7828
195.2654, 404.1494
195.7475, 418.3509
196.2296, 432.4394
196.7117, 443.2097
197.1938, 451.1994
197.6759, 455.9274
198.1581, 456.7945
198.6402, 453.6416
199.1223, 447.0320
199.6044, 437.9201
200.0865, 426.0684
200.5686, 411.7676
201.0508, 395.4421
201.5329, 376.9750
202.0150, 355.4287
202.4971, 330.7480
202.9792, 305.5029
203.4613, 283.8593
203.9435, 267.2872
204.4256, 251.3168
204.9077, 234.2117
205.3898, 218.4771
205.8719, 205.9635
206.3540, 196.9570
206.8362, 190.2720
207.3183, 184.4686
207.8004, 180.0017
208.2825, 175.3956
208.7646, 169.1589
209.2467, 163.8911
209.7289, 161.5760
210.2110, 162.1892
210.6931, 163.9265
211.1752, 164.7326
211.6573, 164.3071
212.1395, 164.0232
212.6216, 163.4020
213.1037, 163.3055
213.5858, 164.5947
214.0679, 166.9893
214.5500, 169.3333
215.0322, 170.4592
215.5143, 170.1968
215.9964, 169.7965
216.4785, 168.3217
216.9606, 167.5714
217.4427, 168.4731
217.9249, 170.7634
218.4070, 173.6517
218.8891, 176.7158
219.3712, 180.0038
219.8533, 181.6858
220.3354, 179.1482
220.8176, 177.4921
221.2997, 178.4082
221.7818, 181.2851
222.2639, 184.8482
222.7460, 188.3736
223.2281, 191.7765
223.7103, 193.8834
224.1924, 195.5996
224.6745, 194.7170
225.1566, 188.7701
225.6387, 180.3428
226.1208, 173.0687
226.6030, 169.0521
227.0851, 167.7875
227.5672, 167.2905
228.0493, 169.0205
228.5314, 169.4827
229.0135, 166.6542
229.4957, 162.8517
229.9778, 161.1577
230.4599, 163.0493
230.9420, 166.5734
231.4241, 166.6311
231.9062, 160.2106
232.3884, 155.4403
232.8705, 153.2209
233.3526, 152.8918
233.8347, 154.4874
234.3168, 157.9115
234.7989, 161.7094
235.2811, 163.0481
235.7632, 160.2269
236.2453, 159.0153
236.7274, 161.0338
237.2095, 163.8121
237.6916, 165.8685
238.1738, 166.8630
238.6559, 167.2312
239.1380, 167.3078
239.6201, 166.8038
240.1022, 167.1092
240.5843, 168.3781
241.0665, 170.3764
241.5486, 173.3707
242.0307, 177.1691
242.5128, 181.0287
242.9949, 184.1485
243.4770, 186.4391
243.9592, 189.0925
244.4413, 191.0941
244.9234, 194.5904
245.4055, 202.1998
245.8876, 212.1976
246.3697, 220.0111
246.8519, 220.9490
247.3340, 216.3145
247.8161, 218.1510
248.2982, 231.9531
248.7803, 245.1837
249.2624, 252.3374
249.7446, 256.2861
250.2267, 261.6430
250.7088, 270.8872
251.1909, 283.1939
251.6730, 296.6664
252.1551, 312.7686
252.6373, 327.0563
253.1194, 335.0663
253.6015, 341.9209
254.0836, 353.7681
254.5657, 373.4496
255.0478, 396.4430
255.5300, 414.9441
256.0121, 426.9932
256.4942, 441.8557
256.9763, 465.1853
257.4584, 490.6252
257.9406, 513.1990
258.4227, 531.7234
258.9048, 550.7676
259.3869, 575.1955
259.8690, 605.2029
260.3511, 637.2958
260.8333, 670.9496
261.3154, 707.0603
261.7975, 743.8106
262.2796, 781.8022
262.7617, 828.3552
263.2438, 894.7614
263.7260, 976.9252
264.2081, 1049.533
264.6902, 1106.567
265.1723, 1158.656
265.6544, 1217.160
266.1365, 1278.741
266.6187, 1330.710
267.1008, 1371.352
267.5829, 1397.634
268.0650, 1402.431
268.5471, 1384.250
269.0292, 1349.063
269.5114, 1293.499
269.9935, 1224.259
270.4756, 1149.782
270.9577, 1067.349
271.4398, 984.5911
271.9219, 907.1276
272.4041, 834.6392
272.8862, 775.2659
273.3683, 736.4295
273.8504, 712.8771
274.3325, 692.5179
274.8146, 674.5816
275.2968, 660.2623
275.7789, 650.7979
276.2610, 645.7498
276.7431, 643.0672
277.2252, 641.5715
277.7073, 642.9678
278.1895, 650.2817
278.6716, 663.8218
279.1537, 679.6293
279.6358, 696.9904
280.1179, 715.5417
280.6000, 734.1821
281.0822, 752.5258
281.5643, 772.0602
282.0464, 794.2431
282.5285, 818.7759
283.0106, 848.2916
283.4927, 885.1010
283.9749, 925.7553
284.4570, 968.2205
284.9391, 1012.064
285.4212, 1056.308
285.9033, 1100.308
286.3854, 1143.851
286.8676, 1185.540
287.3497, 1221.524
287.8318, 1259.580
288.3139, 1305.749
288.7960, 1357.406
289.2781, 1408.111
289.7603, 1455.223
290.2424, 1497.257
290.7245, 1526.397
291.2066, 1540.891
291.6887, 1545.888
292.1708, 1542.582
292.6530, 1529.955
293.1351, 1505.987
293.6172, 1470.045
294.0993, 1424.336
294.5814, 1372.407
295.0635, 1307.972
295.5457, 1248.949
296.0278, 1205.564
296.5099, 1160.244
296.9920, 1097.583
297.4741, 1017.832
297.9562, 935.3972
298.4384, 864.3280
298.9205, 805.4235
299.4026, 752.0888
299.8847, 707.1307
300.3668, 664.7668
300.8489, 621.6291
301.3311, 579.4044
301.8131, 542.5276
302.2953, 514.4733
302.7774, 493.4147
303.2595, 469.6802
303.7416, 438.6931
304.2237, 412.0276
304.7058, 393.7859
305.1880, 379.8192
305.6701, 365.4020
306.1522, 348.7276
306.6343, 332.2905
307.1164, 320.8323
307.5985, 316.0540
308.0807, 310.0795
308.5628, 298.0399
309.0449, 286.8911
309.5270, 281.4823
310.0091, 281.9940
310.4912, 284.4659
310.9734, 285.5180
311.4555, 285.3683
311.9376, 286.4213
312.4197, 289.0114
312.9018, 292.6747
313.3839, 296.5334
313.8661, 301.0329
314.3482, 307.3338
314.8303, 314.9507
315.3124, 325.1303
315.7945, 341.1140
316.2766, 363.7774
316.7588, 386.9801
317.2409, 407.0543
317.7230, 425.5427
318.2051, 444.6508
318.6872, 463.5952
319.1693, 484.8226
319.6515, 510.7851
320.1336, 540.6772
320.6157, 571.1819
321.0978, 600.5250
321.5799, 630.7347
322.0620, 665.5403
322.5442, 704.5550
323.0263, 746.7538
323.5084, 790.3003
323.9905, 837.6968
324.4726, 891.3335
324.9547, 951.8644
325.4369, 1020.522
325.9190, 1098.063
326.4011, 1185.323
326.8832, 1284.672
327.3653, 1386.700
327.8474, 1509.076
328.3296, 1661.767
328.8117, 1843.651
329.2938, 2050.731
329.7759, 2283.171
330.2580, 2536.755
330.7401, 2784.985
331.2223, 3072.451
331.7044, 3300.089
332.1865, 3489.894
332.6686, 3600.837
333.1507, 3579.254
333.6328, 3411.930
334.1150, 3142.854
334.5971, 2825.506
335.0792, 2431.783
335.5613, 2069.656
336.0434, 1722.792
336.5255, 1417.780
337.0077, 1175.442
337.4898, 990.7208
337.9719, 843.1806
338.4540, 720.2653
338.9361, 621.3981
339.4182, 542.2129
339.9004, 490.9343
340.3825, 449.5548
340.8646, 414.0180
341.3467, 383.2343
341.8288, 356.3052
342.3109, 332.9476
342.7931, 312.4780
343.2752, 294.4909
343.7573, 279.3259
344.2394, 263.9789
344.7215, 246.6304
345.2036, 229.7404
345.6858, 214.7854
346.1679, 201.8641
346.6500, 191.2435
347.1321, 183.7794
347.6142, 178.7335
348.0963, 174.2160
348.5785, 170.2296
349.0606, 166.1837
349.5427, 161.8139
350.0248, 157.0286
350.5069, 151.4459
350.9890, 143.9862
351.4712, 136.4766
351.9533, 129.7306
352.4354, 123.9699
352.9175, 120.5125
353.3996, 120.4215
353.8817, 122.5099
354.3639, 123.8236
354.8460, 124.5707
355.3281, 124.3770
355.8102, 122.7554
356.2923, 120.3265
356.7744, 117.9137
357.2566, 115.6596
357.7387, 112.9111
358.2208, 108.5318
358.7029, 101.5562
359.1850, 98.66830
359.6671, 104.2977
360.1493, 109.0050
360.6314, 107.4334
361.1135, 101.6596
361.5956, 96.66426
362.0777, 95.38796
362.5598, 96.96230
363.0420, 98.34692
363.5241, 100.4635
364.0062, 100.7503
364.4883, 97.06736
364.9704, 92.79713
365.4525, 91.23122
365.9347, 92.87026
366.4168, 95.00168
366.8989, 94.24646
367.3810, 90.35993
367.8631, 87.63592
368.3452, 87.14333
368.8274, 86.76517
369.3095, 84.62779
369.7916, 81.73644
370.2737, 80.62943
370.7558, 83.46830
371.2379, 87.96584
371.7201, 90.27100
372.2022, 90.23153
372.6843, 89.36430
373.1664, 87.48313
373.6485, 85.64082
374.1306, 85.75367
374.6128, 88.71751
375.0949, 90.61063
375.5770, 88.03378
376.0591, 83.17217
376.5412, 80.83025
377.0233, 82.24516
377.5055, 84.09811
377.9876, 82.56358
378.4697, 77.17108
378.9518, 74.33079
379.4339, 75.52518
379.9160, 78.03155
380.3982, 81.02158
380.8803, 84.05045
381.3624, 86.22233
381.8445, 87.03065
382.3266, 86.74366
382.8087, 86.15437
383.2909, 84.51844
383.7730, 83.59157
384.2551, 84.67094
384.7372, 85.64925
385.2193, 84.00011
385.7014, 79.81709
386.1836, 76.09746
386.6657, 76.42645
387.1478, 81.11285
387.6299, 83.86517
388.1120, 83.61062
388.5941, 82.51399
389.0763, 80.36564
389.5584, 78.08758
390.0405, 77.29715
390.5226, 79.01798
391.0047, 81.49270
391.4868, 81.80701
391.9690, 79.74034
392.4511, 77.49062
392.9332, 74.63767
393.4153, 72.80344
393.8974, 74.07227
394.3795, 78.40387
394.8617, 82.03216
395.3438, 82.81138
395.8259, 81.81989
396.3080, 80.69740
396.7901, 79.57432
397.2722, 78.45090
397.7544, 77.32733
398.2365, 76.20612
398.7186, 75.08005
399.2007, 73.95592
399.6828, 72.83162
400.1649, 70.65629
400.6471, 68.72341
401.1292, 69.93673
401.6113, 75.28342
402.0934, 81.56824
402.5755, 84.04236
403.0576, 81.31336
403.5398, 78.75232
404.0219, 75.31364
404.5040, 72.94832
404.9861, 73.25082
405.4682, 75.48158
405.9503, 77.90379
406.4325, 79.54324
406.9146, 80.28288
407.3967, 79.45416
407.8788, 75.90027
408.3609, 73.16455
408.8430, 71.42226
409.3252, 71.00008
409.8073, 73.13632
410.2894, 77.71902
410.7715, 81.47420
411.2536, 80.28941
411.7357, 75.45057
412.2179, 74.08384
412.7000, 77.97577
413.1821, 82.15110
413.6642, 83.04858
414.1463, 81.77883
414.6284, 80.23451
415.1106, 78.21503
415.5927, 76.67920
416.0748, 76.87794
416.5569, 78.19891
417.0390, 78.66893
417.5211, 77.53770
418.0033, 75.59100
418.4854, 73.84377
418.9675, 72.10928
419.4496, 71.38101
419.9317, 72.39348
420.4138, 73.86210
420.8960, 75.31650
421.3781, 76.50134
421.8602, 76.86600
422.3423, 75.95076
422.8244, 74.16955
423.3065, 73.31789
423.7887, 73.87308
424.2708, 74.67389
424.7529, 75.62562
425.2350, 76.72776
425.7171, 78.21082
426.1992, 79.99118
426.6814, 81.40093
427.1635, 81.40885
427.6456, 80.20651
428.1277, 80.36887
428.6098, 83.06229
429.0919, 84.85976
429.5741, 82.74567
430.0562, 78.96799
430.5383, 76.99670
431.0204, 78.24910
431.5025, 80.15234
431.9846, 80.31828
432.4668, 79.32061
432.9489, 79.26221
433.4310, 80.76402
433.9131, 83.06391
434.3952, 85.42842
434.8773, 87.87155
435.3595, 90.03340
435.8416, 92.06101
436.3237, 93.64101
436.8058, 93.92178
437.2879, 93.58911
437.7701, 94.28638
438.2522, 96.85986
438.7343, 100.9496
439.2164, 105.6129
439.6985, 110.5881
440.1806, 116.6792
440.6628, 126.9176
441.1449, 135.7358
441.6270, 137.9352
442.1091, 134.8734
442.5912, 132.6870
443.0733, 135.9172
443.5555, 143.6436
444.0376, 152.4668
444.5197, 162.5001
445.0018, 173.3387
445.4839, 185.8646
445.9660, 198.6977
446.4482, 210.0501
446.9303, 219.3352
447.4124, 229.7193
447.8945, 242.3813
448.3766, 257.6845
448.8587, 276.6136
449.3409, 299.4890
449.8230, 324.4356
450.3051, 349.9904
450.7872, 376.4963
451.2693, 405.8746
451.7514, 443.8825
452.2336, 477.8484
452.7157, 503.6389
453.1978, 522.7952
453.6799, 537.0513
454.1620, 547.0197
454.6441, 552.7819
455.1263, 554.0283
455.6084, 550.0201
456.0905, 545.6906
456.5726, 538.8923
457.0547, 534.0804
457.5368, 534.9742
458.0190, 538.2096
458.5011, 539.0831
458.9832, 535.9825
459.4653, 527.9887
459.9474, 512.1439
460.4295, 488.3824
460.9117, 465.2951
461.3938, 444.4508
461.8759, 424.8306
462.3580, 405.8675
462.8401, 387.3787
463.3222, 368.0976
463.8044, 342.8401
464.2865, 320.3294
464.7686, 309.6147
465.2507, 308.8500
465.7328, 310.5948
466.2149, 311.8301
466.6971, 313.1573
467.1792, 315.6287
467.6613, 318.9150
468.1434, 324.3731
468.6255, 330.4716
469.1076, 339.9969
469.5898, 354.0690
470.0719, 373.0590
470.5540, 397.0573
471.0361, 426.2187
471.5182, 460.4665
472.0003, 499.7926
472.4825, 542.3781
472.9646, 594.4156
473.4467, 660.8571
473.9288, 734.8155
474.4109, 819.6714
474.8930, 912.0881
475.3752, 990.7110
475.8573, 1052.780
476.3394, 1089.528
476.8215, 1084.545
477.3036, 1037.283
477.7857, 956.6229
478.2679, 836.0931
478.7500, 693.9145
479.2321, 571.6743
479.7142, 468.4711
480.1963, 384.2469
480.6784, 323.5452
481.1606, 278.8303
481.6427, 245.5613
482.1248, 221.9662
482.6069, 206.0356
483.0890, 196.7153
483.5711, 193.0874
484.0533, 189.9297
484.5354, 187.3305
485.0175, 185.0897
485.4996, 181.2416
485.9817, 179.0089
486.4638, 182.1014
486.9460, 190.2979
487.4281, 198.6926
487.9102, 201.8111
488.3923, 202.2591
488.8744, 208.5376
489.3565, 221.4801
489.8387, 235.8509
490.3208, 250.0713
490.8029, 263.4785
491.2850, 275.3508
491.7671, 286.6811
492.2492, 293.8127
492.7314, 294.8276
493.2135, 291.3040
493.6956, 284.4167
494.1777, 274.5982
494.6598, 262.4483
495.1419, 248.0778
495.6241, 232.0211
496.1062, 217.3493
496.5883, 204.6702
497.0704, 192.7381
497.5525, 178.9333
498.0346, 167.4135
498.5168, 162.9979
498.9989, 165.3435
499.4810, 168.6333
499.9631, 167.4959
500.4452, 163.4889
500.9273, 163.0767
501.4095, 167.2913
501.8916, 170.6582
502.3737, 169.7118
502.8558, 167.1949
503.3379, 167.5985
503.8200, 171.6816
504.3022, 175.7893
504.7843, 178.3476
505.2664, 180.3266
505.7485, 182.1773
506.2306, 184.2711
506.7127, 188.1179
507.1949, 194.9066
507.6770, 204.0416
508.1591, 212.8169
508.6412, 220.4390
509.1233, 228.9622
509.6054, 240.3059
510.0876, 251.1599
510.5697, 257.9220
511.0518, 261.3785
511.5339, 265.8872
512.0161, 274.1750
512.4982, 285.9928
512.9803, 301.6524
513.4624, 321.7889
513.9445, 341.3846
514.4266, 358.8661
514.9088, 374.7507
515.3909, 388.0718
515.8730, 398.1091
516.3551, 414.6014
516.8372, 443.4483
517.3193, 477.8488
517.8015, 512.1827
518.2836, 546.4120
518.7657, 582.8083
519.2478, 622.2994
519.7299, 665.2353
520.2120, 712.1154
520.6942, 761.0282
521.1763, 818.3917
521.6584, 888.9199
522.1405, 962.2386
522.6226, 1032.337
523.1047, 1100.863
523.5869, 1170.315
524.0690, 1239.645
524.5511, 1316.710
525.0332, 1418.519
525.5153, 1544.908
525.9974, 1667.947
526.4796, 1776.916
526.9617, 1887.481
527.4438, 2015.143
527.9259, 2158.751
528.4080, 2312.790
528.8901, 2473.806
529.3723, 2648.103
529.8544, 2843.439
530.3365, 3054.406
530.8186, 3271.346
531.3007, 3491.611
531.7828, 3710.400
532.2650, 3925.593
532.7471, 4144.365
533.2292, 4319.828
533.7113, 4451.168
534.1934, 4536.703
534.6755, 4585.379
535.1577, 4585.335
535.6398, 4517.563
536.1219, 4374.293
536.6040, 4181.972
537.0861, 3954.883
537.5682, 3698.625
538.0504, 3427.808
538.5325, 3143.617
539.0146, 2858.371
539.4967, 2576.959
539.9788, 2304.211
540.4609, 2067.949
540.9431, 1876.610
541.4252, 1702.500
541.9073, 1540.479
542.3894, 1393.006
542.8715, 1262.215
543.3536, 1147.849
543.8358, 1048.586
544.3179, 963.9500
544.8000, 892.6452
545.2821, 830.4023
545.7642, 780.8778
546.2463, 730.4880
546.7285, 670.3261
547.2106, 612.6262
547.6927, 567.1867
548.1748, 533.8382
548.6569, 504.6363
549.1390, 477.9570
549.6211, 452.7576
550.1032, 427.1298
550.5853, 401.7972
551.0674, 381.0408
551.5496, 366.8216
552.0317, 355.5044
552.5138, 340.8842
552.9959, 320.8248
553.4780, 304.6136
553.9601, 293.3273
554.4423, 284.0606
554.9244, 276.3823
555.4065, 269.7167
555.8886, 263.6336
556.3707, 257.9779
556.8528, 251.9853
557.3350, 244.1151
557.8171, 234.7517
558.2992, 227.4587
558.7813, 223.3634
559.2634, 218.7489
559.7455, 210.5384
560.2277, 199.9765
560.7098, 191.2238
561.1919, 184.6443
561.6740, 179.2411
562.1561, 174.7934
562.6382, 171.3198
563.1204, 169.2474
563.6025, 168.3066
564.0846, 167.2455
564.5667, 165.0901
565.0488, 162.1737
565.5309, 159.8631
566.0131, 158.5930
566.4952, 156.8316
566.9773, 153.6711
567.4594, 150.4453
567.9415, 147.6329
568.4236, 145.4155
568.9058, 144.3777
569.3879, 146.2145
569.8700, 148.0307
570.3521, 146.2772
570.8342, 141.9531
571.3163, 138.4733
571.7985, 136.9154
572.2806, 136.0998
572.7627, 134.5713
573.2448, 132.1609
573.7269, 130.6051
574.2090, 132.0421
574.6912, 131.7189
575.1733, 125.8253
575.6554, 118.9302
576.1375, 116.8037
576.6196, 120.4058
577.1017, 124.8148
577.5839, 125.9575
578.0660, 124.3344
578.5481, 120.9481
579.0302, 115.4816
579.5123, 111.3960
579.9944, 110.9790
580.4766, 112.2510
580.9587, 111.1454
581.4408, 106.9407
581.9229, 103.8360
582.4050, 102.7907
582.8871, 102.6859
583.3693, 103.2484
583.8514, 104.1034
584.3335, 104.6261
584.8156, 104.5248
585.2977, 104.1223
585.7798, 104.0377
586.2620, 104.3519
586.7441, 103.9205
587.2262, 102.0570
587.7083, 100.4812
588.1904, 100.6532
588.6725, 101.6260
589.1547, 101.7994
589.6368, 100.6487
590.1189, 99.52541
590.6010, 98.62808
591.0831, 98.36749
591.5652, 99.89819
592.0474, 102.8725
592.5295, 105.0478
593.0116, 104.8385
593.4937, 103.0465
593.9758, 102.1808
594.4579, 102.7416
594.9401, 103.0485
595.4222, 103.3805
595.9043, 103.0287
596.3864, 101.5540
596.8685, 99.09715
597.3506, 95.90938
597.8328, 91.58697
598.3149, 87.56116
598.7970, 85.16129
599.2791, 84.05389
599.7612, 83.77807
600.2433, 84.24883
600.7255, 83.78976
601.2076, 80.39525
601.6897, 74.83787
602.1718, 73.50559
602.6539, 82.93710
603.1360, 87.61713
603.6182, 82.19283
604.1003, 74.99500
604.5824, 72.42820
605.0645, 74.14517
605.5466, 75.82664
606.0287, 74.79802
606.5109, 72.65902
606.9930, 71.71882
607.4751, 71.87602
607.9572, 72.35894
608.4393, 73.00890
608.9214, 73.89284
609.4036, 75.44777
609.8857, 77.67040
610.3678, 77.61633
610.8499, 72.82770
611.3320, 69.10345
611.8141, 68.41611
