##NAMES=Sanidine
##RRUFFID=R060313
##IDEAL CHEMISTRY=KAlSi_3_O_8_
##LOCALITY=Eifel Mountains, Rhineland-Palatinate, Germany
##OWNER=RRUFF
##SOURCE=Herb Obodda
##DESCRIPTION=Pale yellow transparent cleavage fragment. Crystal structure given below.
##STATUS=The identification of this mineral has been confirmed by X-ray diffraction and chemical analysis
##URL=rruff.info/R060313
##MEASURED CHEMISTRY=(K_0.85_Na_0.14_Ba_0.01_)_Î£=1_Al_1.04_Si_2.96_O_8_
91.53320, 316.7571
92.01532, 310.4868
92.49744, 307.2124
92.97955, 312.3224
93.46167, 321.1644
93.94379, 328.8234
94.42590, 338.1009
94.90802, 346.7911
95.39014, 351.2419
95.87225, 350.4844
96.35437, 349.9115
96.83649, 352.2070
97.31860, 355.9246
97.80072, 359.6896
98.28284, 362.5528
98.76495, 364.2732
99.24707, 365.2320
99.72919, 364.4828
100.2113, 364.2503
100.6934, 365.2969
101.1755, 367.2278
101.6577, 369.1391
102.1398, 370.1109
102.6219, 369.6048
103.1040, 370.9451
103.5861, 374.7251
104.0682, 379.2211
104.5504, 383.6060
105.0325, 387.6874
105.5146, 391.7281
105.9967, 396.0976
106.4788, 401.2519
106.9609, 405.3647
107.4431, 407.5539
107.9252, 408.8524
108.4073, 410.7422
108.8894, 413.8510
109.3715, 417.3569
109.8536, 419.7817
110.3358, 421.0415
110.8179, 422.0404
111.3000, 422.9469
111.7821, 423.8272
112.2642, 425.3609
112.7463, 427.9942
113.2285, 431.3764
113.7106, 435.0466
114.1927, 438.8099
114.6748, 443.1587
115.1569, 448.8761
115.6390, 456.4988
116.1212, 464.3015
116.6033, 472.3853
117.0854, 480.1870
117.5675, 487.1607
118.0496, 493.0699
118.5317, 497.9627
119.0139, 502.0504
119.4960, 506.2844
119.9781, 508.3983
120.4602, 507.7556
120.9423, 504.7303
121.4244, 500.0240
121.9066, 494.1791
122.3887, 487.2187
122.8708, 478.2494
123.3529, 466.9106
123.8350, 454.4153
124.3171, 440.9369
124.7993, 426.6494
125.2814, 412.1647
125.7635, 397.8669
126.2456, 383.6996
126.7277, 370.6586
127.2098, 359.0397
127.6920, 348.4410
128.1741, 338.2306
128.6562, 328.2455
129.1383, 319.1072
129.6204, 311.9940
130.1025, 306.6259
130.5847, 301.6998
131.0668, 296.2412
131.5489, 290.7042
132.0310, 286.8143
132.5131, 285.6979
132.9952, 285.5916
133.4774, 284.7270
133.9595, 283.0823
134.4416, 281.6867
134.9237, 281.5639
135.4058, 282.8823
135.8879, 284.3265
136.3701, 285.8162
136.8522, 287.2611
137.3343, 288.6549
137.8164, 289.9967
138.2985, 291.1766
138.7806, 292.0662
139.2628, 292.8433
139.7449, 292.8975
140.2270, 292.0540
140.7091, 290.6645
141.1912, 288.8604
141.6733, 286.7121
142.1555, 284.4547
142.6376, 282.9400
143.1197, 283.0455
143.6018, 282.9639
144.0839, 282.0812
144.5660, 280.9334
145.0482, 280.3513
145.5303, 280.8186
146.0124, 282.2699
146.4945, 284.2367
146.9766, 286.1511
147.4587, 288.9554
147.9409, 293.2989
148.4230, 298.9929
148.9051, 305.1497
149.3872, 311.1983
149.8693, 317.2635
150.3514, 323.9401
150.8336, 331.3678
151.3157, 339.3271
151.7978, 347.9071
152.2799, 357.2776
152.7620, 366.4157
153.2441, 374.5428
153.7263, 381.9188
154.2084, 388.9643
154.6905, 396.0420
155.1726, 402.7885
155.6547, 408.4204
156.1368, 412.7367
156.6190, 416.1181
157.1011, 419.6033
157.5832, 422.5254
158.0653, 423.4971
158.5474, 421.0939
159.0295, 415.5689
159.5117, 410.2800
159.9938, 405.0528
160.4759, 400.2571
160.9580, 396.5298
161.4401, 393.4404
161.9222, 389.9645
162.4044, 385.0986
162.8865, 378.5413
163.3686, 372.1465
163.8507, 366.1209
164.3328, 360.0284
164.8149, 353.5070
165.2971, 346.6158
165.7792, 339.9291
166.2613, 334.0669
166.7434, 329.3349
167.2255, 324.7343
167.7076, 320.1504
168.1898, 315.7308
168.6719, 311.7472
169.1540, 308.1905
169.6361, 304.6574
170.1182, 300.4962
170.6003, 295.1916
171.0825, 290.6291
171.5646, 287.7022
172.0467, 285.2599
172.5288, 282.0357
173.0109, 277.6673
173.4930, 272.5076
173.9752, 266.8781
174.4573, 260.7403
174.9394, 254.6189
175.4215, 248.8366
175.9036, 243.1489
176.3857, 236.9219
176.8679, 229.5669
177.3500, 222.1541
177.8321, 216.1001
178.3142, 211.4154
178.7963, 207.1883
179.2784, 203.1266
179.7606, 199.1476
180.2427, 194.7863
180.7248, 189.3315
181.2069, 183.9841
181.6890, 179.8388
182.1711, 176.9842
182.6533, 174.7164
183.1354, 172.4266
183.6175, 170.1012
184.0996, 167.8670
184.5817, 165.6356
185.0638, 163.5855
185.5460, 161.7182
186.0281, 160.0527
186.5102, 158.8888
186.9923, 158.8262
187.4744, 160.4332
187.9565, 161.6371
188.4387, 162.0462
188.9208, 162.1016
189.4029, 161.7896
189.8850, 161.1793
190.3671, 160.8689
190.8492, 162.1493
191.3314, 166.5779
191.8135, 170.0881
192.2956, 171.9565
192.7777, 173.1445
193.2598, 174.5471
193.7419, 176.5024
194.2241, 178.6486
194.7062, 180.1155
195.1883, 181.1075
195.6704, 181.0110
196.1525, 179.3406
196.6346, 176.7261
197.1168, 173.8857
197.5989, 171.1329
198.0810, 168.3053
198.5631, 164.9021
199.0452, 160.9282
199.5273, 156.4357
200.0095, 150.8173
200.4916, 144.7689
200.9737, 139.4319
201.4558, 135.3411
201.9379, 132.1676
202.4200, 128.9037
202.9022, 125.4906
203.3843, 122.1362
203.8664, 118.6259
204.3485, 115.1836
204.8306, 112.5120
205.3127, 111.0669
205.7949, 110.4431
206.2770, 109.6806
206.7591, 108.7203
207.2412, 107.7567
207.7233, 106.9029
208.2054, 106.1429
208.6876, 105.3938
209.1697, 104.5805
209.6518, 103.8010
210.1339, 103.2265
210.6160, 102.9502
211.0981, 102.6367
211.5803, 101.9180
212.0624, 100.7941
212.5445, 99.83110
213.0266, 99.29956
213.5087, 99.00175
213.9908, 98.78033
214.4730, 98.62608
214.9551, 98.49086
215.4372, 98.34895
215.9193, 98.21357
216.4014, 97.98693
216.8836, 97.71156
217.3657, 97.28554
217.8478, 96.43575
218.3299, 95.08544
218.8120, 93.84532
219.2941, 93.71315
219.7763, 95.11872
220.2584, 96.21459
220.7405, 96.60542
221.2226, 96.63778
221.7047, 96.48459
222.1868, 96.20071
222.6690, 95.81331
223.1511, 95.33318
223.6332, 94.64538
224.1153, 94.13225
224.5974, 93.91494
225.0795, 93.80135
225.5617, 93.68057
226.0438, 93.51393
226.5259, 93.29944
227.0080, 93.01943
227.4901, 92.58627
227.9722, 92.25783
228.4544, 92.18403
228.9365, 92.11940
229.4186, 91.81329
229.9007, 91.21874
230.3828, 90.55045
230.8649, 90.19463
231.3471, 90.40652
231.8292, 90.54278
232.3113, 90.15022
232.7934, 89.94144
233.2755, 90.81223
233.7576, 92.91241
234.2398, 95.28069
234.7219, 96.26939
235.2040, 94.71777
235.6861, 93.76736
236.1682, 93.67023
236.6503, 94.01727
237.1325, 94.54913
237.6146, 95.17587
238.0967, 95.76737
238.5788, 96.08541
239.0609, 95.82285
239.5430, 96.04324
240.0252, 97.17752
240.5073, 98.61528
240.9894, 99.74568
241.4715, 100.4286
241.9536, 100.8991
242.4357, 101.4275
242.9179, 101.9790
243.4000, 102.7691
243.8821, 103.7866
244.3642, 105.0671
244.8463, 106.8127
245.3284, 109.1002
245.8106, 111.3493
246.2927, 112.7406
246.7748, 113.2332
247.2569, 114.0283
247.7390, 115.4958
248.2211, 117.2773
248.7033, 118.8955
249.1854, 120.2507
249.6675, 121.6992
250.1496, 123.7018
250.6317, 126.1883
251.1138, 128.6267
251.5960, 130.8874
252.0781, 133.0575
252.5602, 135.2719
253.0423, 137.5355
253.5244, 139.8076
254.0065, 141.8907
254.4887, 143.9061
254.9708, 146.2682
255.4529, 149.3688
255.9350, 152.7542
256.4171, 155.7746
256.8992, 158.3733
257.3813, 160.7793
257.8635, 162.8871
258.3456, 164.9324
258.8277, 167.4029
259.3098, 170.6458
259.7919, 174.2404
260.2740, 177.6113
260.7562, 180.7414
261.2383, 183.7093
261.7204, 186.3628
262.2025, 188.9346
262.6846, 191.8219
263.1667, 195.4197
263.6489, 199.0344
264.1310, 201.4566
264.6131, 202.3199
265.0952, 203.5912
265.5773, 206.4117
266.0594, 209.9851
266.5416, 213.7859
267.0237, 217.8349
267.5058, 221.6472
267.9879, 224.3433
268.4700, 225.5735
268.9521, 227.2902
269.4343, 230.4771
269.9164, 234.2758
270.3985, 238.0851
270.8806, 241.7549
271.3627, 245.5076
271.8448, 249.5706
272.3270, 253.9512
272.8091, 258.6953
273.2912, 264.3631
273.7733, 270.0629
274.2554, 275.0761
274.7375, 279.3429
275.2197, 283.6353
275.7018, 289.0265
276.1839, 295.7117
276.6660, 302.0752
277.1481, 307.7706
277.6302, 313.1330
278.1124, 318.2477
278.5945, 323.1391
279.0766, 327.7171
279.5587, 331.9718
280.0408, 335.9527
280.5229, 339.2860
281.0051, 342.0865
281.4872, 344.0099
281.9693, 344.9223
282.4514, 344.8102
282.9335, 343.6927
283.4156, 341.5440
283.8978, 338.3592
284.3799, 334.3828
284.8620, 329.4578
285.3441, 323.7746
285.8262, 317.3416
286.3083, 310.2118
286.7905, 302.4222
287.2726, 293.9261
287.7547, 284.7921
288.2368, 275.8528
288.7189, 267.3953
289.2010, 258.7726
289.6832, 249.7114
290.1653, 240.4448
290.6474, 231.2794
291.1295, 222.4643
291.6116, 213.8839
292.0938, 205.0590
292.5759, 195.3382
293.0580, 186.4216
293.5401, 178.6396
294.0222, 171.7367
294.5043, 165.6297
294.9865, 160.3007
295.4686, 155.3970
295.9507, 149.9494
296.4328, 143.0636
296.9149, 137.3159
297.3970, 133.6553
297.8792, 130.7299
298.3613, 127.3729
298.8434, 123.2267
299.3255, 118.8117
299.8076, 114.9894
300.2897, 111.9430
300.7719, 109.1104
301.2540, 106.7522
301.7361, 104.3493
302.2182, 101.3061
302.7003, 97.66837
303.1824, 94.16579
303.6646, 91.74773
304.1467, 90.78066
304.6288, 89.61468
305.1109, 88.09059
305.5930, 86.51195
306.0751, 85.06482
306.5573, 83.71213
307.0394, 82.25890
307.5215, 80.47550
308.0036, 78.30521
308.4857, 76.49918
308.9678, 75.16557
309.4500, 74.10778
309.9321, 73.46043
310.4142, 73.04575
310.8963, 72.53675
311.3784, 71.69366
311.8605, 70.56724
312.3427, 69.57022
312.8248, 68.62418
313.3069, 67.92038
313.7890, 67.76070
314.2711, 67.77740
314.7532, 67.43127
315.2354, 66.43885
315.7175, 65.09834
316.1996, 64.31267
316.6817, 64.60168
317.1638, 64.63159
317.6459, 64.13084
318.1281, 63.40495
318.6102, 62.66403
319.0923, 61.99193
319.5744, 61.45107
320.0565, 61.18180
320.5386, 61.36139
321.0208, 61.40455
321.5029, 61.23194
321.9850, 60.98176
322.4671, 60.73673
322.9492, 60.50570
323.4313, 60.24327
323.9135, 59.84999
324.3956, 59.24481
324.8777, 58.93272
325.3598, 59.41761
325.8419, 59.72810
326.3240, 59.23001
326.8062, 58.19439
327.2883, 57.43922
327.7704, 57.71907
328.2525, 58.93769
328.7346, 59.35998
329.2167, 58.06031
329.6989, 56.97378
330.1810, 56.65564
330.6631, 56.82602
331.1452, 57.07533
331.6273, 57.19936
332.1094, 57.20639
332.5916, 57.10270
333.0737, 56.76687
333.5558, 56.53184
334.0379, 56.49314
334.5200, 56.54406
335.0021, 56.60315
335.4843, 56.64144
335.9664, 56.64883
336.4485, 56.62645
336.9306, 56.61428
337.4127, 56.44560
337.8948, 55.76144
338.3770, 55.18129
338.8591, 55.17788
339.3412, 55.73061
339.8233, 56.37841
340.3055, 56.63001
340.7876, 56.43438
341.2697, 56.35178
341.7518, 56.54512
342.2339, 56.69478
342.7160, 56.65889
343.1982, 56.47881
343.6803, 56.25924
344.1624, 56.03337
344.6445, 55.83115
345.1266, 55.81863
345.6087, 56.10620
346.0909, 56.41326
346.5730, 56.68043
347.0551, 56.89947
347.5372, 57.00061
348.0193, 56.90642
348.5014, 56.85717
348.9836, 57.39016
349.4657, 58.73644
349.9478, 59.87975
350.4299, 60.21474
350.9120, 60.45741
351.3941, 61.24413
351.8763, 62.67624
352.3584, 64.11152
352.8405, 64.72260
353.3226, 64.47781
353.8047, 64.65181
354.2868, 65.52413
354.7690, 66.77668
355.2511, 68.36023
355.7332, 70.17791
356.2153, 71.85745
356.6974, 73.13888
357.1795, 74.08651
357.6617, 74.93489
358.1438, 75.64867
358.6259, 76.32822
359.1080, 77.02718
359.5901, 77.72841
360.0722, 78.39211
360.5544, 78.92738
361.0365, 79.50613
361.5186, 80.49294
362.0007, 81.96111
362.4828, 83.22522
362.9649, 84.04491
363.4471, 84.47018
363.9292, 84.53024
364.4113, 84.18140
364.8934, 83.66718
365.3755, 83.10365
365.8576, 82.51051
366.3398, 82.00578
366.8219, 81.64352
367.3040, 81.33601
367.7861, 81.01839
368.2682, 80.68842
368.7503, 80.27949
369.2325, 79.77105
369.7146, 79.16251
370.1967, 78.41451
370.6788, 77.49649
371.1609, 76.59911
371.6430, 75.89206
372.1252, 75.32844
372.6073, 74.76494
373.0894, 74.03308
373.5715, 73.41740
374.0536, 73.36229
374.5357, 73.73781
375.0179, 73.65884
375.5000, 72.43565
375.9821, 70.74264
376.4642, 70.24014
376.9463, 71.43327
377.4284, 72.47501
377.9106, 72.48829
378.3927, 71.94885
378.8748, 71.68723
379.3569, 71.93771
379.8390, 72.38886
380.3211, 72.66145
380.8033, 72.72654
381.2854, 72.75973
381.7675, 72.79456
382.2496, 72.78577
382.7317, 72.40622
383.2138, 71.79097
383.6960, 71.85707
384.1781, 73.48325
384.6602, 76.49977
385.1423, 78.44358
385.6244, 78.88285
386.1065, 78.96167
386.5887, 78.55220
387.0708, 78.11885
387.5529, 78.51159
388.0350, 80.13116
388.5171, 82.45847
388.9992, 84.36179
389.4814, 85.51027
389.9635, 86.70042
390.4456, 87.73659
390.9277, 88.94194
391.4098, 90.76063
391.8919, 93.14146
392.3741, 95.50021
392.8562, 97.18397
393.3383, 98.07962
393.8204, 99.21899
394.3025, 100.6962
394.7846, 102.3015
395.2668, 103.9673
395.7489, 105.7154
396.2310, 107.6041
396.7131, 109.6758
397.1952, 111.8961
397.6773, 114.1954
398.1595, 116.9156
398.6416, 119.1218
399.1237, 120.7101
399.6058, 121.8040
400.0879, 122.3964
400.5700, 122.5306
401.0522, 122.4829
401.5343, 122.6901
402.0164, 123.2865
402.4985, 123.3198
402.9806, 122.5885
403.4627, 121.3894
403.9449, 119.8255
404.4270, 117.8969
404.9091, 115.5703
405.3912, 112.7791
405.8733, 109.5918
406.3554, 106.2445
406.8376, 102.7005
407.3197, 99.01706
407.8018, 94.79958
408.2839, 90.64902
408.7660, 87.39207
409.2481, 85.32924
409.7303, 83.42316
410.2124, 80.33370
410.6945, 76.18211
411.1766, 72.79340
411.6587, 70.71761
412.1408, 69.33253
412.6230, 68.12803
413.1051, 67.08116
413.5872, 66.02251
414.0693, 64.90722
414.5514, 63.72564
415.0335, 62.41359
415.5157, 60.94617
415.9978, 59.57694
416.4799, 58.44073
416.9620, 57.54934
417.4441, 56.85693
417.9262, 56.28296
418.4084, 56.01307
418.8905, 56.47887
419.3726, 57.34402
419.8547, 57.66902
420.3368, 57.06326
420.8189, 56.03017
421.3011, 55.36317
421.7832, 55.13383
422.2653, 54.94208
422.7474, 54.62170
423.2295, 54.40705
423.7116, 54.58498
424.1938, 55.12429
424.6759, 55.64722
425.1580, 55.79964
425.6401, 55.63174
426.1222, 56.11007
426.6043, 57.86058
427.0865, 59.42309
427.5686, 60.29419
428.0507, 60.80831
428.5328, 61.45094
429.0149, 62.40875
429.4970, 63.51685
429.9792, 64.44337
430.4613, 64.80977
430.9434, 65.87412
431.4255, 68.15354
431.9076, 70.55009
432.3897, 72.27926
432.8719, 73.52178
433.3540, 75.10064
433.8361, 77.76384
434.3182, 81.29261
434.8003, 84.05782
435.2824, 85.15160
435.7646, 86.87775
436.2467, 90.22640
436.7288, 94.20580
437.2109, 97.61056
437.6930, 100.0553
438.1751, 102.4819
438.6573, 106.1715
439.1394, 111.2080
439.6215, 116.3570
440.1036, 121.4398
440.5857, 126.6501
441.0678, 132.1142
441.5500, 137.8170
442.0321, 143.6668
442.5142, 149.5112
442.9963, 155.5330
443.4784, 162.0676
443.9605, 169.1019
444.4427, 176.7920
444.9248, 185.4564
445.4069, 194.7254
445.8890, 203.8465
446.3711, 212.8229
446.8532, 221.6460
447.3354, 230.0508
447.8175, 238.3021
448.2996, 247.1507
448.7817, 256.8502
449.2638, 266.5151
449.7459, 275.1371
450.2281, 282.6431
450.7102, 289.8470
451.1923, 297.2841
451.6744, 303.9780
452.1565, 309.2763
452.6386, 313.2886
453.1208, 316.3302
453.6029, 318.5378
454.0850, 320.0388
454.5671, 321.1877
455.0492, 322.6049
455.5313, 322.7139
456.0135, 321.0052
456.4956, 318.3207
456.9777, 315.1663
457.4598, 311.7023
457.9419, 307.9494
458.4240, 303.8376
458.9062, 299.3654
459.3883, 295.2886
459.8704, 291.7139
460.3525, 288.4374
460.8346, 285.4617
461.3167, 282.7411
461.7989, 280.2168
462.2810, 277.8534
462.7631, 275.7122
463.2452, 273.6541
463.7273, 271.4605
464.2094, 270.6833
464.6916, 272.4988
465.1737, 274.9233
465.6558, 276.5987
466.1379, 277.8091
466.6200, 279.7690
467.1021, 283.3692
467.5843, 288.0493
468.0664, 292.6297
468.5485, 297.0573
469.0306, 301.9400
469.5127, 307.8763
469.9948, 314.2638
470.4770, 320.1987
470.9591, 325.7630
471.4412, 330.4564
471.9233, 333.9919
472.4054, 336.5063
472.8875, 338.4967
473.3697, 340.1207
473.8518, 340.0996
474.3339, 336.9047
474.8160, 330.4991
475.2981, 324.6117
475.7802, 320.3206
476.2624, 315.4287
476.7445, 309.0682
477.2266, 301.3546
477.7087, 292.2422
478.1908, 281.6124
478.6729, 270.6333
479.1551, 261.4931
479.6372, 255.0756
480.1193, 248.4404
480.6014, 241.1508
481.0835, 234.0317
481.5656, 227.3447
482.0478, 221.2372
482.5299, 215.9466
483.0120, 211.6935
483.4941, 208.2634
483.9762, 204.9737
484.4583, 201.6862
484.9405, 198.8517
485.4226, 196.6092
485.9047, 194.7660
486.3868, 193.1817
486.8689, 191.8439
487.3510, 190.9010
487.8332, 190.5509
488.3153, 190.7226
488.7974, 191.0185
489.2795, 191.3121
489.7616, 192.0118
490.2437, 193.6564
490.7259, 195.8092
491.2080, 197.7931
491.6901, 199.1881
492.1722, 200.9692
492.6543, 203.7130
493.1364, 207.3886
493.6186, 211.9259
494.1007, 217.3772
494.5828, 223.5692
495.0649, 230.2944
495.5470, 237.5785
496.0291, 245.7780
496.5113, 254.7142
496.9934, 264.7916
497.4755, 276.0837
497.9576, 288.7149
498.4397, 303.0020
498.9218, 319.0096
499.4040, 336.6194
499.8861, 355.2708
500.3682, 373.5977
500.8503, 395.5910
501.3324, 421.9113
501.8145, 450.9416
502.2967, 482.1816
502.7788, 515.3829
503.2609, 550.0645
503.7430, 585.5729
504.2251, 622.9728
504.7072, 666.2560
505.1894, 717.1517
505.6715, 770.5324
506.1536, 825.5116
506.6357, 882.2158
507.1178, 940.3551
507.5999, 999.9719
508.0821, 1061.879
508.5642, 1128.105
509.0463, 1196.937
509.5284, 1264.279
510.0105, 1329.971
510.4926, 1393.541
510.9748, 1457.410
511.4569, 1517.471
511.9390, 1566.036
512.4211, 1604.158
512.9032, 1627.217
513.3853, 1632.838
513.8674, 1621.764
514.3495, 1594.572
514.8317, 1551.167
515.3138, 1493.344
515.7959, 1421.241
516.2780, 1333.494
516.7601, 1246.971
517.2422, 1160.004
517.7244, 1075.472
518.2065, 993.0038
518.6886, 913.9682
519.1707, 839.8821
519.6528, 771.4727
520.1349, 708.6941
520.6171, 652.3142
521.0992, 603.0195
521.5813, 557.3235
522.0634, 515.4767
522.5455, 477.3647
523.0276, 443.5747
523.5098, 413.4164
523.9919, 385.9790
524.4740, 360.8276
524.9561, 337.8754
525.4382, 316.6888
525.9203, 297.3899
526.4025, 279.8302
526.8846, 264.2104
527.3667, 250.2590
527.8488, 237.6071
528.3309, 226.2115
528.8130, 215.7261
529.2952, 206.3486
529.7773, 197.6264
530.2594, 188.7682
530.7415, 180.0577
531.2236, 172.9588
531.7057, 168.3884
532.1879, 164.9780
532.6700, 160.0407
533.1521, 152.4176
533.6342, 145.8287
534.1163, 140.9187
534.5984, 136.5962
535.0806, 132.2617
535.5627, 127.8966
536.0448, 123.6379
536.5269, 119.5681
537.0090, 115.7598
537.4911, 112.5635
537.9733, 110.3135
538.4554, 107.8797
538.9375, 104.7989
539.4196, 101.7758
539.9017, 99.43114
540.3839, 97.60425
540.8660, 95.48031
541.3481, 92.21672
541.8302, 88.47847
542.3123, 85.84237
542.7944, 84.42165
543.2766, 83.13278
543.7587, 81.51339
544.2408, 79.86716
544.7229, 78.71310
545.2050, 78.12920
545.6871, 77.32496
546.1693, 75.92660
546.6514, 74.24301
547.1335, 72.50703
547.6156, 70.77828
548.0977, 69.17081
548.5798, 67.74809
549.0620, 66.50808
549.5441, 65.45500
550.0262, 64.80624
550.5083, 64.06047
550.9904, 63.07273
551.4725, 62.09394
551.9547, 61.37380
552.4368, 60.86227
552.9189, 60.24797
553.4010, 59.22581
553.8831, 58.01204
554.3652, 57.59632
554.8474, 58.40345
555.3295, 58.94038
555.8116, 58.88377
556.2937, 58.37134
556.7758, 57.19265
557.2579, 55.44871
557.7401, 54.05381
558.2222, 53.70790
558.7043, 53.99231
559.1864, 54.23255
559.6685, 54.40895
560.1506, 54.58138
560.6328, 54.83895
561.1149, 55.05104
561.5970, 54.86390
562.0791, 54.12781
562.5612, 53.55766
563.0433, 53.34771
563.5255, 53.30707
564.0076, 53.43629
564.4897, 53.61531
564.9718, 53.42936
565.4539, 52.55687
565.9360, 51.31132
566.4182, 50.78368
566.9003, 51.40303
567.3824, 51.94264
567.8645, 52.37280
568.3466, 52.66298
568.8287, 52.67691
569.3109, 52.51197
569.7930, 52.48984
570.2751, 52.89143
570.7572, 53.47663
571.2393, 53.67897
571.7214, 53.45702
572.2036, 53.36087
572.6857, 53.64625
573.1678, 54.04005
573.6499, 54.20329
574.1320, 54.14276
574.6141, 54.11298
575.0963, 54.22725
575.5784, 54.36444
576.0605, 54.47034
576.5426, 54.51433
577.0247, 54.41892
577.5068, 54.14867
577.9890, 53.71585
578.4711, 53.09837
578.9532, 52.01186
579.4353, 51.49403
579.9174, 52.10090
580.3995, 52.64752
580.8817, 52.35065
581.3638, 51.60520
581.8459, 51.28738
582.3280, 51.84607
582.8101, 52.70872
583.2922, 53.00730
583.7744, 52.72790
584.2565, 52.01204
584.7386, 50.57072
585.2207, 49.11436
585.7029, 48.00722
586.1850, 47.26183
586.6671, 46.97715
