##NAMES=Sanidine
##RRUFFID=R060313
##IDEAL CHEMISTRY=KAlSi_3_O_8_
##LOCALITY=Eifel Mountains, Rhineland-Palatinate, Germany
##OWNER=RRUFF
##SOURCE=Herb Obodda
##DESCRIPTION=Pale yellow transparent cleavage fragment. Crystal structure given below.
##STATUS=The identification of this mineral has been confirmed by X-ray diffraction and chemical analysis
##URL=rruff.info/R060313
##MEASURED CHEMISTRY=(K_0.85_Na_0.14_Ba_0.01_)_Î£=1_Al_1.04_Si_2.96_O_8_
90.49219, 23.47556
90.97430, 23.10725
91.45642, 22.97706
91.93854, 23.11178
92.42065, 23.47908
92.90277, 24.22997
93.38489, 25.52135
93.86700, 26.56077
94.34912, 25.99315
94.83124, 24.08738
95.31335, 22.40221
95.79547, 22.25811
96.27759, 23.23409
96.75970, 23.45624
97.24182, 22.37403
97.72394, 20.78337
98.20605, 20.47177
98.68817, 21.54216
99.17029, 23.07562
99.65240, 24.65438
100.1345, 26.33733
100.6166, 27.17152
101.0988, 26.74360
101.5809, 25.22876
102.0630, 24.12973
102.5451, 23.55220
103.0272, 23.18505
103.5093, 22.63092
103.9915, 21.73814
104.4736, 21.06940
104.9557, 20.84081
105.4378, 21.15623
105.9199, 21.33182
106.4020, 21.34188
106.8842, 21.22613
107.3663, 21.04705
107.8484, 20.76804
108.3305, 20.46959
108.8126, 20.17753
109.2947, 19.87534
109.7769, 19.60717
110.2590, 19.39142
110.7411, 19.21195
111.2232, 19.02451
111.7053, 18.74021
112.1874, 18.50933
112.6696, 18.40192
113.1517, 18.58044
113.6338, 18.71490
114.1159, 18.85456
114.5980, 18.96378
115.0801, 18.78713
115.5623, 17.85012
116.0444, 16.80305
116.5265, 16.15127
117.0086, 16.34931
117.4907, 16.67440
117.9728, 16.91993
118.4550, 17.07869
118.9371, 17.06669
119.4192, 16.75537
119.9013, 16.27145
120.3834, 15.78080
120.8655, 14.93497
121.3477, 14.36889
121.8298, 14.83223
122.3119, 16.61780
122.7940, 18.10081
123.2761, 17.70924
123.7582, 16.11392
124.2404, 14.80887
124.7225, 14.85736
125.2046, 15.54746
125.6867, 16.03303
126.1688, 16.19940
126.6509, 16.12656
127.1331, 15.62259
127.6152, 14.82182
128.0973, 14.39180
128.5794, 15.04297
129.0615, 16.41165
129.5436, 17.60428
130.0258, 18.31684
130.5079, 18.88738
130.9900, 20.09011
131.4721, 21.91407
131.9542, 23.64712
132.4363, 24.47169
132.9185, 24.53607
133.4006, 24.84160
133.8827, 25.57228
134.3648, 26.75524
134.8469, 28.54005
135.3290, 30.93157
135.8112, 33.91864
136.2933, 37.37976
136.7754, 41.30736
137.2575, 46.03387
137.7396, 51.97438
138.2217, 58.98846
138.7039, 65.52394
139.1860, 71.26672
139.6681, 77.04472
140.1502, 84.37076
140.6323, 93.49863
141.1144, 103.0837
141.5966, 112.6719
142.0787, 122.1734
142.5608, 131.8701
143.0429, 141.7782
143.5250, 151.8474
144.0071, 161.9377
144.4893, 172.0408
144.9714, 182.0372
145.4535, 191.4615
145.9356, 198.7983
146.4177, 208.8855
146.8998, 222.7882
147.3820, 239.6301
147.8641, 256.3888
148.3462, 272.1266
148.8283, 288.4491
149.3104, 306.3225
149.7925, 324.3104
150.2747, 345.6533
150.7568, 371.1528
151.2389, 400.5018
151.7210, 430.2437
152.2031, 459.2377
152.6852, 488.9942
153.1674, 520.7869
153.6495, 555.9054
154.1316, 591.4966
154.6137, 628.0133
155.0958, 665.4952
155.5779, 700.6732
156.0601, 732.0216
156.5422, 761.5041
157.0243, 790.4231
157.5064, 822.2458
157.9885, 850.5487
158.4706, 872.5850
158.9528, 887.6161
159.4349, 901.9427
159.9170, 917.1890
160.3991, 932.5799
160.8812, 947.2195
161.3633, 962.4040
161.8455, 975.5391
162.3276, 985.5498
162.8097, 992.1067
163.2918, 996.0458
163.7739, 996.1141
164.2560, 992.8279
164.7382, 982.6398
165.2203, 973.4680
165.7024, 964.1059
166.1845, 952.3875
166.6666, 937.7197
167.1487, 921.7998
167.6309, 905.6203
168.1130, 888.7200
168.5951, 870.4096
169.0772, 848.6238
169.5593, 826.0500
170.0414, 805.1166
170.5236, 786.6699
171.0057, 768.6854
171.4878, 749.8428
171.9699, 730.0680
172.4520, 709.5616
172.9341, 688.0925
173.4163, 665.8737
173.8984, 643.0551
174.3805, 619.1579
174.8626, 595.3453
175.3447, 571.8688
175.8268, 548.7735
176.3090, 526.2617
176.7911, 504.0266
177.2732, 482.6810
177.7553, 463.4981
178.2374, 447.1964
178.7195, 432.6042
179.2017, 418.0011
179.6838, 403.3731
180.1659, 390.0506
180.6480, 379.3334
181.1301, 370.6093
181.6122, 362.1589
182.0944, 353.1356
182.5765, 344.3926
183.0586, 337.3050
183.5407, 331.9716
184.0228, 327.3716
184.5049, 322.7001
184.9871, 318.0547
185.4692, 313.9690
185.9513, 310.4970
186.4334, 307.6935
186.9155, 305.7484
187.3976, 304.7103
187.8798, 304.0528
188.3619, 303.1086
188.8440, 301.9807
189.3261, 301.3849
189.8082, 301.3887
190.2903, 302.1015
190.7725, 304.2308
191.2546, 308.0167
191.7367, 312.0960
192.2188, 314.8180
192.7009, 316.2784
193.1830, 317.8407
193.6652, 320.4962
194.1473, 323.8763
194.6294, 325.3814
195.1115, 324.8290
195.5936, 323.0460
196.0757, 321.5348
196.5579, 320.3802
197.0400, 317.2631
197.5221, 310.9131
198.0042, 301.5383
198.4863, 291.3314
198.9684, 280.0919
199.4506, 268.5598
199.9327, 257.9806
200.4148, 248.3555
200.8969, 239.1756
201.3790, 230.0337
201.8611, 220.9422
202.3433, 212.6719
202.8254, 205.2593
203.3075, 198.5630
203.7896, 192.3566
204.2717, 186.5059
204.7538, 181.5998
205.2360, 178.2587
205.7181, 176.7346
206.2002, 174.3166
206.6823, 170.6730
207.1644, 166.5359
207.6465, 163.3074
208.1287, 161.2236
208.6108, 159.3238
209.0929, 157.1943
209.5750, 154.7691
210.0571, 152.3878
210.5392, 149.8952
211.0214, 147.5708
211.5035, 146.0807
211.9856, 145.6704
212.4677, 145.4554
212.9498, 145.1093
213.4319, 144.6788
213.9140, 143.8851
214.3962, 142.5137
214.8783, 140.9094
215.3604, 139.9864
215.8425, 140.0695
216.3246, 140.0765
216.8067, 139.3410
217.2889, 137.4002
217.7710, 136.3915
218.2531, 136.7010
218.7352, 137.7729
219.2173, 138.2610
219.6994, 137.9338
220.1816, 137.4616
220.6637, 137.1841
221.1458, 137.2905
221.6279, 137.0248
222.1100, 136.2574
222.5921, 135.1636
223.0743, 134.1104
223.5564, 132.9338
224.0385, 132.1061
224.5206, 131.9416
225.0027, 132.7686
225.4848, 133.3701
225.9670, 133.6766
226.4491, 133.7627
226.9312, 133.8250
227.4133, 133.8946
227.8954, 133.8885
228.3775, 133.6900
228.8597, 132.9736
229.3418, 132.8988
229.8239, 133.8091
230.3060, 135.2759
230.7881, 135.9835
231.2702, 135.2389
231.7524, 134.7919
232.2345, 135.5942
232.7166, 138.6505
233.1987, 140.5850
233.6808, 140.9418
234.1629, 140.2837
234.6451, 140.0844
235.1272, 140.4302
235.6093, 141.1153
236.0914, 142.1234
236.5735, 143.7691
237.0556, 144.9727
237.5378, 145.3230
238.0199, 145.3562
238.5020, 146.5360
238.9841, 149.7086
239.4662, 152.8027
239.9483, 154.8985
240.4305, 155.4668
240.9126, 156.1954
241.3947, 156.9135
241.8768, 157.8399
242.3589, 159.6145
242.8410, 162.8093
243.3232, 165.9602
243.8053, 168.2854
244.2874, 168.9808
244.7695, 170.8960
245.2516, 174.6989
245.7337, 179.4678
246.2159, 183.0483
246.6980, 184.6312
247.1801, 186.3067
247.6622, 188.9120
248.1443, 192.7298
248.6264, 196.7310
249.1086, 200.9719
249.5907, 205.3962
250.0728, 209.8766
250.5549, 214.3539
251.0370, 218.9909
251.5191, 223.9432
252.0013, 229.3687
252.4834, 234.3665
252.9655, 238.5118
253.4476, 242.4306
253.9297, 247.3715
254.4118, 253.8560
254.8940, 260.2711
255.3761, 265.9193
255.8582, 270.4696
256.3403, 275.7103
256.8224, 281.8684
257.3046, 288.5469
257.7867, 294.9396
258.2688, 300.9425
258.7509, 306.9899
259.2330, 313.0493
259.7151, 319.0250
260.1973, 325.9168
260.6794, 333.9601
261.1615, 342.5575
261.6436, 350.5738
262.1257, 357.7611
262.6078, 365.1122
263.0900, 372.7187
263.5721, 380.5807
264.0542, 389.4868
264.5363, 400.1229
265.0184, 411.0712
265.5005, 420.7559
265.9827, 428.6469
266.4648, 436.5279
266.9469, 444.6231
267.4290, 452.8695
267.9111, 462.3521
268.3932, 473.3461
268.8754, 485.0422
269.3575, 496.4208
269.8396, 507.3764
270.3217, 518.8089
270.8038, 530.9176
271.2859, 543.7893
271.7681, 556.9791
272.2502, 570.3555
272.7323, 584.3196
273.2144, 599.0118
273.6965, 614.6022
274.1786, 630.3739
274.6608, 646.5585
275.1429, 662.9297
275.6250, 678.2048
276.1071, 692.0756
276.5892, 705.6930
277.0714, 719.9289
277.5535, 734.9965
278.0356, 749.4442
278.5177, 763.1943
278.9998, 776.0885
279.4819, 787.4968
279.9641, 797.5733
280.4462, 806.0193
280.9283, 812.9672
281.4104, 818.4117
281.8925, 820.8367
282.3746, 819.3936
282.8568, 815.2525
283.3389, 812.4763
283.8210, 811.5500
284.3031, 808.1887
284.7852, 798.3964
285.2673, 782.5822
285.7495, 766.8553
286.2316, 752.3071
286.7137, 737.6679
287.1958, 719.8063
287.6779, 698.6210
288.1600, 677.0950
288.6422, 657.7579
289.1243, 639.9040
289.6064, 619.7900
290.0885, 596.5096
290.5706, 571.7701
291.0527, 547.6702
291.5349, 524.2721
292.0170, 502.3036
292.4991, 482.9359
292.9812, 465.4669
293.4633, 448.0179
293.9454, 430.3008
294.4276, 412.9201
294.9097, 396.8587
295.3918, 381.9762
295.8739, 367.8676
296.3560, 354.8085
296.8381, 342.3719
297.3203, 329.6517
297.8024, 316.5787
298.2845, 304.1218
298.7666, 293.4565
299.2487, 284.3672
299.7308, 275.8765
300.2130, 267.7616
300.6951, 259.9433
301.1772, 252.1362
301.6593, 244.3744
302.1414, 236.9894
302.6235, 230.4301
303.1057, 224.5026
303.5878, 218.9969
304.0699, 213.9666
304.5520, 209.1431
305.0341, 204.1406
305.5162, 199.0137
305.9984, 194.0131
306.4805, 189.2515
306.9626, 184.7817
307.4447, 180.7759
307.9268, 177.2715
308.4089, 174.1725
308.8911, 171.4756
309.3732, 169.1309
309.8553, 166.9393
310.3374, 164.8724
310.8195, 162.8529
311.3016, 160.8326
311.7838, 158.8089
312.2659, 156.7741
312.7480, 154.6729
313.2301, 152.5789
313.7122, 150.6274
314.1943, 148.7489
314.6765, 147.1056
315.1586, 145.8621
315.6407, 145.1418
316.1228, 144.4793
316.6049, 143.5169
317.0870, 142.4894
317.5692, 141.7945
318.0513, 142.0477
318.5334, 142.2699
319.0155, 141.9109
319.4976, 140.8359
319.9797, 139.8025
320.4619, 139.1387
320.9440, 138.6122
321.4261, 137.9724
321.9082, 136.9021
322.3903, 135.9482
322.8724, 135.3204
323.3546, 135.0305
323.8367, 134.7521
324.3188, 134.5796
324.8009, 134.3137
325.2830, 133.8063
325.7651, 132.5009
326.2473, 131.5529
326.7294, 131.3038
327.2115, 131.6591
327.6936, 131.8520
328.1757, 131.8115
328.6578, 131.6199
329.1400, 131.3156
329.6221, 130.8762
330.1042, 130.3526
330.5863, 129.5718
331.0684, 128.6977
331.5505, 128.2464
332.0327, 128.5853
332.5148, 128.9024
332.9969, 128.8006
333.4790, 127.9057
333.9611, 127.6863
334.4432, 128.6604
334.9254, 130.0103
335.4075, 130.2925
335.8896, 129.1116
336.3717, 127.6556
336.8538, 126.2095
337.3359, 124.7348
337.8180, 123.5294
338.3001, 122.5082
338.7823, 121.8872
339.2644, 122.1080
339.7465, 123.4411
340.2286, 124.4486
340.7107, 124.8095
341.1928, 124.5565
341.6750, 123.8175
342.1571, 122.4807
342.6392, 121.0355
343.1213, 119.7849
343.6034, 118.7358
344.0855, 118.0464
344.5677, 117.8097
345.0498, 117.8859
345.5319, 118.0907
346.0140, 118.4398
346.4961, 118.4833
346.9782, 117.7670
347.4604, 116.4418
347.9425, 115.2196
348.4246, 114.1124
348.9067, 113.2528
349.3888, 112.8981
349.8709, 112.9929
350.3531, 113.2249
350.8352, 113.6468
351.3173, 114.0542
351.7994, 113.9801
352.2815, 113.3808
352.7636, 112.6412
353.2458, 111.9577
353.7279, 111.4103
354.2100, 111.1811
354.6921, 111.6586
355.1742, 112.2668
355.6563, 112.4957
356.1385, 112.3379
356.6206, 111.7656
357.1027, 110.2229
357.5848, 108.4516
358.0669, 107.3761
358.5490, 107.7459
359.0312, 108.1145
359.5133, 107.1740
359.9954, 105.4032
360.4775, 104.2762
360.9596, 105.3864
361.4417, 106.8029
361.9239, 107.1919
362.4060, 106.1382
362.8881, 104.6654
363.3702, 102.8502
363.8523, 100.9142
364.3344, 99.19711
364.8166, 97.49171
365.2987, 96.28324
365.7808, 96.05241
366.2629, 96.97925
366.7450, 97.38316
367.2271, 96.64053
367.7093, 95.44259
368.1914, 94.39701
368.6735, 93.72666
369.1556, 93.01805
369.6377, 92.12088
370.1198, 91.07900
370.6020, 90.36098
371.0841, 90.10222
371.5662, 90.04044
372.0483, 90.06145
372.5304, 90.31738
373.0125, 90.36953
373.4947, 90.18670
373.9768, 89.80342
374.4589, 89.23137
374.9410, 88.25898
375.4231, 87.53735
375.9052, 87.42870
376.3874, 88.06420
376.8695, 88.17872
377.3516, 87.51804
377.8337, 86.76669
378.3158, 86.92895
378.7979, 88.16638
379.2801, 89.11385
379.7622, 89.39841
380.2443, 89.10657
380.7264, 88.53596
381.2085, 87.64833
381.6906, 86.76820
382.1728, 86.04366
382.6549, 85.51101
383.1370, 85.54127
383.6191, 86.39143
384.1012, 87.47953
384.5833, 87.78790
385.0655, 87.39662
385.5476, 86.93022
386.0297, 86.63121
386.5118, 86.52720
386.9939, 86.73301
387.4760, 87.29650
387.9582, 87.89683
388.4403, 88.38319
388.9224, 88.68304
389.4045, 88.65054
389.8866, 87.55764
390.3687, 86.56916
390.8509, 87.07165
391.3330, 88.90923
391.8151, 90.33263
392.2972, 89.89913
392.7793, 88.72557
393.2614, 87.88363
393.7436, 87.83782
394.2257, 87.91250
394.7078, 87.71107
395.1899, 87.40572
395.6720, 87.44853
396.1541, 88.44927
396.6363, 89.46024
397.1184, 89.93039
397.6005, 89.49998
398.0826, 89.49062
398.5647, 90.67458
399.0468, 92.18983
399.5290, 92.99153
400.0111, 91.99342
400.4932, 91.37766
400.9753, 91.69231
401.4574, 92.93503
401.9395, 93.81301
402.4217, 94.23300
402.9038, 94.39510
403.3859, 94.45118
403.8680, 94.51414
404.3501, 94.15056
404.8322, 93.12019
405.3144, 91.74487
405.7965, 91.02815
406.2786, 91.23514
406.7607, 91.20284
407.2428, 90.19066
407.7249, 88.14390
408.2071, 86.87831
408.6892, 86.49756
409.1713, 86.56239
409.6534, 86.79626
410.1355, 87.15860
410.6176, 86.82045
411.0998, 85.16696
411.5819, 82.89484
412.0640, 81.79947
412.5461, 81.85094
413.0282, 82.04770
413.5103, 81.60902
413.9925, 80.76940
414.4746, 79.99609
414.9567, 79.36214
415.4388, 78.81522
415.9209, 78.21197
416.4030, 77.64120
416.8852, 77.30726
417.3673, 77.36474
417.8494, 77.67307
418.3315, 78.28770
418.8136, 79.21236
419.2957, 79.82320
419.7779, 79.55675
420.2600, 78.88720
420.7421, 78.29379
421.2242, 77.78574
421.7063, 77.50582
422.1884, 77.57779
422.6706, 77.93076
423.1527, 78.29789
423.6348, 78.79318
424.1169, 79.14673
424.5990, 79.12761
425.0811, 78.21371
425.5633, 78.10931
426.0454, 79.52677
426.5275, 81.49740
427.0096, 82.77129
427.4917, 82.59512
427.9738, 82.87280
428.4560, 84.20117
428.9381, 86.52068
429.4202, 88.11333
429.9023, 88.57597
430.3844, 89.01994
430.8665, 90.36452
431.3487, 92.81750
431.8308, 94.79243
432.3129, 95.89797
432.7950, 96.79031
433.2771, 99.09071
433.7592, 102.8477
434.2414, 106.2554
434.7235, 107.9717
435.2056, 108.5861
435.6877, 110.6787
436.1698, 114.3280
436.6519, 118.3364
437.1341, 121.3270
437.6162, 123.6846
438.0983, 126.5323
438.5804, 130.3714
439.0625, 134.5368
439.5446, 138.0171
440.0268, 141.0939
440.5089, 144.7949
440.9910, 150.3067
441.4731, 156.3579
441.9552, 161.9122
442.4373, 166.7415
442.9195, 171.3657
443.4016, 175.4524
443.8837, 179.6675
444.3658, 184.8206
444.8479, 191.8972
445.3300, 199.1983
445.8122, 206.3297
446.2943, 213.2397
446.7764, 220.1362
447.2585, 227.0517
447.7406, 233.9509
448.2227, 240.8723
448.7049, 247.9033
449.1870, 254.6922
449.6691, 261.3947
450.1512, 267.7476
450.6333, 273.1423
451.1154, 277.2819
451.5976, 281.1972
452.0797, 285.1466
452.5618, 289.1179
453.0439, 292.7141
453.5260, 295.8669
454.0081, 298.6483
454.4903, 301.3058
454.9724, 303.8051
455.4545, 305.0312
455.9366, 304.5950
456.4187, 303.3385
456.9008, 302.3754
457.3830, 301.7443
457.8651, 301.8125
458.3472, 303.4978
458.8293, 305.7578
459.3114, 306.2444
459.7935, 304.9664
460.2757, 304.2470
460.7578, 306.3543
461.2399, 310.0612
461.7220, 313.5693
462.2041, 315.9395
462.6862, 318.8799
463.1684, 323.2311
463.6505, 329.0047
464.1326, 336.1373
464.6147, 344.8552
465.0968, 354.7622
465.5789, 365.5762
466.0611, 377.3018
466.5432, 389.7294
467.0253, 402.8970
467.5074, 416.6081
467.9895, 430.6353
468.4716, 445.0469
468.9538, 460.0045
469.4359, 476.0754
469.9180, 492.5659
470.4001, 507.4540
470.8822, 520.8549
471.3643, 532.2823
471.8465, 541.6254
472.3286, 548.9302
472.8107, 553.9558
473.2928, 556.9080
473.7749, 557.0382
474.2570, 553.0588
474.7392, 544.9938
475.2213, 535.0547
475.7034, 523.5289
476.1855, 510.6356
476.6676, 496.7241
477.1497, 481.7429
477.6319, 465.9565
478.1140, 448.5903
478.5961, 430.6498
479.0782, 413.8335
479.5603, 398.2828
480.0424, 383.3726
480.5246, 368.2517
481.0067, 353.5318
481.4888, 340.0106
481.9709, 327.4453
482.4530, 316.5538
482.9352, 308.2161
483.4173, 301.9447
483.8994, 296.1984
484.3815, 290.4618
484.8636, 285.1151
485.3457, 280.2318
485.8279, 275.6217
486.3100, 272.1140
486.7921, 270.2542
487.2742, 269.2809
487.7563, 268.5373
488.2384, 267.9531
488.7206, 267.6915
489.2027, 267.5859
489.6848, 267.8398
490.1669, 269.3124
490.6490, 272.2518
491.1311, 275.6188
491.6133, 278.6544
492.0954, 281.3945
492.5775, 285.5341
493.0596, 291.1108
493.5417, 297.8753
494.0238, 305.6388
494.5060, 314.3826
494.9881, 323.8809
495.4702, 333.8419
495.9523, 344.7695
496.4344, 356.8040
496.9165, 370.1624
497.3987, 385.5921
497.8808, 404.4342
498.3629, 425.1746
498.8450, 445.9635
499.3271, 466.7530
499.8092, 489.6997
500.2914, 516.1325
500.7735, 545.2951
501.2556, 577.2004
501.7377, 611.4817
502.2198, 648.4251
502.7019, 688.2546
503.1841, 730.9467
503.6662, 776.6315
504.1483, 824.0652
504.6304, 876.7460
505.1125, 935.5793
505.5946, 1000.770
506.0768, 1069.153
506.5589, 1140.023
507.0410, 1214.476
507.5231, 1293.879
508.0052, 1378.401
508.4873, 1465.484
508.9695, 1554.177
509.4516, 1643.789
509.9337, 1734.641
510.4158, 1826.332
510.8979, 1910.916
511.3800, 1988.785
511.8622, 2056.630
512.3443, 2110.470
512.8264, 2149.531
513.3085, 2168.022
513.7906, 2159.147
514.2728, 2127.785
514.7549, 2079.755
515.2370, 2015.551
515.7191, 1936.756
516.2012, 1837.351
516.6833, 1725.801
517.1655, 1613.484
517.6476, 1501.097
518.1297, 1391.666
518.6118, 1284.662
519.0939, 1180.587
519.5760, 1084.115
520.0582, 997.4492
520.5403, 918.0568
521.0224, 846.2588
521.5045, 782.5808
521.9866, 723.6448
522.4688, 669.0821
522.9509, 619.6397
523.4330, 575.8097
523.9151, 537.9767
524.3972, 503.6191
524.8793, 472.8149
525.3615, 445.0760
525.8436, 418.6269
526.3257, 393.3833
526.8078, 370.4005
527.2899, 350.3651
527.7720, 332.7221
528.2542, 316.5938
528.7363, 302.0059
529.2184, 288.6335
529.7005, 276.7996
530.1826, 266.0099
530.6647, 255.6195
531.1469, 245.4595
531.6290, 235.8159
532.1111, 227.0347
532.5932, 218.9517
533.0753, 211.2647
533.5574, 203.6172
534.0396, 196.5293
534.5217, 190.0686
535.0038, 184.3050
535.4859, 179.2294
535.9680, 175.3989
536.4501, 171.7419
536.9323, 167.6165
537.4144, 162.6647
537.8965, 158.1588
538.3786, 154.2502
538.8607, 150.6244
539.3428, 146.8386
539.8250, 142.8296
540.3071, 139.1133
540.7892, 135.9977
541.2713, 133.1776
541.7534, 129.7277
542.2355, 125.7606
542.7177, 122.4799
543.1998, 121.2052
543.6819, 120.8639
544.1640, 119.8619
544.6461, 118.0704
545.1282, 115.8724
545.6104, 113.0744
546.0925, 110.2238
546.5746, 107.9605
547.0567, 106.9122
547.5388, 105.8419
548.0209, 104.2380
548.5031, 102.3387
548.9852, 100.6338
549.4673, 99.45412
549.9494, 98.19789
550.4315, 96.56520
550.9136, 94.56008
551.3958, 93.23426
551.8779, 92.89751
552.3600, 92.71713
552.8421, 92.16927
553.3242, 91.22154
553.8063, 90.14373
554.2885, 88.85566
554.7706, 87.69056
555.2527, 87.25534
555.7348, 87.42415
556.2169, 87.40566
556.6990, 86.92641
557.1812, 86.19421
557.6633, 85.36437
558.1454, 84.49886
558.6275, 83.82890
559.1096, 83.65981
559.5917, 83.62804
560.0739, 83.40794
560.5560, 82.97209
561.0381, 82.63656
561.5202, 82.77596
562.0023, 82.91826
562.4844, 82.68858
562.9666, 81.44582
563.4487, 80.72908
563.9308, 80.87666
564.4129, 81.47145
564.8950, 81.94642
565.3771, 82.45534
565.8593, 82.43447
566.3414, 81.48306
566.8235, 79.93886
567.3056, 79.40230
567.7877, 79.98956
568.2698, 80.76359
568.7520, 81.17036
569.2341, 81.30552
569.7162, 81.55769
570.1983, 81.94178
570.6804, 82.35659
571.1625, 82.84363
571.6447, 83.26070
572.1268, 83.30170
572.6089, 82.63515
573.0910, 82.14599
573.5731, 82.75281
574.0552, 83.86915
574.5374, 84.48208
575.0195, 83.47793
575.5016, 82.70809
575.9837, 83.02428
576.4658, 84.31953
576.9479, 85.09789
577.4301, 85.22350
577.9122, 84.94410
578.3943, 84.25265
578.8764, 83.01418
579.3585, 82.14367
579.8406, 81.67860
580.3228, 81.49668
580.8049, 81.77441
581.2870, 82.44356
581.7691, 81.95649
582.2512, 79.54191
582.7333, 77.07792
583.2155, 78.36918
583.6975, 82.13342
584.1796, 84.39677
584.6617, 81.91638
585.1439, 78.11005
585.6260, 75.87644
