##NAMES=Santafeite
##RRUFFID=R080054
##IDEAL CHEMISTRY=(Ca,Sr,Na)_3_(Mn^2+^,Fe^3+^)_2_Mn^4+^_2_(V^5+^O_4_)_4_(OH,O)_5_&#183;2H_2_O
##LOCALITY=Marble Canyon, Gunnison County, Colorado, USA
##OWNER=RRUFF
##SOURCE=James Shigley
##DESCRIPTION=Black blocky crystals, associated with elongated groutite, R070583
##STATUS=The identification of this mineral is confirmed by single-crystal X-ray diffraction and chemical analysis.
##URL=rruff.info/R080054
##MEASURED CHEMISTRY=(Ca_1.63_Na_1.34_Sr_0.02_)_Σ=2.99_Mn^+2^_1.84_Mn^+4^_1.96_(V_0.98_As_0.0025_O_4_)_4_OH_5_·2H_2_O
92.96582, 496.2089
93.44794, 495.3846
93.93005, 496.6524
94.41217, 497.2542
94.89429, 494.5067
95.37640, 489.8681
95.85852, 484.0077
96.34064, 476.8844
96.82275, 468.3038
97.30487, 458.9214
97.78699, 451.4220
98.26910, 447.1109
98.75122, 443.2143
99.23334, 438.0435
99.71545, 431.4196
100.1976, 424.0056
100.6797, 417.2273
101.1618, 411.2366
101.6439, 406.1385
102.1260, 402.0881
102.6081, 398.7187
103.0903, 395.3139
103.5724, 391.3811
104.0545, 388.1903
104.5366, 386.4961
105.0187, 385.7616
105.5008, 384.9784
105.9830, 383.4446
106.4651, 381.1164
106.9472, 378.5402
107.4293, 374.4340
107.9114, 371.0054
108.3935, 369.3745
108.8757, 369.4098
109.3578, 370.1369
109.8399, 370.3658
110.3220, 369.9177
110.8041, 369.2457
111.2862, 368.0557
111.7684, 366.8208
112.2505, 365.9112
112.7326, 365.4394
113.2147, 365.2986
113.6968, 365.3076
114.1789, 365.5445
114.6611, 365.7631
115.1432, 366.0707
115.6253, 366.3247
116.1074, 366.2533
116.5895, 365.7565
117.0716, 364.7833
117.5538, 363.2500
118.0359, 360.5592
118.5180, 358.2968
119.0001, 357.8850
119.4822, 359.3727
119.9643, 360.9576
120.4465, 361.8753
120.9286, 362.3202
121.4107, 362.4382
121.8928, 362.2365
122.3749, 361.7575
122.8570, 361.0345
123.3392, 359.9256
123.8213, 358.8274
124.3034, 357.7741
124.7855, 356.8348
125.2676, 356.0709
125.7497, 355.4963
126.2319, 355.1252
126.7140, 355.1708
127.1961, 356.0738
127.6782, 357.0301
128.1603, 357.9232
128.6424, 358.7216
129.1246, 359.4227
129.6067, 360.0405
130.0888, 360.5991
130.5709, 360.8941
131.0530, 360.5208
131.5351, 360.2567
132.0173, 360.7049
132.4994, 361.8848
132.9815, 363.1935
133.4636, 363.8266
133.9457, 363.4584
134.4278, 363.5030
134.9100, 364.3698
135.3921, 365.5628
135.8742, 366.4406
136.3563, 366.7783
136.8384, 366.9680
137.3205, 367.7281
137.8027, 369.1118
138.2848, 370.2277
138.7669, 370.5351
139.2490, 370.2178
139.7311, 369.9764
140.2132, 369.8986
140.6954, 370.1191
141.1775, 370.8643
141.6596, 372.2135
142.1417, 373.4847
142.6238, 373.8983
143.1059, 373.2992
143.5881, 372.9051
144.0702, 373.5587
144.5523, 374.2478
145.0344, 374.2672
145.5165, 373.3971
145.9986, 371.9865
146.4807, 370.5848
146.9629, 368.9204
147.4450, 367.8242
147.9271, 367.8609
148.4092, 368.2320
148.8913, 368.1377
149.3734, 367.1843
149.8556, 365.5822
150.3377, 364.1786
150.8198, 363.2158
151.3019, 362.1979
151.7840, 361.1418
152.2661, 359.9781
152.7483, 358.5521
153.2304, 356.7174
153.7125, 354.5275
154.1946, 352.9630
154.6767, 352.7325
155.1588, 352.2685
155.6410, 350.8328
156.1231, 348.5854
156.6052, 346.1768
157.0873, 343.9931
157.5694, 342.1064
158.0515, 340.6639
158.5337, 340.0171
159.0158, 339.5652
159.4979, 338.8982
159.9800, 337.9900
160.4621, 336.8872
160.9442, 335.4854
161.4264, 333.8908
161.9085, 332.4510
162.3906, 331.1836
162.8727, 330.1364
163.3548, 329.4469
163.8369, 329.2601
164.3191, 329.1060
164.8012, 328.7289
165.2833, 328.1529
165.7654, 327.3995
166.2475, 326.5034
166.7296, 325.4538
167.2118, 324.0620
167.6939, 321.6974
168.1760, 319.7951
168.6581, 319.2132
169.1402, 319.6437
169.6223, 320.2509
170.1045, 320.3811
170.5866, 320.0010
171.0687, 319.5231
171.5508, 318.7372
172.0329, 318.0296
172.5150, 317.6527
172.9972, 317.5327
173.4793, 317.3582
173.9614, 316.7577
174.4435, 315.5390
174.9256, 314.5582
175.4077, 313.6930
175.8899, 313.0887
176.3720, 312.9655
176.8541, 313.2818
177.3362, 313.7216
177.8183, 313.8990
178.3004, 313.8615
178.7826, 313.3133
179.2647, 311.6687
179.7468, 309.8906
180.2289, 308.8283
180.7110, 308.6879
181.1931, 308.9701
181.6752, 308.9364
182.1574, 308.4874
182.6395, 308.0142
183.1216, 307.6561
183.6037, 307.2670
184.0858, 306.6642
184.5679, 305.7944
185.0501, 304.7018
185.5322, 303.3483
186.0143, 301.6989
186.4964, 300.1798
186.9785, 299.0655
187.4606, 298.2050
187.9428, 297.1424
188.4249, 295.5760
188.9070, 294.0373
189.3891, 293.3874
189.8712, 293.7162
190.3533, 293.6580
190.8355, 291.9555
191.3176, 288.8425
191.7997, 286.4017
192.2818, 285.6397
192.7639, 285.2896
193.2460, 284.1918
193.7282, 282.2622
194.2103, 280.2852
194.6924, 279.0387
195.1745, 278.5913
195.6566, 278.1130
196.1387, 277.7280
196.6209, 277.0579
197.1030, 275.6719
197.5851, 273.5438
198.0672, 271.3128
198.5493, 269.8734
199.0314, 269.5636
199.5136, 268.9657
199.9957, 267.6472
200.4778, 266.2063
200.9599, 265.1294
201.4420, 264.4910
201.9241, 263.8639
202.4063, 262.4496
202.8884, 259.4011
203.3705, 257.2375
203.8526, 256.2375
204.3347, 255.8654
204.8168, 255.9708
205.2990, 256.4265
205.7811, 256.8297
206.2632, 256.3994
206.7453, 254.2944
207.2274, 252.4971
207.7095, 251.0161
208.1917, 249.8039
208.6738, 248.7969
209.1559, 247.9754
209.6380, 247.4138
210.1201, 247.2867
210.6022, 248.1298
211.0844, 248.6214
211.5665, 248.4572
212.0486, 248.0019
212.5307, 247.6521
213.0128, 247.5441
213.4949, 247.6263
213.9771, 247.8724
214.4592, 248.6252
214.9413, 248.8074
215.4234, 247.6116
215.9055, 245.8547
216.3876, 244.8655
216.8698, 245.1900
217.3519, 246.2053
217.8340, 246.7947
218.3161, 246.9784
218.7982, 246.9187
219.2803, 246.5963
219.7625, 246.0688
220.2446, 245.3822
220.7267, 244.4043
221.2088, 243.5435
221.6909, 243.4602
222.1730, 244.2087
222.6552, 245.0218
223.1373, 245.6463
223.6194, 246.0570
224.1015, 246.1087
224.5836, 245.5296
225.0657, 244.8739
225.5479, 244.7800
226.0300, 245.2559
226.5121, 245.8362
226.9942, 246.3169
227.4763, 246.6831
227.9584, 246.8203
228.4406, 246.4993
228.9227, 246.1501
229.4048, 246.1948
229.8869, 246.6121
230.3690, 246.9709
230.8511, 246.8559
231.3333, 246.2819
231.8154, 245.8639
232.2975, 245.8194
232.7796, 245.8321
233.2617, 245.7229
233.7438, 245.4907
234.2260, 245.2170
234.7081, 244.8266
235.1902, 244.2753
235.6723, 244.2844
236.1544, 245.6999
236.6365, 247.0354
237.1187, 247.6339
237.6008, 247.5114
238.0829, 247.0153
238.5650, 246.3652
239.0471, 245.5092
239.5292, 244.8800
240.0114, 244.9017
240.4935, 244.7948
240.9756, 244.1987
241.4577, 243.1692
241.9398, 241.9880
242.4219, 240.8043
242.9041, 239.5302
243.3862, 238.9805
243.8683, 240.0397
244.3504, 241.0184
244.8325, 241.2503
245.3146, 240.8192
245.7968, 240.1822
246.2789, 239.7626
246.7610, 239.6100
247.2431, 239.2093
247.7252, 238.2644
248.2073, 237.3731
248.6895, 236.8134
249.1716, 236.5128
249.6537, 236.2340
250.1358, 235.7729
250.6179, 235.1127
251.1000, 234.5058
251.5822, 233.9793
252.0643, 233.4635
252.5464, 232.8352
253.0285, 232.1797
253.5106, 231.7330
253.9927, 231.6992
254.4748, 232.0741
254.9570, 232.2388
255.4391, 232.0880
255.9212, 231.8780
256.4033, 231.6746
256.8854, 231.4837
257.3676, 231.2655
257.8497, 230.9599
258.3318, 230.6045
258.8139, 230.6888
259.2960, 231.7213
259.7781, 232.5498
260.2603, 232.6367
260.7424, 232.2144
261.2245, 231.7851
261.7066, 231.5744
262.1887, 231.6437
262.6708, 232.3833
263.1530, 234.9073
263.6351, 236.7217
264.1172, 236.6580
264.5993, 235.3156
265.0814, 233.8561
265.5635, 232.7029
266.0457, 232.0147
266.5278, 232.4521
267.0099, 234.7404
267.4920, 236.7369
267.9741, 237.4849
268.4562, 237.4844
268.9384, 237.7556
269.4204, 238.7333
269.9026, 240.1219
270.3847, 241.3688
270.8668, 242.6412
271.3489, 243.4322
271.8310, 243.1185
272.3131, 242.2581
272.7953, 241.8761
273.2774, 242.2736
273.7595, 243.2918
274.2416, 244.9993
274.7237, 247.5466
275.2058, 249.5286
275.6880, 250.1377
276.1701, 249.9915
276.6522, 250.1261
277.1343, 250.7757
277.6164, 251.7423
278.0985, 252.7967
278.5807, 253.9167
279.0628, 255.3296
279.5449, 257.4874
280.0270, 259.8581
280.5091, 261.6099
280.9912, 262.5619
281.4734, 263.1326
281.9555, 263.5080
282.4376, 263.7668
282.9197, 264.3047
283.4018, 265.3694
283.8839, 266.7043
284.3661, 268.0319
284.8482, 269.3542
285.3303, 270.5252
285.8124, 271.2427
286.2945, 271.7088
286.7766, 272.4312
287.2588, 273.7534
287.7409, 275.2460
288.2230, 276.3389
288.7051, 276.9827
289.1872, 277.7343
289.6693, 279.1846
290.1515, 280.8863
290.6336, 281.9881
291.1157, 282.1307
291.5978, 281.9345
292.0799, 281.8013
292.5620, 281.7261
293.0442, 282.2193
293.5263, 284.0333
294.0084, 286.2575
294.4905, 287.6509
294.9726, 288.0244
295.4547, 287.8297
295.9369, 287.2184
296.4190, 286.2310
296.9011, 285.4022
297.3832, 284.8270
297.8653, 284.5889
298.3474, 284.8552
298.8296, 285.6960
299.3117, 286.3912
299.7938, 286.3777
300.2759, 285.7648
300.7580, 285.1173
301.2401, 284.5044
301.7223, 283.9449
302.2044, 283.4782
302.6865, 283.0903
303.1686, 282.6746
303.6507, 282.1277
304.1328, 281.5010
304.6150, 280.9130
305.0971, 280.2584
305.5792, 279.8920
306.0613, 280.5044
306.5434, 281.6650
307.0255, 282.1528
307.5077, 280.7675
307.9898, 278.4960
308.4719, 277.4760
308.9540, 278.0642
309.4361, 278.8638
309.9182, 278.9649
310.4004, 278.7122
310.8825, 278.5911
311.3646, 278.6759
311.8467, 279.0287
312.3288, 279.9301
312.8109, 281.5200
313.2931, 282.7474
313.7752, 282.8929
314.2573, 282.4838
314.7394, 281.9996
315.2215, 281.4017
315.7036, 281.0701
316.1858, 281.5584
316.6679, 282.8578
317.1500, 283.9738
317.6321, 284.3801
318.1142, 284.6464
318.5963, 285.4306
319.0785, 286.8096
319.5606, 288.1344
320.0427, 288.9937
320.5248, 289.4158
321.0069, 289.4352
321.4890, 288.5959
321.9712, 288.0172
322.4533, 288.8720
322.9354, 290.9490
323.4175, 292.8880
323.8996, 293.7956
324.3817, 294.0575
324.8639, 294.7798
325.3460, 296.2711
325.8281, 297.6748
326.3102, 298.1624
326.7923, 298.0824
327.2744, 298.1629
327.7566, 298.4333
328.2387, 299.1125
328.7208, 300.7705
329.2029, 303.6011
329.6850, 306.2833
330.1671, 308.2370
330.6493, 309.5193
331.1314, 310.1230
331.6135, 309.8167
332.0956, 309.1945
332.5777, 308.6270
333.0598, 308.1286
333.5420, 308.1661
334.0241, 309.3184
334.5062, 310.7909
334.9883, 311.5007
335.4704, 311.3157
335.9525, 310.9442
336.4347, 310.9373
336.9168, 311.1382
337.3989, 310.8589
337.8810, 309.7095
338.3631, 308.4459
338.8452, 307.9234
339.3274, 308.0713
339.8094, 308.2454
340.2916, 308.2783
340.7737, 308.1556
341.2558, 307.8298
341.7379, 307.2764
342.2200, 306.6094
342.7021, 305.9381
343.1843, 305.2291
343.6664, 304.3587
344.1485, 302.8669
344.6306, 301.4823
345.1127, 301.2149
345.5948, 302.0335
346.0770, 302.4829
346.5591, 301.4928
347.0412, 299.6508
347.5233, 298.6765
348.0054, 299.2104
348.4875, 299.5941
348.9697, 298.6835
349.4518, 296.7892
349.9339, 294.8512
350.4160, 293.0253
350.8981, 291.6092
351.3802, 291.4115
351.8624, 292.7525
352.3445, 293.3688
352.8266, 291.8646
353.3087, 289.4111
353.7908, 287.9499
354.2729, 287.9465
354.7551, 288.1710
355.2372, 287.1761
355.7193, 284.9215
356.2014, 283.1631
356.6835, 282.2635
357.1656, 281.7780
357.6478, 281.4908
358.1299, 281.3393
358.6120, 281.0428
359.0941, 280.3733
359.5762, 279.3848
360.0583, 278.4835
360.5405, 277.6671
361.0226, 276.9213
361.5047, 276.4439
361.9868, 276.0255
362.4689, 275.1252
362.9510, 273.4546
363.4332, 271.3632
363.9153, 269.7115
364.3974, 268.5427
364.8795, 267.6625
365.3616, 267.3424
365.8438, 267.1565
366.3259, 266.6717
366.8080, 265.7844
367.2901, 264.5956
367.7722, 263.1511
368.2543, 261.2817
368.7365, 259.9864
369.2186, 259.5682
369.7007, 259.4189
370.1828, 259.4329
370.6649, 259.4445
371.1470, 259.0450
371.6292, 257.8857
372.1113, 256.0451
372.5934, 254.4762
373.0755, 253.7589
373.5576, 252.6342
374.0397, 250.3612
374.5219, 247.6544
375.0040, 245.5741
375.4861, 244.5633
375.9682, 244.2044
376.4503, 243.5843
376.9324, 242.5239
377.4146, 241.4606
377.8967, 240.1812
378.3788, 239.0499
378.8609, 238.4856
379.3430, 238.4495
379.8251, 238.4059
380.3073, 237.7131
380.7894, 236.2230
381.2715, 235.1334
381.7536, 234.8393
382.2357, 234.5440
382.7178, 233.8751
383.2000, 233.0120
383.6821, 232.3524
384.1642, 232.1662
384.6463, 232.3202
385.1284, 232.2552
385.6105, 231.6358
386.0927, 231.3737
386.5748, 231.9907
387.0569, 232.8018
387.5390, 233.0994
388.0211, 232.6895
388.5032, 232.0405
388.9854, 231.8236
389.4675, 232.1428
389.9496, 232.3217
390.4317, 232.0256
390.9138, 231.7973
391.3959, 231.8845
391.8781, 232.2847
392.3602, 232.9090
392.8423, 233.9128
393.3244, 235.1253
393.8065, 235.6010
394.2886, 234.8905
394.7708, 234.3279
395.2529, 234.8653
395.7350, 235.8367
396.2171, 236.2962
396.6992, 235.8418
397.1813, 234.9889
397.6635, 234.2600
398.1456, 233.6476
398.6277, 233.3587
399.1098, 233.6404
399.5919, 234.1383
400.0740, 234.5169
400.5562, 234.7710
401.0383, 234.8348
401.5204, 234.7410
402.0025, 234.4253
402.4846, 233.5843
402.9667, 232.0043
403.4489, 230.5003
403.9310, 229.9622
404.4131, 230.1359
404.8952, 230.1526
405.3773, 229.8688
405.8594, 229.3597
406.3416, 228.5546
406.8237, 227.5140
407.3058, 226.6614
407.7879, 226.2568
408.2700, 226.1415
408.7521, 225.8950
409.2343, 225.4510
409.7164, 225.0478
410.1985, 224.7303
410.6806, 224.5089
411.1627, 224.4069
411.6448, 224.4292
412.1269, 224.5523
412.6090, 224.7572
413.0912, 225.0600
413.5733, 225.3740
414.0554, 225.8846
414.5375, 226.2407
415.0196, 226.2703
415.5017, 225.9694
415.9839, 225.2722
416.4660, 224.0466
416.9481, 222.5468
417.4302, 222.0027
417.9123, 223.8283
418.3944, 224.8862
418.8766, 224.2193
419.3587, 223.0087
419.8408, 222.5488
420.3229, 223.1418
420.8050, 224.0387
421.2871, 224.1755
421.7693, 223.2121
422.2514, 222.7577
422.7335, 223.2015
423.2156, 223.7455
423.6977, 224.1266
424.1798, 224.3435
424.6620, 224.5065
425.1441, 224.7251
425.6262, 224.8924
426.1083, 224.5047
426.5904, 223.0179
427.0725, 222.0344
427.5547, 222.0716
428.0368, 222.6186
428.5189, 223.4372
429.0010, 224.4386
429.4831, 225.1419
429.9652, 224.7676
430.4474, 223.3138
430.9295, 222.4714
431.4116, 222.9650
431.8937, 223.3636
432.3758, 222.6742
432.8579, 221.1846
433.3401, 219.6944
433.8222, 218.3714
434.3043, 217.3609
434.7864, 217.0679
435.2685, 217.5681
435.7506, 217.9058
436.2328, 217.6322
436.7149, 216.9377
437.1970, 216.1845
437.6791, 215.3981
438.1612, 214.4828
438.6433, 213.2114
439.1255, 211.8002
439.6076, 210.7653
440.0897, 210.2548
440.5718, 209.8475
441.0539, 209.0805
441.5360, 207.9570
442.0182, 207.0516
442.5003, 206.5639
442.9824, 206.1496
443.4645, 205.5677
443.9466, 204.8714
444.4287, 204.2934
444.9109, 203.9773
445.3930, 203.7735
445.8751, 203.2556
446.3572, 202.0471
446.8393, 201.0998
447.3214, 200.7622
447.8036, 200.5084
448.2857, 199.7447
448.7678, 198.4781
449.2499, 197.2861
449.7320, 196.7746
450.2141, 196.9823
450.6963, 197.0723
451.1784, 196.8842
451.6605, 196.7518
452.1426, 196.9890
452.6247, 197.2571
453.1068, 197.0087
453.5890, 196.0086
454.0711, 194.6905
454.5532, 193.7997
455.0353, 193.3300
455.5174, 193.3001
455.9995, 194.2442
456.4817, 195.2145
456.9638, 195.8438
457.4459, 196.0777
457.9280, 195.8886
458.4101, 195.0234
458.8922, 193.7627
459.3744, 193.0373
459.8565, 192.9894
460.3386, 193.0167
460.8207, 192.8408
461.3028, 192.5816
461.7849, 192.3770
462.2671, 192.2540
462.7492, 192.1588
463.2313, 192.1605
463.7134, 192.1687
464.1955, 191.7927
464.6776, 190.8197
465.1598, 189.9054
465.6419, 189.8957
466.1240, 190.6805
466.6061, 191.0574
467.0882, 190.6767
467.5703, 190.0273
468.0525, 189.3869
468.5346, 188.7621
469.0167, 188.0525
469.4988, 187.1542
469.9809, 186.3068
470.4630, 186.1008
470.9452, 187.1248
471.4273, 187.7478
471.9094, 187.7314
472.3915, 187.4176
472.8736, 187.0141
473.3557, 186.5743
473.8379, 186.1075
474.3200, 185.6113
474.8021, 185.0919
475.2842, 184.6873
475.7663, 184.7849
476.2484, 184.5034
476.7306, 183.2852
477.2127, 181.8315
477.6948, 180.9394
478.1769, 180.8297
478.6590, 181.0166
479.1411, 180.8718
479.6233, 180.3521
480.1054, 180.0114
480.5875, 180.2300
481.0696, 180.1886
481.5517, 179.0913
482.0338, 177.4845
482.5159, 176.6061
482.9980, 177.4006
483.4802, 178.5804
483.9623, 177.9297
484.4444, 175.4413
484.9265, 174.0328
485.4086, 175.3772
485.8907, 177.4233
486.3729, 177.2258
486.8550, 174.6935
487.3371, 172.8473
487.8192, 173.3274
488.3013, 174.6925
488.7834, 175.1789
489.2656, 174.7086
489.7477, 174.2336
490.2298, 174.4199
490.7119, 175.0696
491.1940, 175.1882
491.6761, 174.5290
492.1583, 173.7769
492.6404, 173.0008
493.1225, 172.2202
493.6046, 171.4092
494.0867, 170.5876
494.5688, 169.8838
495.0510, 169.4414
495.5331, 169.2697
496.0152, 169.2341
496.4973, 169.6755
496.9794, 169.8739
497.4615, 169.4959
497.9437, 168.8294
498.4258, 168.2693
498.9079, 167.9649
499.3900, 167.7436
499.8721, 167.2687
500.3542, 166.4629
500.8364, 166.0493
501.3185, 166.5298
501.8006, 166.9415
502.2827, 166.6542
502.7648, 165.8722
503.2469, 165.1464
503.7291, 164.7499
504.2112, 164.5016
504.6933, 164.0896
505.1754, 163.5275
505.6575, 163.2745
506.1396, 163.7215
506.6218, 164.2829
507.1039, 163.9710
507.5860, 162.7170
508.0681, 161.7200
508.5502, 161.5967
509.0323, 161.6815
509.5145, 161.1492
509.9966, 160.0799
510.4787, 159.3425
510.9608, 159.5789
511.4429, 160.4437
511.9250, 160.5297
512.4072, 158.7825
512.8893, 157.6591
513.3714, 157.7354
513.8535, 158.2133
514.3356, 158.5587
514.8177, 158.6147
515.2999, 158.2996
515.7820, 157.4595
516.2641, 156.1568
516.7462, 155.1817
517.2283, 154.5325
517.7104, 154.2652
518.1926, 154.5539
518.6747, 155.0903
519.1568, 155.7256
519.6389, 156.4021
520.1210, 156.6875
520.6031, 155.7942
521.0853, 153.9851
521.5674, 153.0728
522.0495, 153.4794
522.5316, 154.1157
523.0137, 154.4356
523.4958, 154.4373
523.9780, 154.0046
524.4601, 152.7469
524.9422, 151.6454
525.4243, 151.4407
525.9064, 151.8662
526.3885, 152.3736
526.8707, 152.8398
527.3528, 153.1836
527.8349, 153.3313
528.3170, 153.2784
528.7991, 152.9248
529.2813, 151.8165
529.7634, 150.9172
530.2455, 150.7500
530.7276, 151.0336
531.2097, 151.3212
531.6918, 151.4313
532.1740, 151.3871
532.6561, 151.2138
533.1382, 150.8891
533.6203, 150.5156
534.1024, 149.8543
534.5845, 149.3821
535.0667, 149.3726
535.5488, 149.6714
536.0309, 149.9926
536.5130, 150.2341
536.9951, 150.3596
537.4772, 150.2628
537.9594, 149.9370
538.4415, 149.7026
538.9236, 149.7358
539.4057, 149.7332
539.8878, 149.2455
540.3699, 148.3984
540.8521, 147.9243
541.3342, 148.3901
541.8163, 149.0183
542.2984, 149.2201
542.7805, 149.0134
543.2626, 148.4063
543.7448, 147.3128
544.2269, 146.1883
544.7090, 145.8786
545.1911, 146.9300
545.6732, 147.3473
546.1553, 146.4317
546.6375, 145.5425
547.1196, 145.7427
547.6017, 146.5848
548.0838, 146.8352
548.5659, 145.7901
549.0480, 144.1217
549.5302, 143.4159
550.0123, 144.0587
550.4944, 144.5183
550.9765, 144.5392
551.4586, 144.4155
551.9407, 144.2768
552.4229, 144.1124
552.9050, 143.8463
553.3871, 143.3630
553.8692, 142.8423
554.3513, 142.5454
554.8334, 142.4711
555.3156, 142.6372
555.7977, 143.3020
556.2798, 143.8647
556.7619, 143.2404
557.2440, 141.4458
557.7261, 140.1765
558.2083, 140.1844
558.6904, 140.4698
559.1725, 140.2304
559.6546, 139.5983
560.1367, 139.0898
560.6188, 138.9541
561.1010, 139.0536
561.5831, 139.1579
562.0652, 139.5721
562.5473, 139.2612
563.0294, 137.3604
563.5115, 135.6785
563.9937, 135.2398
564.4758, 135.7267
564.9579, 136.3578
565.4400, 136.7663
565.9221, 136.9421
566.4042, 136.7838
566.8864, 136.2332
567.3685, 135.8495
567.8506, 135.9321
568.3327, 135.9628
568.8148, 135.4568
569.2969, 134.5528
569.7791, 133.7688
570.2612, 133.3730
570.7433, 133.0797
571.2254, 132.5624
571.7075, 131.9179
572.1896, 131.5390
572.6718, 131.5867
573.1539, 131.7750
573.6360, 131.7436
574.1181, 131.4663
574.6002, 131.0395
575.0823, 130.0917
575.5645, 129.3974
576.0466, 129.5477
576.5287, 130.1075
577.0108, 130.3329
577.4929, 129.9424
577.9750, 129.2762
578.4572, 128.7829
578.9393, 128.4510
579.4214, 128.4137
579.9035, 129.0464
580.3856, 129.4895
580.8677, 129.2230
581.3499, 128.5775
581.8320, 128.0787
582.3141, 127.8983
582.7962, 127.8336
583.2783, 127.8400
583.7604, 127.8251
584.2426, 127.4309
584.7247, 126.5536
585.2068, 125.5646
