##NAMES=Santaclaraite
##RRUFFID=R060346
##IDEAL CHEMISTRY=CaMn^2+^_4_Si_5_O_14_(OH)_2_&#183;H_2_O
##LOCALITY=Pennsylvania mine, Santa Clara County, California, USA
##OWNER=RRUFF
##SOURCE=Michael Scott
##DESCRIPTION=Pink radiating thin prismatic crystals
##STATUS=The identification of this mineral is confirmed by single-crystal X-ray diffraction and chemical analysis.
##URL=rruff.info/R060346
##MEASURED CHEMISTRY=(Ca_0.92_Mn^+2^_0.04_Na_0.04_)_Σ=1_(Mn^2+^_3.92_Mn^3+^_0.04_Mg_0.04_)_Σ=4_Si_5.00_O_14_(OH)_2_·1.21H_2_O; OH by stoichiometry; Mn^3+^ by charge balance; H_2_O by difference
91.53320, 268.9189
92.01532, 272.3322
92.49744, 272.8801
92.97955, 273.1006
93.46167, 271.1518
93.94379, 267.4890
94.42590, 263.7429
94.90802, 260.4773
95.39014, 257.8072
95.87225, 255.9147
96.35437, 253.8963
96.83649, 250.9263
97.31860, 248.0033
97.80072, 246.2117
98.28284, 245.8308
98.76495, 246.4451
99.24707, 247.5038
99.72919, 249.5339
100.2113, 251.5731
100.6934, 253.9698
101.1755, 256.2158
101.6577, 257.3547
102.1398, 256.4525
102.6219, 253.1136
103.1040, 249.7953
103.5861, 246.7900
104.0682, 243.5286
104.5504, 239.5661
105.0325, 234.8922
105.5146, 229.8958
105.9967, 225.1272
106.4788, 220.7251
106.9609, 216.0931
107.4431, 210.3661
107.9252, 204.5618
108.4073, 199.9682
108.8894, 196.9079
109.3715, 195.4768
109.8536, 196.1475
110.3358, 199.3242
110.8179, 202.3293
111.3000, 203.5099
111.7821, 203.0467
112.2642, 202.7008
112.7463, 203.3142
113.2285, 204.2545
113.7106, 204.8849
114.1927, 205.0553
114.6748, 205.0181
115.1569, 205.1711
115.6390, 205.7028
116.1212, 205.9171
116.6033, 205.4666
117.0854, 204.7010
117.5675, 203.9152
118.0496, 203.2289
118.5317, 202.6608
119.0139, 202.2914
119.4960, 201.4459
119.9781, 201.6324
120.4602, 203.4975
120.9423, 206.5734
121.4244, 210.1626
121.9066, 213.8507
122.3887, 217.7390
122.8708, 220.1897
123.3529, 220.9479
123.8350, 220.9161
124.3171, 220.2741
124.7993, 219.1331
125.2814, 217.7574
125.7635, 216.3703
126.2456, 214.9596
126.7277, 213.6397
127.2098, 212.0957
127.6920, 210.7845
128.1741, 210.3028
128.6562, 210.8614
129.1383, 211.8075
129.6204, 212.0322
130.1025, 211.5992
130.5847, 212.0704
131.0668, 214.9155
131.5489, 219.3500
132.0310, 222.5204
132.5131, 223.0977
132.9952, 223.0174
133.4774, 224.0957
133.9595, 226.3584
134.4416, 228.7501
134.9237, 230.1277
135.4058, 230.2639
135.8879, 231.0363
136.3701, 233.3545
136.8522, 236.0728
137.3343, 238.6218
137.8164, 240.8658
138.2985, 242.9166
138.7806, 245.0400
139.2628, 247.5583
139.7449, 249.5044
140.2270, 250.9239
140.7091, 251.7932
141.1912, 251.8620
141.6733, 251.0213
142.1555, 249.6920
142.6376, 249.3407
143.1197, 251.0755
143.6018, 252.6199
144.0839, 253.8385
144.5660, 254.7014
145.0482, 255.1844
145.5303, 255.2583
146.0124, 254.9447
146.4945, 254.4114
146.9766, 253.3995
147.4587, 252.4715
147.9409, 252.4176
148.4230, 252.8966
148.9051, 252.3642
149.3872, 249.5556
149.8693, 244.6316
150.3514, 239.7261
150.8336, 234.6258
151.3157, 229.7077
151.7978, 225.1205
152.2799, 220.7800
152.7620, 217.2367
153.2441, 215.2473
153.7263, 214.3320
154.2084, 213.8618
154.6905, 213.9097
155.1726, 214.2368
155.6547, 214.2855
156.1368, 213.8977
156.6190, 213.5094
157.1011, 213.6452
157.5832, 213.9659
158.0653, 213.7606
158.5474, 212.1626
159.0295, 209.3527
159.5117, 207.8137
159.9938, 209.2977
160.4759, 210.3669
160.9580, 209.6233
161.4401, 207.3897
161.9222, 204.7047
162.4044, 202.4619
162.8865, 200.7145
163.3686, 199.0409
163.8507, 197.0841
164.3328, 195.4762
164.8149, 194.5095
165.2971, 194.1901
165.7792, 194.3608
166.2613, 194.8148
166.7434, 195.4374
167.2255, 196.8442
167.7076, 199.6840
168.1898, 202.7551
168.6719, 205.1747
169.1540, 206.7881
169.6361, 208.0969
170.1182, 209.9499
170.6003, 213.1885
171.0825, 214.5761
171.5646, 213.0336
172.0467, 209.9227
172.5288, 206.6921
173.0109, 203.7354
173.4930, 200.8094
173.9752, 197.3360
174.4573, 193.1789
174.9394, 189.4277
175.4215, 186.2074
175.9036, 183.6051
176.3857, 181.9567
176.8679, 181.6181
177.3500, 181.8776
177.8321, 181.7469
178.3142, 181.1981
178.7963, 180.6422
179.2784, 180.4998
179.7606, 180.6756
180.2427, 180.3794
180.7248, 179.1318
181.2069, 177.5334
181.6890, 176.1784
182.1711, 175.1154
182.6533, 173.9891
183.1354, 172.2874
183.6175, 169.8815
184.0996, 167.9265
184.5817, 167.4426
185.0638, 167.0335
185.5460, 165.5978
186.0281, 162.9435
186.5102, 160.2266
186.9923, 159.3532
187.4744, 161.4370
187.9565, 162.3764
188.4387, 160.4911
188.9208, 158.1369
189.4029, 157.3470
189.8850, 158.6535
190.3671, 160.5942
190.8492, 160.2316
191.3314, 155.3920
191.8135, 151.7085
192.2956, 150.3501
192.7777, 149.7525
193.2598, 148.3157
193.7419, 145.4507
194.2241, 142.0487
194.7062, 140.2662
195.1883, 143.0913
195.6704, 144.0976
196.1525, 141.4852
196.6346, 137.5206
197.1168, 134.9382
197.5989, 134.9554
198.0810, 136.6747
198.5631, 137.5133
199.0452, 136.0739
199.5273, 135.6381
200.0095, 138.0602
200.4916, 141.6443
200.9737, 143.3767
201.4558, 141.6402
201.9379, 137.7966
202.4200, 135.7602
202.9022, 135.9474
203.3843, 136.6879
203.8664, 137.6869
204.3485, 138.8348
204.8306, 139.8711
205.3127, 140.7847
205.7949, 141.3782
206.2770, 141.1725
206.7591, 139.6299
207.2412, 138.4885
207.7233, 139.0907
208.2054, 141.1608
208.6876, 142.9820
209.1697, 143.8156
209.6518, 144.0445
210.1339, 144.2451
210.6160, 144.3566
211.0981, 144.6677
211.5803, 145.7696
212.0624, 147.6664
212.5445, 148.7289
213.0266, 147.4527
213.5087, 145.6247
213.9908, 145.0424
214.4730, 146.1248
214.9551, 147.5865
215.4372, 147.9669
215.9193, 147.0940
216.4014, 146.2229
216.8836, 145.1234
217.3657, 144.5019
217.8478, 145.0280
218.3299, 146.8738
218.8120, 149.3811
219.2941, 151.7696
219.7763, 154.1223
220.2584, 156.0493
220.7405, 157.5765
221.2226, 158.6402
221.7047, 158.9869
222.1868, 158.5825
222.6690, 157.9285
223.1511, 158.0043
223.6332, 159.6743
224.1153, 160.0168
224.5974, 158.1402
225.0795, 155.4716
225.5617, 152.8291
226.0438, 150.5037
226.5259, 148.5344
227.0080, 147.0455
227.4901, 146.4565
227.9722, 145.6055
228.4544, 144.1717
228.9365, 142.6716
229.4186, 141.4709
229.9007, 140.6870
230.3828, 140.2552
230.8649, 140.1038
231.3471, 140.6211
231.8292, 140.7813
232.3113, 140.2302
232.7934, 139.5590
233.2755, 139.2094
233.7576, 139.3153
234.2398, 139.7838
234.7219, 140.4867
235.2040, 141.7659
235.6861, 142.6436
236.1682, 142.6375
236.6503, 142.4971
237.1325, 142.7165
237.6146, 143.4566
238.0967, 144.9588
238.5788, 147.8300
239.0609, 153.5380
239.5430, 156.9635
240.0252, 156.3124
240.5073, 154.0829
240.9894, 152.5219
241.4715, 152.1645
241.9536, 152.6892
242.4357, 153.8837
242.9179, 156.0166
243.4000, 157.5735
243.8821, 157.9559
244.3642, 157.9003
244.8463, 158.1285
245.3284, 158.7798
245.8106, 159.7920
246.2927, 161.2889
246.7748, 163.3103
247.2569, 164.8702
247.7390, 165.1038
248.2211, 165.1152
248.7033, 166.4013
249.1854, 169.2958
249.6675, 172.6065
250.1496, 175.1180
250.6317, 176.9752
251.1138, 179.0006
251.5960, 181.2841
252.0781, 183.8636
252.5602, 187.1256
253.0423, 191.2846
253.5244, 194.9887
254.0065, 196.4239
254.4887, 196.3421
254.9708, 196.7738
255.4529, 198.6749
255.9350, 201.1865
256.4171, 203.3382
256.8992, 205.2263
257.3813, 206.1815
257.8635, 204.6427
258.3456, 201.8984
258.8277, 200.1598
259.3098, 200.9936
259.7919, 202.6194
260.2740, 202.3101
260.7562, 199.6768
261.2383, 196.7867
261.7204, 194.5064
262.2025, 192.7435
262.6846, 191.4958
263.1667, 190.9040
263.6489, 190.6560
264.1310, 190.2445
264.6131, 189.5599
265.0952, 189.1903
265.5773, 189.8018
266.0594, 190.7085
266.5416, 191.2924
267.0237, 191.3849
267.5058, 191.1197
267.9879, 190.5458
268.4700, 189.5446
268.9521, 188.8014
269.4343, 189.0917
269.9164, 189.4538
270.3985, 188.9714
270.8806, 187.3569
271.3627, 185.5680
271.8448, 184.7689
272.3270, 185.0649
272.8091, 185.7851
273.2912, 187.2431
273.7733, 188.7954
274.2554, 190.0497
274.7375, 190.9461
275.2197, 191.6759
275.7018, 192.6648
276.1839, 194.0934
276.6660, 194.5730
277.1481, 192.9249
277.6302, 190.9404
278.1124, 189.4345
278.5945, 188.4777
279.0766, 187.7438
279.5587, 187.1284
280.0408, 186.7358
280.5229, 185.5185
281.0051, 182.6631
281.4872, 179.5798
281.9693, 176.9260
282.4514, 174.6035
282.9335, 172.0843
283.4156, 168.8881
283.8978, 165.0010
284.3799, 161.0786
284.8620, 156.7320
285.3441, 152.7720
285.8262, 149.0989
286.3083, 146.0123
286.7905, 144.1900
287.2726, 144.4828
287.7547, 146.5599
288.2368, 147.1759
288.7189, 144.9734
289.2010, 142.8207
289.6832, 141.6083
290.1653, 140.9358
290.6474, 140.0256
291.1295, 138.3232
291.6116, 136.2497
292.0938, 135.6859
292.5759, 138.5065
293.0580, 140.1364
293.5401, 138.2408
294.0222, 135.3380
294.5043, 134.7210
294.9865, 137.9528
295.4686, 142.9295
295.9507, 144.1540
296.4328, 137.9916
296.9149, 134.5983
297.3970, 137.3853
297.8792, 141.8250
298.3613, 143.7609
298.8434, 142.0102
299.3255, 138.7524
299.8076, 137.7205
300.2897, 140.2380
300.7719, 142.0294
301.2540, 141.9778
301.7361, 141.9089
302.2182, 143.2832
302.7003, 146.1675
303.1824, 149.2904
303.6646, 151.1088
304.1467, 151.2851
304.6288, 151.3154
305.1109, 150.7029
305.5930, 150.3801
306.0751, 150.9636
306.5573, 152.3102
307.0394, 153.7866
307.5215, 154.8114
308.0036, 155.3529
308.4857, 155.9870
308.9678, 156.5513
309.4500, 157.3805
309.9321, 158.4473
310.4142, 159.8686
310.8963, 161.9962
311.3784, 165.2633
311.8605, 169.3619
312.3427, 171.7939
312.8248, 171.0115
313.3069, 170.2559
313.7890, 169.8781
314.2711, 169.9431
314.7532, 170.7160
315.2354, 172.3828
315.7175, 174.3232
316.1996, 174.5905
316.6817, 171.3931
317.1638, 169.3564
317.6459, 169.5649
318.1281, 170.7042
318.6102, 171.8788
319.0923, 172.7311
319.5744, 173.0022
320.0565, 171.9939
320.5386, 168.4934
321.0208, 166.5785
321.5029, 167.7114
321.9850, 169.2400
322.4671, 169.3348
322.9492, 167.9091
323.4313, 166.2980
323.9135, 166.1430
324.3956, 167.9454
324.8777, 168.6349
325.3598, 166.4297
325.8419, 164.7602
326.3240, 165.3684
326.8062, 167.7263
327.2883, 170.1511
327.7704, 171.3817
328.2525, 171.4669
328.7346, 171.3387
329.2167, 170.8904
329.6989, 170.3242
330.1810, 169.6624
330.6631, 168.9245
331.1452, 168.0899
331.6273, 167.1187
332.1094, 166.1383
332.5916, 165.6057
333.0737, 166.0049
333.5558, 166.0131
334.0379, 165.4762
334.5200, 164.4775
335.0021, 162.7595
335.4843, 160.2851
335.9664, 157.9877
336.4485, 157.6434
336.9306, 160.1812
337.4127, 161.8925
337.8948, 161.8981
338.3770, 161.4176
338.8591, 160.8948
339.3412, 160.4999
339.8233, 160.4753
340.3055, 161.3904
340.7876, 163.4438
341.2697, 164.3606
341.7518, 162.7348
342.2339, 161.2978
342.7160, 161.5629
343.1982, 162.8965
343.6803, 163.7010
344.1624, 162.9017
344.6445, 160.7047
345.1266, 157.9939
345.6087, 154.0359
346.0909, 150.8088
346.5730, 149.0753
347.0551, 148.2683
347.5372, 147.9155
348.0193, 148.0005
348.5014, 147.8229
348.9836, 145.7995
349.4657, 141.2332
349.9478, 137.1958
350.4299, 133.8067
350.9120, 131.6666
351.3941, 131.9260
351.8763, 134.7172
352.3584, 137.8132
352.8405, 138.7927
353.3226, 137.5986
353.8047, 136.4676
354.2868, 135.3968
354.7690, 134.7905
355.2511, 135.0318
355.7332, 135.9778
356.2153, 137.0228
356.6974, 137.9163
357.1795, 138.6170
357.6617, 138.9717
358.1438, 138.9938
358.6259, 138.6131
359.1080, 136.9158
359.5901, 134.9583
360.0722, 134.7198
360.5544, 137.9917
361.0365, 142.0224
361.5186, 142.1659
362.0007, 137.7502
362.4828, 134.8099
362.9649, 137.1611
363.4471, 141.5361
363.9292, 144.2615
364.4113, 144.7969
364.8934, 144.4688
365.3755, 144.1494
365.8576, 143.8046
366.3398, 143.0891
366.8219, 141.4115
367.3040, 140.1377
367.7861, 141.2916
368.2682, 144.5885
368.7503, 146.8572
369.2325, 145.7560
369.7146, 143.1464
370.1967, 142.3913
370.6788, 144.0013
371.1609, 146.0990
371.6430, 147.5609
372.1252, 148.3616
372.6073, 148.3991
373.0894, 146.6490
373.5715, 144.9300
374.0536, 145.0564
374.5357, 146.7043
375.0179, 147.8477
375.5000, 147.2424
375.9821, 145.7652
376.4642, 145.6435
376.9463, 147.6718
377.4284, 149.0534
377.9106, 148.4267
378.3927, 146.5514
378.8748, 144.6775
379.3569, 143.1291
379.8390, 141.6829
380.3211, 139.9841
380.8033, 137.9318
381.2854, 136.2843
381.7675, 135.4214
382.2496, 134.7585
382.7317, 134.1098
383.2138, 133.3313
383.6960, 131.7846
384.1781, 128.7463
384.6602, 124.4072
385.1423, 121.4513
385.6244, 120.5533
386.1065, 119.9881
386.5887, 119.2207
387.0708, 118.4059
387.5529, 117.9734
388.0350, 118.1392
388.5171, 118.4451
388.9992, 117.8577
389.4814, 115.2431
389.9635, 113.4732
390.4456, 113.0366
390.9277, 113.1043
391.4098, 113.1801
391.8919, 113.1032
392.3741, 112.7018
392.8562, 111.6159
393.3383, 109.5353
393.8204, 109.1989
394.3025, 113.6557
394.7846, 116.5879
395.2668, 114.3306
395.7489, 109.1253
396.2310, 105.3162
396.7131, 105.5054
397.1952, 108.6044
397.6773, 110.9072
398.1595, 112.5031
398.6416, 113.0334
399.1237, 111.1557
399.6058, 109.1180
400.0879, 109.1150
400.5700, 111.5352
401.0522, 114.6825
401.5343, 116.4425
402.0164, 116.5125
402.4985, 116.9492
402.9806, 118.4142
403.4627, 119.6888
403.9449, 120.0144
404.4270, 119.7019
404.9091, 119.5751
405.3912, 120.0831
405.8733, 121.1771
406.3554, 122.8831
406.8376, 125.6875
407.3197, 127.9072
407.8018, 128.4855
408.2839, 128.3303
408.7660, 128.1858
409.2481, 128.1608
409.7303, 128.5162
410.2124, 129.6953
410.6945, 131.6388
411.1766, 133.4060
411.6587, 134.5993
412.1408, 135.8392
412.6230, 137.9616
413.1051, 140.8013
413.5872, 143.0803
414.0693, 144.1907
414.5514, 144.4407
415.0335, 144.0812
415.5157, 143.0559
415.9978, 142.1635
416.4799, 141.7126
416.9620, 141.8717
417.4441, 142.9586
417.9262, 145.5645
418.4084, 148.3329
418.8905, 150.6348
419.3726, 152.5057
419.8547, 153.9526
420.3368, 154.9173
420.8189, 155.6656
421.3011, 156.6379
421.7832, 157.9252
422.2653, 159.0361
422.7474, 160.1997
423.2295, 160.9766
423.7116, 160.9127
424.1938, 160.0278
424.6759, 158.7629
425.1580, 157.4898
425.6401, 156.1725
426.1222, 154.0573
426.6043, 150.9264
427.0865, 147.3898
427.5686, 142.7300
428.0507, 138.0110
428.5328, 134.9260
429.0149, 134.0829
429.4970, 134.2534
429.9792, 133.2859
430.4613, 130.7486
430.9434, 127.9183
431.4255, 124.3738
431.9076, 120.9477
432.3897, 117.8795
432.8719, 115.3150
433.3540, 113.5132
433.8361, 112.8069
434.3182, 113.0226
434.8003, 112.9268
435.2824, 112.6912
435.7646, 111.8164
436.2467, 109.3038
436.7288, 106.5901
437.2109, 105.4076
437.6930, 106.3113
438.1751, 107.9056
438.6573, 108.4004
439.1394, 107.7021
439.6215, 107.2182
440.1036, 107.4202
440.5857, 107.5493
441.0678, 107.0344
441.5500, 106.0116
442.0321, 105.0208
442.5142, 104.1467
442.9963, 103.5465
443.4784, 103.5875
443.9605, 104.3325
444.4427, 105.2813
444.9248, 106.6439
445.4069, 107.7960
445.8890, 107.5697
446.3711, 105.3811
446.8532, 103.3168
447.3354, 102.7705
447.8175, 103.1538
448.2996, 103.0794
448.7817, 102.1627
449.2638, 101.2790
449.7459, 101.5413
450.2281, 103.0396
450.7102, 103.8527
451.1923, 103.5143
451.6744, 102.8247
452.1565, 102.2006
452.6386, 101.6384
453.1208, 101.0353
453.6029, 100.3315
454.0850, 99.56299
454.5671, 98.82778
455.0492, 97.92083
455.5313, 97.34980
456.0135, 97.14216
456.4956, 97.25549
456.9777, 97.88465
457.4598, 98.90746
457.9419, 99.73080
458.4240, 99.72241
458.9062, 98.86539
459.3883, 98.40040
459.8704, 98.23559
460.3525, 98.62901
460.8346, 100.0481
461.3167, 101.9033
461.7989, 103.7278
462.2810, 105.3699
462.7631, 106.1862
463.2452, 104.7123
463.7273, 100.3794
464.2094, 97.14687
464.6916, 96.11965
465.1737, 95.79884
465.6558, 95.45956
466.1379, 95.08391
466.6200, 94.76194
467.1021, 94.36018
467.5843, 94.12584
468.0664, 94.83900
468.5485, 96.71065
469.0306, 97.98727
469.5127, 97.52739
469.9948, 96.19256
470.4770, 95.41873
470.9591, 95.42724
471.4412, 95.33911
471.9233, 94.02586
472.4054, 92.48503
472.8875, 92.99409
473.3697, 96.07540
473.8518, 99.31863
474.3339, 100.5822
474.8160, 99.80429
475.2981, 98.84645
475.7802, 96.49140
476.2624, 95.23219
476.7445, 97.26627
477.2266, 101.0187
477.7087, 103.2436
478.1908, 102.6428
478.6729, 100.9478
479.1551, 101.4558
479.6372, 106.2242
480.1193, 108.2810
480.6014, 105.3489
481.0835, 102.1331
481.5656, 101.1609
482.0478, 102.1956
482.5299, 103.8521
483.0120, 105.2456
483.4941, 106.5155
483.9762, 108.4324
484.4583, 112.4707
484.9405, 114.0366
485.4226, 109.8432
485.9047, 104.6701
486.3868, 102.3795
486.8689, 103.3726
487.3510, 105.1621
487.8332, 105.8924
488.3153, 105.6914
488.7974, 105.0449
489.2795, 103.6580
489.7616, 102.5981
490.2437, 102.8035
490.7259, 103.6965
491.2080, 104.4973
491.6901, 105.1967
492.1722, 105.5206
492.6543, 105.0732
493.1364, 104.0793
493.6186, 103.1589
494.1007, 102.4442
494.5828, 101.9064
495.0649, 101.4448
495.5470, 101.0441
496.0291, 101.2118
496.5113, 103.1912
496.9934, 104.6036
497.4755, 103.2839
497.9576, 100.2875
498.4397, 98.44112
498.9218, 99.17471
499.4040, 101.1613
499.8861, 101.3601
500.3682, 98.11107
500.8503, 96.11633
501.3324, 95.71603
501.8145, 96.11050
502.2967, 97.40117
502.7788, 99.10970
503.2609, 100.0617
503.7430, 99.26816
504.2251, 97.29929
504.7072, 96.45255
505.1894, 97.25399
505.6715, 97.97230
506.1536, 97.94096
506.6357, 97.80289
507.1178, 98.17140
507.5999, 99.08818
508.0821, 99.87885
508.5642, 100.4546
509.0463, 100.5159
509.5284, 98.64945
510.0105, 94.19254
510.4926, 90.45426
510.9748, 90.13940
511.4569, 91.85705
511.9390, 92.09206
512.4211, 89.38582
512.9032, 87.54477
513.3853, 89.71360
513.8674, 93.65170
514.3495, 95.16737
514.8317, 93.34153
515.3138, 90.73766
515.7959, 90.01282
516.2780, 91.34519
516.7601, 91.85649
517.2422, 90.89689
517.7244, 89.98657
518.2065, 89.99155
518.6886, 90.24769
519.1707, 89.46580
519.6528, 87.26888
520.1349, 84.95753
520.6171, 84.68497
521.0992, 87.06040
521.5813, 88.99272
522.0634, 90.34034
522.5455, 91.34700
523.0276, 92.13484
523.5098, 92.63491
523.9919, 92.62692
524.4740, 91.89156
524.9561, 90.96361
525.4382, 90.65806
525.9203, 90.98785
526.4025, 91.23120
526.8846, 90.86724
527.3667, 90.85590
527.8488, 92.69895
528.3309, 96.00190
528.8130, 98.13377
529.2952, 97.10194
529.7773, 95.50866
530.2594, 95.93398
530.7415, 98.02513
531.2236, 100.0737
531.7057, 101.4420
532.1879, 102.0251
532.6700, 101.5379
533.1521, 99.34538
533.6342, 97.47060
534.1163, 95.93224
534.5984, 94.74184
535.0806, 93.92820
535.5627, 93.47271
536.0448, 93.48927
536.5269, 94.13950
537.0090, 94.93114
537.4911, 94.16259
537.9733, 90.59224
538.4554, 88.19535
538.9375, 88.53726
539.4196, 89.22427
539.9017, 88.78665
540.3839, 87.28575
540.8660, 85.62156
541.3481, 84.13823
541.8302, 83.00771
542.3123, 82.84261
542.7944, 83.78605
543.2766, 84.43156
543.7587, 84.13095
544.2408, 83.31683
544.7229, 82.66240
545.2050, 82.20206
545.6871, 81.59966
546.1693, 80.08796
546.6514, 78.78432
547.1335, 79.37682
547.6156, 81.63326
548.0977, 83.43935
548.5798, 83.40696
549.0620, 82.15852
549.5441, 81.79678
550.0262, 83.80767
550.5083, 84.71497
550.9904, 84.27819
551.4725, 82.90148
551.9547, 80.05850
552.4368, 76.40039
552.9189, 73.89542
553.4010, 74.22311
553.8831, 76.61777
554.3652, 77.96267
554.8474, 77.81237
555.3295, 77.72314
555.8116, 78.27084
556.2937, 78.89501
556.7758, 79.47337
557.2579, 79.89080
557.7401, 79.42165
558.2222, 76.54924
558.7043, 72.94707
559.1864, 72.01644
559.6685, 73.86154
560.1506, 75.00610
560.6328, 73.40490
561.1149, 70.41819
561.5970, 69.05252
562.0791, 69.64644
562.5612, 70.38374
563.0433, 70.75369
563.5255, 71.26683
564.0076, 72.77965
564.4897, 74.95501
564.9718, 76.43642
565.4539, 76.33226
565.9360, 74.98442
566.4182, 73.49691
566.9003, 71.58300
567.3824, 70.06588
567.8645, 68.77409
568.3466, 68.02741
568.8287, 68.57865
569.3109, 69.96336
569.7930, 70.52351
570.2751, 68.60268
570.7572, 65.87096
571.2393, 66.65838
571.7214, 71.41408
572.2036, 73.98785
572.6857, 70.86532
573.1678, 66.43686
573.6499, 66.51136
574.1320, 70.94337
574.6141, 73.91441
575.0963, 72.38054
575.5784, 69.90189
576.0605, 69.67693
576.5426, 71.23073
577.0247, 72.48417
577.5068, 72.46253
577.9890, 71.86301
578.4711, 72.03902
578.9532, 73.57230
579.4353, 74.38897
579.9174, 73.89076
580.3995, 73.36900
580.8817, 73.62111
581.3638, 74.28236
581.8459, 74.53979
582.3280, 73.98286
582.8101, 73.08585
583.2922, 72.54098
