##NAMES=Santafeite
##RRUFFID=R080054
##IDEAL CHEMISTRY=(Ca,Sr,Na)_3_(Mn^2+^,Fe^3+^)_2_Mn^4+^_2_(V^5+^O_4_)_4_(OH,O)_5_&#183;2H_2_O
##LOCALITY=Marble Canyon, Gunnison County, Colorado, USA
##OWNER=RRUFF
##SOURCE=James Shigley
##DESCRIPTION=Black blocky crystals, associated with elongated groutite, R070583
##STATUS=The identification of this mineral is confirmed by single-crystal X-ray diffraction and chemical analysis.
##URL=rruff.info/R080054
##MEASURED CHEMISTRY=(Ca_1.63_Na_1.34_Sr_0.02_)_Σ=2.99_Mn^+2^_1.84_Mn^+4^_1.96_(V_0.98_As_0.0025_O_4_)_4_OH_5_·2H_2_O
93.77539, 33.43344
94.25751, 32.49892
94.73962, 32.94032
95.22174, 34.54472
95.70386, 36.54298
96.18597, 38.55366
96.66809, 40.72782
97.15021, 43.59266
97.63232, 47.18900
98.11444, 51.37243
98.59656, 55.88593
99.07867, 60.74398
99.56079, 66.08669
100.0429, 71.95811
100.5250, 78.33077
101.0071, 85.17933
101.4893, 92.47176
101.9714, 100.2118
102.4535, 108.1655
102.9356, 116.3019
103.4177, 124.9001
103.8998, 134.0412
104.3820, 143.9278
104.8641, 154.1029
105.3462, 164.8413
105.8283, 175.9221
106.3104, 186.7427
106.7925, 197.2340
107.2747, 207.4370
107.7568, 217.2131
108.2389, 226.4759
108.7210, 235.6032
109.2031, 244.4487
109.6852, 253.0402
110.1674, 262.3170
110.6495, 272.4016
111.1316, 283.2003
111.6137, 294.6314
112.0958, 306.6107
112.5779, 319.4486
113.0601, 333.3020
113.5422, 348.3860
114.0243, 364.0660
114.5064, 380.1386
114.9885, 396.7244
115.4706, 414.2066
115.9528, 433.8565
116.4349, 453.4129
116.9170, 471.8568
117.3991, 489.5611
117.8812, 505.6680
118.3633, 519.1091
118.8455, 530.7639
119.3276, 542.3076
119.8097, 554.8902
120.2918, 567.5226
120.7739, 579.2953
121.2560, 589.7209
121.7382, 600.0572
122.2203, 611.4172
122.7024, 623.4301
123.1845, 634.8554
123.6666, 645.3134
124.1487, 654.6382
124.6309, 662.6376
125.1130, 668.1667
125.5951, 673.3093
126.0772, 679.4202
126.5593, 686.6152
127.0414, 695.9346
127.5236, 710.0485
128.0057, 726.8600
128.4878, 742.1505
128.9699, 753.1091
129.4520, 762.2746
129.9341, 773.9809
130.4162, 788.2996
130.8984, 803.5264
131.3805, 818.5772
131.8626, 833.2999
132.3447, 846.9164
132.8268, 858.0645
133.3089, 867.6974
133.7911, 878.0495
134.2732, 886.9612
134.7553, 893.5355
135.2374, 898.0735
135.7195, 900.6296
136.2016, 902.8161
136.6838, 905.0398
137.1659, 907.3015
137.6480, 910.6106
138.1301, 915.3499
138.6122, 920.5480
139.0943, 924.6135
139.5765, 927.4992
140.0586, 929.6095
140.5407, 931.2472
141.0228, 932.5486
141.5049, 932.5607
141.9870, 930.6734
142.4692, 927.7824
142.9513, 926.4733
143.4334, 926.9716
143.9155, 928.4805
144.3976, 930.7213
144.8797, 934.0681
145.3619, 937.0787
145.8440, 939.2760
146.3261, 940.9645
146.8082, 943.7938
147.2903, 949.4169
147.7724, 954.4265
148.2546, 956.6793
148.7367, 953.9343
149.2188, 951.7792
149.7009, 950.5754
150.1830, 950.3134
150.6651, 951.1604
151.1473, 954.2679
151.6294, 957.7773
152.1115, 960.3438
152.5936, 962.1476
153.0757, 962.8828
153.5578, 961.8051
154.0400, 958.7565
154.5221, 957.1108
155.0042, 958.4691
155.4863, 960.5997
155.9684, 961.5651
156.4505, 960.5815
156.9327, 958.9305
157.4148, 956.4222
157.8969, 952.8417
158.3790, 950.4568
158.8611, 950.3290
159.3432, 951.3739
159.8254, 952.3854
160.3075, 953.2275
160.7896, 953.8727
161.2717, 954.4108
161.7538, 954.9373
162.2359, 954.9684
162.7181, 953.9739
163.2002, 952.4935
163.6823, 951.2668
164.1644, 950.1138
164.6465, 949.6197
165.1286, 950.5679
165.6108, 953.6295
166.0929, 955.7364
166.5750, 954.0175
167.0571, 950.3696
167.5392, 948.2460
168.0213, 950.8453
168.5035, 954.5553
168.9856, 956.3943
169.4677, 955.2713
169.9498, 954.2326
170.4319, 956.3168
170.9140, 960.1495
171.3962, 962.4805
171.8783, 960.2932
172.3604, 956.3301
172.8425, 953.3245
173.3246, 951.8488
173.8067, 951.1823
174.2889, 951.1583
174.7710, 951.5507
175.2531, 951.6055
175.7352, 949.8911
176.2173, 947.8512
176.6994, 947.7061
177.1816, 950.5931
177.6637, 954.1996
178.1458, 955.9434
178.6279, 956.1019
179.1100, 955.9534
179.5921, 956.4447
180.0743, 957.2195
180.5564, 957.4960
181.0385, 956.8310
181.5206, 955.9859
182.0027, 956.3478
182.4848, 957.7631
182.9670, 958.8972
183.4491, 958.1844
183.9312, 956.3506
184.4133, 955.5546
184.8954, 956.6368
185.3775, 958.5800
185.8597, 959.6179
186.3418, 959.7556
186.8239, 959.5966
187.3060, 959.7073
187.7881, 959.9736
188.2702, 959.8875
188.7523, 959.3176
189.2345, 958.3450
189.7166, 957.0441
190.1987, 955.3962
190.6808, 953.7617
191.1629, 952.1202
191.6451, 950.6006
192.1272, 950.3165
192.6093, 952.0993
193.0914, 955.0919
193.5735, 956.3582
194.0556, 955.7109
194.5378, 954.8531
195.0199, 956.0602
195.5020, 959.1905
195.9841, 960.4407
196.4662, 957.8269
196.9483, 952.6722
197.4305, 951.0383
197.9126, 953.3939
198.3947, 957.0273
198.8768, 959.4241
199.3589, 960.5594
199.8410, 960.7453
200.3232, 959.6840
200.8053, 957.6595
201.2874, 956.3322
201.7695, 955.6913
202.2516, 955.7868
202.7337, 957.2551
203.2159, 960.4267
203.6980, 962.1470
204.1801, 961.1705
204.6622, 957.8614
205.1443, 955.7328
205.6264, 955.0500
206.1086, 954.9632
206.5907, 954.7098
207.0728, 954.3479
207.5549, 953.5286
208.0370, 951.7983
208.5191, 949.2910
209.0013, 948.6615
209.4834, 950.7505
209.9655, 953.1301
210.4476, 952.8337
210.9297, 948.9828
211.4118, 945.7712
211.8940, 944.1193
212.3761, 944.0110
212.8582, 944.8759
213.3403, 947.2551
213.8224, 949.7881
214.3045, 950.8421
214.7867, 949.9279
215.2688, 949.0744
215.7509, 948.7207
216.2330, 948.8633
216.7151, 949.1699
217.1972, 949.7765
217.6794, 950.3369
218.1615, 950.2528
218.6436, 948.8619
219.1257, 948.5924
219.6078, 950.5612
220.0899, 954.7970
220.5721, 956.6656
221.0542, 955.0323
221.5363, 952.3995
222.0184, 951.4468
222.5005, 952.8889
222.9826, 954.3256
223.4648, 955.2214
223.9469, 955.5828
224.4290, 956.0500
224.9111, 956.6302
225.3932, 957.3276
225.8753, 958.1727
226.3575, 959.2197
226.8396, 960.3365
227.3217, 961.6850
227.8038, 963.3033
228.2859, 963.7375
228.7680, 962.0331
229.2502, 960.2368
229.7323, 960.6205
230.2144, 965.0129
230.6965, 967.8284
231.1786, 967.3968
231.6607, 963.7269
232.1429, 962.0407
232.6250, 963.3311
233.1071, 965.4979
233.5892, 966.5822
234.0713, 965.8757
234.5534, 965.5296
235.0356, 966.0853
235.5177, 967.4909
235.9998, 968.3146
236.4819, 968.1514
236.9640, 967.8457
237.4461, 968.1033
237.9283, 969.0557
238.4104, 970.2811
238.8925, 971.7043
239.3746, 973.3323
239.8567, 975.3257
240.3388, 978.1565
240.8210, 980.8083
241.3031, 982.5065
241.7852, 983.1022
242.2673, 982.9598
242.7494, 981.5383
243.2315, 979.0814
243.7137, 978.6097
244.1958, 981.3058
244.6779, 984.5294
245.1600, 986.3973
245.6421, 986.3758
246.1242, 986.0930
246.6064, 985.6038
247.0885, 984.9617
247.5706, 984.4846
248.0527, 984.0338
248.5348, 983.9558
249.0169, 984.5390
249.4990, 986.1188
249.9812, 987.6677
250.4633, 989.2888
250.9454, 990.8473
251.4275, 991.5840
251.9096, 991.0072
252.3917, 990.3255
252.8739, 990.2790
253.3560, 991.1990
253.8381, 991.9207
254.3202, 992.2535
254.8023, 992.3441
255.2844, 992.7704
255.7666, 993.7314
256.2487, 994.6717
256.7308, 995.3046
257.2129, 995.6066
257.6950, 995.5853
258.1772, 994.9686
258.6593, 994.1126
259.1414, 994.0717
259.6235, 995.3279
260.1056, 996.5163
260.5877, 996.9908
261.0699, 996.4989
261.5520, 996.0384
262.0341, 995.4852
262.5162, 995.0509
262.9983, 995.2283
263.4804, 996.2108
263.9626, 997.3935
264.4447, 998.6642
264.9268, 1000.217
265.4089, 1000.947
265.8910, 1000.432
266.3731, 999.5183
266.8553, 999.8925
267.3374, 1002.216
267.8195, 1003.999
268.3016, 1003.882
268.7837, 1001.446
269.2658, 1001.187
269.7480, 1003.971
270.2301, 1007.756
270.7122, 1009.388
271.1943, 1008.260
271.6764, 1007.175
272.1585, 1006.969
272.6407, 1007.624
273.1228, 1008.768
273.6049, 1010.598
274.0870, 1012.476
274.5691, 1013.619
275.0512, 1013.887
275.5334, 1013.980
276.0155, 1013.959
276.4976, 1013.863
276.9797, 1014.368
277.4618, 1015.781
277.9439, 1016.967
278.4261, 1016.244
278.9081, 1013.299
279.3903, 1011.836
279.8724, 1013.196
280.3545, 1016.672
280.8366, 1019.080
281.3187, 1020.364
281.8008, 1020.913
282.2830, 1020.833
282.7651, 1020.116
283.2472, 1019.599
283.7293, 1019.437
284.2114, 1019.570
284.6935, 1019.652
285.1757, 1019.608
285.6578, 1020.164
286.1399, 1022.314
286.6220, 1025.883
287.1041, 1028.621
287.5862, 1030.202
288.0684, 1030.852
288.5505, 1030.475
289.0326, 1029.054
289.5147, 1028.427
289.9968, 1030.487
290.4789, 1034.645
290.9611, 1037.327
291.4432, 1038.042
291.9253, 1037.772
292.4074, 1037.811
292.8895, 1038.159
293.3716, 1038.806
293.8538, 1040.204
294.3359, 1041.941
294.8180, 1042.328
295.3001, 1041.017
295.7822, 1039.760
296.2643, 1041.240
296.7465, 1044.875
297.2286, 1047.974
297.7107, 1049.275
298.1928, 1049.276
298.6749, 1048.782
299.1570, 1047.771
299.6392, 1046.794
300.1213, 1046.484
300.6034, 1046.657
301.0855, 1046.857
301.5676, 1046.905
302.0497, 1046.900
302.5319, 1046.938
303.0140, 1047.023
303.4961, 1047.227
303.9782, 1047.328
304.4603, 1047.623
304.9424, 1048.816
305.4246, 1052.108
305.9067, 1055.159
306.3888, 1054.799
306.8709, 1051.648
307.3530, 1048.711
307.8351, 1047.938
308.3173, 1048.507
308.7994, 1049.626
309.2815, 1051.589
309.7636, 1053.117
310.2457, 1052.463
310.7278, 1050.459
311.2100, 1049.367
311.6921, 1051.777
312.1742, 1054.854
312.6563, 1055.813
313.1384, 1053.732
313.6205, 1051.769
314.1027, 1052.044
314.5848, 1053.665
315.0669, 1055.069
315.5490, 1055.073
316.0311, 1055.073
316.5132, 1056.169
316.9954, 1058.605
317.4775, 1060.505
317.9596, 1060.514
318.4417, 1059.716
318.9238, 1059.335
319.4059, 1059.534
319.8881, 1060.393
320.3702, 1062.459
320.8523, 1065.645
321.3344, 1067.875
321.8165, 1067.801
322.2986, 1066.923
322.7808, 1066.382
323.2629, 1066.106
323.7450, 1066.511
324.2271, 1068.362
324.7092, 1071.240
325.1913, 1073.061
325.6735, 1072.354
326.1556, 1071.393
326.6377, 1071.357
327.1198, 1073.269
327.6019, 1074.802
328.0840, 1075.858
328.5662, 1076.459
329.0483, 1076.657
329.5304, 1075.346
330.0125, 1074.715
330.4946, 1075.630
330.9767, 1078.847
331.4589, 1081.512
331.9410, 1083.603
332.4231, 1085.138
332.9052, 1086.127
333.3873, 1086.374
333.8694, 1086.329
334.3516, 1085.788
334.8337, 1084.614
335.3158, 1084.885
335.7979, 1087.443
336.2800, 1090.446
336.7621, 1092.042
337.2443, 1091.618
337.7264, 1091.458
338.2085, 1091.996
338.6906, 1093.114
339.1727, 1094.187
339.6548, 1095.269
340.1370, 1096.207
340.6191, 1096.774
341.1012, 1096.854
341.5833, 1097.510
342.0654, 1099.050
342.5475, 1100.997
343.0297, 1102.213
343.5118, 1102.623
343.9939, 1102.812
344.4760, 1102.795
344.9581, 1102.645
345.4402, 1103.645
345.9224, 1106.129
346.4045, 1108.771
346.8866, 1109.551
347.3687, 1108.594
347.8508, 1107.378
348.3329, 1106.230
348.8151, 1105.289
349.2972, 1105.293
349.7793, 1106.299
350.2614, 1107.015
350.7435, 1105.339
351.2256, 1102.291
351.7078, 1100.919
352.1899, 1102.852
352.6720, 1106.017
353.1541, 1107.833
353.6362, 1108.392
354.1183, 1108.142
354.6005, 1106.865
355.0826, 1105.143
355.5647, 1103.783
356.0468, 1102.980
356.5289, 1102.430
357.0110, 1101.474
357.4932, 1100.525
357.9753, 1100.551
358.4574, 1103.469
358.9395, 1106.643
359.4216, 1107.685
359.9037, 1106.216
360.3859, 1104.483
360.8680, 1103.260
361.3501, 1102.661
361.8322, 1102.837
362.3143, 1104.623
362.7964, 1106.468
363.2786, 1107.826
363.7607, 1108.680
364.2428, 1109.053
364.7249, 1108.570
365.2070, 1107.834
365.6891, 1107.245
366.1713, 1106.617
366.6534, 1106.473
367.1355, 1106.990
367.6176, 1108.073
368.0997, 1109.451
368.5818, 1112.270
369.0640, 1114.394
369.5461, 1114.857
370.0282, 1112.660
370.5103, 1111.224
370.9924, 1110.965
371.4745, 1111.301
371.9567, 1111.488
372.4388, 1111.583
372.9209, 1111.440
373.4030, 1110.936
373.8851, 1110.054
374.3672, 1109.318
374.8494, 1108.547
375.3315, 1108.130
375.8136, 1108.644
376.2957, 1110.682
376.7778, 1111.423
377.2599, 1109.905
377.7421, 1107.098
378.2242, 1106.504
378.7063, 1108.642
379.1884, 1110.815
379.6705, 1111.213
380.1526, 1109.822
380.6348, 1109.252
381.1169, 1109.777
381.5990, 1110.692
382.0811, 1110.951
382.5632, 1110.602
383.0453, 1110.321
383.5275, 1110.720
384.0096, 1111.355
384.4917, 1110.664
384.9738, 1108.630
385.4559, 1106.463
385.9380, 1104.963
386.4202, 1104.164
386.9023, 1104.234
387.3844, 1105.652
387.8665, 1107.300
388.3486, 1107.813
388.8307, 1107.348
389.3129, 1106.530
389.7950, 1105.182
390.2771, 1103.929
390.7592, 1103.589
391.2413, 1104.397
391.7234, 1105.415
392.2056, 1105.853
392.6877, 1106.091
393.1698, 1106.737
393.6519, 1108.906
394.1340, 1110.800
394.6161, 1111.151
395.0983, 1109.991
395.5804, 1109.153
396.0625, 1109.399
396.5446, 1110.176
397.0267, 1111.076
397.5089, 1112.186
397.9910, 1113.215
398.4731, 1113.924
398.9552, 1114.490
399.4373, 1115.443
399.9194, 1117.801
400.4016, 1119.690
400.8837, 1120.344
401.3658, 1119.336
401.8479, 1118.365
402.3300, 1117.107
402.8121, 1116.081
403.2942, 1115.999
403.7763, 1117.471
404.2585, 1118.719
404.7406, 1119.264
405.2227, 1119.211
405.7048, 1119.663
406.1869, 1120.829
406.6690, 1122.041
407.1512, 1122.827
407.6333, 1123.161
408.1154, 1123.239
408.5975, 1122.880
409.0796, 1122.554
409.5617, 1123.403
410.0439, 1125.453
410.5260, 1127.333
411.0081, 1128.425
411.4902, 1128.793
411.9723, 1128.593
412.4544, 1127.734
412.9366, 1126.924
413.4187, 1127.229
413.9008, 1128.172
414.3829, 1128.233
414.8650, 1126.158
415.3471, 1123.964
415.8293, 1125.029
416.3114, 1128.639
416.7935, 1131.388
417.2756, 1130.492
417.7577, 1127.989
418.2398, 1125.880
418.7220, 1124.405
419.2041, 1123.551
419.6862, 1123.582
420.1683, 1124.192
420.6504, 1124.891
421.1325, 1126.049
421.6147, 1126.802
422.0968, 1126.493
422.5789, 1125.171
423.0610, 1124.215
423.5431, 1124.156
424.0252, 1124.462
424.5074, 1124.794
424.9895, 1125.767
425.4716, 1125.871
425.9537, 1123.769
426.4358, 1120.778
426.9179, 1119.928
427.4001, 1123.287
427.8822, 1126.149
428.3643, 1126.707
428.8464, 1124.377
429.3285, 1123.967
429.8106, 1126.478
430.2928, 1129.582
430.7749, 1130.783
431.2570, 1129.490
431.7391, 1128.866
432.2212, 1129.785
432.7033, 1131.547
433.1855, 1131.805
433.6676, 1130.424
434.1497, 1128.738
434.6318, 1127.472
435.1139, 1126.580
435.5960, 1125.651
436.0782, 1124.562
436.5603, 1123.902
437.0424, 1125.035
437.5245, 1127.338
438.0066, 1128.616
438.4887, 1127.297
438.9709, 1125.133
439.4530, 1124.577
439.9351, 1125.440
440.4172, 1126.396
440.8993, 1126.930
441.3814, 1126.946
441.8636, 1126.156
442.3457, 1124.167
442.8278, 1122.424
443.3099, 1121.678
443.7920, 1121.748
444.2741, 1122.326
444.7563, 1124.479
445.2384, 1126.028
445.7205, 1125.638
446.2026, 1123.277
446.6847, 1121.649
447.1668, 1121.680
447.6490, 1122.357
448.1311, 1123.066
448.6132, 1124.840
449.0953, 1125.119
449.5774, 1122.382
450.0595, 1118.494
450.5417, 1117.715
451.0238, 1121.994
451.5059, 1125.927
451.9880, 1127.803
452.4701, 1127.544
452.9522, 1126.791
453.4344, 1125.172
453.9165, 1123.892
454.3986, 1124.449
454.8807, 1126.966
455.3628, 1128.465
455.8449, 1128.089
456.3271, 1127.047
456.8092, 1128.386
457.2913, 1131.886
457.7734, 1134.434
458.2555, 1133.162
458.7376, 1129.981
459.2198, 1129.276
459.7019, 1131.297
460.1840, 1134.019
460.6661, 1136.076
461.1482, 1137.574
461.6303, 1138.640
462.1125, 1139.352
462.5946, 1139.621
463.0767, 1138.858
463.5588, 1137.512
464.0409, 1136.889
464.5230, 1138.282
465.0052, 1140.028
465.4873, 1141.042
465.9694, 1141.006
466.4515, 1141.384
466.9336, 1142.984
467.4157, 1144.924
467.8979, 1146.371
468.3800, 1147.392
468.8621, 1147.666
469.3442, 1146.560
469.8263, 1144.592
470.3084, 1143.858
470.7906, 1144.956
471.2727, 1146.424
471.7548, 1147.699
472.2369, 1148.760
472.7190, 1150.027
473.2011, 1151.860
473.6833, 1153.291
474.1654, 1152.724
474.6475, 1150.036
475.1296, 1148.259
475.6117, 1148.238
476.0938, 1149.350
476.5760, 1150.306
477.0581, 1151.093
477.5402, 1151.654
478.0223, 1151.703
478.5044, 1151.534
478.9865, 1151.710
479.4687, 1152.265
479.9508, 1153.136
480.4329, 1155.195
480.9150, 1157.324
481.3971, 1157.760
481.8792, 1154.497
482.3614, 1150.993
482.8435, 1149.455
483.3256, 1149.431
483.8077, 1149.523
484.2898, 1149.071
484.7719, 1148.740
485.2541, 1148.984
485.7362, 1150.064
486.2183, 1150.786
486.7004, 1150.918
487.1825, 1150.646
487.6646, 1150.086
488.1468, 1148.426
488.6289, 1147.781
489.1110, 1148.740
489.5931, 1150.818
490.0752, 1152.441
490.5573, 1153.600
491.0395, 1154.314
491.5216, 1154.452
492.0037, 1153.997
492.4858, 1153.906
492.9679, 1154.245
493.4500, 1154.692
493.9322, 1155.085
494.4143, 1155.357
494.8964, 1154.844
495.3785, 1152.912
495.8606, 1150.988
496.3427, 1151.700
496.8249, 1154.428
497.3070, 1156.861
497.7891, 1157.749
498.2712, 1157.636
498.7533, 1156.811
499.2354, 1155.282
499.7176, 1153.873
500.1997, 1153.272
500.6818, 1152.925
501.1639, 1152.257
501.6460, 1150.343
502.1281, 1149.272
502.6103, 1150.401
503.0924, 1152.749
503.5745, 1154.194
504.0566, 1154.086
504.5387, 1153.404
505.0208, 1152.059
505.5030, 1149.991
505.9851, 1149.020
506.4672, 1149.609
506.9493, 1150.689
507.4314, 1151.843
507.9135, 1153.495
508.3957, 1152.908
508.8778, 1149.086
509.3599, 1144.264
509.8420, 1142.501
510.3241, 1143.734
510.8062, 1145.122
511.2884, 1145.602
511.7705, 1145.510
512.2526, 1145.675
512.7347, 1146.070
513.2168, 1146.354
513.6989, 1146.111
514.1810, 1145.674
514.6631, 1145.573
515.1453, 1145.967
515.6274, 1146.306
516.1095, 1146.010
516.5916, 1145.501
517.0737, 1145.340
517.5558, 1146.611
518.0380, 1147.355
518.5201, 1146.173
519.0022, 1143.626
519.4843, 1142.412
519.9664, 1144.735
520.4485, 1146.918
520.9307, 1147.321
521.4128, 1145.290
521.8949, 1144.229
522.3770, 1144.704
522.8591, 1145.512
523.3412, 1145.331
523.8234, 1143.808
524.3055, 1143.017
524.7876, 1143.547
525.2697, 1144.639
525.7518, 1144.276
526.2339, 1142.469
526.7161, 1141.017
527.1982, 1140.966
527.6803, 1141.902
528.1624, 1142.862
528.6445, 1143.851
529.1266, 1144.681
529.6088, 1145.230
530.0909, 1145.530
530.5730, 1145.618
531.0551, 1145.504
531.5372, 1145.162
532.0193, 1144.290
532.5015, 1143.227
532.9836, 1142.518
533.4657, 1142.446
533.9478, 1142.620
534.4299, 1143.276
534.9120, 1144.266
535.3942, 1144.309
535.8763, 1141.767
536.3584, 1139.762
536.8405, 1139.980
537.3226, 1143.512
537.8047, 1144.865
538.2869, 1143.240
538.7690, 1140.566
539.2511, 1138.971
539.7332, 1138.557
540.2153, 1138.437
540.6974, 1138.473
541.1796, 1138.702
541.6617, 1139.349
542.1438, 1140.359
542.6259, 1141.198
543.1080, 1141.710
543.5901, 1141.814
544.0723, 1140.899
544.5544, 1139.059
545.0365, 1137.979
545.5186, 1140.149
546.0007, 1143.070
546.4828, 1144.001
546.9650, 1141.696
547.4471, 1139.214
547.9292, 1137.459
548.4113, 1136.382
548.8934, 1135.917
549.3755, 1136.578
549.8577, 1137.276
550.3398, 1137.941
550.8219, 1138.515
551.3040, 1138.554
551.7861, 1137.314
552.2682, 1136.770
552.7504, 1138.252
553.2325, 1142.085
553.7146, 1143.736
554.1967, 1142.726
554.6788, 1140.971
555.1609, 1140.557
555.6431, 1141.279
556.1252, 1141.433
556.6073, 1140.517
557.0894, 1139.423
557.5715, 1139.879
558.0536, 1141.253
558.5358, 1141.686
559.0179, 1138.581
559.5000, 1135.427
559.9821, 1135.805
560.4642, 1139.192
560.9464, 1142.063
561.4285, 1142.072
561.9106, 1141.579
562.3927, 1142.172
562.8748, 1144.575
563.3569, 1146.307
563.8391, 1147.189
564.3212, 1147.161
564.8033, 1146.011
565.2854, 1142.736
565.7675, 1140.362
566.2496, 1139.423
566.7318, 1139.418
567.2139, 1139.103
567.6960, 1138.425
568.1781, 1137.925
568.6602, 1137.897
569.1423, 1138.235
569.6245, 1138.552
570.1066, 1138.863
570.5887, 1139.133
571.0708, 1139.243
571.5529, 1139.331
572.0350, 1139.621
572.5172, 1140.148
572.9993, 1140.799
573.4814, 1142.266
573.9635, 1143.523
574.4456, 1143.289
574.9277, 1139.145
575.4099, 1135.709
575.8920, 1134.206
576.3741, 1134.337
576.8562, 1135.281
577.3383, 1138.530
577.8204, 1140.740
578.3026, 1140.663
578.7847, 1138.371
579.2668, 1137.203
579.7489, 1137.551
580.2310, 1138.117
580.7131, 1137.732
581.1953, 1136.428
581.6774, 1136.546
582.1595, 1138.419
582.6416, 1140.818
583.1237, 1142.611
583.6058, 1143.736
584.0880, 1143.909
584.5701, 1142.671
585.0522, 1141.064
585.5343, 1139.941
586.0164, 1139.247
