##NAMES=Sapphirine
##RRUFFID=R060556
##IDEAL CHEMISTRY=Mg_4_(Mg_3_Al_9_)O_4_[Si_3_Al_9_O_36_]
##LOCALITY=unknown
##OWNER=RRUFF
##SOURCE=Gemological Institute of America
##DESCRIPTION=Dark blue massive
##STATUS=The identification of this mineral has been confirmed by X-ray diffraction and chemical analysis
##URL=rruff.info/R060556
##MEASURED CHEMISTRY=Mg_4_(Mg_3.18_Al_8.52_Fe^2+^_0.32_)O_4_(Si_3.42_Al_8.58_O_36_)
150.931, 2740.155
151.413, 2768.334
151.895, 2787.393
152.377, 2800.371
152.859, 2812.538
153.342, 2815.855
153.824, 2825.368
154.306, 2847.527
154.788, 2895.500
155.270, 2938.364
155.752, 2969.089
156.234, 2991.354
156.716, 3018.538
157.198, 3052.216
157.680, 3092.181
158.163, 3137.987
158.645, 3188.827
159.127, 3246.240
159.609, 3307.175
160.091, 3372.784
160.573, 3453.961
161.055, 3565.523
161.538, 3688.735
162.020, 3805.850
162.502, 3926.101
162.984, 4026.443
163.466, 4091.206
163.948, 4118.994
164.430, 4137.464
164.912, 4149.499
165.394, 4162.067
165.876, 4184.031
166.359, 4229.455
166.841, 4278.368
167.323, 4316.426
167.805, 4340.928
168.287, 4365.442
168.769, 4410.579
169.251, 4461.620
169.733, 4491.306
170.216, 4482.044
170.698, 4447.833
171.180, 4399.033
171.662, 4334.077
172.144, 4263.546
172.626, 4184.000
173.108, 4103.029
173.590, 4041.090
174.072, 4013.086
174.555, 4010.579
175.037, 4023.460
175.519, 4052.974
176.001, 4091.796
176.483, 4132.210
176.965, 4174.871
177.447, 4221.517
177.929, 4278.694
178.412, 4340.301
178.894, 4397.821
179.376, 4462.473
179.858, 4507.741
180.340, 4487.568
180.822, 4403.401
181.304, 4292.928
181.786, 4177.394
182.268, 4059.112
182.751, 3945.509
183.233, 3837.824
183.715, 3737.406
184.197, 3648.711
184.679, 3570.824
185.161, 3506.633
185.643, 3460.352
186.125, 3431.056
186.607, 3409.540
187.090, 3395.945
187.572, 3387.824
188.054, 3374.740
188.536, 3354.970
189.018, 3339.079
189.500, 3346.074
189.982, 3373.761
190.464, 3397.150
190.947, 3403.190
191.429, 3394.432
191.911, 3385.755
192.393, 3377.000
192.875, 3369.384
193.357, 3366.453
193.839, 3368.481
194.321, 3367.639
194.803, 3357.575
195.286, 3339.072
195.768, 3325.867
196.250, 3319.403
196.732, 3317.268
197.214, 3313.146
197.696, 3305.991
198.178, 3305.096
198.661, 3319.365
199.143, 3349.360
199.625, 3372.477
200.107, 3385.552
200.589, 3392.311
201.071, 3401.057
201.553, 3411.027
202.035, 3426.423
202.517, 3452.115
202.999, 3489.421
203.482, 3524.587
203.964, 3555.977
204.446, 3584.008
204.928, 3607.035
205.410, 3620.354
205.892, 3641.887
206.374, 3689.696
206.857, 3770.616
207.339, 3840.457
207.821, 3889.421
208.303, 3921.644
208.785, 3960.904
209.267, 4007.593
209.749, 4061.031
210.231, 4121.053
210.713, 4188.661
211.195, 4260.288
211.678, 4334.412
212.160, 4412.022
212.642, 4499.834
213.124, 4601.012
213.606, 4708.940
214.088, 4817.845
214.570, 4931.667
215.052, 5037.663
215.535, 5131.631
216.017, 5214.020
216.499, 5305.947
216.981, 5424.500
217.463, 5530.928
217.945, 5580.467
218.427, 5557.072
218.909, 5513.951
219.391, 5464.304
219.874, 5408.809
220.356, 5328.428
220.838, 5214.978
221.320, 5085.758
221.802, 4962.776
222.284, 4847.815
222.766, 4736.043
223.248, 4626.773
223.731, 4518.398
224.213, 4416.336
224.695, 4310.340
225.177, 4218.773
225.659, 4167.986
226.141, 4148.688
226.623, 4147.792
227.105, 4142.433
227.587, 4132.845
228.070, 4106.367
228.552, 4101.699
229.034, 4088.291
229.516, 4074.522
229.998, 4072.923
230.480, 4048.903
230.962, 4047.111
231.444, 4036.446
231.926, 4029.842
232.409, 4012.625
232.891, 4011.670
233.373, 4012.053
233.855, 4013.740
234.337, 4016.957
234.819, 4022.869
235.301, 4034.367
235.783, 4039.190
236.266, 4035.737
236.748, 4026.496
237.230, 4015.114
237.712, 3996.519
238.194, 3983.698
238.676, 3983.877
239.158, 4005.519
239.640, 4016.068
240.122, 4020.146
240.605, 4011.239
241.087, 3972.468
241.569, 3882.114
242.051, 3793.861
242.533, 3729.124
243.015, 3693.162
243.497, 3665.915
243.980, 3650.297
244.462, 3642.280
244.944, 3632.909
245.426, 3621.621
245.908, 3609.562
246.390, 3596.941
246.872, 3583.386
247.354, 3569.761
247.836, 3554.553
248.318, 3539.725
248.801, 3529.723
249.283, 3523.146
249.765, 3523.500
250.247, 3533.337
250.729, 3556.741
251.211, 3578.994
251.693, 3599.243
252.176, 3618.687
252.658, 3639.204
253.140, 3658.413
253.622, 3683.178
254.104, 3710.569
254.586, 3720.153
255.068, 3730.193
255.550, 3776.131
256.032, 3813.355
256.514, 3842.330
256.997, 3838.359
257.479, 3876.932
257.961, 3898.461
258.443, 3928.425
258.925, 3939.301
259.407, 3979.881
259.889, 4033.454
260.371, 4060.226
260.854, 4051.930
261.336, 4032.622
261.818, 4011.883
262.300, 3989.619
262.782, 3966.936
263.264, 3946.585
263.746, 3923.989
264.228, 3887.259
264.711, 3830.084
265.193, 3772.591
265.675, 3723.367
266.157, 3684.435
266.639, 3647.514
267.121, 3613.743
267.603, 3581.887
268.085, 3548.606
268.567, 3513.195
269.050, 3479.407
269.532, 3448.189
270.014, 3418.663
270.496, 3398.741
270.978, 3393.135
271.460, 3393.141
271.942, 3380.054
272.424, 3350.469
272.906, 3320.422
273.389, 3298.174
273.871, 3285.469
274.353, 3266.696
274.835, 3238.937
275.317, 3209.188
275.799, 3190.381
276.281, 3184.107
276.763, 3181.441
277.246, 3180.384
277.728, 3181.291
278.210, 3174.905
278.692, 3158.370
279.174, 3138.956
279.656, 3130.076
280.138, 3133.028
280.620, 3134.918
281.103, 3128.161
281.585, 3113.022
282.067, 3103.016
282.549, 3098.420
283.031, 3098.281
283.513, 3101.144
283.995, 3106.983
284.477, 3116.481
284.959, 3130.552
285.441, 3148.910
285.924, 3170.388
286.406, 3196.422
286.888, 3221.099
287.370, 3232.626
287.852, 3232.004
288.334, 3236.132
288.816, 3255.813
289.298, 3286.718
289.781, 3308.244
290.263, 3318.476
290.745, 3329.614
291.227, 3356.242
291.709, 3397.181
292.191, 3443.037
292.673, 3494.028
293.155, 3547.125
293.638, 3593.755
294.120, 3633.200
294.602, 3669.246
295.084, 3700.984
295.566, 3731.112
296.048, 3770.786
296.530, 3831.118
297.012, 3901.452
297.494, 3958.296
297.977, 4002.060
298.459, 4044.782
298.941, 4099.946
299.423, 4163.245
299.905, 4222.163
300.387, 4272.428
300.869, 4316.923
301.351, 4364.452
301.833, 4414.293
302.316, 4451.586
302.798, 4456.196
303.280, 4441.114
303.762, 4429.440
304.244, 4433.874
304.726, 4438.544
305.208, 4424.918
305.690, 4394.868
306.172, 4360.605
306.655, 4326.371
307.137, 4294.309
307.619, 4268.479
308.101, 4257.071
308.583, 4242.506
309.065, 4206.292
309.547, 4153.232
310.030, 4103.629
310.512, 4068.875
310.994, 4043.475
311.476, 4022.328
311.958, 4004.471
312.440, 3990.573
312.922, 3982.346
313.404, 3978.560
313.886, 3975.557
314.369, 3976.525
314.851, 3974.646
315.333, 3962.816
315.815, 3932.861
316.297, 3909.519
316.779, 3902.443
317.261, 3909.302
317.743, 3925.555
318.225, 3960.689
318.708, 3996.660
319.190, 4022.563
319.672, 4033.580
320.154, 4046.696
320.636, 4065.145
321.118, 4088.886
321.600, 4117.828
322.082, 4158.970
322.565, 4199.303
323.047, 4232.668
323.529, 4256.648
324.011, 4283.158
324.493, 4315.063
324.975, 4349.779
325.457, 4384.385
325.939, 4419.399
326.422, 4453.350
326.904, 4490.657
327.386, 4534.505
327.868, 4556.537
328.350, 4536.359
328.832, 4505.728
329.314, 4491.785
329.796, 4510.619
330.278, 4525.474
330.760, 4529.171
331.243, 4522.194
331.725, 4520.947
332.207, 4532.093
332.689, 4542.525
333.171, 4542.658
333.653, 4529.282
334.135, 4511.373
334.617, 4484.814
335.100, 4453.723
335.582, 4444.439
336.064, 4427.524
336.546, 4426.225
337.028, 4421.135
337.510, 4404.611
337.992, 4388.334
338.474, 4371.774
338.957, 4376.946
339.439, 4376.842
339.921, 4371.747
340.403, 4346.708
340.885, 4347.072
341.367, 4340.110
341.849, 4331.105
342.331, 4317.093
342.813, 4302.532
343.296, 4297.630
343.778, 4302.923
344.260, 4303.783
344.742, 4289.665
345.224, 4263.650
345.706, 4247.134
346.188, 4241.146
346.670, 4240.201
347.152, 4237.376
347.635, 4233.398
348.117, 4232.337
348.599, 4234.619
349.081, 4241.121
349.563, 4254.822
350.045, 4275.624
350.527, 4299.534
351.009, 4321.001
351.491, 4342.205
351.974, 4368.750
352.456, 4407.266
352.938, 4447.173
353.420, 4476.516
353.902, 4495.628
354.384, 4507.810
354.866, 4509.405
355.349, 4507.183
355.831, 4510.456
356.313, 4524.018
356.795, 4539.210
357.277, 4548.165
357.759, 4553.415
358.241, 4561.785
358.723, 4577.309
359.205, 4597.212
359.688, 4619.012
360.170, 4641.264
360.652, 4668.783
361.134, 4712.790
361.616, 4762.380
362.098, 4799.096
362.580, 4799.438
363.062, 4799.733
363.544, 4817.042
364.027, 4855.072
364.509, 4895.639
364.991, 4942.924
365.473, 4987.395
365.955, 5018.365
366.437, 5016.429
366.919, 5019.584
367.401, 5034.392
367.884, 5061.084
368.366, 5099.266
368.848, 5167.092
369.330, 5234.603
369.812, 5282.503
370.294, 5293.666
370.776, 5310.331
371.258, 5338.145
371.741, 5374.254
372.223, 5404.574
372.705, 5427.041
373.187, 5446.534
373.669, 5465.923
374.151, 5486.429
374.633, 5503.438
375.115, 5518.232
375.597, 5528.274
376.079, 5525.079
376.562, 5503.125
377.044, 5487.741
377.526, 5498.237
378.008, 5535.968
378.490, 5536.376
378.972, 5491.275
379.454, 5430.158
379.936, 5390.565
380.419, 5372.376
380.901, 5349.084
381.383, 5308.476
381.865, 5257.747
382.347, 5220.402
382.829, 5196.517
383.311, 5180.438
383.793, 5172.223
384.276, 5168.377
384.758, 5156.024
385.240, 5125.736
385.722, 5094.874
386.204, 5092.336
386.686, 5113.274
387.168, 5130.830
387.650, 5120.003
388.132, 5098.761
388.615, 5092.140
389.097, 5107.230
389.579, 5125.278
390.061, 5124.914
390.543, 5116.814
391.025, 5122.587
391.507, 5164.757
391.989, 5214.787
392.471, 5254.802
392.954, 5283.375
393.436, 5308.743
393.918, 5332.968
394.400, 5356.780
394.882, 5381.030
395.364, 5394.595
395.846, 5419.993
396.328, 5475.731
396.810, 5557.720
397.293, 5616.780
397.775, 5613.021
398.257, 5605.677
398.739, 5628.587
399.221, 5719.846
399.703, 5795.912
400.185, 5846.806
400.668, 5882.511
401.150, 5929.819
401.632, 5997.075
402.114, 6064.639
402.596, 6124.498
403.078, 6173.559
403.560, 6228.953
404.042, 6295.261
404.524, 6363.508
405.007, 6422.266
405.489, 6470.038
405.971, 6514.819
406.453, 6560.306
406.935, 6605.391
407.417, 6638.387
407.899, 6657.816
408.381, 6671.699
408.863, 6686.882
409.346, 6703.063
409.828, 6716.625
410.310, 6727.856
410.792, 6734.925
411.274, 6734.397
411.756, 6726.474
412.238, 6712.455
412.720, 6693.834
413.203, 6669.628
413.685, 6634.782
414.167, 6586.596
414.649, 6538.759
415.131, 6505.943
415.613, 6482.951
416.095, 6459.924
416.577, 6438.688
417.060, 6410.947
417.542, 6365.274
418.024, 6302.635
418.506, 6241.315
418.988, 6189.612
419.470, 6145.719
419.952, 6109.351
420.434, 6087.350
420.916, 6063.964
421.398, 6034.462
421.881, 5999.791
422.363, 5961.903
422.845, 5911.140
423.327, 5866.014
423.809, 5836.460
424.291, 5832.660
424.773, 5822.859
425.255, 5801.063
425.738, 5774.983
426.220, 5754.148
426.702, 5736.782
427.184, 5727.895
427.666, 5722.259
428.148, 5726.605
428.630, 5728.528
429.112, 5728.158
429.595, 5718.628
430.077, 5720.926
430.559, 5718.484
431.041, 5718.389
431.523, 5709.488
432.005, 5711.970
432.487, 5720.896
432.969, 5736.759
433.451, 5751.590
433.934, 5758.804
434.416, 5760.658
434.898, 5765.974
435.380, 5774.396
435.862, 5790.572
436.344, 5825.005
436.826, 5872.594
437.308, 5917.642
437.790, 5956.583
438.273, 5988.303
438.755, 6007.384
439.237, 6015.414
439.719, 6024.125
440.201, 6041.166
440.683, 6062.882
441.165, 6082.998
441.647, 6090.271
442.129, 6114.904
442.612, 6123.426
443.094, 6148.998
443.576, 6170.429
444.058, 6187.944
444.540, 6189.811
445.022, 6211.883
445.504, 6225.862
445.987, 6239.505
446.469, 6259.963
446.951, 6266.838
447.433, 6270.511
447.915, 6266.249
448.397, 6265.065
448.879, 6270.259
449.361, 6280.271
449.843, 6284.856
450.326, 6280.582
450.808, 6276.781
451.290, 6278.619
451.772, 6287.178
452.254, 6297.187
452.736, 6311.236
453.218, 6322.047
453.700, 6314.224
454.182, 6286.771
454.665, 6262.598
455.147, 6251.885
455.629, 6250.476
456.111, 6247.671
456.593, 6243.624
457.075, 6233.791
457.557, 6208.100
458.039, 6173.720
458.522, 6148.145
459.004, 6133.549
459.486, 6130.893
459.968, 6121.439
460.450, 6132.688
460.932, 6138.912
461.414, 6140.379
461.896, 6122.850
462.379, 6129.519
462.861, 6147.104
463.343, 6162.471
463.825, 6153.695
464.307, 6138.649
464.789, 6135.189
465.271, 6163.928
465.753, 6186.868
466.235, 6192.007
466.717, 6182.617
467.200, 6177.291
467.682, 6189.288
468.164, 6194.144
468.646, 6179.983
469.128, 6135.125
469.610, 6103.024
470.092, 6089.203
470.574, 6083.070
471.057, 6072.130
471.539, 6057.793
472.021, 6032.478
472.503, 5991.342
472.985, 5937.397
473.467, 5884.969
473.949, 5833.804
474.431, 5785.558
474.914, 5744.859
475.396, 5709.398
475.878, 5668.424
476.360, 5619.922
476.842, 5568.387
477.324, 5519.117
477.806, 5471.499
478.288, 5424.316
478.770, 5370.821
479.253, 5320.952
479.735, 5287.805
480.217, 5270.873
480.699, 5255.406
481.181, 5224.149
481.663, 5194.302
482.145, 5182.619
482.627, 5204.864
483.109, 5227.067
483.592, 5236.336
484.074, 5237.517
484.556, 5241.635
485.038, 5249.560
485.520, 5261.314
486.002, 5275.412
486.484, 5289.984
486.966, 5316.184
487.448, 5356.878
487.931, 5406.548
488.413, 5462.311
488.895, 5530.304
489.377, 5587.149
489.859, 5626.015
490.341, 5654.669
490.823, 5692.206
491.306, 5738.916
491.788, 5792.342
492.270, 5854.386
492.752, 5923.145
493.234, 5984.646
493.716, 6037.624
494.198, 6089.454
494.680, 6150.500
495.162, 6215.708
495.645, 6269.102
496.127, 6301.429
496.609, 6327.170
497.091, 6364.042
497.573, 6407.910
498.055, 6445.151
498.537, 6467.919
499.019, 6481.728
499.501, 6490.666
499.984, 6495.409
500.466, 6493.766
500.948, 6490.272
501.430, 6477.857
501.912, 6449.113
502.394, 6376.899
502.876, 6318.984
503.358, 6295.844
503.841, 6296.151
504.323, 6269.566
504.805, 6199.146
505.287, 6125.071
505.769, 6066.829
506.251, 6030.115
506.733, 5973.221
507.215, 5886.356
507.698, 5796.746
508.180, 5740.359
508.662, 5717.463
509.144, 5695.283
509.626, 5666.458
510.108, 5633.031
510.590, 5600.660
511.072, 5569.051
511.554, 5536.242
512.036, 5493.807
512.519, 5452.027
513.001, 5416.542
513.483, 5383.743
513.965, 5355.463
514.447, 5345.588
514.929, 5332.333
515.411, 5315.930
515.893, 5284.327
516.375, 5274.360
516.858, 5256.945
517.340, 5240.071
517.822, 5235.656
518.304, 5210.771
518.786, 5207.925
519.268, 5197.507
519.750, 5191.830
520.232, 5178.660
520.715, 5168.951
521.197, 5168.493
521.679, 5164.275
522.161, 5153.645
522.643, 5153.472
523.125, 5137.058
523.607, 5136.542
524.089, 5143.384
524.571, 5137.557
525.054, 5141.919
525.536, 5143.611
526.018, 5130.059
526.500, 5145.418
526.982, 5149.530
527.464, 5142.068
527.946, 5159.097
528.429, 5155.104
528.911, 5159.803
529.393, 5170.986
529.875, 5182.873
530.357, 5184.881
530.839, 5183.445
531.321, 5194.672
531.803, 5188.371
532.286, 5223.547
532.768, 5248.651
533.250, 5264.231
533.732, 5241.754
534.214, 5267.753
534.696, 5262.777
535.178, 5269.947
535.660, 5317.360
536.142, 5355.006
536.625, 5383.406
537.107, 5374.869
537.589, 5414.025
538.071, 5434.076
538.553, 5453.334
539.035, 5499.207
539.517, 5496.042
539.999, 5541.492
540.481, 5567.533
540.964, 5602.466
541.446, 5614.184
541.928, 5625.068
542.410, 5646.508
542.892, 5681.206
543.374, 5713.152
543.856, 5719.915
544.338, 5713.555
544.820, 5718.000
545.303, 5753.705
545.785, 5793.500
546.267, 5823.044
546.749, 5843.020
547.231, 5864.643
547.713, 5895.049
548.195, 5924.909
548.677, 5947.091
549.159, 5949.014
549.642, 5972.152
550.124, 6024.760
550.606, 6092.177
551.088, 6156.696
551.570, 6214.023
552.052, 6281.688
552.534, 6366.191
553.016, 6462.357
553.499, 6548.944
553.981, 6624.980
554.463, 6706.102
554.945, 6798.681
555.427, 6903.254
555.909, 7025.461
556.391, 7166.417
556.873, 7309.876
557.356, 7433.889
557.838, 7551.769
558.320, 7683.008
558.802, 7833.523
559.284, 7995.471
559.766, 8170.947
560.248, 8354.347
560.730, 8534.827
561.213, 8715.149
561.695, 8881.491
562.177, 9031.747
562.659, 9166.338
563.141, 9270.921
563.623, 9334.629
564.105, 9380.805
564.587, 9427.718
565.069, 9488.213
565.552, 9501.067
566.034, 9458.624
566.516, 9376.358
566.998, 9271.289
567.480, 9144.430
567.962, 9009.225
568.444, 8869.918
568.926, 8725.698
569.408, 8579.632
569.891, 8430.406
570.373, 8282.060
570.855, 8130.285
571.337, 7983.000
571.819, 7846.515
572.301, 7722.567
572.783, 7606.491
573.265, 7491.211
573.747, 7384.502
574.230, 7295.623
574.712, 7251.213
575.194, 7194.186
575.676, 7097.975
576.158, 6984.144
576.640, 6904.527
577.122, 6868.567
577.604, 6853.490
578.086, 6861.262
578.569, 6889.351
579.051, 6889.347
579.533, 6851.735
580.015, 6822.392
580.497, 6839.791
580.979, 6898.071
581.461, 6965.521
581.943, 7043.190
582.426, 7110.132
582.908, 7134.777
583.390, 7131.318
583.872, 7130.988
584.354, 7133.035
584.836, 7155.142
585.318, 7226.199
585.800, 7330.009
586.282, 7418.304
586.765, 7471.369
587.247, 7504.427
587.729, 7525.717
588.211, 7537.518
588.693, 7523.295
589.175, 7460.786
589.657, 7393.125
590.140, 7356.510
590.622, 7377.506
591.104, 7343.438
591.586, 7233.473
592.068, 7086.764
592.550, 6973.633
593.032, 6892.682
593.514, 6795.580
593.996, 6655.935
594.479, 6498.871
594.961, 6373.323
595.443, 6275.837
595.925, 6184.801
596.407, 6083.184
596.889, 5984.484
597.371, 5901.558
597.853, 5836.102
598.335, 5779.376
598.818, 5732.019
599.300, 5689.164
599.782, 5646.013
600.264, 5604.525
600.746, 5559.282
601.228, 5499.648
601.710, 5439.230
602.192, 5405.767
602.674, 5414.416
603.157, 5412.313
603.639, 5381.792
604.121, 5330.546
604.603, 5293.691
605.085, 5272.477
605.567, 5253.550
606.049, 5228.935
606.531, 5200.039
607.013, 5172.325
607.496, 5146.068
607.978, 5116.472
608.460, 5070.842
608.942, 5022.663
609.424, 4990.719
609.906, 4992.382
610.388, 4988.255
610.870, 4953.394
611.353, 4902.375
611.835, 4862.076
612.317, 4853.835
612.799, 4836.960
613.281, 4799.220
613.763, 4744.021
614.245, 4698.913
614.727, 4667.008
615.209, 4638.608
615.692, 4609.328
616.174, 4579.608
616.656, 4550.525
617.138, 4521.931
617.620, 4496.105
618.102, 4480.785
618.584, 4469.907
619.067, 4445.425
619.549, 4399.000
620.031, 4352.367
620.513, 4324.945
620.995, 4310.485
621.477, 4298.783
621.959, 4291.486
622.441, 4280.434
622.923, 4256.427
623.406, 4223.545
623.888, 4204.265
624.370, 4214.988
624.852, 4222.982
625.334, 4215.926
625.816, 4192.456
626.298, 4171.558
626.780, 4152.959
627.263, 4137.619
627.745, 4125.076
628.227, 4115.815
628.709, 4118.246
629.191, 4136.089
629.673, 4154.330
630.155, 4154.975
630.637, 4142.141
631.119, 4124.835
631.602, 4101.060
632.084, 4080.052
632.566, 4066.788
633.048, 4061.308
633.530, 4063.280
634.012, 4075.571
634.494, 4092.553
634.976, 4117.698
635.458, 4150.945
635.941, 4164.703
636.423, 4144.892
636.905, 4125.427
637.387, 4127.883
637.869, 4155.676
638.351, 4178.235
638.833, 4195.037
639.315, 4206.435
639.797, 4209.545
640.280, 4206.969
640.762, 4209.234
641.244, 4219.873
641.726, 4233.423
642.208, 4244.992
642.690, 4255.212
643.172, 4265.837
643.654, 4281.346
644.137, 4293.932
644.619, 4294.012
645.101, 4285.552
645.583, 4292.171
646.065, 4340.409
646.547, 4381.230
647.029, 4395.056
647.511, 4379.326
647.994, 4366.563
648.476, 4352.062
648.958, 4352.216
649.440, 4391.123
649.922, 4463.911
650.404, 4511.389
650.886, 4523.760
651.368, 4527.737
651.851, 4554.324
652.333, 4594.209
652.815, 4628.794
653.297, 4644.438
653.779, 4663.974
654.261, 4708.084
654.743, 4766.421
655.225, 4816.662
655.707, 4847.906
656.190, 4875.350
656.672, 4902.097
657.154, 4928.483
657.636, 4955.651
658.118, 4977.261
658.600, 5012.665
659.082, 5076.570
659.564, 5168.447
660.046, 5251.601
660.529, 5327.313
661.011, 5383.771
661.493, 5387.636
661.975, 5367.005
662.457, 5391.170
662.939, 5478.065
663.421, 5575.056
663.903, 5641.711
664.385, 5694.182
664.868, 5753.191
665.350, 5824.941
665.832, 5904.606
666.314, 5968.577
666.796, 6042.144
667.278, 6186.873
667.760, 6461.599
668.242, 6703.044
668.724, 6861.134
669.207, 6952.292
669.689, 7057.454
670.171, 7178.475
670.653, 7280.273
671.135, 7321.928
671.617, 7331.336
672.099, 7372.578
672.581, 7447.244
673.064, 7559.383
673.546, 7735.615
674.028, 7936.301
674.510, 8124.111
674.992, 8290.301
