##NAMES=Sapphirine
##RRUFFID=R060556
##IDEAL CHEMISTRY=Mg_4_(Mg_3_Al_9_)O_4_[Si_3_Al_9_O_36_]
##LOCALITY=unknown
##OWNER=RRUFF
##SOURCE=Gemological Institute of America
##DESCRIPTION=Dark blue massive
##STATUS=The identification of this mineral has been confirmed by X-ray diffraction and chemical analysis
##URL=rruff.info/R060556
##MEASURED CHEMISTRY=Mg_4_(Mg_3.18_Al_8.52_Fe^2+^_0.32_)O_4_(Si_3.42_Al_8.58_O_36_)
9.059570e+001, 1.142299e+003
9.107782e+001, 1.131711e+003
9.155994e+001, 1.128002e+003
9.204205e+001, 1.134943e+003
9.252417e+001, 1.146271e+003
9.300629e+001, 1.161096e+003
9.348840e+001, 1.172365e+003
9.397052e+001, 1.170748e+003
9.445264e+001, 1.150683e+003
9.493475e+001, 1.125359e+003
9.541687e+001, 1.102038e+003
9.589898e+001, 1.081906e+003
9.638110e+001, 1.063997e+003
9.686321e+001, 1.047490e+003
9.734533e+001, 1.031284e+003
9.782745e+001, 1.013504e+003
9.830956e+001, 9.975955e+002
9.879168e+001, 9.830645e+002
9.927380e+001, 9.705201e+002
9.975591e+001, 9.603339e+002
1.002380e+002, 9.519452e+002
1.007201e+002, 9.444182e+002
1.012023e+002, 9.375311e+002
1.016844e+002, 9.308793e+002
1.021665e+002, 9.232542e+002
1.026486e+002, 9.131992e+002
1.031307e+002, 9.029484e+002
1.036128e+002, 8.943743e+002
1.040950e+002, 8.873593e+002
1.045771e+002, 8.819548e+002
1.050592e+002, 8.785227e+002
1.055413e+002, 8.763406e+002
1.060234e+002, 8.746381e+002
1.065055e+002, 8.733817e+002
1.069877e+002, 8.723409e+002
1.074698e+002, 8.707405e+002
1.079519e+002, 8.691349e+002
1.084340e+002, 8.659572e+002
1.089161e+002, 8.602269e+002
1.093982e+002, 8.524558e+002
1.098804e+002, 8.438871e+002
1.103625e+002, 8.350915e+002
1.108446e+002, 8.255242e+002
1.113267e+002, 8.188359e+002
1.118088e+002, 8.172313e+002
1.122909e+002, 8.164062e+002
1.127731e+002, 8.142780e+002
1.132552e+002, 8.106194e+002
1.137373e+002, 8.066041e+002
1.142194e+002, 8.039749e+002
1.147015e+002, 8.037680e+002
1.151836e+002, 8.031762e+002
1.156658e+002, 8.024603e+002
1.161479e+002, 8.012750e+002
1.166300e+002, 7.991234e+002
1.171121e+002, 7.957855e+002
1.175942e+002, 7.917607e+002
1.180763e+002, 7.882038e+002
1.185584e+002, 7.850905e+002
1.190406e+002, 7.822972e+002
1.195227e+002, 7.798585e+002
1.200048e+002, 7.777259e+002
1.204869e+002, 7.757611e+002
1.209690e+002, 7.739407e+002
1.214511e+002, 7.722482e+002
1.219333e+002, 7.704860e+002
1.224154e+002, 7.682959e+002
1.228975e+002, 7.666232e+002
1.233796e+002, 7.668077e+002
1.238617e+002, 7.691371e+002
1.243438e+002, 7.708309e+002
1.248260e+002, 7.701942e+002
1.253081e+002, 7.683331e+002
1.257902e+002, 7.659822e+002
1.262723e+002, 7.632701e+002
1.267544e+002, 7.603746e+002
1.272365e+002, 7.576115e+002
1.277187e+002, 7.544883e+002
1.282008e+002, 7.524531e+002
1.286829e+002, 7.524881e+002
1.291650e+002, 7.535564e+002
1.296471e+002, 7.542892e+002
1.301292e+002, 7.537885e+002
1.306114e+002, 7.521483e+002
1.310935e+002, 7.507108e+002
1.315756e+002, 7.497094e+002
1.320577e+002, 7.487003e+002
1.325398e+002, 7.478918e+002
1.330219e+002, 7.470342e+002
1.335041e+002, 7.455076e+002
1.339862e+002, 7.425807e+002
1.344683e+002, 7.377595e+002
1.349504e+002, 7.350021e+002
1.354325e+002, 7.352421e+002
1.359146e+002, 7.363388e+002
1.363968e+002, 7.373414e+002
1.368789e+002, 7.380565e+002
1.373610e+002, 7.384915e+002
1.378431e+002, 7.385879e+002
1.383252e+002, 7.382527e+002
1.388073e+002, 7.380159e+002
1.392895e+002, 7.380380e+002
1.397716e+002, 7.381180e+002
1.402537e+002, 7.381962e+002
1.407358e+002, 7.383827e+002
1.412179e+002, 7.380730e+002
1.417000e+002, 7.359924e+002
1.421821e+002, 7.323053e+002
1.426643e+002, 7.290652e+002
1.431464e+002, 7.274033e+002
1.436285e+002, 7.269354e+002
1.441106e+002, 7.261941e+002
1.445927e+002, 7.245001e+002
1.450748e+002, 7.228969e+002
1.455570e+002, 7.222986e+002
1.460391e+002, 7.227139e+002
1.465212e+002, 7.234823e+002
1.470033e+002, 7.240987e+002
1.474854e+002, 7.245499e+002
1.479675e+002, 7.249854e+002
1.484497e+002, 7.259073e+002
1.489318e+002, 7.265049e+002
1.494139e+002, 7.260383e+002
1.498960e+002, 7.244150e+002
1.503781e+002, 7.224968e+002
1.508602e+002, 7.216212e+002
1.513424e+002, 7.223005e+002
1.518245e+002, 7.229521e+002
1.523066e+002, 7.231580e+002
1.527887e+002, 7.234174e+002
1.532708e+002, 7.244158e+002
1.537529e+002, 7.263568e+002
1.542351e+002, 7.285344e+002
1.547172e+002, 7.291575e+002
1.551993e+002, 7.266769e+002
1.556814e+002, 7.243172e+002
1.561635e+002, 7.217021e+002
1.566456e+002, 7.194387e+002
1.571278e+002, 7.184688e+002
1.576099e+002, 7.193313e+002
1.580920e+002, 7.214655e+002
1.585741e+002, 7.224659e+002
1.590562e+002, 7.209553e+002
1.595383e+002, 7.200134e+002
1.600205e+002, 7.206169e+002
1.605026e+002, 7.223629e+002
1.609847e+002, 7.242979e+002
1.614668e+002, 7.258437e+002
1.619489e+002, 7.271915e+002
1.624310e+002, 7.291119e+002
1.629131e+002, 7.326949e+002
1.633953e+002, 7.357863e+002
1.638774e+002, 7.369203e+002
1.643595e+002, 7.362445e+002
1.648416e+002, 7.351756e+002
1.653237e+002, 7.346892e+002
1.658058e+002, 7.343396e+002
1.662880e+002, 7.331323e+002
1.667701e+002, 7.304650e+002
1.672522e+002, 7.272831e+002
1.677343e+002, 7.246035e+002
1.682164e+002, 7.224764e+002
1.686985e+002, 7.206360e+002
1.691807e+002, 7.192041e+002
1.696628e+002, 7.179146e+002
1.701449e+002, 7.164291e+002
1.706270e+002, 7.146237e+002
1.711091e+002, 7.125502e+002
1.715912e+002, 7.102870e+002
1.720734e+002, 7.076894e+002
1.725555e+002, 7.051711e+002
1.730376e+002, 7.027034e+002
1.735197e+002, 7.004159e+002
1.740018e+002, 6.985453e+002
1.744839e+002, 6.973810e+002
1.749661e+002, 6.967400e+002
1.754482e+002, 6.954799e+002
1.759303e+002, 6.928308e+002
1.764124e+002, 6.904023e+002
1.768945e+002, 6.883080e+002
1.773766e+002, 6.867483e+002
1.778588e+002, 6.861342e+002
1.783409e+002, 6.869353e+002
1.788230e+002, 6.891721e+002
1.793051e+002, 6.902599e+002
1.797872e+002, 6.891036e+002
1.802693e+002, 6.878839e+002
1.807515e+002, 6.873824e+002
1.812336e+002, 6.873889e+002
1.817157e+002, 6.872132e+002
1.821978e+002, 6.862335e+002
1.826799e+002, 6.843395e+002
1.831620e+002, 6.826645e+002
1.836441e+002, 6.815450e+002
1.841263e+002, 6.802953e+002
1.846084e+002, 6.782368e+002
1.850905e+002, 6.755593e+002
1.855726e+002, 6.732779e+002
1.860547e+002, 6.724321e+002
1.865368e+002, 6.732838e+002
1.870190e+002, 6.736705e+002
1.875011e+002, 6.732599e+002
1.879832e+002, 6.726443e+002
1.884653e+002, 6.722769e+002
1.889474e+002, 6.722037e+002
1.894296e+002, 6.721335e+002
1.899117e+002, 6.716984e+002
1.903938e+002, 6.709241e+002
1.908759e+002, 6.704901e+002
1.913580e+002, 6.704818e+002
1.918401e+002, 6.708472e+002
1.923223e+002, 6.715891e+002
1.928044e+002, 6.727459e+002
1.932865e+002, 6.740944e+002
1.937686e+002, 6.757011e+002
1.942507e+002, 6.774177e+002
1.947328e+002, 6.786108e+002
1.952150e+002, 6.783473e+002
1.956971e+002, 6.775466e+002
1.961792e+002, 6.781915e+002
1.966613e+002, 6.809309e+002
1.971434e+002, 6.840559e+002
1.976255e+002, 6.864130e+002
1.981077e+002, 6.881682e+002
1.985898e+002, 6.896242e+002
1.990719e+002, 6.906710e+002
1.995540e+002, 6.914846e+002
2.000361e+002, 6.928261e+002
2.005182e+002, 6.948851e+002
2.010004e+002, 6.973022e+002
2.014825e+002, 7.002655e+002
2.019646e+002, 7.034350e+002
2.024467e+002, 7.059456e+002
2.029288e+002, 7.068976e+002
2.034109e+002, 7.064135e+002
2.038930e+002, 7.065162e+002
2.043752e+002, 7.074775e+002
2.048573e+002, 7.088336e+002
2.053394e+002, 7.108008e+002
2.058215e+002, 7.130511e+002
2.063036e+002, 7.148658e+002
2.067857e+002, 7.154304e+002
2.072679e+002, 7.146320e+002
2.077500e+002, 7.148087e+002
2.082321e+002, 7.164294e+002
2.087142e+002, 7.186716e+002
2.091963e+002, 7.215400e+002
2.096784e+002, 7.248658e+002
2.101606e+002, 7.283167e+002
2.106427e+002, 7.315399e+002
2.111248e+002, 7.343997e+002
2.116069e+002, 7.380815e+002
2.120890e+002, 7.435459e+002
2.125711e+002, 7.488459e+002
2.130533e+002, 7.528513e+002
2.135354e+002, 7.558829e+002
2.140175e+002, 7.592306e+002
2.144996e+002, 7.641589e+002
2.149817e+002, 7.710136e+002
2.154638e+002, 7.770873e+002
2.159460e+002, 7.824505e+002
2.164281e+002, 7.871987e+002
2.169102e+002, 7.910780e+002
2.173923e+002, 7.942729e+002
2.178744e+002, 7.976735e+002
2.183565e+002, 8.024220e+002
2.188387e+002, 8.089074e+002
2.193208e+002, 8.117234e+002
2.198029e+002, 8.090275e+002
2.202850e+002, 8.046752e+002
2.207671e+002, 8.011856e+002
2.212492e+002, 7.985302e+002
2.217314e+002, 7.947501e+002
2.222135e+002, 7.876740e+002
2.226956e+002, 7.770764e+002
2.231777e+002, 7.688431e+002
2.236598e+002, 7.650961e+002
2.241419e+002, 7.621146e+002
2.246240e+002, 7.567923e+002
2.251062e+002, 7.490589e+002
2.255883e+002, 7.415325e+002
2.260704e+002, 7.365511e+002
2.265525e+002, 7.338553e+002
2.270346e+002, 7.305316e+002
2.275167e+002, 7.255270e+002
2.279989e+002, 7.203848e+002
2.284810e+002, 7.165812e+002
2.289631e+002, 7.142086e+002
2.294452e+002, 7.125202e+002
2.299273e+002, 7.114218e+002
2.304094e+002, 7.106190e+002
2.308916e+002, 7.092792e+002
2.313737e+002, 7.071699e+002
2.318558e+002, 7.045183e+002
2.323379e+002, 7.014377e+002
2.328200e+002, 6.978640e+002
2.333021e+002, 6.943162e+002
2.337843e+002, 6.912897e+002
2.342664e+002, 6.884575e+002
2.347485e+002, 6.852412e+002
2.352306e+002, 6.810035e+002
2.357127e+002, 6.767365e+002
2.361948e+002, 6.741042e+002
2.366770e+002, 6.735822e+002
2.371591e+002, 6.726529e+002
2.376412e+002, 6.692559e+002
2.381233e+002, 6.649507e+002
2.386054e+002, 6.613311e+002
2.390875e+002, 6.587950e+002
2.395697e+002, 6.572868e+002
2.400518e+002, 6.572238e+002
2.405339e+002, 6.594149e+002
2.410160e+002, 6.604149e+002
2.414981e+002, 6.574384e+002
2.419802e+002, 6.532802e+002
2.424624e+002, 6.507086e+002
2.429445e+002, 6.508873e+002
2.434266e+002, 6.523338e+002
2.439087e+002, 6.523909e+002
2.443908e+002, 6.503908e+002
2.448729e+002, 6.488168e+002
2.453550e+002, 6.486569e+002
2.458372e+002, 6.490191e+002
2.463193e+002, 6.492703e+002
2.468014e+002, 6.492118e+002
2.472835e+002, 6.487849e+002
2.477656e+002, 6.477180e+002
2.482477e+002, 6.454787e+002
2.487299e+002, 6.439082e+002
2.492120e+002, 6.439817e+002
2.496941e+002, 6.443816e+002
2.501762e+002, 6.439641e+002
2.506583e+002, 6.424047e+002
2.511404e+002, 6.404735e+002
2.516226e+002, 6.394728e+002
2.521047e+002, 6.397946e+002
2.525868e+002, 6.402256e+002
2.530689e+002, 6.405078e+002
2.535510e+002, 6.409294e+002
2.540331e+002, 6.418361e+002
2.545153e+002, 6.432623e+002
2.549974e+002, 6.447976e+002
2.554795e+002, 6.458066e+002
2.559616e+002, 6.460516e+002
2.564437e+002, 6.462482e+002
2.569258e+002, 6.458074e+002
2.574080e+002, 6.457503e+002
2.578901e+002, 6.472050e+002
2.583722e+002, 6.501436e+002
2.588543e+002, 6.532010e+002
2.593364e+002, 6.544426e+002
2.598185e+002, 6.529462e+002
2.603007e+002, 6.518929e+002
2.607828e+002, 6.513713e+002
2.612649e+002, 6.511088e+002
2.617470e+002, 6.513584e+002
2.622291e+002, 6.519069e+002
2.627112e+002, 6.518918e+002
2.631934e+002, 6.502569e+002
2.636755e+002, 6.465402e+002
2.641576e+002, 6.427479e+002
2.646397e+002, 6.388079e+002
2.651218e+002, 6.348766e+002
2.656039e+002, 6.310793e+002
2.660861e+002, 6.274098e+002
2.665682e+002, 6.237299e+002
2.670503e+002, 6.198611e+002
2.675324e+002, 6.157076e+002
2.680145e+002, 6.121115e+002
2.684966e+002, 6.094747e+002
2.689788e+002, 6.069085e+002
2.694609e+002, 6.039368e+002
2.699430e+002, 6.006277e+002
2.704251e+002, 5.973493e+002
2.709072e+002, 5.943828e+002
2.713893e+002, 5.917520e+002
2.718715e+002, 5.893489e+002
2.723536e+002, 5.869344e+002
2.728357e+002, 5.849219e+002
2.733178e+002, 5.834840e+002
2.737999e+002, 5.825965e+002
2.742820e+002, 5.822168e+002
2.747642e+002, 5.823678e+002
2.752463e+002, 5.830030e+002
2.757284e+002, 5.835615e+002
2.762105e+002, 5.844152e+002
2.766926e+002, 5.848281e+002
2.771747e+002, 5.842547e+002
2.776568e+002, 5.830455e+002
2.781389e+002, 5.818967e+002
2.786211e+002, 5.811217e+002
2.791032e+002, 5.807823e+002
2.795853e+002, 5.812404e+002
2.800674e+002, 5.836973e+002
2.805495e+002, 5.853953e+002
2.810316e+002, 5.850361e+002
2.815138e+002, 5.835287e+002
2.819959e+002, 5.824606e+002
2.824780e+002, 5.825173e+002
2.829601e+002, 5.833837e+002
2.834422e+002, 5.843495e+002
2.839243e+002, 5.857635e+002
2.844065e+002, 5.866520e+002
2.848886e+002, 5.865264e+002
2.853707e+002, 5.858328e+002
2.858528e+002, 5.851357e+002
2.863349e+002, 5.845891e+002
2.868170e+002, 5.842767e+002
2.872992e+002, 5.844197e+002
2.877813e+002, 5.851715e+002
2.882634e+002, 5.858060e+002
2.887455e+002, 5.860255e+002
2.892276e+002, 5.861410e+002
2.897097e+002, 5.865639e+002
2.901919e+002, 5.873947e+002
2.906740e+002, 5.883529e+002
2.911561e+002, 5.890178e+002
2.916382e+002, 5.892883e+002
2.921203e+002, 5.901110e+002
2.926024e+002, 5.920406e+002
2.930846e+002, 5.943038e+002
2.935667e+002, 5.961091e+002
2.940488e+002, 5.973660e+002
2.945309e+002, 5.985439e+002
2.950130e+002, 6.001303e+002
2.954951e+002, 6.021234e+002
2.959773e+002, 6.037872e+002
2.964594e+002, 6.046033e+002
2.969415e+002, 6.054340e+002
2.974236e+002, 6.070088e+002
2.979057e+002, 6.093082e+002
2.983878e+002, 6.118145e+002
2.988700e+002, 6.142223e+002
2.993521e+002, 6.165252e+002
2.998342e+002, 6.187814e+002
3.003163e+002, 6.210579e+002
3.007984e+002, 6.232076e+002
3.012805e+002, 6.253341e+002
3.017627e+002, 6.273339e+002
3.022448e+002, 6.288117e+002
3.027269e+002, 6.296068e+002
3.032090e+002, 6.296639e+002
3.036911e+002, 6.289717e+002
3.041732e+002, 6.273635e+002
3.046554e+002, 6.253929e+002
3.051375e+002, 6.234963e+002
3.056196e+002, 6.214435e+002
3.061017e+002, 6.185012e+002
3.065838e+002, 6.142047e+002
3.070659e+002, 6.092519e+002
3.075481e+002, 6.050768e+002
3.080302e+002, 6.018563e+002
3.085123e+002, 5.985116e+002
3.089944e+002, 5.941101e+002
3.094765e+002, 5.894828e+002
3.099586e+002, 5.863554e+002
3.104408e+002, 5.853820e+002
3.109229e+002, 5.850673e+002
3.114050e+002, 5.832081e+002
3.118871e+002, 5.797147e+002
3.123692e+002, 5.770598e+002
3.128513e+002, 5.761458e+002
3.133335e+002, 5.761268e+002
3.138156e+002, 5.762360e+002
3.142977e+002, 5.763884e+002
3.147798e+002, 5.760726e+002
3.152619e+002, 5.743680e+002
3.157440e+002, 5.714481e+002
3.162262e+002, 5.698896e+002
3.167083e+002, 5.708548e+002
3.171904e+002, 5.725816e+002
3.176725e+002, 5.738245e+002
3.181546e+002, 5.745211e+002
3.186367e+002, 5.747205e+002
3.191188e+002, 5.742129e+002
3.196010e+002, 5.732526e+002
3.200831e+002, 5.730055e+002
3.205652e+002, 5.738903e+002
3.210473e+002, 5.750433e+002
3.215294e+002, 5.761263e+002
3.220115e+002, 5.771171e+002
3.224937e+002, 5.779210e+002
3.229758e+002, 5.784305e+002
3.234579e+002, 5.787957e+002
3.239400e+002, 5.794193e+002
3.244221e+002, 5.804997e+002
3.249042e+002, 5.813838e+002
3.253864e+002, 5.817833e+002
3.258685e+002, 5.818425e+002
3.263506e+002, 5.817356e+002
3.268327e+002, 5.814444e+002
3.273148e+002, 5.812828e+002
3.277969e+002, 5.819661e+002
3.282791e+002, 5.837445e+002
3.287612e+002, 5.848214e+002
3.292433e+002, 5.841369e+002
3.297254e+002, 5.829152e+002
3.302075e+002, 5.828776e+002
3.306896e+002, 5.843219e+002
3.311718e+002, 5.856094e+002
3.316539e+002, 5.848596e+002
3.321360e+002, 5.818738e+002
3.326181e+002, 5.798975e+002
3.331002e+002, 5.798308e+002
3.335823e+002, 5.802076e+002
3.340645e+002, 5.798943e+002
3.345466e+002, 5.789311e+002
3.350287e+002, 5.781685e+002
3.355108e+002, 5.784011e+002
3.359929e+002, 5.793307e+002
3.364750e+002, 5.789061e+002
3.369572e+002, 5.760225e+002
3.374393e+002, 5.731049e+002
3.379214e+002, 5.711204e+002
3.384035e+002, 5.698696e+002
3.388856e+002, 5.688978e+002
3.393677e+002, 5.680150e+002
3.398499e+002, 5.672299e+002
3.403320e+002, 5.666025e+002
3.408141e+002, 5.662723e+002
3.412962e+002, 5.658222e+002
3.417783e+002, 5.650199e+002
3.422604e+002, 5.641075e+002
3.427426e+002, 5.635088e+002
3.432247e+002, 5.633490e+002
3.437068e+002, 5.631720e+002
3.441889e+002, 5.622763e+002
3.446710e+002, 5.602127e+002
3.451531e+002, 5.587714e+002
3.456353e+002, 5.583720e+002
3.461174e+002, 5.583280e+002
3.465995e+002, 5.581472e+002
3.470816e+002, 5.577838e+002
3.475637e+002, 5.574587e+002
3.480458e+002, 5.574360e+002
3.485280e+002, 5.577490e+002
3.490101e+002, 5.574362e+002
3.494922e+002, 5.555858e+002
3.499743e+002, 5.541328e+002
3.504564e+002, 5.542886e+002
3.509385e+002, 5.555139e+002
3.514207e+002, 5.564670e+002
3.519028e+002, 5.563331e+002
3.523849e+002, 5.554034e+002
3.528670e+002, 5.549222e+002
3.533491e+002, 5.554702e+002
3.538312e+002, 5.557480e+002
3.543134e+002, 5.551292e+002
3.547955e+002, 5.543456e+002
3.552776e+002, 5.544235e+002
3.557597e+002, 5.556926e+002
3.562418e+002, 5.573815e+002
3.567239e+002, 5.581533e+002
3.572061e+002, 5.572772e+002
3.576882e+002, 5.569488e+002
3.581703e+002, 5.576631e+002
3.586524e+002, 5.584980e+002
3.591345e+002, 5.587170e+002
3.596166e+002, 5.583350e+002
3.600987e+002, 5.579568e+002
3.605808e+002, 5.582236e+002
3.610630e+002, 5.592476e+002
3.615451e+002, 5.598005e+002
3.620272e+002, 5.595513e+002
3.625093e+002, 5.592062e+002
3.629914e+002, 5.586400e+002
3.634735e+002, 5.581778e+002
3.639557e+002, 5.584725e+002
3.644378e+002, 5.599877e+002
3.649199e+002, 5.623547e+002
3.654020e+002, 5.640049e+002
3.658841e+002, 5.646456e+002
3.663662e+002, 5.648866e+002
3.668484e+002, 5.643818e+002
3.673305e+002, 5.637495e+002
3.678126e+002, 5.637225e+002
3.682947e+002, 5.644942e+002
3.687768e+002, 5.654604e+002
3.692589e+002, 5.656044e+002
3.697411e+002, 5.645026e+002
3.702232e+002, 5.637283e+002
3.707053e+002, 5.633641e+002
3.711874e+002, 5.632854e+002
3.716695e+002, 5.634973e+002
3.721516e+002, 5.639557e+002
3.726338e+002, 5.645746e+002
3.731159e+002, 5.654288e+002
3.735980e+002, 5.664884e+002
3.740801e+002, 5.667305e+002
3.745622e+002, 5.652412e+002
3.750443e+002, 5.640365e+002
3.755265e+002, 5.640616e+002
3.760086e+002, 5.647244e+002
3.764907e+002, 5.650342e+002
3.769728e+002, 5.644153e+002
3.774549e+002, 5.634023e+002
3.779370e+002, 5.633079e+002
3.784192e+002, 5.645751e+002
3.789013e+002, 5.655027e+002
3.793834e+002, 5.654691e+002
3.798655e+002, 5.650161e+002
3.803476e+002, 5.644059e+002
3.808297e+002, 5.637011e+002
3.813119e+002, 5.631697e+002
3.817940e+002, 5.632721e+002
3.822761e+002, 5.639888e+002
3.827582e+002, 5.642037e+002
3.832403e+002, 5.632512e+002
3.837224e+002, 5.624013e+002
3.842046e+002, 5.626432e+002
3.846867e+002, 5.637273e+002
3.851688e+002, 5.647356e+002
3.856509e+002, 5.653276e+002
3.861330e+002, 5.654702e+002
3.866151e+002, 5.648770e+002
3.870973e+002, 5.632658e+002
3.875794e+002, 5.619352e+002
3.880615e+002, 5.618350e+002
3.885436e+002, 5.624288e+002
3.890257e+002, 5.630247e+002
3.895078e+002, 5.635110e+002
3.899900e+002, 5.639346e+002
3.904721e+002, 5.643632e+002
3.909542e+002, 5.647811e+002
3.914363e+002, 5.650528e+002
3.919184e+002, 5.650922e+002
3.924005e+002, 5.650120e+002
3.928827e+002, 5.649977e+002
3.933648e+002, 5.650670e+002
3.938469e+002, 5.650265e+002
3.943290e+002, 5.646613e+002
3.948111e+002, 5.641890e+002
3.952932e+002, 5.640797e+002
3.957754e+002, 5.644492e+002
3.962575e+002, 5.646347e+002
3.967396e+002, 5.637507e+002
3.972217e+002, 5.619865e+002
3.977038e+002, 5.613436e+002
3.981859e+002, 5.631249e+002
3.986681e+002, 5.649825e+002
3.991501e+002, 5.653044e+002
3.996323e+002, 5.643632e+002
4.001144e+002, 5.632558e+002
4.005965e+002, 5.625182e+002
4.010786e+002, 5.619843e+002
4.015607e+002, 5.611685e+002
4.020428e+002, 5.598731e+002
4.025250e+002, 5.586816e+002
4.030071e+002, 5.574407e+002
4.034892e+002, 5.564667e+002
4.039713e+002, 5.564623e+002
4.044534e+002, 5.574953e+002
4.049355e+002, 5.583914e+002
4.054177e+002, 5.575955e+002
4.058998e+002, 5.544822e+002
4.063819e+002, 5.529185e+002
4.068640e+002, 5.542609e+002
4.073461e+002, 5.556591e+002
4.078282e+002, 5.555557e+002
4.083104e+002, 5.543320e+002
4.087925e+002, 5.532191e+002
4.092746e+002, 5.529924e+002
4.097567e+002, 5.534444e+002
4.102388e+002, 5.536126e+002
4.107209e+002, 5.534778e+002
4.112031e+002, 5.530414e+002
4.116852e+002, 5.520285e+002
4.121673e+002, 5.508711e+002
4.126494e+002, 5.499869e+002
4.131315e+002, 5.494776e+002
4.136136e+002, 5.491358e+002
4.140958e+002, 5.486605e+002
4.145779e+002, 5.479551e+002
4.150600e+002, 5.475008e+002
4.155421e+002, 5.480247e+002
