##NAMES=Sapphirine
##RRUFFID=R100143
##IDEAL CHEMISTRY=Mg_4_(Mg_3_Al_9_)O_4_[Si_3_Al_9_O_36_]
##LOCALITY=Unknown
##OWNER=RRUFF
##SOURCE=William W. Pinch
##DESCRIPTION=Pale purple cut gemstones
##STATUS=The identification of this mineral has been confirmed by single-crystal X-ray diffraction.
##URL=rruff.info/R100143
91.03516, 254.5619
91.51727, 254.4460
91.99939, 254.9913
92.48151, 255.7900
92.96362, 255.6805
93.44574, 252.8099
93.92786, 248.7393
94.40997, 247.1368
94.89210, 248.7095
95.37421, 251.3826
95.85633, 252.3046
96.33845, 251.5222
96.82056, 249.7786
97.30268, 246.7309
97.78480, 242.6481
98.26691, 240.4131
98.74903, 240.9527
99.23115, 243.1399
99.71326, 243.5234
100.1954, 241.6695
100.6775, 239.6628
101.1596, 239.4830
101.6417, 241.6807
102.1239, 242.9411
102.6060, 242.3340
103.0881, 240.0140
103.5702, 238.8393
104.0523, 239.3721
104.5344, 240.3519
105.0166, 240.4205
105.4987, 239.1149
105.9808, 237.7082
106.4629, 236.4366
106.9450, 235.2594
107.4271, 234.3414
107.9093, 233.5099
108.3914, 232.9930
108.8735, 233.1377
109.3556, 234.8436
109.8377, 236.3734
110.3198, 237.2087
110.8020, 236.8279
111.2841, 236.7485
111.7662, 237.6828
112.2483, 238.9635
112.7304, 239.1309
113.2125, 237.1778
113.6947, 234.6511
114.1768, 232.2352
114.6589, 229.3401
115.1410, 227.4094
115.6231, 227.2350
116.1052, 228.4391
116.5874, 229.5900
117.0695, 230.3304
117.5516, 230.7558
118.0337, 230.9340
118.5158, 231.0238
118.9980, 230.7551
119.4801, 229.5891
119.9622, 227.6496
120.4443, 226.3027
120.9264, 227.1659
121.4085, 228.8423
121.8907, 229.6141
122.3728, 227.4342
122.8549, 224.9238
123.3370, 224.5815
123.8191, 226.5551
124.3012, 228.6226
124.7834, 228.8014
125.2655, 227.7365
125.7476, 226.8063
126.2297, 227.1291
126.7118, 227.8432
127.1939, 227.6560
127.6761, 226.4129
128.1582, 224.6475
128.6403, 221.8417
129.1224, 218.5415
129.6045, 217.3796
130.0867, 222.2457
130.5688, 230.8158
131.0509, 234.8704
131.5330, 232.8219
132.0151, 227.9789
132.4972, 225.3399
132.9794, 224.9060
133.4615, 226.2392
133.9436, 229.9334
134.4257, 235.7806
134.9078, 240.2360
135.3899, 242.2359
135.8721, 243.0359
136.3542, 246.4837
136.8363, 252.9606
137.3184, 260.4242
137.8005, 267.2960
138.2826, 273.5822
138.7648, 279.6352
139.2469, 285.2812
139.7290, 290.7199
140.2111, 297.0378
140.6932, 304.3833
141.1753, 312.4357
141.6575, 320.9572
142.1396, 330.3646
142.6217, 339.3808
143.1038, 347.9431
143.5859, 356.1782
144.0681, 362.6166
144.5502, 366.3146
145.0323, 369.1071
145.5144, 373.1267
145.9965, 378.4783
146.4786, 384.8670
146.9608, 391.9570
147.4429, 399.6011
147.9250, 409.1659
148.4071, 422.6896
148.8892, 437.4073
149.3713, 448.8578
149.8535, 451.7646
150.3356, 456.7609
150.8177, 467.0266
151.2998, 485.1366
151.7819, 502.9544
152.2640, 521.3264
152.7462, 539.3954
153.2283, 555.2523
153.7104, 566.4997
154.1925, 577.3963
154.6746, 589.4999
155.1567, 604.0035
155.6389, 617.5549
156.1210, 629.3295
156.6031, 639.8873
157.0852, 650.7418
157.5673, 663.3913
158.0495, 675.5240
158.5316, 685.9432
159.0137, 692.3929
159.4958, 699.9427
159.9779, 710.3663
160.4600, 723.0695
160.9422, 736.1114
161.4243, 748.9559
161.9064, 761.8546
162.3885, 774.9040
162.8706, 788.1129
163.3527, 801.7106
163.8349, 816.3602
164.3170, 831.7863
164.7991, 846.6727
165.2812, 862.0693
165.7633, 875.9290
166.2454, 886.3348
166.7276, 890.1501
167.2097, 892.6662
167.6918, 896.7991
168.1739, 902.3895
168.6560, 908.4066
169.1381, 915.4473
169.6203, 921.8992
170.1024, 920.1097
170.5845, 910.4257
171.0666, 900.8597
171.5487, 896.2986
172.0309, 896.3622
172.5130, 895.9254
172.9951, 891.7675
173.4772, 884.8046
173.9593, 876.3864
174.4414, 866.2136
174.9236, 855.3438
175.4057, 844.9167
175.8878, 834.8231
176.3699, 825.2656
176.8520, 816.9893
177.3341, 809.2785
177.8163, 800.5473
178.2984, 788.9235
178.7805, 776.3502
179.2626, 765.6420
179.7447, 757.0380
180.2268, 749.7909
180.7090, 744.0146
181.1911, 739.2582
181.6732, 734.1960
182.1553, 726.9794
182.6374, 719.2080
183.1195, 715.0505
183.6017, 714.9802
184.0838, 715.9584
184.5659, 714.2922
185.0480, 710.4439
185.5301, 706.6572
186.0123, 703.9386
186.4944, 702.1041
186.9765, 700.6639
187.4586, 699.5358
187.9407, 698.9221
188.4228, 699.5966
188.9050, 701.3896
189.3871, 702.5663
189.8692, 701.9274
190.3513, 699.8137
190.8334, 697.7467
191.3155, 695.6718
191.7977, 694.0163
192.2798, 693.6129
192.7619, 694.4603
193.2440, 695.6575
193.7261, 697.0023
194.2082, 698.4434
194.6904, 699.1158
195.1725, 698.6374
195.6546, 698.0479
196.1367, 699.6013
196.6188, 703.4589
197.1009, 707.3350
197.5831, 709.8524
198.0652, 711.0391
198.5473, 712.3186
199.0294, 713.4001
199.5115, 715.1005
199.9937, 719.6840
200.4758, 727.5256
200.9579, 735.3788
201.4400, 741.1243
201.9221, 744.5616
202.4042, 748.7679
202.8864, 754.2228
203.3685, 760.2154
203.8506, 764.7169
204.3327, 767.1506
204.8148, 770.2261
205.2969, 775.8606
205.7791, 784.5488
206.2612, 792.1075
206.7433, 798.0663
207.2254, 802.9407
207.7075, 807.8585
208.1896, 812.6560
208.6718, 818.0162
209.1539, 824.4928
209.6360, 832.2156
210.1181, 840.1789
210.6002, 848.5784
211.0823, 857.0706
211.5645, 864.5811
212.0466, 870.8690
212.5287, 876.8746
213.0108, 883.0724
213.4929, 889.5409
213.9750, 896.0843
214.4572, 902.7269
214.9393, 909.4187
215.4214, 916.3455
215.9035, 923.8984
216.3856, 930.9377
216.8678, 936.7475
217.3499, 941.3361
217.8320, 944.9291
218.3141, 947.6424
218.7962, 949.2869
219.2783, 949.3864
219.7605, 948.3439
220.2426, 944.9702
220.7247, 937.9785
221.2068, 925.3343
221.6889, 915.0912
222.1710, 908.7307
222.6532, 904.7518
223.1353, 898.6122
223.6174, 889.4426
224.0995, 879.4870
224.5816, 869.5284
225.0637, 858.4434
225.5459, 850.1782
226.0280, 845.9974
226.5101, 844.4406
226.9922, 840.9379
227.4743, 833.7634
227.9564, 827.3093
228.4386, 824.1049
228.9207, 826.6980
229.4028, 826.3135
229.8849, 821.4514
230.3670, 813.8571
230.8492, 808.2960
231.3313, 805.4947
231.8134, 803.6940
232.2955, 802.3555
232.7776, 802.4981
233.2597, 800.7125
233.7419, 796.2261
234.2240, 790.0237
234.7061, 784.6864
235.1882, 780.1364
235.6703, 776.6010
236.1524, 774.2972
236.6346, 773.9607
237.1167, 773.2209
237.5988, 771.9982
238.0809, 770.4079
238.5630, 768.6326
239.0451, 766.4219
239.5273, 764.3998
240.0094, 762.7950
240.4915, 761.6053
240.9736, 760.8760
241.4557, 761.1561
241.9378, 761.6264
242.4200, 760.2783
242.9021, 755.0658
243.3842, 751.1987
243.8663, 751.2432
244.3484, 757.5949
244.8306, 760.5308
245.3127, 758.6623
245.7948, 754.1028
246.2769, 750.6586
246.7590, 748.6866
247.2411, 747.3058
247.7233, 746.4714
248.2054, 746.6686
248.6875, 745.4506
249.1696, 741.7891
249.6517, 737.4266
250.1338, 735.3200
250.6160, 736.4808
251.0981, 738.1188
251.5802, 739.6508
252.0623, 741.3729
252.5444, 741.3334
253.0265, 738.3707
253.5087, 734.6075
253.9908, 733.2789
254.4729, 735.6024
254.9550, 737.8995
255.4371, 739.3381
255.9192, 739.9539
256.4014, 739.1068
256.8835, 735.5647
257.3656, 731.7810
257.8477, 731.1412
258.3298, 735.7501
258.8120, 738.7205
259.2941, 737.8662
259.7762, 732.8779
260.2583, 729.2831
260.7404, 727.8942
261.2225, 726.8262
261.7047, 723.7719
262.1868, 717.7258
262.6689, 712.3024
263.1510, 708.5406
263.6331, 706.3939
264.1152, 702.9200
264.5974, 697.5758
265.0795, 691.7695
265.5616, 687.1198
266.0437, 684.0324
266.5258, 680.4847
267.0079, 675.7907
267.4901, 670.1794
267.9722, 666.3108
268.4543, 664.9776
268.9364, 663.7570
269.4185, 660.1484
269.9006, 653.1738
270.3828, 648.2298
270.8649, 646.6222
271.3470, 647.5941
271.8291, 647.5388
272.3112, 646.2262
272.7933, 644.4370
273.2755, 642.6124
273.7576, 640.6805
274.2397, 639.1046
274.7218, 638.0341
275.2039, 637.2940
275.6860, 636.1987
276.1682, 634.5075
276.6503, 633.3284
277.1324, 633.8807
277.6145, 636.4093
278.0966, 637.2178
278.5787, 635.4200
279.0609, 632.5114
279.5430, 632.1917
280.0251, 634.9587
280.5072, 637.3724
280.9893, 637.1924
281.4715, 634.4464
281.9536, 632.3664
282.4357, 630.9944
282.9178, 630.4982
283.3999, 631.5248
283.8820, 634.1510
284.3642, 636.7145
284.8463, 638.1890
285.3284, 638.7075
285.8105, 640.0748
286.2926, 642.5213
286.7747, 645.0612
287.2569, 645.9810
287.7390, 645.3508
288.2211, 645.2716
288.7032, 647.1326
289.1853, 650.3213
289.6674, 651.7881
290.1496, 651.2936
290.6317, 650.7343
291.1138, 652.5934
291.5959, 656.5408
292.0780, 660.1578
292.5602, 662.6179
293.0423, 664.2659
293.5244, 665.7432
294.0065, 667.0266
294.4886, 668.6719
294.9707, 671.7853
295.4529, 675.8438
295.9350, 678.7969
296.4171, 679.6681
296.8992, 679.6119
297.3813, 680.6796
297.8634, 682.7867
298.3456, 685.0646
298.8277, 686.5237
299.3098, 687.6612
299.7919, 689.6791
300.2740, 693.0996
300.7561, 696.9835
301.2383, 700.3411
301.7204, 703.1622
302.2025, 705.1513
302.6846, 705.4558
303.1667, 705.0247
303.6488, 705.4437
304.1310, 707.2030
304.6131, 709.0332
305.0952, 709.9110
305.5773, 709.8718
306.0594, 709.0169
306.5415, 706.0506
307.0237, 702.9570
307.5058, 702.0433
307.9879, 703.7471
308.4700, 706.1349
308.9521, 708.4404
309.4343, 710.3510
309.9164, 711.3861
310.3985, 710.7874
310.8806, 709.6114
311.3627, 708.4720
311.8448, 707.3859
312.3270, 706.7092
312.8091, 706.6542
313.2912, 707.1273
313.7733, 708.0180
314.2554, 709.7028
314.7375, 711.4393
315.2197, 712.8381
315.7018, 713.9372
316.1839, 714.9711
316.6660, 715.8321
317.1481, 716.7928
317.6302, 718.1016
318.1124, 720.5505
318.5945, 722.4526
319.0766, 722.2075
319.5587, 720.7185
320.0408, 721.0989
320.5229, 727.1240
321.0051, 733.3228
321.4872, 736.3320
321.9693, 733.1119
322.4514, 731.3879
322.9335, 732.7803
323.4156, 736.6988
323.8978, 742.0059
324.3799, 751.1616
324.8620, 759.3690
325.3441, 764.8134
325.8262, 766.6500
326.3083, 767.8203
326.7905, 767.5803
327.2726, 767.1057
327.7547, 767.8399
328.2368, 771.3569
328.7189, 774.4971
329.2010, 776.4318
329.6832, 776.9739
330.1653, 778.2711
330.6474, 781.6909
331.1295, 784.8795
331.6116, 785.7068
332.0938, 781.0346
332.5759, 779.1530
333.0580, 782.8334
333.5401, 790.8998
334.0222, 793.9174
334.5043, 788.7285
334.9865, 782.8815
335.4686, 781.2157
335.9507, 785.9434
336.4328, 788.7912
336.9149, 788.9377
337.3970, 787.1358
337.8792, 785.2100
338.3613, 782.8918
338.8434, 781.1331
339.3255, 780.6085
339.8076, 781.5776
340.2898, 781.6501
340.7719, 780.4342
341.2540, 779.0195
341.7361, 779.4619
342.2182, 782.0544
342.7003, 783.6716
343.1825, 782.8876
343.6646, 780.0873
344.1467, 777.6810
344.6288, 775.5713
345.1109, 774.2253
345.5930, 774.4232
346.0752, 776.0135
346.5573, 777.5533
347.0394, 778.8123
347.5215, 779.7009
348.0036, 779.6771
348.4857, 778.7690
348.9679, 778.3065
349.4500, 780.0433
349.9321, 783.0558
350.4142, 784.3677
350.8963, 782.9979
351.3784, 781.1780
351.8606, 782.3564
352.3427, 785.7584
352.8248, 788.5462
353.3069, 788.1846
353.7890, 786.5976
354.2711, 786.5593
354.7533, 788.4152
355.2354, 790.5916
355.7175, 792.1807
356.1996, 793.1100
356.6817, 793.2507
357.1638, 790.9222
357.6460, 788.9634
358.1281, 790.0218
358.6102, 793.8871
359.0923, 797.7651
359.5744, 799.9443
360.0565, 801.3942
360.5387, 803.0538
361.0208, 805.3038
361.5029, 807.6707
361.9850, 809.9156
362.4671, 812.0991
362.9492, 814.3752
363.4314, 816.4880
363.9135, 818.9366
364.3956, 822.2454
364.8777, 827.3624
365.3598, 831.2572
365.8419, 831.6834
366.3241, 830.8646
366.8062, 832.1341
367.2883, 837.2734
367.7704, 843.2687
368.2526, 849.6592
368.7347, 856.6590
369.2168, 862.7339
369.6989, 867.2249
370.1810, 871.2106
370.6631, 875.6268
371.1453, 880.8085
371.6274, 885.9384
372.1095, 891.0023
372.5916, 895.9993
373.0737, 900.6807
373.5558, 904.7123
374.0380, 908.9757
374.5201, 914.2342
375.0022, 921.0687
375.4843, 926.7162
375.9664, 930.7614
376.4485, 933.8593
376.9307, 937.2181
377.4128, 940.6841
377.8949, 944.9576
378.3770, 950.6423
378.8591, 957.6065
379.3412, 963.9687
379.8234, 969.8336
380.3055, 974.5372
380.7876, 976.6156
381.2697, 976.2565
381.7518, 976.4355
382.2339, 978.0140
382.7161, 980.5690
383.1982, 983.3920
383.6803, 986.4467
384.1624, 989.2851
384.6445, 991.3457
385.1266, 992.9180
385.6088, 994.6778
386.0909, 996.6876
386.5730, 999.0148
387.0551, 1002.070
387.5372, 1005.535
388.0193, 1008.543
388.5015, 1010.183
388.9836, 1011.343
389.4657, 1012.763
389.9478, 1014.464
390.4299, 1016.884
390.9120, 1020.840
391.3942, 1025.527
391.8763, 1029.908
392.3584, 1034.002
392.8405, 1037.346
393.3226, 1039.046
393.8047, 1039.547
394.2869, 1040.878
394.7690, 1044.641
395.2511, 1048.928
395.7332, 1052.474
396.2154, 1054.431
396.6975, 1057.000
397.1796, 1061.635
397.6617, 1067.053
398.1438, 1071.026
398.6259, 1071.789
399.1081, 1072.547
399.5902, 1074.366
400.0723, 1077.520
400.5544, 1079.835
401.0365, 1080.893
401.5186, 1081.399
402.0008, 1081.792
402.4829, 1081.369
402.9650, 1082.198
403.4471, 1085.042
403.9292, 1089.308
404.4113, 1092.562
404.8935, 1094.896
405.3756, 1096.078
405.8577, 1095.877
406.3398, 1094.198
406.8219, 1091.682
407.3040, 1087.865
407.7862, 1084.138
408.2683, 1082.972
408.7504, 1084.478
409.2325, 1085.260
409.7146, 1083.477
410.1967, 1080.288
410.6789, 1079.876
411.1610, 1082.348
411.6431, 1085.107
412.1252, 1086.344
412.6073, 1086.115
413.0894, 1084.300
413.5716, 1080.521
414.0537, 1076.023
414.5358, 1071.425
415.0179, 1067.199
415.5000, 1064.760
415.9821, 1067.068
416.4643, 1070.372
416.9464, 1070.533
417.4285, 1067.076
417.9106, 1062.764
418.3927, 1058.710
418.8748, 1055.010
419.3570, 1051.857
419.8391, 1049.490
420.3212, 1047.466
420.8033, 1045.917
421.2854, 1044.669
421.7675, 1042.864
422.2497, 1039.957
422.7318, 1036.663
423.2139, 1033.422
423.6960, 1030.540
424.1781, 1027.215
424.6602, 1022.777
425.1424, 1018.036
425.6245, 1014.212
426.1066, 1011.676
426.5887, 1009.673
427.0709, 1008.387
427.5530, 1007.811
428.0351, 1006.184
428.5172, 1002.867
428.9993, 999.3187
429.4814, 996.8050
429.9636, 995.9073
430.4457, 993.6042
430.9278, 989.1523
431.4099, 983.6476
431.8920, 979.2267
432.3741, 975.8051
432.8563, 973.8470
433.3384, 974.1580
433.8205, 976.3383
434.3026, 977.5354
434.7847, 977.6530
435.2668, 977.6173
435.7490, 978.9593
436.2311, 981.0673
436.7132, 981.5094
437.1953, 978.8337
437.6774, 975.3568
438.1595, 974.2856
438.6417, 975.1965
439.1238, 976.3323
439.6059, 977.2966
440.0880, 977.6168
440.5701, 976.2686
441.0522, 972.7994
441.5344, 970.1345
442.0165, 970.7768
442.4986, 973.0629
442.9807, 974.9554
443.4628, 975.7916
443.9449, 976.0983
444.4271, 975.5244
444.9092, 974.3527
445.3913, 974.1603
445.8734, 976.3037
446.3555, 978.7711
446.8376, 980.4737
447.3198, 980.4924
447.8019, 981.4413
448.2840, 984.3085
448.7661, 987.7219
449.2482, 989.6857
449.7303, 989.1248
450.2125, 988.9071
450.6946, 989.6229
451.1767, 991.2455
451.6588, 993.2977
452.1409, 995.9348
452.6230, 998.6900
453.1052, 1001.026
453.5873, 1002.875
454.0694, 1005.639
454.5515, 1009.621
455.0337, 1014.132
455.5158, 1017.768
455.9979, 1020.639
456.4800, 1023.930
456.9621, 1028.380
457.4442, 1033.566
457.9264, 1038.499
458.4085, 1043.178
458.8906, 1048.037
459.3727, 1053.265
459.8548, 1058.921
460.3369, 1065.154
460.8191, 1072.450
461.3012, 1079.445
461.7833, 1084.523
462.2654, 1088.531
462.7475, 1093.190
463.2296, 1099.481
463.7118, 1106.508
464.1939, 1114.179
464.6760, 1122.557
465.1581, 1130.062
465.6402, 1134.637
466.1223, 1139.018
466.6045, 1145.067
467.0866, 1157.253
467.5687, 1165.802
468.0508, 1167.163
468.5329, 1164.866
469.0150, 1167.097
469.4972, 1177.747
469.9793, 1186.957
470.4614, 1191.215
470.9435, 1190.244
471.4256, 1190.102
471.9077, 1191.044
472.3899, 1192.350
472.8720, 1193.577
473.3541, 1194.799
473.8362, 1195.165
474.3183, 1194.324
474.8004, 1192.955
475.2826, 1192.832
475.7647, 1193.801
476.2468, 1193.682
476.7289, 1190.934
477.2110, 1186.369
477.6931, 1181.626
478.1753, 1176.698
478.6574, 1171.901
479.1395, 1168.057
479.6216, 1164.352
480.1037, 1159.381
480.5858, 1151.875
481.0680, 1144.704
481.5501, 1140.266
482.0322, 1137.588
482.5143, 1134.680
482.9964, 1130.088
483.4786, 1125.697
483.9607, 1122.478
484.4428, 1120.595
484.9249, 1118.888
485.4070, 1117.601
485.8892, 1116.159
486.3713, 1114.085
486.8534, 1109.594
487.3355, 1107.170
487.8176, 1107.757
488.2997, 1110.186
488.7819, 1112.015
489.2640, 1113.012
489.7461, 1113.898
490.2282, 1114.812
490.7103, 1115.770
491.1924, 1117.003
491.6746, 1118.503
492.1567, 1120.282
492.6388, 1122.692
493.1209, 1125.587
493.6030, 1127.433
494.0851, 1127.934
494.5673, 1127.643
495.0494, 1127.202
495.5315, 1126.610
496.0136, 1125.891
496.4957, 1124.943
496.9778, 1123.944
497.4600, 1122.719
497.9421, 1121.394
498.4242, 1121.017
498.9063, 1124.958
499.3884, 1128.573
499.8705, 1127.116
500.3527, 1116.998
500.8348, 1108.472
501.3169, 1107.868
501.7990, 1110.430
502.2811, 1109.434
502.7632, 1099.984
503.2454, 1090.892
503.7275, 1084.299
504.2096, 1079.976
504.6917, 1074.940
505.1738, 1068.841
505.6559, 1062.618
506.1381, 1056.817
506.6202, 1051.519
507.1023, 1046.460
507.5844, 1041.865
508.0665, 1037.147
508.5486, 1030.915
509.0308, 1023.066
509.5129, 1017.559
509.9950, 1016.489
510.4771, 1017.232
510.9592, 1013.290
511.4413, 1005.157
511.9235, 997.6124
512.4056, 994.2352
512.8877, 993.1303
513.3698, 991.4006
513.8519, 988.7744
514.3340, 986.2978
514.8162, 984.9416
515.2983, 984.1016
515.7804, 983.0400
516.2625, 981.1482
516.7446, 979.5165
517.2267, 979.4675
517.7089, 980.0648
518.1910, 978.9745
518.6731, 973.3431
519.1552, 968.1774
519.6373, 965.1688
520.1194, 964.3481
520.6016, 965.0413
521.0837, 968.6024
521.5658, 972.1396
522.0479, 973.4543
522.5300, 971.9381
523.0121, 970.2184
523.4943, 968.2072
523.9764, 966.4050
524.4585, 965.9111
524.9406, 966.7603
525.4227, 967.5954
525.9048, 967.8094
526.3870, 967.7394
526.8691, 968.5848
527.3513, 970.2526
527.8334, 971.2706
528.3155, 969.2731
528.7976, 966.4528
529.2797, 966.4615
529.7618, 970.1940
530.2440, 973.9174
530.7261, 974.7177
531.2082, 974.0066
531.6903, 973.5784
532.1724, 974.1458
532.6545, 974.9357
533.1367, 975.9241
533.6188, 976.9760
534.1009, 977.6606
534.5830, 977.2581
535.0651, 977.1155
535.5472, 977.8860
536.0294, 979.8376
536.5115, 980.7751
536.9936, 980.2555
537.4757, 979.3514
537.9578, 978.7867
538.4399, 978.4747
538.9221, 979.1025
539.4042, 980.8954
539.8863, 983.3995
540.3684, 986.2466
540.8505, 989.3364
541.3326, 991.4163
541.8148, 991.1237
542.2969, 990.0158
542.7790, 991.0945
543.2611, 994.1381
543.7432, 997.3796
544.2253, 999.6118
544.7075, 1001.443
545.1896, 1003.639
545.6717, 1006.461
546.1538, 1008.764
546.6359, 1009.094
547.1180, 1008.996
547.6002, 1010.113
548.0823, 1014.066
548.5644, 1017.836
549.0465, 1020.104
549.5286, 1021.778
550.0107, 1025.657
550.4929, 1033.865
550.9750, 1041.039
551.4571, 1045.039
551.9392, 1045.852
552.4213, 1048.247
552.9034, 1052.711
553.3856, 1057.250
553.8677, 1059.461
554.3498, 1059.711
554.8319, 1062.959
555.3140, 1070.220
555.7961, 1078.615
556.2783, 1084.779
556.7604, 1089.029
557.2425, 1092.058
557.7246, 1093.077
558.2067, 1094.108
558.6888, 1097.451
559.1710, 1102.546
559.6531, 1107.458
560.1352, 1110.829
560.6173, 1114.043
561.0994, 1118.120
561.5815, 1123.365
562.0637, 1127.695
562.5458, 1130.457
563.0279, 1132.290
563.5100, 1133.710
563.9921, 1134.690
564.4742, 1135.218
564.9564, 1134.893
565.4385, 1134.398
565.9206, 1135.042
566.4027, 1137.070
566.8848, 1138.993
567.3669, 1140.643
567.8491, 1141.732
568.3312, 1140.893
568.8133, 1138.201
569.2954, 1135.487
569.7775, 1134.738
570.2596, 1134.560
570.7418, 1131.965
571.2239, 1126.684
571.7060, 1121.541
572.1881, 1117.884
572.6702, 1115.885
573.1523, 1115.918
573.6345, 1119.262
574.1166, 1122.505
574.5987, 1124.080
575.0808, 1124.771
575.5629, 1125.904
576.0450, 1127.613
576.5272, 1129.859
577.0093, 1132.802
577.4914, 1136.313
577.9735, 1139.468
578.4556, 1141.618
578.9377, 1144.734
579.4199, 1150.342
579.9020, 1158.447
580.3841, 1165.020
580.8662, 1169.763
581.3483, 1174.541
581.8304, 1181.457
582.3126, 1189.950
582.7947, 1198.062
583.2768, 1205.408
583.7589, 1212.360
584.2410, 1218.947
584.7231, 1225.450
585.2053, 1232.428
585.6874, 1240.888
586.1696, 1249.130
586.6517, 1255.703
587.1338, 1261.070
587.6159, 1267.371
588.0980, 1277.968
588.5801, 1287.055
589.0623, 1291.651
589.5444, 1291.068
