##NAMES=Sapphirine
##RRUFFID=R100135
##IDEAL CHEMISTRY=Mg_4_(Mg_3_Al_9_)O_4_[Si_3_Al_9_O_36_]
##LOCALITY=Sri Lanka
##OWNER=RRUFF
##SOURCE=William W. Pinch
##DESCRIPTION=Dark blue glassy fragment
##STATUS=The identification of this mineral has been confirmed only by single crystal X-ray diffraction.
##URL=rruff.info/R100135
91.03516, 55.87815
91.51727, 54.69213
91.99939, 55.98339
92.48151, 58.84934
92.96362, 60.72874
93.44574, 59.42442
93.92786, 56.30715
94.40997, 54.46830
94.89210, 54.38805
95.37421, 54.77739
95.85633, 53.26718
96.33845, 49.96578
96.82056, 47.28616
97.30268, 47.32312
97.78480, 49.77095
98.26691, 51.59717
98.74903, 52.51091
99.23115, 52.49767
99.71326, 50.93832
100.1954, 47.32803
100.6775, 44.16279
101.1596, 43.90185
101.6417, 47.29419
102.1239, 49.90620
102.6060, 50.74018
103.0881, 49.92956
103.5702, 49.73405
104.0523, 50.60040
104.5344, 51.53604
105.0166, 51.32574
105.4987, 48.90725
105.9808, 47.27510
106.4629, 47.54230
106.9450, 50.53430
107.4271, 51.60594
107.9093, 49.33030
108.3914, 45.64701
108.8735, 43.42953
109.3556, 44.09240
109.8377, 44.93885
110.3198, 45.16973
110.8020, 44.15513
111.2841, 43.73769
111.7662, 44.18760
112.2483, 45.27825
112.7304, 46.49989
113.2125, 48.55409
113.6947, 50.20004
114.1768, 50.80012
114.6589, 49.45739
115.1410, 48.16521
115.6231, 47.41996
116.1052, 47.11244
116.5874, 46.81256
117.0695, 46.34241
117.5516, 45.84022
118.0337, 45.41630
118.5158, 45.06432
118.9980, 44.82581
119.4801, 44.71803
119.9622, 44.74111
120.4443, 44.88031
120.9264, 45.22837
121.4085, 45.66245
121.8907, 46.03276
122.3728, 46.42624
122.8549, 46.63926
123.3370, 46.30785
123.8191, 45.39221
124.3012, 44.66956
124.7834, 44.65260
125.2655, 45.28640
125.7476, 46.45916
126.2297, 49.05519
126.7118, 51.85976
127.1939, 52.69160
127.6761, 51.08572
128.1582, 49.16577
128.6403, 49.58411
129.1224, 51.95538
129.6045, 54.42023
130.0867, 55.27960
130.5688, 55.32109
131.0509, 57.29063
131.5330, 61.87830
132.0151, 67.56566
132.4972, 71.40925
132.9794, 73.40459
133.4615, 75.96890
133.9436, 80.93993
134.4257, 88.20499
134.9078, 95.44997
135.3899, 102.0968
135.8721, 108.7884
136.3542, 117.5344
136.8363, 128.4379
137.3184, 140.9986
137.8005, 154.2815
138.2826, 168.1135
138.7648, 185.0633
139.2469, 206.1050
139.7290, 230.8967
140.2111, 255.1511
140.6932, 278.3384
141.1753, 302.3745
141.6575, 329.2691
142.1396, 360.7891
142.6217, 391.1318
143.1038, 419.0956
143.5859, 444.8801
144.0681, 469.0646
144.5502, 491.9923
145.0323, 513.2096
145.5144, 532.5220
145.9965, 549.2633
146.4786, 564.9097
146.9608, 579.2811
147.4429, 592.2580
147.9250, 605.2737
148.4071, 616.5662
148.8892, 628.5852
149.3713, 644.6859
149.8535, 666.9796
150.3356, 691.5046
150.8177, 717.4022
151.2998, 744.9650
151.7819, 773.2138
152.2640, 801.5589
152.7462, 830.7559
153.2283, 861.6086
153.7104, 896.7659
154.1925, 931.5031
154.6746, 964.2538
155.1567, 995.2961
155.6389, 1022.859
156.1210, 1045.662
156.6031, 1064.852
157.0852, 1083.536
157.5673, 1103.083
158.0495, 1121.673
158.5316, 1138.572
159.0137, 1153.043
159.4958, 1166.473
159.9779, 1178.862
160.4600, 1190.475
160.9422, 1202.181
161.4243, 1213.143
161.9064, 1224.943
162.3885, 1238.617
162.8706, 1255.439
163.3527, 1273.208
163.8349, 1291.745
164.3170, 1310.830
164.7991, 1329.415
165.2812, 1346.438
165.7633, 1362.984
166.2454, 1380.016
166.7276, 1397.523
167.2097, 1415.870
167.6918, 1436.226
168.1739, 1458.143
168.6560, 1479.415
169.1381, 1500.001
169.6203, 1518.275
170.1024, 1522.791
170.5845, 1516.134
171.0666, 1508.508
171.5487, 1504.399
172.0309, 1503.553
172.5130, 1502.335
172.9951, 1498.575
173.4772, 1492.800
173.9593, 1485.767
174.4414, 1475.352
174.9236, 1465.117
175.4057, 1459.948
175.8878, 1459.803
176.3699, 1460.146
176.8520, 1456.887
177.3341, 1451.234
177.8163, 1445.802
178.2984, 1441.708
178.7805, 1438.480
179.2626, 1435.625
179.7447, 1433.204
180.2268, 1430.714
180.7090, 1427.477
181.1911, 1423.741
181.6732, 1420.320
182.1553, 1417.676
182.6374, 1415.595
183.1195, 1414.044
183.6017, 1413.185
184.0838, 1411.821
184.5659, 1406.805
185.0480, 1399.238
185.5301, 1394.559
186.0123, 1397.943
186.4944, 1406.485
186.9765, 1410.723
187.4586, 1409.890
187.9407, 1406.561
188.4228, 1403.855
188.9050, 1401.734
189.3871, 1399.809
189.8692, 1397.763
190.3513, 1395.711
190.8334, 1394.199
191.3155, 1393.252
191.7977, 1392.888
192.2798, 1393.712
192.7619, 1395.735
193.2440, 1396.867
193.7261, 1395.262
194.2082, 1391.281
194.6904, 1389.055
195.1725, 1389.078
195.6546, 1390.389
196.1367, 1391.194
196.6188, 1391.441
197.1009, 1391.956
197.5831, 1393.427
198.0652, 1395.856
198.5473, 1397.367
199.0294, 1397.298
199.5115, 1397.014
199.9937, 1399.394
200.4758, 1404.557
200.9579, 1411.139
201.4400, 1419.853
201.9221, 1431.213
202.4042, 1436.919
202.8864, 1435.080
203.3685, 1428.778
203.8506, 1424.952
204.3327, 1423.831
204.8148, 1424.300
205.2969, 1426.062
205.7791, 1429.283
206.2612, 1432.555
206.7433, 1435.843
207.2254, 1439.096
207.7075, 1442.354
208.1896, 1445.909
208.6718, 1448.664
209.1539, 1449.384
209.6360, 1447.165
210.1181, 1447.704
210.6002, 1452.144
211.0823, 1459.081
211.5645, 1464.654
212.0466, 1468.740
212.5287, 1471.890
213.0108, 1473.868
213.4929, 1473.793
213.9750, 1476.318
214.4572, 1482.688
214.9393, 1491.416
215.4214, 1498.354
215.9035, 1503.281
216.3856, 1506.891
216.8678, 1509.398
217.3499, 1510.708
217.8320, 1511.199
218.3141, 1510.597
218.7962, 1509.213
219.2783, 1508.276
219.7605, 1508.532
220.2426, 1507.801
220.7247, 1504.640
221.2068, 1497.958
221.6889, 1492.014
222.1710, 1487.452
222.6532, 1483.657
223.1353, 1478.635
223.6174, 1471.286
224.0995, 1464.512
224.5816, 1460.031
225.0637, 1459.109
225.5459, 1457.106
226.0280, 1453.239
226.5101, 1448.346
226.9922, 1445.176
227.4743, 1444.425
227.9564, 1444.246
228.4386, 1443.796
228.9207, 1443.074
229.4028, 1442.071
229.8849, 1440.791
230.3670, 1439.208
230.8492, 1437.141
231.3313, 1434.193
231.8134, 1431.386
232.2955, 1429.213
232.7776, 1428.113
233.2597, 1426.723
233.7419, 1424.788
234.2240, 1422.656
234.7061, 1421.265
235.1882, 1420.818
235.6703, 1420.859
236.1524, 1421.451
236.6346, 1423.691
237.1167, 1423.849
237.5988, 1420.920
238.0809, 1416.293
238.5630, 1413.150
239.0451, 1411.999
239.5273, 1411.578
240.0094, 1411.405
240.4915, 1411.453
240.9736, 1411.735
241.4557, 1412.290
241.9378, 1413.019
242.4200, 1413.919
242.9021, 1415.951
243.3842, 1416.612
243.8663, 1414.512
244.3484, 1408.024
244.8306, 1403.708
245.3127, 1402.525
245.7948, 1403.039
246.2769, 1402.428
246.7590, 1399.338
247.2411, 1397.477
247.7233, 1398.659
248.2054, 1404.344
248.6875, 1407.542
249.1696, 1407.143
249.6517, 1405.008
250.1338, 1404.251
250.6160, 1405.916
251.0981, 1407.089
251.5802, 1406.607
252.0623, 1403.950
252.5444, 1402.377
253.0265, 1402.223
253.5087, 1402.902
253.9908, 1403.484
254.4729, 1403.452
254.9550, 1404.438
255.4371, 1407.470
255.9192, 1413.047
256.4014, 1416.174
256.8835, 1415.527
257.3656, 1413.742
257.8477, 1414.161
258.3298, 1417.805
258.8120, 1421.396
259.2941, 1424.379
259.7762, 1426.796
260.2583, 1427.633
260.7404, 1426.067
261.2225, 1423.910
261.7047, 1423.244
262.1868, 1424.834
262.6689, 1425.852
263.1510, 1425.762
263.6331, 1424.563
264.1152, 1422.242
264.5974, 1418.318
265.0795, 1414.027
265.5616, 1410.822
266.0437, 1409.185
266.5258, 1406.860
267.0079, 1403.082
267.4901, 1398.127
267.9722, 1394.831
268.4543, 1393.776
268.9364, 1393.221
269.4185, 1391.590
269.9006, 1388.497
270.3828, 1386.052
270.8649, 1384.471
271.3470, 1383.768
271.8291, 1384.248
272.3112, 1386.334
272.7933, 1388.412
273.2755, 1388.720
273.7576, 1386.653
274.2397, 1387.138
274.7218, 1392.036
275.2039, 1399.070
275.6860, 1400.606
276.1682, 1395.373
276.6503, 1389.490
277.1324, 1387.001
277.6145, 1388.226
278.0966, 1389.134
278.5787, 1389.412
279.0609, 1389.309
279.5430, 1389.024
280.0251, 1388.415
280.5072, 1388.786
280.9893, 1391.715
281.4715, 1397.173
281.9536, 1400.222
282.4357, 1400.130
282.9178, 1398.582
283.3999, 1398.211
283.8820, 1399.011
284.3642, 1400.597
284.8463, 1403.251
285.3284, 1406.790
285.8105, 1409.183
286.2926, 1410.267
286.7747, 1410.594
287.2569, 1410.600
287.7390, 1410.297
288.2211, 1410.466
288.7032, 1411.351
289.1853, 1412.954
289.6674, 1415.758
290.1496, 1420.032
290.6317, 1423.938
291.1138, 1424.848
291.5959, 1423.221
292.0780, 1422.142
292.5602, 1422.807
293.0423, 1424.662
293.5244, 1426.397
294.0065, 1428.017
294.4886, 1429.521
294.9707, 1430.453
295.4529, 1431.181
295.9350, 1433.119
296.4171, 1437.265
296.8992, 1442.245
297.3813, 1445.735
297.8634, 1447.776
298.3456, 1448.903
298.8277, 1448.709
299.3098, 1447.917
299.7919, 1448.276
300.2740, 1450.572
300.7561, 1453.400
301.2383, 1454.643
301.7204, 1454.657
302.2025, 1454.977
302.6846, 1457.677
303.1667, 1460.990
303.6488, 1462.007
304.1310, 1459.779
304.6131, 1456.776
305.0952, 1455.799
305.5773, 1456.075
306.0594, 1455.528
306.5415, 1452.036
307.0237, 1447.659
307.5058, 1444.820
307.9879, 1444.003
308.4700, 1443.016
308.9521, 1439.510
309.4343, 1434.741
309.9164, 1430.845
310.3985, 1428.836
310.8806, 1427.946
311.3627, 1427.860
311.8448, 1428.566
312.3270, 1429.271
312.8091, 1428.981
313.2912, 1428.589
313.7733, 1429.151
314.2554, 1432.465
314.7375, 1435.602
315.2197, 1436.661
315.7018, 1435.900
316.1839, 1435.482
316.6660, 1437.037
317.1481, 1439.018
317.6302, 1440.073
318.1124, 1438.244
318.5945, 1437.480
319.0766, 1440.055
319.5587, 1444.984
320.0408, 1448.887
320.5229, 1449.590
321.0051, 1449.753
321.4872, 1450.949
321.9693, 1454.250
322.4514, 1456.999
322.9335, 1458.501
323.4156, 1459.110
323.8978, 1459.509
324.3799, 1458.611
324.8620, 1458.575
325.3441, 1460.677
325.8262, 1466.270
326.3083, 1469.938
326.7905, 1470.039
327.2726, 1468.399
327.7547, 1467.267
328.2368, 1467.967
328.7189, 1467.870
329.2010, 1465.731
329.6832, 1461.166
330.1653, 1459.132
330.6474, 1462.052
331.1295, 1465.760
331.6116, 1466.748
332.0938, 1462.401
332.5759, 1459.527
333.0580, 1459.602
333.5401, 1462.119
334.0222, 1463.324
334.5043, 1462.914
334.9865, 1461.617
335.4686, 1459.617
335.9507, 1456.217
336.4328, 1454.057
336.9149, 1453.654
337.3970, 1454.373
337.8792, 1454.435
338.3613, 1453.472
338.8434, 1452.903
339.3255, 1453.753
339.8076, 1456.415
340.2898, 1457.400
340.7719, 1456.293
341.2540, 1454.283
341.7361, 1453.172
342.2182, 1453.106
342.7003, 1452.800
343.1825, 1451.648
343.6646, 1449.824
344.1467, 1448.542
344.6288, 1447.808
345.1109, 1447.504
345.5930, 1447.530
346.0752, 1447.874
346.5573, 1448.560
347.0394, 1449.854
347.5215, 1451.243
348.0036, 1451.265
348.4857, 1449.948
348.9679, 1448.890
349.4500, 1449.507
349.9321, 1451.328
350.4142, 1453.181
350.8963, 1455.154
351.3784, 1456.443
351.8606, 1455.038
352.3427, 1451.738
352.8248, 1449.465
353.3069, 1450.975
353.7890, 1454.093
354.2711, 1455.849
354.7533, 1455.933
355.2354, 1455.467
355.7175, 1455.112
356.1996, 1454.890
356.6817, 1454.836
357.1638, 1454.939
357.6460, 1455.227
358.1281, 1455.797
358.6102, 1456.621
359.0923, 1457.440
359.5744, 1457.849
360.0565, 1458.286
360.5387, 1459.195
361.0208, 1461.012
361.5029, 1462.941
361.9850, 1464.557
362.4671, 1465.989
362.9492, 1467.600
363.4314, 1470.482
363.9135, 1472.886
364.3956, 1473.642
364.8777, 1471.712
365.3598, 1470.270
365.8419, 1470.012
366.3241, 1470.642
366.8062, 1471.720
367.2883, 1473.991
367.7704, 1475.921
368.2526, 1476.840
368.7347, 1476.424
369.2168, 1476.812
369.6989, 1478.289
370.1810, 1480.413
370.6631, 1482.887
371.1453, 1486.337
371.6274, 1489.248
372.1095, 1491.787
372.5916, 1493.773
373.0737, 1493.709
373.5558, 1489.945
374.0380, 1486.566
374.5201, 1485.958
375.0022, 1488.939
375.4843, 1492.110
375.9664, 1495.775
376.4485, 1499.213
376.9307, 1500.786
377.4128, 1500.024
377.8949, 1499.328
378.3770, 1499.888
378.8591, 1501.593
379.3412, 1502.363
379.8234, 1502.139
380.3055, 1501.162
380.7876, 1499.136
381.2697, 1496.166
381.7518, 1494.494
382.2339, 1495.098
382.7161, 1497.081
383.1982, 1498.507
383.6803, 1499.378
384.1624, 1499.970
384.6445, 1500.282
385.1266, 1500.471
385.6088, 1500.958
386.0909, 1501.856
386.5730, 1502.907
387.0551, 1503.709
387.5372, 1504.392
388.0193, 1505.338
388.5015, 1507.253
388.9836, 1509.248
389.4657, 1510.303
389.9478, 1510.344
390.4299, 1510.021
390.9120, 1509.262
391.3942, 1508.547
391.8763, 1508.495
392.3584, 1510.267
392.8405, 1511.843
393.3226, 1511.172
393.8047, 1509.038
394.2869, 1509.015
394.7690, 1515.843
395.2511, 1522.939
395.7332, 1525.859
396.2154, 1521.407
396.6975, 1518.042
397.1796, 1518.607
397.6617, 1521.194
398.1438, 1522.513
398.6259, 1519.451
399.1081, 1517.683
399.5902, 1519.402
400.0723, 1525.317
400.5544, 1529.754
401.0365, 1532.304
401.5186, 1533.642
402.0008, 1534.158
402.4829, 1533.008
402.9650, 1532.619
403.4471, 1533.522
403.9292, 1535.373
404.4113, 1536.835
404.8935, 1538.114
405.3756, 1538.566
405.8577, 1537.433
406.3398, 1534.347
406.8219, 1532.811
407.3040, 1533.353
407.7862, 1534.567
408.2683, 1534.201
408.7504, 1532.217
409.2325, 1530.684
409.7146, 1530.668
410.1967, 1531.598
410.6789, 1531.158
411.1610, 1529.298
411.6431, 1527.851
412.1252, 1529.239
412.6073, 1532.369
413.0894, 1533.932
413.5716, 1532.848
414.0537, 1530.886
414.5358, 1529.722
415.0179, 1529.370
415.5000, 1529.860
415.9821, 1532.262
416.4643, 1534.898
416.9464, 1535.837
417.4285, 1534.823
417.9106, 1533.404
418.3927, 1532.325
418.8748, 1531.462
419.3570, 1530.693
419.8391, 1529.373
420.3212, 1528.703
420.8033, 1530.035
421.2854, 1532.767
421.7675, 1534.092
422.2497, 1532.125
422.7318, 1529.334
423.2139, 1527.051
423.6960, 1525.796
424.1781, 1524.325
424.6602, 1521.685
425.1424, 1519.016
425.6245, 1518.061
426.1066, 1520.782
426.5887, 1522.737
427.0709, 1522.737
427.5530, 1520.774
428.0351, 1519.245
428.5172, 1518.094
428.9993, 1517.395
429.4814, 1517.343
429.9636, 1518.222
430.4457, 1518.502
430.9278, 1517.753
431.4099, 1516.627
431.8920, 1516.721
432.3741, 1518.202
432.8563, 1519.598
433.3384, 1520.293
433.8205, 1520.334
434.3026, 1519.891
434.7847, 1518.895
435.2668, 1517.945
435.7490, 1517.763
436.2311, 1518.164
436.7132, 1518.442
437.1953, 1518.237
437.6774, 1518.075
438.1595, 1519.109
438.6417, 1520.974
439.1238, 1522.154
439.6059, 1520.591
440.0880, 1518.473
440.5701, 1518.376
441.0522, 1520.838
441.5344, 1523.548
442.0165, 1525.670
442.4986, 1527.016
442.9807, 1527.334
443.4628, 1525.009
443.9449, 1523.136
444.4271, 1523.347
444.9092, 1525.250
445.3913, 1526.599
445.8734, 1526.467
446.3555, 1525.884
446.8376, 1525.352
447.3198, 1525.063
447.8019, 1524.478
448.2840, 1523.193
448.7661, 1521.770
449.2482, 1521.117
449.7303, 1522.275
450.2125, 1522.390
450.6946, 1520.328
451.1767, 1516.337
451.6588, 1514.182
452.1409, 1514.217
452.6230, 1515.243
453.1052, 1516.664
453.5873, 1518.560
454.0694, 1519.998
454.5515, 1520.956
455.0337, 1521.319
455.5158, 1520.417
455.9979, 1518.360
456.4800, 1516.963
456.9621, 1517.359
457.4442, 1518.833
457.9264, 1519.844
458.4085, 1520.396
458.8906, 1520.573
459.3727, 1519.695
459.8548, 1518.679
460.3369, 1519.233
460.8191, 1522.346
461.3012, 1525.663
461.7833, 1527.560
462.2654, 1528.271
462.7475, 1528.276
463.2296, 1525.965
463.7118, 1524.497
464.1939, 1526.607
464.6760, 1532.516
465.1581, 1536.611
465.6402, 1534.350
466.1223, 1531.250
466.6045, 1531.215
467.0866, 1538.170
467.5687, 1543.932
468.0508, 1548.022
468.5329, 1550.634
469.0150, 1552.177
469.4972, 1552.229
469.9793, 1551.819
470.4614, 1551.145
470.9435, 1550.189
471.4256, 1549.567
471.9077, 1549.505
472.3899, 1549.373
472.8720, 1548.405
473.3541, 1546.477
473.8362, 1545.361
474.3183, 1545.593
474.8004, 1546.288
475.2826, 1545.586
475.7647, 1543.567
476.2468, 1541.418
476.7289, 1539.592
477.2110, 1538.070
477.6931, 1537.009
478.1753, 1536.391
478.6574, 1535.640
479.1395, 1533.769
479.6216, 1531.602
480.1037, 1530.499
480.5858, 1531.427
481.0680, 1532.336
481.5501, 1531.638
482.0322, 1529.912
482.5143, 1528.355
482.9964, 1527.876
483.4786, 1527.324
483.9607, 1525.826
484.4428, 1523.234
484.9249, 1521.639
485.4070, 1522.085
485.8892, 1523.297
486.3713, 1524.374
486.8534, 1524.450
487.3355, 1525.652
487.8176, 1528.765
488.2997, 1532.772
488.7819, 1535.366
489.2640, 1535.555
489.7461, 1536.648
490.2282, 1540.407
490.7103, 1546.539
491.1924, 1549.001
491.6746, 1547.010
492.1567, 1544.596
492.6388, 1545.592
493.1209, 1549.597
493.6030, 1553.017
494.0851, 1555.360
494.5673, 1557.089
495.0494, 1558.954
495.5315, 1560.797
496.0136, 1561.993
496.4957, 1561.996
496.9778, 1561.375
497.4600, 1560.380
497.9421, 1559.133
498.4242, 1558.620
498.9063, 1560.738
499.3884, 1563.114
499.8705, 1563.697
500.3527, 1561.796
500.8348, 1558.794
501.3169, 1554.268
501.7990, 1549.230
502.2811, 1545.075
502.7632, 1543.345
503.2454, 1541.208
503.7275, 1537.479
504.2096, 1532.435
504.6917, 1529.025
505.1738, 1528.510
505.6559, 1528.000
506.1381, 1525.799
506.6202, 1521.234
507.1023, 1517.835
507.5844, 1515.824
508.0665, 1514.613
508.5486, 1513.357
509.0308, 1512.034
509.5129, 1511.617
509.9950, 1512.980
510.4771, 1514.732
510.9592, 1513.185
511.4413, 1508.674
511.9235, 1504.583
512.4056, 1503.033
512.8877, 1503.229
513.3698, 1504.353
513.8519, 1506.407
514.3340, 1508.141
514.8162, 1508.414
515.2983, 1507.928
515.7804, 1507.513
516.2625, 1507.303
516.7446, 1507.392
517.2267, 1508.247
517.7089, 1509.481
518.1910, 1510.104
518.6731, 1509.918
519.1552, 1509.124
519.6373, 1507.448
520.1194, 1504.717
520.6016, 1503.057
521.0837, 1503.185
521.5658, 1503.581
522.0479, 1502.846
522.5300, 1500.143
523.0121, 1499.526
523.4943, 1501.870
523.9764, 1505.575
524.4585, 1508.045
524.9406, 1509.236
525.4227, 1509.360
525.9048, 1507.999
526.3870, 1505.868
526.8691, 1504.367
527.3513, 1503.541
527.8334, 1504.001
528.3155, 1507.717
528.7976, 1512.449
529.2797, 1514.768
529.7618, 1514.029
530.2440, 1512.403
530.7261, 1511.082
531.2082, 1509.883
531.6903, 1508.593
532.1724, 1506.157
532.6545, 1504.632
533.1367, 1504.805
533.6188, 1506.422
534.1009, 1508.576
534.5830, 1512.763
535.0651, 1515.860
535.5472, 1516.405
536.0294, 1513.868
536.5115, 1512.744
536.9936, 1513.609
537.4757, 1515.096
537.9578, 1515.920
538.4399, 1515.840
538.9221, 1516.902
539.4042, 1519.786
539.8863, 1523.100
540.3684, 1524.214
540.8505, 1523.280
541.3326, 1522.128
541.8148, 1521.466
542.2969, 1521.068
542.7790, 1520.293
543.2611, 1519.256
543.7432, 1518.836
544.2253, 1520.100
544.7075, 1522.032
545.1896, 1523.464
545.6717, 1524.081
546.1538, 1525.107
546.6359, 1527.980
547.1180, 1531.231
547.6002, 1533.258
548.0823, 1531.741
548.5644, 1531.221
549.0465, 1532.876
549.5286, 1536.130
550.0107, 1539.348
550.4929, 1542.740
550.9750, 1545.743
551.4571, 1548.018
551.9392, 1549.561
552.4213, 1551.525
552.9034, 1553.915
553.3856, 1556.706
553.8677, 1560.273
554.3498, 1564.474
554.8319, 1567.231
555.3140, 1567.936
555.7961, 1568.669
556.2783, 1572.870
556.7604, 1579.367
557.2425, 1584.716
557.7246, 1586.565
558.2067, 1587.895
558.6888, 1592.184
559.1710, 1598.541
559.6531, 1603.871
560.1352, 1605.129
560.6173, 1606.107
561.0994, 1609.390
561.5815, 1615.569
562.0637, 1620.774
562.5458, 1624.189
563.0279, 1626.363
563.5100, 1627.688
563.9921, 1627.086
564.4742, 1627.702
564.9564, 1630.748
565.4385, 1634.107
565.9206, 1633.597
566.4027, 1628.264
566.8848, 1623.863
567.3669, 1622.547
567.8491, 1623.061
568.3312, 1621.180
568.8133, 1617.001
569.2954, 1612.829
569.7775, 1610.916
570.2596, 1609.834
570.7418, 1606.370
571.2239, 1600.214
571.7060, 1594.990
572.1881, 1594.706
572.6702, 1596.299
573.1523, 1596.334
573.6345, 1593.368
574.1166, 1589.834
574.5987, 1585.931
575.0808, 1582.214
575.5629, 1579.549
576.0450, 1578.457
576.5272, 1578.132
577.0093, 1578.965
577.4914, 1580.633
577.9735, 1580.806
578.4556, 1578.657
578.9377, 1576.735
579.4199, 1576.065
579.9020, 1576.667
580.3841, 1579.349
580.8662, 1584.486
581.3483, 1589.749
581.8304, 1592.240
582.3126, 1592.810
582.7947, 1594.637
583.2768, 1598.755
583.7589, 1602.905
584.2410, 1603.931
584.7231, 1603.264
585.2053, 1603.746
585.6874, 1607.196
586.1696, 1611.484
586.6517, 1616.498
587.1338, 1621.653
587.6159, 1624.551
588.0980, 1622.671
588.5801, 1620.025
589.0623, 1618.426
589.5444, 1618.201
