##NAMES=Sapphirine
##RRUFFID=R060073
##IDEAL CHEMISTRY=Mg_4_(Mg_3_Al_9_)O_4_[Si_3_Al_9_O_36_]
##LOCALITY=Androy, Madagascar
##OWNER=RRUFF
##SOURCE=Marcus Origlieri
##DESCRIPTION=Dark blue massive
##STATUS=The identification of this mineral has been confirmed by X-ray diffraction and chemical analysis
##URL=rruff.info/R060073
##MEASURED CHEMISTRY=Mg_4_(Mg_3.32_Al_8.34_Fe^2+^_0.42_)O_4_(Si_3.5_Al_8.5_O_36_)
93.88477, 8.808482
94.36688, 8.472156
94.84900, 8.665135
95.33112, 9.289563
95.81323, 9.882664
96.29535, 10.12309
96.77747, 10.11660
97.25958, 10.28578
97.74170, 10.68690
98.22382, 11.22295
98.70593, 11.70130
99.18805, 12.11717
99.67017, 12.56991
100.1523, 13.14076
100.6344, 13.83186
101.1165, 14.50272
101.5986, 15.09910
102.0807, 15.66614
102.5629, 16.39770
103.0450, 17.35492
103.5271, 18.35814
104.0092, 19.21725
104.4913, 19.86032
104.9734, 20.58666
105.4556, 21.49363
105.9377, 22.58484
106.4198, 23.62239
106.9019, 24.64928
107.3840, 25.58411
107.8661, 26.29663
108.3483, 26.61016
108.8304, 26.93246
109.3125, 27.33932
109.7946, 27.79139
110.2767, 28.44330
110.7588, 29.32623
111.2410, 30.41052
111.7231, 31.64676
112.2052, 33.15852
112.6873, 34.73436
113.1694, 36.29372
113.6515, 37.71710
114.1337, 39.33387
114.6158, 41.43967
115.0979, 43.81087
115.5800, 45.81850
116.0621, 46.96807
116.5442, 47.90392
117.0264, 49.00136
117.5085, 50.73893
117.9906, 52.26138
118.4727, 53.08995
118.9548, 53.34005
119.4369, 53.77906
119.9191, 55.00550
120.4012, 56.50264
120.8833, 57.73652
121.3654, 58.01577
121.8475, 58.36071
122.3296, 59.64740
122.8118, 61.89872
123.2939, 63.94082
123.7760, 64.73271
124.2581, 64.80305
124.7402, 65.02952
125.2223, 65.53465
125.7045, 66.51668
126.1866, 68.45474
126.6687, 71.53365
127.1508, 74.62574
127.6329, 76.50317
128.1150, 77.41286
128.5972, 78.23664
129.0793, 79.42136
129.5614, 80.85225
130.0435, 82.29266
130.5256, 83.71568
131.0077, 85.14477
131.4899, 86.63924
131.9720, 88.19231
132.4541, 89.68033
132.9362, 90.66824
133.4183, 91.10423
133.9004, 91.55155
134.3826, 92.00556
134.8647, 92.50957
135.3468, 93.24024
135.8289, 94.23689
136.3110, 95.14479
136.7931, 95.48888
137.2753, 95.23612
137.7574, 95.51140
138.2395, 96.73813
138.7216, 98.66273
139.2037, 99.94228
139.6858, 100.4952
140.1680, 100.6368
140.6501, 100.5992
141.1322, 100.2972
141.6143, 100.1338
142.0964, 100.1887
142.5785, 100.4612
143.0607, 100.8957
143.5428, 101.4717
144.0249, 102.2275
144.5070, 103.2731
144.9891, 104.7831
145.4712, 106.2277
145.9534, 107.4035
146.4355, 108.2399
146.9176, 109.2002
147.3997, 110.4498
147.8818, 111.7575
148.3639, 112.7257
148.8461, 113.0092
149.3282, 113.3516
149.8103, 113.9966
150.2924, 115.1008
150.7745, 116.1906
151.2566, 117.2080
151.7388, 118.2067
152.2209, 119.3008
152.7030, 120.5581
153.1851, 121.8535
153.6672, 123.1345
154.1493, 124.3154
154.6315, 125.5676
155.1136, 127.0280
155.5957, 128.6024
156.0778, 129.9624
156.5599, 130.6968
157.0420, 131.4695
157.5242, 132.6425
158.0063, 134.2232
158.4884, 136.2288
158.9705, 138.8240
159.4526, 141.9253
159.9347, 145.0804
160.4169, 148.2706
160.8990, 151.4162
161.3811, 154.4599
161.8632, 157.7617
162.3453, 160.6089
162.8274, 162.9825
163.3096, 164.8388
163.7917, 165.6078
164.2738, 164.5169
164.7559, 162.4446
165.2380, 160.2567
165.7201, 157.7430
166.2023, 155.5934
166.6844, 154.2708
167.1665, 153.7861
167.6486, 153.4446
168.1307, 152.9443
168.6128, 152.3482
169.0949, 151.7386
169.5771, 151.3584
170.0592, 150.8389
170.5413, 149.8027
171.0234, 148.1910
171.5055, 146.5771
171.9876, 145.4673
172.4698, 144.6245
172.9519, 143.6271
173.4340, 141.9399
173.9161, 140.1655
174.3982, 138.9702
174.8803, 138.4487
175.3625, 138.1407
175.8446, 137.6546
176.3267, 137.0706
176.8088, 136.5898
177.2909, 136.4254
177.7730, 136.3913
178.2552, 136.2221
178.7373, 135.8755
179.2194, 135.4457
179.7015, 135.0383
180.1836, 134.6313
180.6657, 134.1542
181.1479, 133.4890
181.6300, 132.7268
182.1121, 132.0960
182.5942, 131.6765
183.0763, 131.2537
183.5584, 130.4012
184.0406, 129.1961
184.5227, 128.1845
185.0048, 127.8542
185.4869, 127.9959
185.9690, 127.9687
186.4511, 127.6286
186.9333, 127.1803
187.4154, 127.0023
187.8975, 127.0774
188.3796, 127.1349
188.8617, 126.9309
189.3438, 126.5279
189.8260, 126.2363
190.3081, 126.1282
190.7902, 126.1233
191.2723, 126.0064
191.7544, 125.7716
192.2365, 125.6427
192.7187, 125.8710
193.2008, 126.4157
193.6829, 126.8609
194.1650, 127.1430
194.6471, 127.2839
195.1292, 127.3017
195.6114, 127.1825
196.0935, 127.0737
196.5756, 127.1044
197.0577, 127.2720
197.5398, 127.4560
198.0219, 127.6375
198.5041, 127.8160
198.9862, 127.9258
199.4683, 127.9209
199.9504, 128.0525
200.4325, 128.6277
200.9146, 129.6742
201.3968, 130.6069
201.8789, 131.3115
202.3610, 131.8056
202.8431, 132.1459
203.3252, 132.2978
203.8073, 132.4041
204.2895, 132.5397
204.7716, 132.6813
205.2537, 133.0656
205.7358, 133.8487
206.2179, 134.9425
206.7000, 135.6404
207.1822, 135.7829
207.6643, 135.9137
208.1464, 136.6031
208.6285, 137.9855
209.1106, 139.2793
209.5927, 140.2375
210.0749, 140.9155
210.5570, 142.0459
211.0391, 143.7892
211.5212, 145.6582
212.0033, 147.1161
212.4854, 147.9641
212.9676, 149.1221
213.4497, 150.8999
213.9318, 153.2664
214.4139, 155.2542
214.8960, 156.7177
215.3781, 158.0549
215.8603, 159.8370
216.3424, 162.4330
216.8245, 164.3201
217.3066, 165.1102
217.7887, 164.8096
218.2708, 164.1610
218.7529, 163.1685
219.2351, 161.8097
219.7172, 160.0743
220.1993, 157.8776
220.6814, 155.4641
221.1635, 152.8548
221.6456, 150.0242
222.1278, 147.2740
222.6099, 144.5654
223.0920, 141.9342
223.5741, 139.4314
224.0562, 136.8627
224.5383, 134.7897
225.0205, 133.4237
225.5026, 132.7936
225.9847, 132.0140
226.4668, 130.9345
226.9489, 129.8732
227.4310, 129.2248
227.9132, 129.2109
228.3953, 129.1102
228.8774, 128.7057
229.3595, 127.9761
229.8416, 127.5862
230.3237, 127.6906
230.8059, 127.9714
231.2880, 128.1071
231.7701, 128.0053
232.2522, 127.9449
232.7343, 127.9691
233.2164, 128.0783
233.6986, 128.3018
234.1807, 128.7934
234.6628, 129.2413
235.1449, 129.2995
235.6270, 128.7424
236.1091, 128.2442
236.5913, 127.9881
237.0734, 127.9856
237.5555, 127.6876
238.0376, 126.9463
238.5197, 126.0599
239.0018, 125.3455
239.4840, 125.0106
239.9661, 124.4430
240.4482, 123.4653
240.9303, 122.0822
241.4124, 120.8183
241.8945, 119.6639
242.3767, 118.6401
242.8588, 117.7923
243.3409, 117.1926
243.8230, 116.6274
244.3051, 116.0401
244.7872, 115.4345
245.2694, 114.9675
245.7515, 114.7066
246.2336, 114.5087
246.7157, 114.2571
247.1978, 113.9255
247.6799, 113.5844
248.1621, 113.1907
248.6442, 112.7625
249.1263, 112.5950
249.6084, 112.7533
250.0905, 113.0899
250.5726, 113.5273
251.0548, 114.1920
251.5369, 114.6778
252.0190, 114.8402
252.5011, 114.7369
252.9832, 114.8651
253.4653, 115.2795
253.9475, 115.8488
254.4296, 116.4743
254.9117, 117.1147
255.3938, 117.9235
255.8759, 118.9897
256.3580, 120.2556
256.8401, 121.3313
257.3223, 122.1955
257.8044, 122.9118
258.2865, 123.5188
258.7686, 124.0050
259.2507, 124.4090
259.7328, 124.7933
260.2150, 125.0961
260.6971, 125.0450
261.1792, 124.5179
261.6613, 123.8660
262.1434, 123.3285
262.6255, 123.0355
263.1077, 122.4703
263.5898, 121.5466
264.0719, 120.3493
264.5540, 119.1490
265.0361, 117.9599
265.5182, 116.7158
266.0004, 115.2846
266.4825, 113.5224
266.9646, 112.1970
267.4467, 111.5150
267.9288, 111.1908
268.4109, 110.4990
268.8931, 109.3028
269.3752, 108.0641
269.8573, 106.9792
270.3394, 106.0328
270.8215, 105.2746
271.3036, 104.7414
271.7858, 104.3598
272.2679, 104.0486
272.7500, 103.8673
273.2321, 103.5420
273.7142, 102.8982
274.1964, 101.8914
274.6785, 100.9718
275.1606, 100.1126
275.6427, 99.39291
276.1248, 98.98435
276.6069, 98.93602
277.0891, 98.95934
277.5712, 99.00233
278.0533, 99.06812
278.5354, 98.87035
279.0175, 98.33938
279.4996, 97.69548
279.9818, 97.20368
280.4639, 96.85948
280.9460, 96.75111
281.4281, 97.03795
281.9102, 97.65478
282.3923, 97.84547
282.8745, 97.50504
283.3566, 97.08202
283.8387, 97.16360
284.3208, 97.76492
284.8029, 98.26952
285.2850, 98.42958
285.7672, 98.35287
286.2493, 98.54488
286.7314, 99.03520
287.2135, 99.62205
287.6956, 100.1041
288.1777, 100.4930
288.6599, 100.9176
289.1420, 101.4019
289.6241, 101.9515
290.1062, 102.5937
290.5883, 103.3349
291.0704, 104.1191
291.5526, 104.9524
292.0347, 105.8167
292.5168, 106.5554
292.9989, 107.0638
293.4810, 107.5269
293.9631, 108.3344
294.4453, 109.4753
294.9274, 110.7423
295.4095, 111.9978
295.8916, 113.2519
296.3737, 114.5288
296.8558, 115.8273
297.3380, 117.1320
297.8201, 118.4845
298.3022, 119.8686
298.7843, 121.1368
299.2664, 122.1410
299.7485, 122.9932
300.2307, 123.9246
300.7128, 125.0076
301.1949, 126.0594
301.6770, 126.9049
302.1591, 127.5677
302.6412, 128.1051
303.1234, 128.7099
303.6055, 129.1600
304.0876, 129.0305
304.5697, 128.2369
305.0518, 127.3505
305.5339, 126.9566
306.0161, 126.8598
306.4982, 126.6623
306.9803, 126.2003
307.4624, 125.5399
307.9445, 124.6253
308.4266, 123.4516
308.9088, 122.4591
309.3909, 122.2222
309.8730, 122.3032
310.3551, 122.0730
310.8372, 120.9477
311.3193, 119.6818
311.8015, 118.8114
312.2836, 118.3016
312.7657, 117.9409
313.2478, 117.6977
313.7299, 117.4971
314.2120, 117.2477
314.6942, 116.7332
315.1763, 116.3971
315.6584, 116.6152
316.1405, 117.2552
316.6226, 117.7994
317.1047, 117.8932
317.5869, 117.8891
318.0690, 118.0507
318.5511, 118.5493
319.0332, 118.9940
319.5153, 119.1722
319.9974, 119.1869
320.4796, 119.2707
320.9617, 119.4022
321.4438, 119.6914
321.9259, 120.2427
322.4080, 121.1885
322.8901, 122.0281
323.3723, 122.5835
323.8544, 122.9834
324.3365, 123.4133
324.8186, 123.7203
325.3007, 124.2337
325.7828, 125.1754
326.2650, 126.6798
326.7471, 127.8726
327.2292, 128.5565
327.7113, 128.9470
328.1934, 129.2505
328.6755, 129.3008
329.1577, 129.4549
329.6398, 129.8633
330.1219, 130.5245
330.6040, 130.8939
331.0861, 130.6181
331.5682, 130.3216
332.0504, 130.4228
332.5325, 131.1895
333.0146, 131.9352
333.4967, 132.7338
333.9788, 133.4969
334.4609, 133.7720
334.9431, 133.2827
335.4252, 132.6964
335.9073, 132.3680
336.3894, 132.4193
336.8715, 132.3948
337.3536, 132.2511
337.8358, 132.0565
338.3179, 131.9874
338.8000, 132.1411
339.2821, 132.1640
339.7642, 131.8370
340.2463, 131.1055
340.7285, 130.7108
341.2105, 130.7830
341.6927, 130.9663
342.1748, 130.7294
342.6569, 130.0092
343.1390, 129.3776
343.6211, 128.9962
344.1032, 128.8475
344.5854, 128.8841
345.0675, 129.1183
345.5496, 129.4428
346.0317, 129.7714
346.5138, 130.1039
346.9959, 130.4173
347.4781, 130.6902
347.9602, 130.9601
348.4423, 131.3886
348.9244, 131.9670
349.4065, 132.4129
349.8886, 132.3493
350.3708, 131.9889
350.8529, 131.9831
351.3350, 132.4866
351.8171, 133.1806
352.2992, 133.6685
352.7813, 133.9888
353.2635, 134.2974
353.7456, 134.5761
354.2277, 134.9334
354.7098, 135.6042
355.1919, 136.6282
355.6740, 137.6329
356.1562, 138.2863
356.6383, 138.6805
357.1204, 138.9933
357.6025, 139.1879
358.0846, 139.4016
358.5667, 139.6553
359.0489, 139.9702
359.5310, 140.5713
360.0131, 141.8991
360.4952, 143.4525
360.9773, 144.7112
361.4594, 145.4601
361.9416, 146.0017
362.4237, 146.3089
362.9058, 146.4879
363.3879, 146.8731
363.8700, 147.6513
364.3521, 148.6316
364.8343, 149.7123
365.3164, 150.9196
365.7985, 152.1475
366.2806, 153.4678
366.7627, 154.7837
367.2448, 155.9206
367.7270, 156.6088
368.2091, 157.3598
368.6912, 158.3528
369.1733, 159.6338
369.6554, 160.8916
370.1375, 162.1236
370.6197, 163.3233
371.1018, 164.4957
371.5839, 165.5853
372.0660, 166.7338
372.5481, 168.0467
373.0302, 169.4621
373.5124, 170.5542
373.9945, 171.2393
374.4766, 171.7065
374.9587, 172.0464
375.4408, 172.2089
375.9229, 172.4278
376.4051, 172.8763
376.8872, 173.2720
377.3693, 172.8958
377.8514, 171.5456
378.3335, 170.1719
378.8156, 169.1747
379.2978, 168.5521
379.7799, 168.0568
380.2620, 167.7309
380.7441, 167.4086
381.2262, 166.8936
381.7083, 166.1914
382.1905, 165.3508
382.6726, 164.2886
383.1547, 163.1464
383.6368, 162.3499
384.1189, 161.8918
384.6010, 161.6580
385.0832, 161.6821
385.5653, 161.8607
386.0474, 161.9037
386.5295, 161.7411
387.0116, 161.4595
387.4937, 161.0267
387.9759, 160.5269
388.4580, 160.2607
388.9401, 160.5701
389.4222, 161.1241
389.9043, 161.4742
390.3864, 161.5574
390.8686, 161.7798
391.3507, 162.6352
391.8328, 163.7838
392.3149, 164.7214
392.7970, 165.0745
393.2791, 165.3028
393.7613, 165.6096
394.2434, 166.0020
394.7255, 166.4875
395.2076, 167.0534
395.6897, 167.7232
396.1718, 168.5168
396.6540, 169.4708
397.1361, 170.4968
397.6182, 171.7397
398.1003, 173.0386
398.5824, 174.0296
399.0645, 174.0758
399.5467, 174.3212
400.0288, 175.2475
400.5109, 177.1662
400.9930, 178.7793
401.4751, 179.9830
401.9572, 180.9465
402.4394, 181.8254
402.9215, 182.5271
403.4036, 183.3075
403.8857, 184.2721
404.3678, 185.3871
404.8499, 186.2583
405.3321, 186.7724
405.8142, 187.2739
406.2963, 188.0203
406.7784, 189.0945
407.2605, 189.9960
407.7426, 190.7073
408.2248, 191.2170
408.7069, 191.4962
409.1890, 191.5358
409.6711, 191.3846
410.1532, 191.0335
410.6353, 190.4975
411.1175, 189.8473
411.5996, 189.0797
412.0817, 188.2495
412.5638, 187.3883
413.0459, 186.5169
413.5280, 185.6449
414.0102, 184.7420
414.4923, 183.8865
414.9744, 183.2693
415.4565, 182.8312
415.9386, 182.2691
416.4207, 181.2732
416.9029, 180.0882
417.3850, 178.9952
417.8671, 178.0166
418.3492, 177.1643
418.8313, 176.5004
419.3134, 175.9525
419.7956, 175.3925
420.2777, 174.7874
420.7598, 174.1407
421.2419, 173.4152
421.7240, 172.6167
422.2061, 171.8422
422.6883, 171.0831
423.1704, 170.3742
423.6525, 169.7240
424.1346, 169.0375
424.6167, 168.5399
425.0988, 168.3446
425.5810, 168.3668
426.0631, 168.4001
426.5452, 168.4127
427.0273, 168.4623
427.5094, 168.5990
427.9915, 168.8719
428.4737, 168.9838
428.9558, 168.8393
429.4379, 168.6382
429.9200, 168.5677
430.4021, 168.6261
430.8842, 168.8377
431.3664, 169.2345
431.8485, 169.7845
432.3306, 170.3672
432.8127, 170.9889
433.2948, 171.6171
433.7769, 172.2979
434.2591, 173.0111
434.7412, 173.3954
435.2233, 173.3433
435.7054, 173.2455
436.1875, 173.5804
436.6696, 174.3272
437.1518, 175.3674
437.6339, 176.9241
438.1160, 178.5967
438.5981, 179.5977
439.0802, 179.9796
439.5623, 180.3453
440.0444, 181.1352
440.5266, 182.1787
441.0087, 183.2982
441.4908, 184.5306
441.9729, 185.6555
442.4550, 186.3924
442.9371, 186.9207
443.4193, 187.5930
443.9014, 188.5148
444.3835, 189.6506
444.8656, 191.0512
445.3477, 192.7370
445.8298, 194.3394
446.3120, 195.6712
446.7941, 196.9328
447.2762, 198.2642
447.7583, 199.7117
448.2404, 201.2130
448.7225, 202.8911
449.2047, 204.6273
449.6868, 206.0184
450.1689, 206.9424
450.6510, 207.7005
451.1331, 208.3616
451.6152, 208.9069
452.0974, 209.5007
452.5795, 210.1581
453.0616, 210.8482
453.5437, 211.5920
454.0258, 212.4098
454.5079, 213.0889
454.9901, 213.5573
455.4722, 213.8759
455.9543, 214.2726
456.4364, 214.7511
456.9185, 215.1015
457.4006, 215.0786
457.8828, 214.8138
458.3649, 214.8108
458.8470, 215.1484
459.3291, 215.4323
459.8112, 215.1760
460.2933, 214.5409
460.7755, 213.8892
461.2576, 213.2753
461.7397, 212.7682
462.2218, 212.5717
462.7039, 212.5953
463.1860, 212.4135
463.6682, 211.4753
464.1503, 210.4385
464.6324, 209.9367
465.1145, 210.3331
465.5966, 210.3596
466.0787, 209.2502
466.5609, 207.6249
467.0430, 206.2952
467.5251, 206.1011
468.0072, 205.4938
468.4893, 203.8848
468.9714, 201.3410
469.4536, 199.1848
469.9357, 197.8370
470.4178, 196.4238
470.8999, 194.4414
471.3820, 191.5366
471.8641, 189.0056
472.3463, 186.9897
472.8284, 185.2130
473.3105, 183.1703
473.7926, 180.8224
474.2747, 178.4909
474.7568, 176.3033
475.2390, 174.2018
475.7211, 171.9099
476.2032, 169.4044
476.6853, 166.9101
477.1674, 164.4667
477.6495, 162.1429
478.1317, 160.1625
478.6138, 158.5764
479.0959, 157.2518
479.5780, 156.1411
480.0601, 155.1779
480.5422, 154.2259
481.0244, 153.1053
481.5065, 152.0508
481.9886, 151.2910
482.4707, 150.7976
482.9528, 150.3463
483.4349, 149.7340
483.9171, 149.1741
484.3992, 148.8235
484.8813, 148.7110
485.3634, 148.7930
485.8455, 149.2359
486.3276, 149.8236
486.8098, 150.2308
487.2919, 149.8568
487.7740, 149.9478
488.2561, 150.9477
488.7382, 152.7866
489.2203, 154.0410
489.7025, 154.3525
490.1846, 154.6167
490.6667, 155.4288
491.1488, 156.9185
491.6309, 158.2378
492.1130, 159.3475
492.5952, 160.3012
493.0773, 161.1223
493.5594, 161.8179
494.0415, 162.7465
494.5236, 164.1781
495.0057, 165.8421
495.4879, 167.1519
495.9700, 168.1128
496.4521, 168.8856
496.9342, 169.4071
497.4163, 169.8745
497.8984, 170.6324
498.3806, 171.7955
498.8627, 172.9358
499.3448, 173.8182
499.8269, 174.4595
500.3090, 174.8930
500.7911, 175.0689
501.2733, 175.0979
501.7554, 174.9414
502.2375, 174.6429
502.7196, 174.4389
503.2017, 174.5857
503.6838, 174.6735
504.1660, 174.4749
504.6481, 173.8379
505.1302, 173.3024
505.6123, 172.9292
506.0944, 172.6106
506.5765, 172.2268
507.0587, 171.7367
507.5408, 171.2970
508.0229, 170.9603
508.5050, 170.6821
508.9871, 170.2307
509.4692, 169.5636
509.9514, 169.0276
510.4335, 168.9491
510.9156, 169.2127
511.3977, 169.0664
511.8798, 168.4438
512.3619, 167.8725
512.8441, 168.0961
513.3262, 168.7560
513.8083, 168.9803
514.2904, 168.2929
514.7725, 167.5073
515.2546, 167.4413
515.7368, 167.8840
516.2189, 168.2881
516.7010, 168.2504
517.1831, 168.2129
517.6652, 168.5515
518.1473, 169.3091
518.6295, 169.7547
519.1116, 169.2481
519.5937, 168.6217
520.0758, 168.4728
520.5579, 169.6127
521.0400, 170.2103
521.5222, 169.9482
522.0043, 169.2754
522.4864, 169.0930
522.9685, 169.8146
523.4506, 170.0469
523.9327, 169.1577
524.4149, 167.3855
524.8970, 166.5527
525.3791, 166.7697
525.8612, 167.3669
526.3433, 168.0664
526.8254, 168.7876
527.3076, 168.9526
527.7897, 168.3931
528.2718, 167.7864
528.7539, 167.9413
529.2360, 168.6541
529.7181, 169.4546
530.2003, 170.2977
530.6824, 171.0247
531.1645, 171.3666
531.6466, 171.4408
532.1287, 171.7030
532.6108, 172.5533
533.0930, 173.5118
533.5751, 174.3302
534.0572, 174.9734
534.5393, 175.4899
535.0214, 175.6873
535.5035, 175.8738
535.9857, 176.3280
536.4678, 177.4426
536.9499, 178.2081
537.4320, 178.3987
537.9141, 178.2706
538.3962, 178.4459
538.8784, 179.0113
539.3605, 179.6041
539.8426, 180.0546
540.3247, 180.4104
540.8068, 181.0880
541.2889, 182.1357
541.7711, 182.9659
542.2532, 182.7894
542.7353, 181.9907
543.2174, 181.7857
543.6995, 182.4261
544.1816, 183.2375
544.6638, 183.4606
545.1459, 183.3834
545.6280, 183.5271
546.1101, 184.3721
546.5922, 185.2544
547.0743, 185.7947
547.5565, 186.0481
548.0386, 186.2253
548.5207, 186.0331
549.0028, 186.0822
549.4849, 186.7791
549.9670, 188.3991
550.4492, 189.6029
550.9313, 190.0146
551.4134, 190.2938
551.8955, 190.9635
552.3776, 192.0907
552.8597, 193.4375
553.3419, 195.0285
553.8240, 196.7870
554.3061, 198.5703
554.7882, 200.3802
555.2703, 202.2251
555.7524, 204.0253
556.2346, 205.8657
556.7167, 207.9682
557.1988, 210.3192
557.6809, 212.7246
558.1630, 214.8911
558.6451, 217.0925
559.1273, 219.7666
559.6094, 223.0621
560.0915, 226.3370
560.5736, 229.4043
561.0557, 232.1665
561.5378, 234.5115
562.0200, 236.1158
562.5021, 237.6203
562.9842, 239.4767
563.4663, 241.3817
563.9484, 242.4788
564.4305, 242.5054
564.9127, 242.0113
565.3948, 241.0926
565.8769, 239.7571
566.3590, 238.1195
566.8411, 236.0643
567.3232, 233.9512
567.8054, 232.0156
568.2875, 230.2496
568.7696, 228.4374
569.2517, 226.5655
569.7338, 224.5876
570.2159, 222.2474
570.6981, 219.7223
571.1802, 217.4316
571.6623, 215.4215
572.1444, 213.8321
572.6265, 212.9789
573.1086, 212.6855
573.5908, 212.3818
574.0729, 211.6965
574.5550, 210.9845
575.0371, 210.4189
575.5192, 210.0125
576.0013, 209.7938
576.4835, 209.7497
576.9656, 209.9137
577.4477, 210.3236
577.9298, 211.1404
578.4119, 211.8517
578.8940, 212.2785
579.3762, 212.7431
579.8583, 213.7045
580.3404, 215.2306
580.8225, 216.9728
581.3046, 218.9381
581.7867, 220.9921
582.2689, 222.6828
582.7510, 224.0372
583.2331, 225.3946
583.7152, 227.0532
584.1973, 228.8130
584.6794, 230.3255
585.1616, 231.5854
585.6437, 232.6747
586.1258, 233.7829
586.6079, 234.6745
587.0900, 235.1392
587.5721, 235.1221
588.0542, 234.7353
588.5363, 234.0147
589.0184, 232.9494
589.5005, 231.5249
589.9827, 229.6618
590.4648, 227.5111
