##NAMES=Sarcopside
##RRUFFID=R070553
##IDEAL CHEMISTRY=Fe^2+^_3_(PO_4_)_2_
##LOCALITY=Bull Moose mine, Custer District, Custer County, South Dakota, USA
##OWNER=RRUFF
##SOURCE=James Shigley
##DESCRIPTION=Brown, lamellar crystals with waxy luster, forming intergrowth with triphylite
##STATUS=The identification of this mineral is confirmed by single-crystal X-ray diffraction and chemical analysis.
##URL=rruff.info/R070553
##MEASURED CHEMISTRY=(Fe^2+^_2.30_Mn_0.67_Mg_0.03_)_Î£=3_(P_1.00_O_4_)_2_ ; lighter phase
127.4959, 1612.717
127.9780, 1707.443
128.4601, 1812.766
128.9422, 1934.768
129.4243, 2072.672
129.9064, 2217.952
130.3886, 2362.848
130.8707, 2507.747
131.3528, 2665.257
131.8349, 2842.973
132.3170, 3033.251
132.7991, 3213.721
133.2813, 3383.367
133.7634, 3554.593
134.2455, 3748.096
134.7276, 3961.660
135.2097, 4171.331
135.6918, 4365.729
136.1740, 4544.854
136.6561, 4734.534
137.1382, 4939.116
137.6203, 5147.143
138.1024, 5344.880
138.5845, 5533.839
139.0667, 5711.037
139.5488, 5871.801
140.0309, 6010.436
140.5130, 6171.428
140.9951, 6366.744
141.4772, 6583.441
141.9594, 6772.435
142.4415, 6922.093
142.9236, 7068.797
143.4057, 7244.485
143.8878, 7470.204
144.3699, 7669.201
144.8521, 7826.905
145.3342, 7946.409
145.8163, 8059.715
146.2984, 8167.950
146.7805, 8269.812
147.2626, 8366.505
147.7448, 8452.040
148.2269, 8539.481
148.7090, 8627.523
149.1911, 8713.814
149.6732, 8816.921
150.1554, 8947.867
150.6375, 9092.996
151.1196, 9229.514
151.6017, 9359.645
152.0838, 9481.674
152.5659, 9594.577
153.0481, 9698.214
153.5302, 9795.580
154.0123, 9867.270
154.4944, 9932.642
154.9765, 10033.62
155.4586, 10212.84
155.9408, 10400.57
156.4229, 10566.74
156.9050, 10665.31
157.3871, 10693.51
157.8692, 10683.87
158.3513, 10650.81
158.8335, 10627.89
159.3156, 10638.21
159.7977, 10653.51
160.2798, 10655.33
160.7619, 10629.10
161.2440, 10600.33
161.7262, 10577.38
162.2083, 10559.99
162.6904, 10541.67
163.1725, 10519.62
163.6546, 10495.64
164.1367, 10471.60
164.6189, 10427.92
165.1010, 10399.06
165.5831, 10411.81
166.0652, 10471.19
166.5473, 10524.92
167.0294, 10531.71
167.5116, 10515.83
167.9937, 10512.88
168.4758, 10546.81
168.9579, 10593.51
169.4400, 10634.85
169.9221, 10667.19
170.4043, 10698.96
170.8864, 10742.33
171.3685, 10790.15
171.8506, 10826.46
172.3327, 10836.17
172.8148, 10832.26
173.2970, 10828.44
173.7791, 10827.96
174.2612, 10826.96
174.7433, 10822.06
175.2254, 10813.82
175.7076, 10803.75
176.1897, 10796.47
176.6718, 10787.74
177.1539, 10770.33
177.6360, 10740.78
178.1181, 10704.17
178.6003, 10657.34
179.0824, 10601.83
179.5645, 10562.56
180.0466, 10572.14
180.5287, 10612.95
181.0108, 10642.21
181.4930, 10645.35
181.9751, 10629.35
182.4572, 10595.99
182.9393, 10543.29
183.4214, 10503.62
183.9035, 10527.09
184.3857, 10596.51
184.8678, 10647.20
185.3499, 10634.64
185.8320, 10583.27
186.3141, 10563.73
186.7962, 10580.04
187.2784, 10606.97
187.7605, 10610.33
188.2426, 10593.08
188.7247, 10579.93
189.2068, 10587.14
189.6889, 10609.53
190.1711, 10621.79
190.6532, 10618.54
191.1353, 10615.04
191.6174, 10648.74
192.0995, 10718.74
192.5816, 10769.90
193.0638, 10751.14
193.5459, 10672.51
194.0280, 10632.01
194.5101, 10645.57
194.9922, 10690.37
195.4743, 10722.50
195.9565, 10742.03
196.4386, 10747.68
196.9207, 10731.36
197.4028, 10693.54
197.8849, 10666.94
198.3671, 10658.19
198.8492, 10662.06
199.3313, 10658.59
199.8134, 10644.21
200.2955, 10637.91
200.7776, 10661.20
201.2598, 10717.12
201.7419, 10760.25
202.2240, 10778.73
202.7061, 10777.61
203.1882, 10788.94
203.6703, 10818.20
204.1525, 10844.13
204.6346, 10844.46
205.1167, 10814.99
205.5988, 10783.79
206.0809, 10755.73
206.5630, 10730.84
207.0452, 10709.58
207.5273, 10690.68
208.0094, 10677.96
208.4915, 10678.89
208.9736, 10698.46
209.4557, 10711.57
209.9379, 10708.15
210.4200, 10687.55
210.9021, 10681.28
211.3842, 10697.00
211.8663, 10717.18
212.3484, 10714.56
212.8306, 10680.99
213.3127, 10650.46
213.7948, 10634.54
214.2769, 10635.22
214.7590, 10636.82
215.2411, 10639.09
215.7233, 10642.51
216.2054, 10647.40
216.6875, 10652.59
217.1696, 10661.62
217.6517, 10677.74
218.1338, 10705.04
218.6160, 10722.01
219.0981, 10724.85
219.5802, 10719.71
220.0623, 10720.35
220.5444, 10731.34
221.0265, 10738.67
221.5087, 10731.43
221.9908, 10692.45
222.4729, 10691.10
222.9550, 10749.33
223.4371, 10837.47
223.9192, 10873.52
224.4014, 10826.35
224.8835, 10780.12
225.3656, 10780.87
225.8477, 10858.79
226.3298, 10905.63
226.8119, 10902.66
227.2941, 10868.42
227.7762, 10869.08
228.2583, 10923.42
228.7404, 10983.31
229.2225, 11023.79
229.7046, 11043.26
230.1868, 11044.72
230.6689, 11019.22
231.1510, 10974.95
231.6331, 10948.54
232.1152, 10950.58
232.5974, 10956.74
233.0795, 10952.42
233.5616, 10932.81
234.0437, 10914.49
234.5258, 10900.75
235.0079, 10890.61
235.4901, 10873.98
235.9722, 10844.21
236.4543, 10817.37
236.9364, 10804.13
237.4185, 10806.91
237.9006, 10819.49
238.3828, 10846.56
238.8649, 10885.17
239.3470, 10909.29
239.8291, 10908.62
240.3112, 10904.25
240.7933, 10913.09
241.2755, 10946.60
241.7576, 10968.64
242.2397, 10969.25
242.7218, 10950.15
243.2039, 10943.32
243.6860, 10954.16
244.1682, 10970.95
244.6503, 10982.51
245.1324, 10979.39
245.6145, 10992.08
246.0966, 11037.40
246.5787, 11113.26
247.0609, 11143.66
247.5430, 11106.16
248.0251, 11048.51
248.5072, 11010.67
248.9893, 10998.61
249.4714, 10995.10
249.9536, 11000.19
250.4357, 11013.70
250.9178, 11020.89
251.3999, 11016.02
251.8820, 11011.13
252.3641, 11019.97
252.8463, 11054.83
253.3284, 11076.59
253.8105, 11072.15
254.2926, 11041.65
254.7747, 11029.66
255.2568, 11045.42
255.7390, 11069.30
256.2211, 11081.49
256.7032, 11074.98
257.1853, 11073.16
257.6674, 11083.04
258.1495, 11104.81
258.6317, 11117.52
259.1138, 11117.73
259.5959, 11112.86
260.0780, 11110.77
260.5601, 11113.96
261.0422, 11112.79
261.5244, 11102.02
262.0065, 11081.53
262.4886, 11073.53
262.9707, 11078.73
263.4528, 11095.28
263.9349, 11125.65
264.4171, 11180.19
264.8992, 11219.59
265.3813, 11229.13
265.8634, 11209.49
266.3455, 11215.60
266.8276, 11261.99
267.3098, 11311.34
267.7919, 11318.11
268.2740, 11264.37
268.7561, 11229.51
269.2382, 11241.44
269.7203, 11296.81
270.2025, 11322.32
270.6846, 11310.35
271.1667, 11281.92
271.6488, 11252.00
272.1309, 11214.59
272.6130, 11203.86
273.0952, 11237.33
273.5773, 11310.28
274.0594, 11362.32
274.5415, 11392.93
275.0236, 11404.32
275.5057, 11389.21
275.9879, 11340.52
276.4700, 11311.83
276.9521, 11322.39
277.4342, 11366.64
277.9163, 11398.99
278.3984, 11417.91
278.8806, 11429.86
279.3627, 11437.99
279.8448, 11441.28
280.3269, 11453.52
280.8090, 11483.37
281.2911, 11525.05
281.7733, 11546.27
282.2554, 11542.97
282.7375, 11534.35
283.2196, 11540.78
283.7017, 11562.24
284.1838, 11580.18
284.6660, 11589.04
285.1481, 11590.99
285.6302, 11594.21
286.1123, 11598.69
286.5944, 11604.89
287.0765, 11619.78
287.5587, 11641.75
288.0408, 11644.02
288.5229, 11610.11
289.0050, 11557.49
289.4871, 11538.66
289.9692, 11555.14
290.4514, 11580.57
290.9335, 11593.76
291.4156, 11596.16
291.8977, 11595.41
292.3798, 11591.50
292.8619, 11586.87
293.3441, 11590.31
293.8262, 11601.69
294.3083, 11607.81
294.7904, 11584.37
295.2726, 11544.08
295.7547, 11535.64
296.2368, 11585.92
296.7189, 11654.97
297.2010, 11666.77
297.6831, 11626.18
298.1653, 11584.41
298.6474, 11586.46
299.1295, 11615.63
299.6116, 11632.38
300.0937, 11624.18
300.5758, 11607.09
301.0580, 11605.27
301.5401, 11615.59
302.0222, 11620.64
302.5043, 11596.69
302.9864, 11562.12
303.4685, 11549.16
303.9507, 11569.17
304.4328, 11601.36
304.9149, 11632.82
305.3970, 11660.46
305.8791, 11673.34
306.3612, 11646.13
306.8434, 11607.21
307.3255, 11593.44
307.8076, 11617.44
308.2897, 11650.88
308.7718, 11674.07
309.2539, 11688.33
309.7361, 11697.37
310.2182, 11691.33
310.7003, 11687.01
311.1824, 11703.90
311.6645, 11752.29
312.1466, 11795.97
312.6288, 11806.23
313.1109, 11795.47
313.5930, 11789.61
314.0751, 11811.93
314.5572, 11835.19
315.0393, 11838.44
315.5215, 11814.63
316.0036, 11792.72
316.4857, 11792.29
316.9678, 11801.36
317.4499, 11801.34
317.9320, 11759.59
318.4142, 11728.50
318.8963, 11743.57
319.3784, 11816.98
319.8605, 11872.29
320.3426, 11865.22
320.8247, 11832.07
321.3069, 11816.25
321.7890, 11830.67
322.2711, 11861.21
322.7532, 11915.16
323.2353, 11997.03
323.7174, 12048.68
324.1996, 12039.09
324.6817, 12003.32
325.1638, 11974.06
325.6459, 11951.36
326.1280, 11939.47
326.6101, 11943.90
327.0923, 11965.22
327.5744, 11981.22
328.0565, 11985.90
328.5386, 11988.40
329.0207, 11995.75
329.5028, 12034.60
329.9850, 12045.35
330.4671, 12006.88
330.9492, 11927.56
331.4313, 11877.55
331.9134, 11870.89
332.3955, 11880.20
332.8777, 11889.38
333.3598, 11893.62
333.8419, 11907.23
334.3240, 11939.32
334.8061, 11981.02
335.2882, 11998.67
335.7704, 11983.29
336.2525, 11957.61
336.7346, 11927.93
337.2167, 11884.59
337.6988, 11872.40
338.1809, 11904.45
338.6631, 11960.01
339.1452, 11988.17
339.6273, 11981.06
340.1094, 11972.63
340.5915, 11982.81
341.0736, 12015.66
341.5558, 12028.97
342.0379, 12019.92
342.5200, 11996.91
343.0021, 11967.02
343.4842, 11929.14
343.9663, 11903.90
344.4485, 11909.66
344.9306, 11940.83
345.4127, 11943.75
345.8948, 11913.56
346.3769, 11879.15
346.8590, 11880.82
347.3412, 11914.20
347.8233, 11941.85
348.3054, 11947.93
348.7875, 11940.02
349.2696, 11932.48
349.7517, 11924.92
350.2339, 11927.56
350.7160, 11957.33
351.1981, 12004.97
351.6802, 12046.77
352.1623, 12074.01
352.6444, 12092.29
353.1266, 12107.28
353.6087, 12119.13
354.0908, 12129.49
354.5729, 12148.79
355.0550, 12164.59
355.5371, 12154.94
356.0193, 12098.30
356.5014, 12043.84
356.9835, 12048.65
357.4656, 12094.83
357.9477, 12126.02
358.4298, 12094.22
358.9120, 12044.84
359.3941, 12016.95
359.8762, 12022.08
360.3583, 12034.90
360.8404, 12042.33
361.3225, 12048.22
361.8047, 12059.63
362.2868, 12082.48
362.7689, 12108.58
363.2510, 12138.51
363.7331, 12176.13
364.2152, 12194.47
364.6974, 12157.03
365.1795, 12105.05
365.6616, 12086.00
366.1437, 12147.66
366.6258, 12205.20
367.1079, 12237.93
367.5901, 12244.54
368.0722, 12238.06
368.5543, 12202.39
369.0364, 12164.26
369.5185, 12144.34
370.0006, 12157.07
370.4828, 12170.35
370.9649, 12184.04
371.4470, 12197.33
371.9291, 12202.84
372.4112, 12190.38
372.8933, 12181.61
373.3755, 12189.96
373.8576, 12223.82
374.3397, 12252.82
374.8218, 12271.79
375.3039, 12285.81
375.7861, 12309.44
376.2682, 12346.08
376.7503, 12381.47
377.2324, 12412.92
377.7145, 12442.46
378.1967, 12444.28
378.6788, 12410.68
379.1609, 12364.32
379.6430, 12340.52
380.1251, 12341.11
380.6072, 12341.19
381.0894, 12331.22
381.5715, 12313.65
382.0536, 12296.62
382.5357, 12279.49
383.0178, 12269.24
383.4999, 12266.46
383.9821, 12274.49
384.4642, 12311.81
384.9463, 12405.41
385.4284, 12510.85
385.9105, 12548.00
386.3926, 12521.93
386.8748, 12489.86
387.3569, 12490.63
387.8390, 12512.83
388.3211, 12537.75
388.8032, 12560.89
389.2853, 12587.69
389.7675, 12636.26
390.2496, 12694.98
390.7317, 12730.86
391.2138, 12708.52
391.6959, 12668.12
392.1780, 12638.83
392.6602, 12624.35
393.1423, 12623.13
393.6244, 12645.30
394.1065, 12677.58
394.5886, 12702.22
395.0707, 12710.69
395.5529, 12712.59
396.0350, 12708.03
396.5171, 12696.61
396.9992, 12691.78
397.4813, 12702.29
397.9634, 12717.02
398.4456, 12727.65
398.9277, 12747.63
399.4098, 12746.54
399.8919, 12698.14
400.3740, 12616.46
400.8561, 12580.68
401.3383, 12631.16
401.8204, 12686.94
402.3025, 12709.63
402.7846, 12681.42
403.2667, 12658.04
403.7488, 12641.77
404.2310, 12629.58
404.7131, 12613.55
405.1952, 12588.74
405.6773, 12574.59
406.1594, 12582.01
406.6415, 12611.79
407.1237, 12632.49
407.6058, 12642.70
408.0879, 12646.53
408.5700, 12647.11
409.0521, 12644.19
409.5342, 12641.15
410.0164, 12637.16
410.4985, 12634.26
410.9806, 12645.39
411.4627, 12670.90
411.9448, 12683.85
412.4269, 12646.12
412.9091, 12577.89
413.3912, 12542.11
413.8733, 12556.28
414.3554, 12587.52
414.8375, 12595.22
415.3196, 12586.07
415.8018, 12581.44
416.2839, 12597.14
416.7660, 12621.74
417.2481, 12648.17
417.7302, 12678.30
418.2123, 12691.43
418.6945, 12654.67
419.1766, 12597.59
419.6587, 12560.61
420.1408, 12563.52
420.6229, 12584.72
421.1050, 12627.96
421.5872, 12689.16
422.0693, 12727.52
422.5514, 12711.60
423.0335, 12680.21
423.5156, 12658.60
423.9977, 12668.64
424.4799, 12665.11
424.9620, 12623.68
425.4441, 12563.90
425.9262, 12539.73
426.4083, 12581.50
426.8904, 12625.39
427.3726, 12649.35
427.8547, 12646.38
428.3368, 12650.89
428.8189, 12670.81
429.3010, 12690.94
429.7831, 12690.48
430.2653, 12662.74
430.7474, 12638.09
431.2295, 12624.39
431.7116, 12620.45
432.1937, 12617.99
432.6758, 12617.50
433.1580, 12617.64
433.6401, 12611.63
434.1222, 12601.49
434.6043, 12614.43
435.0864, 12660.74
435.5685, 12717.13
436.0507, 12744.41
436.5328, 12745.43
437.0149, 12740.96
437.4970, 12741.94
437.9791, 12744.31
438.4612, 12737.78
438.9434, 12720.58
439.4255, 12709.92
439.9076, 12728.72
440.3897, 12762.90
440.8718, 12788.92
441.3539, 12788.62
441.8361, 12787.55
442.3182, 12808.45
442.8003, 12846.25
443.2824, 12872.72
443.7645, 12867.85
444.2466, 12852.75
444.7288, 12841.44
445.2109, 12837.21
445.6930, 12834.73
446.1751, 12834.93
446.6572, 12835.53
447.1393, 12832.54
447.6215, 12808.08
448.1036, 12797.05
448.5857, 12813.51
449.0678, 12861.93
449.5499, 12895.79
450.0320, 12903.27
450.5142, 12907.95
450.9963, 12931.72
451.4784, 12983.82
451.9605, 13030.61
452.4426, 13068.21
452.9247, 13097.69
453.4069, 13124.72
453.8890, 13149.83
454.3711, 13169.85
454.8532, 13177.58
455.3353, 13174.81
455.8174, 13189.64
456.2996, 13226.61
456.7817, 13266.96
457.2638, 13283.57
457.7459, 13281.31
458.2281, 13281.83
458.7102, 13290.39
459.1923, 13307.87
459.6744, 13344.14
460.1565, 13396.85
460.6386, 13437.63
461.1208, 13442.35
461.6029, 13428.12
462.0850, 13411.03
462.5671, 13384.92
463.0492, 13379.43
463.5313, 13434.37
464.0135, 13521.37
464.4956, 13582.44
464.9777, 13575.87
465.4598, 13560.64
465.9419, 13558.55
466.4240, 13570.95
466.9062, 13596.36
467.3883, 13646.22
467.8704, 13701.32
468.3525, 13747.26
468.8346, 13788.23
469.3167, 13809.18
469.7989, 13791.44
470.2810, 13752.06
470.7631, 13760.55
471.2452, 13848.04
471.7273, 13921.40
472.2094, 13927.06
472.6916, 13854.64
473.1737, 13824.42
473.6558, 13845.76
474.1379, 13887.92
474.6200, 13921.53
475.1021, 13946.37
475.5843, 13946.46
476.0664, 13903.78
476.5485, 13844.11
477.0306, 13833.19
477.5127, 13866.76
477.9948, 13897.28
478.4770, 13880.01
478.9591, 13840.23
479.4412, 13821.48
479.9233, 13835.07
480.4054, 13848.22
480.8875, 13825.71
481.3697, 13785.34
481.8518, 13757.67
482.3339, 13767.08
482.8160, 13781.56
483.2981, 13788.73
483.7802, 13787.73
484.2624, 13774.46
484.7445, 13732.66
485.2266, 13688.23
485.7087, 13657.76
486.1908, 13659.79
486.6729, 13652.51
487.1551, 13630.37
487.6372, 13599.48
488.1193, 13571.08
488.6014, 13545.69
489.0835, 13523.65
489.5656, 13507.29
490.0478, 13496.99
490.5299, 13478.27
491.0120, 13449.41
491.4941, 13417.13
491.9762, 13382.92
492.4583, 13347.16
492.9405, 13328.16
493.4226, 13333.60
493.9047, 13348.07
494.3868, 13341.94
494.8689, 13318.09
495.3510, 13295.76
495.8332, 13283.80
496.3153, 13280.14
496.7974, 13282.73
497.2795, 13291.30
497.7616, 13302.45
498.2437, 13321.08
498.7259, 13337.93
499.2080, 13292.87
499.6901, 13355.64
500.1722, 13390.38
500.6543, 13398.59
501.1364, 13300.53
501.6186, 13339.94
502.1007, 13324.40
502.5828, 13306.71
503.0649, 13365.77
503.5470, 13283.70
504.0291, 13341.75
504.5113, 13344.02
504.9934, 13371.97
505.4755, 13344.63
505.9576, 13334.50
506.4397, 13379.89
506.9218, 13394.70
507.4040, 13361.40
507.8861, 13391.60
508.3682, 13308.64
508.8503, 13325.18
509.3324, 13384.70
509.8145, 13354.71
510.2967, 13386.44
510.7788, 13394.81
511.2609, 13296.63
511.7430, 13384.03
512.2252, 13391.33
512.7073, 13316.36
513.1894, 13397.73
513.6715, 13334.33
514.1536, 13322.74
514.6357, 13350.17
515.1179, 13337.14
515.6000, 13388.17
516.0821, 13377.69
516.5642, 13361.81
517.0463, 13370.05
517.5284, 13310.33
518.0106, 13377.01
518.4927, 13357.51
518.9748, 13381.01
519.4569, 13414.33
519.9390, 13373.33
520.4211, 13411.23
520.9033, 13327.03
521.3854, 13392.71
521.8675, 13376.81
522.3496, 13362.39
522.8317, 13363.20
523.3138, 13380.63
523.7960, 13396.88
524.2781, 13414.31
524.7602, 13424.86
525.2423, 13411.77
525.7244, 13378.27
526.2065, 13367.26
526.6887, 13395.40
527.1708, 13437.13
527.6529, 13448.33
528.1350, 13434.56
528.6171, 13419.94
529.0992, 13419.04
529.5814, 13423.42
530.0635, 13417.61
530.5456, 13400.36
531.0277, 13399.89
531.5098, 13451.69
531.9919, 13518.48
532.4741, 13565.39
532.9562, 13570.85
533.4383, 13572.01
533.9204, 13574.25
534.4025, 13578.35
534.8846, 13586.42
535.3668, 13612.98
535.8489, 13627.75
536.3310, 13618.72
536.8131, 13584.74
537.2952, 13563.77
537.7773, 13557.25
538.2595, 13562.68
538.7416, 13583.77
539.2237, 13623.54
539.7058, 13646.66
540.1879, 13644.88
540.6700, 13636.93
541.1522, 13657.96
541.6343, 13703.97
542.1164, 13745.40
542.5985, 13760.02
543.0806, 13766.68
543.5627, 13802.35
544.0449, 13862.84
544.5270, 13912.38
545.0091, 13919.13
545.4912, 13907.73
545.9733, 13900.09
546.4554, 13897.38
546.9376, 13906.61
547.4197, 13949.52
547.9018, 14000.42
548.3839, 14024.37
548.8660, 13974.50
549.3481, 13942.16
549.8303, 13955.03
550.3124, 14005.17
550.7945, 14043.48
551.2766, 14080.17
551.7587, 14089.01
552.2408, 14048.24
552.7230, 13947.99
553.2051, 13871.71
553.6872, 13821.46
554.1693, 13789.45
554.6514, 13771.51
555.1335, 13766.06
555.6157, 13760.56
556.0978, 13755.39
556.5799, 13743.16
557.0620, 13701.59
557.5441, 13639.44
558.0262, 13591.33
558.5084, 13590.52
558.9905, 13604.16
559.4726, 13602.14
559.9547, 13582.48
560.4368, 13563.15
560.9189, 13549.62
561.4011, 13542.19
561.8832, 13541.77
562.3653, 13559.98
562.8474, 13569.35
563.3295, 13553.56
563.8116, 13530.09
564.2938, 13531.04
564.7759, 13579.78
565.2580, 13610.44
565.7401, 13600.76
566.2222, 13556.32
566.7043, 13521.86
567.1865, 13494.58
567.6686, 13489.59
568.1507, 13536.63
568.6328, 13622.27
569.1149, 13659.42
569.5970, 13635.05
570.0792, 13595.33
570.5613, 13592.07
571.0434, 13612.76
571.5255, 13630.76
572.0076, 13637.95
572.4897, 13637.51
572.9719, 13621.76
573.4540, 13598.56
573.9361, 13592.34
574.4182, 13631.11
574.9003, 13673.74
575.3824, 13702.16
575.8646, 13714.88
576.3467, 13715.89
576.8288, 13695.06
577.3109, 13671.31
577.7930, 13658.40
578.2751, 13661.78
578.7573, 13662.55
579.2394, 13658.35
579.7215, 13653.00
580.2036, 13655.32
580.6857, 13666.31
581.1678, 13672.15
581.6500, 13665.92
582.1321, 13652.74
582.6142, 13645.23
583.0963, 13643.29
583.5784, 13643.67
584.0605, 13636.29
584.5427, 13633.66
585.0248, 13657.38
585.5069, 13713.68
585.9890, 13765.79
586.4711, 13794.45
586.9532, 13805.93
587.4354, 13806.54
587.9175, 13782.15
588.3996, 13764.99
588.8817, 13759.17
589.3638, 13764.59
589.8459, 13782.01
590.3281, 13822.72
590.8102, 13854.57
591.2923, 13849.85
591.7744, 13737.12
592.2565, 13832.79
592.7386, 13900.68
593.2208, 13942.31
593.7029, 13878.94
594.1850, 13951.14
594.6671, 13969.01
595.1492, 13984.65
595.6313, 14075.93
596.1135, 14027.84
596.5956, 14117.92
597.0777, 14176.20
597.5598, 14193.19
598.0419, 14201.13
598.5240, 14208.25
599.0062, 14213.71
599.4883, 14214.85
599.9704, 14198.83
600.4525, 14189.21
600.9346, 14196.46
601.4167, 14222.37
601.8989, 14254.72
602.3810, 14306.10
602.8631, 14348.07
603.3452, 14358.27
603.8273, 14325.76
604.3094, 14304.46
604.7916, 14296.71
605.2737, 14299.49
605.7558, 14320.89
606.2379, 14356.37
606.7200, 14359.48
607.2021, 14304.94
607.6843, 14225.78
608.1664, 14161.20
608.6485, 14113.18
609.1306, 14086.37
609.6127, 14101.18
610.0948, 14126.40
610.5770, 14142.29
611.0591, 14147.72
611.5412, 14138.62
612.0233, 14091.39
612.5054, 14044.21
612.9875, 14024.53
613.4697, 14059.24
613.9518, 14076.73
614.4339, 14071.72
614.9160, 14053.84
615.3981, 14033.49
615.8802, 14008.28
616.3624, 13992.06
616.8445, 13990.86
617.3266, 13997.51
617.8087, 13989.90
618.2908, 13969.59
618.7729, 13958.87
619.2551, 13980.35
619.7372, 14014.30
620.2193, 14028.64
620.7014, 14023.76
621.1835, 14017.63
