##NAMES=Sarcopside
##RRUFFID=R070553
##IDEAL CHEMISTRY=Fe^2+^_3_(PO_4_)_2_
##LOCALITY=Bull Moose mine, Custer District, Custer County, South Dakota, USA
##OWNER=RRUFF
##SOURCE=James Shigley
##DESCRIPTION=Brown, lamellar crystals with waxy luster, forming intergrowth with triphylite
##STATUS=The identification of this mineral is confirmed by single-crystal X-ray diffraction and chemical analysis.
##URL=rruff.info/R070553
##MEASURED CHEMISTRY=(Fe^2+^_2.30_Mn_0.67_Mg_0.03_)_Î£=3_(P_1.00_O_4_)_2_ ; lighter phase
119.9534, 1074.075
120.4355, 1104.010
120.9176, 1141.588
121.3997, 1186.560
121.8818, 1234.338
122.3640, 1282.670
122.8461, 1336.044
123.3282, 1396.911
123.8103, 1465.293
124.2924, 1538.437
124.7745, 1616.365
125.2567, 1700.508
125.7388, 1779.506
126.2209, 1849.581
126.7030, 1915.713
127.1851, 1979.167
127.6672, 2040.337
128.1494, 2101.446
128.6315, 2165.006
129.1136, 2230.811
129.5957, 2299.335
130.0778, 2373.695
130.5600, 2448.675
131.0421, 2523.156
131.5242, 2596.110
132.0063, 2664.967
132.4884, 2724.910
132.9705, 2771.531
133.4527, 2816.691
133.9348, 2858.197
134.4169, 2900.542
134.8990, 2947.312
135.3811, 2999.762
135.8632, 3056.895
136.3454, 3116.004
136.8275, 3177.478
137.3096, 3241.743
137.7917, 3309.884
138.2738, 3380.031
138.7559, 3448.537
139.2381, 3514.164
139.7202, 3580.119
140.2023, 3655.444
140.6844, 3742.863
141.1665, 3837.811
141.6486, 3939.587
142.1308, 4048.877
142.6129, 4165.893
143.0950, 4291.470
143.5771, 4424.786
144.0592, 4564.173
144.5413, 4711.524
145.0235, 4862.524
145.5056, 5017.745
145.9877, 5175.692
146.4698, 5337.132
146.9519, 5504.452
147.4340, 5671.809
147.9162, 5810.631
148.3983, 5908.307
148.8804, 5998.180
149.3625, 6092.274
149.8446, 6185.060
150.3267, 6266.197
150.8089, 6330.881
151.2910, 6378.318
151.7731, 6405.630
152.2552, 6405.317
152.7373, 6397.375
153.2194, 6385.890
153.7016, 6372.165
154.1837, 6359.959
154.6658, 6351.620
155.1479, 6346.331
155.6300, 6339.969
156.1121, 6329.052
156.5943, 6320.357
157.0764, 6313.426
157.5585, 6310.048
158.0406, 6318.122
158.5227, 6341.260
159.0048, 6381.647
159.4870, 6434.138
159.9691, 6488.113
160.4512, 6525.496
160.9333, 6530.263
161.4154, 6505.995
161.8975, 6478.612
162.3797, 6459.389
162.8618, 6449.378
163.3439, 6447.562
163.8260, 6456.491
164.3081, 6471.526
164.7902, 6495.747
165.2724, 6528.644
165.7545, 6549.526
166.2366, 6539.792
166.7187, 6513.532
167.2008, 6501.008
167.6829, 6517.734
168.1651, 6536.376
168.6472, 6528.331
169.1293, 6493.411
169.6114, 6460.747
170.0935, 6447.072
170.5756, 6445.434
171.0578, 6444.990
171.5399, 6449.065
172.0220, 6448.513
172.5041, 6429.286
172.9862, 6389.328
173.4683, 6353.277
173.9505, 6338.950
174.4326, 6334.012
174.9147, 6320.735
175.3968, 6289.961
175.8789, 6256.347
176.3610, 6237.277
176.8432, 6233.965
177.3253, 6234.959
177.8074, 6239.955
178.2895, 6244.132
178.7716, 6240.098
179.2537, 6221.022
179.7359, 6200.558
180.2180, 6198.587
180.7001, 6218.725
181.1822, 6236.757
181.6643, 6234.748
182.1465, 6227.531
182.6286, 6233.590
183.1107, 6266.212
183.5928, 6298.078
184.0749, 6284.501
184.5570, 6213.860
185.0392, 6155.817
185.5213, 6148.829
186.0034, 6165.328
186.4855, 6185.677
186.9676, 6207.434
187.4497, 6224.599
187.9319, 6225.133
188.4140, 6204.299
188.8961, 6189.480
189.3782, 6198.895
189.8603, 6215.347
190.3424, 6224.352
190.8246, 6221.176
191.3067, 6212.680
191.7888, 6206.259
192.2709, 6201.236
192.7530, 6201.365
193.2351, 6214.429
193.7173, 6229.989
194.1994, 6240.065
194.6815, 6242.423
195.1636, 6240.451
195.6457, 6238.415
196.1278, 6236.804
196.6100, 6233.053
197.0921, 6221.399
197.5742, 6210.212
198.0563, 6205.590
198.5384, 6209.070
199.0205, 6218.087
199.5027, 6232.063
199.9848, 6252.836
200.4669, 6268.175
200.9490, 6273.344
201.4311, 6272.560
201.9132, 6267.591
202.3954, 6258.792
202.8775, 6246.229
203.3596, 6228.532
203.8417, 6204.714
204.3238, 6182.940
204.8059, 6162.850
205.2881, 6146.619
205.7702, 6137.324
206.2523, 6135.104
206.7344, 6134.283
207.2165, 6127.616
207.6986, 6114.012
208.1808, 6106.040
208.6629, 6117.177
209.1450, 6125.156
209.6271, 6112.462
210.1092, 6079.153
210.5913, 6044.836
211.0735, 6030.000
211.5556, 6035.434
212.0377, 6033.529
212.5198, 6014.060
213.0019, 5992.835
213.4840, 5978.124
213.9662, 5970.197
214.4483, 5966.001
214.9304, 5964.393
215.4125, 5965.261
215.8946, 5964.980
216.3767, 5962.440
216.8589, 5959.725
217.3410, 5959.691
217.8231, 5961.141
218.3052, 5959.432
218.7873, 5946.505
219.2694, 5924.836
219.7516, 5916.307
220.2337, 5927.854
220.7158, 5945.078
221.1979, 5964.771
221.6800, 5983.990
222.1621, 5995.641
222.6443, 5993.894
223.1264, 5980.850
223.6085, 5963.136
224.0906, 5931.855
224.5727, 5911.342
225.0548, 5920.096
225.5370, 5946.385
226.0191, 5967.277
226.5012, 5967.375
226.9833, 5955.793
227.4654, 5959.415
227.9475, 5987.939
228.4297, 6009.779
228.9118, 6003.472
229.3939, 5982.858
229.8760, 5966.883
230.3581, 5963.009
230.8402, 5967.532
231.3224, 5976.736
231.8045, 5993.934
232.2866, 6003.971
232.7687, 5991.715
233.2508, 5971.124
233.7329, 5957.369
234.2151, 5956.366
234.6972, 5960.579
235.1793, 5960.047
235.6614, 5953.884
236.1435, 5949.317
236.6256, 5952.096
237.1078, 5956.386
237.5899, 5955.494
238.0720, 5946.953
238.5541, 5937.834
239.0362, 5935.544
239.5183, 5940.097
240.0005, 5944.139
240.4826, 5942.487
240.9647, 5942.111
241.4468, 5952.229
241.9289, 5975.207
242.4111, 5996.107
242.8932, 6000.905
243.3753, 5992.584
243.8574, 5990.667
244.3395, 6004.762
244.8216, 6020.292
245.3038, 6020.657
245.7859, 6005.883
246.2680, 5990.874
246.7501, 5981.820
247.2322, 5978.354
247.7143, 5981.187
248.1965, 5993.858
248.6786, 6005.512
249.1607, 6000.321
249.6428, 5981.617
250.1249, 5971.794
250.6070, 5989.845
251.0892, 6018.164
251.5713, 6025.567
252.0534, 6005.975
252.5355, 5980.354
253.0176, 5963.172
253.4997, 5953.997
253.9819, 5953.540
254.4640, 5971.805
254.9461, 5992.994
255.4282, 6000.898
255.9103, 5994.878
256.3924, 5982.377
256.8745, 5966.934
257.3567, 5948.693
257.8388, 5929.580
258.3209, 5899.057
258.8030, 5876.697
259.2851, 5884.129
259.7672, 5915.029
260.2494, 5936.710
260.7315, 5929.275
261.2136, 5902.012
261.6957, 5886.650
262.1778, 5889.069
262.6599, 5893.787
263.1421, 5894.251
263.6242, 5892.624
264.1063, 5894.593
264.5884, 5903.417
265.0705, 5914.447
265.5526, 5916.303
266.0348, 5903.247
266.5169, 5894.815
266.9990, 5897.983
267.4811, 5906.511
267.9632, 5911.639
268.4453, 5910.905
268.9275, 5909.609
269.4096, 5915.303
269.8917, 5931.483
270.3738, 5946.778
270.8559, 5964.741
271.3380, 5979.236
271.8202, 5981.170
272.3023, 5971.490
272.7844, 5963.855
273.2665, 5973.632
273.7487, 6005.566
274.2308, 6023.519
274.7129, 6016.257
275.1950, 6007.827
275.6771, 6009.152
276.1592, 6019.433
276.6414, 6035.034
277.1235, 6055.281
277.6056, 6078.678
278.0877, 6080.498
278.5698, 6017.383
279.0519, 5981.311
279.5341, 6017.508
280.0162, 6088.282
280.4983, 6135.043
280.9804, 6126.441
281.4625, 6081.544
281.9446, 6059.182
282.4268, 6081.510
282.9089, 6094.974
283.3910, 6085.013
283.8731, 6069.823
284.3552, 6068.328
284.8373, 6085.708
285.3195, 6109.717
285.8016, 6120.794
286.2837, 6113.435
286.7658, 6107.874
287.2479, 6107.550
287.7300, 6107.360
288.2122, 6104.624
288.6943, 6099.042
289.1764, 6091.721
289.6585, 6083.152
290.1406, 6073.191
290.6227, 6064.471
291.1049, 6057.576
291.5870, 6051.374
292.0691, 6049.628
292.5512, 6048.457
293.0333, 6037.916
293.5154, 6004.694
293.9976, 5959.074
294.4797, 5941.365
294.9618, 5967.091
295.4439, 5988.328
295.9260, 5974.410
296.4081, 5946.633
296.8903, 5933.544
297.3724, 5948.645
297.8545, 5975.019
298.3366, 5991.431
298.8187, 5997.437
299.3008, 5997.978
299.7830, 5992.080
300.2651, 5982.867
300.7472, 5974.680
301.2293, 5968.628
301.7114, 5959.758
302.1935, 5942.543
302.6757, 5919.105
303.1578, 5898.237
303.6399, 5882.560
304.1220, 5869.177
304.6041, 5855.662
305.0862, 5842.254
305.5684, 5825.940
306.0505, 5796.652
306.5326, 5767.621
307.0147, 5761.299
307.4968, 5781.354
307.9789, 5804.869
308.4611, 5812.852
308.9432, 5805.221
309.4253, 5798.933
309.9074, 5799.475
310.3895, 5797.070
310.8716, 5782.173
311.3538, 5757.823
311.8359, 5736.293
312.3180, 5725.392
312.8001, 5722.286
313.2822, 5714.086
313.7643, 5693.210
314.2465, 5677.240
314.7286, 5674.045
315.2107, 5676.538
315.6928, 5672.457
316.1749, 5657.509
316.6570, 5642.358
317.1392, 5647.188
317.6213, 5693.423
318.1034, 5718.461
318.5855, 5707.655
319.0676, 5688.101
319.5497, 5674.125
320.0319, 5669.598
320.5140, 5676.657
320.9961, 5701.099
321.4782, 5746.428
321.9603, 5770.004
322.4424, 5754.905
322.9246, 5734.120
323.4067, 5713.496
323.8888, 5694.337
324.3709, 5675.747
324.8530, 5655.862
325.3351, 5638.628
325.8173, 5639.199
326.2994, 5669.806
326.7815, 5694.551
327.2636, 5703.570
327.7457, 5704.385
328.2278, 5704.112
328.7100, 5704.840
329.1921, 5702.383
329.6742, 5689.911
330.1563, 5666.774
330.6384, 5645.843
331.1205, 5630.390
331.6027, 5617.088
332.0848, 5604.111
332.5669, 5591.352
333.0490, 5577.961
333.5311, 5559.648
334.0132, 5540.755
334.4954, 5533.490
334.9775, 5541.303
335.4596, 5551.602
335.9417, 5556.088
336.4238, 5556.133
336.9059, 5554.792
337.3881, 5556.551
337.8702, 5553.801
338.3523, 5537.674
338.8344, 5510.171
339.3165, 5481.502
339.7986, 5454.480
340.2808, 5431.338
340.7629, 5418.698
341.2450, 5418.705
341.7271, 5421.821
342.2092, 5431.476
342.6913, 5440.528
343.1735, 5437.015
343.6556, 5418.189
344.1377, 5395.201
344.6198, 5381.896
345.1019, 5381.186
345.5840, 5380.397
346.0662, 5382.461
346.5483, 5381.980
347.0304, 5374.366
347.5125, 5361.338
347.9946, 5348.853
348.4767, 5341.840
348.9589, 5338.758
349.4410, 5327.229
349.9231, 5286.781
350.4052, 5263.445
350.8873, 5280.421
351.3694, 5310.318
351.8516, 5320.033
352.3337, 5298.120
352.8158, 5265.449
353.2979, 5259.324
353.7800, 5291.852
354.2621, 5304.166
354.7443, 5259.337
355.2264, 5216.063
355.7085, 5213.733
356.1906, 5245.944
356.6727, 5270.240
357.1548, 5243.050
357.6370, 5180.682
358.1191, 5153.156
358.6012, 5172.741
359.0833, 5198.889
359.5654, 5209.634
360.0475, 5210.944
360.5297, 5211.168
361.0118, 5211.836
361.4939, 5212.614
361.9760, 5215.566
362.4581, 5219.560
362.9402, 5215.390
363.4224, 5195.899
363.9045, 5171.493
364.3866, 5160.100
364.8687, 5162.345
365.3508, 5169.807
365.8329, 5190.425
366.3151, 5210.227
366.7972, 5206.769
367.2793, 5178.122
367.7614, 5149.899
368.2435, 5147.381
368.7256, 5172.991
369.2078, 5184.327
369.6899, 5167.463
370.1720, 5153.263
370.6541, 5158.439
371.1362, 5174.538
371.6183, 5185.145
372.1005, 5182.037
372.5826, 5168.911
373.0647, 5154.188
373.5468, 5129.662
374.0289, 5118.813
374.5110, 5134.854
374.9932, 5154.765
375.4753, 5160.430
375.9574, 5150.747
376.4395, 5138.560
376.9216, 5138.014
377.4037, 5149.024
377.8859, 5151.885
378.3680, 5141.902
378.8501, 5129.914
379.3322, 5116.507
379.8143, 5105.312
380.2964, 5103.877
380.7786, 5118.980
381.2607, 5138.981
381.7428, 5145.539
382.2249, 5138.246
382.7070, 5136.257
383.1891, 5150.250
383.6713, 5168.902
384.1534, 5175.031
384.6355, 5166.178
385.1176, 5161.364
385.5997, 5171.890
386.0818, 5189.939
386.5640, 5204.949
387.0461, 5215.419
387.5282, 5221.245
388.0103, 5221.479
388.4924, 5216.021
388.9745, 5211.535
389.4567, 5204.341
389.9388, 5201.753
390.4209, 5210.402
390.9030, 5225.305
391.3851, 5237.470
391.8672, 5242.854
392.3494, 5243.658
392.8315, 5244.268
393.3136, 5243.441
393.7957, 5244.859
394.2778, 5252.327
394.7599, 5258.841
395.2421, 5257.595
395.7242, 5250.173
396.2063, 5245.084
396.6884, 5250.642
397.1706, 5265.229
397.6527, 5275.475
398.1348, 5281.747
398.6169, 5282.714
399.0990, 5277.153
399.5811, 5267.062
400.0633, 5253.399
400.5454, 5235.180
401.0275, 5218.520
401.5096, 5210.526
401.9917, 5210.447
402.4738, 5212.980
402.9560, 5220.030
403.4381, 5224.259
403.9202, 5211.775
404.4023, 5184.390
404.8844, 5170.217
405.3665, 5193.603
405.8487, 5221.634
406.3308, 5217.741
406.8129, 5184.446
407.2950, 5150.547
407.7771, 5132.588
408.2592, 5127.960
408.7414, 5126.235
409.2235, 5131.574
409.7056, 5134.232
410.1877, 5127.749
410.6698, 5120.759
411.1519, 5125.567
411.6341, 5143.159
412.1162, 5160.428
412.5983, 5161.981
413.0804, 5146.218
413.5625, 5127.958
414.0446, 5097.598
414.5268, 5074.883
415.0089, 5066.592
415.4910, 5069.649
415.9731, 5081.259
416.4552, 5103.204
416.9373, 5123.374
417.4195, 5115.705
417.9016, 5075.648
418.3837, 5047.762
418.8658, 5050.577
419.3479, 5063.179
419.8300, 5066.671
420.3122, 5061.003
420.7943, 5053.296
421.2764, 5047.447
421.7585, 5041.283
422.2406, 5030.077
422.7227, 5013.637
423.2049, 4999.383
423.6870, 4993.562
424.1691, 4993.506
424.6512, 4986.266
425.1333, 4959.642
425.6154, 4941.769
426.0976, 4947.168
426.5797, 4962.253
427.0618, 4971.128
427.5439, 4969.402
428.0260, 4959.540
428.5081, 4943.147
428.9903, 4917.580
429.4724, 4900.004
429.9545, 4901.379
430.4366, 4899.145
430.9187, 4876.810
431.4008, 4847.453
431.8830, 4836.047
432.3651, 4856.756
432.8472, 4890.460
433.3293, 4901.459
433.8114, 4886.080
434.2935, 4871.435
434.7757, 4860.248
435.2578, 4854.793
435.7399, 4861.308
436.2220, 4877.926
436.7041, 4886.389
437.1862, 4869.851
437.6684, 4844.107
438.1505, 4832.310
438.6326, 4835.152
439.1147, 4842.692
439.5968, 4851.870
440.0789, 4860.319
440.5611, 4859.293
441.0432, 4840.195
441.5253, 4827.085
442.0074, 4829.956
442.4895, 4838.690
442.9716, 4841.956
443.4538, 4838.027
443.9359, 4832.608
444.4180, 4831.223
444.9001, 4833.943
445.3822, 4837.925
445.8643, 4838.987
446.3465, 4846.349
446.8286, 4870.489
447.3107, 4898.753
447.7928, 4913.917
448.2749, 4909.649
448.7570, 4898.510
449.2392, 4896.899
449.7213, 4904.831
450.2034, 4909.597
450.6855, 4906.996
451.1676, 4904.745
451.6497, 4911.404
452.1319, 4923.810
452.6140, 4931.046
453.0961, 4924.431
453.5782, 4915.719
454.0603, 4914.566
454.5424, 4920.240
455.0246, 4930.748
455.5067, 4946.501
455.9888, 4963.172
456.4709, 4972.200
456.9530, 4966.604
457.4352, 4969.249
457.9173, 4983.042
458.3994, 5002.877
458.8815, 5033.790
459.3636, 5068.637
459.8457, 5086.413
460.3279, 5070.435
460.8100, 5033.276
461.2921, 5023.472
461.7742, 5056.176
462.2563, 5084.246
462.7384, 5091.743
463.2206, 5096.860
463.7027, 5117.306
464.1848, 5152.938
464.6669, 5181.882
465.1490, 5182.082
465.6311, 5165.240
466.1133, 5162.274
466.5954, 5175.923
467.0775, 5192.580
467.5596, 5207.212
468.0417, 5218.307
468.5238, 5221.898
469.0060, 5210.645
469.4881, 5205.571
469.9702, 5217.308
470.4523, 5237.639
470.9344, 5257.092
471.4165, 5273.613
471.8987, 5288.893
472.3808, 5304.252
472.8629, 5319.601
473.3450, 5336.029
473.8271, 5365.062
474.3092, 5381.243
474.7914, 5371.526
475.2735, 5350.496
475.7556, 5332.605
476.2377, 5322.392
476.7198, 5319.167
477.2019, 5328.133
477.6841, 5347.580
478.1662, 5348.737
478.6483, 5322.001
479.1304, 5291.166
479.6125, 5274.523
480.0946, 5265.119
480.5768, 5248.192
481.0589, 5214.042
481.5410, 5181.131
482.0231, 5161.778
482.5052, 5152.707
482.9873, 5149.496
483.4695, 5151.320
483.9516, 5150.135
484.4337, 5134.740
484.9158, 5101.102
485.3979, 5078.513
485.8800, 5081.147
486.3622, 5077.583
486.8443, 5052.602
487.3264, 5015.009
487.8085, 4976.017
488.2906, 4940.125
488.7727, 4912.849
489.2549, 4908.934
489.7370, 4932.905
490.2191, 4935.256
490.7012, 4896.420
491.1833, 4854.893
491.6654, 4836.475
492.1476, 4833.863
492.6297, 4827.835
493.1118, 4812.031
493.5939, 4791.326
494.0760, 4765.355
494.5581, 4737.334
495.0403, 4718.897
495.5224, 4714.605
496.0045, 4716.459
496.4866, 4713.897
496.9687, 4704.872
497.4508, 4701.210
497.9330, 4712.961
498.4151, 4719.391
498.8972, 4708.178
499.3793, 4685.451
499.8614, 4659.980
500.3435, 4635.433
500.8257, 4617.707
501.3078, 4622.491
501.7899, 4656.873
502.2720, 4670.585
502.7541, 4647.499
503.2362, 4616.088
503.7184, 4587.155
504.2005, 4563.418
504.6826, 4552.334
505.1647, 4564.023
505.6468, 4579.902
506.1289, 4582.407
506.6111, 4574.336
507.0932, 4565.406
507.5753, 4558.474
508.0574, 4552.039
508.5395, 4543.664
509.0216, 4532.178
509.5038, 4526.027
509.9859, 4535.518
510.4680, 4539.281
510.9501, 4519.673
511.4322, 4490.496
511.9143, 4474.136
512.3965, 4479.685
512.8786, 4498.566
513.3607, 4523.983
513.8428, 4559.426
514.3250, 4568.403
514.8071, 4528.168
515.2892, 4488.707
515.7713, 4481.116
516.2534, 4494.697
516.7355, 4507.996
517.2177, 4517.767
517.6998, 4521.622
518.1819, 4511.052
518.6640, 4493.345
519.1461, 4489.909
519.6282, 4506.859
520.1104, 4526.653
520.5925, 4529.520
521.0746, 4513.422
521.5567, 4505.362
522.0388, 4512.848
522.5209, 4518.362
523.0031, 4515.507
523.4852, 4508.311
523.9673, 4501.310
524.4494, 4496.049
524.9315, 4492.882
525.4136, 4495.394
525.8958, 4502.921
526.3779, 4495.527
526.8600, 4460.969
527.3421, 4436.878
527.8242, 4459.292
528.3063, 4501.733
528.7885, 4520.619
529.2706, 4501.224
529.7527, 4481.929
530.2348, 4487.751
530.7169, 4503.398
531.1990, 4505.165
531.6812, 4490.138
532.1633, 4468.891
532.6454, 4448.279
533.1275, 4429.500
533.6096, 4423.983
534.0917, 4439.313
534.5739, 4458.453
535.0560, 4487.291
535.5381, 4513.809
536.0202, 4525.582
536.5023, 4522.901
536.9844, 4517.833
537.4666, 4518.793
537.9487, 4524.429
538.4308, 4531.214
538.9129, 4539.099
539.3950, 4549.457
539.8771, 4565.934
540.3593, 4582.538
540.8414, 4586.978
541.3235, 4575.716
541.8056, 4571.339
542.2877, 4584.354
542.7698, 4601.072
543.2520, 4609.216
543.7341, 4611.274
544.2162, 4616.848
544.6983, 4631.089
545.1804, 4651.831
545.6625, 4674.948
546.1447, 4701.317
546.6268, 4727.196
547.1089, 4755.931
547.5910, 4780.319
548.0731, 4791.552
548.5552, 4795.552
549.0374, 4809.013
549.5195, 4847.551
550.0016, 4883.271
550.4837, 4888.087
550.9658, 4866.811
551.4479, 4830.908
551.9301, 4780.504
552.4122, 4736.641
552.8943, 4725.078
553.3764, 4749.282
553.8585, 4750.772
554.3406, 4717.613
554.8228, 4679.808
555.3049, 4647.044
555.7870, 4612.957
556.2691, 4563.095
556.7512, 4497.241
557.2333, 4440.577
557.7155, 4428.573
558.1976, 4452.029
558.6797, 4448.281
559.1618, 4409.636
559.6439, 4370.146
560.1260, 4342.272
560.6082, 4325.345
561.0903, 4319.412
561.5724, 4329.860
562.0545, 4331.070
562.5366, 4303.437
563.0187, 4271.366
563.5009, 4259.778
563.9830, 4266.153
564.4651, 4272.390
564.9472, 4268.031
565.4293, 4257.102
565.9114, 4249.808
566.3936, 4247.537
566.8757, 4244.884
567.3578, 4236.631
567.8399, 4232.536
568.3220, 4240.636
568.8041, 4256.679
569.2863, 4269.961
569.7684, 4277.399
570.2505, 4279.036
570.7326, 4271.626
571.2147, 4258.335
571.6968, 4249.082
572.1790, 4246.413
572.6611, 4245.131
573.1432, 4238.813
573.6253, 4227.511
574.1074, 4229.025
574.5895, 4259.937
575.0717, 4282.232
575.5538, 4287.806
576.0359, 4282.228
576.5180, 4264.359
577.0001, 4237.979
577.4822, 4221.298
577.9644, 4237.745
578.4465, 4273.348
578.9286, 4283.504
579.4107, 4265.559
579.8928, 4247.607
580.3749, 4237.675
580.8571, 4236.065
581.3392, 4246.819
581.8213, 4272.216
582.3034, 4290.746
582.7855, 4294.373
583.2676, 4295.202
583.7498, 4299.927
584.2319, 4307.781
584.7140, 4316.928
585.1961, 4326.505
585.6782, 4334.715
586.1603, 4337.337
586.6425, 4333.511
587.1246, 4335.516
587.6067, 4346.918
588.0888, 4358.577
588.5709, 4362.957
589.0530, 4365.457
589.5352, 4375.742
590.0173, 4399.058
590.4994, 4417.728
590.9815, 4415.208
591.4636, 4407.989
591.9457, 4419.290
592.4279, 4448.338
592.9100, 4477.525
593.3921, 4495.685
593.8742, 4505.762
594.3563, 4516.468
594.8384, 4527.220
595.3206, 4539.808
595.8027, 4558.934
596.2848, 4575.667
596.7669, 4580.783
597.2490, 4579.946
597.7311, 4589.612
598.2133, 4623.771
598.6954, 4655.868
599.1775, 4653.083
599.6596, 4629.919
600.1417, 4627.964
600.6238, 4655.739
601.1060, 4685.710
601.5881, 4693.700
602.0702, 4681.711
602.5523, 4671.916
603.0344, 4663.899
603.5165, 4658.955
603.9987, 4666.414
604.4808, 4670.049
604.9629, 4650.918
605.4450, 4613.260
605.9271, 4583.067
606.4092, 4583.433
606.8914, 4593.290
607.3735, 4576.758
607.8556, 4537.235
608.3377, 4503.311
608.8198, 4484.609
609.3019, 4468.694
609.7841, 4438.903
610.2662, 4392.605
610.7483, 4366.592
611.2304, 4372.798
611.7125, 4382.472
612.1946, 4392.742
612.6768, 4399.822
613.1589, 4398.698
613.6410, 4389.348
