##NAMES=Sarkinite
##RRUFFID=R080065
##IDEAL CHEMISTRY=Mn^2+^_2_As^5+^O_4_(OH)
##LOCALITY=Langban, Filipstad, Varmland, Sweden
##OWNER=RRUFF
##SOURCE=Michael Scott
##DESCRIPTION=Vitreous pink massive
##STATUS=The identification of this mineral has been confirmed by single-crystal X-ray diffraction.
##URL=rruff.info/R080065
96.38037, 489.3162
96.86249, 480.1143
97.34460, 474.7521
97.82672, 471.7263
98.30884, 473.8097
98.79095, 480.8167
99.27307, 492.1533
99.75519, 507.5469
100.2373, 527.3781
100.7194, 553.8782
101.2015, 591.0438
101.6837, 652.5538
102.1658, 713.4018
102.6479, 760.7576
103.1300, 796.1431
103.6121, 808.2073
104.0942, 776.4514
104.5764, 716.4066
105.0585, 646.8988
105.5406, 564.1439
106.0227, 475.4421
106.5048, 404.1083
106.9869, 352.7538
107.4691, 317.0607
107.9512, 294.4165
108.4333, 283.0603
108.9154, 279.3723
109.3975, 281.6044
109.8796, 290.6114
110.3618, 299.9023
110.8439, 313.1693
111.3260, 323.8245
111.8081, 329.7482
112.2902, 330.1950
112.7723, 324.8902
113.2544, 313.0372
113.7366, 290.4496
114.2187, 268.2760
114.7008, 244.6016
115.1829, 222.1237
115.6650, 203.1984
116.1471, 188.5775
116.6293, 177.8544
117.1114, 170.6991
117.5935, 167.4254
118.0756, 166.2508
118.5577, 167.0414
119.0398, 169.6562
119.5220, 173.7331
120.0041, 178.9591
120.4862, 185.9531
120.9683, 195.4082
121.4504, 208.3860
121.9325, 221.9420
122.4147, 234.8148
122.8968, 247.2387
123.3789, 256.1158
123.8610, 258.2755
124.3431, 256.3788
124.8252, 251.9037
125.3074, 244.3858
125.7895, 235.6455
126.2716, 229.2580
126.7537, 225.1525
127.2358, 224.0959
127.7179, 225.6658
128.2001, 229.8499
128.6822, 236.8824
129.1643, 247.1891
129.6464, 260.5399
130.1285, 273.4341
130.6107, 286.7444
131.0928, 298.7692
131.5749, 310.9232
132.0570, 321.6092
132.5391, 327.6732
133.0212, 326.0816
133.5033, 315.8217
133.9855, 303.3098
134.4676, 287.5984
134.9497, 270.9389
135.4318, 253.3948
135.9139, 235.4657
136.3960, 219.1520
136.8782, 206.7650
137.3603, 198.8153
137.8424, 194.1176
138.3245, 193.8209
138.8066, 196.3071
139.2887, 200.1295
139.7709, 205.2106
140.2530, 210.6724
140.7351, 215.6105
141.2172, 220.0751
141.6993, 223.8988
142.1814, 227.6372
142.6636, 230.8119
143.1457, 231.5905
143.6278, 229.0670
144.1099, 224.2645
144.5920, 217.9006
145.0741, 210.0705
145.5563, 202.0609
146.0384, 194.5264
146.5205, 187.3110
147.0026, 182.0130
147.4847, 180.0755
147.9668, 179.4720
148.4490, 179.6053
148.9311, 180.2414
149.4132, 180.8880
149.8953, 180.9524
150.3774, 180.8937
150.8595, 179.0605
151.3417, 174.3911
151.8238, 168.8096
152.3059, 163.4617
152.7880, 158.8759
153.2701, 155.2654
153.7522, 153.2630
154.2344, 154.7592
154.7165, 155.8917
155.1986, 155.4646
155.6807, 154.8759
156.1628, 155.9903
156.6449, 159.7979
157.1271, 165.7335
157.6092, 171.5979
158.0913, 178.1888
158.5734, 183.9258
159.0555, 188.1752
159.5376, 191.1855
160.0198, 193.6158
160.5019, 195.8503
160.9840, 197.6857
161.4661, 198.6078
161.9482, 197.4907
162.4303, 196.6587
162.9125, 197.4881
163.3946, 199.9525
163.8767, 203.7333
164.3588, 209.4202
164.8409, 216.1399
165.3230, 222.4412
165.8052, 227.8529
166.2873, 232.9405
166.7694, 238.6265
167.2515, 245.3884
167.7336, 251.1413
168.2157, 254.4467
168.6979, 256.3620
169.1800, 258.0179
169.6621, 259.9095
170.1442, 261.8340
170.6263, 263.3134
171.1084, 264.6677
171.5906, 264.9046
172.0727, 263.6918
172.5548, 261.3777
173.0369, 258.3391
173.5190, 254.6611
174.0011, 250.4751
174.4833, 246.8935
174.9654, 243.6399
175.4475, 241.3933
175.9296, 240.1324
176.4117, 239.9994
176.8938, 241.1532
177.3760, 243.6894
177.8581, 247.6002
178.3402, 253.3695
178.8223, 262.4250
179.3044, 271.6867
179.7865, 279.8115
180.2687, 287.1098
180.7508, 294.7212
181.2329, 303.5576
181.7150, 313.7717
182.1971, 324.4201
182.6792, 334.9985
183.1614, 346.3031
183.6435, 359.3722
184.1256, 373.9959
184.6077, 388.5510
185.0898, 401.8609
185.5719, 413.6760
186.0541, 423.6495
186.5362, 432.7338
187.0183, 439.3764
187.5004, 441.8041
187.9825, 439.7646
188.4646, 435.0114
188.9468, 428.1552
189.4289, 419.6044
189.9110, 410.6419
190.3931, 400.2482
190.8752, 390.0094
191.3573, 382.1025
191.8395, 376.5853
192.3216, 373.8289
192.8037, 374.7449
193.2858, 378.4634
193.7679, 383.4876
194.2500, 389.8027
194.7322, 396.9727
195.2143, 404.0008
195.6964, 412.0305
196.1785, 417.7878
196.6606, 421.1792
197.1427, 421.5729
197.6249, 417.3974
198.1070, 406.5349
198.5891, 389.5853
199.0712, 372.5097
199.5533, 354.3440
200.0354, 337.1995
200.5176, 321.5770
200.9997, 307.6104
201.4818, 295.5335
201.9639, 285.7488
202.4460, 278.2814
202.9281, 271.6705
203.4103, 266.5800
203.8924, 261.8584
204.3745, 257.3909
204.8566, 253.0383
205.3387, 248.6886
205.8208, 244.2194
206.3030, 239.5791
206.7851, 235.1491
207.2672, 229.8405
207.7493, 225.6864
208.2314, 223.9078
208.7135, 224.1821
209.1957, 225.3102
209.6778, 226.2472
210.1599, 226.9355
210.6420, 227.8947
211.1241, 229.1059
211.6062, 230.5330
212.0884, 232.3156
212.5705, 234.3588
213.0526, 236.3413
213.5347, 238.0225
214.0168, 239.3695
214.4989, 240.2454
214.9811, 240.9706
215.4632, 241.0427
215.9453, 239.7023
216.4274, 237.0544
216.9095, 234.4349
217.3916, 232.8958
217.8737, 232.5579
218.3559, 232.8423
218.8380, 233.6556
219.3201, 235.1462
219.8022, 237.7150
220.2843, 241.3901
220.7664, 245.2022
221.2486, 248.4753
221.7307, 251.2543
222.2128, 253.6433
222.6949, 255.7616
223.1770, 257.4423
223.6591, 258.5154
224.1413, 258.9838
224.6234, 258.8266
225.1055, 258.1976
225.5876, 256.8948
226.0697, 254.3101
226.5518, 249.8735
227.0340, 244.2867
227.5161, 238.1846
227.9982, 231.1471
228.4803, 225.0776
228.9624, 221.5864
229.4445, 219.6271
229.9267, 217.9523
230.4088, 216.0824
230.8909, 214.3079
231.3730, 213.1058
231.8551, 212.3404
232.3372, 212.5686
232.8194, 214.7200
233.3015, 217.6767
233.7836, 220.1676
234.2657, 221.6264
234.7478, 222.3953
235.2299, 223.2093
235.7121, 224.0723
236.1942, 224.9893
236.6763, 226.1198
237.1584, 227.2375
237.6405, 228.0222
238.1227, 228.2856
238.6048, 228.3474
239.0869, 229.0835
239.5690, 231.0557
240.0511, 232.7320
240.5332, 233.8796
241.0154, 234.6181
241.4975, 235.1604
241.9796, 235.6100
242.4617, 235.6696
242.9438, 234.5327
243.4259, 231.4225
243.9081, 228.2229
244.3902, 225.1239
244.8723, 222.0696
245.3544, 218.9019
245.8365, 215.5582
246.3186, 212.3049
246.8008, 209.7355
247.2829, 208.4133
247.7650, 207.0334
248.2471, 205.4882
248.7292, 203.8858
249.2113, 202.3261
249.6935, 200.8432
250.1756, 199.4018
250.6577, 197.8948
251.1398, 195.5960
251.6219, 194.4056
252.1040, 195.1736
252.5862, 196.5471
253.0683, 197.3570
253.5504, 197.2574
254.0325, 196.6432
254.5146, 196.1273
254.9967, 195.6010
255.4789, 195.4511
255.9610, 196.3161
256.4431, 197.1931
256.9252, 196.8939
257.4073, 195.2200
257.8894, 193.3918
258.3716, 193.1006
258.8537, 195.1679
259.3358, 196.7815
259.8179, 198.1232
260.3000, 198.9153
260.7821, 198.5519
261.2643, 197.0122
261.7464, 195.4582
262.2285, 195.2194
262.7106, 196.6663
263.1927, 197.8536
263.6748, 198.5042
264.1570, 199.0401
264.6391, 199.6093
265.1212, 200.2701
265.6033, 201.4908
266.0854, 203.9647
266.5675, 207.7419
267.0497, 210.5725
267.5318, 211.8298
268.0139, 212.5125
268.4960, 213.3327
268.9781, 214.3362
269.4602, 215.3568
269.9424, 216.3335
270.4245, 217.2137
270.9066, 217.8155
271.3887, 218.2284
271.8708, 218.2913
272.3529, 217.7777
272.8351, 216.7223
273.3172, 215.4861
273.7993, 214.0566
274.2814, 212.6914
274.7635, 212.0718
275.2456, 213.0087
275.7278, 213.8087
276.2099, 213.0352
276.6920, 210.8734
277.1741, 208.8434
277.6562, 207.7106
278.1383, 207.1408
278.6205, 206.4142
279.1026, 205.5844
279.5847, 204.4674
280.0668, 202.5464
280.5489, 200.0360
281.0310, 198.3181
281.5132, 198.1320
281.9953, 198.7553
282.4774, 199.2309
282.9595, 199.6315
283.4416, 199.4979
283.9237, 197.8669
284.4059, 195.2703
284.8880, 194.0874
285.3701, 195.4825
285.8522, 197.7065
286.3343, 198.8716
286.8164, 199.0325
287.2986, 199.1158
287.7807, 199.6831
288.2628, 200.5698
288.7449, 201.2729
289.2270, 201.8031
289.7091, 201.9757
290.1913, 201.4067
290.6734, 200.3157
291.1555, 199.4966
291.6376, 199.5579
292.1197, 200.1333
292.6018, 200.4064
293.0840, 200.3837
293.5661, 199.9338
294.0482, 198.4177
294.5303, 196.4682
295.0124, 195.2948
295.4945, 195.6953
295.9767, 196.9819
296.4588, 197.8447
296.9409, 198.0642
297.4230, 198.6224
297.9051, 200.2600
298.3872, 202.4723
298.8694, 204.6758
299.3515, 206.5640
299.8336, 208.6314
300.3157, 211.5699
300.7978, 215.4766
301.2799, 219.7888
301.7621, 224.5593
302.2442, 229.5399
302.7263, 234.3755
303.2084, 238.9042
303.6905, 243.9321
304.1726, 250.5823
304.6548, 258.9140
305.1369, 267.1517
305.6190, 275.1469
306.1011, 282.6857
306.5832, 289.1055
307.0653, 294.4513
307.5475, 300.4537
308.0296, 309.0788
308.5117, 320.0352
308.9938, 329.9738
309.4759, 337.9226
309.9580, 345.3337
310.4402, 353.3004
310.9223, 361.6289
311.4044, 369.5522
311.8865, 375.5717
312.3686, 380.5018
312.8507, 388.3353
313.3329, 400.5878
313.8150, 413.2966
314.2971, 424.0071
314.7792, 433.7104
315.2613, 444.1951
315.7434, 455.8505
316.2256, 469.1279
316.7077, 485.6801
317.1898, 507.1600
317.6719, 527.7130
318.1540, 543.6495
318.6361, 557.7764
319.1183, 573.3813
319.6004, 592.0895
320.0825, 610.9639
320.5646, 626.2081
321.0467, 637.5944
321.5288, 646.7964
322.0110, 653.7316
322.4931, 658.8741
322.9752, 662.0876
323.4573, 663.2997
323.9394, 663.8143
324.4215, 663.9960
324.9037, 663.8907
325.3858, 666.4257
325.8679, 673.6347
326.3500, 682.2690
326.8321, 689.9750
327.3142, 696.8602
327.7964, 703.9446
328.2785, 711.7267
328.7606, 720.2262
329.2427, 729.6202
329.7248, 739.9905
330.2069, 751.1733
330.6891, 761.8478
331.1712, 773.1207
331.6533, 787.4764
332.1354, 805.4624
332.6175, 827.5135
333.0996, 855.0739
333.5818, 889.2951
334.0639, 925.8084
334.5460, 962.3392
335.0281, 999.8900
335.5102, 1040.893
335.9923, 1088.554
336.4745, 1134.438
336.9566, 1171.887
337.4387, 1201.162
337.9208, 1215.293
338.4029, 1209.399
338.8850, 1187.397
339.3671, 1152.689
339.8492, 1104.996
340.3314, 1049.639
340.8135, 987.9414
341.2956, 920.5658
341.7777, 854.1444
342.2598, 787.2762
342.7419, 725.7351
343.2241, 673.7493
343.7062, 630.3221
344.1883, 592.6617
344.6704, 560.0810
345.1525, 532.1966
345.6346, 508.6686
346.1168, 490.1248
346.5989, 473.9254
347.0810, 457.9594
347.5631, 443.1392
348.0452, 431.5818
348.5273, 425.1899
349.0095, 421.0677
349.4916, 416.0896
349.9737, 410.2519
350.4558, 404.6017
350.9379, 399.4205
351.4200, 394.9261
351.9022, 391.4296
352.3843, 389.2212
352.8664, 387.2905
353.3485, 385.2444
353.8306, 382.9978
354.3127, 380.0933
354.7949, 376.0922
355.2770, 371.8875
355.7591, 368.4037
356.2412, 365.5826
356.7233, 363.6092
357.2054, 362.7225
357.6876, 362.6685
358.1697, 363.2751
358.6518, 364.6268
359.1339, 365.8329
359.6160, 365.4589
360.0981, 364.0695
360.5803, 364.7180
361.0624, 369.1393
361.5445, 374.7072
362.0266, 379.2661
362.5087, 382.9244
362.9908, 386.8054
363.4730, 391.5333
363.9551, 396.9344
364.4372, 402.3451
364.9193, 406.8269
365.4014, 412.7614
365.8835, 421.8814
366.3657, 433.0354
366.8478, 443.8996
367.3299, 453.5963
367.8120, 463.0558
368.2941, 473.9576
368.7762, 486.6397
369.2584, 499.0781
369.7405, 511.3083
370.2226, 522.9429
370.7047, 533.7177
371.1868, 543.6141
371.6689, 552.2669
372.1511, 559.3328
372.6332, 564.7142
373.1153, 569.4915
373.5974, 575.0656
374.0795, 578.8133
374.5616, 579.1807
375.0438, 576.7019
375.5259, 572.8536
376.0080, 568.4736
376.4901, 563.2701
376.9722, 556.1237
377.4543, 544.8132
377.9365, 534.4762
378.4186, 525.4383
378.9007, 517.7028
379.3828, 511.5002
379.8649, 506.8401
380.3470, 503.2443
380.8292, 500.0659
381.3113, 497.2436
381.7934, 495.1027
382.2755, 493.4506
382.7576, 492.5341
383.2397, 492.7793
383.7219, 493.9530
384.2040, 495.3148
384.6861, 496.2263
385.1682, 496.7671
385.6503, 498.1790
386.1324, 501.3163
386.6146, 504.4273
387.0967, 507.4148
387.5788, 510.1245
388.0609, 512.2664
388.5430, 513.7150
389.0251, 514.9267
389.5073, 516.7794
389.9894, 519.2026
390.4715, 522.5123
390.9536, 528.0290
391.4357, 533.2948
391.9178, 536.5742
392.4000, 537.8490
392.8821, 538.4122
393.3642, 539.3181
393.8463, 540.5582
394.3284, 542.5899
394.8105, 547.4144
395.2927, 550.6407
395.7748, 550.0741
396.2569, 547.1109
396.7390, 544.1802
397.2211, 542.6292
397.7032, 541.5004
398.1854, 538.3596
398.6675, 532.2754
399.1496, 526.9835
399.6317, 524.8075
400.1138, 523.0178
400.5959, 519.1444
401.0781, 512.8273
401.5602, 506.5707
402.0423, 503.0856
402.5244, 502.0880
403.0065, 500.3157
403.4886, 497.1627
403.9708, 493.4998
404.4529, 489.6129
404.9350, 485.7116
405.4171, 482.4104
405.8992, 480.7824
406.3813, 479.5090
406.8635, 476.0401
407.3456, 470.0675
407.8277, 464.7115
408.3098, 461.8547
408.7919, 460.3848
409.2740, 458.3864
409.7562, 455.6215
410.2383, 452.6554
410.7204, 449.7088
411.2025, 446.8087
411.6846, 444.1008
412.1667, 441.7313
412.6489, 439.1961
413.1310, 435.2729
413.6131, 429.9550
414.0952, 426.5429
414.5773, 427.7720
415.0594, 429.6851
415.5416, 427.9540
416.0237, 422.8173
416.5058, 418.2340
416.9879, 416.7738
417.4700, 418.0286
417.9521, 419.6897
418.4343, 422.0489
418.9164, 424.3848
419.3985, 425.6635
419.8806, 427.0504
420.3627, 430.3814
420.8448, 436.2405
421.3270, 443.6004
421.8091, 450.9722
422.2912, 458.1038
422.7733, 465.9825
423.2554, 474.3011
423.7375, 483.5189
424.2197, 494.2516
424.7018, 506.1363
425.1839, 518.1353
425.6660, 529.5242
426.1481, 540.3217
426.6302, 550.9957
427.1124, 560.5404
427.5945, 571.1821
428.0766, 583.8342
428.5587, 597.3228
429.0408, 610.5073
429.5229, 623.0365
430.0051, 635.6303
430.4872, 649.4545
430.9693, 664.8076
431.4514, 679.8695
431.9335, 693.9641
432.4156, 708.4410
432.8978, 724.6115
433.3799, 741.6852
433.8620, 757.9540
434.3441, 772.3824
434.8262, 785.1315
435.3083, 796.5739
435.7905, 806.6890
436.2726, 815.4186
436.7547, 822.8405
437.2368, 828.8434
437.7189, 832.9759
438.2010, 835.1019
438.6832, 836.1605
439.1653, 837.5195
439.6474, 838.7176
440.1295, 837.0190
440.6116, 831.3761
441.0938, 823.9411
441.5759, 815.8887
442.0580, 807.4896
442.5401, 799.6093
443.0222, 794.8522
443.5043, 789.1246
443.9865, 777.3309
444.4686, 760.0826
444.9507, 742.6036
445.4328, 727.4614
445.9149, 713.4242
446.3970, 697.4822
446.8792, 678.6916
447.3613, 661.1232
447.8434, 645.9575
448.3255, 632.5753
448.8076, 619.9280
449.2897, 607.8612
449.7719, 597.6554
450.2540, 590.6772
450.7361, 587.0698
451.2182, 583.9950
451.7003, 580.7386
452.1824, 578.6862
452.6646, 578.4325
453.1467, 579.6893
453.6288, 582.1728
454.1109, 585.7677
454.5930, 589.9683
455.0751, 593.8532
455.5573, 597.5989
456.0394, 600.6096
456.5215, 601.9174
457.0036, 603.4272
457.4857, 606.7810
457.9678, 611.4922
458.4500, 615.8073
458.9321, 618.5495
459.4142, 619.6964
459.8963, 618.9932
460.3784, 615.3619
460.8605, 611.7574
461.3427, 608.3888
461.8248, 605.6929
462.3069, 604.2383
462.7890, 604.1649
463.2711, 604.7272
463.7532, 605.3372
464.2354, 605.9808
464.7175, 606.3160
465.1996, 605.9974
465.6817, 605.8678
466.1638, 607.1107
466.6459, 609.0254
467.1281, 609.7761
467.6102, 608.4910
468.0923, 606.0150
468.5744, 603.2687
469.0565, 600.1852
469.5386, 596.0809
470.0208, 590.0107
470.5029, 583.6376
470.9850, 580.6434
471.4671, 581.8890
471.9492, 581.0516
472.4313, 575.1396
472.9135, 567.1677
473.3956, 560.0179
473.8777, 554.0655
474.3598, 548.9865
474.8419, 544.9016
475.3240, 541.5150
475.8062, 535.9092
476.2883, 527.7145
476.7704, 518.0867
477.2525, 506.8594
477.7346, 494.4924
478.2167, 481.6493
478.6989, 468.4221
479.1810, 454.4623
479.6631, 439.0314
480.1452, 421.9810
480.6273, 404.6671
481.1094, 385.9214
481.5916, 368.1989
482.0737, 352.4205
482.5558, 338.2218
483.0379, 324.8161
483.5200, 311.7330
484.0021, 299.3788
484.4843, 288.6505
484.9664, 279.7864
485.4485, 271.2427
485.9306, 262.5161
486.4127, 254.2513
486.8948, 246.9388
487.3770, 240.4958
487.8591, 234.5070
488.3412, 228.6607
488.8233, 223.1508
489.3054, 218.4330
489.7875, 214.5757
490.2697, 211.1259
490.7518, 207.9878
491.2339, 205.0986
491.7160, 202.2099
492.1981, 199.2373
492.6802, 196.5564
493.1624, 194.4465
493.6445, 192.7048
494.1266, 191.0973
494.6087, 189.5700
495.0908, 187.9552
495.5729, 185.9161
496.0551, 183.4902
496.5372, 182.4264
497.0193, 184.0875
497.5014, 185.3107
497.9835, 184.9547
498.4656, 183.6382
498.9478, 182.2895
499.4299, 181.2082
499.9120, 180.0029
500.3941, 178.0520
500.8762, 175.0708
501.3583, 172.4216
501.8405, 170.2876
502.3226, 168.3074
502.8047, 166.7903
503.2868, 165.2667
503.7689, 162.8795
504.2510, 159.1011
504.7331, 154.6594
505.2152, 150.8639
505.6974, 147.7885
506.1795, 144.8310
506.6616, 141.7344
507.1437, 138.8903
507.6258, 136.7681
508.1079, 135.2122
508.5901, 133.4677
509.0722, 131.1274
509.5543, 128.4067
510.0364, 125.6506
510.5185, 122.8623
511.0006, 119.5778
511.4828, 115.1178
511.9649, 110.4726
512.4470, 107.9694
512.9291, 108.2357
513.4113, 108.0579
513.8934, 106.4882
514.3755, 104.1661
514.8576, 101.5754
515.3397, 98.84190
515.8218, 96.16433
516.3040, 93.62609
516.7861, 91.28215
517.2682, 89.56712
517.7503, 89.50756
518.2324, 88.79581
518.7145, 86.60650
519.1967, 84.03426
519.6788, 82.08988
520.1609, 80.94432
520.6430, 80.13827
521.1251, 79.24377
521.6072, 78.25964
522.0894, 77.35472
522.5715, 76.73898
523.0536, 75.85028
523.5357, 74.26436
524.0178, 72.44392
524.4999, 70.89749
524.9821, 69.75145
525.4642, 68.88179
525.9463, 68.27608
526.4284, 67.87251
526.9105, 67.33067
527.3926, 66.53511
527.8748, 65.81968
528.3569, 65.47498
528.8390, 65.43024
529.3211, 65.44078
529.8032, 65.77952
530.2853, 65.83241
530.7675, 65.01561
531.2496, 63.71841
531.7317, 62.67498
532.2138, 62.09484
532.6959, 61.84434
533.1780, 61.81304
533.6602, 62.08242
534.1423, 62.04894
534.6244, 61.49357
535.1065, 60.92454
535.5886, 60.54972
536.0707, 60.28176
536.5529, 59.97681
537.0350, 59.57912
537.5171, 59.11738
537.9992, 58.58229
538.4813, 57.89811
538.9634, 57.54105
539.4456, 57.76147
539.9277, 58.07404
540.4098, 58.32035
540.8919, 58.48476
541.3740, 58.55825
541.8561, 58.54485
542.3383, 58.42357
542.8204, 58.02542
543.3025, 57.40984
543.7846, 57.27318
544.2667, 58.07494
544.7488, 58.83254
545.2310, 58.11626
545.7131, 56.13109
546.1952, 54.84034
546.6773, 55.00475
547.1594, 55.51991
547.6415, 55.78643
548.1237, 55.82514
548.6058, 55.73740
549.0879, 55.55916
549.5700, 55.34880
550.0521, 55.22070
550.5342, 55.28041
551.0164, 55.08984
551.4985, 54.21973
551.9806, 53.57573
552.4627, 53.77953
552.9448, 54.46046
553.4269, 54.89574
553.9091, 54.73738
554.3912, 54.23920
554.8733, 53.74504
555.3554, 53.19828
555.8375, 53.06669
556.3196, 53.79686
556.8018, 54.51140
557.2839, 54.55045
557.7660, 54.12963
558.2481, 53.87960
558.7302, 54.24170
559.2123, 54.60700
559.6945, 54.10892
560.1766, 52.99891
560.6587, 52.52485
561.1408, 53.20728
561.6229, 54.16080
562.1050, 54.20301
562.5872, 53.12851
563.0693, 52.61712
563.5514, 53.07350
564.0335, 53.70963
564.5156, 54.33061
564.9977, 54.80174
565.4799, 54.89231
565.9620, 54.51539
566.4441, 53.88852
566.9262, 53.29000
567.4083, 52.61304
567.8904, 52.40162
568.3726, 53.19050
568.8547, 53.90705
569.3368, 54.21511
569.8189, 54.19917
570.3010, 53.92509
570.7831, 53.33606
571.2653, 52.91363
571.7474, 53.59391
572.2295, 55.15042
572.7116, 55.57988
573.1937, 54.16401
573.6758, 52.57716
574.1580, 52.35089
574.6401, 53.14420
575.1222, 53.61513
575.6043, 53.37273
576.0864, 53.08622
576.5685, 53.08896
577.0507, 53.26331
577.5328, 53.39978
578.0149, 53.45043
578.4970, 53.55268
578.9791, 53.89374
579.4612, 54.49638
579.9434, 54.76495
580.4255, 54.30524
580.9076, 53.96943
581.3897, 54.09045
581.8718, 54.31905
582.3539, 54.23129
582.8361, 53.75068
583.3182, 53.19291
583.8003, 52.84846
584.2824, 52.69920
584.7645, 52.61288
585.2466, 52.57969
585.7288, 52.63527
586.2108, 52.82191
586.6929, 53.10050
587.1750, 53.49686
587.6572, 54.12291
588.1393, 54.38004
588.6214, 53.42213
589.1035, 52.22876
589.5856, 52.33418
590.0677, 53.73721
590.5499, 55.10941
591.0320, 55.62025
591.5141, 55.41584
591.9962, 55.02111
592.4783, 54.05297
592.9604, 53.44700
593.4426, 53.39125
593.9247, 53.54725
594.4068, 53.70179
594.8889, 53.85159
