##NAMES=Sassolite
##RRUFFID=R060496
##IDEAL CHEMISTRY=B(OH)_3_
##LOCALITY=Upper Biddy mine, near Ryan, Death Valley, Inyo County, California, USA
##OWNER=RRUFF
##SOURCE=Michael Scott
##DESCRIPTION=Colorless thin pseudohexagonal single crystals
##STATUS=The identification of this mineral has been confirmed by single-crystal X-ray diffraction.
##URL=rruff.info/R060496
111.4785, 6517.673
111.9606, 6536.169
112.4427, 6555.796
112.9248, 6577.867
113.4069, 6602.321
113.8890, 6629.256
114.3712, 6659.068
114.8533, 6694.144
115.3354, 6729.728
115.8175, 6764.818
116.2996, 6799.982
116.7817, 6832.994
117.2639, 6862.223
117.7460, 6889.460
118.2281, 6916.950
118.7102, 6948.908
119.1923, 6979.040
119.6744, 7002.991
120.1566, 7019.721
120.6387, 7032.807
121.1208, 7043.817
121.6029, 7052.516
122.0850, 7058.410
122.5671, 7058.435
123.0493, 7056.451
123.5314, 7056.673
124.0135, 7060.367
124.4956, 7064.187
124.9777, 7065.385
125.4598, 7063.923
125.9420, 7060.066
126.4241, 7050.751
126.9062, 7039.338
127.3883, 7032.166
127.8704, 7030.975
128.3525, 7033.847
128.8347, 7038.232
129.3168, 7044.154
129.7989, 7051.842
130.2810, 7062.150
130.7631, 7074.577
131.2452, 7087.783
131.7274, 7102.752
132.2095, 7117.741
132.6916, 7127.666
133.1737, 7132.315
133.6558, 7134.170
134.1379, 7136.245
134.6201, 7138.548
135.1022, 7137.794
135.5843, 7132.441
136.0664, 7123.027
136.5485, 7113.560
137.0306, 7104.126
137.5128, 7094.301
137.9949, 7082.673
138.4770, 7068.536
138.9591, 7055.711
139.4412, 7045.256
139.9233, 7037.268
140.4055, 7031.044
140.8876, 7027.971
141.3697, 7024.938
141.8518, 7015.967
142.3339, 6997.889
142.8160, 6980.875
143.2982, 6968.525
143.7803, 6961.782
144.2624, 6957.267
144.7445, 6956.399
145.2266, 6957.348
145.7087, 6955.842
146.1909, 6949.994
146.6730, 6944.211
147.1551, 6940.217
147.6372, 6938.855
148.1193, 6938.154
148.6014, 6938.573
149.0836, 6939.814
149.5657, 6940.719
150.0478, 6940.470
150.5299, 6940.562
151.0120, 6941.639
151.4941, 6942.896
151.9763, 6945.915
152.4584, 6952.277
152.9405, 6960.960
153.4226, 6967.167
153.9047, 6968.077
154.3868, 6967.928
154.8690, 6969.022
155.3511, 6971.358
155.8332, 6975.164
156.3153, 6982.258
156.7974, 6991.919
157.2795, 6998.313
157.7617, 6997.142
158.2438, 6993.975
158.7259, 6992.849
159.2080, 6995.739
159.6901, 6999.948
160.1722, 7004.804
160.6544, 7010.353
161.1365, 7016.934
161.6186, 7024.734
162.1007, 7033.531
162.5828, 7043.296
163.0649, 7055.230
163.5471, 7066.906
164.0292, 7077.204
164.5113, 7086.022
164.9934, 7093.873
165.4755, 7100.740
165.9576, 7106.762
166.4398, 7112.046
166.9219, 7114.515
167.4040, 7117.720
167.8861, 7124.443
168.3682, 7134.984
168.8503, 7146.166
169.3325, 7157.598
169.8146, 7168.238
170.2967, 7176.251
170.7788, 7178.241
171.2609, 7178.938
171.7430, 7182.939
172.2252, 7190.876
172.7073, 7199.534
173.1894, 7205.829
173.6715, 7210.944
174.1536, 7217.264
174.6357, 7227.403
175.1179, 7238.898
175.6000, 7248.589
176.0821, 7255.881
176.5642, 7262.751
177.0463, 7270.860
177.5284, 7280.082
178.0106, 7289.881
178.4927, 7300.909
178.9748, 7312.197
179.4569, 7321.419
179.9390, 7328.010
180.4211, 7334.430
180.9033, 7343.723
181.3854, 7355.630
181.8675, 7368.442
182.3496, 7382.752
182.8317, 7397.216
183.3138, 7408.565
183.7960, 7415.405
184.2781, 7421.680
184.7602, 7433.361
185.2423, 7450.003
185.7244, 7467.138
186.2065, 7483.376
186.6887, 7498.171
187.1708, 7509.835
187.6529, 7517.939
188.1350, 7523.146
188.6171, 7525.041
189.0992, 7523.725
189.5814, 7523.419
190.0635, 7526.730
190.5456, 7533.497
191.0277, 7542.413
191.5098, 7553.900
191.9919, 7566.720
192.4741, 7577.659
192.9562, 7586.563
193.4383, 7596.185
193.9204, 7608.195
194.4025, 7622.526
194.8846, 7638.234
195.3668, 7655.338
195.8489, 7673.564
196.3310, 7692.728
196.8131, 7713.000
197.2952, 7732.634
197.7773, 7750.071
198.2595, 7765.134
198.7416, 7781.682
199.2237, 7800.396
199.7058, 7820.547
200.1879, 7839.375
200.6700, 7856.589
201.1522, 7874.912
201.6343, 7896.416
202.1164, 7921.344
202.5985, 7947.584
203.0806, 7974.658
203.5627, 8002.761
204.0449, 8032.127
204.5270, 8062.687
205.0091, 8094.556
205.4912, 8128.123
205.9733, 8163.655
206.4554, 8199.215
206.9376, 8235.386
207.4197, 8271.082
207.9018, 8303.356
208.3839, 8331.776
208.8660, 8358.095
209.3481, 8384.295
209.8303, 8412.146
210.3124, 8433.098
210.7945, 8446.115
211.2766, 8451.658
211.7587, 8451.837
212.2408, 8446.755
212.7230, 8436.108
213.2051, 8419.246
213.6872, 8395.354
214.1693, 8367.462
214.6514, 8335.746
215.1335, 8300.013
215.6157, 8260.604
216.0978, 8214.730
216.5799, 8169.233
217.0620, 8127.653
217.5441, 8089.464
218.0262, 8056.354
218.5084, 8029.041
218.9905, 8006.594
219.4726, 7985.650
219.9547, 7965.505
220.4368, 7947.658
220.9189, 7933.472
221.4011, 7923.713
221.8832, 7915.833
222.3653, 7910.069
222.8474, 7906.188
223.3295, 7902.505
223.8116, 7898.670
224.2938, 7895.833
224.7759, 7894.760
225.2580, 7895.860
225.7401, 7897.726
226.2222, 7900.750
226.7043, 7904.369
227.1865, 7906.413
227.6686, 7906.112
228.1507, 7905.174
228.6328, 7904.719
229.1149, 7905.616
229.5970, 7904.869
230.0792, 7901.838
230.5613, 7897.093
231.0434, 7892.666
231.5255, 7887.995
232.0076, 7884.806
232.4897, 7884.495
232.9719, 7889.111
233.4540, 7892.146
233.9361, 7891.923
234.4182, 7890.176
234.9003, 7893.265
235.3824, 7904.312
235.8646, 7915.729
236.3467, 7923.462
236.8288, 7924.922
237.3109, 7928.194
237.7930, 7933.650
238.2751, 7940.851
238.7573, 7948.595
239.2394, 7957.297
239.7215, 7965.592
240.2036, 7972.772
240.6857, 7978.069
241.1678, 7983.633
241.6500, 7989.414
242.1321, 7995.345
242.6142, 8001.678
243.0963, 8009.557
243.5784, 8016.063
244.0605, 8019.544
244.5427, 8018.161
245.0248, 8018.759
245.5069, 8022.317
245.9890, 8027.598
246.4711, 8031.837
246.9532, 8034.994
247.4354, 8037.488
247.9175, 8039.516
248.3996, 8041.217
248.8817, 8042.451
249.3638, 8043.126
249.8459, 8043.588
250.3281, 8044.211
250.8102, 8044.280
251.2923, 8046.016
251.7744, 8050.354
252.2565, 8057.675
252.7386, 8066.354
253.2208, 8077.731
253.7029, 8089.497
254.1850, 8097.859
254.6671, 8100.873
255.1492, 8104.047
255.6313, 8108.714
256.1135, 8114.700
256.5956, 8122.612
257.0777, 8133.604
257.5598, 8145.006
258.0419, 8152.831
258.5240, 8155.102
259.0062, 8157.790
259.4883, 8162.779
259.9704, 8170.164
260.4525, 8176.460
260.9346, 8181.178
261.4167, 8185.364
261.8989, 8190.427
262.3810, 8197.034
262.8631, 8202.954
263.3452, 8207.655
263.8273, 8211.317
264.3094, 8214.925
264.7916, 8218.796
265.2737, 8222.590
265.7558, 8225.433
266.2379, 8226.184
266.7200, 8230.250
267.2021, 8240.089
267.6843, 8254.789
268.1664, 8265.190
268.6485, 8269.615
269.1306, 8273.021
269.6127, 8279.718
270.0948, 8290.405
270.5770, 8300.465
271.0591, 8308.646
271.5412, 8315.350
272.0233, 8323.305
272.5054, 8332.640
272.9875, 8342.126
273.4697, 8351.325
273.9518, 8360.626
274.4339, 8366.961
274.9160, 8368.920
275.3981, 8368.335
275.8802, 8371.063
276.3624, 8377.736
276.8445, 8385.373
277.3266, 8392.441
277.8087, 8399.009
278.2908, 8404.536
278.7729, 8408.598
279.2551, 8412.169
279.7372, 8417.973
280.2193, 8426.596
280.7014, 8433.965
281.1835, 8437.048
281.6656, 8435.942
282.1478, 8436.579
282.6299, 8439.267
283.1120, 8443.631
283.5941, 8449.421
284.0762, 8456.725
284.5583, 8464.167
285.0405, 8470.996
285.5226, 8477.335
286.0047, 8484.755
286.4868, 8493.663
286.9689, 8502.267
287.4510, 8507.246
287.9332, 8508.798
288.4153, 8511.536
288.8974, 8518.020
289.3795, 8527.080
289.8616, 8534.127
290.3438, 8538.978
290.8259, 8542.919
291.3080, 8547.063
291.7901, 8551.388
292.2722, 8556.098
292.7543, 8561.349
293.2365, 8566.925
293.7186, 8572.334
294.2007, 8577.532
294.6828, 8582.639
295.1649, 8588.037
295.6470, 8593.454
296.1292, 8598.075
296.6113, 8601.354
297.0934, 8604.074
297.5755, 8607.957
298.0576, 8612.865
298.5397, 8616.963
299.0219, 8617.763
299.5040, 8616.965
299.9861, 8618.391
300.4682, 8623.433
300.9503, 8629.790
301.4324, 8634.870
301.9146, 8638.962
302.3967, 8643.282
302.8788, 8648.384
303.3609, 8654.270
303.8430, 8660.792
304.3251, 8667.883
304.8073, 8675.729
305.2894, 8684.939
305.7715, 8695.002
306.2536, 8705.011
306.7357, 8714.121
307.2178, 8722.836
307.7000, 8731.060
308.1821, 8738.501
308.6642, 8746.953
309.1463, 8759.701
309.6284, 8773.839
310.1105, 8785.079
310.5927, 8789.339
311.0748, 8791.438
311.5569, 8794.159
312.0390, 8797.645
312.5211, 8802.556
313.0032, 8811.348
313.4854, 8821.177
313.9675, 8828.906
314.4496, 8831.785
314.9317, 8834.096
315.4138, 8837.965
315.8959, 8843.265
316.3781, 8848.844
316.8602, 8854.995
317.3423, 8860.879
317.8244, 8865.798
318.3065, 8868.766
318.7886, 8872.004
319.2708, 8875.217
319.7529, 8879.062
320.2350, 8885.450
320.7171, 8898.111
321.1992, 8910.854
321.6813, 8920.362
322.1635, 8924.796
322.6456, 8928.879
323.1277, 8932.937
323.6098, 8937.144
324.0919, 8941.870
324.5740, 8945.759
325.0562, 8951.296
325.5383, 8959.996
326.0204, 8973.203
326.5025, 8984.347
326.9846, 8992.980
327.4667, 8999.474
327.9489, 9004.316
328.4310, 9006.331
328.9131, 9008.358
329.3952, 9011.010
329.8773, 9014.378
330.3594, 9017.562
330.8416, 9020.238
331.3237, 9023.043
331.8058, 9026.290
332.2879, 9029.175
332.7700, 9033.794
333.2521, 9040.229
333.7343, 9048.462
334.2164, 9059.113
334.6985, 9074.297
335.1806, 9088.215
335.6627, 9097.103
336.1448, 9098.382
336.6270, 9102.251
337.1091, 9109.795
337.5912, 9119.359
338.0733, 9127.666
338.5554, 9134.293
339.0375, 9140.927
339.5197, 9148.497
340.0018, 9157.067
340.4839, 9164.718
340.9660, 9171.099
341.4481, 9177.000
341.9302, 9183.651
342.4124, 9191.234
342.8945, 9197.166
343.3766, 9200.021
343.8587, 9200.596
344.3408, 9202.472
344.8229, 9205.577
345.3051, 9210.342
345.7872, 9218.572
346.2693, 9229.472
346.7514, 9237.702
347.2335, 9241.266
347.7156, 9242.792
348.1978, 9248.082
348.6799, 9256.842
349.1620, 9264.471
349.6441, 9266.587
350.1262, 9265.494
350.6083, 9266.600
351.0905, 9270.846
351.5726, 9276.534
352.0547, 9281.364
352.5368, 9285.906
353.0189, 9291.902
353.5010, 9301.197
353.9832, 9311.906
354.4653, 9322.233
354.9474, 9332.193
355.4295, 9340.576
355.9116, 9344.543
356.3937, 9346.700
356.8759, 9350.936
357.3580, 9361.029
357.8401, 9371.713
358.3222, 9379.104
358.8043, 9383.732
359.2864, 9388.276
359.7686, 9393.181
360.2507, 9399.188
360.7328, 9407.021
361.2149, 9417.889
361.6970, 9428.818
362.1791, 9439.449
362.6613, 9449.167
363.1434, 9456.675
363.6255, 9458.685
364.1076, 9460.498
364.5897, 9464.469
365.0718, 9470.938
365.5540, 9478.868
366.0361, 9490.771
366.5182, 9503.147
367.0003, 9511.810
367.4824, 9514.361
367.9645, 9515.334
368.4467, 9514.689
368.9288, 9512.395
369.4109, 9513.006
369.8930, 9518.905
370.3751, 9526.185
370.8572, 9532.287
371.3394, 9536.420
371.8215, 9540.844
372.3036, 9545.636
372.7857, 9550.833
373.2678, 9556.632
373.7499, 9562.978
374.2321, 9569.861
374.7142, 9577.217
375.1963, 9585.088
375.6784, 9592.718
376.1605, 9599.188
376.6426, 9606.355
377.1248, 9618.142
377.6069, 9635.918
378.0890, 9650.423
378.5711, 9657.229
379.0532, 9657.718
379.5353, 9661.620
380.0175, 9669.420
380.4996, 9678.590
380.9817, 9687.729
381.4638, 9696.577
381.9459, 9702.715
382.4280, 9704.535
382.9102, 9704.717
383.3923, 9708.066
383.8744, 9714.410
384.3565, 9722.345
384.8386, 9732.337
385.3207, 9742.970
385.8029, 9750.764
386.2850, 9755.121
386.7671, 9758.269
387.2492, 9762.063
387.7313, 9766.428
388.2134, 9771.141
388.6956, 9777.902
389.1777, 9783.854
389.6598, 9785.297
390.1419, 9782.577
390.6240, 9780.943
391.1061, 9785.726
391.5883, 9792.557
392.0704, 9796.665
392.5525, 9794.317
393.0346, 9792.646
393.5167, 9795.079
393.9988, 9800.812
394.4810, 9807.487
394.9631, 9814.228
395.4452, 9821.762
395.9273, 9830.796
396.4094, 9842.190
396.8915, 9852.510
397.3737, 9859.483
397.8558, 9865.441
398.3379, 9873.232
398.8200, 9885.902
399.3021, 9897.172
399.7842, 9904.457
400.2664, 9907.689
400.7485, 9914.518
401.2306, 9927.214
401.7127, 9940.944
402.1948, 9952.603
402.6769, 9961.163
403.1591, 9969.745
403.6412, 9979.268
404.1233, 9988.483
404.6054, 9994.053
405.0875, 9994.714
405.5696, 9995.432
406.0518, 9998.780
406.5339, 10004.98
407.0160, 10008.75
407.4981, 10009.46
407.9802, 10010.01
408.4623, 10014.82
408.9445, 10023.90
409.4266, 10030.73
409.9087, 10032.58
410.3908, 10032.24
410.8729, 10036.42
411.3550, 10045.14
411.8372, 10055.04
412.3193, 10063.94
412.8014, 10072.31
413.2835, 10081.15
413.7656, 10090.52
414.2477, 10100.67
414.7299, 10111.47
415.2120, 10123.03
415.6941, 10135.49
416.1762, 10151.45
416.6583, 10166.44
417.1404, 10174.84
417.6226, 10176.76
418.1047, 10179.65
418.5868, 10189.30
419.0689, 10201.11
419.5510, 10210.76
420.0331, 10214.90
420.5153, 10219.47
420.9974, 10228.55
421.4795, 10239.99
421.9616, 10247.89
422.4437, 10248.83
422.9258, 10247.98
423.4080, 10247.62
423.8901, 10248.44
424.3722, 10248.61
424.8543, 10246.35
425.3364, 10244.52
425.8185, 10245.95
426.3007, 10252.88
426.7828, 10260.05
427.2649, 10266.82
427.7470, 10273.21
428.2291, 10279.85
428.7112, 10287.42
429.1934, 10293.70
429.6755, 10296.91
430.1576, 10295.99
430.6397, 10296.86
431.1218, 10299.95
431.6039, 10304.21
432.0861, 10308.00
432.5682, 10311.25
433.0503, 10315.07
433.5324, 10320.08
434.0145, 10326.01
434.4966, 10332.28
434.9788, 10339.03
435.4609, 10344.85
435.9430, 10347.00
436.4251, 10347.37
436.9072, 10351.35
437.3893, 10360.79
437.8715, 10372.09
438.3536, 10380.86
438.8357, 10388.09
439.3178, 10396.54
439.7999, 10408.78
440.2820, 10422.01
440.7642, 10434.29
441.2463, 10445.49
441.7284, 10453.42
442.2105, 10453.41
442.6926, 10451.02
443.1747, 10451.66
443.6569, 10458.53
444.1390, 10466.25
444.6211, 10473.72
445.1032, 10480.80
445.5853, 10486.95
446.0674, 10491.59
446.5496, 10495.98
447.0317, 10500.65
447.5138, 10505.76
447.9959, 10511.59
448.4780, 10520.19
448.9601, 10528.57
449.4423, 10533.62
449.9244, 10533.32
450.4065, 10534.16
450.8886, 10536.45
451.3707, 10540.71
451.8528, 10550.42
452.3350, 10567.86
452.8171, 10583.53
453.2992, 10590.70
453.7813, 10589.08
454.2634, 10591.89
454.7455, 10599.70
455.2277, 10610.23
455.7098, 10621.56
456.1919, 10633.31
456.6740, 10644.18
457.1561, 10652.99
457.6382, 10661.03
458.1204, 10671.36
458.6025, 10683.56
459.0846, 10693.50
459.5667, 10696.03
460.0488, 10695.88
460.5309, 10699.56
461.0131, 10708.58
461.4952, 10719.00
461.9773, 10729.22
462.4594, 10738.74
462.9415, 10746.93
463.4236, 10751.89
463.9058, 10756.84
464.3879, 10763.24
464.8700, 10770.90
465.3521, 10778.80
465.8342, 10788.36
466.3163, 10796.83
466.7985, 10802.20
467.2806, 10799.95
467.7627, 10802.68
468.2448, 10814.57
468.7269, 10829.74
469.2090, 10839.84
469.6912, 10842.01
470.1733, 10844.35
470.6554, 10848.45
471.1375, 10854.22
471.6196, 10861.30
472.1017, 10870.45
472.5839, 10878.71
473.0660, 10883.99
473.5481, 10886.25
474.0302, 10887.99
474.5123, 10889.25
474.9944, 10890.81
475.4766, 10894.05
475.9587, 10898.87
476.4408, 10903.94
476.9229, 10909.32
477.4050, 10914.51
477.8871, 10917.54
478.3693, 10918.91
478.8514, 10922.35
479.3335, 10931.26
479.8156, 10943.48
480.2977, 10956.27
480.7798, 10968.87
481.2620, 10982.58
481.7441, 10996.06
482.2262, 11011.40
482.7083, 11031.66
483.1904, 11062.21
483.6725, 11093.43
484.1547, 11120.30
484.6368, 11143.07
485.1189, 11169.51
485.6010, 11205.59
486.0831, 11241.69
486.5652, 11272.39
487.0474, 11294.02
487.5295, 11318.64
488.0116, 11348.55
488.4937, 11379.45
488.9758, 11405.30
489.4579, 11424.76
489.9401, 11443.29
490.4222, 11461.76
490.9043, 11480.41
491.3864, 11500.16
491.8685, 11520.61
492.3506, 11545.88
492.8328, 11578.22
493.3149, 11617.52
493.7970, 11665.35
494.2791, 11722.93
494.7612, 11784.67
495.2433, 11844.16
495.7255, 11903.52
496.2076, 11968.82
496.6897, 12044.84
497.1718, 12125.43
497.6539, 12204.34
498.1360, 12281.82
498.6182, 12360.56
499.1003, 12448.55
499.5824, 12533.31
500.0645, 12609.12
500.5466, 12681.61
501.0287, 12721.33
501.5109, 12724.05
501.9930, 12688.05
502.4751, 12611.34
502.9572, 12456.71
503.4393, 12304.52
503.9214, 12158.36
504.4036, 12021.77
504.8857, 11902.94
505.3678, 11801.68
505.8499, 11716.61
506.3320, 11648.27
506.8141, 11597.26
507.2963, 11555.46
507.7784, 11522.68
508.2605, 11498.60
508.7426, 11484.85
509.2247, 11480.76
509.7068, 11476.19
510.1890, 11469.08
510.6711, 11460.86
511.1532, 11453.05
511.6353, 11445.92
512.1174, 11441.09
512.5995, 11440.09
513.0817, 11441.34
513.5638, 11443.67
514.0459, 11446.92
514.5280, 11449.33
515.0101, 11448.62
515.4922, 11447.21
515.9744, 11447.41
516.4565, 11450.39
516.9386, 11453.94
517.4207, 11458.51
517.9028, 11463.09
518.3849, 11466.01
518.8671, 11464.62
519.3492, 11464.13
519.8313, 11465.46
520.3134, 11468.54
520.7955, 11473.11
521.2776, 11479.96
521.7598, 11486.93
522.2419, 11492.60
522.7240, 11496.67
523.2061, 11500.49
523.6882, 11503.62
524.1703, 11507.36
524.6525, 11514.30
525.1346, 11524.23
525.6167, 11533.17
526.0988, 11540.71
526.5809, 11546.02
527.0630, 11545.75
527.5452, 11541.00
528.0273, 11537.59
528.5094, 11538.44
528.9915, 11542.83
529.4736, 11551.13
529.9557, 11563.53
530.4379, 11575.09
530.9200, 11581.82
531.4021, 11586.68
531.8842, 11592.69
532.3663, 11602.05
532.8484, 11610.14
533.3306, 11614.80
533.8127, 11617.31
534.2948, 11620.30
534.7769, 11624.26
535.2590, 11628.51
535.7411, 11633.34
536.2233, 11638.75
536.7054, 11642.52
537.1875, 11643.25
537.6696, 11645.42
538.1517, 11653.45
538.6339, 11668.12
539.1160, 11677.98
539.5981, 11681.42
540.0802, 11682.96
540.5623, 11689.13
541.0444, 11699.07
541.5266, 11708.01
542.0087, 11713.69
542.4908, 11718.34
542.9729, 11725.28
543.4550, 11733.87
543.9371, 11742.05
544.4193, 11747.11
544.9014, 11752.24
545.3835, 11760.42
545.8656, 11771.96
546.3477, 11783.84
546.8298, 11796.90
547.3120, 11808.67
547.7941, 11816.96
548.2762, 11817.96
548.7583, 11820.22
549.2404, 11825.34
549.7225, 11831.70
550.2047, 11836.47
550.6868, 11838.33
551.1689, 11841.22
551.6510, 11846.85
552.1331, 11854.53
552.6152, 11859.08
553.0974, 11860.25
553.5795, 11860.30
554.0616, 11860.72
554.5437, 11861.55
555.0258, 11861.76
555.5079, 11861.17
555.9901, 11862.24
556.4722, 11868.07
556.9543, 11877.52
557.4364, 11888.22
557.9185, 11900.22
558.4006, 11912.04
558.8828, 11922.06
559.3649, 11930.86
559.8470, 11940.22
560.3291, 11952.43
560.8112, 11963.34
561.2933, 11969.94
561.7755, 11971.91
562.2576, 11975.57
562.7397, 11983.53
563.2218, 11991.58
563.7039, 11997.66
564.1860, 12001.05
564.6682, 12004.54
565.1503, 12008.50
565.6324, 12012.54
566.1145, 12016.22
566.5966, 12019.73
567.0787, 12023.18
567.5609, 12026.64
568.0430, 12030.54
568.5251, 12036.06
569.0072, 12043.09
569.4893, 12049.58
569.9714, 12053.64
570.4536, 12056.93
570.9357, 12061.23
571.4178, 12066.60
571.8999, 12073.94
572.3820, 12085.85
572.8641, 12098.63
573.3463, 12108.59
573.8284, 12114.06
574.3105, 12119.33
574.7926, 12125.33
575.2747, 12131.81
575.7568, 12138.40
576.2390, 12145.50
576.7211, 12152.03
577.2032, 12157.37
577.6853, 12162.11
578.1674, 12168.43
578.6495, 12177.02
579.1317, 12185.26
579.6138, 12192.21
580.0959, 12197.96
580.5780, 12202.51
581.0601, 12205.84
581.5422, 12209.57
582.0244, 12216.31
582.5065, 12224.54
582.9886, 12229.54
583.4707, 12230.11
583.9528, 12231.32
584.4349, 12237.20
584.9171, 12246.79
585.3992, 12258.75
585.8813, 12278.67
586.3634, 12294.19
586.8455, 12295.71
587.3276, 12288.38
587.8098, 12286.36
588.2919, 12293.82
588.7740, 12305.49
589.2561, 12322.48
589.7382, 12344.96
590.2203, 12357.15
590.7025, 12354.90
591.1846, 12349.53
591.6667, 12348.03
592.1488, 12350.64
592.6309, 12354.59
593.1130, 12360.31
593.5952, 12365.81
594.0773, 12368.42
594.5594, 12368.78
595.0415, 12368.71
595.5236, 12367.88
596.0057, 12368.72
596.4879, 12375.74
596.9700, 12386.63
597.4521, 12395.83
597.9342, 12398.03
598.4163, 12400.28
598.8984, 12408.03
599.3806, 12420.47
599.8627, 12429.17
600.3448, 12429.00
600.8269, 12427.20
601.3090, 12426.40
601.7911, 12425.54
602.2733, 12430.07
602.7554, 12442.29
603.2375, 12456.56
603.7196, 12467.58
604.2017, 12475.26
604.6838, 12481.65
605.1660, 12486.47
605.6481, 12491.57
606.1302, 12500.87
606.6123, 12513.40
607.0944, 12524.28
607.5765, 12530.33
608.0587, 12535.21
608.5408, 12543.74
609.0229, 12554.86
