##NAMES=Sassolite
##RRUFFID=R060496
##IDEAL CHEMISTRY=B(OH)_3_
##LOCALITY=Upper Biddy mine, near Ryan, Death Valley, Inyo County, California, USA
##OWNER=RRUFF
##SOURCE=Michael Scott
##DESCRIPTION=Colorless thin pseudohexagonal single crystals
##STATUS=The identification of this mineral has been confirmed by single-crystal X-ray diffraction.
##URL=rruff.info/R060496
111.8088, 1177.578
112.2909, 1178.459
112.7731, 1180.953
113.2552, 1184.738
113.7373, 1189.146
114.2194, 1193.140
114.7015, 1195.832
115.1836, 1199.913
115.6658, 1206.730
116.1479, 1214.267
116.6300, 1220.302
117.1121, 1223.984
117.5942, 1226.588
118.0763, 1231.450
118.5584, 1240.472
119.0406, 1247.471
119.5227, 1250.309
120.0048, 1249.694
120.4869, 1247.631
120.9690, 1245.270
121.4511, 1241.406
121.9333, 1234.395
122.4154, 1223.179
122.8975, 1210.627
123.3796, 1199.498
123.8617, 1190.011
124.3438, 1179.774
124.8260, 1166.535
125.3081, 1152.377
125.7902, 1138.900
126.2723, 1126.556
126.7544, 1115.488
127.2365, 1106.075
127.7187, 1097.957
128.2008, 1092.485
128.6829, 1090.461
129.1650, 1090.697
129.6471, 1091.838
130.1292, 1093.240
130.6114, 1094.814
131.0935, 1095.154
131.5756, 1093.502
132.0577, 1091.265
132.5398, 1088.765
133.0219, 1085.951
133.5041, 1082.742
133.9862, 1079.210
134.4683, 1075.607
134.9504, 1069.251
135.4325, 1059.830
135.9146, 1048.545
136.3968, 1035.667
136.8789, 1021.407
137.3610, 1006.379
137.8431, 991.3795
138.3252, 976.3204
138.8073, 961.3649
139.2895, 945.9183
139.7716, 930.7635
140.2537, 917.0141
140.7358, 905.1706
141.2179, 893.9787
141.7000, 881.6000
142.1821, 868.1441
142.6643, 855.5389
143.1464, 844.8837
143.6285, 835.8007
144.1106, 826.8198
144.5927, 817.4710
145.0748, 808.3931
145.5570, 799.8522
146.0391, 791.8824
146.5212, 784.7307
147.0033, 778.8483
147.4854, 774.3528
147.9675, 769.8925
148.4497, 765.3116
148.9318, 760.5811
149.4139, 755.5399
149.8960, 750.2022
150.3781, 744.8480
150.8602, 739.8839
151.3424, 735.1211
151.8245, 731.1761
152.3066, 728.4772
152.7887, 726.2123
153.2708, 723.7063
153.7529, 720.7248
154.2351, 717.5109
154.7172, 714.6790
155.1993, 712.5336
155.6814, 710.4776
156.1635, 708.9579
156.6456, 707.3733
157.1278, 704.7703
157.6099, 700.5898
158.0920, 695.4424
158.5741, 692.0120
159.0562, 691.4595
159.5383, 691.0250
160.0205, 690.1257
160.5026, 688.8643
160.9847, 687.4817
161.4668, 686.0824
161.9489, 684.6948
162.4310, 683.4515
162.9131, 682.6081
163.3953, 681.6652
163.8774, 680.2770
164.3595, 678.4794
164.8416, 676.6102
165.3237, 674.6275
165.8058, 672.8121
166.2880, 671.7667
166.7701, 672.2010
167.2522, 672.9183
167.7343, 672.3448
168.2164, 670.1660
168.6985, 668.1990
169.1807, 667.7791
169.6628, 668.1462
170.1449, 668.4362
170.6270, 668.2814
171.1091, 667.8796
171.5912, 667.7061
172.0734, 667.9030
172.5555, 668.0740
173.0376, 667.9562
173.5197, 667.7382
174.0018, 667.6801
174.4839, 667.9271
174.9661, 668.4616
175.4482, 669.1783
175.9303, 670.2278
176.4124, 671.3187
176.8945, 672.2924
177.3766, 673.2537
177.8588, 674.3251
178.3409, 675.5381
178.8230, 676.8917
179.3051, 679.1208
179.7872, 683.5702
180.2693, 687.5737
180.7515, 690.2074
181.2336, 691.6797
181.7157, 692.6510
182.1978, 693.6432
182.6799, 694.6443
183.1620, 695.7771
183.6441, 696.7495
184.1263, 698.0557
184.6084, 700.0529
185.0905, 702.6736
185.5726, 705.5824
186.0547, 708.6179
186.5368, 711.8492
187.0190, 713.8301
187.5011, 714.1782
187.9832, 713.6156
188.4653, 712.1973
188.9474, 710.0168
189.4296, 708.1635
189.9117, 707.8220
190.3938, 708.9885
190.8759, 710.2737
191.3580, 710.8067
191.8401, 711.7235
192.3223, 714.6683
192.8044, 720.1194
193.2865, 726.0945
193.7686, 730.6228
194.2507, 734.1114
194.7328, 737.6392
195.2150, 741.2758
195.6971, 745.2205
196.1792, 749.8929
196.6613, 755.3855
197.1434, 761.5219
197.6255, 768.4007
198.1077, 775.8193
198.5898, 783.1461
199.0719, 789.6074
199.5540, 795.6276
200.0361, 802.9450
200.5182, 811.8071
201.0004, 821.9181
201.4825, 833.0923
201.9646, 845.1696
202.4467, 857.6528
202.9288, 870.2168
203.4109, 882.8968
203.8930, 895.8850
204.3752, 909.2227
204.8573, 922.8275
205.3394, 936.7338
205.8215, 950.8146
206.3036, 964.9654
206.7857, 979.2487
207.2679, 993.7466
207.7500, 1006.789
208.2321, 1018.338
208.7142, 1028.350
209.1963, 1037.376
209.6784, 1044.863
210.1606, 1049.583
210.6427, 1050.420
211.1248, 1047.242
211.6069, 1041.086
212.0890, 1032.414
212.5711, 1020.760
213.0533, 1005.488
213.5354, 986.9121
214.0175, 965.6343
214.4996, 941.9641
214.9817, 915.4023
215.4638, 889.6475
215.9460, 864.0587
216.4281, 839.5491
216.9102, 816.2765
217.3923, 794.4135
217.8744, 773.9241
218.3565, 754.8330
218.8387, 737.2246
219.3208, 721.9083
219.8029, 708.8503
220.2850, 697.6966
220.7671, 688.7930
221.2492, 681.8929
221.7314, 675.6342
222.2135, 668.7690
222.6956, 661.2955
223.1777, 655.0410
223.6598, 650.8185
224.1419, 647.1870
224.6240, 643.1240
225.1062, 638.5698
225.5883, 634.0149
226.0704, 629.7941
226.5525, 625.9454
227.0346, 622.3741
227.5167, 619.0845
227.9989, 616.0759
228.4810, 613.5538
228.9631, 611.5510
229.4452, 609.4370
229.9273, 606.6807
230.4094, 603.4631
230.8916, 600.2750
231.3737, 597.0765
231.8558, 594.0169
232.3379, 591.3875
232.8200, 589.2656
233.3021, 587.0251
233.7843, 583.8372
234.2664, 580.3387
234.7485, 577.5619
235.2306, 576.0565
235.7127, 575.1380
236.1948, 573.8533
236.6770, 572.0923
237.1591, 570.3901
237.6412, 568.9567
238.1233, 567.7512
238.6054, 566.8116
239.0875, 566.2890
239.5697, 565.8358
240.0518, 564.9441
240.5339, 563.6064
241.0160, 561.8170
241.4981, 558.7606
241.9802, 555.6064
242.4624, 553.6720
242.9445, 553.6088
243.4266, 554.3196
243.9087, 553.8187
244.3908, 551.5683
244.8729, 549.5624
245.3550, 548.4666
245.8372, 547.7678
246.3193, 547.1115
246.8014, 546.3864
247.2835, 545.5458
247.7656, 544.5226
248.2477, 543.3833
248.7299, 541.8648
249.2120, 539.4069
249.6941, 536.9069
250.1762, 535.1445
250.6583, 534.3405
251.1404, 533.9986
251.6226, 533.2571
252.1047, 531.8536
252.5868, 530.6599
253.0689, 530.0617
253.5510, 529.4750
254.0331, 528.3652
254.5153, 526.6466
254.9974, 524.7753
255.4795, 523.4895
255.9616, 523.2205
256.4437, 522.6222
256.9258, 521.2262
257.4080, 519.8716
257.8901, 519.2209
258.3722, 519.3349
258.8543, 519.6772
259.3364, 519.5088
259.8185, 518.5703
260.3007, 517.7549
260.7828, 517.0570
261.2649, 516.4475
261.7470, 515.7504
262.2291, 515.0359
262.7112, 514.7292
263.1934, 515.4895
263.6755, 518.0546
264.1576, 518.8698
264.6397, 516.8925
265.1218, 514.4066
265.6039, 512.5889
266.0861, 511.5096
266.5682, 510.6162
267.0503, 509.3554
267.5324, 507.6302
268.0145, 506.1904
268.4966, 504.9353
268.9788, 503.9832
269.4609, 503.7260
269.9430, 503.9235
270.4251, 503.7880
270.9072, 502.6100
271.3893, 500.3473
271.8715, 498.4898
272.3536, 496.8895
272.8357, 495.7357
273.3178, 495.4448
273.7999, 495.7193
274.2820, 495.7668
274.7642, 495.0012
275.2463, 493.5163
275.7284, 492.5034
276.2105, 492.2447
276.6926, 492.0229
277.1747, 491.5967
277.6568, 491.0220
278.1389, 490.4450
278.6211, 489.9442
279.1032, 489.5031
279.5853, 489.0491
280.0674, 488.5360
280.5495, 488.0653
281.0316, 487.7896
281.5138, 487.5607
281.9959, 487.0379
282.4780, 486.0235
282.9601, 484.8042
283.4422, 484.1839
283.9243, 484.4884
284.4065, 484.6701
284.8886, 484.4506
285.3707, 484.0009
285.8528, 483.5705
286.3349, 483.2429
286.8170, 482.9409
287.2992, 482.5059
287.7813, 481.8701
288.2634, 481.3475
288.7455, 481.1891
289.2276, 481.0904
289.7097, 480.5743
290.1919, 479.5141
290.6740, 478.4204
291.1561, 477.9701
291.6382, 478.2658
292.1203, 478.4263
292.6024, 478.5025
293.0846, 478.3279
293.5667, 477.5473
294.0488, 476.1304
294.5309, 474.7852
295.0130, 474.2114
295.4951, 474.4370
295.9773, 474.5460
296.4594, 474.4973
296.9415, 474.3265
297.4236, 473.9637
297.9057, 473.4388
298.3878, 473.0496
298.8700, 473.1086
299.3521, 473.4890
299.8342, 473.4223
300.3163, 472.5303
300.7984, 471.5451
301.2805, 470.8491
301.7627, 470.4152
302.2448, 470.1256
302.7269, 470.0135
303.2090, 469.9281
303.6911, 469.4220
304.1732, 468.2146
304.6554, 467.0883
305.1375, 466.5290
305.6196, 466.3292
306.1017, 465.9127
306.5838, 465.0052
307.0659, 463.8965
307.5481, 463.1301
308.0302, 462.6815
308.5123, 462.4977
308.9944, 462.7715
309.4765, 463.2584
309.9586, 463.5605
310.4408, 463.5849
310.9229, 463.3698
311.4050, 462.8806
311.8871, 462.1082
312.3692, 461.3831
312.8513, 460.5131
313.3335, 459.8394
313.8156, 459.9821
314.2977, 461.0633
314.7798, 462.1108
315.2619, 462.1410
315.7440, 461.2077
316.2262, 460.4608
316.7083, 460.2382
317.1904, 460.0583
317.6725, 459.3924
318.1546, 458.2714
318.6367, 457.3504
319.1188, 457.1638
319.6010, 457.5369
320.0831, 457.5346
320.5652, 456.7003
321.0473, 455.9559
321.5294, 455.9236
322.0115, 456.4336
322.4937, 456.9067
322.9758, 457.1099
323.4579, 457.0653
323.9400, 456.8427
324.4221, 456.4926
324.9042, 455.9186
325.3864, 454.8676
325.8685, 453.6007
326.3506, 452.5966
326.8327, 452.0094
327.3148, 451.7134
327.7969, 451.6074
328.2791, 451.7602
328.7612, 451.6993
329.2433, 451.1597
329.7254, 450.4450
330.2075, 449.8979
330.6896, 449.5774
331.1718, 449.3742
331.6539, 449.2025
332.1360, 449.0656
332.6181, 448.8928
333.1002, 448.6674
333.5823, 448.4170
334.0645, 448.0934
334.5466, 447.7281
335.0287, 447.5403
335.5108, 447.7910
335.9929, 448.3454
336.4750, 448.2785
336.9572, 446.7345
337.4393, 445.5300
337.9214, 445.8014
338.4035, 447.0065
338.8856, 447.8420
339.3677, 447.6890
339.8499, 446.8378
340.3320, 446.0252
340.8141, 445.2387
341.2962, 444.5030
341.7783, 443.7226
342.2604, 443.0298
342.7426, 442.6826
343.2247, 442.7572
343.7068, 442.9313
344.1889, 442.7115
344.6710, 441.8026
345.1531, 441.4252
345.6353, 442.1404
346.1174, 443.0109
346.5995, 443.3163
347.0816, 443.0116
347.5637, 442.4687
348.0458, 442.0057
348.5280, 441.6279
349.0101, 441.1831
349.4922, 440.8293
349.9743, 440.2706
350.4564, 439.1358
350.9385, 437.6953
351.4207, 436.5661
351.9028, 436.1317
352.3849, 436.2451
352.8670, 436.2820
353.3491, 436.1171
353.8312, 436.0330
354.3134, 436.0968
354.7955, 436.2472
355.2776, 436.5175
355.7597, 436.9020
356.2418, 437.1409
356.7239, 436.7631
357.2061, 435.3313
357.6882, 434.1432
358.1703, 433.2627
358.6524, 432.5478
359.1345, 431.8696
359.6166, 431.2375
360.0987, 430.8005
360.5808, 430.7295
361.0630, 431.0713
361.5451, 431.3131
362.0272, 431.6893
362.5093, 431.7329
362.9914, 430.9972
363.4735, 429.8312
363.9557, 428.8784
364.4378, 428.5273
364.9199, 428.6862
365.4020, 428.9896
365.8841, 429.7824
366.3662, 430.2278
366.8484, 429.9496
367.3305, 429.4408
367.8126, 429.2487
368.2947, 429.5289
368.7768, 429.9170
369.2589, 429.8428
369.7411, 429.1866
370.2232, 428.3731
370.7053, 427.0228
371.1874, 425.8530
371.6695, 425.3208
372.1516, 425.3691
372.6338, 425.5930
373.1159, 425.7368
373.5980, 425.7900
374.0801, 425.3446
374.5622, 423.6577
375.0443, 422.3955
375.5265, 422.2775
376.0086, 422.8714
376.4907, 423.5669
376.9728, 424.1357
377.4549, 424.4842
377.9370, 424.3327
378.4192, 423.4793
378.9013, 422.6969
379.3834, 422.1426
379.8655, 421.7741
380.3476, 421.6056
380.8297, 421.6378
381.3119, 421.7650
381.7940, 422.0117
382.2761, 422.3700
382.7582, 422.2812
383.2403, 421.3784
383.7224, 420.3483
384.2046, 419.5095
384.6867, 418.9085
385.1688, 418.6706
385.6509, 419.3688
386.1330, 420.3939
386.6151, 420.0810
387.0973, 417.9705
387.5794, 416.1819
388.0615, 416.4448
388.5436, 417.6494
389.0257, 418.2084
389.5078, 417.5638
389.9900, 416.6879
390.4721, 416.3739
390.9542, 416.5806
391.4363, 417.0816
391.9184, 418.0620
392.4005, 418.9746
392.8827, 419.0119
393.3648, 418.1387
393.8469, 417.1796
394.3290, 416.3155
394.8111, 415.6138
395.2932, 415.2889
395.7754, 415.4061
396.2575, 415.5082
396.7396, 415.0992
397.2217, 414.2499
397.7038, 413.7747
398.1859, 414.1126
398.6681, 414.4776
399.1501, 414.2803
399.6323, 413.6494
400.1144, 413.0808
400.5965, 412.8196
401.0786, 412.7826
401.5607, 412.7424
402.0428, 412.6403
402.5250, 412.6296
403.0071, 412.8534
403.4892, 413.1263
403.9713, 413.2397
404.4534, 413.1447
404.9355, 412.8989
405.4177, 412.5269
405.8998, 411.9430
406.3819, 411.7168
406.8640, 412.1240
407.3461, 412.5793
407.8282, 412.8594
408.3104, 412.9513
408.7925, 412.8755
409.2746, 412.6276
409.7567, 412.2619
410.2388, 412.0282
410.7209, 412.1896
411.2031, 412.1373
411.6852, 411.6557
412.1673, 411.0333
412.6494, 410.4660
413.1315, 410.0363
413.6136, 409.8422
414.0958, 410.1664
414.5779, 411.3337
415.0600, 411.7101
415.5421, 410.5747
416.0242, 409.2961
416.5063, 408.2357
416.9885, 407.4533
417.4706, 406.9957
417.9527, 406.9576
418.4348, 407.1997
418.9169, 407.1805
419.3990, 406.6418
419.8812, 406.4275
420.3633, 407.2852
420.8454, 408.3038
421.3275, 408.5349
421.8096, 407.7336
422.2917, 406.6951
422.7739, 406.2524
423.2560, 406.3736
423.7381, 406.3826
424.2202, 406.0843
424.7023, 405.7822
425.1844, 405.8250
425.6666, 406.0862
426.1487, 406.0981
426.6308, 405.5439
427.1129, 404.6807
427.5950, 403.7699
428.0771, 402.7864
428.5593, 402.1495
429.0414, 402.1849
429.5235, 402.6905
430.0056, 403.1900
430.4877, 403.8097
430.9698, 404.1401
431.4520, 403.7757
431.9341, 403.0116
432.4162, 402.4087
432.8983, 402.1039
433.3804, 402.0247
433.8625, 402.2108
434.3447, 402.7395
434.8268, 402.7185
435.3089, 401.4465
435.7910, 400.1860
436.2731, 399.9833
436.7552, 400.5727
437.2374, 400.9025
437.7195, 400.3280
438.2016, 399.1039
438.6837, 398.2100
439.1658, 397.5473
439.6479, 397.3586
440.1301, 398.0800
440.6122, 399.0488
441.0943, 399.6687
441.5764, 399.8096
442.0585, 399.6808
442.5406, 399.4912
443.0227, 399.2232
443.5049, 399.0328
443.9870, 398.9369
444.4691, 398.9069
444.9512, 399.2079
445.4333, 399.5172
445.9154, 399.2061
446.3976, 397.8797
446.8797, 396.1371
447.3618, 395.3747
447.8439, 395.9321
448.3260, 396.4584
448.8081, 396.6949
449.2903, 396.8302
449.7724, 396.9842
450.2545, 397.1580
450.7366, 397.2641
451.2187, 397.0924
451.7008, 396.7678
452.1830, 396.9131
452.6651, 397.7459
453.1472, 398.5249
453.6293, 398.8737
454.1114, 398.8733
454.5935, 398.5435
455.0757, 397.7478
455.5578, 396.8976
456.0399, 396.2214
456.5220, 395.7506
457.0041, 395.6617
457.4862, 396.0960
457.9684, 396.7383
458.4505, 397.2262
458.9326, 397.5726
459.4147, 397.7767
459.8968, 397.9624
460.3789, 397.9173
460.8611, 397.1217
461.3432, 395.7785
461.8253, 395.0579
462.3074, 395.8476
462.7895, 397.6352
463.2716, 398.2794
463.7538, 396.8392
464.2359, 395.5760
464.7180, 394.5360
465.2001, 393.8940
465.6822, 393.9914
466.1643, 394.8094
466.6465, 395.8144
467.1286, 396.4098
467.6107, 396.5401
468.0928, 396.8197
468.5749, 397.8122
469.0570, 398.3379
469.5392, 397.6430
470.0213, 396.3906
470.5034, 395.6037
470.9855, 395.7442
471.4676, 396.3256
471.9497, 396.4565
472.4319, 395.9947
472.9140, 395.7135
473.3961, 395.8557
473.8782, 396.1068
474.3603, 396.2758
474.8424, 396.3893
475.3246, 396.5967
475.8067, 396.9958
476.2888, 397.5464
476.7709, 398.1899
477.2530, 398.9398
477.7351, 399.6738
478.2173, 400.1894
478.6994, 400.7491
479.1815, 401.6669
479.6636, 402.8914
480.1457, 404.6973
480.6278, 407.1104
481.1100, 410.2281
481.5920, 414.3407
482.0742, 419.5181
482.5563, 425.2687
483.0384, 431.2686
483.5205, 437.5094
484.0026, 443.8022
484.4847, 450.3288
484.9669, 456.6885
485.4490, 463.1237
485.9311, 469.2242
486.4132, 474.0811
486.8953, 477.3854
487.3774, 480.0006
487.8596, 483.2708
488.3417, 487.2583
488.8238, 491.8638
489.3059, 496.6387
489.7880, 502.3267
490.2701, 509.1878
490.7523, 517.2413
491.2344, 526.4676
491.7165, 536.8580
492.1986, 548.3138
492.6807, 560.5380
493.1628, 573.3746
493.6450, 587.3323
494.1271, 601.5036
494.6092, 617.5105
495.0913, 636.3085
495.5734, 658.0060
496.0555, 682.7772
496.5377, 711.0930
497.0198, 742.3738
497.5019, 775.3997
497.9840, 810.6282
498.4661, 845.7333
498.9482, 882.7781
499.4304, 917.7013
499.9125, 944.2609
500.3946, 964.1639
500.8767, 970.9981
501.3588, 960.6348
501.8409, 935.4276
502.3231, 896.5881
502.8052, 844.2795
503.2873, 787.3798
503.7694, 733.3191
504.2515, 681.8226
504.7336, 636.0612
505.2158, 595.6544
505.6979, 560.6568
506.1800, 531.9431
506.6621, 508.3440
507.1442, 488.7894
507.6263, 472.7883
508.1085, 459.6440
508.5906, 448.4738
509.0727, 439.4017
509.5548, 431.8263
510.0369, 426.5019
510.5190, 421.9465
511.0012, 417.7871
511.4833, 413.9516
511.9654, 410.4056
512.4475, 407.1219
512.9296, 404.1361
513.4117, 401.5815
513.8939, 399.5075
514.3760, 397.3936
514.8581, 394.8777
515.3402, 392.5470
515.8223, 390.8721
516.3044, 389.8105
516.7866, 389.0415
517.2687, 388.7725
517.7508, 388.5243
518.2329, 387.5648
518.7150, 385.9390
519.1971, 384.3546
519.6793, 383.1372
520.1614, 382.1669
520.6435, 381.2014
521.1256, 380.1924
521.6077, 379.3048
522.0898, 378.4844
522.5720, 377.8550
523.0541, 377.7186
523.5362, 377.9546
524.0183, 377.9640
524.5004, 377.2699
524.9825, 376.0590
525.4647, 375.2924
525.9468, 375.3833
526.4289, 375.3563
526.9110, 375.1691
527.3931, 374.8096
527.8752, 374.1801
528.3574, 373.3286
528.8395, 372.5105
529.3216, 371.9649
529.8037, 371.6512
530.2858, 371.3153
530.7679, 370.9470
531.2501, 370.5820
531.7322, 370.0833
532.2143, 369.6706
532.6964, 369.6666
533.1785, 370.1873
533.6606, 370.6378
534.1428, 370.6093
534.6249, 370.2379
535.1070, 369.7734
535.5891, 369.2379
536.0712, 368.7228
536.5533, 368.2889
537.0355, 367.9372
537.5176, 367.6613
537.9997, 367.3619
538.4818, 367.2490
538.9639, 367.5991
539.4460, 368.0684
539.9282, 368.2013
540.4103, 367.9200
540.8924, 367.4909
541.3745, 367.1889
541.8566, 367.0187
542.3387, 366.8145
542.8209, 366.5664
543.3029, 366.2938
543.7850, 365.9988
544.2672, 365.6830
544.7493, 365.2567
545.2314, 364.7175
545.7135, 364.3836
546.1956, 364.8910
546.6777, 366.1139
547.1599, 366.4305
547.6420, 365.3823
548.1241, 364.2228
548.6062, 363.6953
549.0883, 363.5819
549.5704, 363.5943
550.0526, 363.7627
550.5347, 363.8889
551.0168, 363.9078
551.4989, 363.7846
551.9810, 363.3226
552.4631, 362.4682
552.9453, 361.7614
553.4274, 361.7906
553.9095, 362.5594
554.3916, 362.8546
554.8737, 362.4732
555.3558, 361.9380
555.8380, 361.0418
556.3201, 360.2262
556.8022, 360.2145
557.2843, 361.1002
557.7664, 362.0710
558.2485, 362.0939
558.7307, 361.1176
559.2128, 360.7101
559.6949, 361.5710
560.1770, 361.9869
560.6591, 361.0507
561.1412, 359.5568
561.6234, 358.4298
562.1055, 357.9102
562.5876, 357.7055
563.0697, 357.7734
563.5518, 357.9650
564.0339, 357.6239
564.5161, 356.5229
564.9982, 355.6846
565.4803, 356.0215
565.9624, 357.2381
566.4445, 357.9207
566.9266, 357.7006
567.4088, 357.4759
567.8909, 357.7174
568.3730, 358.0444
568.8551, 357.8814
569.3372, 357.1831
569.8193, 356.4446
570.3015, 356.1367
570.7836, 356.2357
571.2657, 356.3199
571.7478, 356.4952
572.2299, 356.5006
572.7120, 356.1271
573.1942, 355.6779
573.6763, 355.4489
574.1584, 355.4744
574.6405, 355.5590
575.1226, 355.6026
575.6047, 355.5719
576.0869, 355.2235
576.5690, 354.4149
577.0511, 353.9080
577.5332, 354.3576
578.0153, 355.1565
578.4974, 355.2795
578.9796, 354.5559
579.4617, 353.8584
579.9438, 353.4978
580.4259, 353.3472
580.9080, 353.3645
581.3901, 353.4892
581.8723, 353.4318
582.3544, 352.9669
582.8365, 352.2704
583.3186, 351.9424
583.8007, 352.3237
584.2828, 352.5692
584.7650, 352.8153
585.2471, 352.8094
585.7292, 352.1271
586.2113, 351.0174
586.6934, 350.2538
587.1755, 350.4117
587.6577, 351.0443
588.1398, 351.0875
588.6219, 350.4453
589.1040, 349.8619
589.5861, 349.5054
590.0682, 349.2757
590.5504, 349.0404
591.0325, 348.8209
591.5146, 348.7776
591.9967, 349.1369
592.4788, 349.5404
592.9609, 349.6581
593.4431, 349.5630
593.9252, 349.4388
594.4073, 349.3377
594.8894, 349.3851
595.3715, 349.8053
595.8536, 350.7570
596.3358, 351.3585
596.8179, 351.7078
597.3000, 351.6578
597.7821, 350.8400
598.2642, 349.7046
598.7463, 348.8710
599.2285, 348.5476
599.7106, 348.4757
600.1927, 348.3339
600.6748, 348.1289
601.1569, 348.1125
601.6390, 348.3781
602.1212, 348.6530
602.6033, 348.8513
603.0854, 348.9350
603.5675, 348.8005
604.0496, 348.3615
604.5317, 347.9233
605.0139, 347.5794
605.4960, 347.3557
605.9781, 347.3836
606.4602, 347.6380
606.9423, 347.7752
607.4244, 347.5138
607.9066, 346.9754
608.3887, 346.7052
608.8708, 346.8631
609.3529, 347.0852
