##NAMES=Satterlyite
##RRUFFID=R060810
##IDEAL CHEMISTRY=(Fe^2+^,Mg,Fe^3+^)_12_(PO_3_OH)(PO_4_)_5_(OH,O)_6_
##LOCALITY=Big Fish River Area, Yukon Territory, Canada
##OWNER=RRUFF
##SOURCE=Michael Scott
##DESCRIPTION=Yellowish-brown gemmy irregularly shaped coarse grains
##STATUS=The identification of this mineral has been confirmed by X-ray diffraction and chemical analysis
##URL=rruff.info/R060810
##MEASURED CHEMISTRY=(Fe^2+^_7.95_Mg_2.25_Fe^3+^_0.66_Na_0.66_Mn_0.48_)_Σ=12_(P_1.00_O_3_OH)(P_1.00_O_4_)_5_((OH)_5.00_O_1.00_)_Σ=6_; OH estimated by charge balance
158.1686, 1986.732
158.6507, 1993.424
159.1328, 2012.380
159.6149, 2031.583
160.0971, 2052.234
160.5792, 2071.954
161.0613, 2085.905
161.5434, 2098.155
162.0255, 2119.243
162.5076, 2157.412
162.9898, 2208.703
163.4719, 2243.142
163.9540, 2253.219
164.4361, 2258.480
164.9182, 2264.816
165.4003, 2271.864
165.8825, 2277.949
166.3646, 2281.685
166.8467, 2283.708
167.3288, 2287.853
167.8109, 2300.747
168.2930, 2309.041
168.7752, 2304.587
169.2573, 2289.982
169.7394, 2274.833
170.2215, 2266.059
170.7036, 2260.501
171.1857, 2243.899
171.6679, 2206.455
172.1500, 2168.657
172.6321, 2140.125
173.1142, 2119.919
173.5963, 2104.308
174.0784, 2092.915
174.5606, 2084.010
175.0427, 2070.728
175.5248, 2048.980
176.0069, 2027.170
176.4890, 2011.769
176.9711, 2001.346
177.4533, 1987.337
177.9354, 1961.565
178.4175, 1930.203
178.8996, 1912.536
179.3817, 1915.424
179.8638, 1923.897
180.3460, 1931.214
180.8281, 1936.984
181.3102, 1938.082
181.7923, 1930.381
182.2744, 1917.722
182.7565, 1911.555
183.2387, 1918.383
183.7208, 1923.828
184.2029, 1913.978
184.6850, 1891.265
185.1671, 1875.012
185.6492, 1878.335
186.1314, 1892.946
186.6135, 1897.868
187.0956, 1886.375
187.5777, 1874.726
188.0598, 1875.095
188.5419, 1886.465
189.0241, 1900.115
189.5062, 1914.647
189.9883, 1927.454
190.4704, 1935.347
190.9525, 1938.865
191.4346, 1936.242
191.9168, 1920.483
192.3989, 1893.790
192.8810, 1876.391
193.3631, 1880.245
193.8452, 1896.427
194.3273, 1908.883
194.8095, 1917.185
195.2916, 1922.169
195.7737, 1922.081
196.2558, 1917.810
196.7379, 1917.016
197.2200, 1924.987
197.7022, 1935.915
198.1843, 1941.708
198.6664, 1941.987
199.1485, 1938.054
199.6306, 1925.844
200.1127, 1907.617
200.5949, 1899.819
201.0770, 1912.922
201.5591, 1934.587
202.0412, 1947.147
202.5233, 1949.007
203.0054, 1949.248
203.4876, 1956.533
203.9697, 1968.486
204.4518, 1970.936
204.9339, 1954.341
205.4160, 1932.654
205.8981, 1923.184
206.3803, 1926.882
206.8624, 1932.310
207.3445, 1932.736
207.8266, 1929.191
208.3087, 1925.574
208.7908, 1921.213
209.2730, 1919.381
209.7551, 1925.593
210.2372, 1939.975
210.7193, 1950.419
211.2014, 1946.570
211.6835, 1933.143
212.1657, 1925.735
212.6478, 1929.133
213.1299, 1936.285
213.6120, 1942.093
214.0941, 1946.479
214.5763, 1945.921
215.0584, 1932.423
215.5405, 1912.820
216.0226, 1906.810
216.5047, 1922.650
216.9868, 1940.484
217.4690, 1939.000
217.9511, 1922.340
218.4332, 1909.764
218.9153, 1912.674
219.3974, 1923.976
219.8795, 1929.210
220.3617, 1925.373
220.8438, 1920.529
221.3259, 1923.710
221.8080, 1931.990
222.2901, 1936.303
222.7722, 1931.081
223.2544, 1921.164
223.7365, 1913.567
224.2186, 1908.786
224.7007, 1905.708
225.1828, 1905.423
225.6649, 1906.362
226.1471, 1904.361
226.6292, 1895.496
227.1113, 1884.735
227.5934, 1877.804
228.0755, 1874.913
228.5576, 1874.040
229.0398, 1875.547
229.5219, 1877.972
230.0040, 1877.595
230.4861, 1868.002
230.9682, 1860.224
231.4503, 1867.918
231.9325, 1890.628
232.4146, 1910.104
232.8967, 1915.818
233.3788, 1911.318
233.8609, 1906.973
234.3430, 1903.272
234.8252, 1899.628
235.3073, 1895.489
235.7894, 1890.980
236.2715, 1886.228
236.7536, 1879.328
237.2357, 1874.137
237.7179, 1878.853
238.2000, 1898.805
238.6821, 1916.977
239.1642, 1923.497
239.6463, 1920.999
240.1284, 1917.699
240.6106, 1916.417
241.0927, 1915.710
241.5748, 1913.882
242.0569, 1912.499
242.5390, 1905.726
243.0211, 1880.910
243.5033, 1850.760
243.9854, 1843.126
244.4675, 1869.474
244.9496, 1907.045
245.4317, 1921.915
245.9138, 1912.753
246.3960, 1900.827
246.8781, 1884.271
247.3602, 1869.805
247.8423, 1868.153
248.3244, 1881.853
248.8065, 1900.080
249.2887, 1911.213
249.7708, 1914.458
250.2529, 1916.471
250.7350, 1918.965
251.2171, 1919.582
251.6992, 1913.875
252.1814, 1902.161
252.6635, 1892.615
253.1456, 1893.138
253.6277, 1904.533
254.1098, 1912.615
254.5919, 1916.500
255.0741, 1918.055
255.5562, 1916.446
256.0383, 1912.844
256.5204, 1911.872
257.0025, 1917.577
257.4846, 1928.906
257.9668, 1933.688
258.4489, 1927.161
258.9310, 1920.565
259.4131, 1918.654
259.8952, 1919.602
260.3773, 1919.231
260.8595, 1915.200
261.3416, 1908.732
261.8237, 1904.481
262.3058, 1904.288
262.7879, 1903.974
263.2701, 1901.722
263.7522, 1899.489
264.2343, 1900.350
264.7164, 1905.441
265.1985, 1912.490
265.6806, 1917.053
266.1628, 1921.005
266.6449, 1918.886
267.1270, 1904.791
267.6091, 1888.458
268.0912, 1878.872
268.5733, 1877.498
269.0555, 1878.463
269.5376, 1873.571
270.0197, 1859.263
270.5018, 1849.733
270.9839, 1845.818
271.4660, 1844.850
271.9482, 1846.938
272.4303, 1851.013
272.9124, 1854.529
273.3945, 1855.279
273.8766, 1853.238
274.3587, 1848.586
274.8409, 1838.226
275.3230, 1828.211
275.8051, 1820.929
276.2872, 1815.355
276.7693, 1808.547
277.2514, 1797.602
277.7336, 1784.536
278.2157, 1781.408
278.6978, 1797.568
279.1799, 1810.902
279.6620, 1813.912
280.1441, 1812.339
280.6263, 1813.867
281.1084, 1822.233
281.5905, 1832.777
282.0726, 1836.300
282.5547, 1831.938
283.0368, 1822.298
283.5190, 1798.563
284.0011, 1775.714
284.4832, 1767.455
284.9653, 1776.785
285.4474, 1790.900
285.9295, 1796.760
286.4117, 1794.195
286.8938, 1784.922
287.3759, 1761.618
287.8580, 1738.221
288.3401, 1722.741
288.8222, 1715.400
289.3044, 1713.122
289.7865, 1717.337
290.2686, 1725.878
290.7507, 1726.863
291.2328, 1714.573
291.7149, 1703.646
292.1971, 1705.449
292.6792, 1716.355
293.1613, 1727.584
293.6434, 1737.126
294.1255, 1744.382
294.6076, 1747.644
295.0898, 1746.389
295.5719, 1744.489
296.0540, 1743.367
296.5361, 1743.379
297.0182, 1745.284
297.5003, 1749.992
297.9825, 1755.569
298.4646, 1763.040
298.9467, 1771.157
299.4288, 1771.359
299.9109, 1755.951
300.3930, 1734.979
300.8752, 1730.114
301.3573, 1747.989
301.8394, 1762.142
302.3215, 1759.140
302.8036, 1746.933
303.2857, 1739.291
303.7679, 1740.086
304.2500, 1744.197
304.7321, 1744.543
305.2142, 1739.647
305.6963, 1737.481
306.1784, 1740.238
306.6606, 1744.823
307.1427, 1750.026
307.6248, 1755.151
308.1069, 1757.379
308.5890, 1753.314
309.0711, 1742.352
309.5533, 1738.624
310.0354, 1752.888
310.5175, 1762.036
310.9996, 1751.163
311.4817, 1728.582
311.9638, 1712.555
312.4460, 1714.090
312.9281, 1728.139
313.4102, 1734.929
313.8923, 1725.653
314.3744, 1719.715
314.8565, 1720.496
315.3387, 1724.358
315.8208, 1728.802
316.3029, 1732.722
316.7850, 1734.358
317.2671, 1729.629
317.7492, 1713.683
318.2314, 1704.512
318.7135, 1709.326
319.1956, 1715.025
319.6777, 1714.690
320.1598, 1708.231
320.6419, 1699.600
321.1241, 1692.082
321.6062, 1685.609
322.0883, 1676.948
322.5704, 1658.769
323.0525, 1648.856
323.5346, 1658.739
324.0168, 1680.176
324.4989, 1698.767
324.9810, 1707.098
325.4631, 1709.497
325.9452, 1714.791
326.4273, 1724.394
326.9095, 1730.416
327.3916, 1724.979
327.8737, 1716.660
328.3558, 1715.058
328.8379, 1722.967
329.3200, 1731.856
329.8022, 1735.390
330.2843, 1734.225
330.7664, 1731.100
331.2485, 1725.543
331.7306, 1720.160
332.2127, 1719.102
332.6949, 1722.215
333.1770, 1723.299
333.6591, 1719.896
334.1412, 1713.740
334.6233, 1706.186
335.1054, 1697.451
335.5876, 1689.330
336.0697, 1682.844
336.5518, 1678.323
337.0339, 1676.825
337.5161, 1679.850
337.9982, 1684.291
338.4803, 1689.248
338.9624, 1694.446
339.4445, 1700.086
339.9266, 1706.674
340.4088, 1712.389
340.8909, 1712.015
341.3730, 1694.679
341.8551, 1685.161
342.3372, 1687.299
342.8193, 1695.881
343.3015, 1710.437
343.7836, 1728.887
344.2657, 1741.948
344.7478, 1736.193
345.2299, 1705.047
345.7120, 1682.963
346.1942, 1668.239
346.6763, 1663.347
347.1584, 1678.561
347.6405, 1704.879
348.1226, 1721.624
348.6047, 1712.824
349.0869, 1685.660
349.5690, 1671.113
350.0511, 1673.522
350.5332, 1681.222
351.0153, 1697.383
351.4974, 1713.540
351.9796, 1719.872
352.4617, 1712.943
352.9438, 1701.319
353.4259, 1694.428
353.9080, 1692.316
354.3901, 1690.951
354.8723, 1689.282
355.3544, 1688.571
355.8365, 1691.394
356.3186, 1697.143
356.8007, 1699.304
357.2828, 1693.038
357.7650, 1681.742
358.2471, 1670.316
358.7292, 1658.779
359.2113, 1650.104
359.6934, 1648.750
360.1755, 1652.297
360.6577, 1649.764
361.1398, 1630.293
361.6219, 1614.900
362.1040, 1620.161
362.5861, 1638.698
363.0682, 1651.383
363.5504, 1649.970
364.0325, 1640.281
364.5146, 1633.904
364.9967, 1633.681
365.4788, 1631.425
365.9609, 1623.188
366.4431, 1615.120
366.9252, 1614.343
367.4073, 1620.408
367.8894, 1624.724
368.3715, 1617.391
368.8536, 1596.916
369.3358, 1590.572
369.8179, 1612.989
370.3000, 1634.143
370.7821, 1650.244
371.2642, 1659.077
371.7463, 1655.825
372.2285, 1637.122
372.7106, 1612.145
373.1927, 1601.956
373.6748, 1612.191
374.1569, 1620.479
374.6390, 1621.213
375.1212, 1619.572
375.6033, 1617.630
376.0854, 1615.965
376.5675, 1616.380
377.0496, 1622.574
377.5317, 1632.520
378.0139, 1636.681
378.4960, 1631.974
378.9781, 1627.032
379.4602, 1632.724
379.9423, 1642.819
380.4244, 1642.760
380.9066, 1620.624
381.3887, 1595.084
381.8708, 1581.930
382.3529, 1579.548
382.8350, 1580.066
383.3171, 1580.361
383.7993, 1581.599
384.2814, 1587.139
384.7635, 1599.762
385.2456, 1608.798
385.7277, 1610.534
386.2098, 1609.010
386.6920, 1606.595
387.1741, 1604.376
387.6562, 1605.481
388.1383, 1613.557
388.6204, 1629.207
389.1025, 1641.216
389.5847, 1650.103
390.0668, 1655.129
390.5489, 1653.254
391.0310, 1648.047
391.5131, 1644.960
391.9952, 1646.493
392.4774, 1650.143
392.9595, 1650.391
393.4416, 1644.985
393.9237, 1642.737
394.4058, 1645.656
394.8879, 1651.383
395.3701, 1660.581
395.8522, 1672.244
396.3343, 1681.787
396.8164, 1684.375
397.2985, 1682.099
397.7806, 1682.625
398.2628, 1686.954
398.7449, 1691.166
399.2270, 1693.176
399.7091, 1693.441
400.1912, 1692.300
400.6733, 1688.048
401.1555, 1685.230
401.6376, 1689.339
402.1197, 1697.578
402.6018, 1700.824
403.0839, 1695.477
403.5660, 1687.585
404.0482, 1685.783
404.5303, 1692.019
405.0124, 1696.692
405.4945, 1698.322
405.9766, 1699.163
406.4587, 1700.401
406.9409, 1702.253
407.4230, 1704.764
407.9051, 1707.938
408.3872, 1711.847
408.8693, 1716.944
409.3514, 1726.948
409.8336, 1733.014
410.3157, 1728.388
410.7978, 1722.996
411.2799, 1727.786
411.7620, 1744.294
412.2441, 1762.533
412.7263, 1770.766
413.2084, 1768.585
413.6905, 1766.577
414.1726, 1761.624
414.6547, 1761.852
415.1368, 1776.839
415.6190, 1798.973
416.1011, 1812.235
416.5832, 1808.533
417.0653, 1796.404
417.5474, 1782.118
418.0295, 1766.440
418.5117, 1759.515
418.9938, 1767.858
419.4759, 1783.045
419.9580, 1790.192
420.4401, 1786.917
420.9222, 1790.447
421.4044, 1813.316
421.8865, 1839.495
422.3686, 1852.166
422.8507, 1850.932
423.3328, 1846.343
423.8149, 1845.627
424.2971, 1848.777
424.7792, 1855.626
425.2613, 1875.781
425.7434, 1888.009
426.2255, 1884.216
426.7076, 1873.246
427.1898, 1865.163
427.6719, 1862.526
428.1540, 1859.747
428.6361, 1845.255
429.1182, 1814.935
429.6003, 1805.775
430.0825, 1834.993
430.5646, 1866.894
431.0467, 1885.659
431.5288, 1894.919
432.0109, 1903.296
432.4930, 1915.948
432.9752, 1927.164
433.4573, 1925.291
433.9394, 1911.094
434.4215, 1907.031
434.9036, 1926.262
435.3857, 1952.011
435.8679, 1955.984
436.3500, 1934.859
436.8321, 1924.601
437.3142, 1945.633
437.7963, 1974.163
438.2784, 1985.380
438.7606, 1979.482
439.2427, 1972.423
439.7248, 1975.231
440.2069, 1986.122
440.6890, 1994.881
441.1711, 1998.404
441.6533, 2003.514
442.1354, 2012.835
442.6175, 2022.840
443.0996, 2031.808
443.5817, 2038.585
444.0638, 2040.288
444.5460, 2031.434
445.0281, 2011.718
445.5102, 1998.374
445.9923, 1992.279
446.4744, 1991.685
446.9565, 1998.454
447.4387, 2008.783
447.9208, 2017.180
448.4029, 2022.443
448.8850, 2024.242
449.3671, 2021.260
449.8492, 2014.173
450.3314, 2006.341
450.8135, 1998.361
451.2956, 1990.535
451.7777, 1985.031
452.2598, 1982.293
452.7419, 1971.357
453.2241, 1939.191
453.7062, 1909.152
454.1883, 1899.754
454.6704, 1905.516
455.1525, 1909.566
455.6346, 1903.122
456.1168, 1891.382
456.5989, 1887.417
457.0810, 1897.226
457.5631, 1904.147
458.0452, 1909.704
458.5273, 1911.057
459.0095, 1902.073
459.4916, 1886.158
459.9737, 1875.701
460.4558, 1881.701
460.9379, 1898.436
461.4200, 1908.220
461.9022, 1910.053
462.3843, 1908.420
462.8664, 1902.001
463.3485, 1894.738
463.8306, 1891.406
464.3127, 1892.800
464.7949, 1895.140
465.2770, 1894.773
465.7591, 1894.881
466.2412, 1903.507
466.7233, 1921.138
467.2054, 1933.536
467.6876, 1927.672
468.1697, 1906.429
468.6518, 1898.540
469.1339, 1910.970
469.6160, 1926.113
470.0981, 1947.807
470.5803, 1966.830
471.0624, 1970.354
471.5445, 1956.914
472.0266, 1939.136
472.5087, 1931.345
472.9908, 1934.029
473.4730, 1935.933
473.9551, 1939.821
474.4372, 1938.590
474.9193, 1926.491
475.4014, 1909.228
475.8835, 1893.804
476.3657, 1880.996
476.8478, 1874.827
477.3299, 1889.107
477.8120, 1915.451
478.2941, 1914.802
478.7762, 1873.138
479.2584, 1826.428
479.7405, 1809.410
480.2226, 1823.250
480.7047, 1834.578
481.1868, 1849.569
481.6689, 1855.039
482.1511, 1839.409
482.6332, 1811.087
483.1153, 1783.924
483.5974, 1763.122
484.0795, 1747.844
484.5616, 1737.557
485.0438, 1734.590
485.5259, 1728.375
486.0080, 1709.073
486.4901, 1696.135
486.9722, 1703.987
487.4543, 1722.597
487.9365, 1731.580
488.4186, 1719.674
488.9007, 1699.586
489.3828, 1688.707
489.8649, 1686.471
490.3470, 1684.123
490.8292, 1682.329
491.3113, 1674.864
491.7934, 1647.416
492.2755, 1601.708
492.7576, 1572.541
493.2397, 1576.116
493.7219, 1588.275
494.2040, 1598.000
494.6861, 1603.188
495.1682, 1599.371
495.6503, 1584.140
496.1324, 1564.638
496.6146, 1554.907
497.0967, 1560.773
497.5788, 1562.344
498.0609, 1553.908
498.5430, 1546.907
499.0251, 1546.357
499.5073, 1551.519
499.9894, 1560.279
500.4715, 1572.869
500.9536, 1585.973
501.4358, 1593.270
501.9179, 1594.721
502.4000, 1598.368
502.8821, 1608.283
503.3642, 1618.363
503.8463, 1617.415
504.3285, 1606.346
504.8106, 1607.219
505.2927, 1640.881
505.7748, 1673.289
506.2569, 1675.016
506.7390, 1655.062
507.2212, 1641.414
507.7033, 1646.915
508.1854, 1658.919
508.6675, 1651.783
509.1496, 1613.352
509.6317, 1585.680
510.1139, 1574.340
510.5960, 1567.743
511.0781, 1566.208
511.5602, 1565.041
512.0423, 1554.114
512.5244, 1525.138
513.0065, 1491.972
513.4886, 1477.486
513.9708, 1480.937
514.4529, 1478.298
514.9350, 1461.528
515.4171, 1440.920
515.8992, 1427.773
516.3813, 1421.491
516.8635, 1414.059
517.3456, 1399.578
517.8277, 1388.305
518.3098, 1389.687
518.7919, 1398.467
519.2740, 1403.867
519.7562, 1401.615
520.2383, 1393.796
520.7204, 1382.718
521.2025, 1366.287
521.6846, 1354.427
522.1667, 1350.262
522.6489, 1347.764
523.1310, 1343.265
523.6131, 1339.364
524.0952, 1341.137
524.5773, 1351.299
525.0594, 1364.809
525.5416, 1380.456
526.0237, 1395.843
526.5058, 1396.103
526.9879, 1374.312
527.4700, 1352.017
527.9521, 1350.794
528.4343, 1370.164
528.9164, 1380.949
529.3985, 1377.554
529.8806, 1372.120
530.3627, 1368.476
530.8448, 1365.758
531.3270, 1362.934
531.8091, 1359.605
532.2912, 1355.078
532.7733, 1347.596
533.2554, 1337.010
533.7375, 1331.906
534.2197, 1334.512
534.7018, 1339.163
535.1839, 1341.322
535.6660, 1345.232
536.1481, 1358.585
536.6302, 1385.042
537.1124, 1407.151
537.5945, 1406.424
538.0766, 1395.238
538.5587, 1399.214
539.0408, 1420.804
539.5229, 1442.126
540.0051, 1450.483
540.4872, 1448.294
540.9693, 1447.267
541.4514, 1450.105
541.9335, 1450.439
542.4156, 1443.795
542.8978, 1437.399
543.3799, 1436.535
543.8620, 1441.756
544.3441, 1451.734
544.8262, 1467.252
545.3083, 1485.343
545.7905, 1495.655
546.2726, 1496.126
546.7547, 1501.261
547.2368, 1520.595
547.7189, 1541.774
548.2010, 1548.737
548.6832, 1541.251
549.1653, 1536.131
549.6474, 1538.914
550.1295, 1544.903
550.6116, 1551.459
551.0938, 1557.988
551.5759, 1563.465
552.0580, 1567.468
552.5401, 1570.463
553.0222, 1574.082
553.5043, 1580.922
553.9865, 1580.292
554.4686, 1565.685
554.9507, 1549.681
555.4328, 1536.496
555.9149, 1525.186
556.3970, 1512.980
556.8792, 1497.809
557.3613, 1485.069
557.8434, 1481.568
558.3255, 1485.106
558.8076, 1487.899
559.2897, 1488.462
559.7719, 1489.617
560.2540, 1495.031
560.7361, 1503.870
561.2182, 1504.611
561.7003, 1485.841
562.1824, 1474.741
562.6646, 1484.991
563.1467, 1500.441
563.6288, 1503.337
564.1109, 1492.684
564.5930, 1481.946
565.0751, 1483.894
565.5573, 1494.657
566.0394, 1498.407
566.5215, 1494.617
567.0036, 1485.671
567.4857, 1468.175
567.9678, 1449.185
568.4500, 1437.589
568.9321, 1433.763
569.4142, 1430.977
569.8963, 1424.814
570.3784, 1421.071
570.8605, 1426.286
571.3427, 1438.055
571.8248, 1449.775
572.3069, 1458.623
572.7890, 1464.710
573.2711, 1468.930
573.7532, 1473.315
574.2354, 1467.806
574.7175, 1437.201
575.1996, 1413.961
575.6817, 1415.629
576.1638, 1431.675
576.6459, 1444.657
577.1281, 1449.253
577.6102, 1451.389
578.0923, 1454.076
578.5744, 1458.069
579.0565, 1466.824
579.5386, 1480.742
580.0208, 1491.349
580.5029, 1490.851
580.9850, 1482.359
581.4671, 1483.097
581.9492, 1499.331
582.4313, 1517.100
582.9135, 1542.706
583.3956, 1564.118
583.8777, 1567.353
584.3599, 1556.714
584.8420, 1551.403
585.3241, 1566.073
585.8062, 1589.996
586.2883, 1601.850
586.7704, 1602.029
587.2526, 1606.466
587.7347, 1620.732
588.2168, 1638.046
588.6989, 1651.693
589.1810, 1661.478
589.6631, 1668.511
590.1453, 1671.052
590.6274, 1672.870
591.1095, 1675.589
591.5916, 1678.464
592.0737, 1681.503
592.5558, 1684.214
593.0380, 1683.418
593.5201, 1673.368
594.0022, 1655.959
594.4843, 1648.749
594.9664, 1656.052
595.4485, 1659.950
595.9307, 1651.524
596.4128, 1636.842
596.8949, 1623.044
597.3770, 1609.435
597.8591, 1602.099
598.3412, 1610.568
598.8234, 1619.649
599.3055, 1616.562
599.7876, 1603.345
600.2697, 1585.914
600.7518, 1566.729
601.2339, 1549.596
601.7161, 1543.290
602.1982, 1551.843
602.6803, 1548.561
603.1624, 1521.703
603.6445, 1499.198
604.1266, 1496.757
604.6088, 1505.352
605.0909, 1512.456
605.5730, 1517.086
606.0551, 1515.459
606.5372, 1498.845
607.0193, 1478.045
607.5015, 1469.291
607.9836, 1472.651
608.4657, 1478.277
608.9478, 1480.915
609.4299, 1478.798
609.9120, 1464.702
610.3942, 1426.537
610.8763, 1404.105
611.3584, 1416.970
611.8405, 1429.600
612.3226, 1421.304
612.8047, 1399.960
613.2869, 1385.808
613.7690, 1388.555
614.2511, 1394.770
614.7332, 1392.829
615.2153, 1385.597
615.6974, 1379.193
616.1796, 1374.724
616.6617, 1371.530
617.1438, 1369.263
617.6259, 1367.727
618.1080, 1365.721
618.5901, 1363.496
619.0723, 1360.367
619.5544, 1358.687
620.0365, 1354.178
620.5186, 1339.526
621.0007, 1318.775
621.4828, 1306.253
621.9650, 1312.861
622.4471, 1325.180
622.9292, 1328.179
623.4113, 1323.136
623.8934, 1313.796
624.3755, 1300.586
624.8577, 1287.736
625.3398, 1279.228
625.8219, 1274.893
626.3040, 1272.047
626.7861, 1275.860
627.2682, 1274.426
627.7504, 1261.676
628.2325, 1246.597
628.7146, 1237.039
629.1967, 1232.995
629.6788, 1229.353
630.1609, 1222.790
630.6431, 1215.028
631.1252, 1209.850
631.6073, 1206.417
632.0894, 1197.578
632.5715, 1179.867
633.0536, 1164.175
633.5358, 1163.637
634.0179, 1179.045
634.5000, 1186.810
634.9821, 1181.391
635.4642, 1175.707
635.9464, 1172.433
636.4285, 1169.744
636.9106, 1164.915
637.3927, 1158.268
637.8748, 1153.676
638.3569, 1155.591
638.8391, 1159.897
639.3212, 1158.856
639.8033, 1153.041
640.2854, 1148.136
640.7675, 1146.240
641.2496, 1143.834
641.7318, 1135.024
642.2139, 1118.279
642.6960, 1115.223
643.1781, 1145.110
643.6602, 1163.678
644.1423, 1151.269
644.6245, 1129.157
645.1066, 1119.452
645.5887, 1124.164
646.0708, 1129.088
646.5529, 1124.654
647.0350, 1113.898
647.5172, 1096.531
647.9993, 1074.907
648.4814, 1071.056
648.9635, 1094.801
649.4456, 1125.744
649.9277, 1140.091
650.4099, 1136.735
