##NAMES=Satterlyite
##RRUFFID=R060810
##IDEAL CHEMISTRY=(Fe^2+^,Mg,Fe^3+^)_12_(PO_3_OH)(PO_4_)_5_(OH,O)_6_
##LOCALITY=Big Fish River Area, Yukon Territory, Canada
##OWNER=RRUFF
##SOURCE=Michael Scott
##DESCRIPTION=Yellowish-brown gemmy irregularly shaped coarse grains
##STATUS=The identification of this mineral has been confirmed by X-ray diffraction and chemical analysis
##URL=rruff.info/R060810
##MEASURED CHEMISTRY=(Fe^2+^_7.95_Mg_2.25_Fe^3+^_0.66_Na_0.66_Mn_0.48_)_Σ=12_(P_1.00_O_3_OH)(P_1.00_O_4_)_5_((OH)_5.00_O_1.00_)_Σ=6_; OH estimated by charge balance
146.5928, 6996.529
147.0749, 7013.761
147.5570, 7041.246
148.0391, 7089.814
148.5213, 7133.840
149.0034, 7167.819
149.4855, 7191.064
149.9676, 7222.773
150.4497, 7268.714
150.9318, 7321.115
151.4139, 7373.066
151.8961, 7424.813
152.3782, 7477.834
152.8603, 7531.570
153.3424, 7585.974
153.8245, 7646.698
154.3066, 7721.353
154.7888, 7801.492
155.2709, 7875.948
155.7530, 7930.689
156.2351, 7989.525
156.7172, 8062.255
157.1993, 8157.671
157.6815, 8247.531
158.1636, 8320.459
158.6457, 8383.453
159.1278, 8450.313
159.6099, 8542.777
160.0920, 8626.450
160.5742, 8679.333
161.0563, 8679.099
161.5384, 8677.617
162.0205, 8701.276
162.5026, 8740.049
162.9847, 8762.523
163.4669, 8754.520
163.9490, 8725.017
164.4311, 8680.514
164.9132, 8619.235
165.3953, 8547.456
165.8774, 8464.684
166.3596, 8372.607
166.8417, 8280.695
167.3238, 8202.023
167.8059, 8124.555
168.2880, 8033.840
168.7701, 7904.807
169.2523, 7775.243
169.7344, 7678.271
170.2165, 7614.439
170.6986, 7549.310
171.1807, 7444.510
171.6628, 7324.728
172.1449, 7228.021
172.6271, 7185.482
173.1092, 7166.413
173.5913, 7140.077
174.0734, 7104.613
174.5555, 7066.804
175.0376, 7032.025
175.5198, 6999.436
176.0019, 6968.117
176.4840, 6938.141
176.9661, 6908.672
177.4482, 6876.746
177.9303, 6840.684
178.4125, 6807.042
178.8946, 6783.299
179.3767, 6768.066
179.8588, 6756.242
180.3409, 6744.622
180.8230, 6733.964
181.3052, 6725.845
181.7873, 6720.074
182.2694, 6717.517
182.7515, 6722.714
183.2336, 6734.466
183.7157, 6742.440
184.1979, 6730.535
184.6800, 6707.196
185.1621, 6704.031
185.6442, 6736.420
186.1263, 6780.113
186.6084, 6780.504
187.0906, 6737.316
187.5727, 6696.466
188.0548, 6706.166
188.5369, 6757.168
189.0190, 6791.446
189.5011, 6789.854
189.9833, 6765.744
190.4654, 6755.943
190.9475, 6761.412
191.4296, 6772.793
191.9117, 6782.187
192.3938, 6789.634
192.8759, 6797.442
193.3581, 6809.899
193.8402, 6823.322
194.3223, 6814.035
194.8044, 6775.458
195.2865, 6740.099
195.7686, 6743.084
196.2508, 6785.407
196.7329, 6854.175
197.2150, 6964.510
197.6971, 7108.688
198.1792, 7196.142
198.6613, 7221.095
199.1435, 7204.021
199.6256, 7162.786
200.1077, 7092.943
200.5898, 7028.803
201.0719, 6980.981
201.5540, 6949.458
202.0362, 6933.903
202.5183, 6937.698
203.0004, 6951.656
203.4825, 6962.285
203.9646, 6969.590
204.4467, 6972.333
204.9289, 6967.586
205.4110, 6953.467
205.8931, 6945.828
206.3752, 6946.989
206.8573, 6952.137
207.3394, 6950.841
207.8216, 6941.128
208.3037, 6931.216
208.7858, 6925.888
209.2679, 6926.735
209.7500, 6925.145
210.2321, 6920.366
210.7143, 6913.853
211.1964, 6909.503
211.6785, 6909.158
212.1606, 6907.440
212.6427, 6899.479
213.1248, 6880.854
213.6069, 6873.321
214.0891, 6881.908
214.5712, 6901.325
215.0533, 6913.005
215.5354, 6913.586
216.0175, 6912.047
216.4996, 6913.379
216.9818, 6917.640
217.4639, 6923.727
217.9460, 6932.723
218.4281, 6943.137
218.9102, 6948.407
219.3923, 6945.497
219.8745, 6941.943
220.3566, 6945.029
220.8387, 6962.928
221.3208, 6965.421
221.8029, 6940.142
222.2850, 6894.286
222.7672, 6878.467
223.2493, 6908.577
223.7314, 6947.515
224.2135, 6967.085
224.6956, 6957.696
225.1777, 6950.989
225.6599, 6950.730
226.1420, 6956.613
226.6241, 6965.639
227.1062, 6980.813
227.5883, 6995.209
228.0704, 7002.123
228.5526, 6996.164
229.0347, 6992.976
229.5168, 6993.691
229.9989, 6998.333
230.4810, 7012.063
230.9632, 7044.424
231.4453, 7075.376
231.9274, 7084.634
232.4095, 7056.038
232.8916, 7037.529
233.3737, 7041.709
233.8558, 7068.882
234.3380, 7082.117
234.8201, 7074.168
235.3022, 7059.682
235.7843, 7051.880
236.2664, 7050.396
236.7485, 7056.986
237.2307, 7076.080
237.7128, 7108.775
238.1949, 7127.273
238.6770, 7120.610
239.1591, 7110.142
239.6412, 7119.237
240.1234, 7163.375
240.6055, 7200.095
241.0876, 7219.456
241.5697, 7220.538
242.0518, 7218.279
242.5339, 7204.366
243.0161, 7194.328
243.4982, 7208.173
243.9803, 7266.190
244.4624, 7310.702
244.9445, 7323.511
245.4266, 7299.931
245.9088, 7293.860
246.3909, 7314.544
246.8730, 7344.086
247.3551, 7361.991
247.8372, 7362.008
248.3193, 7361.122
248.8015, 7360.849
249.2836, 7360.151
249.7657, 7373.670
250.2478, 7413.816
250.7299, 7457.269
251.2120, 7475.147
251.6942, 7454.328
252.1763, 7434.282
252.6584, 7425.713
253.1405, 7430.581
253.6226, 7428.362
254.1047, 7414.662
254.5868, 7398.555
255.0690, 7391.593
255.5511, 7399.573
256.0332, 7404.788
256.5153, 7400.884
256.9974, 7385.995
257.4796, 7379.267
257.9617, 7380.136
258.4438, 7389.106
258.9259, 7408.957
259.4080, 7446.935
259.8901, 7478.583
260.3723, 7495.164
260.8544, 7495.111
261.3365, 7501.536
261.8186, 7520.546
262.3007, 7538.548
262.7828, 7534.886
263.2650, 7496.508
263.7471, 7470.653
264.2292, 7475.596
264.7113, 7513.545
265.1934, 7526.303
265.6755, 7505.008
266.1576, 7470.628
266.6397, 7444.521
267.1219, 7425.371
267.6040, 7421.223
268.0861, 7443.696
268.5682, 7493.423
269.0503, 7502.964
269.5324, 7459.687
270.0146, 7398.324
270.4967, 7360.167
270.9788, 7351.460
271.4609, 7341.031
271.9430, 7319.477
272.4251, 7287.698
272.9073, 7259.621
273.3894, 7232.162
273.8715, 7215.856
274.3536, 7232.647
274.8357, 7293.337
275.3178, 7325.583
275.8000, 7296.718
276.2821, 7216.527
276.7642, 7189.196
277.2463, 7229.616
277.7284, 7283.588
278.2105, 7292.320
278.6927, 7251.196
279.1748, 7207.832
279.6569, 7169.612
280.1390, 7138.261
280.6211, 7128.032
281.1032, 7143.148
281.5854, 7163.412
282.0675, 7170.047
282.5496, 7162.685
283.0317, 7150.664
283.5138, 7134.010
283.9959, 7114.901
284.4781, 7102.776
284.9602, 7098.514
285.4423, 7096.659
285.9244, 7091.126
286.4065, 7082.452
286.8886, 7078.422
287.3708, 7081.964
287.8529, 7090.752
288.3350, 7100.771
288.8171, 7112.599
289.2992, 7118.406
289.7813, 7105.188
290.2635, 7077.056
290.7456, 7059.543
291.2277, 7061.822
291.7098, 7074.087
292.1919, 7073.921
292.6740, 7061.422
293.1562, 7048.792
293.6383, 7048.107
294.1204, 7055.879
294.6025, 7058.597
295.0846, 7052.339
295.5667, 7042.226
296.0489, 7038.125
296.5310, 7039.484
297.0131, 7038.554
297.4952, 7024.271
297.9773, 7003.976
298.4594, 6994.396
298.9416, 6999.591
299.4237, 7014.682
299.9058, 7041.956
300.3879, 7077.236
300.8700, 7100.572
301.3521, 7085.733
301.8343, 7052.439
302.3164, 7033.070
302.7985, 7032.975
303.2806, 7045.406
303.7627, 7074.552
304.2448, 7112.870
304.7270, 7137.063
305.2091, 7116.450
305.6912, 7080.404
306.1733, 7066.813
306.6554, 7084.654
307.1375, 7108.718
307.6196, 7120.860
308.1017, 7123.598
308.5839, 7122.172
309.0660, 7114.639
309.5481, 7107.166
310.0302, 7106.400
310.5123, 7114.188
310.9944, 7121.968
311.4766, 7127.342
311.9587, 7128.571
312.4408, 7122.786
312.9229, 7091.566
313.4050, 7065.114
313.8871, 7070.864
314.3693, 7114.317
314.8514, 7149.047
315.3335, 7144.338
315.8156, 7119.884
316.2977, 7100.357
316.7798, 7093.666
317.2620, 7094.139
317.7441, 7102.281
318.2262, 7118.340
318.7083, 7131.011
319.1904, 7132.031
319.6725, 7129.829
320.1547, 7132.330
320.6368, 7144.542
321.1189, 7158.744
321.6010, 7175.000
322.0831, 7192.818
322.5652, 7204.316
323.0474, 7202.916
323.5295, 7197.210
324.0116, 7193.158
324.4937, 7186.529
324.9758, 7186.985
325.4579, 7197.571
325.9401, 7217.259
326.4222, 7239.155
326.9043, 7278.309
327.3864, 7308.544
327.8685, 7316.096
328.3506, 7267.504
328.8328, 7237.437
329.3149, 7233.640
329.7970, 7249.947
330.2791, 7265.677
330.7612, 7287.562
331.2433, 7301.982
331.7255, 7300.599
332.2076, 7264.155
332.6897, 7252.518
333.1718, 7280.553
333.6539, 7328.535
334.1360, 7353.386
334.6182, 7344.939
335.1003, 7331.642
335.5824, 7322.363
336.0645, 7316.337
336.5466, 7318.965
337.0287, 7334.317
337.5109, 7354.002
337.9930, 7365.070
338.4751, 7366.980
338.9572, 7361.514
339.4393, 7344.344
339.9214, 7315.393
340.4036, 7305.192
340.8857, 7316.632
341.3678, 7339.911
341.8499, 7372.582
342.3320, 7416.969
342.8141, 7434.564
343.2963, 7402.531
343.7784, 7336.095
344.2605, 7307.923
344.7426, 7322.120
345.2247, 7347.304
345.7068, 7358.314
346.1890, 7355.879
346.6711, 7342.445
347.1532, 7310.874
347.6353, 7275.982
348.1174, 7274.017
348.5995, 7303.481
349.0816, 7334.022
349.5638, 7340.741
350.0459, 7330.875
350.5280, 7323.039
351.0101, 7319.822
351.4922, 7320.169
351.9743, 7326.236
352.4565, 7335.906
352.9386, 7340.855
353.4207, 7332.604
353.9028, 7318.173
354.3849, 7306.708
354.8670, 7299.528
355.3492, 7295.001
355.8313, 7294.578
356.3134, 7296.036
356.7955, 7294.718
357.2776, 7282.389
357.7597, 7270.682
358.2419, 7271.049
358.7240, 7285.028
359.2061, 7296.934
359.6882, 7293.352
360.1703, 7284.157
360.6524, 7281.058
361.1346, 7297.747
361.6167, 7312.416
362.0988, 7316.040
362.5809, 7308.647
363.0630, 7295.138
363.5451, 7265.321
364.0273, 7236.411
364.5094, 7221.139
364.9915, 7231.977
365.4736, 7245.910
365.9557, 7262.086
366.4378, 7279.172
366.9200, 7290.292
367.4021, 7289.084
367.8842, 7286.418
368.3663, 7287.536
368.8484, 7298.960
369.3305, 7304.419
369.8127, 7299.108
370.2948, 7288.596
370.7769, 7284.972
371.2590, 7296.067
371.7411, 7303.790
372.2232, 7300.475
372.7054, 7281.425
373.1875, 7269.932
373.6696, 7263.309
374.1517, 7266.496
374.6338, 7291.086
375.1159, 7349.298
375.5981, 7391.681
376.0802, 7399.050
376.5623, 7374.779
377.0444, 7374.815
377.5265, 7408.848
378.0086, 7441.486
378.4908, 7432.268
378.9729, 7378.581
379.4550, 7344.449
379.9371, 7346.381
380.4192, 7372.515
380.9013, 7391.388
381.3835, 7403.034
381.8656, 7414.662
382.3477, 7434.954
382.8298, 7460.374
383.3119, 7474.735
383.7940, 7473.033
384.2762, 7467.839
384.7583, 7477.718
385.2404, 7499.782
385.7225, 7521.405
386.2046, 7534.857
386.6867, 7543.633
387.1689, 7552.589
387.6510, 7561.684
388.1331, 7571.311
388.6152, 7582.831
389.0973, 7594.919
389.5794, 7605.321
390.0615, 7611.098
390.5436, 7616.573
391.0258, 7625.242
391.5079, 7637.008
391.9900, 7649.185
392.4721, 7657.645
392.9542, 7667.783
393.4363, 7685.377
393.9185, 7725.864
394.4006, 7756.031
394.8827, 7753.251
395.3648, 7729.577
395.8469, 7722.294
396.3290, 7760.735
396.8112, 7802.587
397.2933, 7827.491
397.7754, 7825.232
398.2575, 7823.019
398.7396, 7819.868
399.2217, 7818.679
399.7039, 7823.942
400.1860, 7837.735
400.6681, 7855.490
401.1502, 7877.951
401.6323, 7906.235
402.1144, 7929.027
402.5966, 7943.487
403.0787, 7955.930
403.5608, 7972.588
404.0429, 7996.143
404.5250, 8016.633
405.0071, 8031.650
405.4893, 8042.720
405.9714, 8055.907
406.4535, 8071.623
406.9356, 8088.329
407.4177, 8105.770
407.8998, 8124.005
408.3820, 8138.773
408.8641, 8148.149
409.3462, 8157.467
409.8283, 8176.588
410.3104, 8205.167
410.7925, 8235.188
411.2747, 8262.643
411.7568, 8289.060
412.2389, 8319.273
412.7210, 8353.857
413.2031, 8387.258
413.6852, 8415.074
414.1674, 8437.052
414.6495, 8451.551
415.1316, 8451.704
415.6137, 8449.713
416.0958, 8457.546
416.5779, 8474.155
417.0601, 8494.567
417.5422, 8520.625
418.0243, 8546.074
418.5064, 8564.143
418.9885, 8571.176
419.4706, 8576.299
419.9528, 8582.448
420.4349, 8589.992
420.9170, 8599.733
421.3991, 8613.783
421.8812, 8628.811
422.3633, 8643.008
422.8455, 8655.719
423.3276, 8671.437
423.8097, 8694.473
424.2918, 8719.310
424.7739, 8740.324
425.2560, 8753.523
425.7382, 8767.798
426.2203, 8786.028
426.7024, 8806.956
427.1845, 8820.974
427.6666, 8821.241
428.1487, 8823.295
428.6309, 8836.844
429.1130, 8866.673
429.5951, 8893.286
430.0772, 8917.500
430.5593, 8936.600
431.0414, 8942.045
431.5235, 8930.484
432.0056, 8924.666
432.4878, 8932.244
432.9699, 8953.111
433.4520, 8992.626
433.9341, 9054.532
434.4162, 9112.645
434.8983, 9130.804
435.3805, 9118.957
435.8626, 9121.885
436.3447, 9157.603
436.8268, 9206.865
437.3089, 9238.519
437.7910, 9255.738
438.2732, 9274.843
438.7553, 9308.981
439.2374, 9349.848
439.7195, 9388.198
440.2016, 9423.155
440.6837, 9453.044
441.1659, 9473.796
441.6480, 9488.880
442.1301, 9504.427
442.6122, 9521.377
443.0943, 9540.514
443.5764, 9564.716
444.0586, 9594.005
444.5407, 9616.996
445.0228, 9626.989
445.5049, 9631.685
445.9870, 9636.838
446.4691, 9656.201
446.9513, 9660.757
447.4334, 9643.294
447.9155, 9609.437
448.3976, 9573.920
448.8797, 9533.115
449.3618, 9495.905
449.8440, 9465.669
450.3261, 9444.013
450.8082, 9422.894
451.2903, 9403.572
451.7724, 9382.762
452.2545, 9354.957
452.7367, 9318.318
453.2188, 9283.478
453.7009, 9252.474
454.1830, 9225.070
454.6651, 9207.148
455.1472, 9200.032
455.6294, 9181.593
456.1115, 9120.218
456.5936, 9031.848
457.0757, 8975.638
457.5578, 8964.384
458.0399, 8970.738
458.5221, 8966.575
459.0042, 8954.209
459.4863, 8940.232
459.9684, 8921.082
460.4505, 8905.905
460.9326, 8912.041
461.4148, 8938.474
461.8969, 8950.369
462.3790, 8900.635
462.8611, 8839.363
463.3432, 8815.112
463.8253, 8867.146
464.3075, 8921.460
464.7896, 8957.033
465.2717, 8976.383
465.7538, 8987.957
466.2359, 8990.979
466.7180, 8988.610
467.2002, 8980.139
467.6823, 8962.291
468.1644, 8949.980
468.6465, 8941.779
469.1286, 8939.824
469.6107, 8947.796
470.0929, 8973.096
470.5750, 8991.051
471.0571, 8997.014
471.5392, 8992.728
472.0213, 8985.104
472.5034, 8972.713
472.9855, 8961.930
473.4677, 8958.593
473.9498, 8962.104
474.4319, 8961.337
474.9140, 8956.036
475.3961, 8946.192
475.8782, 8928.232
476.3604, 8904.683
476.8425, 8886.625
477.3246, 8882.722
477.8067, 8884.248
478.2888, 8882.448
478.7709, 8876.678
479.2531, 8860.482
479.7352, 8811.763
480.2173, 8758.291
480.6994, 8733.835
481.1815, 8756.889
481.6636, 8778.461
482.1458, 8769.005
482.6279, 8740.961
483.1100, 8715.316
483.5921, 8701.766
484.0742, 8687.846
484.5563, 8668.324
485.0385, 8642.771
485.5206, 8617.097
486.0027, 8592.583
486.4848, 8567.362
486.9669, 8539.783
487.4490, 8505.201
487.9312, 8478.861
488.4133, 8468.607
488.8954, 8463.886
489.3775, 8438.017
489.8596, 8383.175
490.3417, 8333.862
490.8239, 8307.136
491.3060, 8300.257
491.7881, 8273.012
492.2702, 8221.361
492.7523, 8170.370
493.2344, 8145.657
493.7166, 8142.664
494.1987, 8142.350
494.6808, 8142.137
495.1629, 8140.140
495.6450, 8130.363
496.1271, 8115.566
496.6093, 8105.827
497.0914, 8119.430
497.5735, 8132.738
498.0556, 8116.128
498.5377, 8066.369
499.0198, 8027.954
499.5020, 8035.291
499.9841, 8061.364
500.4662, 8080.548
500.9483, 8075.929
501.4304, 8075.392
501.9125, 8084.062
502.3947, 8101.283
502.8768, 8125.407
503.3589, 8170.855
503.8410, 8208.012
504.3231, 8224.993
504.8052, 8216.241
505.2874, 8216.901
505.7695, 8230.544
506.2516, 8248.469
506.7337, 8263.983
507.2158, 8278.533
507.6979, 8281.122
508.1801, 8266.808
508.6622, 8242.686
509.1443, 8230.336
509.6264, 8229.699
510.1085, 8218.460
510.5906, 8174.014
511.0728, 8110.896
511.5548, 8063.368
512.0370, 8032.638
512.5191, 8016.915
513.0012, 8029.290
513.4833, 8051.866
513.9655, 8055.550
514.4476, 8019.991
514.9297, 7979.126
515.4118, 7952.844
515.8939, 7937.816
516.3760, 7925.474
516.8582, 7919.550
517.3403, 7909.340
517.8224, 7885.479
518.3045, 7841.717
518.7866, 7812.870
519.2687, 7809.428
519.7509, 7818.483
520.2330, 7831.124
520.7151, 7852.482
521.1972, 7866.794
521.6793, 7869.740
522.1614, 7865.926
522.6436, 7869.689
523.1257, 7883.829
523.6078, 7894.627
524.0899, 7892.983
524.5720, 7880.965
525.0541, 7879.826
525.5363, 7890.679
526.0184, 7902.656
526.5005, 7901.788
526.9826, 7893.272
527.4647, 7892.627
527.9468, 7904.947
528.4290, 7922.947
528.9111, 7941.244
529.3932, 7959.350
529.8753, 7976.520
530.3574, 7990.621
530.8395, 8004.963
531.3217, 8025.667
531.8038, 8053.090
532.2858, 8069.528
532.7679, 8052.594
533.2501, 8032.953
533.7322, 8032.780
534.2143, 8077.245
534.6964, 8110.462
535.1785, 8119.504
535.6606, 8120.476
536.1428, 8146.681
536.6249, 8214.453
537.1070, 8272.125
537.5891, 8302.064
538.0712, 8307.114
538.5533, 8316.891
539.0355, 8332.199
539.5176, 8348.072
539.9997, 8356.174
540.4818, 8359.634
540.9639, 8380.065
541.4460, 8423.085
541.9282, 8471.519
542.4103, 8504.858
542.8924, 8526.816
543.3745, 8547.389
543.8566, 8570.354
544.3387, 8593.330
544.8209, 8615.305
545.3030, 8636.002
545.7851, 8653.151
546.2672, 8651.881
546.7493, 8656.859
547.2314, 8687.610
547.7136, 8759.767
548.1957, 8818.196
548.6778, 8853.662
549.1599, 8873.185
549.6420, 8883.061
550.1241, 8869.519
550.6063, 8870.634
551.0884, 8894.619
551.5705, 8936.411
552.0526, 8981.553
552.5347, 9035.058
553.0168, 9072.313
553.4990, 9074.403
553.9811, 9045.651
554.4632, 9027.350
554.9453, 9021.091
555.4274, 9011.776
555.9095, 8975.163
556.3917, 8924.895
556.8738, 8894.710
557.3559, 8900.240
557.8380, 8912.613
558.3201, 8901.795
558.8022, 8877.856
559.2844, 8863.415
559.7665, 8865.084
560.2486, 8881.463
560.7307, 8918.191
561.2128, 8975.035
561.6949, 9025.044
562.1771, 9057.758
562.6592, 9086.032
563.1413, 9117.799
563.6234, 9156.201
564.1055, 9189.484
564.5876, 9215.052
565.0698, 9237.443
565.5519, 9264.101
566.0340, 9296.227
566.5161, 9326.820
566.9982, 9354.062
567.4803, 9378.999
567.9625, 9408.280
568.4446, 9441.781
568.9267, 9466.262
569.4088, 9462.559
569.8909, 9447.333
570.3730, 9456.298
570.8552, 9493.518
571.3373, 9528.209
571.8194, 9534.502
572.3015, 9525.696
572.7836, 9517.119
573.2657, 9511.181
573.7479, 9508.566
574.2300, 9511.339
574.7121, 9517.517
575.1942, 9522.724
575.6763, 9519.202
576.1584, 9522.819
576.6406, 9544.552
577.1227, 9584.317
577.6048, 9594.667
578.0869, 9559.817
578.5690, 9524.796
579.0511, 9521.924
579.5333, 9553.369
580.0154, 9583.066
580.4975, 9609.236
580.9796, 9632.968
581.4617, 9661.906
581.9438, 9691.384
582.4260, 9699.260
582.9081, 9662.980
583.3902, 9619.896
583.8723, 9616.233
584.3544, 9644.394
584.8365, 9678.256
585.3187, 9706.902
585.8008, 9734.605
586.2829, 9767.742
586.7650, 9808.104
587.2471, 9835.698
587.7292, 9824.518
588.2114, 9812.031
588.6935, 9827.517
589.1756, 9910.467
589.6577, 9955.823
590.1398, 9945.064
590.6219, 9908.227
591.1041, 9897.883
591.5862, 9920.573
592.0683, 9939.004
592.5504, 9942.674
593.0325, 9934.892
593.5146, 9927.298
593.9968, 9919.705
594.4789, 9904.465
594.9610, 9875.646
595.4431, 9836.341
595.9252, 9788.622
596.4073, 9732.157
596.8895, 9678.604
597.3716, 9638.969
597.8537, 9606.229
598.3358, 9572.485
598.8179, 9531.011
599.3000, 9496.040
599.7822, 9475.534
600.2643, 9463.977
600.7464, 9451.263
601.2285, 9442.870
601.7106, 9424.784
602.1927, 9389.178
602.6749, 9339.836
603.1570, 9301.536
603.6391, 9275.090
604.1212, 9257.115
604.6033, 9251.467
605.0854, 9256.054
605.5676, 9241.083
606.0497, 9203.356
606.5318, 9161.409
607.0139, 9131.951
607.4960, 9112.996
607.9781, 9101.091
608.4603, 9098.791
608.9424, 9096.508
609.4245, 9087.891
609.9066, 9073.586
610.3887, 9055.343
610.8708, 9025.810
611.3530, 8999.915
611.8351, 8985.091
612.3172, 8980.640
612.7993, 8974.705
613.2814, 8967.894
613.7635, 8958.397
614.2456, 8943.652
614.7277, 8921.247
615.2098, 8909.280
615.6920, 8909.378
616.1741, 8916.188
616.6562, 8930.021
617.1383, 8948.864
617.6204, 8949.618
618.1025, 8923.255
618.5847, 8889.959
619.0668, 8792.365
619.5489, 8875.026
620.0310, 8911.781
620.5131, 8905.098
620.9952, 8724.875
621.4774, 8768.738
621.9595, 8722.803
622.4416, 8673.182
622.9237, 8748.591
623.4058, 8593.606
623.8879, 8667.036
624.3701, 8649.279
624.8522, 8673.262
625.3343, 8606.879
625.8164, 8568.406
626.2985, 8620.324
626.7806, 8557.557
627.2628, 8544.108
627.7449, 8497.284
628.2270, 8438.876
628.7091, 8399.705
629.1912, 8378.616
629.6733, 8369.746
630.1555, 8379.581
630.6376, 8391.454
631.1197, 8385.272
631.6018, 8363.848
632.0839, 8336.621
632.5660, 8296.644
633.0482, 8262.043
633.5303, 8249.568
634.0124, 8261.813
634.4945, 8261.802
634.9766, 8233.615
635.4587, 8197.605
635.9409, 8163.801
636.4230, 8126.151
636.9051, 8106.952
637.3872, 8111.459
637.8693, 8126.713
638.3514, 8141.981
638.8336, 8157.461
