##NAMES=Scainiite
##RRUFFID=R100085
##IDEAL CHEMISTRY=Pb^2+^_14_Sb^3+^_30_S^2-^_54_O_5_
##LOCALITY=Dúbrava, Northern Low Tatra Mts, Žilina Region, Slovakia
##OWNER=RRUFF
##SOURCE=William W Pinch
##DESCRIPTION=Parallel aggregates of metallic gray acicular crystals
##STATUS=The identification of this mineral has been confirmed by single-crystal X-ray diffraction.
##URL=rruff.info/R100085
91.53320, 10027.55
92.01532, 9930.127
92.49744, 9868.003
92.97955, 10004.33
93.46167, 10189.12
93.94379, 10277.05
94.42590, 10324.11
94.90802, 10349.41
95.39014, 10350.44
95.87225, 10327.84
96.35437, 10286.70
96.83649, 10231.44
97.31860, 10171.44
97.80072, 10114.57
98.28284, 10053.52
98.76495, 9980.271
99.24707, 9905.535
99.72919, 9831.561
100.2113, 9757.674
100.6934, 9681.543
101.1755, 9603.229
101.6577, 9524.531
102.1398, 9445.374
102.6219, 9364.146
103.1040, 9289.645
103.5861, 9218.723
104.0682, 9152.588
104.5504, 9090.597
105.0325, 9032.881
105.5146, 8980.031
105.9967, 8932.279
106.4788, 8888.259
106.9609, 8851.709
107.4431, 8822.418
107.9252, 8800.058
108.4073, 8785.279
108.8894, 8779.056
109.3715, 8778.161
109.8536, 8776.973
110.3358, 8774.896
110.8179, 8774.000
111.3000, 8774.149
111.7821, 8775.635
112.2642, 8781.873
112.7463, 8797.759
113.2285, 8817.224
113.7106, 8834.385
114.1927, 8848.041
114.6748, 8859.605
115.1569, 8870.345
115.6390, 8879.422
116.1212, 8890.006
116.6033, 8904.412
117.0854, 8919.991
117.5675, 8933.393
118.0496, 8942.353
118.5317, 8948.811
119.0139, 8962.145
119.4960, 8986.849
119.9781, 9014.489
120.4602, 9043.924
120.9423, 9075.196
121.4244, 9108.270
121.9066, 9142.900
122.3887, 9178.859
122.8708, 9221.257
123.3529, 9275.271
123.8350, 9329.681
124.3171, 9381.332
124.7993, 9429.155
125.2814, 9470.873
125.7635, 9503.864
126.2456, 9525.981
126.7277, 9546.268
127.2098, 9564.168
127.6920, 9580.482
128.1741, 9596.285
128.6562, 9611.763
129.1383, 9626.172
129.6204, 9638.578
130.1025, 9649.272
130.5847, 9657.879
131.0668, 9663.232
131.5489, 9666.137
132.0310, 9669.149
132.5131, 9671.683
132.9952, 9676.064
133.4774, 9684.005
133.9595, 9695.562
134.4416, 9709.215
134.9237, 9725.122
135.4058, 9744.321
135.8879, 9759.553
136.3701, 9767.188
136.8522, 9772.016
137.3343, 9776.666
137.8164, 9781.840
138.2985, 9786.191
138.7806, 9787.834
139.2628, 9788.193
139.7449, 9782.386
140.2270, 9769.637
140.7091, 9751.917
141.1912, 9730.196
141.6733, 9705.007
142.1555, 9677.097
142.6376, 9649.493
143.1197, 9622.900
143.6018, 9595.644
144.0839, 9567.857
144.5660, 9539.145
145.0482, 9508.784
145.5303, 9476.249
146.0124, 9441.765
146.4945, 9406.556
146.9766, 9369.130
147.4587, 9332.646
147.9409, 9299.031
148.4230, 9267.797
148.9051, 9236.564
149.3872, 9202.998
149.8693, 9168.038
150.3514, 9135.639
150.8336, 9106.797
151.3157, 9080.028
151.7978, 9054.708
152.2799, 9030.994
152.7620, 9006.483
153.2441, 8978.871
153.7263, 8949.201
154.2084, 8918.302
154.6905, 8887.114
155.1726, 8855.056
155.6547, 8820.442
156.1368, 8782.821
156.6190, 8743.460
157.1011, 8702.207
157.5832, 8659.947
158.0653, 8617.948
158.5474, 8577.921
159.0295, 8539.525
159.5117, 8498.367
159.9938, 8450.928
160.4759, 8403.607
160.9580, 8357.896
161.4401, 8314.155
161.9222, 8273.021
162.4044, 8235.693
162.8865, 8202.854
163.3686, 8168.396
163.8507, 8130.322
164.3328, 8092.204
164.8149, 8054.734
165.2971, 8018.297
165.7792, 7984.616
166.2613, 7955.786
166.7434, 7934.753
167.2255, 7910.484
167.7076, 7878.455
168.1898, 7846.653
168.6719, 7820.522
169.1540, 7801.131
169.6361, 7786.689
170.1182, 7774.990
170.6003, 7767.080
171.0825, 7759.841
171.5646, 7751.320
172.0467, 7744.178
172.5288, 7741.842
173.0109, 7745.509
173.4930, 7752.774
173.9752, 7759.967
174.4573, 7766.579
174.9394, 7775.235
175.4215, 7787.007
175.9036, 7801.392
176.3857, 7817.136
176.8679, 7833.950
177.3500, 7852.315
177.8321, 7872.868
178.3142, 7895.775
178.7963, 7919.053
179.2784, 7940.387
179.7606, 7960.489
180.2427, 7983.743
180.7248, 8012.100
181.2069, 8043.818
181.6890, 8077.435
182.1711, 8113.075
182.6533, 8149.071
183.1354, 8183.288
183.6175, 8215.250
184.0996, 8249.329
184.5817, 8287.123
185.0638, 8327.231
185.5460, 8369.153
186.0281, 8412.764
186.5102, 8457.743
186.9923, 8503.330
187.4744, 8548.605
187.9565, 8597.182
188.4387, 8652.763
188.9208, 8709.462
189.4029, 8762.371
189.8850, 8810.358
190.3671, 8855.799
190.8492, 8904.216
191.3314, 8957.401
191.8135, 9010.251
192.2956, 9059.037
192.7777, 9108.762
193.2598, 9165.355
193.7419, 9230.771
194.2241, 9300.514
194.7062, 9363.606
195.1883, 9410.010
195.6704, 9461.432
196.1525, 9519.087
196.6346, 9581.577
197.1168, 9648.661
197.5989, 9720.490
198.0810, 9794.313
198.5631, 9861.870
199.0452, 9919.825
199.5273, 9976.571
200.0095, 10032.95
200.4916, 10088.90
200.9737, 10144.14
201.4558, 10198.42
201.9379, 10252.84
202.4200, 10312.88
202.9022, 10384.04
203.3843, 10450.00
203.8664, 10503.87
204.3485, 10548.06
204.8306, 10588.03
205.3127, 10624.51
205.7949, 10659.87
206.2770, 10699.44
206.7591, 10746.27
207.2412, 10790.86
207.7233, 10826.75
208.2054, 10855.13
208.6876, 10882.40
209.1697, 10910.56
209.6518, 10939.27
210.1339, 10967.44
210.6160, 10994.41
211.0981, 11022.25
211.5803, 11052.84
212.0624, 11086.16
212.5445, 11120.31
213.0266, 11155.69
213.5087, 11190.67
213.9908, 11222.98
214.4730, 11251.61
214.9551, 11280.64
215.4372, 11314.58
215.9193, 11354.32
216.4014, 11394.39
216.8836, 11434.15
217.3657, 11473.38
217.8478, 11512.18
218.3299, 11550.40
218.8120, 11587.98
219.2941, 11623.34
219.7763, 11654.16
220.2584, 11690.40
220.7405, 11738.94
221.2226, 11790.10
221.7047, 11837.34
222.1868, 11878.87
222.6690, 11917.52
223.1511, 11957.68
223.6332, 12000.37
224.1153, 12042.72
224.5974, 12085.12
225.0795, 12126.69
225.5617, 12167.90
226.0438, 12208.58
226.5259, 12246.30
227.0080, 12276.19
227.4901, 12291.78
227.9722, 12311.06
228.4544, 12338.38
228.9365, 12366.92
229.4186, 12392.07
229.9007, 12412.25
230.3828, 12427.75
230.8649, 12438.70
231.3471, 12442.55
231.8292, 12445.38
232.3113, 12443.60
232.7934, 12442.81
233.2755, 12450.21
233.7576, 12466.95
234.2398, 12485.13
234.7219, 12491.42
235.2040, 12477.54
235.6861, 12465.04
236.1682, 12455.27
236.6503, 12446.04
237.1325, 12436.81
237.6146, 12427.21
238.0967, 12414.40
238.5788, 12393.89
239.0609, 12362.83
239.5430, 12329.53
240.0252, 12294.20
240.5073, 12256.89
240.9894, 12217.44
241.4715, 12175.64
241.9536, 12133.07
242.4357, 12091.75
242.9179, 12052.68
243.4000, 12010.99
243.8821, 11964.94
244.3642, 11916.81
244.8463, 11868.96
245.3284, 11821.61
245.8106, 11774.60
246.2927, 11726.67
246.7748, 11677.52
247.2569, 11633.31
247.7390, 11600.32
248.2211, 11570.27
248.7033, 11533.18
249.1854, 11487.24
249.6675, 11436.36
250.1496, 11381.81
250.6317, 11324.03
251.1138, 11269.42
251.5960, 11223.48
252.0781, 11179.51
252.5602, 11127.46
253.0423, 11065.78
253.5244, 11001.57
254.0065, 10940.28
254.4887, 10881.73
254.9708, 10825.97
255.4529, 10776.67
255.9350, 10728.87
256.4171, 10676.35
256.8992, 10618.79
257.3813, 10557.36
257.8635, 10489.73
258.3456, 10418.82
258.8277, 10348.62
259.3098, 10282.25
259.7919, 10216.57
260.2740, 10147.96
260.7562, 10076.69
261.2383, 10001.22
261.7204, 9918.654
262.2025, 9831.423
262.6846, 9740.668
263.1667, 9645.428
263.6489, 9548.349
264.1310, 9452.357
264.6131, 9357.630
265.0952, 9263.095
265.5773, 9167.223
266.0594, 9072.262
266.5416, 8980.471
267.0237, 8892.879
267.5058, 8807.538
267.9879, 8720.866
268.4700, 8632.594
268.9521, 8545.566
269.4343, 8463.446
269.9164, 8381.493
270.3985, 8295.158
270.8806, 8202.849
271.3627, 8110.751
271.8448, 8026.810
272.3270, 7951.655
272.8091, 7879.393
273.2912, 7811.429
273.7733, 7744.138
274.2554, 7674.151
274.7375, 7600.640
275.2197, 7528.024
275.7018, 7460.947
276.1839, 7400.428
276.6660, 7340.248
277.1481, 7278.011
277.6302, 7217.364
278.1124, 7161.370
278.5945, 7109.758
279.0766, 7060.273
279.5587, 7010.917
280.0408, 6961.571
280.5229, 6912.671
281.0051, 6863.729
281.4872, 6816.068
281.9693, 6772.323
282.4514, 6731.089
282.9335, 6687.445
283.4156, 6636.456
283.8978, 6577.915
284.3799, 6521.589
284.8620, 6468.998
285.3441, 6417.267
285.8262, 6365.953
286.3083, 6314.727
286.7905, 6262.804
287.2726, 6209.318
287.7547, 6154.640
288.2368, 6103.656
288.7189, 6058.703
289.2010, 6014.935
289.6832, 5970.519
290.1653, 5926.679
290.6474, 5884.938
291.1295, 5846.380
291.6116, 5810.821
292.0938, 5777.587
292.5759, 5745.025
293.0580, 5718.173
293.5401, 5698.706
294.0222, 5684.518
294.5043, 5672.956
294.9865, 5662.737
295.4686, 5655.699
295.9507, 5656.604
296.4328, 5668.617
296.9149, 5683.727
297.3970, 5698.340
297.8792, 5716.383
298.3613, 5742.328
298.8434, 5777.256
299.3255, 5816.778
299.8076, 5853.242
300.2897, 5883.511
300.7719, 5918.054
301.2540, 5956.164
301.7361, 5998.748
302.2182, 6048.062
302.7003, 6103.642
303.1824, 6162.300
303.6646, 6220.458
304.1467, 6277.121
304.6288, 6336.331
305.1109, 6398.321
305.5930, 6462.808
306.0751, 6529.375
306.5573, 6598.167
307.0394, 6669.558
307.5215, 6743.449
308.0036, 6820.115
308.4857, 6901.841
308.9678, 6989.257
309.4500, 7081.716
309.9321, 7180.091
310.4142, 7283.927
310.8963, 7391.956
311.3784, 7503.821
311.8605, 7619.770
312.3427, 7739.312
312.8248, 7864.735
313.3069, 7993.016
313.7890, 8127.771
314.2711, 8263.949
314.7532, 8396.753
315.2354, 8523.106
315.7175, 8644.145
316.1996, 8762.564
316.6817, 8890.984
317.1638, 8995.233
317.6459, 9068.577
318.1281, 9121.253
318.6102, 9161.702
319.0923, 9192.705
319.5744, 9211.530
320.0565, 9212.890
320.5386, 9192.688
321.0208, 9163.092
321.5029, 9122.734
321.9850, 9076.172
322.4671, 9023.873
322.9492, 8966.959
323.4313, 8909.056
323.9135, 8852.093
324.3956, 8794.380
324.8777, 8746.809
325.3598, 8707.386
325.8419, 8679.768
326.3240, 8663.396
326.8062, 8660.012
327.2883, 8673.087
327.7704, 8706.312
328.2525, 8759.063
328.7346, 8820.416
329.2167, 8889.149
329.6989, 8970.058
330.1810, 9070.848
330.6631, 9182.939
331.1452, 9295.765
331.6273, 9405.094
332.1094, 9507.209
332.5916, 9592.193
333.0737, 9669.040
333.5558, 9709.120
334.0379, 9718.995
334.5200, 9691.184
335.0021, 9615.779
335.4843, 9490.025
335.9664, 9324.752
336.4485, 9135.173
336.9306, 8915.862
337.4127, 8686.130
337.8948, 8434.101
338.3770, 8182.454
338.8591, 7939.999
339.3412, 7708.968
339.8233, 7494.471
340.3055, 7299.336
340.7876, 7124.241
341.2697, 6968.920
341.7518, 6834.170
342.2339, 6722.366
342.7160, 6637.273
343.1982, 6575.633
343.6803, 6529.757
344.1624, 6495.417
344.6445, 6472.503
345.1266, 6462.167
345.6087, 6474.430
346.0909, 6483.165
346.5730, 6488.601
347.0551, 6483.472
347.5372, 6461.789
348.0193, 6423.294
348.5014, 6359.077
348.9836, 6252.253
349.4657, 6101.125
349.9478, 5913.898
350.4299, 5677.486
350.9120, 5414.257
351.3941, 5132.572
351.8763, 4835.322
352.3584, 4536.146
352.8405, 4246.294
353.3226, 3964.285
353.8047, 3704.280
354.2868, 3470.449
354.7690, 3259.474
355.2511, 3068.194
355.7332, 2895.635
356.2153, 2741.834
356.6974, 2609.833
357.1795, 2496.942
357.6617, 2392.640
358.1438, 2297.083
358.6259, 2211.432
359.1080, 2138.625
359.5901, 2075.370
360.0722, 2016.578
360.5544, 1960.428
361.0365, 1908.135
361.5186, 1860.883
362.0007, 1819.121
362.4828, 1780.754
362.9649, 1745.538
363.4471, 1713.112
363.9292, 1682.933
364.4113, 1655.040
364.8934, 1628.824
365.3755, 1603.678
365.8576, 1579.720
366.3398, 1557.882
366.8219, 1539.119
367.3040, 1521.321
367.7861, 1502.068
368.2682, 1481.525
368.7503, 1461.300
369.2325, 1441.717
369.7146, 1422.843
370.1967, 1405.080
370.6788, 1388.564
371.1609, 1372.189
371.6430, 1355.039
372.1252, 1337.351
372.6073, 1320.306
373.0894, 1303.977
373.5715, 1288.457
374.0536, 1274.015
374.5357, 1260.630
375.0179, 1247.741
375.5000, 1235.083
375.9821, 1222.997
376.4642, 1212.238
376.9463, 1203.486
377.4284, 1194.408
377.9106, 1183.297
378.3927, 1171.518
378.8748, 1161.550
379.3569, 1154.129
379.8390, 1148.050
380.3211, 1141.940
380.8033, 1135.851
381.2854, 1129.401
381.7675, 1122.131
382.2496, 1114.839
382.7317, 1107.982
383.2138, 1101.646
383.6960, 1095.948
384.1781, 1091.011
384.6602, 1086.804
385.1423, 1082.595
385.6244, 1078.222
386.1065, 1074.003
386.5887, 1069.724
387.0708, 1065.737
387.5529, 1062.977
388.0350, 1061.930
388.5171, 1061.377
388.9992, 1058.600
389.4814, 1051.548
389.9635, 1045.297
390.4456, 1039.909
390.9277, 1035.265
391.4098, 1031.625
391.8919, 1028.831
392.3741, 1025.959
392.8562, 1021.894
393.3383, 1016.271
393.8204, 1012.219
394.3025, 1011.214
394.7846, 1010.133
395.2668, 1008.144
395.7489, 1005.270
396.2310, 1001.742
396.7131, 997.6795
397.1952, 993.0781
397.6773, 987.8098
398.1595, 980.9304
398.6416, 974.9531
399.1237, 970.2308
399.6058, 966.3866
400.0879, 963.4407
400.5700, 961.2613
401.0522, 959.0254
401.5343, 955.4288
402.0164, 950.1041
402.4985, 945.7219
402.9806, 943.7045
403.4627, 941.3860
403.9449, 937.4021
404.4270, 932.1613
404.9091, 926.8577
405.3912, 922.2312
405.8733, 918.0634
406.3554, 913.6754
406.8376, 908.8353
407.3197, 904.2674
407.8018, 900.3947
408.2839, 896.8740
408.7660, 893.5274
409.2481, 890.3528
409.7303, 886.9643
410.2124, 882.7809
410.6945, 877.8715
411.1766, 873.1246
411.6587, 868.5535
412.1408, 864.4371
412.6230, 861.1941
413.1051, 858.7067
413.5872, 856.0925
414.0693, 853.2005
414.5514, 849.8721
415.0335, 845.5002
415.5157, 839.9078
415.9978, 834.8596
416.4799, 831.6263
416.9620, 829.8442
417.4441, 828.1851
417.9262, 827.0698
418.4084, 825.4418
418.8905, 822.1652
419.3726, 817.8966
419.8547, 814.2791
420.3368, 811.8314
420.8189, 810.4055
421.3011, 810.1437
421.7832, 811.6276
422.2653, 811.7663
422.7474, 809.6364
423.2295, 806.4352
423.7116, 802.8077
424.1938, 798.9872
424.6759, 795.4608
425.1580, 792.5814
425.6401, 790.3408
426.1222, 788.5123
426.6043, 787.5010
427.0865, 786.3583
427.5686, 784.7970
428.0507, 782.9675
428.5328, 781.0000
429.0149, 778.9500
429.4970, 777.0037
429.9792, 775.5197
430.4613, 774.8400
430.9434, 773.8527
431.4255, 772.5918
431.9076, 771.0566
432.3897, 769.0399
432.8719, 766.7081
433.3540, 764.4923
433.8361, 762.6963
434.3182, 761.3311
434.8003, 760.5281
435.2824, 761.0078
435.7646, 760.9387
436.2467, 759.6737
436.7288, 757.8045
437.2109, 755.7680
437.6930, 753.6901
438.1751, 752.0147
438.6573, 751.7883
439.1394, 753.2150
439.6215, 753.0646
440.1036, 749.7263
440.5857, 745.9717
441.0678, 743.5705
441.5500, 742.3040
442.0321, 741.2122
442.5142, 739.2664
442.9963, 737.3941
443.4784, 737.9478
443.9605, 741.3873
444.4427, 743.6469
444.9248, 742.2833
445.4069, 738.5972
445.8890, 734.8227
446.3711, 730.6904
446.8532, 727.4489
447.3354, 726.2076
447.8175, 726.3177
448.2996, 726.5026
448.7817, 726.5339
449.2638, 726.2587
449.7459, 725.3683
450.2281, 723.8127
450.7102, 722.6854
451.1923, 722.6680
451.6744, 722.5161
452.1565, 721.3972
452.6386, 719.4727
453.1208, 717.3074
453.6029, 715.1629
454.0850, 713.0441
454.5671, 710.9648
455.0492, 708.6111
455.5313, 706.7559
456.0135, 706.2061
456.4956, 705.6233
456.9777, 703.5670
457.4598, 700.1019
457.9419, 696.6790
458.4240, 694.7150
458.9062, 694.2399
459.3883, 693.5698
459.8704, 692.6033
460.3525, 691.5369
460.8346, 690.4047
461.3167, 689.2005
461.7989, 687.9188
462.2810, 686.5509
462.7631, 685.0900
463.2452, 683.5475
463.7273, 681.9457
464.2094, 680.0953
464.6916, 677.6153
465.1737, 675.2094
465.6558, 673.0407
466.1379, 671.2441
466.6200, 670.1953
467.1021, 670.5771
467.5843, 671.6251
468.0664, 671.8479
468.5485, 671.1990
469.0306, 670.0213
469.5127, 668.0607
469.9948, 665.8953
470.4770, 664.5381
470.9591, 664.2783
471.4412, 663.8782
471.9233, 662.1459
472.4054, 659.9983
472.8875, 659.4200
473.3697, 660.8484
473.8518, 662.5286
474.3339, 662.9898
474.8160, 662.1693
475.2981, 660.8161
475.7802, 658.2286
476.2624, 655.8619
476.7445, 654.4612
477.2266, 653.7147
477.7087, 652.9918
478.1908, 652.0301
478.6729, 651.0839
479.1551, 650.6764
479.6372, 651.3562
480.1193, 651.2366
480.6014, 649.6837
481.0835, 648.0071
481.5656, 647.0322
482.0478, 646.5815
482.5299, 646.0248
483.0120, 644.9769
483.4941, 643.4634
483.9762, 641.4676
484.4583, 638.3108
484.9405, 636.1063
485.4226, 636.2910
485.9047, 636.8117
486.3868, 635.7708
486.8689, 633.0646
487.3510, 630.5552
487.8332, 630.5430
488.3153, 632.2644
488.7974, 631.6328
489.2795, 627.6012
489.7616, 623.4368
490.2437, 620.9456
490.7259, 619.6525
491.2080, 619.0715
491.6901, 619.5502
492.1722, 619.8899
492.6543, 619.2325
493.1364, 617.7476
493.6186, 615.7106
494.1007, 612.9948
494.5828, 610.5394
495.0649, 609.6329
495.5470, 610.4757
496.0291, 610.5614
496.5113, 609.4421
496.9934, 607.8894
497.4755, 605.9490
497.9576, 603.9446
498.4397, 602.7305
498.9218, 602.7781
499.4040, 603.3189
499.8861, 602.5826
500.3682, 599.4822
500.8503, 597.0933
501.3324, 595.8539
501.8145, 594.8530
502.2967, 593.3235
502.7788, 591.4808
503.2609, 590.2498
503.7430, 590.4691
504.2251, 591.5543
504.7072, 591.0943
505.1894, 588.2865
505.6715, 585.7587
506.1536, 584.1053
506.6357, 583.0331
507.1178, 582.4998
507.5999, 582.4610
508.0821, 582.5065
508.5642, 582.3043
509.0463, 581.9563
509.5284, 581.7741
510.0105, 581.8053
510.4926, 581.8899
510.9748, 582.0355
511.4569, 582.1334
511.9390, 581.9705
512.4211, 581.6066
512.9032, 580.8443
513.3853, 579.1182
513.8674, 577.0507
514.3495, 575.7612
514.8317, 575.4872
515.3138, 575.7894
515.7959, 576.4094
516.2780, 577.4366
516.7601, 577.1889
517.2422, 574.4529
517.7244, 572.0134
518.2065, 571.0060
518.6886, 570.8139
519.1707, 570.4357
519.6528, 569.5328
520.1349, 568.6189
520.6171, 568.6185
521.0992, 569.9241
521.5813, 570.5585
522.0634, 570.2391
522.5455, 569.4809
523.0276, 568.5231
523.5098, 567.2452
523.9919, 565.2582
524.4740, 562.1472
524.9561, 558.9324
525.4382, 557.1053
525.9203, 556.6943
526.4025, 556.7673
526.8846, 557.5999
527.3667, 558.1942
527.8488, 557.3545
528.3309, 555.3098
528.8130, 553.4902
529.2952, 551.3888
529.7773, 550.3884
530.2594, 553.1898
530.7415, 558.6860
531.2236, 561.8119
531.7057, 560.1561
532.1879, 555.4370
532.6700, 550.7434
533.1521, 545.4171
533.6342, 541.7363
534.1163, 541.1194
534.5984, 541.0064
535.0806, 539.8187
535.5627, 537.6609
536.0448, 535.2819
536.5269, 533.1262
537.0090, 531.1789
537.4911, 529.3599
537.9733, 527.3180
538.4554, 526.1760
538.9375, 527.1608
539.4196, 528.1359
539.9017, 527.7594
540.3839, 526.1026
540.8660, 524.0552
541.3481, 522.1581
541.8302, 520.2732
542.3123, 517.7856
542.7944, 514.5170
543.2766, 512.3669
543.7587, 512.9152
544.2408, 514.2990
544.7229, 513.6663
545.2050, 510.7848
545.6871, 508.1415
546.1693, 506.6888
546.6514, 505.8403
547.1335, 505.2389
547.6156, 504.7231
548.0977, 503.5773
548.5798, 501.2144
549.0620, 498.1427
549.5441, 496.0998
550.0262, 496.6572
550.5083, 496.1430
550.9904, 493.4633
551.4725, 490.5159
551.9547, 488.7487
552.4368, 488.1260
552.9189, 487.8014
553.4010, 487.2217
553.8831, 486.3753
554.3652, 485.1048
554.8474, 483.0406
555.3295, 481.5101
555.8116, 481.4961
556.2937, 481.7024
556.7758, 481.0002
557.2579, 479.4204
557.7401, 478.2168
558.2222, 478.6967
558.7043, 479.8018
559.1864, 479.5889
559.6685, 478.0026
560.1506, 476.1297
560.6328, 474.3099
561.1149, 472.7093
561.5970, 471.7554
562.0791, 471.5941
562.5612, 471.4518
563.0433, 471.5433
563.5255, 471.3321
564.0076, 469.9762
564.4897, 467.7857
564.9718, 466.1506
565.4539, 466.0550
565.9360, 466.8473
566.4182, 466.2373
566.9003, 463.0123
567.3824, 460.6731
567.8645, 460.1314
568.3466, 459.8739
568.8287, 458.9673
569.3109, 457.4648
569.7930, 455.9428
570.2751, 454.7736
570.7572, 453.7819
571.2393, 452.4968
571.7214, 450.8651
572.2036, 449.6541
572.6857, 449.3248
573.1678, 449.3009
573.6499, 449.0279
574.1320, 448.5157
574.6141, 447.5070
575.0963, 445.4264
575.5784, 443.2223
576.0605, 441.8291
576.5426, 441.0518
577.0247, 440.0601
577.5068, 438.4508
577.9890, 436.6490
578.4711, 435.4981
578.9532, 435.4718
579.4353, 434.8890
579.9174, 433.6696
580.3995, 432.0551
580.8817, 429.9239
581.3638, 427.5298
581.8459, 425.2967
582.3280, 423.4217
582.8101, 421.7863
583.2922, 420.2528
583.7744, 418.8430
584.2565, 417.1801
584.7386, 414.7685
585.2207, 412.7155
585.7029, 412.4846
586.1850, 413.1987
586.6671, 412.4725
587.1492, 408.5374
587.6313, 404.6104
588.1135, 403.3608
588.5956, 403.8631
