##NAMES=Scheelite
##RRUFFID=R040172
##IDEAL CHEMISTRY=CaW^6+^O_4_
##LOCALITY=Sonora, Mexico
##OWNER=RRUFF
##SOURCE=University of Arizona Mineral Museum
##DESCRIPTION=Colorless water worn single crystal
##STATUS=The identification of this mineral has been confirmed by X-ray diffraction and chemical analysis
##URL=rruff.info/R040172
##MEASURED CHEMISTRY=Ca_1.01_W_1.00_O_4_
78.11102, 8.210222
78.59314, 8.101036
79.07526, 7.556857
79.55737, 6.864023
80.03949, 6.135270
80.52161, 5.588886
81.00372, 5.195160
81.48584, 5.010117
81.96796, 5.051035
82.45007, 5.317411
82.93219, 5.896003
83.41431, 7.376041
83.89642, 9.005651
84.37854, 9.722061
84.86066, 8.956651
85.34277, 7.508791
85.82489, 6.518010
86.30701, 6.037539
86.78912, 5.890851
87.27124, 6.293249
87.75336, 6.883982
88.23547, 7.164635
88.71759, 6.730334
89.19971, 5.845613
89.68182, 5.602795
90.16394, 6.787416
90.64606, 7.582462
91.12817, 6.967851
91.61029, 5.570264
92.09241, 4.557273
92.57452, 4.988606
93.05664, 6.890316
93.53876, 7.729141
94.02087, 5.773023
94.50299, 4.266548
94.98511, 4.684570
95.46722, 6.578269
95.94934, 8.380277
96.43146, 8.428560
96.91357, 6.085053
97.39569, 4.885508
97.87781, 5.410661
98.35992, 6.348401
98.84204, 7.137274
99.32416, 7.653065
99.80627, 8.019403
100.2884, 8.440755
100.7705, 9.274686
101.2526, 9.068964
101.7347, 6.381834
102.2169, 3.545553
102.6990, 2.780497
103.1811, 4.585629
103.6632, 7.462391
104.1453, 9.035827
104.6274, 8.845524
105.1096, 8.491643
105.5917, 7.831163
106.0738, 7.175308
106.5559, 6.990641
107.0380, 7.466859
107.5201, 8.332637
108.0023, 9.037089
108.4844, 9.416996
108.9665, 10.17426
109.4486, 11.91659
109.9307, 14.26334
110.4128, 16.11088
110.8950, 16.84393
111.3771, 17.18087
111.8592, 18.39169
112.3413, 20.71893
112.8234, 23.08917
113.3055, 24.68595
113.7877, 25.61030
114.2698, 26.82592
114.7519, 29.20848
115.2340, 31.68617
115.7161, 32.95048
116.1982, 32.63547
116.6804, 31.76353
117.1625, 31.30028
117.6446, 31.29655
118.1267, 31.27980
118.6088, 31.34015
119.0909, 31.17139
119.5731, 30.24920
120.0552, 28.17342
120.5373, 26.04839
121.0194, 25.75523
121.5015, 27.99742
121.9836, 30.10433
122.4658, 31.01188
122.9479, 31.51290
123.4300, 32.35469
123.9121, 33.87048
124.3942, 35.80277
124.8763, 37.57360
125.3585, 39.35653
125.8406, 40.63954
126.3227, 40.60228
126.8048, 40.31912
127.2869, 41.26023
127.7690, 44.35795
128.2512, 48.80332
128.7333, 51.07363
129.2154, 48.10345
129.6975, 46.70716
130.1796, 49.24612
130.6617, 53.83461
131.1439, 57.82268
131.6260, 59.55944
132.1081, 59.35795
132.5902, 59.66607
133.0723, 60.36864
133.5544, 61.76484
134.0366, 65.16186
134.5187, 69.23767
135.0008, 71.48280
135.4829, 69.90086
135.9650, 64.79180
136.4471, 62.78869
136.9293, 66.24401
137.4114, 70.06121
137.8935, 73.11569
138.3756, 75.33921
138.8577, 76.77934
139.3398, 77.23588
139.8220, 76.68782
140.3041, 78.48573
140.7862, 84.80006
141.2683, 90.83570
141.7504, 94.37176
142.2325, 95.68570
142.7147, 96.06334
143.1968, 96.04043
143.6789, 95.70893
144.1610, 98.66872
144.6431, 107.2254
145.1252, 116.6888
145.6074, 125.1788
146.0895, 132.3830
146.5716, 137.5762
147.0537, 139.3264
147.5358, 137.7248
148.0179, 139.8556
148.5001, 149.6166
148.9822, 160.1592
149.4643, 166.6869
149.9464, 169.0004
150.4285, 169.2148
150.9106, 168.0455
151.3928, 165.8810
151.8749, 166.1064
152.3570, 171.0490
152.8391, 177.1723
153.3212, 181.3286
153.8033, 183.2601
154.2855, 184.3292
154.7676, 185.6320
155.2497, 186.9549
155.7318, 187.3657
156.2139, 186.2815
156.6960, 184.4245
157.1782, 182.0744
157.6603, 178.9936
158.1424, 177.1261
158.6245, 179.1759
159.1066, 183.7317
159.5887, 187.4662
160.0709, 188.7489
160.5530, 189.0339
161.0351, 190.5485
161.5172, 193.6550
161.9993, 196.7874
162.4814, 198.4458
162.9636, 199.3224
163.4457, 200.7298
163.9278, 203.7232
164.4099, 207.3482
164.8920, 209.6791
165.3741, 210.2604
165.8563, 210.8090
166.3384, 211.6917
166.8205, 213.2935
167.3026, 216.6480
167.7847, 224.4111
168.2668, 233.5000
168.7490, 236.3897
169.2311, 230.3308
169.7132, 224.2554
170.1953, 222.9684
170.6774, 224.7306
171.1595, 227.0932
171.6417, 229.3296
172.1238, 231.2897
172.6059, 232.6368
173.0880, 233.4456
173.5701, 233.4002
174.0522, 231.2961
174.5344, 228.5447
175.0165, 227.3737
175.4986, 229.4333
175.9807, 233.4153
176.4628, 235.6092
176.9449, 235.0177
177.4271, 234.4135
177.9092, 234.2902
178.3913, 234.9224
178.8734, 236.9689
179.3555, 241.3587
179.8376, 246.8359
180.3197, 249.4736
180.8019, 247.4275
181.2840, 245.7160
181.7661, 246.2110
182.2482, 247.8245
182.7303, 249.0480
183.2124, 248.8970
183.6946, 248.3011
184.1767, 249.7874
184.6588, 253.1190
185.1409, 259.3145
185.6230, 271.1962
186.1051, 284.6315
186.5873, 294.3134
187.0694, 297.1881
187.5515, 296.5665
188.0336, 301.4989
188.5157, 314.5971
188.9978, 329.1655
189.4800, 343.3639
189.9621, 358.0161
190.4442, 373.7454
190.9263, 390.5821
191.4084, 409.4341
191.8905, 432.5667
192.3727, 461.2701
192.8548, 492.6479
193.3369, 528.8391
193.8190, 565.8426
194.3011, 600.1031
194.7832, 630.2164
195.2654, 656.9542
195.7475, 682.3649
196.2296, 710.4054
196.7117, 729.0937
197.1938, 732.4995
197.6759, 730.1179
198.1581, 728.5640
198.6402, 730.2855
199.1223, 736.1571
199.6044, 748.1006
200.0865, 768.0455
200.5686, 790.9034
201.0508, 813.3892
201.5329, 839.6308
202.0150, 871.4767
202.4971, 909.9136
202.9792, 956.1713
203.4613, 1011.568
203.9435, 1073.373
204.4256, 1151.896
204.9077, 1250.455
205.3898, 1360.834
205.8719, 1478.543
206.3540, 1602.355
206.8362, 1732.635
207.3183, 1872.600
207.8004, 2026.973
208.2825, 2176.340
208.7646, 2335.563
209.2467, 2479.654
209.7289, 2609.341
210.2110, 2715.343
210.6931, 2769.796
211.1752, 2734.420
211.6573, 2591.114
212.1395, 2421.737
212.6216, 2207.195
213.1037, 1985.923
213.5858, 1768.998
214.0679, 1561.982
214.5500, 1370.230
215.0322, 1198.310
215.5143, 1046.108
215.9964, 919.1562
216.4785, 827.4634
216.9606, 750.6539
217.4427, 684.3804
217.9249, 626.9195
218.4070, 576.1766
218.8891, 529.9717
219.3712, 488.1440
219.8533, 456.9620
220.3354, 447.3540
220.8176, 438.3524
221.2997, 424.3213
221.7818, 406.5685
222.2639, 388.5333
222.7460, 372.5003
223.2281, 358.3627
223.7103, 346.3692
224.1924, 337.5620
224.6745, 329.9918
225.1566, 325.3939
225.6387, 321.3439
226.1208, 314.0326
226.6030, 300.9751
227.0851, 283.7515
227.5672, 268.9101
228.0493, 256.4480
228.5314, 246.7423
229.0135, 241.5285
229.4957, 238.3045
229.9778, 233.9695
230.4599, 227.0639
230.9420, 219.1916
231.4241, 214.5325
231.9062, 215.8022
232.3884, 215.7168
232.8705, 213.5296
233.3526, 209.7328
233.8347, 203.9013
234.3168, 196.0552
234.7989, 188.2207
235.2811, 184.2171
235.7632, 185.8882
236.2453, 187.0880
236.7274, 186.7047
237.2095, 186.1451
237.6916, 186.8895
238.1738, 188.9784
238.6559, 190.5944
239.1380, 188.8065
239.6201, 181.9948
240.1022, 177.8238
240.5843, 179.0521
241.0665, 180.9331
241.5486, 181.5082
242.0307, 180.5709
242.5128, 178.7374
242.9949, 176.0847
243.4770, 172.3873
243.9592, 170.5933
244.4413, 172.2564
244.9234, 174.5007
245.4055, 176.6924
245.8876, 178.6338
246.3697, 180.0484
246.8519, 180.5194
247.3340, 180.2200
247.8161, 180.8936
248.2982, 184.6726
248.7803, 186.4250
249.2624, 183.0849
249.7446, 176.9699
250.2267, 171.6992
250.7088, 169.0002
251.1909, 168.5905
251.6730, 169.8135
252.1551, 173.2734
252.6373, 177.2269
253.1194, 182.1040
253.6015, 186.7260
254.0836, 189.5027
254.5657, 189.5897
255.0478, 188.6763
255.5300, 189.7081
256.0121, 193.3712
256.4942, 196.3590
256.9763, 196.0636
257.4584, 195.6944
257.9406, 197.9715
258.4227, 203.5288
258.9048, 209.9819
259.3869, 214.8217
259.8690, 217.9754
260.3511, 221.4375
260.8333, 226.3437
261.3154, 230.9904
261.7975, 233.6176
262.2796, 234.3583
262.7617, 235.7997
263.2438, 240.1243
263.7260, 246.9059
264.2081, 253.6991
264.6902, 260.5557
265.1723, 266.9001
265.6544, 271.7295
266.1365, 275.6195
266.6187, 280.4771
267.1008, 287.2425
267.5829, 295.5781
268.0650, 305.3133
268.5471, 317.1073
269.0292, 328.0831
269.5114, 335.2240
269.9935, 340.2083
270.4756, 345.8008
270.9577, 352.4781
271.4398, 360.2396
271.9219, 370.0961
272.4041, 382.1786
272.8862, 392.4779
273.3683, 399.7805
273.8504, 403.3324
274.3325, 402.2026
274.8146, 394.3697
275.2968, 385.4070
275.7789, 378.9160
276.2610, 374.4154
276.7431, 370.2561
277.2252, 366.7183
277.7073, 362.0076
278.1895, 352.1766
278.6716, 335.8796
279.1537, 321.8095
279.6358, 313.9687
280.1179, 310.2199
280.6000, 307.3520
281.0822, 304.7967
281.5643, 302.1184
282.0464, 298.1713
282.5285, 292.6632
283.0106, 289.9026
283.4927, 293.0720
283.9749, 297.4936
284.4570, 298.6161
284.9391, 296.2354
285.4212, 293.3947
285.9033, 292.4591
286.3854, 293.4667
286.8676, 294.6934
287.3497, 295.6035
287.8318, 297.2192
288.3139, 300.1860
288.7960, 304.2824
289.2781, 309.0414
289.7603, 314.3563
290.2424, 319.8922
290.7245, 324.0937
291.2066, 326.5108
291.6887, 328.2727
292.1708, 329.5125
292.6530, 330.1941
293.1351, 329.8805
293.6172, 328.4587
294.0993, 326.9679
294.5814, 327.1888
295.0635, 329.2015
295.5457, 333.1285
296.0278, 339.9299
296.5099, 347.7632
296.9920, 356.4130
297.4741, 365.2276
297.9562, 371.9377
298.4384, 373.4713
298.9205, 368.3628
299.4026, 368.4464
299.8847, 377.7632
300.3668, 388.0522
300.8489, 397.3373
301.3311, 405.4040
301.8131, 412.1848
302.2953, 417.3380
302.7774, 421.5105
303.2595, 428.0445
303.7416, 437.8330
304.2237, 448.9202
304.7058, 461.3204
305.1880, 474.4513
305.6701, 487.5081
306.1522, 500.1614
306.6343, 513.2906
307.1164, 528.1176
307.5985, 544.3550
308.0807, 563.1757
308.5628, 587.8873
309.0449, 613.1106
309.5270, 634.2093
310.0091, 651.3559
310.4912, 669.9931
310.9734, 695.2009
311.4555, 726.5446
311.9376, 758.5240
312.4197, 788.7829
312.9018, 822.7189
313.3839, 864.8036
313.8661, 912.8943
314.3482, 960.9570
314.8303, 1003.417
315.3124, 1045.477
315.7945, 1096.801
316.2766, 1158.167
316.7588, 1223.853
317.2409, 1291.192
317.7230, 1360.503
318.2051, 1431.292
318.6872, 1500.090
319.1693, 1575.665
319.6515, 1665.932
320.1336, 1768.584
320.6157, 1875.205
321.0978, 1982.561
321.5799, 2092.202
322.0620, 2207.037
322.5442, 2324.729
323.0263, 2453.074
323.5084, 2592.815
323.9905, 2745.577
324.4726, 2914.443
324.9547, 3100.606
325.4369, 3299.380
325.9190, 3507.005
326.4011, 3724.306
326.8832, 3950.747
327.3653, 4188.923
327.8474, 4434.413
328.3296, 4688.316
328.8117, 4948.596
329.2938, 5210.801
329.7759, 5475.142
330.2580, 5737.489
330.7401, 5970.458
331.2223, 6216.782
331.7044, 6380.947
332.1865, 6446.104
332.6686, 6427.822
333.1507, 6335.367
333.6328, 6173.831
334.1150, 5956.977
334.5971, 5700.127
335.0792, 5393.120
335.5613, 5074.351
336.0434, 4734.391
336.5255, 4393.141
337.0077, 4052.157
337.4898, 3719.205
337.9719, 3408.237
338.4540, 3132.948
338.9361, 2891.220
339.4182, 2663.598
339.9004, 2449.701
340.3825, 2254.801
340.8646, 2076.615
341.3467, 1916.001
341.8288, 1775.608
342.3109, 1656.683
342.7931, 1554.025
343.2752, 1460.978
343.7573, 1377.626
344.2394, 1302.768
344.7215, 1241.449
345.2036, 1184.433
345.6858, 1122.449
346.1679, 1055.242
346.6500, 992.7535
347.1321, 942.2646
347.6142, 901.2798
348.0963, 863.0260
348.5785, 827.1407
349.0606, 792.8873
349.5427, 758.2345
350.0248, 724.5352
350.5069, 696.7709
350.9890, 678.8120
351.4712, 664.6143
351.9533, 650.6375
352.4354, 636.4916
352.9175, 619.7425
353.3996, 598.0894
353.8817, 574.4621
354.3639, 557.0321
354.8460, 547.9214
355.3281, 539.0491
355.8102, 528.9135
356.2923, 517.9800
356.7744, 507.0148
357.2566, 496.1057
357.7387, 484.7094
358.2208, 471.9537
358.7029, 457.1699
359.1850, 444.7969
359.6671, 434.4236
360.1493, 426.4720
360.6314, 423.3385
361.1135, 422.6975
361.5956, 419.7095
362.0777, 411.3361
362.5598, 399.0726
363.0420, 388.2026
363.5241, 378.4337
364.0062, 370.7790
364.4883, 366.6759
364.9704, 363.6413
365.4525, 359.2789
365.9347, 353.2374
366.4168, 347.4073
366.8989, 344.4073
367.3810, 344.4532
367.8631, 343.1092
368.3452, 337.6710
368.8274, 333.9799
369.3095, 337.0016
369.7916, 343.9231
370.2737, 347.7914
370.7558, 343.5466
371.2379, 335.8830
371.7201, 332.4276
372.2022, 333.3632
372.6843, 336.9804
373.1664, 344.8801
373.6485, 353.6697
374.1306, 358.0264
374.6128, 356.6977
375.0949, 354.8769
375.5770, 355.1891
376.0591, 356.9130
376.5412, 357.6261
377.0233, 356.3716
377.5055, 357.9225
377.9876, 368.7761
378.4697, 390.1861
378.9518, 405.5242
379.4339, 407.6931
379.9160, 409.9112
380.3982, 419.5110
380.8803, 435.6462
381.3624, 454.6934
381.8445, 474.7540
382.3266, 496.1162
382.8087, 520.1376
383.2909, 549.4958
383.7730, 577.9330
384.2551, 601.1192
384.7372, 625.9744
385.2193, 659.4636
385.7014, 701.8737
386.1836, 747.4404
386.6657, 790.4161
387.1478, 830.4882
387.6299, 870.3297
388.1120, 902.5739
388.5941, 944.1977
389.0763, 1004.468
389.5584, 1076.365
390.0405, 1147.457
390.5226, 1212.037
391.0047, 1276.995
391.4868, 1354.578
391.9690, 1445.340
392.4511, 1540.207
392.9332, 1631.866
393.4153, 1731.747
393.8974, 1847.510
394.3795, 1979.734
394.8617, 2125.844
395.3438, 2289.212
395.8259, 2463.871
396.3080, 2645.646
396.7901, 2834.675
397.2722, 3016.931
397.7544, 3191.715
398.2365, 3349.415
398.7186, 3457.871
399.2007, 3521.523
399.6828, 3532.096
400.1649, 3480.153
400.6471, 3374.324
401.1292, 3221.485
401.6113, 3022.690
402.0934, 2797.444
402.5755, 2569.548
403.0576, 2332.970
403.5398, 2116.652
404.0219, 1913.603
404.5040, 1731.994
404.9861, 1581.149
405.4682, 1454.718
405.9503, 1339.831
406.4325, 1228.654
406.9146, 1121.991
407.3967, 1024.162
407.8788, 934.8169
408.3609, 855.8943
408.8430, 789.5175
409.3252, 731.1058
409.8073, 677.2490
410.2894, 627.4168
410.7715, 583.1039
411.2536, 547.3512
411.7357, 518.7344
412.2179, 491.0779
412.7000, 463.9009
413.1821, 438.1430
413.6642, 413.9338
414.1463, 391.6756
414.6284, 373.4799
415.1106, 361.7571
415.5927, 351.5738
416.0748, 339.4508
416.5569, 325.9180
417.0390, 312.7360
417.5211, 300.6142
418.0033, 288.7060
418.4854, 275.0634
418.9675, 257.6277
419.4496, 246.2794
419.9317, 246.6424
420.4138, 248.9651
420.8960, 246.1689
421.3781, 239.2698
421.8602, 233.6100
422.3423, 232.8566
422.8244, 235.4931
423.3065, 234.8097
423.7887, 227.3342
424.2708, 221.9282
424.7529, 221.2725
425.2350, 221.6667
425.7171, 219.8241
426.1992, 215.4403
426.6814, 210.9372
427.1635, 209.4385
427.6456, 210.4760
428.1277, 208.1930
428.6098, 200.8128
429.0919, 193.5188
429.5741, 188.5894
430.0562, 185.5073
430.5383, 183.8679
431.0204, 184.0434
431.5025, 184.6250
431.9846, 184.7542
432.4668, 184.3736
432.9489, 183.1796
433.4310, 180.9869
433.9131, 178.3069
434.3952, 175.4868
434.8773, 172.4546
435.3595, 170.4926
435.8416, 169.6492
436.3237, 169.9293
436.8058, 172.8899
437.2879, 176.9990
437.7701, 178.4123
438.2522, 175.0435
438.7343, 168.5417
439.2164, 163.0141
439.6985, 158.4764
440.1806, 155.0155
440.6628, 152.1076
441.1449, 150.5002
441.6270, 151.4993
442.1091, 154.4509
442.5912, 157.0354
443.0733, 157.4768
443.5555, 156.1955
444.0376, 154.9132
444.5197, 153.9668
445.0018, 152.0525
445.4839, 146.6047
445.9660, 141.0069
446.4482, 139.2137
446.9303, 142.2015
447.4124, 145.1061
447.8945, 144.5637
448.3766, 141.9056
448.8587, 139.3662
449.3409, 137.1134
449.8230, 136.7989
450.3051, 140.7865
450.7872, 148.2864
451.2693, 151.5181
451.7514, 147.2418
452.2336, 142.8274
452.7157, 140.2706
453.1978, 139.1752
453.6799, 139.4135
454.1620, 140.8016
454.6441, 142.1433
455.1263, 141.8540
455.6084, 139.6893
456.0905, 137.2868
456.5726, 133.5186
457.0547, 130.7199
457.5368, 130.2868
458.0190, 131.1434
458.5011, 131.5744
458.9832, 130.8447
459.4653, 129.5027
459.9474, 128.0452
460.4295, 126.4637
460.9117, 125.7188
461.3938, 126.1549
461.8759, 127.2903
462.3580, 129.3684
462.8401, 132.0297
463.3222, 133.1736
463.8044, 130.4733
464.2865, 127.4015
464.7686, 127.9039
465.2507, 130.9689
465.7328, 131.9286
466.2149, 128.3091
466.6971, 123.1689
467.1792, 122.7978
467.6613, 131.7908
468.1434, 135.7460
468.6255, 130.5411
469.1076, 123.9863
469.5898, 120.5664
470.0719, 120.0986
470.5540, 120.6437
471.0361, 121.0607
471.5182, 121.4209
472.0003, 121.9641
472.4825, 122.7682
472.9646, 123.5340
473.4467, 123.7190
473.9288, 124.2031
474.4109, 126.2621
474.8930, 129.6129
475.3752, 131.6782
475.8573, 129.8145
476.3394, 126.1903
476.8215, 124.7703
477.3036, 125.6661
477.7857, 126.3951
478.2679, 125.9741
478.7500, 124.3952
479.2321, 121.0986
479.7142, 114.2852
480.1963, 110.4233
480.6784, 113.0777
481.1606, 117.6414
481.6427, 120.2616
482.1248, 120.5629
482.6069, 119.6872
483.0890, 118.3678
483.5711, 116.7250
484.0533, 115.3584
484.5354, 113.9608
485.0175, 113.4070
485.4996, 114.7366
485.9817, 116.2053
486.4638, 116.4454
486.9460, 115.3179
487.4281, 113.5288
487.9102, 111.0816
488.3923, 108.4198
488.8744, 106.7769
489.3565, 106.1160
489.8387, 106.8883
490.3208, 110.4566
490.8029, 115.0295
491.2850, 117.0603
491.7671, 116.2849
492.2492, 113.8504
492.7314, 107.9625
493.2135, 101.8403
493.6956, 99.58100
494.1777, 101.2766
494.6598, 104.0811
495.1419, 106.0621
495.6241, 107.1374
496.1062, 106.7393
496.5883, 102.8537
497.0704, 100.3345
497.5525, 100.1018
498.0346, 101.0351
498.5168, 102.6754
498.9989, 104.6965
499.4810, 106.2588
499.9631, 106.7202
500.4452, 106.1688
500.9273, 104.8456
501.4095, 102.6526
501.8916, 100.0304
502.3737, 96.57996
502.8558, 93.16100
503.3379, 91.03111
503.8200, 90.31294
504.3022, 90.50282
504.7843, 92.03624
505.2664, 94.02717
505.7485, 95.95902
506.2306, 97.52956
506.7127, 97.27770
507.1949, 93.81063
507.6770, 88.33023
508.1591, 86.20302
508.6412, 91.28098
509.1233, 94.10688
509.6054, 93.05787
510.0876, 90.56465
510.5697, 87.75753
511.0518, 85.11150
511.5339, 83.25861
512.0161, 82.55736
512.4982, 83.03354
512.9803, 85.47246
513.4624, 90.48370
513.9445, 93.54089
514.4266, 92.03680
514.9088, 88.64977
515.3909, 87.12563
515.8730, 87.66054
516.3551, 87.43758
516.8372, 84.32146
517.3193, 81.01991
517.8015, 80.54186
518.2836, 82.33799
518.7657, 83.48807
519.2478, 82.34580
519.7299, 80.07449
520.2120, 79.53817
520.6942, 82.22499
521.1763, 83.80840
521.6584, 84.14439
522.1405, 83.65927
522.6226, 81.97034
523.1047, 79.65216
523.5869, 78.05905
524.0690, 78.07697
524.5511, 78.75849
525.0332, 78.55405
525.5153, 77.46889
525.9974, 76.17503
526.4796, 74.32119
526.9617, 73.14369
527.4438, 75.15038
527.9259, 79.79609
528.4080, 81.60446
528.8901, 76.54900
529.3723, 71.67691
529.8544, 72.23702
530.3365, 75.78486
530.8186, 76.91833
531.3007, 73.87444
531.7828, 70.16184
532.2650, 71.10668
532.7471, 77.99960
533.2292, 81.46597
533.7113, 77.51538
534.1934, 74.66730
534.6755, 77.01111
535.1577, 81.39191
535.6398, 83.37653
536.1219, 81.58419
536.6040, 78.45386
537.0861, 75.43501
537.5682, 72.87697
538.0504, 72.43377
538.5325, 74.60487
539.0146, 76.51685
539.4967, 75.91340
539.9788, 73.37654
540.4609, 71.86117
540.9431, 71.53803
541.4252, 71.84844
541.9073, 73.47155
542.3894, 75.16704
542.8715, 75.68650
543.3536, 74.98284
543.8358, 73.80362
544.3179, 72.66743
544.8000, 71.61175
545.2821, 70.82388
545.7642, 70.38567
546.2463, 69.98896
546.7285, 69.34803
547.2106, 68.89207
547.6927, 69.16580
548.1748, 70.08930
548.6569, 70.67651
549.1390, 70.17131
549.6211, 69.34306
550.1032, 69.18062
550.5853, 69.49453
551.0674, 69.29149
551.5496, 68.09112
552.0317, 66.62676
552.5138, 66.15537
552.9959, 67.19762
553.4780, 67.45668
553.9601, 65.85108
554.4423, 64.73299
554.9244, 65.45589
555.4065, 67.16216
555.8886, 68.55815
556.3707, 69.18218
556.8528, 69.17612
557.3350, 68.18646
557.8171, 66.46967
558.2992, 66.41074
558.7813, 68.77436
559.2634, 71.07971
559.7455, 71.82281
560.2277, 71.19711
560.7098, 69.98346
561.1919, 67.31480
561.6740, 65.58411
562.1561, 66.94144
562.6382, 68.75330
563.1204, 67.60421
563.6025, 63.70092
564.0846, 60.09737
564.5667, 58.94134
565.0488, 59.91945
565.5309, 61.96670
566.0131, 65.73377
566.4952, 68.92756
566.9773, 72.00282
567.4594, 73.64139
567.9415, 72.02356
568.4236, 67.89119
568.9058, 64.63976
569.3879, 63.79009
569.8700, 64.34898
570.3521, 65.95074
570.8342, 68.17879
571.3163, 69.55171
571.7985, 69.58150
572.2806, 69.01295
572.7627, 68.80694
573.2448, 69.10514
573.7269, 68.38803
574.2090, 65.06628
574.6912, 62.66759
575.1733, 62.17277
