##NAMES=Scheelite
##RRUFFID=R050543
##IDEAL CHEMISTRY=CaW^6+^O_4_
##LOCALITY=Nacozari, Sonora, Mexico
##OWNER=RRUFF
##SOURCE=University of Arizona Mineral Museum
##DESCRIPTION=Green drusy coating
##STATUS=The identification of this mineral has been confirmed by single-crystal X-ray diffraction.
##URL=rruff.info/R050543
130.398, 1043.765
130.880, 1027.407
131.362, 1018.324
131.844, 1017.038
132.327, 1018.357
132.809, 1016.425
133.291, 1011.720
133.773, 1009.265
134.255, 1012.393
134.737, 1019.320
135.219, 1020.857
135.701, 1016.099
136.184, 1009.118
136.666, 1003.949
137.148, 1000.497
137.630, 999.591
138.112, 1002.022
138.594, 1007.651
139.076, 1013.941
139.558, 1021.996
140.040, 1028.619
140.523, 1028.365
141.005, 1018.688
141.487, 1011.031
141.969, 1010.354
142.451, 1017.849
142.933, 1017.045
143.415, 1003.077
143.897, 985.521
144.380, 978.049
144.862, 986.882
145.344, 994.385
145.826, 995.519
146.308, 988.880
146.790, 983.047
147.272, 977.295
147.754, 972.775
148.236, 971.253
148.719, 975.313
149.201, 979.235
149.683, 981.983
150.165, 983.967
150.647, 983.367
151.129, 976.461
151.611, 968.118
152.093, 964.505
152.575, 971.950
153.058, 978.254
153.540, 979.942
154.022, 975.238
154.504, 972.128
154.986, 972.093
155.468, 973.795
155.950, 975.557
156.432, 974.363
156.915, 975.669
157.397, 983.456
157.879, 1000.841
158.361, 1011.619
158.843, 1007.348
159.325, 995.794
159.807, 987.083
160.289, 986.024
160.771, 986.695
161.254, 986.367
161.736, 984.386
162.218, 983.721
162.700, 985.964
163.182, 990.059
163.664, 994.538
164.146, 999.792
164.628, 1004.610
165.111, 1007.786
165.593, 1008.916
166.075, 1010.760
166.557, 1016.842
167.039, 1024.245
167.521, 1028.605
168.003, 1022.618
168.485, 1016.358
168.967, 1018.156
169.449, 1029.149
169.932, 1042.301
170.414, 1056.007
170.896, 1068.403
171.378, 1076.301
171.860, 1073.646
172.342, 1068.251
172.824, 1067.946
173.307, 1073.380
173.789, 1080.627
174.271, 1088.077
174.753, 1095.047
175.235, 1100.012
175.717, 1097.761
176.199, 1095.080
176.681, 1102.795
177.163, 1121.979
177.645, 1141.445
178.128, 1147.682
178.610, 1145.558
179.092, 1147.521
179.574, 1163.541
180.056, 1185.873
180.538, 1201.628
181.020, 1210.142
181.503, 1216.018
181.985, 1223.207
182.467, 1231.483
182.949, 1240.342
183.431, 1248.237
183.913, 1256.692
184.395, 1270.104
184.877, 1288.758
185.359, 1308.654
185.842, 1324.390
186.324, 1336.962
186.806, 1350.135
187.288, 1364.675
187.770, 1381.014
188.252, 1400.948
188.734, 1425.096
189.216, 1449.378
189.698, 1468.520
190.181, 1483.166
190.663, 1499.095
191.145, 1520.096
191.627, 1543.819
192.109, 1560.397
192.591, 1569.007
193.073, 1576.323
193.555, 1590.932
194.038, 1612.477
194.520, 1630.444
195.002, 1638.895
195.484, 1641.672
195.966, 1658.800
196.448, 1693.381
196.930, 1727.773
197.412, 1741.924
197.894, 1735.115
198.376, 1730.619
198.859, 1734.354
199.341, 1744.618
199.823, 1753.190
200.305, 1759.465
200.787, 1766.304
201.269, 1776.584
201.751, 1790.420
202.234, 1805.155
202.716, 1820.067
203.198, 1835.513
203.680, 1853.859
204.162, 1876.091
204.644, 1898.187
205.126, 1915.893
205.608, 1928.046
206.090, 1943.802
206.572, 1966.152
207.055, 1992.769
207.537, 2013.736
208.019, 2027.748
208.501, 2039.556
208.983, 2052.241
209.465, 2066.104
209.947, 2080.917
210.430, 2100.007
210.912, 2118.998
211.394, 2123.062
211.876, 2111.240
212.358, 2086.732
212.840, 2049.925
213.322, 1999.162
213.804, 1943.073
214.286, 1880.898
214.768, 1814.535
215.251, 1750.317
215.733, 1686.022
216.215, 1627.797
216.697, 1579.134
217.179, 1542.490
217.661, 1508.551
218.143, 1476.732
218.625, 1448.176
219.108, 1424.917
219.590, 1406.714
220.072, 1394.334
220.554, 1389.723
221.036, 1397.023
221.518, 1397.166
222.000, 1387.581
222.482, 1372.737
222.964, 1360.335
223.447, 1351.443
223.929, 1342.975
224.411, 1332.113
224.893, 1316.010
225.375, 1313.216
225.857, 1332.271
226.339, 1357.833
226.821, 1366.294
227.303, 1347.404
227.786, 1331.778
228.268, 1329.309
228.750, 1342.157
229.232, 1350.010
229.714, 1351.926
230.196, 1349.770
230.678, 1344.442
231.161, 1330.502
231.643, 1324.192
232.125, 1332.351
232.607, 1355.978
233.089, 1368.273
233.571, 1362.819
234.053, 1352.748
234.535, 1350.425
235.017, 1359.346
235.499, 1368.921
235.982, 1377.543
236.464, 1385.297
236.946, 1394.702
237.428, 1408.560
237.910, 1420.775
238.392, 1426.505
238.874, 1422.447
239.357, 1418.580
239.839, 1415.623
240.321, 1413.604
240.803, 1412.113
241.285, 1408.113
241.767, 1408.710
242.249, 1418.769
242.731, 1444.366
243.213, 1466.980
243.695, 1487.129
244.178, 1503.601
244.660, 1511.579
245.142, 1505.479
245.624, 1499.043
246.106, 1498.402
246.588, 1504.932
247.070, 1514.117
247.552, 1527.222
248.035, 1542.318
248.517, 1555.039
248.999, 1563.401
249.481, 1572.874
249.963, 1587.549
250.445, 1611.646
250.927, 1621.789
251.409, 1610.528
251.891, 1590.883
252.374, 1581.715
252.856, 1585.982
253.338, 1595.169
253.820, 1607.947
254.302, 1624.674
254.784, 1640.951
255.266, 1656.703
255.748, 1672.295
256.231, 1687.546
256.713, 1701.260
257.195, 1717.750
257.677, 1738.706
258.159, 1764.087
258.641, 1787.055
259.123, 1806.931
259.605, 1825.268
260.087, 1843.722
260.570, 1863.406
261.052, 1879.410
261.534, 1889.122
262.016, 1894.322
262.498, 1904.721
262.980, 1921.765
263.462, 1941.237
263.944, 1960.901
264.427, 1981.978
264.909, 2000.006
265.391, 2015.708
265.873, 2027.818
266.355, 2030.902
266.837, 2019.744
267.319, 2012.166
267.801, 2018.057
268.284, 2040.418
268.766, 2062.847
269.248, 2086.346
269.730, 2108.561
270.212, 2124.417
270.694, 2132.779
271.176, 2138.073
271.658, 2140.846
272.140, 2140.812
272.622, 2143.511
273.105, 2149.769
273.587, 2157.340
274.069, 2164.112
274.551, 2170.717
275.033, 2173.346
275.515, 2168.836
275.997, 2158.530
276.479, 2157.296
276.962, 2168.195
277.444, 2179.831
277.926, 2181.519
278.408, 2172.652
278.890, 2158.031
279.372, 2134.379
279.854, 2106.949
280.336, 2097.378
280.819, 2108.137
281.301, 2124.504
281.783, 2136.753
282.265, 2144.856
282.747, 2151.355
283.229, 2156.503
283.711, 2160.146
284.193, 2159.818
284.675, 2154.937
285.158, 2154.279
285.640, 2166.376
286.122, 2189.594
286.604, 2205.003
287.086, 2210.669
287.568, 2211.090
288.050, 2211.309
288.532, 2211.413
289.014, 2213.678
289.497, 2219.274
289.979, 2227.854
290.461, 2239.597
290.943, 2255.198
291.425, 2268.617
291.907, 2269.916
292.389, 2261.463
292.871, 2257.654
293.353, 2265.683
293.836, 2279.764
294.318, 2285.814
294.800, 2283.788
295.282, 2280.125
295.764, 2276.654
296.246, 2275.384
296.728, 2284.146
297.211, 2308.989
297.693, 2337.499
298.175, 2348.367
298.657, 2344.065
299.139, 2341.200
299.621, 2353.062
300.103, 2373.424
300.585, 2388.551
301.067, 2395.387
301.549, 2402.915
302.032, 2424.152
302.514, 2455.036
302.996, 2483.377
303.478, 2501.220
303.960, 2513.980
304.442, 2528.275
304.924, 2544.302
305.406, 2562.683
305.889, 2583.943
306.371, 2608.072
306.853, 2635.286
307.335, 2669.674
307.817, 2704.224
308.299, 2729.887
308.781, 2747.867
309.263, 2767.978
309.746, 2798.985
310.228, 2834.514
310.710, 2867.313
311.192, 2894.682
311.674, 2920.152
312.156, 2941.922
312.638, 2963.077
313.120, 2992.637
313.602, 3046.279
314.085, 3103.593
314.567, 3147.964
315.049, 3173.140
315.531, 3196.944
316.013, 3224.954
316.495, 3257.820
316.977, 3296.697
317.459, 3349.828
317.941, 3402.590
318.424, 3445.562
318.906, 3477.526
319.388, 3513.586
319.870, 3549.386
320.352, 3596.046
320.834, 3663.814
321.316, 3783.090
321.798, 3895.267
322.280, 3977.270
322.763, 4034.573
323.245, 4101.223
323.727, 4192.729
324.209, 4290.361
324.691, 4383.689
325.173, 4466.949
325.655, 4552.470
326.138, 4636.566
326.620, 4724.228
327.102, 4825.229
327.584, 4960.951
328.066, 5092.761
328.548, 5205.887
329.030, 5295.595
329.512, 5384.295
329.994, 5473.834
330.477, 5561.863
330.959, 5646.140
331.441, 5742.934
331.923, 5812.857
332.405, 5845.319
332.887, 5840.492
333.369, 5825.418
333.851, 5807.770
334.333, 5771.307
334.816, 5699.254
335.298, 5572.498
335.780, 5459.510
336.262, 5368.245
336.744, 5294.298
337.226, 5221.373
337.708, 5148.303
338.190, 5078.494
338.672, 5012.190
339.155, 4949.251
339.637, 4890.747
340.119, 4831.654
340.601, 4783.748
341.083, 4770.739
341.565, 4799.132
342.047, 4820.012
342.529, 4809.854
343.012, 4775.965
343.494, 4777.703
343.976, 4819.995
344.458, 4873.184
344.940, 4907.870
345.422, 4925.483
345.904, 4953.638
346.386, 4999.693
346.868, 5056.524
347.351, 5109.033
347.833, 5157.268
348.315, 5207.433
348.797, 5258.353
349.279, 5313.377
349.761, 5385.466
350.243, 5476.906
350.725, 5578.908
351.208, 5684.844
351.690, 5793.339
352.172, 5899.831
352.654, 5998.868
353.136, 6096.336
353.618, 6195.804
354.100, 6297.574
354.582, 6410.898
355.065, 6545.599
355.547, 6695.299
356.029, 6846.914
356.511, 6992.194
356.993, 7145.003
357.475, 7318.777
357.957, 7510.176
358.439, 7708.262
358.921, 7899.451
359.404, 8099.516
359.886, 8323.422
360.368, 8577.090
360.850, 8839.034
361.332, 9090.967
361.814, 9346.034
362.296, 9623.120
362.778, 9938.681
363.260, 10268.640
363.743, 10608.580
364.225, 10957.970
364.707, 11309.610
365.189, 11651.150
365.671, 12001.640
366.153, 12370.750
366.635, 12794.450
367.117, 13201.150
367.599, 13572.120
368.082, 13919.460
368.564, 14280.960
369.046, 14687.300
369.528, 15083.160
370.010, 15450.720
370.492, 15780.570
370.974, 16110.100
371.457, 16448.240
371.939, 16777.340
372.421, 17080.551
372.903, 17362.461
373.385, 17610.801
373.867, 17816.010
374.349, 17980.891
374.831, 18140.090
375.313, 18302.131
375.796, 18437.619
376.278, 18527.051
376.760, 18569.529
377.242, 18566.350
377.724, 18516.711
378.206, 18422.619
378.688, 18281.471
379.170, 18092.471
379.652, 17880.109
380.135, 17661.760
380.617, 17432.939
381.099, 17161.449
381.581, 16838.949
382.063, 16503.430
382.545, 16182.610
383.027, 15878.810
383.509, 15598.500
383.991, 15346.260
384.474, 15115.430
384.956, 14894.620
385.438, 14686.410
385.920, 14504.340
386.402, 14361.910
386.884, 14253.310
387.366, 14169.370
387.848, 14109.950
388.331, 14071.010
388.813, 14062.460
389.295, 14071.930
389.777, 14073.920
390.259, 14038.970
390.741, 14003.830
391.223, 14011.490
391.705, 14058.530
392.188, 14087.670
392.670, 14059.150
393.152, 14001.280
393.634, 13939.330
394.116, 13876.460
394.598, 13813.640
395.080, 13772.330
395.562, 13732.160
396.044, 13646.260
396.526, 13461.810
397.009, 13263.720
397.491, 13088.050
397.973, 12947.280
398.455, 12789.110
398.937, 12600.070
399.419, 12395.060
399.901, 12188.970
400.384, 12005.180
400.866, 11791.510
401.348, 11530.420
401.830, 11230.140
402.312, 10943.780
402.794, 10685.930
403.276, 10422.480
403.758, 10129.770
404.240, 9787.915
404.723, 9479.272
405.205, 9213.836
405.687, 8967.604
406.169, 8698.762
406.651, 8396.783
407.133, 8115.768
407.615, 7869.789
408.097, 7657.102
408.579, 7457.294
409.062, 7270.876
409.544, 7094.262
410.026, 6918.933
410.508, 6749.028
410.990, 6603.444
411.472, 6486.873
411.954, 6393.996
412.436, 6326.179
412.918, 6279.519
413.401, 6236.414
413.883, 6185.898
414.365, 6134.254
414.847, 6087.453
415.329, 6045.946
415.811, 6024.162
416.293, 6045.612
416.775, 6090.983
417.258, 6132.982
417.740, 6159.135
418.222, 6186.570
418.704, 6224.284
419.186, 6272.271
419.668, 6329.141
420.150, 6396.740
420.632, 6471.623
421.115, 6551.917
421.597, 6635.995
422.079, 6730.256
422.561, 6842.500
423.043, 6962.612
423.525, 7080.681
424.007, 7185.641
424.489, 7298.824
424.971, 7424.737
425.453, 7562.668
425.936, 7701.970
426.418, 7827.219
426.900, 7969.463
427.382, 8146.564
427.864, 8377.068
428.346, 8579.893
428.828, 8733.497
429.310, 8877.469
429.793, 9066.053
430.275, 9315.747
430.757, 9563.775
431.239, 9790.553
431.721, 10004.020
432.203, 10237.790
432.685, 10496.450
433.167, 10762.770
433.650, 11028.400
434.132, 11292.960
434.614, 11554.540
435.096, 11811.430
435.578, 12061.720
436.060, 12301.480
436.542, 12532.480
437.024, 12753.340
437.506, 12972.950
437.989, 13176.730
438.471, 13350.320
438.953, 13490.520
439.435, 13583.740
439.917, 13609.470
440.399, 13586.840
440.881, 13542.290
441.363, 13488.220
441.845, 13389.110
442.328, 13197.680
442.810, 12950.630
443.292, 12702.490
443.774, 12461.180
444.256, 12234.560
444.738, 12028.000
445.220, 11841.140
445.702, 11663.090
446.185, 11480.700
446.667, 11315.690
447.149, 11179.820
447.631, 11076.460
448.113, 10999.400
448.595, 10952.940
449.077, 10931.310
449.559, 10923.890
450.042, 10919.900
450.524, 10949.070
451.006, 11028.340
451.488, 11156.610
451.970, 11265.270
452.452, 11351.210
452.934, 11426.450
453.416, 11502.220
453.898, 11580.590
454.380, 11639.630
454.863, 11678.370
455.345, 11692.720
455.827, 11674.880
456.309, 11624.880
456.791, 11545.810
457.273, 11430.480
457.755, 11289.530
458.237, 11145.590
458.720, 11000.460
459.202, 10838.600
459.684, 10638.440
460.166, 10417.460
460.648, 10204.200
461.130, 9997.985
461.612, 9812.235
462.094, 9662.577
462.577, 9539.330
463.059, 9419.910
463.541, 9314.743
464.023, 9192.545
464.505, 9025.486
464.987, 8814.646
465.469, 8616.479
465.951, 8455.311
466.434, 8307.589
466.916, 8158.819
467.398, 8008.869
467.880, 7855.747
468.362, 7694.081
468.844, 7531.427
469.326, 7379.258
469.808, 7238.235
470.290, 7106.914
470.772, 6990.782
471.255, 6888.070
471.737, 6774.314
472.219, 6642.058
472.701, 6516.613
473.183, 6416.857
473.665, 6345.034
474.147, 6271.321
474.629, 6192.210
475.112, 6115.940
475.594, 6059.173
476.076, 6019.673
476.558, 5977.497
477.040, 5922.887
477.522, 5862.419
478.004, 5808.910
478.486, 5762.024
478.969, 5714.865
479.451, 5659.925
479.933, 5603.179
480.415, 5552.944
480.897, 5511.566
481.379, 5471.358
481.861, 5425.985
482.343, 5379.435
482.825, 5336.663
483.308, 5299.382
483.790, 5266.211
484.272, 5240.716
484.754, 5220.510
485.236, 5193.173
485.718, 5148.229
486.200, 5102.106
486.682, 5063.499
487.164, 5039.259
487.647, 5002.883
488.129, 4947.252
488.611, 4884.780
489.093, 4830.070
489.575, 4786.469
490.057, 4740.408
490.539, 4690.658
491.021, 4637.370
491.504, 4580.602
491.986, 4519.958
492.468, 4461.618
492.950, 4407.655
493.432, 4358.606
493.914, 4323.070
494.396, 4303.291
494.878, 4282.157
495.361, 4237.155
495.843, 4177.759
496.325, 4129.619
496.807, 4102.060
497.289, 4081.123
497.771, 4047.727
498.253, 4009.234
498.735, 3982.564
499.217, 3988.020
499.699, 3999.126
500.182, 3999.865
500.664, 3989.368
501.146, 3974.527
501.628, 3945.028
502.110, 3920.390
502.592, 3915.048
503.074, 3957.822
503.556, 3979.261
504.039, 3958.333
504.521, 3918.381
505.003, 3896.399
505.485, 3904.877
505.967, 3909.625
506.449, 3901.009
506.931, 3881.122
507.413, 3869.444
507.896, 3869.528
508.378, 3866.512
508.860, 3845.007
509.342, 3806.239
509.824, 3789.502
510.306, 3801.684
510.788, 3815.762
511.270, 3790.211
511.752, 3736.247
512.235, 3697.887
512.717, 3697.472
513.199, 3708.590
513.681, 3695.601
514.163, 3664.870
514.645, 3638.771
515.127, 3639.025
515.609, 3642.566
516.091, 3629.310
516.574, 3596.359
517.056, 3564.555
517.538, 3540.693
518.020, 3522.647
518.502, 3508.346
518.984, 3496.082
519.466, 3489.245
519.948, 3496.905
520.430, 3508.911
520.913, 3504.519
521.395, 3470.971
521.877, 3441.319
522.359, 3424.727
522.841, 3420.499
523.323, 3415.375
523.805, 3408.043
524.287, 3403.762
524.770, 3409.603
525.252, 3424.686
525.734, 3429.184
526.216, 3419.639
526.698, 3407.276
527.180, 3408.928
527.662, 3420.096
528.144, 3424.731
528.627, 3412.721
529.109, 3397.034
529.591, 3395.275
530.073, 3403.443
530.555, 3408.306
531.037, 3392.229
531.519, 3377.725
532.001, 3384.228
532.484, 3415.237
532.966, 3443.160
533.448, 3454.744
533.930, 3461.900
534.412, 3473.754
534.894, 3496.057
535.376, 3517.274
535.858, 3541.974
536.340, 3563.725
536.823, 3567.513
537.305, 3539.309
537.787, 3523.994
538.269, 3536.803
538.751, 3572.864
539.233, 3601.511
539.715, 3622.882
540.197, 3637.417
540.679, 3642.078
541.162, 3639.229
541.644, 3641.131
542.126, 3648.657
542.608, 3659.375
543.090, 3672.393
543.572, 3686.470
544.054, 3699.111
544.536, 3710.224
545.018, 3718.913
545.501, 3719.451
545.983, 3716.829
546.465, 3722.855
546.947, 3751.168
547.429, 3781.427
547.911, 3804.715
548.393, 3820.434
548.875, 3832.464
549.357, 3837.814
549.840, 3842.255
550.322, 3848.423
550.804, 3854.852
551.286, 3867.575
551.768, 3892.180
552.250, 3917.250
552.732, 3924.009
553.214, 3908.368
553.697, 3900.880
554.179, 3909.503
554.661, 3929.177
555.143, 3948.920
555.625, 3968.699
556.107, 3988.057
556.589, 4007.397
557.071, 4025.869
557.554, 4040.332
558.036, 4050.968
558.518, 4065.520
559.000, 4098.268
559.482, 4133.532
559.964, 4153.611
560.446, 4149.864
560.928, 4143.488
561.411, 4137.260
561.893, 4135.326
562.375, 4143.320
562.857, 4174.896
563.339, 4202.076
563.821, 4220.306
564.303, 4230.599
564.785, 4236.811
565.267, 4236.736
565.750, 4236.444
566.232, 4237.238
566.714, 4239.075
567.196, 4249.051
567.678, 4268.732
568.160, 4289.325
568.642, 4298.000
569.124, 4299.110
569.606, 4317.546
570.089, 4360.714
570.571, 4406.323
571.053, 4428.484
571.535, 4433.388
572.017, 4433.414
572.499, 4424.305
572.981, 4420.834
573.463, 4436.522
573.945, 4466.599
574.428, 4495.220
574.910, 4513.048
575.392, 4531.109
575.874, 4554.877
576.356, 4585.817
576.838, 4614.879
577.320, 4641.965
577.802, 4666.854
578.284, 4687.704
578.767, 4698.917
579.249, 4724.805
579.731, 4769.977
580.213, 4824.943
580.695, 4878.753
581.177, 4931.211
581.659, 4971.577
582.141, 4991.333
582.624, 5003.400
583.106, 5033.836
583.588, 5078.653
584.070, 5120.938
584.552, 5144.528
585.034, 5164.040
585.516, 5193.644
585.998, 5233.635
586.481, 5276.589
586.963, 5327.028
587.445, 5373.482
587.927, 5407.734
588.409, 5423.161
588.891, 5437.125
589.373, 5443.469
589.855, 5453.557
590.338, 5480.920
590.820, 5536.236
591.302, 5586.276
591.784, 5628.728
592.266, 5661.813
592.748, 5674.718
593.230, 5664.185
593.712, 5670.210
594.194, 5722.488
594.677, 5799.133
595.159, 5831.340
595.641, 5822.342
596.123, 5817.628
596.605, 5856.935
597.087, 5915.568
597.569, 5964.138
598.051, 5998.564
598.533, 6029.746
599.016, 6060.422
599.498, 6092.594
599.980, 6128.093
600.462, 6165.512
600.944, 6209.218
601.426, 6266.854
601.908, 6329.076
602.390, 6379.188
602.872, 6407.369
603.355, 6441.330
603.837, 6487.946
604.319, 6544.565
604.801, 6604.092
605.283, 6666.955
605.765, 6731.245
606.247, 6796.879
606.729, 6863.311
607.211, 6933.169
607.694, 7005.342
608.176, 7073.813
608.658, 7124.141
609.140, 7170.507
609.622, 7230.496
610.104, 7308.512
610.586, 7397.818
611.068, 7505.167
611.551, 7618.738
612.033, 7724.839
612.515, 7805.429
612.997, 7895.601
613.479, 8008.738
613.961, 8134.308
614.443, 8251.233
614.925, 8354.226
615.407, 8457.716
615.890, 8565.646
616.372, 8677.625
616.854, 8788.512
617.336, 8896.600
617.818, 9016.067
618.300, 9167.484
618.782, 9336.818
619.265, 9479.544
619.747, 9595.233
620.229, 9696.773
620.711, 9776.760
621.193, 9856.893
621.675, 9967.372
622.157, 10128.980
622.639, 10288.150
623.121, 10410.380
623.604, 10519.280
624.086, 10648.600
624.568, 10837.840
625.050, 11005.660
625.532, 11129.010
626.014, 11226.030
626.496, 11349.650
626.978, 11506.610
627.460, 11672.780
627.943, 11844.600
628.425, 12019.620
628.907, 12186.310
629.389, 12344.680
629.871, 12494.870
630.353, 12640.960
630.835, 12778.430
631.317, 12888.250
631.799, 12968.450
632.282, 13057.630
632.764, 13192.230
633.246, 13345.610
633.728, 13493.470
634.210, 13633.150
634.692, 13761.800
635.174, 13874.490
635.656, 13976.360
636.138, 14071.540
636.621, 14148.570
637.103, 14240.380
637.585, 14357.480
638.067, 14488.820
638.549, 14611.480
639.031, 14725.720
639.513, 14824.010
639.995, 14898.870
640.478, 14958.670
640.960, 15021.120
641.442, 15087.340
641.924, 15166.960
642.406, 15285.920
642.888, 15410.580
643.370, 15489.650
643.852, 15518.950
644.334, 15570.710
644.817, 15713.170
645.299, 15872.520
645.781, 15987.570
646.263, 16017.340
646.745, 16070.030
647.227, 16157.210
647.709, 16266.570
648.192, 16384.961
648.674, 16512.359
649.156, 16654.990
649.638, 16822.141
650.120, 16995.119
650.602, 17141.061
651.084, 17259.699
651.566, 17368.131
652.048, 17463.131
