##NAMES=Scheelite
##RRUFFID=R040172
##IDEAL CHEMISTRY=CaW^6+^O_4_
##LOCALITY=Sonora, Mexico
##OWNER=RRUFF
##SOURCE=University of Arizona Mineral Museum
##DESCRIPTION=Colorless water worn single crystal
##STATUS=The identification of this mineral has been confirmed by X-ray diffraction and chemical analysis
##URL=rruff.info/R040172
##MEASURED CHEMISTRY=Ca_1.01_W_1.00_O_4_
112.0567, 25.45758
112.5388, 26.84318
113.0209, 28.17808
113.5031, 29.74043
113.9852, 30.72535
114.4673, 32.76070
114.9494, 37.18880
115.4315, 43.68560
115.9136, 49.05684
116.3958, 50.67463
116.8779, 51.05252
117.3600, 52.68873
117.8421, 58.25721
118.3242, 64.01194
118.8063, 67.25163
119.2885, 67.54319
119.7706, 68.42238
120.2527, 72.62615
120.7348, 78.95656
121.2169, 85.25225
121.6990, 88.64024
122.1812, 92.21254
122.6633, 99.32916
123.1454, 110.9265
123.6275, 124.6755
124.1096, 138.6576
124.5917, 152.9665
125.0739, 167.9839
125.5560, 187.3131
126.0381, 207.2216
126.5202, 220.2694
127.0023, 222.8194
127.4844, 219.9939
127.9666, 220.3015
128.4487, 223.6897
128.9308, 225.9670
129.4129, 221.4317
129.8950, 211.6056
130.3772, 204.5831
130.8593, 203.5310
131.3414, 207.0436
131.8235, 210.5718
132.3056, 214.1746
132.7877, 217.3924
133.2699, 218.9912
133.7520, 218.8586
134.2341, 219.9470
134.7162, 224.1814
135.1983, 231.5841
135.6804, 237.0741
136.1626, 239.8666
136.6447, 241.7326
137.1268, 246.9026
137.6089, 256.7171
138.0910, 264.9625
138.5731, 267.5503
139.0553, 263.0584
139.5374, 259.9627
140.0195, 259.4571
140.5016, 260.5876
140.9837, 259.2962
141.4658, 253.9053
141.9480, 248.7110
142.4301, 247.1778
142.9122, 252.2269
143.3943, 254.5929
143.8764, 251.9187
144.3585, 244.3870
144.8407, 240.0829
145.3228, 240.6291
145.8049, 243.2074
146.2870, 245.1949
146.7691, 245.5067
147.2512, 246.6218
147.7334, 249.2874
148.2155, 254.0737
148.6976, 257.9508
149.1797, 259.9370
149.6618, 261.3033
150.1439, 263.7058
150.6261, 269.9631
151.1082, 274.6984
151.5903, 276.0416
152.0724, 271.7520
152.5545, 269.0299
153.0366, 268.5796
153.5188, 270.0441
154.0009, 272.7092
154.4830, 278.3290
154.9651, 283.7802
155.4472, 287.6422
155.9293, 288.3735
156.4115, 289.5065
156.8936, 292.4028
157.3757, 296.4200
157.8578, 299.3794
158.3399, 300.0366
158.8221, 299.7847
159.3042, 299.5540
159.7863, 301.6549
160.2684, 301.7627
160.7505, 296.3982
161.2326, 286.4673
161.7148, 279.3674
162.1969, 279.4515
162.6790, 283.3863
163.1611, 287.9289
163.6432, 294.0724
164.1253, 298.9475
164.6075, 299.9702
165.0896, 297.0105
165.5717, 295.0063
166.0538, 297.3846
166.5359, 302.3457
167.0180, 307.2982
167.5002, 313.3358
167.9823, 317.6588
168.4644, 316.6107
168.9465, 308.9705
169.4286, 302.5983
169.9107, 305.3586
170.3929, 313.7197
170.8750, 320.3169
171.3571, 318.7475
171.8392, 314.5802
172.3213, 314.3204
172.8034, 319.7674
173.2856, 325.8687
173.7677, 327.2650
174.2498, 325.1589
174.7319, 323.6553
175.2140, 325.4543
175.6961, 329.3637
176.1783, 333.8229
176.6604, 338.9589
177.1425, 343.7340
177.6246, 345.5656
178.1067, 345.0730
178.5888, 346.4256
179.0710, 353.4151
179.5531, 364.4259
180.0352, 375.9968
180.5173, 387.5197
180.9994, 398.8804
181.4815, 409.6538
181.9637, 419.9352
182.4458, 429.7225
182.9279, 438.3536
183.4100, 446.3698
183.8921, 455.8431
184.3742, 466.8196
184.8564, 479.8949
185.3385, 496.1134
185.8206, 515.6425
186.3027, 537.9761
186.7848, 563.2637
187.2669, 591.3135
187.7491, 621.2567
188.2312, 650.9307
188.7133, 682.0198
189.1954, 721.9734
189.6775, 771.1025
190.1596, 826.7425
190.6418, 886.8358
191.1239, 951.1569
191.6060, 1019.919
192.0881, 1094.821
192.5702, 1175.126
193.0524, 1255.260
193.5345, 1335.717
194.0166, 1414.212
194.4987, 1491.084
194.9808, 1567.529
195.4629, 1624.412
195.9451, 1650.566
196.4272, 1646.701
196.9093, 1624.262
197.3914, 1577.638
197.8735, 1521.822
198.3556, 1482.740
198.8378, 1460.690
199.3199, 1453.726
199.8020, 1459.424
200.2841, 1477.095
200.7662, 1517.159
201.2483, 1581.918
201.7305, 1667.841
202.2126, 1765.214
202.6947, 1872.226
203.1768, 1997.465
203.6589, 2147.187
204.1410, 2320.873
204.6232, 2512.589
205.1053, 2721.282
205.5874, 2947.851
206.0695, 3194.223
206.5516, 3458.887
207.0337, 3747.338
207.5159, 4076.202
207.9980, 4452.623
208.4801, 4813.243
208.9622, 5174.127
209.4443, 5512.626
209.9264, 5721.933
210.4086, 5803.435
210.8907, 5752.194
211.3728, 5549.875
211.8549, 5164.373
212.3370, 4725.853
212.8191, 4224.533
213.3013, 3677.553
213.7834, 3188.724
214.2655, 2756.683
214.7476, 2383.647
215.2297, 2080.556
215.7118, 1857.536
216.1940, 1669.213
216.6761, 1511.694
217.1582, 1383.632
217.6403, 1272.589
218.1224, 1180.968
218.6045, 1104.793
219.0867, 1042.154
219.5688, 998.0376
220.0509, 956.7628
220.5330, 915.6906
221.0151, 874.1843
221.4972, 837.5921
221.9794, 805.6157
222.4615, 778.5143
222.9436, 757.1094
223.4257, 744.9753
223.9078, 730.9953
224.3899, 713.0771
224.8721, 690.8965
225.3542, 665.2769
225.8363, 632.4153
226.3184, 599.5027
226.8005, 575.2184
227.2827, 564.2318
227.7648, 553.2719
228.2469, 538.5450
228.7290, 519.2587
229.2111, 502.9059
229.6932, 490.7602
230.1754, 480.7074
230.6575, 469.5638
231.1396, 455.5727
231.6217, 443.7841
232.1038, 436.0348
232.5859, 433.1858
233.0681, 429.8382
233.5502, 426.1756
234.0323, 421.9052
234.5144, 416.2430
234.9965, 407.6887
235.4786, 400.3705
235.9608, 395.8470
236.4429, 394.9513
236.9250, 393.2232
237.4071, 390.4861
237.8892, 387.0334
238.3713, 383.1666
238.8535, 378.1615
239.3356, 373.9480
239.8177, 371.0898
240.2998, 369.6262
240.7819, 369.4572
241.2640, 371.1110
241.7462, 373.7484
242.2283, 375.8290
242.7104, 376.5698
243.1925, 378.0854
243.6746, 381.7868
244.1567, 389.5951
244.6389, 392.6477
245.1210, 388.5116
245.6031, 381.0812
246.0852, 377.2215
246.5673, 378.0204
247.0494, 380.5391
247.5316, 383.7198
248.0137, 387.2434
248.4958, 392.9050
248.9779, 402.6297
249.4600, 413.3775
249.9421, 418.8127
250.4243, 415.9660
250.9064, 413.1983
251.3885, 413.6754
251.8706, 418.4386
252.3527, 423.0848
252.8348, 427.6758
253.3170, 432.1023
253.7991, 435.9994
254.2812, 438.8187
254.7633, 442.0749
255.2454, 446.3307
255.7275, 451.6326
256.2097, 457.4268
256.6918, 462.8357
257.1739, 469.2680
257.6560, 479.8721
258.1381, 496.4560
258.6202, 513.5706
259.1024, 529.7266
259.5845, 545.0970
260.0666, 557.8091
260.5487, 566.4688
261.0308, 573.5041
261.5129, 583.4807
261.9951, 596.1728
262.4772, 612.1876
262.9593, 632.5256
263.4414, 658.8188
263.9235, 682.5190
264.4056, 703.7221
264.8878, 722.5032
265.3699, 737.7556
265.8520, 746.3348
266.3341, 760.7870
266.8162, 788.2314
267.2983, 831.1424
267.7805, 869.3482
268.2626, 901.1109
268.7447, 929.7393
269.2268, 961.4030
269.7089, 997.3587
270.1910, 1031.737
270.6732, 1063.173
271.1553, 1091.667
271.6374, 1115.665
272.1195, 1135.330
272.6016, 1150.291
273.0837, 1159.702
273.5659, 1163.814
274.0480, 1161.492
274.5301, 1150.837
275.0122, 1131.592
275.4943, 1113.450
275.9764, 1098.499
276.4586, 1080.721
276.9407, 1048.273
277.4228, 999.7393
277.9049, 952.4762
278.3870, 913.2169
278.8691, 881.7661
279.3513, 853.8791
279.8334, 829.7648
280.3155, 808.6790
280.7976, 788.8922
281.2798, 770.4291
281.7619, 756.6906
282.2440, 751.3029
282.7261, 752.7795
283.2082, 748.9955
283.6903, 738.8949
284.1725, 727.4196
284.6546, 720.8362
285.1367, 719.0406
285.6188, 717.7999
286.1009, 715.2026
286.5830, 711.9161
287.0652, 710.5477
287.5473, 711.0427
288.0294, 713.8426
288.5115, 721.9951
288.9936, 734.4620
289.4757, 742.1411
289.9579, 738.3323
290.4400, 728.4927
290.9221, 728.8276
291.4042, 739.9459
291.8863, 753.6408
292.3684, 761.3445
292.8506, 764.3959
293.3327, 768.8949
293.8148, 778.4156
294.2969, 789.6478
294.7790, 794.0862
295.2611, 791.7390
295.7433, 792.0603
296.2254, 807.3678
296.7075, 832.4849
297.1896, 851.8671
297.6717, 857.9120
298.1538, 859.1370
298.6360, 868.2946
299.1181, 884.9966
299.6002, 903.6418
300.0823, 921.2909
300.5644, 937.8532
301.0465, 952.7560
301.5287, 963.2100
302.0108, 975.2402
302.4929, 996.3255
302.9750, 1025.611
303.4571, 1056.974
303.9392, 1087.952
304.4214, 1118.223
304.9035, 1148.039
305.3856, 1176.662
305.8677, 1205.025
306.3498, 1230.233
306.8319, 1254.365
307.3141, 1285.489
307.7962, 1331.671
308.2783, 1385.146
308.7604, 1439.052
309.2425, 1490.377
309.7246, 1543.143
310.2068, 1598.809
310.6889, 1657.976
311.1710, 1722.725
311.6531, 1793.594
312.1352, 1870.810
312.6173, 1953.392
313.0995, 2038.939
313.5816, 2133.667
314.0637, 2244.712
314.5458, 2367.220
315.0279, 2492.834
315.5100, 2610.539
315.9922, 2736.400
316.4743, 2877.573
316.9564, 3034.055
317.4385, 3209.344
317.9206, 3409.546
318.4027, 3628.128
318.8849, 3855.952
319.3670, 4092.472
319.8491, 4336.151
320.3312, 4578.932
320.8133, 4815.111
321.2954, 5088.411
321.7776, 5422.677
322.2597, 5793.974
322.7418, 6176.793
323.2239, 6547.402
323.7060, 6949.246
324.1881, 7397.395
324.6703, 7894.818
325.1524, 8407.718
325.6345, 8919.193
326.1166, 9447.350
326.5987, 10011.50
327.0808, 10633.60
327.5630, 11265.53
328.0451, 11911.73
328.5272, 12570.48
329.0093, 13211.91
329.4914, 13853.10
329.9735, 14447.02
330.4557, 14966.54
330.9378, 15458.37
331.4199, 15795.73
331.9020, 15974.06
332.3841, 15993.10
332.8662, 15849.69
333.3484, 15539.93
333.8305, 15075.68
334.3126, 14437.55
334.7947, 13580.20
335.2768, 12702.57
335.7589, 11792.12
336.2411, 10880.88
336.7232, 10020.15
337.2053, 9213.846
337.6874, 8464.873
338.1695, 7764.613
338.6516, 7117.262
339.1338, 6535.347
339.6159, 6028.942
340.0980, 5580.617
340.5801, 5178.181
341.0622, 4818.738
341.5443, 4488.525
342.0265, 4171.225
342.5086, 3871.974
342.9907, 3615.557
343.4728, 3407.780
343.9549, 3228.655
344.4370, 3059.539
344.9192, 2901.376
345.4013, 2755.629
345.8834, 2629.562
346.3655, 2516.431
346.8476, 2401.958
347.3297, 2286.301
347.8119, 2177.087
348.2940, 2083.757
348.7761, 2003.600
349.2582, 1930.888
349.7403, 1864.248
350.2225, 1801.988
350.7046, 1741.123
351.1867, 1681.446
351.6688, 1625.588
352.1509, 1577.505
352.6331, 1533.757
353.1152, 1488.207
353.5973, 1436.316
354.0794, 1388.308
354.5615, 1356.979
355.0436, 1337.831
355.5258, 1317.182
356.0079, 1283.938
356.4900, 1247.884
356.9721, 1217.784
357.4542, 1196.065
357.9363, 1176.633
358.4185, 1156.623
358.9006, 1136.530
359.3827, 1117.209
359.8648, 1099.095
360.3469, 1081.760
360.8290, 1065.043
361.3112, 1048.884
361.7933, 1033.241
362.2754, 1018.760
362.7575, 1004.410
363.2396, 989.0074
363.7217, 967.3277
364.2039, 949.7316
364.6860, 940.9174
365.1681, 940.9946
365.6502, 938.8433
366.1323, 930.3754
366.6144, 920.9705
367.0966, 914.3193
367.5787, 912.9115
368.0608, 911.4620
368.5429, 910.2544
369.0250, 908.9309
369.5071, 905.4283
369.9893, 896.4347
370.4714, 889.1143
370.9535, 887.4902
371.4356, 895.3760
371.9177, 899.9955
372.3998, 899.1410
372.8820, 895.9902
373.3641, 898.3212
373.8462, 908.6329
374.3283, 917.8610
374.8104, 921.0289
375.2925, 917.1903
375.7747, 919.3823
376.2568, 929.0201
376.7389, 941.9132
377.2210, 951.4691
377.7031, 957.2194
378.1852, 966.4278
378.6674, 982.1245
379.1495, 1003.014
379.6316, 1023.894
380.1137, 1044.335
380.5958, 1067.076
381.0779, 1093.464
381.5601, 1124.090
382.0422, 1159.570
382.5243, 1200.717
383.0064, 1246.944
383.4885, 1296.673
383.9706, 1350.616
384.4528, 1410.456
384.9349, 1477.501
385.4170, 1551.638
385.8991, 1633.390
386.3812, 1722.925
386.8633, 1822.445
387.3455, 1940.691
387.8276, 2070.559
388.3097, 2197.936
388.7918, 2299.512
389.2739, 2404.759
389.7560, 2538.079
390.2382, 2702.414
390.7203, 2881.871
391.2024, 3069.860
391.6845, 3266.750
392.1666, 3475.576
392.6487, 3695.153
393.1309, 3927.736
393.6130, 4170.121
394.0951, 4423.783
394.5772, 4694.767
395.0593, 4989.396
395.5414, 5299.196
396.0236, 5616.184
396.5057, 5948.557
396.9878, 6278.604
397.4699, 6642.025
397.9520, 7005.481
398.4341, 7264.079
398.9163, 7427.942
399.3984, 7475.733
399.8805, 7392.714
400.3626, 7154.538
400.8447, 6853.486
401.3268, 6465.443
401.8090, 6032.607
402.2911, 5597.638
402.7732, 5147.888
403.2553, 4741.104
403.7374, 4400.659
404.2195, 4123.205
404.7017, 3848.169
405.1838, 3572.942
405.6659, 3304.250
406.1480, 3043.075
406.6301, 2787.911
407.1122, 2561.481
407.5944, 2372.169
408.0765, 2208.777
408.5586, 2048.287
409.0407, 1890.126
409.5228, 1741.547
410.0049, 1606.000
410.4871, 1485.140
410.9692, 1383.978
411.4513, 1304.896
411.9334, 1237.124
412.4155, 1167.533
412.8976, 1097.748
413.3798, 1035.064
413.8619, 983.1887
414.3440, 938.5068
414.8261, 896.3498
415.3082, 856.4750
415.7903, 821.8074
416.2725, 796.0473
416.7546, 775.5415
417.2367, 755.7467
417.7188, 737.7641
418.2009, 718.0012
418.6830, 691.6581
419.1652, 661.3068
419.6473, 637.4198
420.1294, 629.5878
420.6115, 624.4141
421.0937, 613.9647
421.5758, 593.5913
422.0579, 576.2066
422.5400, 564.4272
423.0221, 556.3904
423.5042, 548.8208
423.9864, 541.2842
424.4685, 534.6492
424.9506, 529.3051
425.4327, 525.4580
425.9148, 521.1831
426.3969, 516.5547
426.8791, 511.4186
427.3612, 504.8405
427.8433, 494.7773
428.3254, 490.3853
428.8075, 495.6468
429.2896, 506.4277
429.7718, 507.3885
430.2539, 496.8163
430.7360, 485.6411
431.2181, 481.1908
431.7002, 482.8830
432.1823, 481.7067
432.6645, 476.5753
433.1466, 470.7026
433.6287, 468.3862
434.1108, 469.2288
434.5929, 471.4414
435.0750, 476.5682
435.5572, 481.6068
436.0393, 480.7875
436.5214, 474.2783
437.0035, 465.6166
437.4856, 455.3049
437.9677, 445.2947
438.4499, 438.8636
438.9320, 439.1686
439.4141, 439.2769
439.8962, 432.1945
440.3783, 420.8926
440.8604, 412.8221
441.3426, 415.3882
441.8247, 419.1092
442.3068, 418.6736
442.7889, 412.9767
443.2710, 405.6358
443.7531, 394.7881
444.2353, 383.9060
444.7174, 376.6420
445.1995, 376.6884
445.6816, 377.0381
446.1637, 377.1120
446.6458, 376.8032
447.1280, 374.5594
447.6101, 366.8145
448.0922, 361.0673
448.5743, 362.9072
449.0564, 378.8172
449.5385, 384.2384
450.0207, 374.8882
450.5028, 358.1438
450.9849, 347.0351
451.4670, 341.7913
451.9491, 341.7336
452.4312, 349.5120
452.9134, 363.3370
453.3955, 368.7439
453.8776, 365.0388
454.3597, 357.8943
454.8418, 351.6671
455.3239, 346.4052
455.8061, 342.6349
456.2882, 340.6575
456.7703, 339.8572
457.2524, 340.3590
457.7345, 341.6048
458.2166, 341.2961
458.6988, 336.2318
459.1809, 329.8120
459.6630, 325.5545
460.1451, 323.8027
460.6272, 324.0469
461.1093, 327.7308
461.5915, 332.6748
462.0736, 336.0934
462.5557, 338.3905
463.0378, 337.7214
463.5199, 331.2655
464.0020, 320.0891
464.4842, 311.7891
464.9663, 310.7924
465.4484, 311.0467
465.9305, 309.2340
466.4126, 302.8351
466.8947, 298.5408
467.3769, 296.9677
467.8590, 297.2292
468.3411, 298.1106
468.8232, 300.4072
469.3053, 301.6592
469.7874, 300.7740
470.2696, 297.9335
470.7517, 296.7546
471.2338, 297.7067
471.7159, 298.8804
472.1980, 298.0402
472.6801, 295.2739
473.1623, 294.9787
473.6444, 298.8346
474.1265, 303.3343
474.6086, 300.9881
475.0907, 292.9420
475.5728, 286.6079
476.0550, 287.6266
476.5371, 292.2602
477.0192, 294.6205
477.5013, 294.5112
477.9834, 293.3486
478.4655, 291.2559
478.9477, 289.0612
479.4298, 287.8889
479.9119, 288.4493
480.3940, 289.6078
480.8761, 291.4850
481.3582, 293.5932
481.8404, 294.4948
482.3225, 292.9164
482.8046, 290.6865
483.2867, 288.3899
483.7688, 285.7418
484.2509, 284.2006
484.7331, 285.1893
485.2152, 286.6729
485.6973, 286.6884
486.1794, 284.0294
486.6615, 281.9704
487.1436, 281.0961
487.6258, 281.1674
488.1079, 281.3763
488.5900, 282.2716
489.0721, 281.7612
489.5542, 277.4212
490.0363, 269.1673
490.5185, 265.4162
491.0006, 267.2254
491.4827, 270.8329
491.9648, 271.2272
492.4470, 268.9802
492.9291, 267.1109
493.4112, 266.2801
493.8933, 266.7353
494.3754, 270.3654
494.8575, 276.4710
495.3397, 280.4370
495.8218, 278.2422
496.3039, 272.8260
496.7860, 266.4225
497.2681, 258.1119
497.7502, 253.4634
498.2324, 258.6967
498.7145, 268.4094
499.1966, 275.3575
499.6787, 275.7935
500.1608, 274.7061
500.6429, 272.7002
501.1251, 269.9713
501.6072, 268.8376
502.0893, 270.9776
502.5714, 273.3826
503.0535, 274.6160
503.5356, 274.0538
504.0178, 273.8456
504.4999, 274.2579
504.9820, 274.7819
505.4641, 274.2807
505.9462, 272.2978
506.4283, 271.7802
506.9105, 274.2422
507.3926, 278.6685
507.8747, 280.9180
508.3568, 280.9151
508.8389, 280.1843
509.3210, 279.3908
509.8032, 278.7479
510.2853, 279.4148
510.7674, 282.1083
511.2495, 283.6494
511.7316, 279.2933
512.2137, 271.4297
512.6959, 264.9954
513.1780, 261.8419
513.6601, 260.9074
514.1422, 262.1151
514.6243, 265.2228
515.1064, 268.6869
515.5886, 273.5920
516.0707, 277.4936
516.5528, 278.4789
517.0349, 273.9307
517.5170, 271.4737
517.9991, 273.4931
518.4813, 277.3546
518.9634, 279.7867
519.4455, 280.1833
519.9276, 280.1700
520.4097, 279.9642
520.8918, 279.5953
521.3740, 278.9362
521.8561, 277.5627
522.3382, 277.3049
522.8203, 280.6388
523.3024, 287.1499
523.7845, 289.7561
524.2667, 287.5794
524.7488, 283.3468
525.2309, 279.9985
525.7130, 277.2971
526.1951, 274.3500
526.6772, 269.4015
527.1594, 265.3912
527.6415, 267.4253
528.1236, 274.0677
528.6057, 279.0510
529.0878, 276.8579
529.5699, 272.8673
530.0521, 271.2301
530.5342, 272.9645
531.0163, 274.7740
531.4984, 276.5811
531.9805, 277.5261
532.4626, 276.7122
532.9448, 270.8346
533.4269, 267.0363
533.9090, 266.8121
534.3911, 269.3214
534.8732, 271.5032
535.3553, 273.9363
535.8375, 274.9459
536.3196, 273.0133
536.8017, 267.8392
537.2838, 266.1056
537.7659, 268.6407
538.2480, 271.8336
538.7302, 271.4760
539.2123, 268.0668
539.6944, 264.9454
540.1765, 262.5829
540.6586, 261.2814
541.1407, 261.6152
541.6229, 263.3878
542.1050, 265.8761
542.5871, 270.3878
543.0692, 274.3366
543.5513, 274.5625
544.0334, 270.9443
544.5156, 267.9804
544.9977, 267.1552
545.4798, 268.2090
545.9619, 271.1920
546.4440, 279.6308
546.9261, 284.7560
547.4083, 283.1349
547.8904, 277.8681
548.3725, 274.5060
548.8546, 273.4831
549.3367, 273.6590
549.8188, 275.1594
550.3010, 277.8154
550.7831, 279.6682
551.2652, 280.6593
551.7473, 281.0428
552.2294, 280.1500
552.7115, 278.3152
553.1937, 279.7426
553.6758, 285.4992
554.1579, 291.4654
554.6400, 292.2609
555.1221, 289.0883
555.6042, 285.2366
556.0864, 279.9697
556.5685, 276.4224
557.0506, 279.4343
557.5327, 287.2560
558.0148, 293.3425
558.4969, 294.3954
558.9791, 292.8081
559.4612, 288.7201
559.9433, 280.8845
560.4254, 277.3347
560.9075, 282.8224
561.3896, 291.4238
561.8718, 298.0551
562.3539, 302.8859
562.8360, 305.2320
563.3181, 303.7364
563.8002, 300.3256
564.2823, 300.4868
564.7645, 305.5677
565.2466, 308.0035
565.7287, 303.1833
566.2108, 293.1420
566.6929, 287.9850
567.1750, 287.8546
567.6572, 290.3423
568.1393, 295.3741
568.6214, 301.2545
569.1035, 304.0240
569.5856, 302.5086
570.0677, 300.2638
570.5499, 300.5007
571.0320, 301.8969
571.5141, 302.3603
571.9962, 299.0619
572.4783, 296.7377
572.9604, 298.8565
573.4426, 304.1964
573.9247, 306.4259
574.4068, 300.6816
574.8889, 295.1469
575.3710, 293.4122
575.8531, 296.6792
576.3353, 297.3198
576.8174, 294.1254
577.2995, 290.0879
577.7816, 287.6701
578.2637, 286.8598
578.7458, 288.3536
579.2280, 292.8773
579.7101, 298.6025
580.1922, 303.0701
580.6743, 306.1191
581.1564, 306.8414
581.6385, 302.4392
582.1207, 296.7434
582.6028, 294.9422
583.0849, 296.7214
583.5670, 299.4729
584.0491, 303.9663
584.5313, 307.3454
585.0134, 306.4127
585.4955, 298.4116
585.9776, 293.6274
586.4597, 297.3082
586.9418, 304.4820
587.4240, 309.5147
587.9061, 311.4838
588.3882, 312.5334
588.8703, 312.9541
589.3524, 312.5844
589.8345, 310.3938
590.3167, 305.5392
590.7988, 302.1254
591.2809, 302.4369
591.7630, 305.7493
592.2451, 308.6288
592.7272, 311.0799
593.2094, 312.9845
593.6915, 314.0338
594.1736, 314.5091
594.6557, 314.8318
595.1378, 314.9512
595.6199, 315.4059
596.1021, 318.1490
596.5842, 321.0717
597.0663, 321.1652
597.5485, 313.4180
598.0306, 306.9162
598.5127, 305.0309
598.9948, 306.9265
599.4769, 308.8068
599.9590, 310.2486
600.4412, 311.8727
600.9233, 314.1429
601.4054, 317.2039
601.8875, 318.6731
602.3696, 318.1552
602.8517, 316.9834
603.3339, 315.8964
603.8160, 314.9560
604.2981, 315.4673
604.7802, 317.8687
605.2623, 320.6918
605.7444, 321.6411
606.2266, 321.4528
606.7087, 322.1608
607.1908, 326.7460
607.6729, 330.2178
608.1550, 326.8636
608.6371, 318.8145
609.1193, 312.8818
