##NAMES=Scheelite
##RRUFFID=R150130
##IDEAL CHEMISTRY=CaW^6+^O_4_
##LOCALITY=Tsumeb mine, Tsumeb, Otjikoto Region, Namibia
##OWNER=RRUFF
##SOURCE=Mark N. Feinglos
##DESCRIPTION=Golden brown pseudo-octahedral crystals, associated with yellow disc-like siderite.
##STATUS=The identification of this mineral has been confirmed by single-crystal X-ray diffraction.
##URL=rruff.info/R150130
89.78320, 194.0148
90.26532, 195.2722
90.74744, 195.7531
91.22955, 195.4227
91.71167, 194.6064
92.19379, 193.3516
92.67590, 191.8086
93.15802, 190.1033
93.64014, 188.1282
94.12225, 186.0809
94.60437, 184.5088
95.08649, 183.7949
95.56860, 183.4449
96.05072, 182.4304
96.53284, 180.8974
97.01495, 179.1412
97.49707, 177.2516
97.97919, 175.2180
98.46130, 173.4631
98.94342, 172.1221
99.42554, 171.1623
99.90765, 170.3460
100.3898, 169.6949
100.8719, 169.1174
101.3540, 168.3699
101.8361, 167.2724
102.3182, 166.5985
102.8004, 166.6475
103.2825, 167.4978
103.7646, 168.6103
104.2467, 169.8620
104.7288, 171.4060
105.2109, 173.5729
105.6931, 176.2149
106.1752, 179.6368
106.6573, 184.0354
107.1394, 189.7216
107.6215, 195.7339
108.1036, 201.9678
108.5858, 208.4610
109.0679, 215.4277
109.5500, 222.9237
110.0321, 230.8578
110.5142, 239.1215
110.9963, 248.4627
111.4785, 257.3318
111.9606, 265.5902
112.4427, 273.2594
112.9248, 280.3119
113.4069, 288.1225
113.8890, 294.6971
114.3712, 298.5121
114.8533, 298.8094
115.3354, 296.7668
115.8175, 292.4658
116.2996, 285.7896
116.7817, 278.0935
117.2639, 268.6303
117.7460, 258.6642
118.2281, 249.8023
118.7102, 242.7702
119.1923, 236.8657
119.6744, 231.6151
120.1566, 226.8102
120.6387, 223.2758
121.1208, 221.9664
121.6029, 222.3133
122.0850, 223.2068
122.5671, 224.0989
123.0493, 225.2383
123.5314, 226.9459
124.0135, 229.3996
124.4956, 232.1020
124.9777, 235.0008
125.4598, 237.8835
125.9420, 239.8957
126.4241, 239.9721
126.9062, 238.8498
127.3883, 237.9086
127.8704, 237.5670
128.3525, 237.3479
128.8347, 236.5989
129.3168, 235.3194
129.7989, 233.6322
130.2810, 232.0635
130.7631, 230.3075
131.2452, 226.9991
131.7274, 221.5558
132.2095, 214.4575
132.6916, 206.8850
133.1737, 198.7642
133.6558, 190.2710
134.1379, 181.2505
134.6201, 171.7104
135.1022, 162.0040
135.5843, 151.9474
136.0664, 141.7229
136.5485, 133.1399
137.0306, 126.3014
137.5128, 120.7894
137.9949, 115.9009
138.4770, 111.5683
138.9591, 108.1477
139.4412, 105.8626
139.9233, 104.8032
140.4055, 103.9341
140.8876, 103.3248
141.3697, 102.8280
141.8518, 102.1882
142.3339, 101.3485
142.8160, 100.5011
143.2982, 99.77168
143.7803, 99.33383
144.2624, 98.45310
144.7445, 96.96427
145.2266, 95.08009
145.7087, 93.36279
146.1909, 91.89772
146.6730, 90.45679
147.1551, 88.91191
147.6372, 87.03374
148.1193, 85.47324
148.6014, 84.40565
149.0836, 83.68190
149.5657, 82.73445
150.0478, 81.23394
150.5299, 79.79630
151.0120, 78.68184
151.4941, 78.07541
151.9763, 77.58245
152.4584, 77.26503
152.9405, 77.08110
153.4226, 76.81304
153.9047, 76.33118
154.3868, 75.83372
154.8690, 75.42848
155.3511, 75.34740
155.8332, 75.12471
156.3153, 74.61089
156.7974, 73.84470
157.2795, 73.14267
157.7617, 72.45287
158.2438, 71.91602
158.7259, 71.63387
159.2080, 71.88046
159.6901, 72.14658
160.1722, 72.33656
160.6544, 72.44299
161.1365, 72.38201
161.6186, 71.90788
162.1007, 71.34348
162.5828, 70.97554
163.0649, 71.01897
163.5471, 71.18051
164.0292, 71.34964
164.5113, 71.52147
164.9934, 71.68689
165.4755, 71.92363
165.9576, 72.12964
166.4398, 72.17709
166.9219, 71.75082
167.4040, 71.33665
167.8861, 71.30518
168.3682, 71.68990
168.8503, 72.13342
169.3325, 72.35905
169.8146, 72.49866
170.2967, 72.76101
170.7788, 73.30629
171.2609, 73.98170
171.7430, 74.71856
172.2252, 75.54240
172.7073, 76.19393
173.1894, 76.22551
173.6715, 75.91249
174.1536, 75.86744
174.6357, 76.50974
175.1179, 77.52782
175.6000, 78.61784
176.0821, 79.77519
176.5642, 80.83565
177.0463, 81.56233
177.5284, 82.04128
178.0106, 82.52486
178.4927, 83.09643
178.9748, 83.77488
179.4569, 84.58530
179.9390, 85.54527
180.4211, 86.60902
180.9033, 87.76218
181.3854, 89.00093
181.8675, 90.27007
182.3496, 91.57924
182.8317, 92.89425
183.3138, 94.17956
183.7960, 95.39205
184.2781, 96.64986
184.7602, 98.04943
185.2423, 99.60947
185.7244, 101.3726
186.2065, 103.3538
186.6887, 105.5665
187.1708, 108.1298
187.6529, 111.1048
188.1350, 114.3162
188.6171, 117.2847
189.0992, 120.0497
189.5814, 123.1318
190.0635, 127.0949
190.5456, 131.8322
191.0277, 136.1744
191.5098, 139.9152
191.9919, 143.3718
192.4741, 147.2352
192.9562, 151.5210
193.4383, 155.5567
193.9204, 158.7883
194.4025, 161.2493
194.8846, 163.5223
195.3668, 165.6721
195.8489, 167.6712
196.3310, 169.4366
196.8131, 170.9560
197.2952, 172.3241
197.7773, 173.5300
198.2595, 174.5587
198.7416, 175.7476
199.2237, 177.0200
199.7058, 178.5545
200.1879, 180.7967
200.6700, 183.7733
201.1522, 187.4471
201.6343, 191.8310
202.1164, 196.9407
202.5985, 202.6639
203.0806, 208.9964
203.5627, 215.8742
204.0449, 223.0050
204.5270, 230.3595
205.0091, 238.0600
205.4912, 246.4307
205.9733, 255.7002
206.4554, 264.3405
206.9376, 272.4537
207.4197, 279.7097
207.9018, 285.2554
208.3839, 289.2134
208.8660, 291.1509
209.3481, 290.9444
209.8303, 288.8149
210.3124, 283.4479
210.7945, 273.9762
211.2766, 261.3050
211.7587, 248.6812
212.2408, 236.1239
212.7230, 223.5091
213.2051, 210.3896
213.6872, 196.2752
214.1693, 183.2703
214.6514, 171.6939
215.1335, 161.4078
215.6157, 152.3511
216.0978, 144.5603
216.5799, 137.7836
217.0620, 131.8479
217.5441, 126.8607
218.0262, 122.3745
218.5084, 118.3424
218.9905, 114.7291
219.4726, 111.5904
219.9547, 109.0117
220.4368, 106.6772
220.9189, 104.4016
221.4011, 102.0922
221.8832, 100.0636
222.3653, 98.44041
222.8474, 97.12088
223.3295, 95.52222
223.8116, 93.48428
224.2938, 91.47744
224.7759, 89.78567
225.2580, 88.48689
225.7401, 87.35164
226.2222, 86.38407
226.7043, 85.56585
227.1865, 84.79005
227.6686, 84.10966
228.1507, 83.41422
228.6328, 82.61939
229.1149, 81.59496
229.5970, 80.79607
230.0792, 80.36297
230.5613, 80.17687
231.0434, 79.73631
231.5255, 78.76306
232.0076, 77.95350
232.4897, 77.78590
232.9719, 78.79667
233.4540, 79.21610
233.9361, 78.73331
234.4182, 77.63000
234.9003, 76.87762
235.3824, 76.56052
235.8646, 76.47324
236.3467, 76.55788
236.8288, 76.98653
237.3109, 77.18884
237.7930, 77.04652
238.2751, 76.68298
238.7573, 76.48643
239.2394, 76.55122
239.7215, 76.64361
240.2036, 76.63305
240.6857, 76.36710
241.1678, 76.35462
241.6500, 76.70836
242.1321, 77.28210
242.6142, 77.69936
243.0963, 77.83748
243.5784, 77.99744
244.0605, 78.33939
244.5427, 79.04134
245.0248, 79.44872
245.5069, 79.37215
245.9890, 79.07841
246.4711, 79.18794
246.9532, 79.97200
247.4354, 80.71337
247.9175, 81.07902
248.3996, 80.85487
248.8817, 80.97741
249.3638, 81.58805
249.8459, 82.46680
250.3281, 83.21717
250.8102, 83.82119
251.2923, 84.33207
251.7744, 84.76389
252.2565, 85.09860
252.7386, 85.40040
253.2208, 85.59057
253.7029, 85.80599
254.1850, 86.27061
254.6671, 87.04066
255.1492, 87.95920
255.6313, 89.04057
256.1135, 90.34383
256.5956, 91.34760
257.0777, 91.88042
257.5598, 92.26363
258.0419, 92.93301
258.5240, 93.96786
259.0062, 95.09476
259.4883, 96.29688
259.9704, 97.56965
260.4525, 98.64987
260.9346, 99.45783
261.4167, 100.1569
261.8989, 100.9272
262.3810, 101.7763
262.8631, 102.6634
263.3452, 103.5721
263.8273, 104.5158
264.3094, 105.4870
264.7916, 106.5083
265.2737, 107.5502
265.7558, 108.5920
266.2379, 109.6095
266.7200, 110.7193
267.2021, 112.1026
267.6843, 113.6665
268.1664, 114.4407
268.6485, 114.1185
269.1306, 113.6401
269.6127, 113.9434
270.0948, 115.3136
270.5770, 116.1522
271.0591, 116.0868
271.5412, 115.2895
272.0233, 114.5361
272.5054, 113.8182
272.9875, 113.1958
273.4697, 112.7859
273.9518, 112.6475
274.4339, 112.2758
274.9160, 111.5275
275.3981, 110.5607
275.8802, 109.8856
276.3624, 109.5931
276.8445, 109.2787
277.3266, 108.6068
277.8087, 107.5377
278.2908, 106.7307
278.7729, 106.2816
279.2551, 106.0742
279.7372, 105.8591
280.2193, 105.6250
280.7014, 105.4567
281.1835, 105.3855
281.6656, 105.4120
282.1478, 105.5544
282.6299, 105.8075
283.1120, 106.1883
283.5941, 106.8218
284.0762, 107.7300
284.5583, 108.4890
285.0405, 108.8066
285.5226, 108.7447
286.0047, 108.9005
286.4868, 109.3151
286.9689, 109.8213
287.4510, 110.1115
287.9332, 110.2060
288.4153, 110.5356
288.8974, 111.3395
289.3795, 112.5110
289.8616, 113.6297
290.3438, 114.6829
290.8259, 115.7673
291.3080, 117.0585
291.7901, 118.5015
292.2722, 119.8324
292.7543, 120.8652
293.2365, 121.7613
293.7186, 122.8668
294.2007, 124.1725
294.6828, 125.6639
295.1649, 127.3758
295.6470, 129.2612
296.1292, 131.2348
296.6113, 133.2820
297.0934, 135.3668
297.5755, 137.3812
298.0576, 139.3574
298.5397, 141.5159
299.0219, 144.0831
299.5040, 146.9783
299.9861, 150.0054
300.4682, 153.1523
300.9503, 156.3621
301.4324, 159.5391
301.9146, 162.7077
302.3967, 166.1065
302.8788, 169.9289
303.3609, 174.0380
303.8430, 178.0293
304.3251, 181.6846
304.8073, 185.8343
305.2894, 191.4382
305.7715, 198.1568
306.2536, 205.3276
306.7357, 212.7961
307.2178, 220.3927
307.7000, 227.6500
308.1821, 234.4465
308.6642, 241.7465
309.1463, 250.0682
309.6284, 259.3444
310.1105, 269.6119
310.5927, 280.7439
311.0748, 292.8189
311.5569, 306.1318
312.0390, 320.6887
312.5211, 335.9459
313.0032, 351.7294
313.4854, 368.1842
313.9675, 385.2596
314.4496, 402.9288
314.9317, 421.1758
315.4138, 440.1039
315.8959, 459.6801
316.3781, 480.2236
316.8602, 502.3257
317.3423, 524.9776
317.8244, 547.3358
318.3065, 568.5248
318.7886, 590.3566
319.2708, 613.2740
319.7529, 637.1533
320.2350, 661.7481
320.7171, 685.9347
321.1992, 711.3152
321.6813, 738.5662
322.1635, 767.7044
322.6456, 798.8513
323.1277, 832.3641
323.6098, 867.8339
324.0919, 904.7372
324.5740, 942.8040
325.0562, 981.9826
325.5383, 1022.600
326.0204, 1065.240
326.5025, 1106.932
326.9846, 1148.331
327.4667, 1188.254
327.9489, 1226.003
328.4310, 1265.662
328.9131, 1298.738
329.3952, 1324.680
329.8773, 1343.534
330.3594, 1354.187
330.8416, 1357.805
331.3237, 1352.206
331.8058, 1335.590
332.2879, 1305.252
332.7700, 1268.001
333.2521, 1222.693
333.7343, 1170.396
334.2164, 1115.811
334.6985, 1058.740
335.1806, 1000.613
335.6627, 941.4230
336.1448, 880.1480
336.6270, 822.4150
337.1091, 768.6295
337.5912, 718.9350
338.0733, 672.9787
338.5554, 631.4178
339.0375, 592.8973
339.5197, 556.7666
340.0018, 523.2896
340.4839, 492.9135
340.9660, 466.3694
341.4481, 442.5581
341.9302, 420.9074
342.4124, 401.2632
342.8945, 383.4329
343.3766, 367.4289
343.8587, 353.1313
344.3408, 339.0573
344.8229, 325.1378
345.3051, 312.4301
345.7872, 302.2929
346.2693, 294.4688
346.7514, 286.9232
347.2335, 279.2879
347.7156, 271.7777
348.1978, 264.9516
348.6799, 258.7964
349.1620, 253.1278
349.6441, 247.7530
350.1262, 242.7796
350.6083, 238.5549
351.0905, 235.1680
351.5726, 232.1991
352.0547, 229.0411
352.5368, 225.8586
353.0189, 223.1526
353.5010, 221.4055
353.9832, 220.1628
354.4653, 218.9065
354.9474, 217.5999
355.4295, 216.3464
355.9116, 214.9002
356.3937, 213.6168
356.8759, 213.0500
357.3580, 214.1525
357.8401, 215.4016
358.3222, 215.5173
358.8043, 214.7137
359.2864, 214.2632
359.7686, 214.9956
360.2507, 216.2958
360.7328, 217.6026
361.2149, 218.5736
361.6970, 219.9151
362.1791, 222.1553
362.6613, 224.9780
363.1434, 227.6582
363.6255, 229.9308
364.1076, 232.0324
364.5897, 233.9435
365.0718, 235.3835
365.5540, 237.4772
366.0361, 240.6089
366.5182, 244.4326
367.0003, 248.5339
367.4824, 253.2824
367.9645, 257.8800
368.4467, 262.3795
368.9288, 266.7374
369.4109, 270.2070
369.8930, 271.7763
370.3751, 273.2455
370.8572, 275.8683
371.3394, 280.3874
371.8215, 284.7660
372.3036, 288.8209
372.7857, 292.6356
373.2678, 296.5773
373.7499, 300.7997
374.2321, 304.9346
374.7142, 308.8427
375.1963, 312.6391
375.6784, 315.7701
376.1605, 318.0768
376.6426, 319.8857
377.1248, 321.5416
377.6069, 323.0175
378.0890, 324.5986
378.5711, 326.3756
379.0532, 328.3424
379.5353, 330.4177
380.0175, 332.6817
380.4996, 334.7506
380.9817, 336.1408
381.4638, 336.9300
381.9459, 337.8128
382.4280, 338.9301
382.9102, 340.1982
383.3923, 341.3500
383.8744, 342.4246
384.3565, 343.7473
384.8386, 345.5334
385.3207, 347.7080
385.8029, 349.9780
386.2850, 352.2710
386.7671, 355.0102
387.2492, 358.8145
387.7313, 363.4250
388.2134, 368.1852
388.6956, 372.2764
389.1777, 376.6561
389.6598, 382.2470
390.1419, 389.0233
390.6240, 396.5223
391.1061, 405.0344
391.5883, 413.9640
392.0704, 422.7211
392.5525, 431.0809
393.0346, 439.3194
393.5167, 447.9091
393.9988, 456.6139
394.4810, 464.8689
394.9631, 473.1725
395.4452, 480.4424
395.9273, 486.3248
396.4094, 491.0863
396.8915, 493.4656
397.3737, 493.8217
397.8558, 491.4672
398.3379, 485.5555
398.8200, 473.9975
399.3021, 460.9547
399.7842, 447.0824
400.2664, 432.3869
400.7485, 416.4774
401.2306, 398.3483
401.7127, 380.1751
402.1948, 363.3671
402.6769, 348.2679
403.1591, 333.7982
403.6412, 319.8322
404.1233, 306.5289
404.6054, 293.8859
405.0875, 282.0174
405.5696, 270.8520
406.0518, 260.5273
406.5339, 251.0703
407.0160, 241.4767
407.4981, 231.6889
407.9802, 222.2057
408.4623, 213.6403
408.9445, 205.9576
409.4266, 198.9001
409.9087, 192.4366
410.3908, 186.5320
410.8729, 181.1908
411.3550, 176.3925
411.8372, 172.1204
412.3193, 168.3624
412.8014, 165.0772
413.2835, 162.1696
413.7656, 159.6386
414.2477, 157.3447
414.7299, 154.9712
415.2120, 152.7110
415.6941, 151.0946
416.1762, 150.8582
416.6583, 151.0310
417.1404, 150.6123
417.6226, 149.6096
418.1047, 148.9065
418.5868, 149.1924
419.0689, 149.9312
419.5510, 150.6186
420.0331, 151.0574
420.5153, 151.5036
420.9974, 151.8465
421.4795, 152.2511
421.9616, 153.1274
422.4437, 155.3409
422.9258, 157.4139
423.4080, 158.6233
423.8901, 158.6305
424.3722, 158.8957
424.8543, 159.5462
425.3364, 160.5053
425.8185, 161.7100
426.3007, 163.4056
426.7828, 165.0061
427.2649, 166.3458
427.7470, 167.4885
428.2291, 168.9258
428.7112, 170.7676
429.1934, 172.6922
429.6755, 174.5548
430.1576, 176.3208
430.6397, 178.1040
431.1218, 179.8276
431.6039, 181.6849
432.0861, 184.0048
432.5682, 186.7988
433.0503, 189.9516
433.5324, 193.6272
434.0145, 197.6160
434.4966, 201.0372
434.9788, 203.8694
435.4609, 206.8268
435.9430, 210.8132
436.4251, 215.4492
436.9072, 219.6190
437.3893, 223.0796
437.8715, 226.2173
438.3536, 229.7519
438.8357, 233.3645
439.3178, 236.1642
439.7999, 237.4976
440.2820, 237.9311
440.7642, 237.9623
441.2463, 237.6181
441.7284, 236.6704
442.2105, 234.9728
442.6926, 232.6129
443.1747, 229.6570
443.6569, 225.6322
444.1390, 221.5848
444.6211, 217.9456
445.1032, 214.5432
445.5853, 210.9989
446.0674, 206.8675
446.5496, 202.8848
447.0317, 199.3374
447.5138, 196.3058
447.9959, 193.4557
448.4780, 190.6254
448.9601, 188.0784
449.4423, 186.0296
449.9244, 184.5394
450.4065, 183.4767
450.8886, 182.8680
451.3707, 182.6736
451.8528, 182.7388
452.3350, 183.1138
452.8171, 183.5962
453.2992, 184.1976
453.7813, 184.9230
454.2634, 185.1867
454.7455, 184.9182
455.2277, 184.3670
455.7098, 183.8183
456.1919, 183.2650
456.6740, 182.6488
457.1561, 182.0691
457.6382, 181.3282
458.1204, 180.0994
458.6025, 178.3940
459.0846, 176.3750
459.5667, 173.8286
460.0488, 171.1422
460.5309, 168.9321
461.0131, 167.4397
461.4952, 165.7333
461.9773, 162.9849
462.4594, 159.6756
462.9415, 156.4675
463.4236, 153.7337
463.9058, 151.0829
464.3879, 148.2346
464.8700, 145.2614
465.3521, 142.5337
465.8342, 140.6475
466.3163, 138.6326
466.7985, 135.8891
467.2806, 131.7387
467.7627, 128.0329
468.2448, 124.9112
468.7269, 122.2361
469.2090, 119.8027
469.6912, 117.7160
470.1733, 115.6345
470.6554, 113.4790
471.1375, 111.2582
471.6196, 108.9844
472.1017, 106.5281
472.5839, 104.3749
473.0660, 102.9483
473.5481, 102.2637
474.0302, 101.3603
474.5123, 100.1031
474.9944, 98.78138
475.4766, 97.91344
475.9587, 97.41987
476.4408, 96.76534
476.9229, 95.46440
477.4050, 94.04806
477.8871, 93.43804
478.3693, 93.58482
478.8514, 94.03396
479.3335, 94.84696
479.8156, 95.62193
480.2977, 95.75194
480.7798, 94.90950
481.2620, 94.18569
481.7441, 94.37460
482.2262, 95.04813
482.7083, 95.57528
483.1904, 95.47318
483.6725, 95.45385
484.1547, 95.91623
484.6368, 96.80900
485.1189, 97.39355
485.6010, 97.38643
486.0831, 97.18205
486.5652, 96.96703
487.0474, 96.69225
487.5295, 96.51511
488.0116, 96.49775
488.4937, 96.53383
488.9758, 96.50733
489.4579, 96.47499
489.9401, 96.17658
490.4222, 95.42336
490.9043, 94.37173
491.3864, 93.77665
491.8685, 93.69341
492.3506, 93.67478
492.8328, 93.44776
493.3149, 93.03391
493.7970, 92.50724
494.2791, 91.86235
494.7612, 91.15486
495.2433, 90.32254
495.7255, 89.46571
496.2076, 88.84242
496.6897, 88.75114
497.1718, 88.73450
497.6539, 88.31044
498.1360, 87.57317
498.6182, 86.87442
499.1003, 86.48599
499.5824, 86.14542
500.0645, 85.63331
500.5466, 84.84035
501.0287, 84.22733
501.5109, 84.09097
501.9930, 84.12306
502.4751, 84.01801
502.9572, 83.61816
503.4393, 83.21923
503.9214, 82.85207
504.4036, 82.51188
504.8857, 82.17414
505.3678, 81.84597
505.8499, 81.49778
506.3320, 81.06226
506.8141, 80.51411
507.2963, 80.35056
507.7784, 80.72056
508.2605, 81.07345
508.7426, 80.65922
509.2247, 79.55185
509.7068, 78.93874
510.1890, 79.16923
510.6711, 79.74460
511.1532, 79.77577
511.6353, 79.37727
512.1174, 79.10058
512.5995, 79.49023
513.0817, 80.01786
513.5638, 79.97702
514.0459, 79.37601
514.5280, 78.73721
515.0101, 78.32629
515.4922, 78.06569
515.9744, 77.90354
516.4565, 77.89644
516.9386, 77.84910
517.4207, 77.66654
517.9028, 77.41051
518.3849, 77.18180
518.8671, 76.92166
519.3492, 76.77497
519.8313, 76.84267
520.3134, 77.09953
520.7955, 77.14751
521.2776, 76.78876
521.7598, 76.51188
522.2419, 76.67176
522.7240, 77.41359
523.2061, 77.79628
523.6882, 77.74346
524.1703, 77.46418
524.6525, 77.17207
525.1346, 76.87269
525.6167, 76.67840
526.0988, 76.63551
526.5809, 76.70026
527.0630, 76.92664
527.5452, 77.25112
528.0273, 77.31792
528.5094, 76.53954
528.9915, 75.58875
529.4736, 75.31725
529.9557, 75.80782
530.4379, 76.31007
530.9200, 76.35909
531.4021, 76.20695
531.8842, 76.10273
532.3663, 76.15090
532.8484, 76.18624
533.3306, 76.18777
533.8127, 76.14635
534.2948, 76.04073
534.7769, 75.70418
535.2590, 75.49570
535.7411, 75.54511
536.2233, 75.84223
536.7054, 76.01505
537.1875, 75.98765
537.6696, 75.98312
538.1517, 76.22887
538.6339, 76.76618
539.1160, 76.91801
539.5981, 76.55168
540.0802, 76.06886
540.5623, 75.97698
541.0444, 76.23706
541.5266, 76.64594
542.0087, 77.26040
542.4908, 77.85072
542.9729, 78.01221
543.4550, 77.82878
543.9371, 77.64440
544.4193, 77.53149
544.9014, 77.57911
545.3835, 77.95838
545.8656, 78.70438
546.3477, 79.30814
546.8298, 79.49379
547.3120, 79.49174
547.7941, 79.48721
548.2762, 79.41830
548.7583, 79.47714
549.2404, 79.84554
549.7225, 80.29937
550.2047, 80.40203
550.6868, 79.78823
551.1689, 79.55176
551.6510, 80.10664
552.1331, 81.29383
552.6152, 82.04897
553.0974, 82.32459
553.5795, 82.40995
554.0616, 82.47806
554.5437, 82.51868
555.0258, 82.44788
555.5079, 82.25049
555.9901, 82.02319
556.4722, 81.74948
556.9543, 81.53031
557.4364, 81.59842
557.9185, 82.14438
558.4006, 82.79725
558.8828, 83.40229
559.3649, 83.88967
559.8470, 84.11410
560.3291, 83.67024
560.8112, 83.25993
561.2933, 83.21955
561.7755, 83.56509
562.2576, 83.92609
562.7397, 84.36943
563.2218, 84.71237
563.7039, 84.85014
564.1860, 84.68313
564.6682, 84.55209
565.1503, 84.40349
565.6324, 84.35847
566.1145, 84.64075
566.5966, 85.30202
567.0787, 85.84633
567.5609, 86.17834
568.0430, 86.32483
568.5251, 86.17892
569.0072, 85.80167
569.4893, 85.68421
569.9714, 86.41569
570.4536, 87.41898
570.9357, 87.80978
571.4178, 87.60275
571.8999, 87.33192
572.3820, 87.28286
572.8641, 87.35719
573.3463, 87.45177
573.8284, 87.49241
574.3105, 87.70580
574.7926, 88.28393
575.2747, 89.02615
575.7568, 89.67691
576.2390, 90.12333
576.7211, 90.61817
577.2032, 91.27812
577.6853, 92.00142
578.1674, 92.37685
578.6495, 92.28355
579.1317, 92.19534
579.6138, 92.29208
580.0959, 92.56345
580.5780, 92.97021
581.0601, 93.53252
581.5422, 94.05184
582.0244, 94.24167
582.5065, 94.27238
582.9886, 94.62156
583.4707, 95.41602
583.9528, 96.20914
584.4349, 96.65852
584.9171, 96.83523
585.3992, 96.83757
585.8813, 96.23171
586.3634, 95.96616
586.8455, 96.83921
