##NAMES=Scheelite
##RRUFFID=R040173
##IDEAL CHEMISTRY=CaW^6+^O_4_
##LOCALITY=Santa Cruz, Sonora, Mexico
##OWNER=RRUFF
##SOURCE=University of Arizona Mineral Museum
##DESCRIPTION=Yellow crystal fragments
##STATUS=The identification of this mineral has been confirmed by X-ray diffraction and chemical analysis
##URL=rruff.info/R040173
##MEASURED CHEMISTRY=Ca_1.00_W_1.00_O_4_
138.0910, 2769.651
138.5731, 2803.270
139.0553, 2834.186
139.5374, 2856.962
140.0195, 2870.981
140.5016, 2876.588
140.9837, 2873.268
141.4658, 2856.420
141.9480, 2837.831
142.4301, 2824.997
142.9122, 2817.621
143.3943, 2817.040
143.8764, 2826.693
144.3585, 2846.150
144.8407, 2856.998
145.3228, 2849.314
145.8049, 2840.509
146.2870, 2847.428
146.7691, 2882.797
147.2512, 2916.986
147.7334, 2942.401
148.2155, 2955.311
148.6976, 2977.404
149.1797, 3011.933
149.6618, 3054.843
150.1439, 3100.363
150.6261, 3159.804
151.1082, 3211.180
151.5903, 3246.738
152.0724, 3257.763
152.5545, 3272.091
153.0366, 3295.768
153.5188, 3323.816
154.0009, 3346.364
154.4830, 3359.500
154.9651, 3368.943
155.4472, 3377.373
155.9293, 3385.862
156.4115, 3392.243
156.8936, 3393.302
157.3757, 3391.215
157.8578, 3393.500
158.3399, 3411.205
158.8221, 3428.855
159.3042, 3436.515
159.7863, 3423.346
160.2684, 3408.117
160.7505, 3393.796
161.2326, 3380.981
161.7148, 3375.433
162.1969, 3385.243
162.6790, 3401.332
163.1611, 3414.801
163.6432, 3421.889
164.1253, 3426.410
164.6075, 3427.382
165.0896, 3424.665
165.5717, 3428.257
166.0538, 3450.368
166.5359, 3481.185
167.0180, 3506.708
167.5002, 3516.223
167.9823, 3521.565
168.4644, 3533.533
168.9465, 3554.366
169.4286, 3571.721
169.9107, 3571.313
170.3929, 3560.509
170.8750, 3554.824
171.3571, 3569.179
171.8392, 3589.702
172.3213, 3600.510
172.8034, 3597.460
173.2856, 3591.464
173.7677, 3593.633
174.2498, 3601.681
174.7319, 3607.725
175.2140, 3603.932
175.6961, 3595.837
176.1783, 3591.981
176.6604, 3594.539
177.1425, 3600.716
177.6246, 3608.579
178.1067, 3617.721
178.5888, 3626.032
179.0710, 3629.428
179.5531, 3630.742
180.0352, 3636.787
180.5173, 3651.359
180.9994, 3669.120
181.4815, 3681.983
181.9637, 3690.082
182.4458, 3694.052
182.9279, 3690.512
183.4100, 3682.261
183.8921, 3679.774
184.3742, 3686.627
184.8564, 3700.903
185.3385, 3718.757
185.8206, 3740.469
186.3027, 3764.225
186.7848, 3788.442
187.2669, 3813.208
187.7491, 3840.109
188.2312, 3872.586
188.7133, 3907.636
189.1954, 3933.517
189.6775, 3948.838
190.1596, 3960.444
190.6418, 3977.107
191.1239, 3998.623
191.6060, 4019.305
192.0881, 4034.118
192.5702, 4044.526
193.0524, 4064.040
193.5345, 4093.645
194.0166, 4129.582
194.4987, 4165.700
194.9808, 4201.827
195.4629, 4240.931
195.9451, 4286.974
196.4272, 4340.261
196.9093, 4382.512
197.3914, 4409.203
197.8735, 4431.076
198.3556, 4469.900
198.8378, 4527.667
199.3199, 4588.628
199.8020, 4641.318
200.2841, 4683.892
200.7662, 4738.608
201.2483, 4806.852
201.7305, 4887.804
202.2126, 4979.719
202.6947, 5082.760
203.1768, 5196.168
203.6589, 5315.488
204.1410, 5436.137
204.6232, 5587.521
205.1053, 5773.731
205.5874, 5991.636
206.0695, 6230.006
206.5516, 6486.692
207.0337, 6769.502
207.5159, 7093.500
207.9980, 7462.228
208.4801, 7832.967
208.9622, 8223.992
209.4443, 8612.379
209.9264, 8895.633
210.4086, 9087.629
210.8907, 9146.235
211.3728, 9020.149
211.8549, 8667.066
212.3370, 8264.634
212.8191, 7811.937
213.3013, 7323.803
213.7834, 6888.893
214.2655, 6506.639
214.7476, 6177.342
215.2297, 5908.456
215.7118, 5706.712
216.1940, 5540.260
216.6761, 5406.508
217.1582, 5304.331
217.6403, 5226.197
218.1224, 5179.956
218.6045, 5148.401
219.0867, 5115.147
219.5688, 5077.169
220.0509, 5045.474
220.5330, 5024.669
221.0151, 5014.770
221.4972, 5000.919
221.9794, 4978.545
222.4615, 4957.180
222.9436, 4948.272
223.4257, 4959.655
223.9078, 4967.455
224.3899, 4966.575
224.8721, 4956.742
225.3542, 4940.860
225.8363, 4914.027
226.3184, 4885.661
226.8005, 4866.700
227.2827, 4860.230
227.7648, 4857.672
228.2469, 4857.471
228.7290, 4859.847
229.2111, 4862.835
229.6932, 4866.448
230.1754, 4870.625
230.6575, 4874.651
231.1396, 4875.209
231.6217, 4881.869
232.1038, 4901.371
232.5859, 4939.712
233.0681, 4956.045
233.5502, 4933.894
234.0323, 4901.542
234.5144, 4902.548
234.9965, 4958.384
235.4786, 5011.272
235.9608, 5041.566
236.4429, 5041.562
236.9250, 5053.353
237.4071, 5080.600
237.8892, 5117.343
238.3713, 5155.288
238.8535, 5198.302
239.3356, 5235.905
239.8177, 5262.778
240.2998, 5274.153
240.7819, 5293.683
241.2640, 5324.874
241.7462, 5362.483
242.2283, 5397.725
242.7104, 5429.168
243.1925, 5460.655
243.6746, 5494.411
244.1567, 5533.215
244.6389, 5564.407
245.1210, 5583.159
245.6031, 5597.112
246.0852, 5619.942
246.5673, 5655.555
247.0494, 5693.401
247.5316, 5729.714
248.0137, 5763.423
248.4958, 5800.287
248.9779, 5844.926
249.4600, 5889.917
249.9421, 5918.638
250.4243, 5921.060
250.9064, 5925.513
251.3885, 5942.445
251.8706, 5974.769
252.3527, 6011.632
252.8348, 6058.285
253.3170, 6106.164
253.7991, 6136.520
254.2812, 6138.730
254.7633, 6143.200
255.2454, 6162.834
255.7275, 6203.087
256.2097, 6237.176
256.6918, 6261.794
257.1739, 6282.137
257.6560, 6309.169
258.1381, 6347.599
258.6202, 6383.107
259.1024, 6409.934
259.5845, 6425.547
260.0666, 6441.964
260.5487, 6459.842
261.0308, 6477.991
261.5129, 6495.221
261.9951, 6511.752
262.4772, 6526.437
262.9593, 6537.274
263.4414, 6542.205
263.9235, 6555.290
264.4056, 6582.753
264.8878, 6612.696
265.3699, 6619.920
265.8520, 6592.609
266.3341, 6576.602
266.8162, 6594.646
267.2983, 6653.985
267.7805, 6699.507
268.2626, 6727.975
268.7447, 6745.719
269.2268, 6763.435
269.7089, 6781.949
270.1910, 6797.315
270.6732, 6805.556
271.1553, 6804.926
271.6374, 6814.622
272.1195, 6836.186
272.6016, 6865.865
273.0837, 6898.815
273.5659, 6936.554
274.0480, 6970.420
274.5301, 6993.018
275.0122, 7003.337
275.4943, 7032.893
275.9764, 7087.774
276.4586, 7150.444
276.9407, 7191.597
277.4228, 7207.658
277.9049, 7228.956
278.3870, 7272.112
278.8691, 7335.540
279.3513, 7379.830
279.8334, 7400.374
280.3155, 7413.630
280.7976, 7441.226
281.2798, 7483.296
281.7619, 7530.959
282.2440, 7583.058
282.7261, 7638.714
283.2082, 7690.813
283.6903, 7738.779
284.1725, 7785.299
284.6546, 7835.514
285.1367, 7888.704
285.6188, 7936.804
286.1009, 7972.721
286.5830, 8000.774
287.0652, 8042.363
287.5473, 8099.108
288.0294, 8157.426
288.5115, 8201.119
288.9936, 8231.828
289.4757, 8261.508
289.9579, 8295.403
290.4400, 8331.002
290.9221, 8360.838
291.4042, 8384.410
291.8863, 8408.483
292.3684, 8438.170
292.8506, 8473.646
293.3327, 8516.521
293.8148, 8572.871
294.2969, 8633.985
294.7790, 8679.691
295.2611, 8710.152
295.7433, 8744.622
296.2254, 8803.669
296.7075, 8881.358
297.1896, 8958.180
297.6717, 9027.472
298.1538, 9095.841
298.6360, 9171.220
299.1181, 9254.149
299.6002, 9342.772
300.0823, 9436.143
300.5644, 9535.050
301.0465, 9642.541
301.5287, 9763.153
302.0108, 9887.826
302.4929, 10000.53
302.9750, 10105.01
303.4571, 10216.15
303.9392, 10353.25
304.4214, 10501.16
304.9035, 10639.83
305.3856, 10749.86
305.8677, 10868.13
306.3498, 11038.40
306.8319, 11245.85
307.3141, 11442.05
307.7962, 11572.96
308.2783, 11687.87
308.7604, 11840.40
309.2425, 12050.50
309.7246, 12272.34
310.2068, 12473.22
310.6889, 12663.21
311.1710, 12870.61
311.6531, 13121.59
312.1352, 13387.89
312.6173, 13644.16
313.0995, 13875.76
313.5816, 14119.82
314.0637, 14394.19
314.5458, 14694.34
315.0279, 15013.62
315.5100, 15360.69
315.9922, 15717.80
316.4743, 16070.93
316.9564, 16411.44
317.4385, 16777.26
317.9206, 17192.34
318.4027, 17637.63
318.8849, 18086.53
319.3670, 18526.66
319.8491, 18973.82
320.3312, 19431.92
320.8133, 19902.35
321.2954, 20387.75
321.7776, 20872.63
322.2597, 21382.08
322.7418, 21942.82
323.2239, 22584.77
323.7060, 23252.33
324.1881, 23931.74
324.6703, 24621.31
325.1524, 25341.56
325.6345, 26058.83
326.1166, 26817.92
326.5987, 27662.12
327.0808, 28677.31
327.5630, 29675.36
328.0451, 30619.91
328.5272, 31515.07
329.0093, 32464.49
329.4914, 33541.59
329.9735, 34584.39
330.4557, 35487.80
330.9378, 36261.37
331.4199, 36883.08
331.9020, 37377.44
332.3841, 37726.09
332.8662, 37836.90
333.3484, 37689.09
333.8305, 37333.21
334.3126, 36771.21
334.7947, 35959.27
335.2768, 35089.36
335.7589, 34152.68
336.2411, 33174.99
336.7232, 32173.17
337.2053, 31120.39
337.6874, 30143.10
338.1695, 29294.28
338.6516, 28587.88
339.1338, 27951.92
339.6159, 27392.67
340.0980, 26900.88
340.5801, 26469.80
341.0622, 26092.82
341.5443, 25794.40
342.0265, 25592.51
342.5086, 25481.42
342.9907, 25386.18
343.4728, 25301.97
343.9549, 25255.90
344.4370, 25291.74
344.9192, 25403.75
345.4013, 25541.47
345.8834, 25678.55
346.3655, 25829.66
346.8476, 26028.05
347.3297, 26272.87
347.8119, 26559.05
348.2940, 26898.74
348.7761, 27277.65
349.2582, 27642.51
349.7403, 27972.29
350.2225, 28296.78
350.7046, 28642.54
351.1867, 29016.19
351.6688, 29444.89
352.1509, 29966.16
352.6331, 30551.27
353.1152, 31152.29
353.5973, 31741.88
354.0794, 32376.50
354.5615, 33111.23
355.0436, 33933.47
355.5258, 34804.87
356.0079, 35682.54
356.4900, 36612.25
356.9721, 37639.69
357.4542, 38784.18
357.9363, 39984.77
358.4185, 41208.43
358.9006, 42464.96
359.3827, 43771.39
359.8648, 45146.70
360.3469, 46563.84
360.8290, 48010.51
361.3112, 49491.89
361.7933, 50996.07
362.2754, 52522.77
362.7575, 54080.82
363.2396, 55686.55
363.7217, 57384.67
364.2039, 59068.09
364.6860, 60677.14
365.1681, 62217.02
365.6502, 63833.00
366.1323, 65593.84
366.6144, 67416.02
367.0966, 69249.36
367.5787, 71087.81
368.0608, 72919.06
368.5429, 74746.49
369.0250, 76574.77
369.5071, 78386.88
369.9893, 80224.13
370.4714, 81989.35
370.9535, 83644.28
371.4356, 85187.80
371.9177, 86594.88
372.3998, 87906.38
372.8820, 89063.99
373.3641, 89927.63
373.8462, 90487.41
374.3283, 90776.56
374.8104, 90790.92
375.2925, 90523.50
375.7747, 90057.99
376.2568, 89391.23
376.7389, 88525.62
377.2210, 87437.31
377.7031, 86115.59
378.1852, 84723.07
378.6674, 83237.91
379.1495, 81723.39
379.6316, 80389.44
380.1137, 79252.97
380.5958, 78245.07
381.0779, 77313.74
381.5601, 76458.62
382.0422, 75743.27
382.5243, 75163.98
383.0064, 74730.10
383.4885, 74474.07
383.9706, 74384.45
384.4528, 74394.09
384.9349, 74483.12
385.4170, 74634.56
385.8991, 74834.72
386.3812, 75100.45
386.8633, 75359.02
387.3455, 75568.67
387.8276, 75720.78
388.3097, 75798.08
388.7918, 75875.34
389.2739, 75818.29
389.7560, 75524.84
390.2382, 74985.37
390.7203, 74230.23
391.2024, 73214.67
391.6845, 72017.89
392.1666, 70716.18
392.6487, 69327.42
393.1309, 67850.99
393.6130, 66244.09
394.0951, 64518.71
394.5772, 62877.24
395.0593, 61368.88
395.5414, 59959.47
396.0236, 58642.58
396.5057, 57424.69
396.9878, 56284.70
397.4699, 55290.80
397.9520, 54388.05
398.4341, 53416.72
398.9163, 52399.67
399.3984, 51291.31
399.8805, 50076.42
400.3626, 48753.88
400.8447, 47314.92
401.3268, 45668.27
401.8090, 43974.26
402.2911, 42420.05
402.7732, 41028.30
403.2553, 39756.77
403.7374, 38598.54
404.2195, 37553.34
404.7017, 36623.20
405.1838, 35815.84
405.6659, 35094.66
406.1480, 34420.99
406.6301, 33790.96
407.1122, 33253.36
407.5944, 32828.52
408.0765, 32487.70
408.5586, 32170.18
409.0407, 31874.80
409.5228, 31621.49
410.0049, 31425.98
410.4871, 31285.07
410.9692, 31182.33
411.4513, 31111.21
411.9334, 31098.64
412.4155, 31176.64
412.8976, 31339.24
413.3798, 31562.67
413.8619, 31840.90
414.3440, 32174.26
414.8261, 32570.85
415.3082, 33032.55
415.7903, 33538.32
416.2725, 34087.14
416.7546, 34671.11
417.2367, 35293.39
417.7188, 35931.04
418.2009, 36617.10
418.6830, 37371.26
419.1652, 38187.59
419.6473, 39014.94
420.1294, 39852.52
420.6115, 40691.70
421.0937, 41542.88
421.5758, 42398.68
422.0579, 43248.96
422.5400, 44078.47
423.0221, 44905.93
423.5042, 45780.02
423.9864, 46701.77
424.4685, 47660.04
424.9506, 48670.24
425.4327, 49721.70
425.9148, 50788.16
426.3969, 51836.87
426.8791, 52937.05
427.3612, 54129.26
427.8433, 55399.89
428.3254, 56789.25
428.8075, 58284.34
429.2896, 59907.55
429.7718, 61711.03
430.2539, 63708.28
430.7360, 65821.43
431.2181, 67978.47
431.7002, 70184.77
432.1823, 72536.63
432.6645, 75058.34
433.1466, 77671.23
433.6287, 80321.18
434.1108, 82969.36
434.5929, 85437.14
435.0750, 87684.06
435.5572, 89664.51
436.0393, 91350.69
436.5214, 92735.73
437.0035, 93677.75
437.4856, 94064.66
437.9677, 93932.53
438.4499, 93301.12
438.9320, 92077.10
439.4141, 90522.55
439.8962, 88740.95
440.3783, 86773.39
440.8604, 84672.63
441.3426, 82395.18
441.8247, 80070.86
442.3068, 77747.09
442.7889, 75402.41
443.2710, 73189.03
443.7531, 71131.35
444.2353, 69237.63
444.7174, 67481.17
445.1995, 65866.53
445.6816, 64408.22
446.1637, 63087.64
446.6458, 61919.51
447.1280, 60962.45
447.6101, 60233.85
448.0922, 59695.60
448.5743, 59345.18
449.0564, 59224.84
449.5385, 59172.37
450.0207, 59179.43
450.5028, 59255.25
450.9849, 59459.88
451.4670, 59834.04
451.9491, 60122.05
452.4312, 60225.60
452.9134, 60155.28
453.3955, 60001.82
453.8776, 59768.08
454.3597, 59438.80
454.8418, 58977.45
455.3239, 58401.41
455.8061, 57797.06
456.2882, 57162.89
456.7703, 56529.62
457.2524, 55929.71
457.7345, 55365.66
458.2166, 54833.55
458.6988, 54367.82
459.1809, 53919.66
459.6630, 53448.55
460.1451, 52946.34
460.6272, 52414.40
461.1093, 51871.93
461.5915, 51296.95
462.0736, 50672.26
462.5557, 49972.32
463.0378, 49240.40
463.5199, 48485.65
464.0020, 47715.09
464.4842, 46947.76
464.9663, 46167.39
465.4484, 45413.99
465.9305, 44706.65
466.4126, 44057.52
466.8947, 43418.37
467.3769, 42776.75
467.8590, 42152.98
468.3411, 41573.20
468.8232, 41051.25
469.3053, 40550.94
469.7874, 40056.32
470.2696, 39568.98
470.7517, 39128.89
471.2338, 38754.16
471.7159, 38374.77
472.1980, 37921.49
472.6801, 37394.72
473.1623, 36905.02
473.6444, 36477.34
474.1265, 36067.58
474.6086, 35618.88
475.0907, 35128.00
475.5728, 34574.00
476.0550, 33906.36
476.5371, 33179.43
477.0192, 32488.39
477.5013, 31833.50
477.9834, 31193.89
478.4655, 30535.99
478.9477, 29886.63
479.4298, 29288.46
479.9119, 28742.95
480.3940, 28255.08
480.8761, 27860.20
481.3582, 27531.77
481.8404, 27198.68
482.3225, 26791.97
482.8046, 26413.45
483.2867, 26118.56
483.7688, 25944.13
484.2509, 25741.77
484.7331, 25493.13
485.2152, 25214.70
485.6973, 24912.38
486.1794, 24560.51
486.6615, 24228.09
487.1436, 23926.92
487.6258, 23651.05
488.1079, 23370.55
488.5900, 23083.50
489.0721, 22801.55
489.5542, 22519.69
490.0363, 22236.06
490.5185, 22018.28
491.0006, 21878.04
491.4827, 21776.55
491.9648, 21664.98
492.4470, 21548.42
492.9291, 21456.93
493.4112, 21403.20
493.8933, 21380.04
494.3754, 21386.19
494.8575, 21418.48
495.3397, 21456.52
495.8218, 21471.19
496.3039, 21492.83
496.7860, 21559.11
497.2681, 21686.00
497.7502, 21819.20
498.2324, 21931.21
498.7145, 22032.40
499.1966, 22139.05
499.6787, 22277.15
500.1608, 22398.79
500.6429, 22487.88
501.1251, 22545.24
501.6072, 22589.70
502.0893, 22644.47
502.5714, 22668.01
503.0535, 22635.52
503.5356, 22514.11
504.0178, 22418.98
504.4999, 22370.61
504.9820, 22330.53
505.4641, 22241.26
505.9462, 22100.90
506.4283, 21923.33
506.9105, 21709.55
507.3926, 21463.27
507.8747, 21191.89
508.3568, 20892.96
508.8389, 20595.09
509.3210, 20323.36
509.8032, 20064.63
510.2853, 19772.24
510.7674, 19432.35
511.2495, 19093.29
511.7316, 18811.77
512.2137, 18566.26
512.6959, 18317.50
513.1780, 18035.81
513.6601, 17753.38
514.1422, 17483.51
514.6243, 17228.26
515.1064, 16999.18
515.5886, 16822.49
516.0707, 16657.43
516.5528, 16478.78
517.0349, 16264.16
517.5170, 16072.73
517.9991, 15928.00
518.4813, 15803.78
518.9634, 15667.14
519.4455, 15502.94
519.9276, 15352.65
520.4097, 15226.36
520.8918, 15122.66
521.3740, 15017.34
521.8561, 14908.95
522.3382, 14803.81
522.8203, 14705.71
523.3024, 14615.25
523.7845, 14529.63
524.2667, 14448.96
524.7488, 14370.20
525.2309, 14281.41
525.7130, 14187.75
526.1951, 14109.40
526.6772, 14057.92
527.1594, 14019.51
527.6415, 13980.56
528.1236, 13941.71
528.6057, 13904.65
529.0878, 13864.35
529.5699, 13830.57
530.0521, 13814.83
530.5342, 13823.66
531.0163, 13826.34
531.4984, 13795.98
531.9805, 13761.76
532.4626, 13754.57
532.9448, 13817.65
533.4269, 13860.71
533.9090, 13864.10
534.3911, 13839.11
534.8732, 13830.14
535.3553, 13844.52
535.8375, 13860.95
536.3196, 13866.57
536.8017, 13860.00
537.2838, 13876.71
537.7659, 13922.11
538.2480, 13973.58
538.7302, 14003.83
539.2123, 14016.72
539.6944, 14038.25
540.1765, 14077.56
540.6586, 14121.54
541.1407, 14148.44
541.6229, 14163.82
542.1050, 14187.93
542.5871, 14244.80
543.0692, 14306.71
543.5513, 14345.11
544.0334, 14358.41
544.5156, 14373.68
544.9977, 14400.39
545.4798, 14436.12
545.9619, 14479.07
546.4440, 14533.30
546.9261, 14588.20
547.4083, 14647.35
547.8904, 14705.44
548.3725, 14752.00
548.8546, 14783.97
549.3367, 14809.68
549.8188, 14828.71
550.3010, 14842.04
550.7831, 14860.75
551.2652, 14884.48
551.7473, 14914.95
552.2294, 14949.04
552.7115, 14988.42
553.1937, 15055.94
553.6758, 15159.72
554.1579, 15265.40
554.6400, 15324.49
555.1221, 15350.48
555.6042, 15381.19
556.0864, 15436.66
556.5685, 15496.67
557.0506, 15536.16
557.5327, 15561.83
558.0148, 15598.08
558.4969, 15674.46
558.9791, 15751.97
559.4612, 15802.77
559.9433, 15817.44
560.4254, 15839.06
560.9075, 15877.90
561.3896, 15925.67
561.8718, 15976.22
562.3539, 16039.69
562.8360, 16087.47
563.3181, 16108.51
563.8002, 16116.40
564.2823, 16146.17
564.7645, 16202.06
565.2466, 16259.80
565.7287, 16309.67
566.2108, 16353.24
566.6929, 16397.15
567.1750, 16441.09
567.6572, 16484.48
568.1393, 16513.98
568.6214, 16543.99
569.1035, 16609.74
569.5856, 16726.59
570.0677, 16840.98
570.5499, 16891.46
571.0320, 16914.75
571.5141, 16969.26
571.9962, 17103.62
572.4783, 17246.08
572.9604, 17365.15
573.4426, 17465.35
573.9247, 17575.72
574.4068, 17707.33
574.8889, 17843.25
575.3710, 17977.06
575.8531, 18106.77
576.3353, 18234.38
576.8174, 18352.39
577.2995, 18477.59
577.7816, 18635.82
578.2637, 18831.50
578.7458, 18997.98
579.2280, 19111.35
579.7101, 19217.56
580.1922, 19412.42
580.6743, 19681.28
581.1564, 19941.51
581.6385, 20157.01
582.1207, 20341.58
582.6028, 20503.88
583.0849, 20644.47
583.5670, 20778.83
584.0491, 20930.62
584.5313, 21070.13
585.0134, 21166.74
585.4955, 21197.05
585.9776, 21245.63
586.4597, 21352.88
586.9418, 21481.25
587.4240, 21587.13
587.9061, 21661.15
588.3882, 21726.03
588.8703, 21780.28
589.3524, 21827.99
589.8345, 21884.60
590.3167, 21955.99
590.7988, 22013.01
591.2809, 22029.72
591.7630, 22019.24
592.2451, 22050.98
592.7272, 22125.86
593.2094, 22219.99
593.6915, 22324.85
594.1736, 22432.49
594.6557, 22523.90
595.1378, 22588.76
595.6199, 22660.89
596.1021, 22762.03
596.5842, 22886.99
597.0663, 23028.92
597.5485, 23210.07
598.0306, 23379.91
598.5127, 23518.86
598.9948, 23631.91
599.4769, 23742.10
599.9590, 23820.78
600.4412, 23934.90
600.9233, 24113.65
601.4054, 24362.82
601.8875, 24598.30
602.3696, 24817.55
602.8517, 25025.41
603.3339, 25210.24
603.8160, 25376.76
604.2981, 25568.87
604.7802, 25789.85
605.2623, 26037.14
605.7444, 26316.23
606.2266, 26619.39
606.7087, 26911.42
607.1908, 27168.13
607.6729, 27427.70
608.1550, 27726.24
608.6371, 28054.46
609.1193, 28392.51
609.6014, 28721.13
610.0835, 29065.57
610.5656, 29435.26
611.0477, 29834.24
611.5298, 30234.34
612.0120, 30629.41
612.4941, 31026.54
612.9762, 31426.92
613.4583, 31830.01
613.9404, 32229.75
614.4225, 32616.44
614.9047, 33013.12
615.3868, 33464.46
615.8689, 33970.50
616.3510, 34482.48
616.8331, 34991.28
617.3152, 35490.99
617.7974, 35983.09
618.2795, 36461.23
618.7616, 36926.36
619.2437, 37346.53
619.7258, 37774.95
620.2079, 38260.91
620.6901, 38804.67
621.1722, 39362.59
621.6543, 39945.93
622.1364, 40522.24
622.6185, 41060.15
623.1006, 41533.92
623.5828, 42032.86
624.0649, 42564.18
624.5470, 43114.05
625.0291, 43666.84
625.5112, 44222.11
625.9933, 44785.89
626.4755, 45356.70
626.9576, 45930.80
627.4397, 46495.20
627.9218, 47050.83
628.4039, 47604.82
628.8860, 48179.49
629.3682, 48746.85
629.8503, 49249.24
630.3324, 49696.37
630.8145, 50147.79
631.2966, 50643.34
631.7787, 51146.37
632.2609, 51637.87
632.7430, 52125.59
633.2251, 52562.38
633.7072, 52909.45
634.1893, 53214.21
634.6714, 53520.88
635.1536, 53854.53
