##NAMES=Schiavinatoite
##RRUFFID=R090010
##IDEAL CHEMISTRY=Nb^5+^BO_4_
##LOCALITY=Antsongombato, south of Betafo, south of Mahaiz, Madagascar
##OWNER=RRUFF
##SOURCE=William W. Pinch
##DESCRIPTION=Dark brown vitreous dipyramidal crystal on white microcline matrix associated with pink tourmaline
##STATUS=The identification of this mineral has been confirmed only by single crystal X-ray diffraction.
##URL=rruff.info/R090010
92.37695, 152.1384
92.85907, 150.5217
93.34119, 150.9882
93.82330, 152.3735
94.30542, 153.0208
94.78754, 152.4253
95.26965, 151.0016
95.75177, 149.5489
96.23389, 148.3085
96.71600, 147.3068
97.19812, 146.8156
97.68024, 147.0495
98.16235, 147.2763
98.64447, 146.2967
99.12659, 143.4305
99.60870, 140.9660
100.0908, 140.1105
100.5729, 140.0929
101.0551, 140.2156
101.5372, 140.1309
102.0193, 139.8507
102.5014, 139.5045
102.9835, 138.7840
103.4656, 138.2811
103.9478, 138.2273
104.4299, 138.4533
104.9120, 138.6747
105.3941, 138.6943
105.8762, 138.5152
106.3583, 137.8598
106.8405, 136.2487
107.3226, 134.6056
107.8047, 133.3662
108.2868, 132.5952
108.7689, 132.2294
109.2510, 132.3489
109.7332, 132.9983
110.2153, 133.4069
110.6974, 133.2917
111.1795, 132.9219
111.6616, 132.7513
112.1437, 132.9800
112.6259, 133.1861
113.1080, 132.8134
113.5901, 131.9146
114.0722, 131.0977
114.5543, 130.7491
115.0364, 130.8512
115.5185, 131.0910
116.0007, 131.6313
116.4828, 132.1225
116.9649, 132.3375
117.4470, 132.2430
117.9291, 131.9865
118.4112, 131.7805
118.8934, 131.7262
119.3755, 131.4559
119.8576, 130.5211
120.3397, 129.5985
120.8218, 129.2968
121.3039, 129.8541
121.7861, 130.9617
122.2682, 131.7347
122.7503, 132.1429
123.2324, 132.1636
123.7145, 131.4111
124.1966, 130.3250
124.6788, 129.5606
125.1609, 129.5244
125.6430, 130.1089
126.1251, 130.3711
126.6072, 129.9830
127.0893, 129.6770
127.5715, 129.9280
128.0536, 130.6177
128.5357, 131.0907
129.0178, 130.7172
129.4999, 129.6767
129.9821, 129.1753
130.4642, 129.8057
130.9463, 130.7029
131.4284, 130.9389
131.9105, 130.3903
132.3926, 129.6096
132.8748, 128.7945
133.3569, 128.0383
133.8390, 127.5936
134.3211, 127.7932
134.8032, 128.4225
135.2853, 128.7042
135.7674, 128.3463
136.2496, 128.0234
136.7317, 128.1625
137.2138, 128.6200
137.6959, 129.0232
138.1780, 129.0395
138.6601, 128.6229
139.1423, 128.3105
139.6244, 128.1105
140.1065, 128.0144
140.5886, 128.0980
141.0707, 128.3188
141.5528, 128.5316
142.0350, 128.5614
142.5171, 128.3403
142.9992, 128.0874
143.4813, 127.5874
143.9634, 127.2004
144.4455, 127.2282
144.9277, 127.7240
145.4098, 128.4394
145.8919, 128.9785
146.3740, 129.2636
146.8561, 129.4878
147.3382, 129.5978
147.8204, 129.6694
148.3025, 129.8387
148.7846, 130.1816
149.2667, 130.5367
149.7488, 130.5096
150.2309, 130.0098
150.7131, 129.5575
151.1952, 129.3005
151.6773, 129.2337
152.1594, 129.3813
152.6415, 129.8832
153.1236, 130.4816
153.6058, 130.7378
154.0879, 130.5290
154.5700, 130.3523
155.0521, 130.7279
155.5342, 131.6877
156.0163, 132.4468
156.4985, 132.3131
156.9806, 132.0460
157.4627, 132.3035
157.9448, 133.2915
158.4269, 134.6079
158.9090, 135.6940
159.3912, 136.5166
159.8733, 137.1557
160.3554, 137.5232
160.8375, 137.7942
161.3196, 138.0993
161.8017, 138.4886
162.2839, 138.9762
162.7660, 139.6036
163.2481, 140.4616
163.7302, 141.3589
164.2123, 142.2001
164.6944, 143.0790
165.1766, 144.1678
165.6587, 145.5942
166.1408, 147.2483
166.6229, 148.4231
167.1050, 148.4751
167.5871, 148.7510
168.0693, 149.5658
168.5514, 150.8106
169.0335, 152.3068
169.5156, 153.9974
169.9977, 155.8405
170.4798, 157.0576
170.9620, 156.8764
171.4441, 156.9337
171.9262, 158.0736
172.4083, 160.1646
172.8904, 162.5386
173.3725, 164.8468
173.8547, 166.9976
174.3368, 168.7032
174.8189, 169.6074
175.3010, 170.3269
175.7831, 171.3843
176.2652, 172.8109
176.7474, 174.2454
177.2295, 175.3505
177.7116, 176.2609
178.1937, 177.2754
178.6758, 178.5058
179.1579, 179.8597
179.6401, 181.2066
180.1222, 182.5186
180.6043, 183.8916
181.0864, 185.4487
181.5685, 187.0969
182.0506, 188.6663
182.5328, 190.0059
183.0149, 191.2162
183.4970, 192.6391
183.9791, 194.3798
184.4612, 196.1804
184.9433, 198.1131
185.4255, 200.0056
185.9076, 201.5243
186.3897, 202.2410
186.8718, 202.2953
187.3539, 203.2355
187.8360, 206.4375
188.3182, 209.1046
188.8003, 210.1731
189.2824, 210.0779
189.7645, 209.7468
190.2466, 209.8652
190.7287, 210.4427
191.2109, 211.2656
191.6930, 212.9215
192.1751, 214.2658
192.6572, 214.7418
193.1393, 214.5417
193.6214, 214.2497
194.1036, 214.4037
194.5857, 215.1096
195.0678, 215.3799
195.5499, 214.7854
196.0320, 214.2461
196.5141, 214.3300
196.9963, 214.9436
197.4784, 215.5191
197.9605, 215.4889
198.4426, 214.7314
198.9247, 214.3260
199.4068, 214.4779
199.8890, 214.7865
200.3711, 215.1954
200.8532, 215.6343
201.3353, 215.6607
201.8174, 214.7182
202.2995, 212.7310
202.7817, 211.1298
203.2638, 210.0974
203.7459, 209.3943
204.2280, 209.0125
204.7101, 208.9812
205.1922, 208.6430
205.6744, 207.1524
206.1565, 204.7406
206.6386, 202.5047
207.1207, 200.7978
207.6028, 199.3308
208.0849, 197.6653
208.5671, 195.6906
209.0492, 193.7989
209.5313, 192.3318
210.0134, 191.1754
210.4955, 190.1492
210.9776, 189.2856
211.4598, 188.4930
211.9419, 187.5440
212.4240, 186.3765
212.9061, 185.1845
213.3882, 183.8787
213.8703, 182.6304
214.3525, 181.8071
214.8346, 181.8287
215.3167, 182.4196
215.7988, 182.5206
216.2809, 181.7271
216.7630, 181.0621
217.2451, 181.1328
217.7273, 181.5996
218.2094, 181.8166
218.6915, 181.1947
219.1736, 179.9933
219.6557, 179.8533
220.1378, 181.7871
220.6200, 183.6035
221.1021, 184.5925
221.5842, 185.0188
222.0663, 185.3458
222.5484, 185.8620
223.0305, 186.5489
223.5127, 187.2290
223.9948, 187.8702
224.4769, 188.5358
224.9590, 189.4198
225.4411, 190.3246
225.9232, 190.8981
226.4054, 190.8767
226.8875, 190.3233
227.3696, 189.9730
227.8517, 190.0319
228.3338, 190.0893
228.8159, 190.0525
229.2981, 189.9543
229.7802, 189.8881
230.2623, 189.9293
230.7444, 190.0488
231.2265, 189.9063
231.7086, 189.3270
232.1908, 188.7019
232.6729, 188.0943
233.1550, 187.5100
233.6371, 186.9985
234.1192, 186.6326
234.6013, 186.3283
235.0835, 185.4080
235.5656, 183.5155
236.0477, 181.5256
236.5298, 179.4975
237.0119, 177.5618
237.4940, 176.0077
237.9762, 175.0663
238.4583, 174.5658
238.9404, 173.6822
239.4225, 172.0839
239.9046, 170.5539
240.3867, 169.5383
240.8689, 168.8128
241.3510, 167.8119
241.8331, 166.2151
242.3152, 164.1922
242.7973, 162.2217
243.2794, 160.0783
243.7616, 158.3123
244.2437, 157.4649
244.7258, 157.2485
245.2079, 156.7756
245.6900, 155.6163
246.1721, 154.0665
246.6543, 152.7557
247.1364, 151.7918
247.6185, 150.7647
248.1006, 149.2843
248.5827, 147.5295
249.0648, 146.1748
249.5470, 145.6215
250.0291, 145.3604
250.5112, 144.5928
250.9933, 143.2430
251.4754, 141.8967
251.9576, 140.8587
252.4397, 140.0910
252.9218, 139.4194
253.4039, 138.8918
253.8860, 138.3320
254.3681, 137.5014
254.8503, 136.3987
255.3324, 135.3835
255.8145, 134.6275
256.2966, 134.1316
256.7787, 133.9534
257.2608, 134.3400
257.7430, 134.7417
258.2251, 134.6026
258.7072, 134.0116
259.1893, 133.5560
259.6714, 133.8340
260.1535, 134.6572
260.6357, 134.9165
261.1178, 134.1517
261.5999, 133.2721
262.0820, 132.7623
262.5641, 132.5981
263.0462, 132.6941
263.5284, 133.2130
264.0105, 134.0305
264.4926, 134.3473
264.9747, 133.6991
265.4568, 133.2110
265.9389, 133.5459
266.4211, 134.4158
266.9032, 135.2197
267.3853, 135.5199
267.8674, 135.4740
268.3495, 135.8017
268.8316, 136.7476
269.3138, 137.7171
269.7959, 138.6053
270.2780, 139.3495
270.7601, 139.8347
271.2422, 139.9509
271.7243, 139.8177
272.2065, 139.8257
272.6886, 140.0189
273.1707, 140.2950
273.6528, 140.6873
274.1349, 141.1103
274.6170, 141.4557
275.0992, 141.6717
275.5813, 141.8081
276.0634, 141.9625
276.5455, 142.0412
277.0276, 142.3360
277.5097, 143.0217
277.9919, 143.8426
278.4740, 144.5619
278.9561, 145.0979
279.4382, 145.5337
279.9203, 146.0526
280.4024, 146.7818
280.8846, 147.3057
281.3667, 147.5329
281.8488, 147.6106
282.3309, 147.6702
282.8130, 147.7343
283.2951, 147.6938
283.7773, 147.3183
284.2594, 146.3239
284.7415, 145.7150
285.2236, 145.8785
285.7057, 146.1013
286.1878, 146.0518
286.6700, 145.6431
287.1521, 144.8833
287.6342, 143.6741
288.1163, 141.7867
288.5984, 140.3949
289.0805, 139.8958
289.5627, 139.4970
290.0448, 138.9212
290.5269, 138.1250
291.0090, 137.1528
291.4911, 136.0233
291.9732, 134.7237
292.4554, 133.4612
292.9375, 132.1655
293.4196, 130.9715
293.9017, 129.9355
294.3838, 129.0380
294.8659, 128.2416
295.3481, 127.5329
295.8302, 126.8992
296.3123, 126.2064
296.7944, 125.2326
297.2765, 124.4394
297.7586, 124.0014
298.2408, 123.7870
298.7229, 123.6200
299.2050, 123.4082
299.6871, 123.1500
300.1692, 122.8351
300.6513, 122.2171
301.1335, 121.8592
301.6156, 122.1071
302.0977, 122.5178
302.5798, 122.5227
303.0619, 121.9088
303.5440, 121.0517
304.0262, 120.7753
304.5083, 121.8950
304.9904, 122.3616
305.4725, 121.6708
305.9546, 120.6664
306.4367, 119.9682
306.9189, 119.7454
307.4010, 119.8423
307.8831, 120.0739
308.3652, 120.5692
308.8473, 120.8482
309.3294, 120.7727
309.8116, 120.6313
310.2937, 120.5938
310.7758, 120.6695
311.2579, 120.7768
311.7400, 120.8433
312.2221, 120.8762
312.7043, 120.8084
313.1864, 120.3241
313.6685, 120.0575
314.1506, 120.4396
314.6327, 121.2659
315.1148, 122.0190
315.5970, 122.3140
316.0791, 122.1851
316.5612, 122.0943
317.0433, 122.1441
317.5254, 122.1181
318.0075, 121.8698
318.4897, 121.5376
318.9718, 121.2919
319.4539, 121.2141
319.9360, 121.3364
320.4181, 121.7809
320.9002, 123.1907
321.3824, 124.0963
321.8645, 124.1310
322.3466, 123.7780
322.8287, 123.4426
323.3108, 123.2788
323.7929, 123.2894
324.2751, 123.5273
324.7572, 124.3884
325.2393, 124.6771
325.7214, 123.7420
326.2035, 122.7944
326.6856, 122.8077
327.1678, 123.8012
327.6499, 124.9818
328.1320, 125.4659
328.6141, 125.0720
329.0962, 124.8685
329.5783, 124.9680
330.0605, 125.1218
330.5426, 125.1322
331.0247, 125.0970
331.5068, 125.3033
331.9889, 126.0052
332.4710, 127.1589
332.9532, 128.0489
333.4353, 128.6514
333.9174, 128.9984
334.3995, 128.8339
334.8816, 128.4762
335.3637, 128.3838
335.8459, 128.7939
336.3280, 129.5385
336.8101, 130.1443
337.2922, 130.9722
337.7743, 131.0474
338.2564, 129.7990
338.7386, 128.1197
339.2206, 126.7316
339.7028, 125.8510
340.1849, 125.3265
340.6670, 124.9391
341.1491, 124.6890
341.6312, 124.5907
342.1133, 124.7265
342.5955, 124.9238
343.0776, 125.2184
343.5597, 125.5238
344.0418, 125.5872
344.5239, 125.1039
345.0060, 124.0277
345.4882, 123.2188
345.9703, 122.8364
346.4524, 122.5923
346.9345, 122.4556
347.4166, 122.4018
347.8987, 122.4558
348.3809, 122.6814
348.8630, 122.9430
349.3451, 122.6289
349.8272, 121.1400
350.3093, 119.9954
350.7914, 119.4269
351.2736, 119.3191
351.7557, 119.7732
352.2378, 120.8091
352.7199, 121.8329
353.2020, 121.6994
353.6841, 119.8802
354.1663, 118.5141
354.6484, 118.2664
355.1305, 118.1932
355.6126, 117.6877
356.0947, 116.7476
356.5768, 115.8516
357.0590, 115.5291
357.5411, 115.8099
358.0232, 115.9346
358.5053, 115.7520
358.9874, 115.5751
359.4695, 115.6985
359.9517, 115.9227
360.4338, 115.7958
360.9159, 114.9017
361.3980, 113.5746
361.8801, 112.8735
362.3622, 113.0511
362.8444, 113.3194
363.3265, 113.5061
363.8086, 113.5857
364.2907, 113.4963
364.7728, 113.2004
365.2549, 112.8362
365.7371, 112.6036
366.2192, 112.5243
366.7013, 112.3641
367.1834, 112.0279
367.6655, 111.6199
368.1476, 111.1549
368.6298, 110.6499
369.1119, 110.2736
369.5940, 110.1916
370.0761, 110.3550
370.5582, 110.5868
371.0403, 111.0379
371.5225, 111.2423
372.0046, 110.6240
372.4867, 109.5319
372.9688, 108.7736
373.4509, 108.7868
373.9330, 109.2230
374.4152, 109.6600
374.8973, 110.1188
375.3794, 110.3756
375.8615, 110.1856
376.3436, 109.7751
376.8257, 109.4931
377.3079, 109.4039
377.7900, 109.3581
378.2721, 109.3008
378.7542, 109.2102
379.2363, 108.9687
379.7184, 108.4828
380.2006, 107.9306
380.6827, 107.4967
381.1648, 107.1693
381.6469, 107.0228
382.1290, 107.2937
382.6111, 107.6732
383.0933, 107.6940
383.5754, 107.2917
384.0575, 106.7574
384.5396, 106.2018
385.0217, 105.6959
385.5038, 105.5820
385.9860, 106.3150
386.4681, 107.0421
386.9502, 107.2190
387.4323, 106.9451
387.9144, 106.5647
388.3965, 106.2127
388.8787, 105.9010
389.3608, 105.6714
389.8429, 105.5393
390.3250, 105.4335
390.8071, 105.3029
391.2892, 105.2066
391.7714, 105.2729
392.2535, 105.5202
392.7356, 105.7424
393.2177, 105.6842
393.6998, 105.2705
394.1819, 104.9126
394.6641, 104.5087
395.1462, 104.2427
395.6283, 104.2648
396.1104, 104.5236
396.5925, 104.8888
397.0746, 105.3048
397.5568, 105.7198
398.0389, 105.8473
398.5210, 105.3738
399.0031, 104.9826
399.4852, 104.6777
399.9673, 104.5229
400.4495, 104.6157
400.9316, 104.9762
401.4137, 105.4883
401.8958, 106.0249
402.3779, 106.7649
402.8600, 107.0135
403.3422, 106.2735
403.8243, 105.5557
404.3064, 105.4228
404.7885, 105.7843
405.2706, 106.2091
405.7527, 106.3592
406.2349, 106.2820
406.7170, 106.3630
407.1991, 106.7811
407.6812, 107.0999
408.1633, 107.1173
408.6454, 107.0343
409.1276, 107.0826
409.6097, 107.3473
410.0918, 107.7148
410.5739, 108.0509
411.0560, 108.3729
411.5381, 108.5577
412.0203, 108.2367
412.5024, 108.0743
412.9845, 108.6022
413.4666, 109.7070
413.9487, 110.7629
414.4308, 111.1615
414.9130, 111.1401
415.3951, 111.6784
415.8772, 113.0254
416.3593, 114.3204
416.8414, 115.0892
417.3235, 115.5194
417.8057, 115.7550
418.2878, 115.6411
418.7699, 115.7297
419.2520, 116.6881
419.7341, 118.4329
420.2162, 120.1947
420.6984, 121.8289
421.1805, 123.2575
421.6626, 124.2503
422.1447, 124.8061
422.6268, 125.6140
423.1089, 127.1372
423.5911, 128.9591
424.0732, 130.3551
424.5553, 131.2349
425.0374, 132.4934
425.5195, 134.9650
426.0016, 138.4603
426.4838, 141.4435
426.9659, 143.3398
427.4480, 145.3439
427.9301, 147.9938
428.4122, 151.1422
428.8943, 154.4718
429.3765, 157.8792
429.8586, 161.3787
430.3407, 164.9956
430.8228, 168.7638
431.3049, 172.6181
431.7870, 176.3894
432.2692, 180.3569
432.7513, 184.8290
433.2334, 189.7254
433.7155, 194.7237
434.1976, 199.5612
434.6797, 204.2298
435.1619, 208.7337
435.6440, 212.7432
436.1261, 216.9843
436.6082, 221.9235
437.0903, 227.0029
437.5724, 231.4900
438.0546, 235.1418
438.5367, 238.5247
439.0188, 242.5870
439.5009, 247.6153
439.9830, 252.3837
440.4651, 257.0529
440.9473, 261.3163
441.4294, 264.6012
441.9115, 267.2980
442.3936, 270.4984
442.8757, 275.1997
443.3578, 280.7570
443.8400, 284.6759
444.3221, 286.2731
444.8042, 287.9791
445.2863, 291.3175
445.7684, 294.8346
446.2505, 297.1027
446.7327, 297.8019
447.2148, 297.8144
447.6969, 297.9343
448.1790, 298.0520
448.6611, 297.5735
449.1432, 296.4662
449.6254, 294.6229
450.1075, 291.9466
450.5896, 288.5036
451.0717, 284.2189
451.5538, 278.8239
452.0359, 272.7577
452.5181, 266.2132
453.0002, 259.2738
453.4823, 252.6726
453.9644, 246.9657
454.4465, 241.5271
454.9286, 234.6977
455.4108, 225.9131
455.8929, 217.8053
456.3750, 211.2496
456.8571, 205.5257
457.3392, 199.8960
457.8214, 194.2380
458.3035, 188.6138
458.7856, 183.0217
459.2677, 177.4481
459.7498, 172.3009
460.2319, 167.4037
460.7141, 163.0465
461.1962, 159.4290
461.6783, 156.3598
462.1604, 153.6423
462.6425, 151.1917
463.1246, 148.9690
463.6068, 146.9836
464.0889, 145.5453
464.5710, 143.5376
465.0531, 140.2936
465.5352, 137.1411
466.0173, 134.5697
466.4995, 132.6122
466.9816, 131.2196
467.4637, 130.4780
467.9458, 130.1398
468.4279, 129.3639
468.9100, 127.9313
469.3922, 126.6224
469.8743, 125.8529
470.3564, 125.1783
470.8385, 124.1566
471.3206, 122.7316
471.8027, 121.4251
472.2849, 120.6880
472.7670, 120.4066
473.2491, 120.1758
473.7312, 119.9632
474.2133, 119.7898
474.6954, 119.7643
475.1776, 119.7841
475.6597, 119.5908
476.1418, 119.0151
476.6239, 118.3753
477.1060, 117.9541
477.5881, 117.6557
478.0703, 117.1399
478.5524, 116.2583
479.0345, 115.2744
479.5166, 114.5858
479.9987, 114.2642
480.4808, 113.9106
480.9630, 113.2683
481.4451, 112.7882
481.9272, 112.8762
482.4093, 113.4201
482.8914, 114.0538
483.3735, 114.5874
483.8557, 114.9688
484.3378, 115.0094
484.8199, 114.4525
485.3020, 113.8973
485.7841, 113.2164
486.2662, 112.6481
486.7484, 112.4850
487.2305, 112.6808
487.7126, 112.8477
488.1947, 112.5929
488.6768, 111.9532
489.1589, 111.5003
489.6411, 111.1106
490.1232, 111.1346
490.6053, 112.1696
491.0874, 113.3931
491.5695, 113.7591
492.0516, 112.9340
492.5338, 111.8099
493.0159, 111.2761
493.4980, 111.2795
493.9801, 111.3687
494.4622, 111.4941
494.9443, 111.6718
495.4265, 111.9501
495.9086, 112.2951
496.3907, 112.6108
496.8728, 113.0288
497.3549, 113.2735
497.8370, 112.9291
498.3192, 112.1728
498.8013, 111.6696
499.2834, 111.6837
499.7655, 112.0402
500.2476, 112.5389
500.7297, 113.3373
501.2119, 113.6851
501.6940, 113.0503
502.1761, 112.3480
502.6582, 112.2291
503.1403, 112.6299
503.6224, 113.1911
504.1045, 113.7143
504.5866, 114.1592
505.0688, 114.3711
505.5509, 114.1210
506.0330, 113.9961
506.5151, 114.1614
506.9972, 114.3558
507.4793, 114.3046
507.9615, 114.0510
508.4436, 113.9351
508.9257, 114.3389
509.4078, 115.1307
509.8899, 115.4051
510.3720, 114.7930
510.8542, 114.4739
511.3363, 115.4009
511.8184, 116.5687
512.3005, 116.8713
512.7827, 116.0459
513.2648, 115.1031
513.7469, 114.6591
514.2290, 114.6905
514.7111, 115.2420
515.1932, 116.4267
515.6754, 117.6322
516.1575, 118.4320
516.6396, 118.8517
517.1217, 119.1098
517.6038, 119.1361
518.0859, 119.0884
518.5681, 118.8666
519.0502, 118.6613
519.5323, 118.8282
520.0144, 119.4653
520.4965, 120.3649
520.9786, 121.3270
521.4608, 122.4258
521.9429, 123.1186
522.4250, 122.8520
522.9071, 122.8544
523.3892, 123.6460
523.8713, 124.9655
524.3535, 126.3715
524.8356, 127.6748
525.3177, 129.0686
525.7998, 130.9502
526.2819, 133.4858
526.7640, 135.6511
527.2462, 137.0059
527.7283, 138.3575
528.2104, 139.9065
528.6925, 141.7563
529.1746, 144.1672
529.6567, 147.4918
530.1389, 151.0356
530.6210, 153.7819
531.1031, 155.7767
531.5852, 157.7864
532.0673, 159.9242
532.5494, 162.3159
533.0316, 165.1449
533.5137, 168.3598
533.9958, 171.9590
534.4779, 176.0745
534.9600, 180.4548
535.4421, 184.8508
535.9243, 189.3457
536.4064, 194.3257
536.8885, 199.9486
537.3706, 206.1376
537.8527, 212.6010
538.3348, 218.8472
538.8170, 226.6284
539.2991, 236.2195
539.7812, 246.9244
540.2633, 258.4418
540.7454, 270.7834
541.2275, 284.2544
541.7097, 299.1023
542.1918, 314.9975
542.6739, 331.2428
543.1560, 348.2451
543.6381, 364.5516
544.1202, 379.8304
544.6024, 394.2375
545.0845, 407.6479
545.5666, 420.2246
546.0487, 432.2922
546.5308, 443.6278
547.0129, 454.8628
547.4951, 466.8011
547.9772, 479.4648
548.4593, 492.9569
548.9414, 507.3116
549.4235, 522.4493
549.9056, 538.0328
550.3878, 553.7369
550.8699, 570.9156
551.3520, 590.2347
551.8341, 610.6829
552.3162, 631.7480
552.7983, 653.2231
553.2805, 674.6448
553.7626, 695.8100
554.2447, 716.9423
554.7268, 739.0184
555.2089, 764.4410
555.6910, 786.3199
556.1732, 804.7433
556.6553, 819.9307
557.1374, 832.9589
557.6195, 843.0844
558.1016, 848.3421
558.5837, 847.9338
559.0659, 841.3420
559.5480, 827.1215
560.0301, 805.0718
560.5122, 776.6091
560.9943, 739.4849
561.4764, 698.4174
561.9586, 657.5710
562.4407, 617.1067
562.9228, 577.7083
563.4049, 538.8242
563.8870, 501.6615
564.3691, 467.7184
564.8513, 436.9112
565.3334, 408.5336
565.8155, 382.2493
566.2976, 358.3315
566.7797, 337.2289
567.2618, 319.9088
567.7440, 303.6812
568.2261, 288.4702
568.7082, 274.5264
569.1903, 262.2040
569.6724, 251.2535
570.1545, 240.8329
570.6367, 230.5237
571.1188, 220.7988
571.6009, 212.9465
572.0830, 207.3448
572.5651, 201.9367
573.0472, 196.7152
573.5294, 191.4453
574.0115, 185.5869
574.4936, 179.5393
574.9757, 174.4537
575.4578, 171.1300
575.9399, 168.5127
576.4221, 165.4350
576.9042, 161.9903
577.3863, 158.7093
577.8684, 155.8134
578.3505, 152.9250
578.8326, 149.4309
579.3148, 145.2509
579.7969, 142.0872
580.2790, 140.7896
580.7611, 139.6921
581.2432, 138.0498
581.7253, 136.0443
582.2075, 133.9405
582.6896, 131.8628
583.1717, 129.9053
583.6538, 128.2291
584.1359, 126.8697
584.6180, 125.5498
585.1002, 124.4074
585.5823, 123.1148
586.0643, 121.4099
586.5464, 119.5633
587.0286, 117.9270
587.5107, 116.5971
587.9928, 115.4422
588.4749, 114.3287
