##NAMES=Schizolite
##RRUFFID=R120109
##IDEAL CHEMISTRY=NaCaMn^2+^Si_3_O_8_(OH)
##LOCALITY=Wessels mine, Kalahari Manganese Field, Northern Cape Province, South Africa
##OWNER=RRUFF
##SOURCE=Marcus Origlieri
##DESCRIPTION=Pink bladed crystals, with epitactic serandite and calcite, type sample
##STATUS=The identification of this mineral has been confirmed by single-crystal X-ray diffraction.
##URL=rruff.info/R120109
205.0696, 818.8102
205.5518, 828.9255
206.0339, 834.1013
206.5160, 837.0596
206.9981, 840.7534
207.4802, 845.6057
207.9623, 849.0321
208.4445, 850.1790
208.9266, 849.1364
209.4087, 847.9056
209.8908, 846.2305
210.3729, 844.7751
210.8550, 844.3513
211.3372, 845.1934
211.8193, 846.1779
212.3014, 846.8344
212.7835, 847.1461
213.2656, 848.7736
213.7477, 852.0953
214.2299, 856.1841
214.7120, 859.7871
215.1941, 862.4980
215.6762, 865.9025
216.1583, 870.4284
216.6404, 876.0403
217.1226, 882.5319
217.6047, 890.5511
218.0868, 898.6777
218.5689, 904.9871
219.0510, 908.2967
219.5331, 912.7389
220.0153, 920.1116
220.4974, 930.9827
220.9795, 938.7621
221.4616, 942.5662
221.9437, 944.3607
222.4258, 946.6454
222.9080, 949.8340
223.3901, 952.6295
223.8722, 954.6324
224.3543, 955.8183
224.8364, 956.6591
225.3185, 957.1518
225.8007, 957.2696
226.2828, 956.9786
226.7649, 956.2689
227.2470, 955.0941
227.7291, 953.3604
228.2112, 950.9435
228.6934, 948.6252
229.1755, 946.4627
229.6576, 944.3317
230.1397, 942.1510
230.6218, 940.0270
231.1039, 937.5932
231.5861, 934.5021
232.0682, 930.4108
232.5503, 927.9401
233.0324, 927.6826
233.5145, 928.5755
233.9966, 929.3209
234.4788, 929.8166
234.9609, 930.3578
235.4430, 930.8163
235.9251, 930.9996
236.4072, 932.6611
236.8893, 937.0233
237.3715, 941.8454
237.8536, 944.1804
238.3357, 942.6314
238.8178, 941.0031
239.2999, 939.8840
239.7820, 939.0673
240.2642, 940.4199
240.7463, 945.1367
241.2284, 950.9755
241.7105, 955.1621
242.1926, 956.8596
242.6747, 958.3829
243.1569, 960.3152
243.6390, 962.7596
244.1211, 964.7521
244.6032, 966.2282
245.0853, 967.3269
245.5674, 968.0970
246.0496, 968.0175
246.5317, 968.6126
247.0138, 970.3967
247.4959, 973.5136
247.9780, 976.3857
248.4601, 978.7882
248.9423, 981.2303
249.4244, 984.4061
249.9065, 989.0502
250.3886, 993.0065
250.8707, 995.5328
251.3528, 996.5150
251.8350, 998.4109
252.3171, 1001.406
252.7992, 1005.075
253.2813, 1009.132
253.7634, 1013.980
254.2455, 1018.187
254.7277, 1021.186
255.2098, 1022.945
255.6919, 1025.472
256.1740, 1028.919
256.6561, 1032.897
257.1382, 1037.151
257.6204, 1042.181
258.1025, 1046.270
258.5846, 1048.661
259.0667, 1049.485
259.5488, 1051.445
260.0309, 1054.648
260.5131, 1058.774
260.9952, 1063.685
261.4773, 1069.874
261.9594, 1075.561
262.4415, 1080.168
262.9236, 1083.907
263.4058, 1088.493
263.8879, 1094.330
264.3700, 1100.433
264.8521, 1106.022
265.3342, 1110.648
265.8163, 1116.145
266.2985, 1122.862
266.7806, 1130.614
267.2627, 1138.822
267.7448, 1147.912
268.2269, 1156.435
268.7090, 1163.250
269.1912, 1168.180
269.6733, 1172.326
270.1554, 1175.630
270.6375, 1178.290
271.1196, 1181.049
271.6017, 1184.015
272.0839, 1186.744
272.5660, 1189.169
273.0481, 1191.524
273.5302, 1191.963
274.0123, 1189.669
274.4944, 1185.775
274.9766, 1183.698
275.4587, 1183.830
275.9408, 1184.311
276.4229, 1183.642
276.9050, 1181.600
277.3871, 1181.327
277.8693, 1183.312
278.3514, 1186.884
278.8335, 1190.516
279.3156, 1194.144
279.7977, 1198.425
280.2798, 1204.323
280.7620, 1211.803
281.2441, 1217.445
281.7262, 1220.480
282.2083, 1222.682
282.6904, 1227.367
283.1725, 1234.662
283.6547, 1242.420
284.1368, 1248.996
284.6189, 1254.616
285.1010, 1263.274
285.5831, 1275.728
286.0652, 1289.322
286.5474, 1299.857
287.0295, 1307.403
287.5116, 1315.238
287.9937, 1324.959
288.4758, 1336.353
288.9579, 1347.467
289.4401, 1358.348
289.9222, 1369.314
290.4043, 1380.596
290.8864, 1392.232
291.3685, 1404.575
291.8506, 1418.067
292.3328, 1432.306
292.8149, 1445.590
293.2970, 1457.928
293.7791, 1469.979
294.2612, 1481.680
294.7433, 1493.390
295.2255, 1506.519
295.7076, 1522.128
296.1897, 1539.026
296.6718, 1554.197
297.1539, 1567.628
297.6360, 1581.432
298.1182, 1597.921
298.6003, 1616.082
299.0824, 1633.962
299.5645, 1651.688
300.0466, 1668.205
300.5287, 1681.755
301.0109, 1692.528
301.4930, 1702.310
301.9751, 1712.952
302.4572, 1723.296
302.9393, 1731.425
303.4214, 1737.657
303.9036, 1740.438
304.3857, 1736.748
304.8678, 1727.809
305.3499, 1717.926
305.8320, 1711.388
306.3141, 1704.808
306.7963, 1693.805
307.2784, 1676.611
307.7605, 1657.682
308.2426, 1640.344
308.7247, 1624.047
309.2068, 1607.492
309.6890, 1589.716
310.1711, 1571.484
310.6532, 1553.330
311.1353, 1535.138
311.6174, 1518.109
312.0995, 1503.329
312.5817, 1490.380
313.0638, 1478.378
313.5459, 1466.530
314.0280, 1455.719
314.5101, 1446.475
314.9922, 1438.899
315.4744, 1432.546
315.9565, 1427.322
316.4386, 1423.270
316.9207, 1420.496
317.4028, 1419.855
317.8849, 1419.740
318.3671, 1419.705
318.8492, 1419.727
319.3313, 1419.578
319.8134, 1418.093
320.2955, 1416.967
320.7776, 1417.552
321.2598, 1421.543
321.7419, 1425.740
322.2240, 1429.413
322.7061, 1432.645
323.1882, 1435.955
323.6703, 1439.592
324.1525, 1443.217
324.6346, 1446.641
325.1167, 1450.499
325.5988, 1453.298
326.0809, 1454.431
326.5630, 1454.381
327.0452, 1454.459
327.5273, 1454.976
328.0094, 1455.456
328.4915, 1455.914
328.9736, 1457.110
329.4557, 1456.566
329.9379, 1452.861
330.4200, 1447.851
330.9021, 1444.600
331.3842, 1444.397
331.8663, 1444.139
332.3484, 1442.452
332.8306, 1438.679
333.3127, 1437.989
333.7948, 1441.835
334.2769, 1447.460
334.7590, 1451.854
335.2411, 1454.745
335.7233, 1457.018
336.2054, 1458.260
336.6875, 1458.690
337.1696, 1461.714
337.6517, 1468.066
338.1339, 1475.630
338.6160, 1482.416
339.0981, 1488.067
339.5802, 1495.081
340.0623, 1504.103
340.5444, 1514.599
341.0266, 1524.061
341.5087, 1532.318
341.9908, 1540.864
342.4729, 1550.920
342.9550, 1562.372
343.4371, 1573.824
343.9193, 1585.123
344.4014, 1596.209
344.8835, 1607.059
345.3656, 1617.668
345.8477, 1627.057
346.3298, 1635.011
346.8120, 1641.469
347.2941, 1645.319
347.7762, 1646.297
348.2583, 1646.315
348.7404, 1647.997
349.2225, 1650.839
349.7047, 1652.633
350.1868, 1652.201
350.6689, 1650.353
351.1510, 1648.122
351.6331, 1645.525
352.1152, 1643.324
352.5974, 1642.322
353.0795, 1642.129
353.5616, 1641.936
354.0437, 1640.973
354.5258, 1640.611
355.0079, 1643.104
355.4901, 1647.781
355.9722, 1651.668
356.4543, 1650.922
356.9364, 1649.423
357.4185, 1651.528
357.9006, 1659.094
358.3828, 1667.391
358.8649, 1672.759
359.3470, 1676.780
359.8291, 1682.684
360.3112, 1693.347
360.7933, 1705.208
361.2755, 1716.139
361.7576, 1725.727
362.2397, 1735.863
362.7218, 1747.414
363.2039, 1759.817
363.6860, 1772.443
364.1682, 1783.838
364.6503, 1796.789
365.1324, 1812.940
365.6145, 1832.232
366.0966, 1849.876
366.5787, 1863.662
367.0609, 1876.456
367.5430, 1890.098
368.0251, 1906.467
368.5072, 1921.781
368.9893, 1935.977
369.4714, 1948.907
369.9536, 1959.584
370.4357, 1967.749
370.9178, 1973.975
371.3999, 1978.516
371.8820, 1981.799
372.3641, 1982.483
372.8463, 1980.980
373.3284, 1976.607
373.8105, 1967.988
374.2926, 1954.011
374.7747, 1938.096
375.2568, 1920.594
375.7390, 1901.393
376.2211, 1883.227
376.7032, 1866.113
377.1853, 1849.560
377.6674, 1832.476
378.1495, 1814.624
378.6317, 1797.817
379.1138, 1782.506
379.5959, 1768.289
380.0780, 1752.941
380.5601, 1736.344
381.0422, 1720.895
381.5244, 1708.919
382.0065, 1699.737
382.4886, 1689.902
382.9707, 1678.631
383.4528, 1667.708
383.9349, 1659.417
384.4171, 1653.586
384.8992, 1649.193
385.3813, 1646.303
385.8634, 1644.267
386.3455, 1641.537
386.8276, 1638.012
387.3098, 1635.379
387.7919, 1636.085
388.2740, 1638.525
388.7561, 1639.758
389.2382, 1637.323
389.7203, 1634.723
390.2025, 1635.060
390.6846, 1637.881
391.1667, 1641.139
391.6488, 1644.545
392.1309, 1647.385
392.6130, 1648.834
393.0952, 1647.907
393.5773, 1647.401
394.0594, 1647.979
394.5415, 1649.851
395.0236, 1653.400
395.5057, 1660.402
395.9879, 1667.681
396.4700, 1673.693
396.9521, 1677.988
397.4342, 1683.373
397.9163, 1691.515
398.3984, 1700.362
398.8806, 1708.036
399.3627, 1713.286
399.8448, 1718.626
400.3269, 1723.661
400.8090, 1728.721
401.2911, 1736.096
401.7733, 1746.946
402.2554, 1758.787
402.7375, 1770.324
403.2196, 1781.172
403.7017, 1792.706
404.1838, 1804.740
404.6660, 1817.565
405.1481, 1831.660
405.6302, 1847.477
406.1123, 1863.195
406.5944, 1878.140
407.0765, 1892.409
407.5587, 1906.684
408.0408, 1921.085
408.5229, 1935.289
409.0050, 1948.747
409.4871, 1961.474
409.9692, 1974.813
410.4514, 1989.594
410.9335, 2004.638
411.4156, 2017.350
411.8977, 2027.763
412.3798, 2037.720
412.8619, 2048.462
413.3441, 2059.468
413.8262, 2069.848
414.3083, 2079.523
414.7904, 2088.703
415.2725, 2098.046
415.7546, 2107.121
416.2368, 2115.248
416.7189, 2121.798
417.2010, 2127.407
417.6831, 2132.526
418.1652, 2137.137
418.6473, 2141.425
419.1295, 2145.977
419.6116, 2149.957
420.0937, 2152.522
420.5758, 2153.025
421.0579, 2152.782
421.5400, 2152.455
422.0222, 2151.732
422.5043, 2149.830
422.9864, 2147.939
423.4685, 2143.718
423.9506, 2135.814
424.4327, 2123.104
424.9149, 2110.438
425.3970, 2098.246
425.8791, 2086.099
426.3612, 2073.369
426.8433, 2059.611
427.3254, 2046.113
427.8076, 2033.436
428.2897, 2021.203
428.7718, 2007.230
429.2539, 1990.425
429.7360, 1974.354
430.2181, 1961.798
430.7003, 1953.414
431.1824, 1943.846
431.6645, 1932.392
432.1466, 1920.532
432.6287, 1911.214
433.1108, 1904.578
433.5930, 1898.092
434.0751, 1890.557
434.5572, 1882.522
435.0393, 1875.544
435.5214, 1869.653
436.0035, 1865.141
436.4857, 1863.297
436.9678, 1863.090
437.4499, 1861.910
437.9320, 1858.956
438.4141, 1855.282
438.8962, 1851.266
439.3784, 1847.323
439.8605, 1844.703
440.3426, 1844.646
440.8247, 1845.809
441.3068, 1847.236
441.7889, 1848.848
442.2711, 1850.400
442.7532, 1852.369
443.2353, 1853.954
443.7174, 1854.324
444.1995, 1851.091
444.6816, 1848.867
445.1638, 1849.104
445.6459, 1851.478
446.1280, 1854.447
446.6101, 1859.211
447.0922, 1863.347
447.5743, 1865.575
448.0565, 1864.644
448.5386, 1864.945
449.0207, 1867.240
449.5028, 1870.292
449.9849, 1872.277
450.4670, 1872.196
450.9492, 1873.464
451.4313, 1877.409
451.9134, 1883.509
452.3955, 1887.360
452.8776, 1888.188
453.3597, 1889.293
453.8419, 1893.514
454.3240, 1900.723
454.8061, 1906.718
455.2882, 1911.004
455.7703, 1914.233
456.2524, 1916.734
456.7346, 1918.740
457.2167, 1921.561
457.6988, 1926.593
458.1809, 1932.436
458.6630, 1936.084
459.1451, 1937.684
459.6273, 1940.364
460.1094, 1947.417
460.5915, 1956.598
461.0736, 1965.030
461.5557, 1972.114
462.0378, 1978.477
462.5200, 1984.948
463.0021, 1991.033
463.4842, 1995.623
463.9663, 1997.926
464.4484, 1999.021
464.9305, 1999.177
465.4127, 1998.406
465.8948, 1997.380
466.3769, 1995.745
466.8590, 1994.223
467.3411, 1993.349
467.8232, 1994.810
468.3054, 1994.632
468.7875, 1991.075
469.2696, 1986.075
469.7517, 1984.772
470.2338, 1989.370
470.7159, 1993.550
471.1981, 1994.853
471.6802, 1993.136
472.1623, 1991.970
472.6444, 1991.256
473.1265, 1991.359
473.6086, 1993.012
474.0908, 1996.179
474.5729, 1998.930
475.0550, 2000.752
475.5371, 2002.213
476.0192, 2004.284
476.5013, 2006.941
476.9835, 2009.990
477.4656, 2013.829
477.9477, 2017.824
478.4298, 2020.805
478.9119, 2022.692
479.3940, 2024.396
479.8762, 2026.154
480.3583, 2028.316
480.8404, 2031.418
481.3225, 2036.421
481.8046, 2041.368
482.2867, 2045.215
482.7689, 2048.271
483.2510, 2051.293
483.7331, 2054.323
484.2152, 2057.636
484.6973, 2061.246
485.1794, 2065.077
485.6616, 2069.813
486.1437, 2077.101
486.6258, 2084.351
487.1079, 2089.448
487.5900, 2090.143
488.0721, 2092.648
488.5543, 2097.776
489.0364, 2104.921
489.5185, 2112.378
490.0006, 2119.932
490.4827, 2128.157
490.9648, 2137.542
491.4470, 2148.007
491.9291, 2157.584
492.4112, 2166.248
492.8933, 2173.888
493.3754, 2180.007
493.8575, 2184.933
494.3397, 2190.275
494.8218, 2197.148
495.3039, 2203.116
495.7860, 2203.906
496.2681, 2200.667
496.7502, 2197.281
497.2324, 2196.686
497.7145, 2196.344
498.1966, 2193.582
498.6787, 2188.220
499.1608, 2182.719
499.6429, 2176.331
500.1251, 2171.388
500.6072, 2169.924
501.0893, 2175.200
501.5714, 2180.069
502.0535, 2182.600
502.5356, 2183.654
503.0178, 2185.240
503.4999, 2187.360
503.9820, 2190.261
504.4641, 2194.118
504.9462, 2198.976
505.4283, 2204.137
505.9105, 2209.796
506.3926, 2215.490
506.8747, 2220.697
507.3568, 2225.218
507.8389, 2230.911
508.3210, 2238.374
508.8032, 2246.175
509.2853, 2251.712
509.7674, 2255.058
510.2495, 2257.573
510.7316, 2259.280
511.2137, 2260.738
511.6959, 2263.468
512.1780, 2267.322
512.6601, 2271.003
513.1422, 2273.348
513.6243, 2275.010
514.1064, 2277.154
514.5886, 2280.480
515.0707, 2282.484
515.5528, 2280.322
516.0349, 2276.222
516.5170, 2273.363
516.9991, 2272.345
517.4813, 2273.211
517.9634, 2276.979
518.4455, 2283.231
518.9276, 2288.497
519.4097, 2290.978
519.8918, 2293.615
520.3740, 2297.691
520.8561, 2303.953
521.3382, 2309.181
521.8203, 2313.001
522.3024, 2316.148
522.7845, 2319.354
523.2667, 2322.485
523.7488, 2326.387
524.2309, 2331.671
524.7130, 2337.324
525.1951, 2340.107
525.6772, 2340.117
526.1594, 2341.236
526.6415, 2347.428
527.1236, 2356.040
527.6057, 2360.503
528.0878, 2360.582
528.5699, 2360.149
529.0521, 2362.558
529.5342, 2366.350
530.0163, 2369.419
530.4984, 2370.253
530.9805, 2372.040
531.4626, 2377.024
531.9448, 2384.140
532.4269, 2391.294
532.9090, 2399.479
533.3911, 2406.063
533.8732, 2409.267
534.3553, 2408.833
534.8375, 2410.390
535.3196, 2416.165
535.8017, 2421.746
536.2838, 2424.425
536.7659, 2422.614
537.2480, 2422.365
537.7302, 2424.114
538.2123, 2426.853
538.6944, 2429.149
539.1765, 2431.006
539.6586, 2432.832
540.1407, 2434.777
540.6229, 2436.774
541.1050, 2438.508
541.5871, 2440.048
542.0692, 2441.737
542.5513, 2444.793
543.0334, 2447.854
543.5156, 2448.147
543.9977, 2445.400
544.4798, 2443.283
544.9619, 2444.934
545.4440, 2448.385
545.9261, 2451.381
546.4083, 2451.847
546.8904, 2453.804
547.3725, 2460.569
547.8546, 2469.549
548.3367, 2475.398
548.8188, 2473.578
549.3010, 2472.400
549.7831, 2474.134
550.2652, 2478.715
550.7473, 2482.585
551.2294, 2485.491
551.7115, 2488.132
552.1937, 2491.066
552.6758, 2494.405
553.1579, 2497.173
553.6400, 2499.168
554.1221, 2501.206
554.6042, 2504.584
555.0864, 2509.109
555.5685, 2513.489
556.0506, 2517.302
556.5327, 2520.747
557.0148, 2524.108
557.4969, 2527.305
557.9791, 2530.120
558.4612, 2531.408
558.9433, 2532.877
559.4254, 2536.454
559.9075, 2542.307
560.3896, 2547.130
560.8718, 2548.069
561.3539, 2548.339
561.8360, 2550.383
562.3181, 2556.605
562.8002, 2561.551
563.2823, 2563.995
563.7645, 2565.492
564.2466, 2568.497
564.7287, 2573.822
565.2108, 2578.891
565.6929, 2583.198
566.1750, 2586.788
566.6572, 2589.757
567.1393, 2591.936
567.6214, 2594.503
568.1035, 2598.884
568.5856, 2604.282
569.0677, 2607.009
569.5499, 2606.667
570.0320, 2607.252
570.5141, 2614.336
570.9962, 2624.366
571.4783, 2631.344
571.9604, 2632.802
572.4426, 2633.123
572.9247, 2634.588
573.4068, 2636.983
573.8889, 2639.953
574.3710, 2643.858
574.8531, 2647.884
575.3353, 2651.751
575.8174, 2655.481
576.2995, 2659.519
576.7816, 2664.345
577.2637, 2668.900
577.7458, 2672.795
578.2280, 2675.991
578.7101, 2678.241
579.1922, 2678.799
579.6743, 2680.034
580.1564, 2685.250
580.6385, 2694.145
581.1207, 2701.848
581.6028, 2707.539
582.0849, 2711.463
582.5670, 2712.654
583.0491, 2712.112
583.5313, 2713.184
584.0134, 2718.407
584.4955, 2725.251
584.9776, 2731.839
585.4597, 2738.129
585.9418, 2743.999
586.4240, 2750.503
586.9061, 2755.680
587.3882, 2757.851
587.8703, 2755.599
588.3524, 2755.104
588.8345, 2757.740
589.3167, 2761.993
589.7988, 2767.084
590.2809, 2774.601
590.7630, 2778.885
591.2451, 2777.885
591.7272, 2775.186
592.2094, 2778.375
592.6915, 2787.847
593.1736, 2796.597
593.6557, 2802.217
594.1378, 2805.602
594.6199, 2808.501
595.1021, 2810.956
595.5842, 2813.447
596.0663, 2816.030
596.5484, 2818.948
597.0305, 2822.624
597.5126, 2827.105
597.9948, 2831.794
598.4769, 2836.615
598.9590, 2841.302
599.4411, 2845.628
599.9232, 2849.097
600.4053, 2852.979
600.8875, 2857.872
601.3696, 2863.125
601.8517, 2867.759
602.3338, 2871.289
602.8159, 2875.169
603.2980, 2879.947
603.7802, 2885.194
604.2623, 2889.173
604.7444, 2891.611
605.2265, 2894.703
605.7086, 2900.038
606.1907, 2906.896
606.6729, 2913.052
607.1550, 2918.460
607.6371, 2923.181
608.1192, 2926.433
608.6013, 2929.289
609.0834, 2933.322
609.5656, 2939.200
610.0477, 2944.716
610.5298, 2948.626
611.0119, 2951.582
611.4940, 2954.364
611.9761, 2957.043
612.4583, 2959.765
612.9404, 2962.010
613.4225, 2964.483
613.9046, 2969.105
614.3867, 2977.285
614.8688, 2984.445
615.3510, 2988.420
615.8331, 2990.164
616.3152, 2996.645
616.7973, 3008.260
617.2794, 3019.878
617.7615, 3027.003
618.2437, 3031.296
618.7258, 3038.448
619.2079, 3048.894
619.6900, 3058.201
620.1721, 3060.497
620.6542, 3060.264
621.1364, 3063.403
621.6185, 3072.756
622.1006, 3082.362
622.5827, 3090.642
623.0648, 3097.431
623.5469, 3102.488
624.0291, 3103.527
624.5112, 3105.715
624.9933, 3110.077
625.4754, 3116.208
625.9575, 3122.525
626.4396, 3129.097
626.9218, 3135.959
627.4039, 3143.251
627.8860, 3150.878
628.3681, 3157.929
628.8502, 3164.346
629.3323, 3171.476
629.8145, 3179.556
630.2966, 3189.195
630.7787, 3203.314
631.2608, 3222.670
631.7429, 3239.490
632.2250, 3244.616
632.7072, 3245.607
633.1893, 3250.971
633.6714, 3265.840
634.1535, 3279.812
634.6356, 3289.315
635.1177, 3296.449
635.5999, 3304.650
636.0820, 3312.751
636.5641, 3324.035
637.0462, 3340.108
637.5283, 3359.464
638.0104, 3376.698
638.4926, 3391.346
638.9747, 3407.924
639.4568, 3430.200
639.9389, 3455.972
640.4210, 3476.372
640.9031, 3491.927
641.3853, 3508.115
641.8674, 3527.323
642.3495, 3550.335
642.8316, 3578.448
643.3137, 3612.392
643.7958, 3647.700
644.2780, 3681.306
644.7601, 3716.176
645.2422, 3754.619
645.7243, 3797.557
646.2064, 3843.392
646.6885, 3892.277
647.1707, 3943.657
647.6528, 3995.536
648.1349, 4047.363
648.6170, 4102.790
649.0991, 4163.671
649.5812, 4228.114
650.0634, 4292.617
650.5455, 4357.980
651.0276, 4427.593
651.5097, 4504.468
651.9918, 4586.638
652.4739, 4672.321
652.9561, 4760.393
653.4382, 4851.479
653.9203, 4945.569
654.4024, 5041.379
654.8845, 5140.483
655.3666, 5243.078
655.8488, 5341.773
656.3309, 5436.013
656.8130, 5524.888
657.2951, 5609.625
657.7772, 5697.355
658.2593, 5761.794
658.7415, 5801.868
659.2236, 5820.426
659.7057, 5821.628
660.1878, 5805.489
660.6699, 5764.795
661.1520, 5697.420
661.6342, 5608.674
662.1163, 5499.260
662.5984, 5374.312
663.0805, 5247.244
663.5626, 5121.417
664.0447, 4997.451
664.5269, 4872.333
665.0090, 4749.603
665.4911, 4636.133
665.9732, 4534.704
666.4553, 4442.459
666.9374, 4359.562
667.4196, 4285.159
667.9017, 4217.328
668.3838, 4155.523
668.8659, 4100.408
669.3480, 4052.387
669.8301, 4011.434
670.3123, 3974.303
670.7944, 3940.896
671.2765, 3911.234
671.7586, 3884.544
672.2407, 3861.236
672.7228, 3843.511
673.2050, 3832.109
673.6871, 3821.906
674.1692, 3807.870
674.6513, 3793.079
675.1334, 3781.348
675.6155, 3774.952
676.0977, 3769.329
676.5798, 3763.519
677.0619, 3757.970
677.5440, 3753.418
678.0261, 3750.053
678.5082, 3747.478
678.9904, 3745.759
679.4725, 3744.797
679.9546, 3744.517
680.4367, 3744.977
680.9188, 3745.044
681.4009, 3744.228
681.8831, 3742.801
682.3652, 3740.503
682.8473, 3737.755
683.3294, 3736.643
683.8115, 3739.322
684.2936, 3743.366
684.7758, 3747.606
685.2579, 3751.884
685.7400, 3754.880
686.2221, 3753.133
686.7042, 3752.616
687.1863, 3756.648
687.6685, 3766.403
688.1506, 3775.577
688.6327, 3784.211
689.1148, 3792.372
689.5969, 3800.005
690.0790, 3807.156
690.5612, 3814.370
691.0433, 3821.805
691.5254, 3828.389
692.0075, 3832.013
692.4896, 3833.881
692.9717, 3836.088
693.4539, 3838.839
693.9360, 3842.752
694.4181, 3848.056
694.9002, 3854.780
695.3823, 3863.002
695.8644, 3876.097
696.3466, 3886.554
696.8287, 3893.049
697.3108, 3896.513
697.7929, 3898.781
698.2750, 3899.508
698.7571, 3900.793
699.2393, 3903.570
699.7214, 3907.343
700.2035, 3910.482
700.6856, 3913.066
701.1677, 3915.568
