##NAMES=Schiavinatoite
##RRUFFID=R090010
##IDEAL CHEMISTRY=Nb^5+^BO_4_
##LOCALITY=Antsongombato, south of Betafo, south of Mahaiz, Madagascar
##OWNER=RRUFF
##SOURCE=William W. Pinch
##DESCRIPTION=Dark brown vitreous dipyramidal crystal on white microcline matrix associated with pink tourmaline
##STATUS=The identification of this mineral has been confirmed only by single crystal X-ray diffraction.
##URL=rruff.info/R090010
91.40820, 6.241683
91.89032, 6.242004
92.37244, 6.205968
92.85455, 6.149585
93.33667, 6.168181
93.81879, 6.348081
94.30090, 6.659142
94.78302, 6.906920
95.26514, 6.701660
95.74725, 6.690789
96.22937, 9.236922
96.71149, 14.61224
97.19360, 19.20641
97.67572, 18.64068
98.15784, 13.01964
98.63995, 8.243172
99.12207, 6.088531
99.60419, 6.295822
100.0863, 6.438228
100.5684, 6.493691
101.0505, 6.528870
101.5327, 6.484656
102.0148, 6.152108
102.4969, 6.459980
102.9790, 7.873793
103.4611, 10.62213
103.9432, 13.30262
104.4253, 16.49709
104.9075, 19.28937
105.3896, 19.55658
105.8717, 15.39868
106.3538, 11.29516
106.8359, 8.917487
107.3180, 9.356023
107.8002, 9.663975
108.2823, 9.611964
108.7644, 9.384536
109.2465, 9.665492
109.7286, 11.08749
110.2107, 12.56016
110.6929, 13.63814
111.1750, 13.79369
111.6571, 14.11454
112.1392, 14.70495
112.6213, 15.54772
113.1034, 16.50861
113.5856, 17.44642
114.0677, 18.57311
114.5498, 20.02813
115.0319, 22.13624
115.5140, 24.30676
115.9961, 26.35222
116.4783, 28.26985
116.9604, 30.18849
117.4425, 32.15144
117.9246, 34.16626
118.4067, 36.22347
118.8888, 38.52514
119.3710, 40.73846
119.8531, 42.64366
120.3352, 44.19962
120.8173, 45.65900
121.2994, 47.03028
121.7815, 48.40543
122.2637, 49.95122
122.7458, 51.72607
123.2279, 53.70340
123.7100, 55.86071
124.1921, 58.20247
124.6742, 60.69566
125.1564, 63.37964
125.6385, 66.20888
126.1206, 69.05138
126.6027, 71.59807
127.0848, 74.12076
127.5669, 77.18069
128.0491, 81.05164
128.5312, 85.08968
129.0133, 88.32045
129.4954, 90.78726
129.9775, 93.16035
130.4596, 96.15713
130.9418, 99.50139
131.4239, 102.1671
131.9060, 103.7850
132.3881, 104.7843
132.8702, 106.0558
133.3523, 107.6064
133.8345, 109.3936
134.3166, 111.5580
134.7987, 114.1105
135.2808, 116.2698
135.7629, 117.7217
136.2450, 118.6852
136.7272, 120.2341
137.2093, 122.4662
137.6914, 125.0031
138.1735, 127.5281
138.6556, 130.0499
139.1377, 132.4405
139.6199, 134.7346
140.1020, 136.9118
140.5841, 138.6790
141.0662, 139.8284
141.5483, 140.8190
142.0304, 142.2074
142.5126, 144.0193
142.9947, 146.0857
143.4768, 147.8964
143.9589, 149.1169
144.4410, 150.5490
144.9231, 152.3186
145.4053, 154.2213
145.8874, 155.9819
146.3695, 157.5314
146.8516, 159.0433
147.3337, 160.6316
147.8158, 162.6910
148.2980, 163.9116
148.7801, 163.9544
149.2622, 163.2522
149.7443, 162.6595
150.2264, 161.7356
150.7085, 161.2945
151.1907, 161.6869
151.6728, 163.8735
152.1549, 165.2778
152.6370, 165.4341
153.1191, 164.7671
153.6012, 164.3131
154.0834, 164.0638
154.5655, 164.0963
155.0476, 164.4739
155.5297, 165.7616
156.0118, 166.6192
156.4939, 166.5440
156.9761, 165.8271
157.4582, 165.4406
157.9403, 165.6679
158.4224, 166.2346
158.9045, 166.9872
159.3866, 167.9365
159.8688, 169.0053
160.3509, 170.0397
160.8330, 171.1176
161.3151, 172.6097
161.7972, 175.2909
162.2793, 178.1060
162.7615, 180.2463
163.2436, 180.8729
163.7257, 181.3745
164.2078, 182.2881
164.6899, 183.5823
165.1720, 185.0521
165.6541, 186.4958
166.1363, 188.0993
166.6184, 190.0459
167.1005, 192.6984
167.5826, 195.4682
168.0647, 198.1684
168.5468, 200.7772
169.0290, 203.0080
169.5111, 204.1323
169.9932, 204.9017
170.4753, 206.3167
170.9574, 209.3218
171.4395, 212.7492
171.9217, 215.5277
172.4038, 217.6568
172.8859, 219.9672
173.3680, 223.2157
173.8501, 227.0619
174.3322, 230.9670
174.8144, 235.0217
175.2965, 238.9036
175.7786, 241.9384
176.2607, 244.1205
176.7428, 246.2532
177.2249, 249.2297
177.7071, 252.7209
178.1892, 255.9952
178.6713, 258.3772
179.1534, 260.4302
179.6355, 263.1556
180.1176, 266.6511
180.5998, 270.3661
181.0819, 273.9810
181.5640, 277.4066
182.0461, 280.4653
182.5282, 282.6545
183.0103, 284.4238
183.4925, 286.7787
183.9746, 289.7645
184.4567, 293.2158
184.9388, 297.1954
185.4209, 301.6225
185.9030, 305.7580
186.3852, 309.0010
186.8673, 311.6451
187.3494, 315.0271
187.8315, 319.4020
188.3136, 323.7821
188.7957, 326.9341
189.2779, 328.8863
189.7600, 330.3354
190.2421, 331.4188
190.7242, 332.2078
191.2063, 333.2188
191.6884, 334.5743
192.1706, 335.8812
192.6527, 336.6382
193.1348, 336.8363
193.6169, 336.4819
194.0990, 335.2228
194.5811, 333.1549
195.0633, 331.8190
195.5454, 331.4495
196.0275, 331.4902
196.5096, 330.8363
196.9917, 329.4100
197.4738, 328.1367
197.9560, 327.6429
198.4381, 327.9355
198.9202, 327.8278
199.4023, 327.1321
199.8844, 326.2278
200.3665, 326.0307
200.8487, 326.7044
201.3308, 327.1373
201.8129, 326.5724
202.2950, 324.9027
202.7771, 323.7642
203.2592, 323.4081
203.7414, 323.3859
204.2235, 322.8131
204.7056, 321.7201
205.1877, 319.9774
205.6698, 317.3588
206.1519, 313.7102
206.6341, 310.1628
207.1162, 306.8433
207.5983, 303.5986
208.0804, 300.0868
208.5625, 296.2787
209.0446, 292.3965
209.5268, 288.4847
210.0089, 284.4662
210.4910, 280.8202
210.9731, 277.6602
211.4552, 274.8007
211.9373, 271.7841
212.4195, 268.4641
212.9016, 265.3950
213.3837, 262.9106
213.8658, 261.1775
214.3479, 259.3926
214.8300, 257.4795
215.3121, 255.5271
215.7943, 253.7028
216.2764, 251.9170
216.7585, 250.4701
217.2406, 249.5596
217.7227, 249.4077
218.2048, 249.0602
218.6870, 248.3551
219.1691, 247.5234
219.6512, 247.1057
220.1333, 247.2139
220.6154, 247.5264
221.0975, 247.9434
221.5797, 248.5298
222.0618, 248.9919
222.5439, 249.1691
223.0260, 249.3024
223.5081, 250.0517
223.9902, 251.9340
224.4724, 253.5332
224.9545, 254.0468
225.4366, 252.7129
225.9187, 252.5959
226.4008, 254.2009
226.8829, 256.7901
227.3651, 258.7753
227.8472, 259.8507
228.3293, 260.8668
228.8114, 262.1799
229.2935, 263.9391
229.7757, 265.5418
230.2578, 267.0986
230.7399, 268.4236
231.2220, 269.1303
231.7041, 268.9606
232.1862, 268.5595
232.6684, 268.0965
233.1505, 267.4703
233.6326, 267.1549
234.1147, 267.5068
234.5968, 267.9756
235.0789, 267.5208
235.5611, 265.7550
236.0432, 263.7011
236.5253, 261.5962
237.0074, 259.3896
237.4895, 257.4630
237.9716, 255.9699
238.4538, 254.6657
238.9359, 253.1816
239.4180, 251.5327
239.9001, 249.6541
240.3822, 247.5059
240.8643, 245.0901
241.3465, 242.4780
241.8286, 239.5492
242.3107, 236.5076
242.7928, 233.6301
243.2749, 230.9098
243.7570, 228.3674
244.2392, 226.0797
244.7213, 224.1208
245.2034, 221.8933
245.6855, 219.2438
246.1676, 216.4391
246.6497, 213.7922
247.1319, 211.2727
247.6140, 208.9828
248.0961, 207.0438
248.5782, 205.5188
249.0603, 203.6614
249.5424, 201.1986
250.0246, 198.6516
250.5067, 196.5811
250.9888, 195.1939
251.4709, 193.8702
251.9530, 192.4193
252.4351, 190.8063
252.9173, 189.6119
253.3994, 189.0154
253.8815, 188.5980
254.3636, 187.9733
254.8457, 187.1419
255.3278, 186.0810
255.8100, 184.6296
256.2921, 182.8044
256.7742, 181.5571
257.2563, 181.0920
257.7384, 180.9296
258.2205, 180.6756
258.7026, 180.2574
259.1848, 179.9416
259.6669, 179.8383
260.1490, 179.9037
260.6311, 179.7273
261.1132, 179.2013
261.5953, 178.6186
262.0775, 178.1911
262.5596, 177.9286
263.0417, 177.8006
263.5238, 177.8716
264.0059, 178.0740
264.4880, 178.0691
264.9702, 177.7925
265.4523, 177.4256
265.9344, 177.0113
266.4165, 176.4270
266.8986, 176.2362
267.3807, 176.5454
267.8629, 177.2539
268.3450, 178.1211
268.8271, 179.3179
269.3092, 180.2796
269.7913, 180.6206
270.2734, 180.1730
270.7556, 179.9018
271.2377, 179.7842
271.7198, 179.9276
272.2019, 180.6800
272.6840, 182.2167
273.1661, 183.7751
273.6483, 184.2524
274.1304, 186.0104
274.6125, 187.3678
275.0946, 188.3461
275.5767, 187.8101
276.0588, 189.2296
276.5410, 189.8655
277.0231, 190.4692
277.5052, 192.1638
277.9873, 191.8481
278.4694, 193.5254
278.9515, 194.4072
279.4337, 195.6532
279.9158, 196.1107
280.3979, 196.8116
280.8800, 198.3013
281.3621, 198.9155
281.8442, 199.4685
282.3264, 200.5168
282.8085, 202.1894
283.2906, 203.9271
283.7727, 205.1076
284.2548, 205.7314
284.7369, 206.0769
285.2191, 206.1609
285.7012, 206.0386
286.1833, 205.9721
286.6654, 205.9896
287.1475, 205.8809
287.6296, 205.5097
288.1118, 204.8660
288.5939, 203.8297
289.0760, 202.3041
289.5581, 200.4176
290.0402, 198.3732
290.5223, 196.1550
291.0045, 193.9721
291.4866, 191.9051
291.9687, 189.9722
292.4508, 188.2502
292.9329, 186.7190
293.4150, 185.4555
293.8972, 184.7578
294.3793, 184.5652
294.8614, 184.1444
295.3435, 182.7875
295.8256, 180.8208
296.3077, 179.1332
296.7899, 177.8490
297.2720, 176.8673
297.7541, 176.3274
298.2362, 176.0944
298.7183, 175.5438
299.2004, 173.8293
299.6826, 171.6700
300.1647, 170.5063
300.6468, 170.5616
301.1289, 170.8983
301.6110, 170.5239
302.0931, 169.6578
302.5753, 168.8694
303.0574, 168.5977
303.5395, 168.4802
304.0216, 168.0238
304.5037, 167.2087
304.9858, 166.3078
305.4680, 165.5878
305.9501, 164.9341
306.4322, 164.1443
306.9143, 162.7479
307.3964, 161.4731
307.8785, 161.1761
308.3607, 161.7636
308.8428, 162.3069
309.3249, 162.1807
309.8070, 161.6719
310.2891, 161.1012
310.7712, 160.4562
311.2534, 159.8933
311.7355, 159.4350
312.2176, 159.1170
312.6997, 159.0971
313.1818, 159.9068
313.6639, 160.7931
314.1461, 161.0945
314.6282, 160.4184
315.1103, 159.6975
315.5924, 159.3746
316.0745, 159.3439
316.5566, 159.3820
317.0388, 159.2769
317.5209, 159.3091
318.0030, 159.6833
318.4851, 160.5020
318.9672, 161.3415
319.4493, 162.0311
319.9315, 162.6634
320.4136, 163.3708
320.8957, 164.5023
321.3778, 165.4256
321.8599, 165.8192
322.3420, 165.6157
322.8242, 165.5129
323.3063, 165.8890
323.7884, 166.3167
324.2705, 166.4230
324.7526, 165.3458
325.2347, 164.7928
325.7169, 165.4828
326.1990, 167.2824
326.6811, 168.4599
327.1632, 168.3143
327.6453, 167.9105
328.1274, 167.8381
328.6096, 168.3473
329.0917, 168.8931
329.5738, 169.3708
330.0559, 169.8620
330.5380, 170.6402
331.0201, 171.7313
331.5023, 173.0842
331.9844, 174.7500
332.4665, 176.9859
332.9486, 178.8091
333.4307, 179.7055
333.9128, 180.4492
334.3950, 182.3965
334.8771, 186.0932
335.3592, 190.0187
335.8413, 193.8206
336.3234, 197.5729
336.8055, 200.8625
337.2877, 204.2833
337.7698, 206.3728
338.2519, 205.3702
338.7340, 200.8547
339.2161, 194.7743
339.6982, 186.9750
340.1803, 177.8720
340.6624, 170.4367
341.1446, 164.6574
341.6267, 160.3269
342.1088, 157.4325
342.5909, 156.0373
343.0730, 154.9260
343.5551, 154.0327
344.0373, 153.2369
344.5194, 152.2379
345.0015, 151.0138
345.4836, 149.1350
345.9657, 149.2842
346.4478, 149.0577
346.9300, 148.4769
347.4121, 146.4069
347.8942, 146.3173
348.3763, 145.4689
348.8584, 144.6134
349.3405, 144.8739
349.8227, 143.1487
350.3048, 143.4417
350.7869, 142.9641
351.2690, 142.8755
351.7511, 142.0234
352.2332, 141.4398
352.7154, 141.6697
353.1975, 141.4879
353.6796, 140.6448
354.1617, 140.7290
354.6438, 139.2259
355.1259, 139.1625
355.6081, 139.7345
356.0902, 139.0557
356.5723, 139.1548
357.0544, 139.1254
357.5365, 138.3978
358.0186, 137.6595
358.5008, 137.3591
358.9829, 137.3953
359.4650, 137.5523
359.9471, 138.0423
360.4292, 138.3972
360.9113, 138.2460
361.3935, 137.4916
361.8756, 136.7160
362.3577, 136.0056
362.8398, 135.4565
363.3219, 135.1774
363.8040, 135.6026
364.2862, 135.9124
364.7683, 135.6715
365.2504, 134.9208
365.7325, 134.5351
366.2146, 135.1278
366.6967, 135.8541
367.1789, 136.1893
367.6610, 135.5878
368.1431, 135.1757
368.6252, 135.1084
369.1073, 135.2962
369.5894, 135.4555
370.0716, 135.7502
370.5537, 135.8441
371.0358, 135.5027
371.5179, 134.3451
372.0000, 133.9637
372.4821, 134.8804
372.9643, 136.2146
373.4464, 136.7571
373.9285, 136.1872
374.4106, 135.4690
374.8927, 134.7077
375.3748, 133.9173
375.8570, 133.6472
376.3391, 134.0874
376.8212, 134.6409
377.3033, 134.7367
377.7854, 134.2777
378.2675, 134.1246
378.7497, 134.5270
379.2318, 135.1766
379.7139, 135.2426
380.1960, 134.6849
380.6781, 134.0254
381.1602, 133.5465
381.6424, 133.2284
382.1245, 132.9292
382.6066, 132.6295
383.0887, 132.3993
383.5708, 132.3674
384.0529, 132.4984
384.5351, 132.6156
385.0172, 132.6010
385.4993, 132.5499
385.9814, 132.7487
386.4635, 133.1747
386.9456, 133.3786
387.4278, 132.6359
387.9099, 131.5058
388.3920, 130.9381
388.8741, 131.4241
389.3562, 132.1058
389.8383, 132.1772
390.3205, 131.8271
390.8026, 131.5862
391.2847, 131.9211
391.7668, 132.3525
392.2489, 132.5143
392.7310, 132.3329
393.2132, 132.0249
393.6953, 131.4510
394.1774, 130.8910
394.6595, 130.6825
395.1416, 131.4008
395.6237, 132.0397
396.1059, 132.1845
396.5880, 131.8588
397.0701, 131.5830
397.5522, 131.6798
398.0343, 131.7174
398.5164, 131.4347
398.9986, 130.2632
399.4807, 129.4855
399.9628, 129.2953
400.4449, 129.5104
400.9270, 129.7041
401.4091, 129.6941
401.8913, 129.8986
402.3734, 130.4973
402.8555, 131.5722
403.3376, 132.6099
403.8197, 133.7237
404.3018, 134.6668
404.7840, 135.0792
405.2661, 134.7442
405.7482, 134.6524
406.2303, 135.1002
406.7124, 135.9075
407.1945, 136.2718
407.6767, 136.1082
408.1588, 135.9119
408.6409, 136.0596
409.1230, 136.5226
409.6051, 136.8322
410.0872, 136.8868
410.5694, 136.9721
411.0515, 137.5835
411.5336, 138.6526
412.0157, 139.7420
412.4978, 140.7281
412.9799, 141.5875
413.4621, 142.2221
413.9442, 142.6433
414.4263, 143.0573
414.9084, 143.6411
415.3905, 144.3333
415.8727, 145.0376
416.3548, 145.7017
416.8369, 146.4243
417.3190, 147.3342
417.8011, 148.3724
418.2832, 149.3998
418.7654, 150.4543
419.2475, 151.3872
419.7296, 151.9066
420.2117, 151.8481
420.6938, 152.2885
421.1759, 154.1418
421.6581, 156.5070
422.1402, 158.4528
422.6223, 159.0557
423.1044, 159.9359
423.5865, 161.6114
424.0686, 163.9763
424.5508, 166.2425
425.0329, 168.4724
425.5150, 170.4613
425.9971, 172.0320
426.4792, 172.5724
426.9613, 173.9805
427.4435, 176.5924
427.9256, 179.8815
428.4077, 183.0004
428.8898, 185.8652
429.3719, 188.8417
429.8540, 192.0795
430.3362, 195.5451
430.8183, 198.9496
431.3004, 202.2211
431.7825, 205.5858
432.2646, 209.0786
432.7467, 212.6793
433.2289, 217.1825
433.7110, 222.8821
434.1931, 229.0500
434.6752, 234.2665
435.1573, 238.6032
435.6394, 242.8560
436.1216, 247.2167
436.6037, 251.8429
437.0858, 257.1194
437.5679, 263.0856
438.0500, 269.2184
438.5321, 275.2202
439.0142, 281.0463
439.4963, 286.5761
439.9785, 291.5013
440.4606, 296.5259
440.9427, 302.0411
441.4248, 308.0650
441.9069, 314.5897
442.3890, 322.4513
442.8712, 330.2204
443.3533, 336.7521
443.8354, 341.6068
444.3175, 346.8693
444.7996, 353.7411
445.2817, 361.0932
445.7639, 367.8023
446.2460, 373.4568
446.7281, 378.7022
447.2102, 383.6747
447.6923, 388.3405
448.1744, 392.3332
448.6566, 395.8014
449.1387, 398.4320
449.6208, 400.1821
450.1029, 401.3322
450.5850, 400.6795
451.0671, 397.7396
451.5493, 393.5099
452.0314, 389.5240
452.5135, 386.1284
452.9956, 381.6396
453.4777, 375.6340
453.9598, 368.2557
454.4420, 359.5775
454.9241, 349.5436
455.4062, 339.4150
455.8883, 330.3647
456.3704, 322.1359
456.8525, 313.6054
457.3347, 304.7270
457.8168, 295.8656
458.2989, 287.6696
458.7810, 279.9747
459.2631, 272.5632
459.7452, 264.9648
460.2274, 257.6992
460.7095, 251.4230
461.1916, 246.0166
461.6737, 241.2565
462.1558, 237.5091
462.6379, 234.0046
463.1201, 229.9146
463.6022, 224.5751
464.0843, 219.7311
464.5664, 216.1822
465.0485, 213.5530
465.5306, 211.2461
466.0128, 209.4085
466.4949, 207.5859
466.9770, 205.5854
467.4591, 203.3923
467.9412, 201.4973
468.4233, 200.1716
468.9055, 198.9011
469.3876, 197.3221
469.8697, 195.0321
470.3518, 193.3491
470.8339, 192.4529
471.3160, 192.0587
471.7982, 191.6425
472.2803, 191.1860
472.7624, 190.7920
473.2445, 190.5434
473.7266, 190.3941
474.2087, 190.0261
474.6909, 189.4105
475.1730, 188.8186
475.6551, 188.4992
476.1372, 188.4051
476.6193, 188.4039
477.1014, 188.5431
477.5836, 188.5511
478.0657, 187.8499
478.5478, 186.7035
479.0299, 185.8842
479.5120, 186.0199
479.9941, 186.4605
480.4763, 186.6560
480.9584, 186.6083
481.4405, 186.4157
481.9226, 185.9464
482.4047, 185.4653
482.8868, 185.1780
483.3690, 185.1299
483.8511, 185.2776
484.3332, 185.8796
484.8153, 186.6164
485.2974, 186.9787
485.7795, 186.1304
486.2617, 185.7199
486.7438, 186.4831
487.2259, 188.3819
487.7080, 189.0443
488.1901, 187.6357
488.6722, 186.0847
489.1544, 185.5782
489.6365, 186.3962
490.1186, 187.2587
490.6007, 188.2801
491.0828, 189.1128
491.5649, 188.9255
492.0471, 187.6477
492.5292, 186.9934
493.0113, 187.7315
493.4934, 189.3729
493.9755, 190.7234
494.4576, 191.7739
494.9398, 192.6158
495.4219, 193.3013
495.9040, 193.8176
496.3861, 194.0348
496.8682, 193.8751
497.3503, 193.7967
497.8325, 194.2309
498.3146, 194.9860
498.7967, 195.7751
499.2788, 196.4090
499.7609, 197.1207
500.2430, 198.0748
500.7252, 199.2215
501.2073, 200.3563
501.6894, 201.3958
502.1715, 202.4194
502.6536, 203.4974
503.1357, 204.7014
503.6179, 205.7546
504.1000, 206.6236
504.5821, 207.3593
505.0642, 207.9638
505.5463, 208.2169
506.0284, 208.8278
506.5106, 209.9743
506.9927, 211.5129
507.4748, 212.9930
507.9569, 214.4019
508.4390, 215.7959
508.9211, 217.1362
509.4033, 218.4526
509.8854, 220.1339
510.3675, 222.2400
510.8496, 224.1963
511.3317, 225.2001
511.8138, 225.6014
512.2960, 226.3196
512.7781, 227.6075
513.2602, 229.2192
513.7423, 231.1082
514.2244, 233.1352
514.7065, 234.9593
515.1887, 236.3150
515.6708, 237.5009
516.1529, 238.6190
516.6350, 239.6902
517.1171, 240.9153
517.5992, 242.5067
518.0814, 244.1684
518.5635, 245.6909
519.0456, 246.8280
519.5277, 248.2107
520.0098, 250.2835
520.4919, 252.4350
520.9741, 253.6476
521.4562, 253.1869
521.9383, 253.2488
522.4204, 254.4501
522.9025, 256.5995
523.3846, 258.4760
523.8668, 259.9958
524.3489, 261.5365
524.8310, 263.2270
525.3131, 265.1104
525.7952, 267.4413
526.2773, 270.2217
526.7595, 273.5620
527.2416, 277.8825
527.7237, 282.8293
528.2058, 287.5065
528.6879, 291.2066
529.1700, 295.0778
529.6522, 300.3739
530.1343, 306.7500
530.6164, 313.3720
531.0985, 319.7352
531.5806, 326.2279
532.0627, 332.9223
532.5449, 339.7813
533.0270, 347.2554
533.5091, 355.2298
533.9912, 363.9628
534.4733, 373.5271
534.9554, 384.4142
535.4376, 395.6229
535.9197, 406.4373
536.4018, 417.8427
536.8839, 431.2173
537.3660, 446.8778
537.8481, 463.9178
538.3303, 482.1940
538.8124, 501.7481
539.2945, 522.8404
539.7766, 545.3137
540.2587, 570.6212
540.7408, 600.1833
541.2230, 633.5845
541.7051, 668.2206
542.1872, 703.8625
542.6693, 741.0915
543.1514, 781.1014
543.6335, 823.2350
544.1157, 867.4622
544.5978, 914.5618
545.0799, 962.4778
545.5620, 1009.136
546.0441, 1055.113
546.5262, 1101.825
547.0084, 1149.658
547.4905, 1198.259
547.9726, 1247.729
548.4547, 1297.666
548.9368, 1351.130
549.4189, 1406.605
549.9011, 1467.181
550.3832, 1534.465
550.8653, 1607.830
551.3474, 1689.836
551.8295, 1780.480
552.3116, 1878.564
552.7938, 1981.958
553.2759, 2090.591
553.7580, 2205.177
554.2401, 2326.744
554.7222, 2453.631
555.2043, 2584.189
555.6865, 2716.891
556.1686, 2847.244
556.6507, 2978.217
557.1328, 3102.210
557.6149, 3212.100
558.0970, 3307.544
558.5792, 3383.815
559.0613, 3443.808
559.5434, 3479.323
560.0255, 3481.124
560.5076, 3442.935
560.9897, 3378.405
561.4719, 3287.429
561.9540, 3173.325
562.4361, 3043.207
562.9182, 2888.197
563.4003, 2726.457
563.8824, 2555.761
564.3646, 2379.479
564.8467, 2210.525
565.3288, 2046.919
565.8109, 1893.986
566.2930, 1752.582
566.7751, 1623.398
567.2573, 1505.031
567.7394, 1396.459
568.2215, 1298.909
568.7036, 1213.349
569.1857, 1139.303
569.6678, 1072.140
570.1500, 1012.251
570.6321, 957.3991
571.1142, 906.1766
571.5963, 858.7317
572.0784, 815.5635
572.5605, 776.8982
573.0427, 742.1426
573.5248, 711.1214
574.0069, 683.7938
574.4890, 657.9794
574.9711, 633.6815
575.4532, 610.7705
575.9354, 589.5847
576.4175, 570.4564
576.8996, 551.9664
577.3817, 533.8302
577.8638, 516.8232
578.3459, 501.5096
578.8281, 488.3772
579.3102, 475.8982
579.7923, 464.1065
580.2744, 452.6187
580.7565, 440.7852
581.2386, 428.6525
581.7208, 417.1329
582.2029, 406.4239
582.6850, 396.5280
583.1671, 387.3531
583.6492, 378.8185
584.1313, 370.4756
584.6135, 361.6118
585.0956, 352.9722
585.5776, 345.2737
586.0598, 338.6078
586.5419, 332.4171
587.0240, 326.8233
587.5061, 321.3340
