##NAMES=Schizolite
##RRUFFID=R120109
##IDEAL CHEMISTRY=NaCaMn^2+^Si_3_O_8_(OH)
##LOCALITY=Wessels mine, Kalahari Manganese Field, Northern Cape Province, South Africa
##OWNER=RRUFF
##SOURCE=Marcus Origlieri
##DESCRIPTION=Pink bladed crystals, with epitactic serandite and calcite, type sample
##STATUS=The identification of this mineral has been confirmed by single-crystal X-ray diffraction.
##URL=rruff.info/R120109
91.19958, 481.4457
91.68170, 485.2585
92.16382, 490.7144
92.64594, 496.9283
93.12805, 498.3480
93.61017, 491.9289
94.09229, 481.3205
94.57440, 465.8880
95.05651, 454.0550
95.53863, 446.6964
96.02074, 442.1587
96.50286, 439.1225
96.98498, 436.6880
97.46709, 433.9802
97.94921, 432.4864
98.43133, 432.9995
98.91344, 433.6009
99.39556, 433.2242
99.87768, 432.3249
100.3598, 432.4067
100.8419, 434.6201
101.3240, 438.4920
101.8061, 441.6161
102.2883, 445.0392
102.7704, 447.0732
103.2525, 446.1076
103.7346, 442.0148
104.2167, 435.6740
104.6988, 425.8515
105.1810, 414.2783
105.6631, 403.5540
106.1452, 394.7524
106.6273, 387.6191
107.1094, 381.0579
107.5915, 374.5926
108.0737, 369.4225
108.5558, 365.4851
109.0379, 362.9864
109.5200, 362.4110
110.0021, 364.3385
110.4842, 369.0361
110.9664, 374.8868
111.4485, 381.2184
111.9306, 389.0703
112.4127, 399.5061
112.8948, 412.3698
113.3769, 426.5142
113.8591, 440.3075
114.3412, 455.0212
114.8233, 466.8161
115.3054, 476.3207
115.7875, 482.9003
116.2696, 485.6826
116.7517, 484.3067
117.2339, 479.6186
117.7160, 472.8709
118.1981, 462.6605
118.6802, 453.6653
119.1623, 447.3808
119.6444, 443.3743
120.1266, 440.5686
120.6087, 438.9547
121.0908, 438.0038
121.5729, 436.5112
122.0550, 434.2168
122.5371, 431.8255
123.0193, 430.1265
123.5014, 429.2317
123.9835, 428.0381
124.4656, 426.3819
124.9477, 424.0213
125.4298, 420.6808
125.9120, 416.4835
126.3941, 411.0168
126.8762, 403.2483
127.3583, 392.1274
127.8404, 380.1669
128.3225, 367.4900
128.8047, 354.6795
129.2868, 342.4665
129.7689, 331.2228
130.2510, 320.9679
130.7331, 312.0572
131.2152, 304.4739
131.6974, 298.3133
132.1795, 293.9753
132.6616, 291.1869
133.1437, 289.3961
133.6258, 288.1378
134.1079, 287.4326
134.5901, 287.3011
135.0722, 287.6053
135.5543, 288.4478
136.0364, 289.9018
136.5185, 291.9626
137.0006, 294.5762
137.4828, 297.7021
137.9649, 301.4453
138.4470, 305.4431
138.9291, 309.4816
139.4112, 313.8505
139.8933, 319.1431
140.3755, 325.6592
140.8576, 332.3432
141.3397, 337.8400
141.8218, 342.2883
142.3039, 346.1007
142.7860, 349.6746
143.2681, 352.7959
143.7503, 354.6982
144.2324, 355.0206
144.7145, 354.1045
145.1966, 352.0765
145.6787, 348.9721
146.1608, 346.0465
146.6430, 344.3284
147.1251, 343.8770
147.6072, 344.0595
148.0893, 344.5229
148.5714, 345.8102
149.0535, 348.4183
149.5357, 352.4150
150.0178, 357.3717
150.4999, 362.7114
150.9820, 368.7383
151.4641, 374.5984
151.9462, 380.6712
152.4284, 386.3621
152.9105, 391.5766
153.3926, 396.1959
153.8747, 399.7088
154.3568, 400.7539
154.8389, 396.5401
155.3211, 392.9468
155.8032, 390.3087
156.2853, 388.4127
156.7674, 387.0570
157.2495, 386.1544
157.7316, 385.6343
158.2138, 385.2311
158.6959, 384.7196
159.1780, 384.5363
159.6601, 384.4594
160.1422, 384.7600
160.6243, 386.2319
161.1065, 389.6198
161.5886, 394.3749
162.0707, 397.9048
162.5528, 400.7823
163.0349, 402.0877
163.5170, 401.2213
163.9991, 398.2426
164.4813, 393.5869
164.9634, 386.8131
165.4455, 378.5841
165.9276, 370.5728
166.4097, 363.0897
166.8918, 355.7407
167.3740, 348.0678
167.8561, 340.0087
168.3382, 331.9903
168.8203, 324.6708
169.3024, 317.4977
169.7845, 309.6498
170.2667, 300.6089
170.7488, 290.8662
171.2309, 281.4558
171.7130, 272.1749
172.1951, 263.7019
172.6772, 255.9470
173.1594, 248.9914
173.6415, 242.9706
174.1236, 238.0910
174.6057, 234.2157
175.0878, 230.5895
175.5699, 227.1949
176.0521, 224.1191
176.5342, 221.3775
177.0163, 218.9596
177.4984, 216.8317
177.9805, 214.9019
178.4626, 213.1631
178.9448, 212.3882
179.4269, 213.5591
179.9090, 214.7192
180.3911, 215.1896
180.8732, 215.1346
181.3553, 215.1170
181.8375, 215.6379
182.3196, 216.7759
182.8017, 217.6832
183.2838, 217.9301
183.7659, 218.3703
184.2480, 219.5569
184.7301, 221.4129
185.2123, 223.3996
185.6944, 225.0408
186.1765, 226.2848
186.6586, 227.3713
187.1407, 228.0511
187.6228, 228.7465
188.1050, 229.7381
188.5871, 231.0560
189.0692, 232.6254
189.5513, 234.3512
190.0334, 236.2522
190.5155, 238.5859
190.9977, 241.6140
191.4798, 244.9727
191.9619, 248.1203
192.4440, 250.8927
192.9261, 254.0351
193.4082, 258.4002
193.8904, 263.7350
194.3725, 269.5936
194.8546, 276.2837
195.3367, 283.3556
195.8188, 289.9445
196.3009, 295.9079
196.7831, 301.5187
197.2652, 306.9311
197.7473, 312.2040
198.2294, 317.3575
198.7115, 322.5860
199.1936, 327.7774
199.6758, 332.4189
200.1579, 336.5748
200.6400, 339.9867
201.1221, 342.3419
201.6042, 343.9222
202.0863, 345.3920
202.5685, 347.4083
203.0506, 349.8973
203.5327, 351.4310
204.0148, 350.8993
204.4969, 350.5109
204.9790, 351.2097
205.4612, 352.7445
205.9433, 354.3771
206.4254, 355.3634
206.9075, 355.6214
207.3896, 356.8467
207.8717, 360.1623
208.3539, 363.4783
208.8360, 366.1269
209.3181, 368.1909
209.8002, 370.1071
210.2823, 372.2998
210.7644, 374.8371
211.2466, 376.9046
211.7287, 378.4523
212.2108, 379.6315
212.6929, 380.2410
213.1750, 380.4675
213.6571, 380.7944
214.1393, 381.6671
214.6214, 383.1558
215.1035, 384.7775
215.5856, 387.0746
216.0677, 389.0152
216.5498, 389.7831
217.0320, 389.5777
217.5141, 389.4656
217.9962, 390.5444
218.4783, 393.0533
218.9604, 394.2925
219.4425, 393.6043
219.9247, 392.3607
220.4068, 391.4318
220.8889, 390.8184
221.3710, 390.0013
221.8531, 388.7007
222.3352, 386.7977
222.8174, 383.4930
223.2995, 378.6905
223.7816, 372.5948
224.2637, 365.3187
224.7458, 356.8706
225.2279, 347.3392
225.7100, 336.5141
226.1922, 324.4993
226.6743, 312.3693
227.1564, 299.6124
227.6385, 287.1445
228.1206, 275.9441
228.6027, 266.0845
229.0849, 257.0827
229.5670, 248.9185
230.0491, 241.4437
230.5312, 234.1755
231.0133, 226.7270
231.4954, 219.6578
231.9776, 213.5014
232.4597, 208.2413
232.9418, 204.0262
233.4239, 201.5771
233.9060, 200.1495
234.3881, 198.6835
234.8703, 196.8648
235.3524, 194.9404
235.8345, 193.1492
236.3166, 191.4194
236.7987, 190.0920
237.2808, 189.8457
237.7630, 189.9406
238.2451, 189.5195
238.7272, 188.1870
239.2093, 186.4164
239.6914, 184.8878
240.1735, 183.5542
240.6557, 182.6096
241.1378, 182.3628
241.6199, 182.4211
242.1020, 182.4169
242.5841, 182.2002
243.0662, 181.9546
243.5484, 181.9826
244.0305, 182.3060
244.5126, 182.8641
244.9947, 183.7112
245.4768, 184.7242
245.9589, 185.8688
246.4410, 187.1488
246.9232, 188.4022
247.4053, 189.2520
247.8874, 189.2903
248.3695, 189.9357
248.8516, 191.5350
249.3337, 193.6815
249.8159, 196.1911
250.2980, 198.9948
250.7801, 201.9104
251.2622, 204.5945
251.7443, 206.7160
252.2264, 209.3543
252.7086, 213.3201
253.1907, 217.2908
253.6728, 220.2352
254.1549, 221.9292
254.6370, 223.0417
255.1191, 224.6244
255.6013, 227.0225
256.0834, 229.1322
256.5655, 231.3863
257.0476, 233.0981
257.5297, 233.7002
258.0118, 233.1506
258.4940, 231.9466
258.9761, 230.7227
259.4582, 229.4719
259.9403, 228.2222
260.4224, 226.6527
260.9045, 225.3142
261.3867, 224.5837
261.8688, 224.4743
262.3509, 224.7162
262.8330, 224.9652
263.3151, 225.0423
263.7972, 225.8690
264.2794, 227.6831
264.7615, 229.8776
265.2436, 232.0942
265.7257, 234.3341
266.2078, 236.8570
266.6899, 239.9627
267.1721, 243.7681
267.6542, 247.3650
268.1363, 251.2357
268.6184, 254.5240
269.1005, 256.7039
269.5826, 257.8701
270.0648, 258.4533
270.5469, 258.7656
271.0290, 258.7988
271.5111, 258.6886
271.9932, 258.5766
272.4753, 258.2242
272.9575, 257.6265
273.4396, 256.7210
273.9217, 255.3005
274.4038, 253.1393
274.8859, 250.3286
275.3680, 248.0551
275.8501, 246.5675
276.3322, 245.1974
276.8144, 243.5062
277.2965, 241.7497
277.7786, 240.5386
278.2607, 240.2384
278.7428, 240.6803
279.2249, 241.1831
279.7071, 241.7615
280.1892, 242.3703
280.6713, 242.9476
281.1534, 243.5536
281.6355, 244.2121
282.1176, 244.8784
282.5998, 245.7743
283.0819, 247.5551
283.5640, 250.6402
284.0461, 253.6638
284.5282, 255.8030
285.0103, 257.8555
285.4925, 261.2486
285.9746, 266.5788
286.4567, 272.6100
286.9388, 277.1305
287.4209, 279.4699
287.9030, 282.6358
288.3852, 287.3968
288.8673, 293.0887
289.3494, 298.7984
289.8315, 304.3040
290.3136, 310.1885
290.7957, 317.5229
291.2779, 326.5589
291.7600, 334.8210
292.2421, 340.8027
292.7242, 346.6231
293.2063, 354.5258
293.6884, 364.8100
294.1706, 375.8585
294.6527, 386.1489
295.1348, 395.7188
295.6169, 406.2294
296.0990, 418.1270
296.5811, 430.7069
297.0633, 443.3604
297.5454, 456.0615
298.0275, 469.4523
298.5096, 484.1874
298.9917, 500.0492
299.4738, 515.4083
299.9560, 530.5419
300.4381, 544.8177
300.9202, 558.4687
301.4023, 571.1916
301.8844, 581.9133
302.3665, 590.1074
302.8487, 595.7805
303.3308, 599.5645
303.8129, 601.7848
304.2950, 601.9733
304.7771, 600.1478
305.2592, 596.1526
305.7414, 589.3536
306.2235, 579.2009
306.7056, 566.6918
307.1877, 553.7428
307.6698, 540.5968
308.1519, 526.4651
308.6341, 510.4352
309.1162, 493.4132
309.5983, 477.1291
310.0804, 462.1322
310.5625, 447.7148
311.0446, 432.8166
311.5268, 417.2573
312.0089, 403.2474
312.4910, 392.0139
312.9731, 382.2059
313.4552, 371.7128
313.9373, 360.1894
314.4195, 349.8755
314.9016, 343.3022
315.3837, 340.2756
315.8658, 336.8462
316.3479, 331.7544
316.8300, 326.8134
317.3121, 323.4219
317.7943, 321.6035
318.2764, 320.9526
318.7585, 321.4416
319.2406, 322.9337
319.7227, 324.4266
320.2048, 325.3416
320.6870, 326.8239
321.1691, 329.7724
321.6512, 333.8758
322.1333, 338.1434
322.6154, 342.1830
323.0975, 345.9967
323.5797, 349.6042
324.0618, 353.4408
324.5439, 356.3071
325.0260, 357.9535
325.5081, 358.3357
325.9902, 357.2475
326.4724, 354.5135
326.9545, 350.6857
327.4366, 346.6228
327.9187, 342.5429
328.4008, 337.2975
328.8829, 330.0177
329.3651, 321.7737
329.8472, 313.5172
330.3293, 305.4099
330.8114, 297.9414
331.2935, 291.7471
331.7756, 286.9604
332.2578, 281.8459
332.7399, 275.3617
333.2220, 269.3142
333.7041, 265.0469
334.1862, 262.5506
334.6683, 261.0281
335.1505, 260.1542
335.6326, 259.8091
336.1147, 259.0947
336.5968, 257.0011
337.0789, 255.6201
337.5610, 256.2103
338.0432, 258.1963
338.5253, 260.1194
339.0074, 261.2243
339.4895, 262.0407
339.9716, 264.0501
340.4537, 267.3866
340.9359, 271.4128
341.4180, 276.4646
341.9001, 281.9875
342.3822, 287.1840
342.8643, 291.8061
343.3464, 296.3343
343.8286, 301.5274
344.3107, 307.9557
344.7928, 313.2283
345.2749, 316.6668
345.7570, 319.3608
346.2391, 322.2601
346.7213, 325.3510
347.2034, 327.9576
347.6855, 329.5235
348.1676, 330.0250
348.6497, 329.0943
349.1318, 326.3583
349.6140, 322.8441
350.0961, 318.8182
350.5782, 314.3757
351.0603, 309.4977
351.5424, 304.1227
352.0245, 298.4814
352.5067, 293.5292
352.9888, 289.3835
353.4709, 285.7887
353.9530, 283.0177
354.4351, 280.6736
354.9172, 278.2032
355.3994, 275.4328
355.8815, 272.7445
356.3636, 270.7633
356.8457, 269.7087
357.3278, 269.0247
357.8099, 268.8759
358.2920, 268.9352
358.7741, 268.7297
359.2563, 268.3822
359.7384, 268.6273
360.2205, 270.2409
360.7026, 273.3578
361.1847, 276.5768
361.6668, 280.0276
362.1490, 283.4298
362.6311, 286.3543
363.1132, 289.1985
363.5953, 292.5731
364.0774, 296.8314
364.5595, 301.9738
365.0417, 308.0634
365.5238, 316.1591
366.0059, 323.7681
366.4880, 330.5112
366.9701, 336.6818
367.4522, 342.5699
367.9344, 348.2473
368.4165, 353.6540
368.8986, 358.7141
369.3807, 363.4108
369.8628, 367.7579
370.3449, 372.6249
370.8271, 376.4701
371.3092, 378.5802
371.7913, 378.8825
372.2734, 377.6735
372.7555, 375.2490
373.2376, 371.6030
373.7198, 366.1509
374.2019, 357.7310
374.6840, 348.7583
375.1661, 340.4300
375.6482, 332.0280
376.1303, 322.2781
376.6125, 310.2152
377.0946, 297.1263
377.5767, 285.9615
378.0588, 277.3969
378.5409, 268.8643
379.0230, 259.3446
379.5052, 249.7609
379.9873, 240.7051
380.4694, 232.3040
380.9515, 224.6316
381.4336, 218.0381
381.9157, 212.4881
382.3979, 206.8233
382.8800, 200.5732
383.3621, 194.5951
383.8442, 189.2829
384.3263, 184.6546
384.8084, 180.6082
385.2906, 177.1847
385.7727, 174.3340
386.2548, 171.9529
386.7369, 170.0825
387.2190, 168.5623
387.7011, 167.4012
388.1833, 166.5149
388.6654, 165.8519
389.1475, 165.5305
389.6296, 165.1966
390.1117, 164.5214
390.5938, 163.5346
391.0760, 162.4806
391.5581, 161.4041
392.0402, 160.3354
392.5223, 159.2001
393.0044, 157.9450
393.4865, 157.1305
393.9687, 156.9160
394.4508, 157.2993
394.9329, 158.4158
395.4150, 160.3424
395.8971, 162.4882
396.3792, 164.3084
396.8614, 165.8623
397.3435, 167.7854
397.8256, 170.4618
398.3077, 173.2244
398.7898, 175.3863
399.2719, 177.2031
399.7540, 179.6745
400.2361, 183.3906
400.7183, 187.9327
401.2004, 192.0152
401.6825, 195.0403
402.1646, 198.7193
402.6467, 203.4747
403.1288, 208.9832
403.6110, 214.9432
404.0931, 221.2405
404.5752, 227.8112
405.0573, 234.6134
405.5394, 241.6724
406.0215, 248.6336
406.5037, 255.4452
406.9858, 262.1933
407.4679, 269.1461
407.9500, 276.1025
408.4321, 282.5796
408.9142, 288.3193
409.3964, 293.4241
409.8785, 298.4839
410.3606, 303.9046
410.8427, 308.6898
411.3248, 312.5946
411.8069, 315.9351
412.2891, 319.0103
412.7712, 321.9019
413.2533, 324.5091
413.7354, 326.6629
414.2175, 328.2872
414.6996, 329.7914
415.1818, 331.0662
415.6639, 332.3099
416.1460, 333.6678
416.6281, 335.0621
417.1102, 336.2300
417.5923, 336.8958
418.0745, 337.3259
418.5566, 338.6256
419.0387, 341.5025
419.5208, 343.6446
420.0029, 343.8408
420.4850, 343.2959
420.9672, 343.2001
421.4493, 343.8597
421.9314, 344.3351
422.4135, 343.9149
422.8956, 342.5783
423.3777, 339.8446
423.8599, 335.2617
424.3420, 329.7155
424.8241, 323.9014
425.3062, 317.7862
425.7883, 311.1639
426.2704, 303.9990
426.7526, 296.2398
427.2347, 287.6173
427.7168, 278.0191
428.1989, 268.6002
428.6810, 259.9109
429.1631, 251.8992
429.6453, 244.3459
430.1274, 237.3827
430.6095, 230.5620
431.0916, 223.4080
431.5737, 216.3102
432.0558, 210.1879
432.5380, 205.3932
433.0201, 200.8996
433.5022, 195.3489
433.9843, 188.5091
434.4664, 182.8071
434.9485, 179.1057
435.4307, 175.8960
435.9128, 172.2752
436.3949, 168.2951
436.8770, 164.2958
437.3591, 160.4258
437.8412, 156.7886
438.3234, 153.8596
438.8055, 152.2289
439.2876, 150.5587
439.7697, 148.9120
440.2518, 147.1109
440.7339, 144.8323
441.2160, 142.1071
441.6982, 139.4444
442.1803, 137.4874
442.6624, 136.3535
443.1445, 135.0383
443.6266, 133.2908
444.1087, 131.6268
444.5909, 130.0000
445.0730, 128.6156
445.5551, 127.9275
446.0372, 128.2731
446.5193, 128.9480
447.0014, 128.2460
447.4836, 125.6099
447.9657, 123.2570
448.4478, 121.3989
448.9299, 120.0892
449.4120, 119.6109
449.8941, 119.8701
450.3763, 120.1889
450.8584, 119.9498
451.3405, 119.3198
451.8226, 119.0356
452.3047, 119.1883
452.7868, 119.4928
453.2690, 119.7201
453.7511, 120.0098
454.2332, 120.6013
454.7153, 121.5962
455.1974, 122.7977
455.6795, 123.9882
456.1617, 125.2289
456.6438, 126.8116
457.1259, 128.8317
457.6080, 131.2030
458.0901, 133.8605
458.5722, 136.7791
459.0544, 139.9575
459.5365, 143.8349
460.0186, 147.6461
460.5007, 150.6477
460.9828, 152.9037
461.4649, 155.0641
461.9471, 157.6478
462.4292, 160.3341
462.9113, 161.8074
463.3934, 162.1085
463.8755, 161.2515
464.3576, 159.0032
464.8398, 155.7124
465.3219, 151.3807
465.8040, 146.1739
466.2861, 140.9768
466.7682, 136.8637
467.2503, 133.9957
467.7325, 130.3286
468.2146, 124.5539
468.6967, 119.3746
469.1788, 115.7015
469.6609, 113.0469
470.1430, 110.7681
470.6252, 108.5979
471.1073, 106.4179
471.5894, 103.9156
472.0715, 100.9223
472.5536, 98.36321
473.0357, 96.50657
473.5179, 95.04863
474.0000, 93.94241
474.4821, 93.12155
474.9642, 92.35407
475.4463, 91.45947
475.9284, 90.54784
476.4106, 89.87214
476.8927, 89.46249
477.3748, 89.14983
477.8569, 89.22649
478.3390, 89.12048
478.8211, 87.69231
479.3033, 84.31104
479.7854, 81.76928
480.2675, 82.03230
480.7496, 83.94043
481.2317, 85.48423
481.7138, 86.31528
482.1959, 86.77841
482.6780, 87.14118
483.1602, 87.39570
483.6423, 87.55556
484.1244, 87.25174
484.6065, 87.25562
485.0886, 88.05075
485.5707, 89.33361
486.0529, 90.53452
486.5350, 91.44601
487.0171, 92.33126
487.4992, 93.61197
487.9813, 95.38976
488.4634, 97.33933
488.9456, 99.16800
489.4277, 101.4068
489.9098, 104.3591
490.3919, 107.9221
490.8740, 111.9116
491.3561, 116.2826
491.8383, 120.7777
492.3204, 124.6119
492.8025, 127.4713
493.2846, 130.5093
493.7667, 135.0470
494.2488, 139.0257
494.7310, 140.9818
495.2131, 140.8802
495.6952, 139.7171
496.1773, 138.1208
496.6594, 135.9901
497.1415, 132.8662
497.6237, 128.5354
498.1058, 124.1640
498.5879, 120.3040
499.0700, 116.8100
499.5521, 113.2643
500.0342, 109.2282
500.5164, 106.1372
500.9985, 105.1589
501.4806, 105.4634
501.9627, 105.5621
502.4448, 105.1512
502.9269, 104.7475
503.4091, 104.8086
503.8912, 105.3556
504.3733, 106.2232
504.8554, 107.2584
505.3375, 108.7383
505.8196, 110.9799
506.3018, 113.6660
506.7839, 116.3972
507.2660, 119.0138
507.7481, 121.4316
508.2302, 123.5277
508.7123, 125.3438
509.1945, 126.6894
509.6766, 127.4028
510.1587, 127.7989
510.6408, 128.1465
511.1229, 128.2392
511.6050, 127.6645
512.0872, 126.1810
512.5693, 124.0411
513.0514, 121.5436
513.5335, 118.5935
514.0156, 115.9508
514.4977, 113.8725
514.9799, 112.0639
515.4620, 110.3649
515.9441, 108.7406
516.4262, 106.9958
516.9083, 104.5733
517.3904, 102.2495
517.8726, 101.3115
518.3547, 101.6557
518.8368, 101.6778
519.3189, 100.4846
519.8010, 98.67851
520.2831, 97.64690
520.7653, 97.48569
521.2474, 97.59013
521.7295, 98.15677
522.2116, 98.74320
522.6937, 99.07482
523.1758, 99.06795
523.6580, 98.51295
524.1401, 97.15098
524.6222, 95.26750
525.1043, 94.34420
525.5864, 95.16511
526.0685, 95.88589
526.5507, 96.47735
527.0328, 96.82326
527.5149, 96.69878
527.9970, 96.16581
528.4791, 95.64542
528.9612, 95.57629
529.4434, 95.85311
529.9255, 95.78442
530.4076, 95.19564
530.8897, 94.66726
531.3718, 94.61695
531.8539, 94.67433
532.3361, 94.50009
532.8182, 94.05811
533.3003, 93.27879
533.7824, 91.84212
534.2645, 90.08682
534.7466, 88.72321
535.2288, 87.85004
535.7109, 87.27753
536.1930, 87.00668
536.6751, 86.92707
537.1572, 86.39666
537.6393, 84.86108
538.1215, 83.59201
538.6036, 83.21782
539.0857, 83.17953
539.5678, 82.68690
540.0499, 81.62527
540.5320, 80.60227
541.0142, 80.34679
541.4963, 80.90221
541.9784, 80.71427
542.4604, 78.81284
542.9426, 77.31313
543.4247, 76.97241
543.9068, 77.09026
544.3889, 76.74037
544.8710, 75.70794
545.3531, 74.79721
545.8353, 75.30265
546.3174, 77.02049
546.7995, 77.29928
547.2816, 75.29287
547.7637, 73.34868
548.2458, 73.28552
548.7280, 74.17863
549.2101, 74.50954
549.6922, 73.68713
550.1743, 73.00597
550.6564, 73.70523
551.1385, 75.05427
551.6207, 75.34712
552.1028, 74.20560
552.5849, 72.90408
553.0670, 72.70031
553.5491, 73.60049
554.0313, 73.92094
554.5134, 73.25707
554.9955, 72.59293
555.4776, 72.15562
555.9597, 71.88445
556.4418, 71.65562
556.9240, 71.45435
557.4061, 71.45100
557.8882, 71.96045
558.3703, 73.01888
558.8524, 73.46301
559.3345, 72.73511
559.8167, 72.18159
560.2988, 72.25161
560.7809, 72.72478
561.2630, 73.51592
561.7451, 74.66646
562.2272, 75.41425
562.7094, 74.68704
563.1915, 72.99326
563.6736, 72.05969
564.1557, 72.14239
564.6378, 72.71118
565.1199, 73.64019
565.6021, 74.74245
566.0842, 75.26147
566.5663, 74.93672
567.0484, 74.40766
567.5305, 73.54615
568.0126, 72.76412
568.4948, 72.75137
568.9769, 73.53315
569.4590, 74.35751
569.9411, 74.51062
570.4232, 74.02831
570.9053, 73.58682
571.3875, 73.05525
571.8696, 72.75451
572.3517, 72.59329
572.8338, 72.75727
573.3159, 73.63951
573.7980, 75.18869
574.2802, 76.61272
574.7623, 77.32973
575.2444, 77.36497
575.7265, 76.53908
576.2086, 74.49426
576.6907, 73.12215
577.1729, 73.69082
577.6550, 75.28199
578.1371, 76.39762
578.6192, 76.95106
579.1013, 77.31264
579.5834, 77.55466
580.0656, 77.71683
580.5477, 77.84244
581.0298, 77.93446
581.5119, 77.96136
581.9940, 77.88089
582.4761, 77.76336
582.9583, 77.85887
583.4404, 78.52058
583.9225, 78.84982
584.4046, 78.49980
584.8867, 78.11315
585.3688, 78.13100
585.8510, 78.50274
586.3331, 78.92146
586.8152, 79.18421
587.2973, 79.39452
