##NAMES=Schmiederite
##RRUFFID=R100089
##IDEAL CHEMISTRY=Cu^2+^_2_Pb^2+^_2_(Se^4+^O_3_)(Se^6+^O_4_)(OH)_4_
##LOCALITY=El Condor mine, Los Llantenes, Sierra de Cacheuta, La Rioja Province, Argentina
##OWNER=RRUFF
##SOURCE=William W. Pinch
##DESCRIPTION=Aggregates of blue bladed crystals
##STATUS=The identification of this mineral has been confirmed by single-crystal X-ray diffraction.
##URL=rruff.info/R100089
121.8298, 11.72406
122.3119, 11.62466
122.7940, 11.93339
123.2761, 12.74790
123.7582, 13.82421
124.2404, 14.61902
124.7225, 14.58982
125.2046, 14.20524
125.6867, 14.04683
126.1688, 14.23493
126.6509, 14.57252
127.1331, 14.85207
127.6152, 15.09252
128.0973, 15.38801
128.5794, 15.85071
129.0615, 16.41770
129.5436, 16.89696
130.0258, 17.11731
130.5079, 17.37382
130.9900, 18.30769
131.4721, 19.91037
131.9542, 21.64499
132.4363, 23.14496
132.9185, 24.40706
133.4006, 25.35797
133.8827, 25.70465
134.3648, 25.76432
134.8469, 26.75216
135.3290, 28.74841
135.8112, 31.33280
136.2933, 34.08417
136.7754, 37.01979
137.2575, 40.02725
137.7396, 42.96031
138.2217, 45.78746
138.7039, 49.36102
139.1860, 53.85495
139.6681, 58.83374
140.1502, 63.67628
140.6323, 68.18941
141.1144, 73.05716
141.5966, 78.86562
142.0787, 86.10174
142.5608, 91.86903
143.0429, 95.75176
143.5250, 98.39646
144.0071, 101.1120
144.4893, 103.5790
144.9714, 106.5999
145.4535, 110.6373
145.9356, 116.6758
146.4177, 121.8153
146.8998, 125.6685
147.3820, 128.5637
147.8641, 132.0136
148.3462, 135.9967
148.8283, 140.5091
149.3104, 145.6008
149.7925, 151.2099
150.2747, 157.4641
150.7568, 164.7944
151.2389, 173.0485
151.7210, 180.3176
152.2031, 185.1431
152.6852, 189.7967
153.1674, 195.7462
153.6495, 205.8426
154.1316, 214.2619
154.6137, 219.6493
155.0958, 221.9376
155.5779, 224.2908
156.0601, 227.1809
156.5422, 230.2487
157.0243, 233.1537
157.5064, 235.9227
157.9885, 238.4442
158.4706, 240.4431
158.9528, 241.7879
159.4349, 243.7381
159.9170, 247.0335
160.3991, 250.9822
160.8812, 254.7843
161.3633, 257.9544
161.8455, 261.1340
162.3276, 264.6475
162.8097, 268.5352
163.2918, 272.4723
163.7739, 275.9415
164.2560, 279.0932
164.7382, 280.8901
165.2203, 283.4965
165.7024, 286.5788
166.1845, 289.5988
166.6666, 292.5241
167.1487, 295.3134
167.6309, 298.0418
168.1130, 300.6631
168.5951, 303.0258
169.0772, 305.0781
169.5593, 306.8715
170.0414, 308.4598
170.5236, 309.8871
171.0057, 311.0532
171.4878, 311.6075
171.9699, 311.7878
172.4520, 312.3067
172.9341, 313.9463
173.4163, 316.0054
173.8984, 317.6664
174.3805, 318.7173
174.8626, 319.3928
175.3447, 319.8322
175.8268, 320.0705
176.3090, 320.2770
176.7911, 320.3806
177.2732, 320.5520
177.7553, 321.1110
178.2374, 322.3316
178.7195, 323.7494
179.2017, 324.9117
179.6838, 325.8156
180.1659, 326.3056
180.6480, 326.3438
181.1301, 325.8942
181.6122, 324.7672
182.0944, 322.2814
182.5765, 319.5509
183.0586, 318.7326
183.5407, 319.8148
184.0228, 321.1455
184.5049, 321.3202
184.9871, 320.5303
185.4692, 319.4292
185.9513, 318.0782
186.4334, 316.6033
186.9155, 315.2259
187.3976, 313.9463
187.8798, 312.8243
188.3619, 312.0146
188.8440, 311.4607
189.3261, 310.8612
189.8082, 310.2146
190.2903, 309.4395
190.7725, 308.0502
191.2546, 305.9027
191.7367, 303.8019
192.2188, 302.9180
192.7009, 303.1624
193.1830, 303.0150
193.6652, 301.7092
194.1473, 299.4498
194.6294, 297.5106
195.1115, 295.8524
195.5936, 294.6280
196.0757, 294.3580
196.5579, 295.0901
197.0400, 295.3901
197.5221, 294.4425
198.0042, 292.3615
198.4863, 290.8209
198.9684, 289.9013
199.4506, 289.3656
199.9327, 288.8639
200.4148, 288.3709
200.8969, 288.1035
201.3790, 288.2352
201.8611, 288.7827
202.3433, 289.2300
202.8254, 289.6468
203.3075, 289.8457
203.7896, 289.3146
204.2717, 287.8476
204.7538, 286.6565
205.2360, 286.3306
205.7181, 286.9598
206.2002, 287.6093
206.6823, 288.3153
207.1644, 288.9957
207.6465, 289.3910
208.1287, 289.3322
208.6108, 289.5692
209.0929, 290.7222
209.5750, 293.1858
210.0571, 294.3322
210.5392, 293.6816
211.0214, 292.1682
211.5035, 291.7603
211.9856, 292.7317
212.4677, 294.0627
212.9498, 295.4386
213.4319, 296.9889
213.9140, 297.9252
214.3962, 297.9564
214.8783, 297.5540
215.3604, 297.8549
215.8425, 299.1099
216.3246, 300.4921
216.8067, 301.6999
217.2889, 302.7798
217.7710, 303.4285
218.2531, 303.4608
218.7352, 303.1420
219.2173, 303.1840
219.6994, 303.8784
220.1816, 304.3656
220.6637, 304.2117
221.1458, 303.1621
221.6279, 302.2287
222.1100, 301.5611
222.5921, 300.9702
223.0743, 299.8695
223.5564, 297.9851
224.0385, 296.1006
224.5206, 294.6594
225.0027, 293.8902
225.4848, 292.9646
225.9670, 292.1113
226.4491, 291.0352
226.9312, 288.7396
227.4133, 284.3811
227.8954, 280.1868
228.3775, 277.2372
228.8597, 275.6936
229.3418, 274.9310
229.8239, 275.3454
230.3060, 276.4177
230.7881, 276.7405
231.2702, 276.2499
231.7524, 275.0829
232.2345, 273.1443
232.7166, 269.6319
233.1987, 267.1806
233.6808, 266.2089
234.1629, 266.2008
234.6451, 265.7680
235.1272, 264.7078
235.6093, 263.5424
236.0914, 262.5141
236.5735, 261.7458
237.0556, 260.8227
237.5378, 259.5225
238.0199, 258.1424
238.5020, 257.4894
238.9841, 258.0023
239.4662, 258.5920
239.9483, 258.7921
240.4305, 258.4342
240.9126, 258.0866
241.3947, 257.8215
241.8768, 257.5390
242.3589, 256.9418
242.8410, 255.7161
243.3232, 254.6462
243.8053, 254.1562
244.2874, 254.7280
244.7695, 254.6499
245.2516, 253.5382
245.7337, 251.9267
246.2159, 251.0538
246.6980, 251.3459
247.1801, 251.7115
247.6622, 251.7533
248.1443, 251.4320
248.6264, 250.8932
249.1086, 250.0859
249.5907, 249.0880
250.0728, 248.0303
250.5549, 246.8157
251.0370, 245.7018
251.5191, 244.7517
252.0013, 243.9197
252.4834, 243.4393
252.9655, 243.4277
253.4476, 243.6940
253.9297, 243.8900
254.4118, 243.9534
254.8940, 244.0555
255.3761, 244.3295
255.8582, 244.9317
256.3403, 245.0248
256.8224, 244.3550
257.3046, 243.3743
257.7867, 242.9170
258.2688, 243.3318
258.7509, 243.5224
259.2330, 242.9385
259.7151, 241.2879
260.1973, 240.6747
260.6794, 241.5078
261.1615, 242.9969
261.6436, 244.0208
262.1257, 244.5470
262.6078, 244.6913
263.0900, 244.2995
263.5721, 243.2407
264.0542, 242.9659
264.5363, 243.7903
265.0184, 245.0106
265.5005, 245.7693
265.9827, 245.9802
266.4648, 245.9269
266.9469, 245.5083
267.4290, 244.6999
267.9111, 244.7108
268.3932, 245.9355
268.8754, 247.3651
269.3575, 247.7266
269.8396, 246.6725
270.3217, 245.8517
270.8038, 245.7408
271.2859, 246.2966
271.7681, 246.6546
272.2502, 246.7671
272.7323, 246.7850
273.2144, 246.8634
273.6965, 247.0218
274.1786, 247.1326
274.6608, 247.1325
275.1429, 247.0540
275.6250, 247.1107
276.1071, 247.2887
276.5892, 247.6417
277.0714, 248.4631
277.5535, 249.9002
278.0356, 250.4227
278.5177, 249.3989
278.9998, 247.3353
279.4819, 246.5562
279.9641, 247.3781
280.4462, 248.1434
280.9283, 247.1810
281.4104, 244.4207
281.8925, 242.5198
282.3746, 242.0516
282.8568, 242.5721
283.3389, 242.8728
283.8210, 242.9297
284.3031, 242.9407
284.7852, 243.0232
285.2673, 243.1729
285.7495, 243.3668
286.2316, 243.5860
286.7137, 243.8595
287.1958, 244.3235
287.6779, 244.9839
288.1600, 245.5405
288.6422, 245.8918
289.1243, 246.0090
289.6064, 245.5500
290.0885, 244.2817
290.5706, 242.9350
291.0527, 242.7393
291.5349, 243.6455
292.0170, 244.9119
292.4991, 246.3867
292.9812, 247.9385
293.4633, 248.9641
293.9454, 249.3769
294.4276, 249.5464
294.9097, 249.9447
295.3918, 250.5290
295.8739, 251.0639
296.3560, 251.2220
296.8381, 251.2671
297.3203, 251.9022
297.8024, 253.1801
298.2845, 254.6253
298.7666, 255.6338
299.2487, 256.3690
299.7308, 257.3672
300.2130, 258.9906
300.6951, 260.9594
301.1772, 262.8934
301.6593, 264.7865
302.1414, 266.5827
302.6235, 267.9400
303.1057, 269.1693
303.5878, 270.8829
304.0699, 273.6937
304.5520, 276.7922
305.0341, 279.0948
305.5162, 280.6958
305.9984, 282.4879
306.4805, 285.0045
306.9626, 288.1234
307.4447, 291.6374
307.9268, 295.6029
308.4089, 299.8524
308.8911, 304.2679
309.3732, 308.8533
309.8553, 313.6337
310.3374, 318.6708
310.8195, 323.8950
311.3016, 329.1379
311.7838, 334.2342
312.2659, 339.6078
312.7480, 345.4568
313.2301, 351.7273
313.7122, 358.3961
314.1943, 365.6112
314.6765, 373.1937
315.1586, 381.0083
315.6407, 388.9491
316.1228, 397.3550
316.6049, 406.2863
317.0870, 415.7816
317.5692, 425.7583
318.0513, 436.3407
318.5334, 447.3640
319.0155, 458.6292
319.4976, 470.1639
319.9797, 482.3412
320.4619, 495.8967
320.9440, 510.0003
321.4261, 523.5468
321.9082, 535.8374
322.3903, 548.0781
322.8724, 560.8454
323.3546, 574.1716
323.8367, 586.8273
324.3188, 598.3782
324.8009, 609.3427
325.2830, 619.9896
325.7651, 629.7984
326.2473, 640.0448
326.7294, 651.5724
327.2115, 664.0822
327.6936, 675.1900
328.1757, 683.3068
328.6578, 690.9474
329.1400, 699.3703
329.6221, 708.6050
330.1042, 718.4563
330.5863, 729.4375
331.0684, 741.0869
331.5505, 751.8643
332.0327, 761.8630
332.5148, 770.9625
332.9969, 779.1669
333.4790, 786.3055
333.9611, 792.6594
334.4432, 798.8795
334.9254, 803.9387
335.4075, 806.1533
335.8896, 805.6741
336.3717, 802.0624
336.8538, 794.8447
337.3359, 783.7028
337.8180, 771.5751
338.3001, 758.2044
338.7823, 744.2894
339.2644, 731.0439
339.7465, 718.7537
340.2286, 705.4924
340.7107, 690.6709
341.1928, 674.3724
341.6750, 658.6354
342.1571, 643.1833
342.6392, 628.4683
343.1213, 614.6241
343.6034, 601.7625
344.0855, 589.6037
344.5677, 578.0982
345.0498, 567.4030
345.5319, 558.1752
346.0140, 550.4210
346.4961, 543.9638
346.9782, 539.2322
347.4604, 535.8466
347.9425, 532.1953
348.4246, 528.0839
348.9067, 523.7208
349.3888, 519.2721
349.8709, 514.7751
350.3531, 510.4121
350.8352, 506.1394
351.3173, 502.1138
351.7994, 498.5605
352.2815, 495.5074
352.7636, 492.9275
353.2458, 491.2207
353.7279, 489.9641
354.2100, 488.2313
354.6921, 485.0575
355.1742, 481.6572
355.6563, 479.2613
356.1385, 477.8317
356.6206, 476.8572
357.1027, 476.3259
357.5848, 475.9292
358.0669, 475.2235
358.5490, 473.6296
359.0312, 472.3870
359.5133, 472.4311
359.9954, 473.4925
360.4775, 474.7286
360.9596, 475.7062
361.4417, 476.7341
361.9239, 478.1515
362.4060, 480.2849
362.8881, 481.9862
363.3702, 482.6677
363.8523, 482.6760
364.3344, 482.5434
364.8166, 482.1158
365.2987, 481.8453
365.7808, 482.2139
366.2629, 483.4322
366.7450, 483.6543
367.2271, 481.6254
367.7093, 478.9615
368.1914, 477.0841
368.6735, 476.7131
369.1556, 476.4816
369.6377, 476.4059
370.1198, 476.4274
370.6020, 475.9956
371.0841, 474.8841
371.5662, 473.5256
372.0483, 472.1850
372.5304, 471.1083
373.0125, 469.5847
373.4947, 467.7240
373.9768, 465.3818
374.4589, 462.0071
374.9410, 456.9409
375.4231, 452.1908
375.9052, 448.7299
376.3874, 446.8368
376.8695, 443.8519
377.3516, 439.4628
377.8337, 434.4589
378.3158, 429.5937
378.7979, 424.8322
379.2801, 420.3393
379.7622, 416.0406
380.2443, 412.0406
380.7264, 408.7798
381.2085, 406.3623
381.6906, 404.0482
382.1728, 400.9160
382.6549, 397.1695
383.1370, 394.4269
383.6191, 393.2026
384.1012, 392.6121
384.5833, 391.0002
385.0655, 388.5168
385.5476, 386.3144
386.0297, 385.0263
386.5118, 384.4489
386.9939, 384.2088
387.4760, 384.2844
387.9582, 384.6741
388.4403, 385.6749
388.9224, 386.9886
389.4045, 387.9901
389.8866, 388.0078
390.3687, 387.9005
390.8509, 388.5583
391.3330, 389.9018
391.8151, 391.0415
392.2972, 390.8260
392.7793, 390.4277
393.2614, 391.0651
393.7436, 394.0066
394.2257, 396.6501
394.7078, 397.0678
395.1899, 396.2581
395.6720, 396.8419
396.1541, 400.4288
396.6363, 404.9808
397.1184, 409.5845
397.6005, 414.0853
398.0826, 418.8315
398.5647, 424.0461
399.0468, 429.4794
399.5290, 434.8286
400.0111, 439.1795
400.4932, 444.4291
400.9753, 451.2271
401.4574, 459.5969
401.9395, 467.5232
402.4217, 475.3177
402.9038, 482.4088
403.3859, 488.3549
403.8680, 492.8037
404.3501, 497.0797
404.8322, 501.8282
405.3144, 506.1651
405.7965, 507.3610
406.2786, 504.7763
406.7607, 501.2162
407.2428, 497.7589
407.7249, 494.3919
408.2071, 491.1001
408.6892, 487.8798
409.1713, 484.6863
409.6534, 481.2956
410.1355, 477.7557
410.6176, 474.7706
411.0998, 472.7882
411.5819, 471.3138
412.0640, 469.1055
412.5461, 466.2041
413.0282, 463.1397
413.5103, 460.1410
413.9925, 457.3319
414.4746, 455.0745
414.9567, 453.6305
415.4388, 452.1296
415.9209, 449.0438
416.4030, 445.1310
416.8852, 442.1883
417.3673, 441.5739
417.8494, 442.0497
418.3315, 442.4842
418.8136, 442.7993
419.2957, 443.9171
419.7779, 446.4931
420.2600, 450.0668
420.7421, 454.1345
421.2242, 459.3264
421.7063, 464.2227
422.1884, 468.3916
422.6706, 471.9267
423.1527, 475.3422
423.6348, 479.0773
424.1169, 482.4206
424.5990, 485.1386
425.0811, 487.3394
425.5633, 488.5654
426.0454, 488.7021
426.5275, 487.9296
427.0096, 486.4419
427.4917, 484.1603
427.9738, 481.2837
428.4560, 477.7798
428.9381, 473.6360
429.4202, 469.2299
429.9023, 464.4492
430.3844, 459.7034
430.8665, 455.2925
431.3487, 451.1920
431.8308, 447.6325
432.3129, 444.8131
432.7950, 442.3017
433.2771, 439.0922
433.7592, 435.1670
434.2414, 431.5938
434.7235, 428.7990
435.2056, 426.7506
435.6877, 425.7143
436.1698, 425.8008
436.6519, 425.5566
437.1341, 423.0078
437.6162, 418.9793
438.0983, 415.5957
438.5804, 413.6530
439.0625, 412.2879
439.5446, 410.6874
440.0268, 408.8666
440.5089, 406.8724
440.9910, 404.5630
441.4731, 402.2014
441.9552, 399.8107
442.4373, 397.2877
442.9195, 395.5155
443.4016, 395.3818
443.8837, 396.1162
444.3658, 396.7824
444.8479, 396.4821
445.3300, 396.7002
445.8122, 397.9852
446.2943, 400.2638
446.7764, 402.8893
447.2585, 406.1607
447.7406, 409.4510
448.2227, 412.3164
448.7049, 413.4552
449.1870, 416.6900
449.6691, 423.2529
450.1512, 431.2885
450.6333, 437.5778
451.1154, 441.0213
451.5976, 445.1960
452.0797, 451.1243
452.5618, 458.7071
453.0439, 466.3661
453.5260, 474.0620
454.0081, 481.5012
454.4903, 488.2057
454.9724, 494.1372
455.4545, 500.5461
455.9366, 507.4775
456.4187, 515.0388
456.9008, 523.6901
457.3830, 533.3495
457.8651, 542.4088
458.3472, 550.0479
458.8293, 556.7462
459.3114, 563.4996
459.7935, 570.2621
460.2757, 576.9463
460.7578, 583.3901
461.2399, 589.6618
461.7220, 595.8290
462.2041, 601.9747
462.6862, 608.0297
463.1684, 614.2447
463.6505, 620.3809
464.1326, 625.7381
464.6147, 630.1009
465.0968, 633.5859
465.5789, 636.1893
466.0611, 637.9359
466.5432, 638.7094
467.0253, 638.3476
467.5074, 637.0500
467.9895, 634.9923
468.4716, 632.9402
468.9538, 629.0887
469.4359, 623.0622
469.9180, 615.2305
470.4001, 606.6895
470.8822, 597.7822
471.3643, 587.6505
471.8465, 575.6119
472.3286, 561.4227
472.8107, 548.0336
473.2928, 535.8664
473.7749, 523.8917
474.2570, 510.8805
474.7392, 496.8487
475.2213, 483.8213
475.7034, 472.3977
476.1855, 462.0267
476.6676, 451.3901
477.1497, 440.5548
477.6319, 430.6489
478.1140, 422.6639
478.5961, 415.8326
479.0782, 408.8675
479.5603, 401.6553
480.0424, 394.6553
480.5246, 387.8055
481.0067, 381.5145
481.4888, 376.3901
481.9709, 373.7216
482.4530, 370.9389
482.9352, 366.2524
483.4173, 360.2957
483.8994, 355.0732
484.3815, 351.6538
484.8636, 348.7886
485.3457, 345.8843
485.8279, 342.7860
486.3100, 339.9911
486.7921, 337.9245
487.2742, 335.9753
487.7563, 333.5254
488.2384, 329.8479
488.7206, 326.9502
489.2027, 325.3725
489.6848, 324.6849
490.1669, 323.2948
490.6490, 320.9546
491.1311, 318.7067
491.6133, 317.0652
492.0954, 316.0171
492.5775, 315.2603
493.0596, 314.8588
493.5417, 314.5038
494.0238, 313.6005
494.5060, 312.3622
494.9881, 311.8452
495.4702, 312.4597
495.9523, 313.6879
496.4344, 314.9370
496.9165, 316.1961
497.3987, 317.4217
497.8808, 318.6033
498.3629, 319.7425
498.8450, 320.6890
499.3271, 321.4132
499.8092, 322.5746
500.2914, 324.8223
500.7735, 327.5296
501.2556, 330.1615
501.7377, 332.3661
502.2198, 334.6995
502.7019, 337.1386
503.1841, 339.7929
503.6662, 342.9766
504.1483, 347.3788
504.6304, 351.6716
505.1125, 355.4174
505.5946, 358.5748
506.0768, 361.7781
506.5589, 364.9200
507.0410, 368.2445
507.5231, 372.0698
508.0052, 376.5107
508.4873, 380.5772
508.9695, 383.9495
509.4516, 387.1185
509.9337, 391.2451
510.4158, 396.2535
510.8979, 400.6800
511.3800, 403.5075
511.8622, 405.4635
512.3443, 408.2186
512.8264, 411.7208
513.3085, 415.4854
513.7906, 420.0682
514.2728, 424.3358
514.7549, 426.7232
515.2370, 426.6876
515.7191, 425.5069
516.2012, 423.3589
516.6833, 420.7244
517.1655, 418.3061
517.6476, 417.5629
518.1297, 415.8585
518.6118, 411.9570
519.0939, 406.0161
519.5760, 399.9926
520.0582, 394.2992
520.5403, 388.4438
521.0224, 382.2788
521.5045, 375.6803
521.9866, 369.0493
522.4688, 362.4682
522.9509, 355.7532
523.4330, 348.4390
523.9151, 340.3456
524.3972, 332.5621
524.8793, 325.2439
525.3615, 318.5394
525.8436, 312.9373
526.3257, 308.4040
526.8078, 304.1279
527.2899, 299.4777
527.7720, 294.7097
528.2542, 290.5043
528.7363, 286.9157
529.2184, 283.5757
529.7005, 279.9776
530.1826, 276.5475
530.6647, 273.9510
531.1469, 272.8676
531.6290, 271.8693
532.1111, 270.2009
532.5932, 268.0592
533.0753, 265.8543
533.5574, 263.3132
534.0396, 261.0829
534.5217, 259.4792
535.0038, 258.5648
535.4859, 257.5085
535.9680, 256.2141
536.4501, 254.8529
536.9323, 253.5391
537.4144, 252.3263
537.8965, 250.9728
538.3786, 249.4722
538.8607, 247.8389
539.3428, 246.0067
539.8250, 243.9204
540.3071, 242.2166
540.7892, 241.1858
541.2713, 240.5833
541.7534, 239.9175
542.2355, 239.1883
542.7177, 238.3844
543.1998, 237.4682
543.6819, 236.4729
544.1640, 235.3528
544.6461, 234.0845
545.1282, 233.0899
545.6104, 233.0635
546.0925, 233.3227
546.5746, 233.0647
547.0567, 231.4514
547.5388, 230.1537
548.0209, 230.0738
548.5031, 230.6972
548.9852, 230.8885
549.4673, 230.0616
549.9494, 229.2286
550.4315, 228.7605
550.9136, 228.6538
551.3958, 227.8554
551.8779, 225.7097
552.3600, 223.9761
552.8421, 224.1399
553.3242, 226.5298
553.8063, 227.5247
554.2885, 226.6901
554.7706, 225.2360
555.2527, 224.9551
555.7348, 225.6134
556.2169, 225.6706
556.6990, 224.3116
557.1812, 222.5879
557.6633, 222.1312
558.1454, 222.6544
558.6275, 223.0791
559.1096, 222.3879
559.5917, 221.6196
560.0739, 221.8366
560.5560, 223.1291
561.0381, 224.0761
561.5202, 223.8869
562.0023, 223.2522
562.4844, 222.6764
562.9666, 222.3134
563.4487, 221.8750
563.9308, 221.1473
564.4129, 220.4174
564.8950, 220.1875
565.3771, 220.7807
565.8593, 221.1406
566.3414, 220.9866
566.8235, 220.4222
567.3056, 219.8147
567.7877, 219.1235
568.2698, 218.7040
568.7520, 218.9793
569.2341, 219.7227
569.7162, 219.9806
570.1983, 219.6920
570.6804, 219.4251
571.1625, 220.0623
571.6447, 220.9884
572.1268, 221.1358
572.6089, 219.9440
573.0910, 218.5996
573.5731, 217.7154
574.0552, 217.2221
574.5374, 216.9792
575.0195, 217.2753
575.5016, 217.4882
575.9837, 217.2887
576.4658, 216.7303
576.9479, 216.5029
577.4301, 216.8013
577.9122, 217.2205
578.3943, 217.5739
578.8764, 217.8114
579.3585, 218.3844
579.8406, 219.5562
580.3228, 220.4765
580.8049, 219.9964
581.2870, 218.2111
581.7691, 216.7351
582.2512, 215.7679
582.7333, 215.4114
583.2155, 216.1801
583.6975, 217.7416
584.1796, 219.0963
584.6617, 219.5161
585.1439, 219.6969
585.6260, 220.5725
586.1081, 221.8969
586.5902, 222.4323
587.0723, 220.6435
587.5544, 218.6506
588.0366, 217.6299
588.5187, 217.8491
589.0008, 218.4632
589.4829, 219.9112
589.9650, 221.3578
590.4471, 222.1198
590.9293, 221.7205
591.4114, 221.7799
591.8935, 222.5469
592.3756, 223.6640
592.8577, 224.5186
593.3398, 225.0971
593.8220, 225.5452
594.3041, 225.9124
594.7862, 226.1758
595.2683, 226.1862
595.7504, 225.9879
596.2325, 225.9068
596.7147, 226.2015
597.1968, 226.6965
597.6789, 227.1149
598.1610, 227.4321
598.6431, 228.0813
599.1252, 229.8423
599.6074, 231.7177
600.0895, 232.8556
600.5716, 232.5566
601.0537, 232.4769
601.5358, 232.8419
602.0179, 233.5651
602.5001, 234.5824
602.9822, 236.0845
603.4643, 237.5013
603.9464, 238.8323
604.4285, 239.9773
604.9106, 240.4828
605.3928, 240.2477
605.8749, 240.2244
606.3570, 241.0029
606.8391, 242.3454
607.3212, 243.5287
607.8033, 244.5492
608.2855, 245.4615
608.7676, 246.1883
609.2497, 246.8719
609.7318, 247.7416
610.2139, 248.9113
610.6960, 249.9075
611.1782, 250.1887
611.6603, 250.2856
612.1424, 250.7672
612.6245, 252.6785
613.1066, 253.8643
613.5887, 253.6821
614.0709, 252.6772
614.5530, 251.9412
615.0351, 251.7806
615.5172, 251.2224
615.9993, 249.7484
616.4814, 247.6625
616.9636, 246.7493
617.4457, 247.1110
617.9278, 247.5195
