##NAMES=Schmiederite
##RRUFFID=R100089
##IDEAL CHEMISTRY=Cu^2+^_2_Pb^2+^_2_(Se^4+^O_3_)(Se^6+^O_4_)(OH)_4_
##LOCALITY=El Condor mine, Los Llantenes, Sierra de Cacheuta, La Rioja Province, Argentina
##OWNER=RRUFF
##SOURCE=William W. Pinch
##DESCRIPTION=Aggregates of blue bladed crystals
##STATUS=The identification of this mineral has been confirmed by single-crystal X-ray diffraction.
##URL=rruff.info/R100089
160.4759, 15.75264
160.9580, 15.90070
161.4401, 16.22198
161.9222, 16.57515
162.4044, 16.82992
162.8865, 16.96554
163.3686, 17.13153
163.8507, 17.32447
164.3328, 17.54821
164.8149, 17.88245
165.2971, 18.28633
165.7792, 18.59634
166.2613, 18.61392
166.7434, 18.22709
167.2255, 17.83503
167.7076, 17.25693
168.1898, 16.78913
168.6719, 16.75405
169.1540, 17.18035
169.6361, 17.69717
170.1182, 17.76182
170.6003, 17.11684
171.0825, 16.64996
171.5646, 16.42676
172.0467, 16.39030
172.5288, 16.56114
173.0109, 16.98024
173.4930, 17.40112
173.9752, 17.33015
174.4573, 16.71657
174.9394, 16.17328
175.4215, 15.88021
175.9036, 15.78392
176.3857, 15.85046
176.8679, 16.25351
177.3500, 16.50805
177.8321, 15.81122
178.3142, 14.05365
178.7963, 12.56507
179.2784, 12.34259
179.7606, 13.22849
180.2427, 13.93908
180.7248, 13.92608
181.2069, 13.80421
181.6890, 14.28136
182.1711, 15.44147
182.6533, 16.42048
183.1354, 16.07130
183.6175, 14.13405
184.0996, 12.93144
184.5817, 13.93476
185.0638, 15.28100
185.5460, 15.80365
186.0281, 15.26919
186.5102, 14.44216
186.9923, 14.50698
187.4744, 15.99768
187.9565, 16.94873
188.4387, 16.93892
188.9208, 16.49225
189.4029, 15.81072
189.8850, 14.99066
190.3671, 14.25593
190.8492, 14.07762
191.3314, 15.03772
191.8135, 15.61677
192.2956, 15.46025
192.7777, 15.06043
193.2598, 14.91346
193.7419, 15.20440
194.2241, 15.66666
194.7062, 15.65780
195.1883, 14.62986
195.6704, 13.71833
196.1525, 12.68160
196.6346, 11.86120
197.1168, 11.80121
197.5989, 12.76778
198.0810, 14.32194
198.5631, 15.17962
199.0452, 14.91391
199.5273, 14.57854
200.0095, 14.22262
200.4916, 13.91634
200.9737, 13.81913
201.4558, 14.04683
201.9379, 14.43622
202.4200, 14.47692
202.9022, 13.88910
203.3843, 13.50166
203.8664, 13.88185
204.3485, 14.72806
204.8306, 15.12935
205.3127, 14.50462
205.7949, 13.41353
206.2770, 13.15525
206.7591, 14.12895
207.2412, 14.99652
207.7233, 14.77126
208.2054, 13.64272
208.6876, 12.78335
209.1697, 12.68064
209.6518, 13.12362
210.1339, 13.84738
210.6160, 15.05386
211.0981, 15.92485
211.5803, 15.51675
212.0624, 13.82665
212.5445, 12.40874
213.0266, 11.93987
213.5087, 11.95027
213.9908, 12.02545
214.4730, 12.10738
214.9551, 12.25885
215.4372, 12.64093
215.9193, 13.33350
216.4014, 13.76703
216.8836, 13.68002
217.3657, 13.31637
217.8478, 12.66224
218.3299, 11.70567
218.8120, 10.85122
219.2941, 10.70468
219.7763, 11.44804
220.2584, 12.31765
220.7405, 13.71218
221.2226, 14.85811
221.7047, 15.01166
222.1868, 14.00955
222.6690, 12.58239
223.1511, 11.93395
223.6332, 12.49796
224.1153, 12.86591
224.5974, 12.78526
225.0795, 12.56548
225.5617, 12.41589
226.0438, 12.39843
226.5259, 12.44897
227.0080, 12.49024
227.4901, 12.71052
227.9722, 12.53339
228.4544, 11.49487
228.9365, 10.38133
229.4186, 9.762030
229.9007, 9.809243
230.3828, 10.37765
230.8649, 11.26861
231.3471, 13.09887
231.8292, 14.21988
232.3113, 14.48098
232.7934, 14.19669
233.2755, 13.41469
233.7576, 12.21227
234.2398, 10.96823
234.7219, 10.33593
235.2040, 10.76966
235.6861, 11.06088
236.1682, 11.09081
236.6503, 11.04603
237.1325, 11.13663
237.6146, 11.40920
238.0967, 11.67688
238.5788, 11.61482
239.0609, 10.87769
239.5430, 10.65933
240.0252, 11.44308
240.5073, 12.54638
240.9894, 13.28439
241.4715, 13.49759
241.9536, 13.47633
242.4357, 13.62687
242.9179, 14.03951
243.4000, 14.19826
243.8821, 13.75479
244.3642, 13.17165
244.8463, 13.04019
245.3284, 13.49771
245.8106, 14.03891
246.2927, 14.00505
246.7748, 13.37029
247.2569, 12.89192
247.7390, 12.73784
248.2211, 12.77131
248.7033, 12.91880
249.1854, 13.20326
249.6675, 13.33568
250.1496, 12.87174
250.6317, 11.90992
251.1138, 11.13862
251.5960, 10.66806
252.0781, 10.47377
252.5602, 10.58845
253.0423, 11.05440
253.5244, 11.60149
254.0065, 12.09959
254.4887, 12.51008
254.9708, 12.66506
255.4529, 12.36688
255.9350, 11.85038
256.4171, 11.45023
256.8992, 11.20277
257.3813, 10.94920
257.8635, 10.41568
258.3456, 9.807540
258.8277, 9.520331
259.3098, 9.964132
259.7919, 10.61491
260.2740, 10.52971
260.7562, 9.454585
261.2383, 8.741080
261.7204, 9.756626
262.2025, 11.45711
262.6846, 12.56828
263.1667, 12.58193
263.6489, 12.02806
264.1310, 11.55949
264.6131, 11.14358
265.0952, 10.95740
265.5773, 11.40262
266.0594, 11.99328
266.5416, 12.26182
267.0237, 12.05290
267.5058, 11.56673
267.9879, 10.93100
268.4700, 10.02635
268.9521, 9.538820
269.4343, 10.27700
269.9164, 11.23514
270.3985, 11.56277
270.8806, 11.01469
271.3627, 10.24412
271.8448, 10.13159
272.3270, 10.83724
272.8091, 11.36163
273.2912, 11.21148
273.7733, 10.96517
274.2554, 11.08112
274.7375, 11.61774
275.2197, 12.08387
275.7018, 11.77108
276.1839, 10.49589
276.6660, 9.645934
277.1481, 9.686393
277.6302, 10.03212
278.1124, 10.59295
278.5945, 11.28087
279.0766, 11.80389
279.5587, 11.69736
280.0408, 10.83206
280.5229, 10.51429
281.0051, 11.81981
281.4872, 12.80789
281.9693, 12.28860
282.4514, 10.60228
282.9335, 9.050829
283.4156, 8.872790
283.8978, 10.10491
284.3799, 10.96543
284.8620, 11.22382
285.3441, 11.30115
285.8262, 11.25306
286.3083, 11.13657
286.7905, 11.02356
287.2726, 10.92839
287.7547, 10.87416
288.2368, 11.12283
288.7189, 12.22354
289.2010, 12.95979
289.6832, 12.92095
290.1653, 12.33918
290.6474, 11.52697
291.1295, 10.62400
291.6116, 9.695231
292.0938, 8.990873
292.5759, 8.373175
293.0580, 8.249708
293.5401, 9.090931
294.0222, 10.26514
294.5043, 11.02737
294.9865, 11.03526
295.4686, 10.61162
295.9507, 10.56513
296.4328, 11.23303
296.9149, 11.67790
297.3970, 11.72257
297.8792, 11.56750
298.3613, 11.32291
298.8434, 11.03850
299.3255, 10.80493
299.8076, 10.79965
300.2897, 11.17070
300.7719, 11.43730
301.2540, 11.44278
301.7361, 11.44987
302.2182, 11.69773
302.7003, 12.18509
303.1824, 12.65730
303.6646, 12.73966
304.1467, 12.21529
304.6288, 12.09881
305.1109, 12.90333
305.5930, 13.64379
306.0751, 13.75480
306.5573, 13.33064
307.0394, 12.86664
307.5215, 12.80439
308.0036, 13.16603
308.4857, 13.61689
308.9678, 14.61280
309.4500, 15.24593
309.9321, 14.89525
310.4142, 13.97869
310.8963, 13.37718
311.3784, 13.74012
311.8605, 14.90879
312.3427, 15.61905
312.8248, 15.43145
313.3069, 15.26916
313.7890, 15.14473
314.2711, 15.18847
314.7532, 15.63834
315.2354, 16.63218
315.7175, 17.90367
316.1996, 18.65924
316.6817, 18.56365
317.1638, 18.44938
317.6459, 18.18897
318.1281, 18.06937
318.6102, 18.44692
319.0923, 19.40479
319.5744, 20.58331
320.0565, 21.36364
320.5386, 21.51197
321.0208, 21.79360
321.5029, 22.34736
321.9850, 22.93830
322.4671, 23.40264
322.9492, 23.73548
323.4313, 24.05736
323.9135, 24.49531
324.3956, 25.05237
324.8777, 25.71596
325.3598, 26.77425
325.8419, 27.67381
326.3240, 28.13306
326.8062, 28.23842
327.2883, 28.25824
327.7704, 28.36948
328.2525, 28.57720
328.7346, 28.97578
329.2167, 29.80593
329.6989, 30.56553
330.1810, 31.11674
330.6631, 31.52615
331.1452, 31.88448
331.6273, 32.23478
332.1094, 32.58747
332.5916, 32.96794
333.0737, 33.33652
333.5558, 33.81238
334.0379, 34.68066
334.5200, 35.51590
335.0021, 35.92106
335.4843, 35.77036
335.9664, 35.20395
336.4485, 34.33468
336.9306, 32.91372
337.4127, 31.93829
337.8948, 31.80210
338.3770, 31.88645
338.8591, 31.92899
339.3412, 31.85900
339.8233, 31.64495
340.3055, 31.21358
340.7876, 30.54152
341.2697, 29.90929
341.7518, 29.46983
342.2339, 28.91645
342.7160, 28.06145
343.1982, 26.99258
343.6803, 25.88218
344.1624, 24.70402
344.6445, 23.60084
345.1266, 23.40324
345.6087, 24.85966
346.0909, 26.00980
346.5730, 26.09531
347.0551, 25.59558
347.5372, 25.14212
348.0193, 25.02719
348.5014, 24.93574
348.9836, 24.07178
349.4657, 21.97460
349.9478, 20.67669
350.4299, 21.62761
350.9120, 23.01632
351.3941, 23.49100
351.8763, 22.80759
352.3584, 21.77550
352.8405, 21.10314
353.3226, 20.78771
353.8047, 20.88365
354.2868, 21.87281
354.7690, 22.78676
355.2511, 22.81308
355.7332, 22.15810
356.2153, 21.73873
356.6974, 22.52485
357.1795, 24.08724
357.6617, 24.63980
358.1438, 23.73893
358.6259, 22.69683
359.1080, 22.28492
359.5901, 22.22641
360.0722, 22.05356
360.5544, 21.42851
361.0365, 20.81761
361.5186, 21.08301
362.0007, 22.37966
362.4828, 23.31029
362.9649, 23.09415
363.4471, 22.31524
363.9292, 21.56540
364.4113, 20.86037
364.8934, 20.37650
365.3755, 20.30703
365.8576, 20.60017
366.3398, 20.99743
366.8219, 21.52030
367.3040, 22.01192
367.7861, 22.38799
368.2682, 22.64658
368.7503, 22.60223
369.2325, 21.76206
369.7146, 20.69359
370.1967, 20.47903
370.6788, 21.31449
371.1609, 22.36227
371.6430, 23.09622
372.1252, 23.52893
372.6073, 23.69283
373.0894, 23.38387
373.5715, 22.96975
374.0536, 22.75539
374.5357, 22.70759
375.0179, 22.62531
375.5000, 22.42053
375.9821, 22.11214
376.4642, 21.68565
376.9463, 20.90797
377.4284, 20.54199
377.9106, 21.37644
378.3927, 22.69930
378.8748, 23.18097
379.3569, 22.41403
379.8390, 21.18000
380.3211, 20.41292
380.8033, 20.16689
381.2854, 20.16418
381.7675, 20.66142
382.2496, 21.20034
382.7317, 21.42758
383.2138, 21.32881
383.6960, 21.05210
384.1781, 20.65941
384.6602, 20.17536
385.1423, 19.94062
385.6244, 20.01206
386.1065, 20.21426
386.5887, 20.70629
387.0708, 21.25190
387.5529, 21.39462
388.0350, 20.91746
388.5171, 20.12912
388.9992, 19.70195
389.4814, 19.79080
389.9635, 20.05543
390.4456, 20.80650
390.9277, 21.52664
391.4098, 21.69736
391.8919, 21.30987
392.3741, 20.82458
392.8562, 20.71767
393.3383, 21.03106
393.8204, 21.41240
394.3025, 22.10875
394.7846, 22.61533
395.2668, 22.75381
395.7489, 22.57676
396.2310, 22.10014
396.7131, 21.27665
397.1952, 20.36608
397.6773, 20.33135
398.1595, 21.93616
398.6416, 23.17055
399.1237, 23.69242
399.6058, 23.83764
400.0879, 23.77808
400.5700, 23.59823
401.0522, 23.49358
401.5343, 23.75585
402.0164, 24.46365
402.4985, 25.07381
402.9806, 25.81823
403.4627, 26.19349
403.9449, 25.65103
404.4270, 24.53672
404.9091, 23.73891
405.3912, 23.92916
405.8733, 24.77275
406.3554, 25.32340
406.8376, 25.73983
407.3197, 25.45303
407.8018, 23.13973
408.2839, 20.52298
408.7660, 19.63177
409.2481, 21.17103
409.7303, 23.16971
410.2124, 23.49541
410.6945, 22.26984
411.1766, 21.44679
411.6587, 21.63565
412.1408, 22.09786
412.6230, 22.18175
413.1051, 21.91919
413.5872, 21.50532
414.0693, 20.73771
414.5514, 19.97369
415.0335, 19.98954
415.5157, 20.91646
415.9978, 21.62043
416.4799, 21.17210
416.9620, 19.96254
417.4441, 19.26993
417.9262, 19.41679
418.4084, 19.71758
418.8905, 19.83320
419.3726, 19.80451
419.8547, 19.65805
420.3368, 19.33516
420.8189, 19.13283
421.3011, 19.67440
421.7832, 21.25931
422.2653, 22.27041
422.7474, 22.08243
423.2295, 21.55680
423.7116, 21.43765
424.1938, 21.76016
424.6759, 22.13685
425.1580, 22.27031
425.6401, 22.17402
426.1222, 22.10149
426.6043, 22.04922
427.0865, 22.02033
427.5686, 22.10271
428.0507, 22.18149
428.5328, 22.06193
429.0149, 21.67408
429.4970, 21.17977
429.9792, 20.86158
430.4613, 20.78906
430.9434, 20.74898
431.4255, 20.90673
431.9076, 20.95033
432.3897, 20.50267
432.8719, 19.73937
433.3540, 19.26478
433.8361, 19.64530
434.3182, 20.70899
434.8003, 21.16978
435.2824, 20.52244
435.7646, 20.03152
436.2467, 20.15017
436.7288, 20.49923
437.2109, 20.67248
437.6930, 20.54185
438.1751, 20.29070
438.6573, 20.10960
439.1394, 19.99490
439.6215, 20.03158
440.1036, 20.43759
440.5857, 20.76348
441.0678, 20.50688
441.5500, 19.87375
442.0321, 19.64087
442.5142, 20.52826
442.9963, 21.93277
443.4784, 22.81972
443.9605, 23.17665
444.4427, 23.08051
444.9248, 22.24689
445.4069, 21.13018
445.8890, 20.54070
446.3711, 20.64764
446.8532, 20.89423
447.3354, 20.96578
447.8175, 20.95722
448.2996, 21.17000
448.7817, 21.72579
449.2638, 22.14561
449.7459, 21.80679
450.2281, 20.64979
450.7102, 19.81089
451.1923, 19.08687
451.6744, 18.90802
452.1565, 19.95879
452.6386, 21.83972
453.1208, 23.36006
453.6029, 23.88507
454.0850, 23.72403
454.5671, 23.73174
455.0492, 24.13827
455.5313, 24.40257
456.0135, 24.44221
456.4956, 24.38922
456.9777, 24.30047
457.4598, 24.21376
457.9419, 24.23088
458.4240, 24.51414
458.9062, 25.07356
459.3883, 25.09344
459.8704, 23.35297
460.3525, 22.47437
460.8346, 23.72847
461.3167, 25.90267
461.7989, 27.46661
462.2810, 27.84019
462.7631, 27.55010
463.2452, 27.34241
463.7273, 27.21949
464.2094, 27.16616
464.6916, 27.22217
465.1737, 27.31228
465.6558, 27.43913
466.1379, 27.57130
466.6200, 27.60945
467.1021, 27.42283
467.5843, 27.14089
468.0664, 27.03826
468.5485, 27.13613
469.0306, 27.26324
469.5127, 27.39305
469.9948, 27.47478
470.4770, 27.42535
470.9591, 27.21152
471.4412, 26.98254
471.9233, 26.77489
472.4054, 26.61160
472.8875, 26.71109
473.3697, 27.15286
473.8518, 27.16821
474.3339, 25.80051
474.8160, 23.08861
475.2981, 21.49780
475.7802, 22.01121
476.2624, 22.58290
476.7445, 22.07238
477.2266, 21.00177
477.7087, 20.48013
478.1908, 20.95176
478.6729, 21.86827
479.1551, 22.24350
479.6372, 21.85571
480.1193, 21.40987
480.6014, 20.48287
481.0835, 19.87793
481.5656, 20.39256
482.0478, 21.64460
482.5299, 22.57547
483.0120, 22.46807
483.4941, 21.55711
483.9762, 20.67615
484.4583, 19.68606
484.9405, 19.02781
485.4226, 18.95678
485.9047, 19.10284
486.3868, 19.20746
486.8689, 19.23060
487.3510, 19.25938
487.8332, 19.34650
488.3153, 19.49588
488.7974, 19.79644
489.2795, 20.39723
489.7616, 20.78592
490.2437, 20.48772
490.7259, 19.80839
491.2080, 19.14701
491.6901, 18.47801
492.1722, 18.03488
492.6543, 18.14175
493.1364, 18.61926
493.6186, 18.90104
494.1007, 18.79870
494.5828, 18.68228
495.0649, 19.06933
495.5470, 20.03443
496.0291, 20.53796
496.5113, 20.06794
496.9934, 19.57563
497.4755, 19.75706
497.9576, 20.36287
498.4397, 20.67553
498.9218, 20.33068
499.4040, 19.69057
499.8861, 19.61980
500.3682, 20.92536
500.8503, 21.28080
501.3324, 19.93702
501.8145, 18.39924
502.2967, 17.43006
502.7788, 17.09415
503.2609, 17.22356
503.7430, 17.77677
504.2251, 18.61635
504.7072, 19.17710
505.1894, 19.30515
505.6715, 19.51202
506.1536, 20.30728
506.6357, 20.98384
507.1178, 20.71543
507.5999, 19.47565
508.0821, 18.49081
508.5642, 18.92506
509.0463, 20.30548
509.5284, 21.29087
510.0105, 21.80533
510.4926, 21.89280
510.9748, 21.23094
511.4569, 20.24630
511.9390, 19.93930
512.4211, 20.59146
512.9032, 21.51037
513.3853, 22.77033
513.8674, 23.96108
514.3495, 24.20932
514.8317, 23.32541
515.3138, 22.11028
515.7959, 21.31338
516.2780, 20.94166
516.7601, 20.97601
517.2422, 21.77889
517.7244, 22.51279
518.2065, 22.86595
518.6886, 22.98471
519.1707, 23.22453
519.6528, 23.68143
520.1349, 23.89396
520.6171, 22.90336
521.0992, 20.09886
521.5813, 18.58876
522.0634, 19.56034
522.5455, 20.71466
523.0276, 21.36469
523.5098, 21.58077
523.9919, 21.57226
524.4740, 21.40677
524.9561, 21.13050
525.4382, 20.81728
525.9203, 20.47010
526.4025, 19.95143
526.8846, 18.99585
527.3667, 18.18099
527.8488, 18.17918
528.3309, 18.86516
528.8130, 19.45814
529.2952, 19.53990
529.7773, 19.57700
530.2594, 20.23399
530.7415, 21.30833
531.2236, 21.82292
531.7057, 21.28696
532.1879, 20.13317
532.6700, 19.16796
533.1521, 18.42222
533.6342, 17.81134
534.1163, 16.93236
534.5984, 16.53257
535.0806, 17.67757
535.5627, 19.77509
536.0448, 21.07578
536.5269, 20.41739
537.0090, 18.55049
537.4911, 17.83414
537.9733, 18.99079
538.4554, 19.69760
538.9375, 19.15866
539.4196, 18.54210
539.9017, 18.72474
540.3839, 19.56336
540.8660, 20.16476
541.3481, 19.76206
541.8302, 18.84463
542.3123, 18.53942
542.7944, 18.90815
543.2766, 19.38584
543.7587, 20.01672
544.2408, 20.40743
544.7229, 19.85284
545.2050, 18.20461
545.6871, 16.97116
546.1693, 16.88652
546.6514, 17.34151
547.1335, 17.79967
547.6156, 18.18229
548.0977, 18.40164
548.5798, 18.38485
549.0620, 18.19576
549.5441, 18.05097
550.0262, 18.13435
550.5083, 18.00719
550.9904, 17.15651
551.4725, 16.48188
551.9547, 16.99415
552.4368, 18.42089
552.9189, 19.47959
553.4010, 19.09235
553.8831, 17.73206
554.3652, 17.46260
554.8474, 18.98336
555.3295, 19.82910
555.8116, 18.48288
556.2937, 16.84641
556.7758, 16.35312
557.2579, 17.04334
557.7401, 17.86159
558.2222, 18.21941
558.7043, 18.29797
559.1864, 18.34240
559.6685, 18.35884
560.1506, 18.60481
560.6328, 19.39458
561.1149, 20.30794
561.5970, 20.30791
562.0791, 19.09146
562.5612, 18.13441
563.0433, 17.67447
563.5255, 17.60237
564.0076, 18.08144
564.4897, 18.91790
564.9718, 19.45872
565.4539, 19.25769
565.9360, 18.55228
566.4182, 18.13802
566.9003, 18.09659
567.3824, 18.20284
567.8645, 18.44318
568.3466, 18.80377
568.8287, 19.48317
569.3109, 20.31323
569.7930, 20.73272
570.2751, 20.24756
570.7572, 19.29139
571.2393, 18.75832
571.7214, 18.66916
572.2036, 18.77723
572.6857, 19.14328
573.1678, 19.52682
573.6499, 19.59261
574.1320, 19.35051
574.6141, 19.21874
575.0963, 19.51692
575.5784, 19.80755
576.0605, 19.67645
576.5426, 19.20068
577.0247, 18.58660
577.5068, 17.88522
577.9890, 17.39238
578.4711, 17.76837
578.9532, 19.81364
579.4353, 20.65059
579.9174, 19.47985
580.3995, 18.06229
580.8817, 16.88576
581.3638, 16.15646
581.8459, 16.22514
582.3280, 17.32035
582.8101, 18.76922
583.2922, 19.43540
583.7744, 19.25749
584.2565, 19.21285
584.7386, 19.71024
585.2207, 19.94946
585.7029, 18.91216
586.1850, 17.18983
586.6671, 16.34384
587.1492, 17.09897
587.6313, 18.35506
588.1135, 19.64615
588.5956, 20.79763
589.0777, 21.28093
589.5598, 20.94824
590.0419, 20.39784
590.5240, 20.25677
591.0062, 20.54565
591.4883, 20.77781
591.9704, 21.10433
592.4525, 21.20170
592.9346, 20.77935
593.4167, 20.19309
593.8989, 19.77470
594.3810, 19.63193
594.8631, 19.78745
595.3452, 20.41641
595.8273, 21.44320
596.3094, 21.96315
596.7916, 21.79285
597.2737, 21.53917
597.7558, 21.39519
598.2379, 21.33302
598.7200, 21.32478
599.2021, 21.36449
599.6843, 21.48740
600.1664, 21.84468
600.6485, 22.23083
601.1306, 22.23769
601.6127, 21.89649
602.0948, 21.81196
602.5770, 22.43369
603.0591, 23.36876
603.5412, 23.51264
604.0233, 21.98214
604.5054, 21.10143
604.9875, 21.30879
605.4697, 21.76718
605.9518, 22.02842
606.4339, 22.08397
606.9160, 22.00789
607.3981, 21.79548
607.8802, 21.68659
608.3624, 22.41353
608.8445, 24.19391
609.3266, 24.99372
609.8087, 23.87211
610.2908, 22.50086
610.7729, 22.12058
611.2551, 22.48509
611.7372, 22.89094
612.2193, 23.30802
612.7014, 23.53020
613.1835, 23.29451
613.6656, 22.77152
614.1478, 22.30371
614.6299, 21.97851
615.1120, 21.77138
615.5941, 21.64861
616.0762, 21.60992
616.5583, 21.78353
617.0405, 22.64063
617.5226, 23.11844
618.0047, 22.65057
618.4868, 21.96536
618.9689, 21.86532
619.4510, 22.40373
619.9332, 22.93661
620.4153, 22.93050
620.8974, 22.48589
621.3795, 21.85375
621.8616, 20.93559
622.3438, 20.36900
622.8259, 20.51532
623.3080, 21.03058
623.7901, 21.48839
624.2722, 21.89355
624.7543, 22.19425
625.2365, 22.50300
625.7186, 22.59913
626.2007, 22.11776
626.6828, 21.26496
627.1649, 20.58813
627.6470, 20.31300
628.1292, 20.35959
628.6113, 20.66407
629.0934, 21.39167
629.5755, 21.68360
630.0576, 21.06332
630.5397, 20.50079
631.0219, 20.29209
631.5040, 20.30412
631.9861, 20.41278
632.4682, 20.59237
632.9503, 20.58236
633.4324, 19.74322
633.9146, 18.52254
634.3967, 18.62223
634.8788, 20.33076
635.3609, 21.85540
635.8430, 22.07952
636.3251, 21.42358
636.8073, 21.05439
637.2894, 20.95494
637.7715, 21.11090
638.2536, 21.84968
638.7357, 22.57357
639.2178, 22.72766
639.7000, 22.45153
640.1821, 22.22293
640.6642, 22.29441
641.1463, 22.62346
641.6284, 23.26974
642.1105, 24.41095
642.5927, 24.85316
643.0748, 23.87243
643.5569, 22.96707
644.0390, 23.13983
644.5211, 23.94627
645.0032, 24.47938
645.4854, 24.44924
645.9675, 24.30279
646.4496, 24.32700
646.9317, 24.44480
647.4138, 24.55013
647.8959, 24.61817
648.3781, 24.53163
648.8602, 24.14399
649.3423, 23.58611
649.8244, 23.50333
650.3065, 24.56696
650.7886, 25.09399
651.2708, 24.55393
651.7529, 23.89357
652.2350, 23.73890
652.7171, 24.01773
653.1992, 24.33418
653.6813, 24.46995
654.1635, 24.56927
654.6456, 25.00325
655.1277, 25.71049
655.6098, 25.80838
656.0919, 24.92048
656.5740, 23.99183
