##NAMES=Schorl
##RRUFFID=R050304
##IDEAL CHEMISTRY=NaFe^2+^_3_Al_6_(Si_6_O_18_)(BO_3_)_3_(OH)_3_OH
##LOCALITY=Erongo Mountains, Namibia
##OWNER=RRUFF
##SOURCE=Eugene Schlepp
##DESCRIPTION=Black prismatic crystal associated with quartz and orthoclase
##STATUS=The identification of this mineral has been confirmed by X-ray diffraction and chemical analysis
##URL=rruff.info/R050304
##MEASURED CHEMISTRY=(Na_0.86_[box]_0.14_)_Σ=1_(Fe^2+^_2.68_Mg_0.22_Al_0.06_Ti_0.04_)_Σ=3_Al_6.00_(BO_3_)_3_Si_6.00_O_18_(OH)_4_
91.87140, 0.0000000E+00
92.35352, 5.852682
92.83563, 6.044785
93.31775, 6.126822
93.79987, 6.020830
94.28198, 5.794451
94.76410, 5.637859
95.24622, 5.582712
95.72833, 5.622763
96.21045, 5.757816
96.69257, 5.990322
97.17468, 6.283725
97.65680, 6.627161
98.13892, 7.020608
98.62103, 7.383660
99.10315, 7.659973
99.58527, 7.876640
100.0674, 8.226974
100.5495, 8.746767
101.0316, 9.314988
101.5137, 9.737996
101.9958, 9.943523
102.4780, 10.26843
102.9601, 10.82784
103.4422, 11.64827
103.9243, 12.52507
104.4064, 13.46122
104.8885, 14.45621
105.3707, 15.53326
105.8528, 16.68662
106.3349, 17.91825
106.8170, 19.24317
107.2991, 20.81405
107.7813, 22.18679
108.2634, 23.28430
108.7455, 24.17830
109.2276, 25.07055
109.7097, 25.93241
110.1918, 26.82206
110.6740, 27.76511
111.1561, 28.78706
111.6382, 29.83453
112.1203, 30.85024
112.6024, 31.86812
113.0845, 33.03867
113.5667, 34.45540
114.0488, 35.98853
114.5309, 37.56757
115.0130, 39.17371
115.4951, 40.81230
115.9772, 42.47131
116.4594, 44.16683
116.9415, 45.94991
117.4236, 47.97707
117.9057, 50.05935
118.3878, 51.98626
118.8699, 53.44952
119.3521, 54.93013
119.8342, 56.75577
120.3163, 58.96993
120.7984, 61.26554
121.2805, 63.52031
121.7626, 65.72587
122.2448, 67.86790
122.7269, 70.24445
123.2090, 72.40691
123.6911, 73.85356
124.1732, 74.45255
124.6553, 74.66644
125.1375, 74.65962
125.6196, 74.55055
126.1017, 74.71415
126.5838, 75.44938
127.0659, 76.59687
127.5480, 77.88646
128.0302, 79.30533
128.5123, 80.81531
128.9944, 82.32499
129.4765, 83.84885
129.9586, 85.52174
130.4407, 87.73792
130.9229, 90.27311
131.4050, 92.13850
131.8871, 92.84956
132.3692, 93.00262
132.8513, 93.95121
133.3334, 95.58945
133.8156, 97.07687
134.2977, 98.03767
134.7798, 98.82028
135.2619, 99.67486
135.7440, 100.6566
136.2261, 101.7458
136.7083, 102.9113
137.1904, 104.1248
137.6725, 105.5112
138.1546, 107.4541
138.6367, 110.1966
139.1188, 112.2135
139.6010, 113.0163
140.0831, 112.6077
140.5652, 112.1825
141.0473, 111.6552
141.5294, 111.2137
142.0115, 111.1563
142.4937, 111.6620
142.9758, 112.1135
143.4579, 112.2998
143.9400, 112.1337
144.4221, 112.1005
144.9042, 112.1732
145.3864, 112.3826
145.8685, 112.8167
146.3506, 113.7804
146.8327, 114.5557
147.3148, 114.8736
147.7969, 114.4408
148.2791, 114.2116
148.7612, 114.2806
149.2433, 114.5419
149.7254, 114.7545
150.2075, 114.8408
150.6896, 114.9482
151.1718, 115.1319
151.6539, 115.4539
152.1360, 115.7637
152.6181, 115.9763
153.1002, 116.1621
153.5823, 116.5298
154.0645, 117.5900
154.5466, 118.4799
155.0287, 118.7912
155.5108, 117.8858
155.9929, 117.1231
156.4750, 116.7480
156.9572, 116.6882
157.4393, 116.6690
157.9214, 116.6735
158.4035, 116.6731
158.8856, 116.6501
159.3677, 116.5423
159.8499, 116.4698
160.3320, 116.4425
160.8141, 116.4674
161.2962, 116.5941
161.7783, 116.9882
162.2604, 117.4235
162.7426, 117.7135
163.2247, 117.7173
163.7068, 117.6415
164.1889, 117.5429
164.6710, 117.4273
165.1531, 117.3509
165.6353, 117.4340
166.1174, 117.5389
166.5995, 117.5174
167.0816, 117.1247
167.5637, 116.7285
168.0458, 116.5146
168.5280, 116.4886
169.0101, 116.6911
169.4922, 117.4487
169.9743, 118.3921
170.4564, 119.0000
170.9385, 118.6622
171.4207, 118.1355
171.9028, 118.1570
172.3849, 118.7759
172.8670, 119.4394
173.3491, 119.5820
173.8312, 119.4720
174.3134, 119.6249
174.7955, 120.5116
175.2776, 121.6803
175.7597, 122.5460
176.2418, 123.0515
176.7239, 123.5611
177.2061, 124.4798
177.6882, 125.7001
178.1703, 126.9087
178.6524, 128.0374
179.1345, 129.0526
179.6166, 129.8345
180.0988, 130.3521
180.5809, 130.8114
181.0630, 131.4347
181.5451, 132.2031
182.0272, 133.0145
182.5093, 133.8516
182.9915, 134.7003
183.4736, 135.4805
183.9557, 136.1647
184.4378, 136.8839
184.9199, 137.9048
185.4020, 139.1671
185.8842, 140.3836
186.3663, 141.3372
186.8484, 142.1017
187.3305, 142.9226
187.8126, 143.8505
188.2947, 144.7803
188.7769, 145.4426
189.2590, 145.8588
189.7411, 146.4668
190.2232, 147.7353
190.7053, 149.5170
191.1874, 150.8559
191.6696, 151.6187
192.1517, 152.0505
192.6338, 152.5316
193.1159, 153.0585
193.5980, 153.7322
194.0801, 154.8599
194.5623, 156.3664
195.0444, 157.1416
195.5265, 156.9361
196.0086, 156.1544
196.4907, 155.5431
196.9728, 155.0888
197.4550, 154.9009
197.9371, 155.1546
198.4192, 155.8584
198.9013, 156.5029
199.3834, 157.1755
199.8655, 157.6320
200.3477, 157.0689
200.8298, 155.2614
201.3119, 153.4539
201.7940, 152.4118
202.2761, 152.1937
202.7582, 152.0915
203.2404, 152.0746
203.7225, 152.1148
204.2046, 152.0947
204.6867, 151.9622
205.1688, 151.9529
205.6509, 152.2050
206.1331, 152.7278
206.6152, 153.4640
207.0973, 154.4444
207.5794, 155.6168
208.0615, 156.8110
208.5436, 157.9968
209.0258, 159.2890
209.5079, 160.7436
209.9900, 162.3540
210.4721, 164.1058
210.9542, 165.9576
211.4363, 167.9609
211.9185, 170.3545
212.4006, 173.2937
212.8827, 176.3062
213.3648, 178.9837
213.8469, 181.1914
214.3290, 183.6501
214.8112, 186.4024
215.2933, 189.4346
215.7754, 192.8251
216.2575, 196.6468
216.7396, 200.7012
217.2217, 204.8974
217.7039, 209.3223
218.1860, 213.5750
218.6681, 217.5451
219.1502, 221.3116
219.6323, 225.0875
220.1144, 228.7664
220.5966, 232.5845
221.0787, 236.7138
221.5608, 241.3829
222.0429, 245.7240
222.5250, 249.6418
223.0071, 253.1982
223.4893, 256.4607
223.9714, 259.4599
224.4535, 262.1722
224.9356, 264.5875
225.4177, 266.5681
225.8998, 268.5538
226.3820, 270.5679
226.8641, 272.6092
227.3462, 274.6096
227.8283, 276.5732
228.3104, 278.4824
228.7925, 280.2675
229.2747, 281.7899
229.7568, 283.5898
230.2389, 285.9334
230.7210, 288.5418
231.2031, 290.3778
231.6852, 290.9024
232.1674, 291.4468
232.6495, 292.7159
233.1316, 295.2083
233.6137, 297.3212
234.0958, 299.0148
234.5779, 300.2867
235.0601, 301.0857
235.5422, 301.3319
236.0243, 301.2347
236.5064, 300.8261
236.9885, 299.8313
237.4706, 299.1905
237.9528, 299.3052
238.4349, 299.6735
238.9170, 299.0268
239.3991, 297.0972
239.8812, 294.5522
240.3633, 291.6364
240.8455, 288.3100
241.3276, 284.7087
241.8097, 280.8262
242.2918, 276.7188
242.7739, 272.5455
243.2560, 268.3372
243.7382, 264.0158
244.2203, 259.5340
244.7024, 254.8234
245.1845, 250.1417
245.6666, 245.4462
246.1487, 240.8108
246.6309, 236.2606
247.1130, 231.7047
247.5951, 227.3661
248.0772, 223.4101
248.5593, 219.9411
249.0414, 216.3744
249.5236, 212.5853
250.0057, 208.7806
250.4878, 205.2667
250.9699, 202.2419
251.4520, 199.1322
251.9341, 195.7091
252.4163, 191.8063
252.8984, 188.3507
253.3805, 185.5322
253.8626, 182.9913
254.3447, 180.2652
254.8268, 177.1866
255.3090, 174.1860
255.7911, 171.4448
256.2732, 168.9904
256.7553, 166.4237
257.2374, 163.5850
257.7195, 160.7827
258.2017, 158.4195
258.6838, 156.6351
259.1659, 154.9235
259.6480, 153.1151
260.1301, 151.2143
260.6122, 149.5418
261.0944, 148.1773
261.5765, 146.9362
262.0586, 145.5946
262.5407, 144.0735
263.0228, 142.6868
263.5049, 141.5466
263.9871, 140.6337
264.4692, 139.6890
264.9513, 138.6781
265.4334, 137.6784
265.9155, 136.7152
266.3976, 135.7640
266.8798, 135.0132
267.3619, 134.6205
267.8440, 134.4982
268.3261, 133.8805
268.8082, 132.5451
269.2903, 131.1846
269.7725, 130.4299
270.2546, 130.4440
270.7367, 130.3410
271.2188, 129.9599
271.7009, 129.3783
272.1830, 128.8857
272.6652, 128.4575
273.1473, 128.1956
273.6294, 128.2589
274.1115, 128.7387
274.5936, 128.9635
275.0757, 128.8201
275.5579, 128.4144
276.0400, 128.0588
276.5221, 127.7763
277.0042, 127.4464
277.4863, 126.9204
277.9684, 126.1650
278.4506, 125.7048
278.9327, 125.6601
279.4148, 125.8214
279.8969, 125.7451
280.3790, 125.4082
280.8611, 125.0029
281.3433, 124.5546
281.8254, 124.0647
282.3075, 123.8791
282.7896, 124.0948
283.2717, 124.4223
283.7538, 124.4480
284.2360, 124.1716
284.7181, 123.6244
285.2002, 122.6445
285.6823, 121.3109
286.1644, 120.3467
286.6465, 119.7844
287.1287, 119.5005
287.6108, 119.4767
288.0929, 119.6902
288.5750, 119.7267
289.0571, 119.3393
289.5392, 118.6470
290.0214, 118.1675
290.5035, 117.9289
290.9856, 117.6872
291.4677, 117.1120
291.9498, 116.2654
292.4319, 115.5444
292.9141, 115.0431
293.3962, 114.7523
293.8783, 114.7303
294.3604, 114.9821
294.8425, 115.2421
295.3246, 115.2951
295.8068, 115.1742
296.2889, 114.9629
296.7710, 114.5977
297.2531, 114.2505
297.7352, 114.3136
298.2173, 114.7368
298.6995, 115.0921
299.1816, 114.9855
299.6637, 114.5908
300.1458, 114.2579
300.6279, 114.0256
301.1100, 113.9165
301.5922, 113.9595
302.0743, 114.1498
302.5564, 114.4709
303.0385, 115.0463
303.5206, 115.7014
304.0027, 116.2345
304.4849, 116.6396
304.9670, 116.8109
305.4491, 116.3431
305.9312, 115.5330
306.4133, 115.0930
306.8954, 115.6347
307.3776, 116.5841
307.8597, 117.4625
308.3418, 118.2649
308.8239, 118.7771
309.3060, 118.6959
309.7881, 118.2481
310.2703, 117.7941
310.7524, 117.3668
311.2345, 117.0668
311.7166, 117.1164
312.1987, 117.4948
312.6808, 117.6467
313.1630, 117.1341
313.6451, 116.2763
314.1272, 115.4122
314.6093, 114.7753
315.0914, 114.0502
315.5735, 112.9563
316.0557, 111.5837
316.5378, 110.4153
317.0199, 109.8384
317.5020, 109.4411
317.9841, 108.9031
318.4662, 108.0161
318.9484, 107.2054
319.4305, 106.5499
319.9126, 106.0711
320.3947, 105.8243
320.8768, 106.0814
321.3589, 106.3817
321.8411, 106.4652
322.3232, 106.1538
322.8053, 105.9816
323.2874, 106.0755
323.7695, 106.3650
324.2516, 106.7384
324.7338, 107.2561
325.2159, 107.7830
325.6980, 108.2661
326.1801, 108.6833
326.6622, 109.1516
327.1443, 109.5815
327.6265, 110.1106
328.1086, 110.8839
328.5907, 112.2465
329.0728, 113.4581
329.5549, 114.3622
330.0370, 114.9592
330.5192, 115.5870
331.0013, 116.1475
331.4834, 116.8266
331.9655, 117.7803
332.4476, 119.2431
332.9297, 120.5706
333.4119, 121.5719
333.8940, 122.3758
334.3761, 123.5790
334.8582, 125.3704
335.3403, 127.2142
335.8224, 128.8067
336.3046, 130.0140
336.7867, 131.3728
337.2688, 132.9104
337.7509, 134.5977
338.2330, 136.4474
338.7151, 138.5005
339.1973, 140.5452
339.6794, 142.4749
340.1615, 144.2585
340.6436, 146.2737
341.1257, 148.5234
341.6078, 150.9577
342.0900, 153.4880
342.5721, 156.0580
343.0542, 158.9460
343.5363, 162.3393
344.0184, 166.0771
344.5005, 169.4046
344.9827, 172.2117
345.4648, 175.2225
345.9469, 179.1512
346.4290, 183.9473
346.9111, 188.7841
347.3932, 193.5580
347.8754, 198.2671
348.3575, 202.7617
348.8396, 207.0365
349.3217, 211.3144
349.8038, 215.5962
350.2859, 219.9549
350.7681, 224.5695
351.2502, 229.4593
351.7323, 234.5963
352.2144, 240.1038
352.6965, 245.8903
353.1786, 251.5176
353.6608, 256.5072
354.1429, 261.3515
354.6250, 266.6735
355.1071, 272.5096
355.5892, 278.5923
356.0714, 284.8209
356.5535, 291.1467
357.0356, 297.4994
357.5177, 304.0384
357.9998, 310.4769
358.4819, 316.4735
358.9641, 322.0818
359.4462, 327.4416
359.9283, 332.8247
360.4104, 337.8830
360.8925, 342.3646
361.3746, 346.3846
361.8568, 349.5143
362.3389, 351.6046
362.8210, 352.6599
363.3031, 352.7512
363.7852, 351.7330
364.2673, 349.8824
364.7495, 347.4095
365.2316, 344.4895
365.7137, 340.3600
366.1958, 334.3211
366.6779, 327.2321
367.1600, 320.0475
367.6422, 312.8790
368.1243, 305.6243
368.6064, 298.3050
369.0885, 290.8992
369.5706, 283.2693
370.0527, 274.9830
370.5349, 266.7683
371.0170, 258.9929
371.4991, 251.9120
371.9812, 244.9780
372.4633, 238.1123
372.9454, 231.3457
373.4276, 224.9172
373.9097, 218.7506
374.3918, 212.9319
374.8739, 207.6756
375.3560, 203.0455
375.8381, 198.3826
376.3203, 193.6277
376.8024, 188.9825
377.2845, 184.8237
377.7666, 181.2601
378.2487, 177.7361
378.7308, 174.0305
379.2130, 170.2049
379.6951, 167.1073
380.1772, 164.7883
380.6593, 162.7962
381.1414, 160.7088
381.6235, 158.5584
382.1057, 156.4526
382.5878, 154.3891
383.0699, 152.4438
383.5520, 150.8114
384.0341, 149.4585
384.5162, 148.1931
384.9984, 146.8024
385.4805, 145.4102
385.9626, 144.3196
386.4447, 143.6018
386.9268, 142.9610
387.4089, 142.0280
387.8911, 140.9349
388.3732, 140.0004
388.8553, 139.4009
389.3374, 138.9991
389.8195, 138.6921
390.3016, 138.4799
390.7838, 138.3443
391.2659, 138.4080
391.7480, 138.4898
392.2301, 138.3765
392.7122, 137.7480
393.1943, 137.2784
393.6765, 137.4005
394.1586, 137.9538
394.6407, 138.4756
395.1228, 138.9367
395.6049, 139.2305
396.0870, 139.2126
396.5692, 138.6712
397.0513, 138.4670
397.5334, 139.0542
398.0155, 139.9749
398.4976, 140.6475
398.9797, 140.7592
399.4619, 140.8954
399.9440, 141.2332
400.4261, 141.7691
400.9082, 142.0521
401.3903, 141.9015
401.8724, 141.6653
402.3546, 141.5698
402.8367, 141.7045
403.3188, 141.7998
403.8009, 141.9137
404.2830, 141.9479
404.7651, 141.6160
405.2473, 140.8277
405.7294, 139.9468
406.2115, 139.1725
406.6936, 138.5249
407.1757, 137.4925
407.6578, 135.9916
408.1400, 134.3272
408.6221, 132.8413
409.1042, 131.5293
409.5863, 130.1573
410.0684, 128.6332
410.5505, 127.0366
411.0327, 125.5322
411.5148, 124.1066
411.9969, 122.5630
412.4790, 120.5408
412.9611, 118.2881
413.4432, 116.4806
413.9254, 115.2570
414.4075, 114.2180
414.8896, 113.0701
415.3717, 111.7769
415.8538, 110.2535
416.3359, 108.1386
416.8181, 105.9919
417.3002, 104.3784
417.7823, 103.2794
418.2644, 102.3546
418.7465, 101.5397
419.2286, 100.7104
419.7108, 99.75455
420.1929, 98.58086
420.6750, 97.34035
421.1571, 95.90788
421.6392, 94.42892
422.1213, 93.32088
422.6035, 93.07433
423.0856, 92.89674
423.5677, 92.41507
424.0498, 91.46470
424.5319, 90.71999
425.0140, 90.35683
425.4962, 90.16098
425.9783, 89.92370
426.4604, 89.71593
426.9425, 89.36061
427.4246, 88.77128
427.9067, 87.98927
428.3889, 87.33662
428.8710, 86.83826
429.3531, 86.42676
429.8352, 86.04379
430.3173, 85.66885
430.7994, 85.48898
431.2816, 85.58787
431.7637, 85.75362
432.2458, 85.59468
432.7279, 85.08762
433.2100, 84.62772
433.6921, 84.32589
434.1743, 84.18060
434.6564, 84.26120
435.1385, 84.57675
435.6206, 84.86442
436.1027, 84.84071
436.5848, 84.61202
437.0670, 84.50206
437.5491, 84.63902
438.0312, 84.74382
438.5133, 84.34638
438.9954, 83.63734
439.4775, 83.14484
439.9597, 83.39340
440.4418, 83.82122
440.9239, 83.92832
441.4060, 83.68641
441.8881, 83.32547
442.3702, 82.85107
442.8524, 82.38309
443.3345, 82.03496
443.8166, 81.93534
444.2987, 81.84332
444.7808, 81.64780
445.2629, 81.39738
445.7451, 81.23470
446.2272, 81.38599
446.7093, 81.45992
447.1914, 81.28368
447.6735, 80.76258
448.1556, 80.27515
448.6378, 79.81299
449.1199, 79.39421
449.6020, 79.04560
450.0841, 78.82171
450.5662, 78.56567
451.0483, 78.23231
451.5305, 77.84937
452.0126, 77.54380
452.4947, 77.31443
452.9768, 77.15800
453.4589, 77.07970
453.9410, 77.08022
454.4232, 77.15503
454.9053, 77.35051
455.3874, 77.46776
455.8695, 77.15419
456.3516, 76.47305
456.8337, 75.89909
457.3159, 75.56526
457.7980, 75.43777
458.2801, 75.52086
458.7622, 75.78842
459.2443, 76.06017
459.7264, 76.23071
460.2086, 76.32468
460.6907, 76.36819
461.1728, 76.36430
461.6549, 76.31989
462.1370, 76.17899
462.6191, 76.01465
463.1013, 75.93721
463.5834, 75.91423
464.0655, 76.05411
464.5476, 76.51185
465.0297, 77.23701
465.5118, 77.83573
465.9940, 78.11716
466.4761, 78.29284
466.9582, 78.47129
467.4403, 78.65842
467.9224, 78.85304
468.4045, 78.99390
468.8867, 79.16557
469.3688, 79.51302
469.8509, 80.16687
470.3330, 80.74304
470.8151, 81.10503
471.2972, 81.28880
471.7794, 81.71099
472.2615, 82.47720
472.7436, 83.20782
473.2257, 83.59021
473.7078, 83.61868
474.1899, 83.74281
474.6721, 84.00134
475.1542, 84.35049
475.6363, 84.73307
476.1184, 85.15018
476.6005, 85.61223
477.0826, 86.14612
477.5648, 86.71253
478.0469, 87.34208
478.5290, 88.00739
479.0111, 88.45918
479.4932, 88.29913
479.9753, 87.92277
480.4575, 87.83450
480.9396, 88.21506
481.4217, 88.58623
481.9038, 88.55920
482.3859, 88.35326
482.8680, 88.29066
483.3502, 88.77009
483.8323, 89.12508
484.3144, 89.00281
484.7965, 88.44041
485.2786, 88.05514
485.7607, 88.11282
486.2429, 88.23448
486.7250, 88.24720
487.2071, 88.19331
487.6892, 87.92673
488.1713, 87.32919
488.6534, 86.60368
489.1356, 86.06124
489.6177, 85.79813
490.0998, 85.42215
490.5819, 84.78542
491.0640, 83.95951
491.5461, 83.32973
492.0283, 82.91071
492.5104, 82.56059
492.9925, 82.29247
493.4746, 82.04118
493.9567, 81.41214
494.4388, 80.30228
494.9210, 79.16874
495.4031, 78.56421
495.8852, 78.33894
496.3673, 78.10167
496.8494, 77.69324
497.3315, 77.22475
497.8137, 76.77645
498.2958, 76.34879
498.7779, 75.96577
499.2600, 75.65382
499.7421, 75.37529
500.2242, 75.11970
500.7064, 74.90012
501.1885, 74.62613
501.6706, 74.17726
502.1527, 73.70547
502.6348, 73.37211
503.1169, 73.38457
503.5991, 73.31731
504.0812, 73.15015
504.5633, 72.87663
505.0454, 72.43443
505.5275, 71.69509
506.0096, 71.02284
506.4918, 70.59429
506.9739, 70.43250
507.4560, 70.15834
507.9381, 69.72058
508.4202, 69.30720
508.9023, 69.15512
509.3845, 69.24703
509.8666, 69.27751
510.3487, 69.17510
510.8308, 69.01424
511.3129, 68.95415
511.7950, 68.96118
512.2772, 68.87679
512.7593, 68.48189
513.2414, 68.02225
513.7235, 67.77591
514.2056, 67.74731
514.6877, 67.86332
515.1699, 68.34739
515.6520, 68.81363
516.1341, 68.87681
516.6162, 68.26566
517.0983, 67.61143
517.5804, 66.98253
518.0626, 66.46583
518.5447, 66.20411
519.0268, 66.53631
519.5089, 66.78654
519.9910, 66.75883
520.4731, 66.47588
520.9553, 66.30524
521.4374, 66.33765
521.9195, 66.35058
522.4016, 66.18276
522.8837, 65.76894
523.3658, 65.54656
523.8480, 65.56106
524.3301, 65.68067
524.8122, 65.74667
525.2943, 65.76115
525.7764, 65.74175
526.2585, 65.66998
526.7407, 65.59490
527.2228, 65.61768
527.7049, 65.72556
528.1870, 65.84130
528.6691, 65.97438
529.1512, 66.06150
529.6334, 65.97726
530.1155, 65.70470
530.5976, 65.50139
531.0797, 65.61032
531.5618, 65.81905
532.0439, 65.91166
532.5261, 65.72533
533.0082, 65.57551
533.4903, 65.57042
533.9724, 65.65219
534.4545, 65.69711
534.9366, 65.65669
535.4188, 65.62331
535.9009, 65.63897
536.3830, 65.70112
536.8651, 65.67638
537.3472, 65.56785
537.8293, 65.37064
538.3115, 65.01023
538.7936, 64.45831
539.2757, 64.20235
539.7578, 64.32320
540.2399, 64.58588
540.7220, 64.68911
541.2042, 64.65373
541.6863, 64.61356
542.1684, 64.63614
542.6505, 64.64122
543.1326, 64.45341
543.6147, 64.12945
544.0969, 63.88346
544.5790, 63.90856
545.0611, 64.02319
545.5432, 64.11997
546.0253, 64.19413
546.5074, 64.13371
546.9896, 63.66205
547.4717, 63.16541
547.9538, 62.96518
548.4359, 63.56443
548.9180, 63.84377
549.4001, 63.42045
549.8823, 62.71967
550.3644, 62.50099
550.8465, 63.12197
551.3286, 63.53857
551.8107, 63.41071
552.2928, 62.83615
552.7750, 62.58363
553.2571, 62.71937
553.7392, 62.84465
554.2213, 62.65453
554.7034, 62.21094
555.1855, 61.84234
555.6677, 61.55815
556.1498, 61.39209
556.6319, 61.48246
557.1140, 61.70803
557.5961, 61.80413
558.0782, 61.61610
558.5604, 61.40823
559.0425, 61.47514
559.5246, 61.68524
560.0067, 61.74453
560.4888, 61.31102
560.9709, 60.90078
561.4531, 60.80436
561.9352, 61.02891
562.4173, 61.15015
562.8994, 60.97709
563.3815, 60.79667
563.8636, 60.75859
564.3458, 60.93048
564.8279, 61.07708
565.3100, 61.23661
565.7921, 61.32581
566.2742, 61.15876
566.7563, 60.68537
567.2385, 60.47541
567.7206, 60.75470
568.2027, 61.23707
568.6848, 61.24469
569.1669, 60.83505
569.6490, 60.43402
570.1312, 60.30400
570.6133, 60.30086
571.0954, 60.20778
571.5775, 60.02616
572.0596, 59.87333
572.5417, 59.87536
573.0239, 59.90778
573.5060, 59.83468
573.9881, 59.54381
574.4702, 59.39097
574.9523, 59.59222
575.4344, 59.94933
575.9166, 60.20919
576.3987, 60.29085
576.8808, 60.36387
577.3629, 60.45956
577.8450, 60.55835
578.3271, 60.58979
578.8093, 60.53269
579.2914, 60.46964
579.7735, 60.43744
580.2556, 60.42992
580.7377, 60.40195
581.2198, 60.35282
581.7020, 60.28186
582.1841, 60.19138
582.6662, 60.07821
583.1483, 59.90117
583.6304, 59.63294
584.1125, 59.43823
584.5947, 59.46676
585.0768, 59.66272
585.5589, 59.94900
