##NAMES=Scholzite
##RRUFFID=R080068
##IDEAL CHEMISTRY=CaZn^2+^_2_(PO_4_)_2_&#183;2H_2_O
##LOCALITY=Tip Top mine, Custer Country, South Dakota, USA
##OWNER=RRUFF
##SOURCE=Tom Loomis
##DESCRIPTION=Parallel aggregate of colorless bladed crystals, associated with jahnsite, R080072
##STATUS=The identification of this mineral has been confirmed by single-crystal X-ray diffraction.
##URL=rruff.info/R080068
92.35352, 12.69782
92.83563, 11.88743
93.31775, 11.54245
93.79987, 11.84570
94.28198, 12.63873
94.76410, 13.45920
95.24622, 14.17153
95.72833, 14.90653
96.21045, 15.91549
96.69257, 17.20660
97.17468, 18.70175
97.65680, 20.34201
98.13892, 22.13258
98.62103, 24.00286
99.10315, 25.79459
99.58527, 27.60066
100.0674, 30.00601
100.5495, 33.04899
101.0316, 36.56346
101.5137, 40.28326
101.9958, 44.19059
102.4780, 48.45425
102.9601, 53.13536
103.4422, 58.27255
103.9243, 63.55747
104.4064, 69.05997
104.8885, 74.69402
105.3707, 80.45576
105.8528, 86.38038
106.3349, 92.31487
106.8170, 98.18871
107.2991, 104.1750
107.7813, 109.7795
108.2634, 115.0779
108.7455, 120.0308
109.2276, 124.3228
109.7097, 127.0461
110.1918, 129.8061
110.6740, 133.2730
111.1561, 138.1258
111.6382, 142.9423
112.1203, 147.3703
112.6024, 151.5792
113.0845, 156.3567
113.5667, 162.0562
114.0488, 168.2160
114.5309, 174.5935
115.0130, 181.2176
115.4951, 187.9148
115.9772, 194.7405
116.4594, 201.7437
116.9415, 208.5894
117.4236, 215.1706
117.9057, 221.5342
118.3878, 227.7040
118.8699, 233.7388
119.3521, 239.6133
119.8342, 245.3960
120.3163, 251.0945
120.7984, 256.6429
121.2805, 261.9675
121.7626, 267.1166
122.2448, 272.1729
122.7269, 277.4322
123.2090, 282.4931
123.6911, 286.9768
124.1732, 290.8358
124.6553, 294.1492
125.1375, 296.4728
125.6196, 298.1696
126.1017, 300.3890
126.5838, 304.0464
127.0659, 308.6523
127.5480, 313.2985
128.0302, 317.7910
128.5123, 322.4803
128.9944, 327.7812
129.4765, 333.6905
129.9586, 340.1792
130.4407, 347.5900
130.9229, 355.6709
131.4050, 363.4211
131.8871, 370.3770
132.3692, 376.9359
132.8513, 383.7834
133.3334, 390.3072
133.8156, 395.3212
134.2977, 399.4425
134.7798, 404.0226
135.2619, 408.0508
135.7440, 411.2021
136.2261, 413.6382
136.7083, 416.2438
137.1904, 418.9653
137.6725, 422.0631
138.1546, 426.1186
138.6367, 431.4363
139.1188, 436.1638
139.6010, 439.8918
140.0831, 442.6189
140.5652, 444.7322
141.0473, 446.0131
141.5294, 447.0254
142.0115, 448.4379
142.4937, 450.2581
142.9758, 452.4463
143.4579, 455.1030
143.9400, 458.3539
144.4221, 461.2631
144.9042, 463.4012
145.3864, 465.4225
145.8685, 468.4241
146.3506, 472.8795
146.8327, 477.6669
147.3148, 482.5519
147.7969, 487.7703
148.2791, 492.4655
148.7612, 496.0482
149.2433, 499.1500
149.7254, 503.3192
150.2075, 509.6604
150.6896, 516.0865
151.1718, 521.8017
151.6539, 526.4956
152.1360, 530.9837
152.6181, 535.3037
153.1002, 539.4422
153.5823, 543.3322
154.0645, 547.3816
154.5466, 550.9310
155.0287, 553.6913
155.5108, 556.1963
155.9929, 557.2867
156.4750, 556.0901
156.9572, 553.1113
157.4393, 550.4259
157.9214, 547.6459
158.4035, 545.7506
158.8856, 545.3355
159.3677, 548.3230
159.8499, 551.0062
160.3320, 552.1415
160.8141, 551.9613
161.2962, 551.8235
161.7783, 552.9088
162.2604, 553.9197
162.7426, 553.7867
163.2247, 552.5227
163.7068, 549.7830
164.1889, 545.1520
164.6710, 538.7375
165.1531, 531.4426
165.6353, 523.5299
166.1174, 515.0361
166.5995, 506.0000
167.0816, 495.9641
167.5637, 485.7314
168.0458, 475.6622
168.5280, 465.8494
169.0101, 456.3104
169.4922, 447.0842
169.9743, 438.2265
170.4564, 429.8770
170.9385, 422.0424
171.4207, 414.7651
171.9028, 408.1124
172.3849, 402.1283
172.8670, 396.6017
173.3491, 391.2309
173.8312, 386.1623
174.3134, 381.6598
174.7955, 378.0198
175.2776, 374.9734
175.7597, 372.3274
176.2418, 370.0869
176.7239, 367.9927
177.2061, 365.4018
177.6882, 362.6467
178.1703, 360.6722
178.6524, 360.5810
179.1345, 361.3774
179.6166, 361.3375
180.0988, 360.2758
180.5809, 358.8553
181.0630, 357.7964
181.5451, 357.0119
182.0272, 356.2001
182.5093, 354.9684
182.9915, 353.5904
183.4736, 352.8368
183.9557, 352.8485
184.4378, 353.1206
184.9199, 353.0273
185.4020, 352.5959
185.8842, 352.0123
186.3663, 351.2642
186.8484, 350.4240
187.3305, 349.7768
187.8126, 349.3363
188.2947, 349.0975
188.7769, 349.2487
189.2590, 349.7602
189.7411, 349.9722
190.2232, 349.2521
190.7053, 347.7863
191.1874, 346.7379
191.6696, 346.1986
192.1517, 346.0948
192.6338, 346.4330
193.1159, 347.2318
193.5980, 347.9860
194.0801, 348.3545
194.5623, 348.3634
195.0444, 348.3486
195.5265, 348.2513
196.0086, 348.2623
196.4907, 348.9589
196.9728, 350.4352
197.4550, 351.7884
197.9371, 352.1983
198.4192, 351.6373
198.9013, 351.9309
199.3834, 353.4660
199.8655, 355.6966
200.3477, 357.2025
200.8298, 357.7900
201.3119, 358.5223
201.7940, 360.2852
202.2761, 363.2280
202.7582, 365.4340
203.2404, 366.4472
203.7225, 366.8405
204.2046, 368.3785
204.6867, 371.4038
205.1688, 374.4179
205.6509, 376.2752
206.1331, 376.7262
206.6152, 377.7358
207.0973, 379.5037
207.5794, 381.9172
208.0615, 384.6578
208.5436, 387.7446
209.0258, 391.1216
209.5079, 394.8874
209.9900, 399.2246
210.4721, 402.9334
210.9542, 405.6028
211.4363, 407.6806
211.9185, 410.6956
212.4006, 414.8052
212.8827, 419.5415
213.3648, 424.5669
213.8469, 429.9687
214.3290, 435.5178
214.8112, 441.2241
215.2933, 447.0351
215.7754, 452.9739
216.2575, 459.0513
216.7396, 465.2526
217.2217, 471.4137
217.7038, 477.2206
218.1860, 483.9518
218.6681, 491.9904
219.1502, 500.9259
219.6323, 509.1363
220.1144, 516.2783
220.5965, 523.1722
221.0787, 530.2950
221.5608, 537.9527
222.0429, 544.9742
222.5250, 551.1751
223.0071, 556.7017
223.4892, 561.7614
223.9714, 566.1136
224.4535, 570.4633
224.9356, 575.3096
225.4177, 580.9528
225.8998, 586.2786
226.3819, 591.0125
226.8641, 595.4376
227.3462, 600.4084
227.8283, 606.1766
228.3104, 612.0856
228.7925, 617.6102
229.2746, 622.2090
229.7568, 627.8480
230.2389, 634.9189
230.7210, 643.0648
231.2031, 650.9034
231.6852, 658.0648
232.1673, 665.4409
232.6495, 673.5393
233.1316, 683.0906
233.6137, 691.7515
234.0958, 699.4639
234.5779, 706.1624
235.0600, 711.4908
235.5422, 715.2161
236.0243, 717.9987
236.5064, 720.2709
236.9885, 722.7670
237.4706, 723.0923
237.9527, 720.8622
238.4349, 716.5602
238.9170, 711.3448
239.3991, 705.1395
239.8812, 698.1335
240.3633, 690.3965
240.8454, 681.9542
241.3276, 672.7039
241.8097, 662.5573
242.2918, 651.7579
242.7739, 640.8492
243.2560, 629.5155
243.7381, 618.5607
244.2203, 608.2609
244.7024, 598.6096
245.1845, 589.6241
245.6666, 581.1952
246.1487, 573.5050
246.6308, 566.7673
247.1130, 561.1826
247.5951, 556.2061
248.0772, 551.7893
248.5593, 548.0849
249.0414, 544.2390
249.5235, 539.9440
250.0057, 535.7025
250.4878, 532.3156
250.9699, 530.1257
251.4520, 528.1638
251.9341, 526.1237
252.4162, 523.9134
252.8984, 522.0178
253.3805, 520.4554
253.8626, 519.1827
254.3447, 518.1832
254.8268, 517.4851
255.3089, 516.9588
255.7911, 516.4727
256.2732, 515.9379
256.7553, 516.2588
257.2374, 517.9174
257.7195, 519.9633
258.2017, 521.0303
258.6838, 520.2714
259.1659, 520.5187
259.6480, 522.7616
260.1301, 527.0742
260.6122, 530.8381
261.0944, 533.9078
261.5765, 536.6278
262.0586, 539.2723
262.5407, 541.6225
263.0228, 544.4868
263.5049, 548.0203
263.9871, 552.2466
264.4692, 556.9341
264.9513, 562.2721
265.4334, 567.8370
265.9155, 573.3638
266.3976, 578.7358
266.8798, 584.1320
267.3619, 589.5457
267.8440, 595.0058
268.3261, 600.2242
268.8082, 604.8854
269.2903, 609.9370
269.7725, 616.5082
270.2546, 625.1202
270.7367, 632.4842
271.2188, 638.0793
271.7009, 642.0245
272.1830, 644.6980
272.6652, 645.7575
273.1473, 646.4168
273.6294, 647.3856
274.1115, 648.6358
274.5936, 650.4361
275.0757, 652.9554
275.5579, 655.9491
276.0400, 658.6620
276.5221, 661.0551
277.0042, 663.3010
277.4863, 665.4030
277.9684, 667.3270
278.4506, 669.5706
278.9327, 672.2520
279.4148, 675.1644
279.8969, 677.9031
280.3790, 680.4684
280.8611, 682.8920
281.3433, 685.2027
281.8254, 687.4128
282.3075, 689.5206
282.7896, 691.6408
283.2717, 693.4579
283.7538, 694.4764
284.2360, 694.6926
284.7181, 694.3185
285.2002, 693.2092
285.6823, 691.4659
286.1644, 690.1562
286.6465, 689.4535
287.1287, 688.5892
287.6108, 686.4084
288.0929, 682.9711
288.5750, 679.4720
289.0571, 676.6093
289.5392, 674.0271
290.0214, 670.2313
290.5035, 665.1444
290.9856, 659.6551
291.4677, 654.6151
291.9498, 649.9636
292.4319, 645.4877
292.9141, 641.1314
293.3962, 636.8657
293.8783, 632.4199
294.3604, 627.8093
294.8425, 623.7006
295.3246, 620.7922
295.8068, 618.8500
296.2889, 617.1356
296.7710, 615.4493
297.2531, 613.9104
297.7352, 612.7676
298.2173, 612.0016
298.6995, 611.4089
299.1816, 610.7412
299.6637, 610.1487
300.1458, 610.0012
300.6279, 610.4344
301.1100, 611.1488
301.5922, 611.8389
302.0743, 612.4973
302.5564, 613.1152
303.0385, 613.7825
303.5206, 614.3643
304.0027, 614.6600
304.4849, 614.6074
304.9670, 614.3780
305.4491, 614.0430
305.9312, 613.6528
306.4133, 613.3286
306.8954, 613.5568
307.3776, 613.6683
307.8597, 612.9261
308.3418, 611.2460
308.8239, 609.1989
309.3060, 607.0434
309.7881, 604.8192
310.2703, 602.6537
310.7524, 601.0793
311.2345, 599.2122
311.7166, 596.3477
312.1987, 592.4977
312.6808, 588.3275
313.1630, 583.7220
313.6451, 579.1307
314.1272, 575.0026
314.6093, 572.2238
315.0914, 569.2839
315.5735, 565.2455
316.0557, 560.3172
316.5378, 555.6254
317.0199, 551.7108
317.5020, 548.1953
317.9841, 544.7318
318.4662, 541.1208
318.9484, 537.8570
319.4305, 535.5219
319.9126, 533.7070
320.3947, 531.3359
320.8768, 527.4079
321.3589, 523.3708
321.8411, 519.9150
322.3232, 517.2581
322.8053, 514.9557
323.2874, 513.1788
323.7695, 511.6605
324.2516, 509.9785
324.7338, 507.7758
325.2159, 505.6658
325.6980, 503.9503
326.1801, 502.8132
326.6622, 501.2568
327.1443, 498.4553
327.6265, 495.5216
328.1086, 493.5787
328.5907, 493.9301
329.0728, 493.8528
329.5549, 492.7693
330.0370, 490.6631
330.5192, 488.8642
331.0013, 487.5026
331.4834, 486.3275
331.9655, 485.1607
332.4476, 484.0117
332.9297, 482.8532
333.4119, 481.7328
333.8940, 480.6078
334.3761, 479.3492
334.8582, 478.1578
335.3403, 476.5547
335.8224, 474.1273
336.3046, 470.3133
336.7867, 467.3736
337.2688, 465.6120
337.7509, 464.5219
338.2330, 463.0291
338.7151, 461.0341
339.1973, 458.9861
339.6794, 457.0747
340.1615, 455.3354
340.6436, 453.3682
341.1257, 451.1463
341.6078, 448.8232
342.0899, 446.6484
342.5721, 444.6937
343.0542, 442.4835
343.5363, 439.6947
344.0184, 436.5872
344.5005, 434.3567
344.9826, 433.1194
345.4648, 432.0583
345.9469, 430.3800
346.4290, 428.1540
346.9111, 426.1082
347.3932, 424.3229
347.8753, 422.8244
348.3575, 421.9052
348.8396, 421.5038
349.3217, 420.9383
349.8038, 419.2086
350.2859, 416.9928
350.7680, 416.2352
351.2502, 417.4764
351.7323, 418.9572
352.2144, 418.6842
352.6965, 416.9872
353.1786, 414.8681
353.6607, 412.2616
354.1429, 409.7845
354.6250, 408.3860
355.1071, 408.1382
355.5892, 408.0608
356.0713, 407.3454
356.5534, 406.3326
357.0356, 405.5250
357.5177, 405.3352
357.9998, 405.2252
358.4819, 404.7232
358.9640, 403.9134
359.4461, 403.2795
359.9283, 403.0751
360.4104, 403.1505
360.8925, 403.4354
361.3746, 404.1929
361.8567, 404.6608
362.3388, 404.1936
362.8210, 403.1955
363.3031, 402.5791
363.7852, 403.1208
364.2673, 403.7104
364.7494, 403.6981
365.2315, 402.7188
365.7137, 402.2351
366.1958, 402.9530
366.6779, 404.1720
367.1600, 405.0750
367.6421, 405.4614
368.1242, 405.6398
368.6064, 405.5915
369.0885, 405.3031
369.5706, 405.1221
370.0527, 404.9338
370.5348, 404.9447
371.0169, 405.3211
371.4991, 406.4054
371.9812, 407.2807
372.4633, 407.9027
372.9454, 408.2785
373.4275, 408.3907
373.9096, 408.1100
374.3918, 407.7977
374.8739, 407.6115
375.3560, 407.5565
375.8381, 407.5898
376.3202, 407.7025
376.8023, 407.9104
377.2845, 408.1937
377.7666, 408.5060
378.2487, 409.1452
378.7308, 410.3588
379.2129, 412.0186
379.6950, 413.1010
380.1772, 413.5410
380.6593, 413.7736
381.1414, 414.1940
381.6235, 414.7784
382.1056, 415.2983
382.5877, 415.5937
383.0699, 415.9529
383.5520, 417.0934
384.0341, 418.9475
384.5162, 420.7094
384.9983, 421.8080
385.4804, 422.4685
385.9626, 423.1601
386.4447, 423.9206
386.9268, 424.7544
387.4089, 425.7891
387.8910, 426.9064
388.3731, 427.8177
388.8553, 427.8871
389.3374, 428.0092
389.8195, 429.1703
390.3016, 431.3127
390.7837, 433.6222
391.2658, 435.5132
391.7480, 437.3224
392.2301, 439.4098
392.7122, 442.0034
393.1943, 444.7191
393.6764, 447.4069
394.1585, 450.0818
394.6407, 452.7240
395.1228, 455.4127
395.6049, 458.0277
396.0870, 460.4727
396.5691, 462.5888
397.0512, 464.9849
397.5334, 467.6154
398.0155, 470.6534
398.4976, 474.2737
398.9797, 479.6238
399.4618, 484.3665
399.9439, 487.7719
400.4261, 489.8422
400.9082, 492.4370
401.3903, 495.6367
401.8724, 499.2696
402.3545, 503.2821
402.8366, 507.8098
403.3188, 512.3250
403.8009, 516.8076
404.2830, 521.2543
404.7651, 525.6841
405.2472, 530.0782
405.7293, 534.3995
406.2115, 538.7690
406.6936, 543.1741
407.1757, 546.8528
407.6578, 549.7640
408.1399, 552.0909
408.6220, 554.2288
409.1042, 556.1643
409.5863, 557.1158
410.0684, 556.7031
410.5505, 555.3087
411.0326, 553.8447
411.5147, 552.2906
411.9969, 550.2864
412.4790, 547.7576
412.9611, 544.5493
413.4432, 540.1888
413.9253, 534.3980
414.4074, 528.1359
414.8896, 522.1362
415.3717, 516.4308
415.8538, 511.1367
416.3359, 506.6826
416.8180, 502.4650
417.3001, 497.8584
417.7823, 492.8188
418.2644, 488.2234
418.7465, 484.8303
419.2286, 481.8864
419.7107, 478.6858
420.1928, 474.6549
420.6750, 470.7945
421.1571, 467.3349
421.6392, 464.2968
422.1213, 461.8337
422.6034, 460.8705
423.0855, 459.7378
423.5677, 457.5127
424.0498, 453.6031
424.5319, 450.5685
425.0140, 449.1094
425.4961, 448.3657
425.9782, 447.4674
426.4604, 446.2254
426.9425, 445.1313
427.4246, 444.3545
427.9067, 443.8202
428.3888, 442.9890
428.8709, 441.6430
429.3531, 440.3905
429.8352, 439.5782
430.3173, 439.2901
430.7994, 439.0695
431.2815, 438.9151
431.7636, 438.7929
432.2458, 438.6848
432.7279, 438.5932
433.2100, 438.3799
433.6921, 437.9610
434.1742, 437.3781
434.6563, 436.7676
435.1385, 436.1158
435.6206, 435.5407
436.1027, 435.3444
436.5848, 435.3114
437.0669, 434.7983
437.5490, 433.5718
438.0312, 432.1239
438.5133, 430.8802
438.9954, 429.8472
439.4775, 429.0345
439.9596, 428.4709
440.4417, 428.1246
440.9239, 428.1066
441.4060, 428.4266
441.8881, 428.5461
442.3702, 427.9033
442.8523, 427.0295
443.3344, 426.4302
443.8166, 426.3724
444.2987, 426.4465
444.7808, 426.5379
445.2629, 426.6605
445.7450, 426.8648
446.2271, 427.3327
446.7093, 427.7199
447.1914, 427.9058
447.6735, 427.8810
448.1556, 427.6355
448.6377, 427.0081
449.1198, 426.2686
449.6020, 425.6254
450.0841, 424.8391
450.5662, 424.7227
451.0483, 425.6662
451.5304, 427.3693
452.0125, 428.4287
452.4947, 428.7099
452.9768, 428.7896
453.4589, 428.9126
453.9410, 429.0759
454.4231, 429.5392
454.9052, 430.4148
455.3874, 431.2452
455.8695, 431.3240
456.3516, 430.7527
456.8337, 430.3033
457.3158, 430.3037
457.7979, 430.5002
458.2801, 430.4182
458.7622, 430.0942
459.2443, 429.7684
459.7264, 429.3365
460.2085, 429.1163
460.6906, 429.5997
461.1728, 430.9432
461.6549, 432.5981
462.1370, 434.9232
462.6191, 437.1356
463.1012, 438.0214
463.5833, 435.5338
464.0655, 433.1158
464.5476, 432.3953
465.0297, 433.2376
465.5118, 434.2406
465.9939, 435.2434
466.4760, 436.1317
466.9582, 436.8418
467.4403, 437.4005
467.9224, 437.7137
468.4045, 437.5533
468.8866, 437.2430
469.3687, 437.2630
469.8509, 437.8120
470.3330, 438.3253
470.8151, 438.5973
471.2972, 438.6870
471.7793, 439.2721
472.2614, 440.5519
472.7436, 441.8124
473.2257, 442.3882
473.7078, 442.2637
474.1899, 442.7612
474.6720, 444.0909
475.1541, 445.7606
475.6363, 447.2531
476.1184, 448.5202
476.6005, 449.2290
477.0826, 448.8093
477.5647, 448.0089
478.0468, 448.2184
478.5290, 449.3350
479.0111, 450.4264
479.4932, 450.8786
479.9753, 450.9189
480.4574, 450.7212
480.9395, 450.1854
481.4217, 449.8609
481.9038, 450.4842
482.3859, 451.4479
482.8680, 451.8485
483.3501, 450.7372
483.8322, 449.6398
484.3144, 449.1160
484.7965, 449.1505
485.2786, 449.2455
485.7607, 449.7213
486.2428, 449.9171
486.7249, 449.4415
487.2071, 447.7581
487.6892, 446.5653
488.1713, 445.9977
488.6534, 445.8345
489.1355, 445.7624
489.6176, 445.7863
490.0998, 445.9402
490.5819, 446.3324
491.0640, 446.8695
491.5461, 446.9828
492.0282, 446.6301
492.5103, 446.2307
492.9925, 446.0768
493.4746, 446.1300
493.9567, 446.2235
494.4388, 446.3610
494.9209, 446.4391
495.4030, 446.0841
495.8852, 445.5577
496.3673, 445.5395
496.8494, 446.5873
497.3315, 447.9425
497.8136, 449.0225
498.2957, 449.8225
498.7779, 450.2982
499.2600, 450.3301
499.7421, 450.1014
500.2242, 449.6026
500.7063, 448.6706
501.1884, 448.2209
501.6706, 448.9055
502.1527, 450.0515
502.6348, 450.9718
503.1169, 451.8207
503.5990, 452.1476
504.0811, 451.4982
504.5633, 450.2572
505.0454, 449.9263
505.5275, 451.1185
506.0096, 452.1711
506.4917, 452.2903
506.9738, 451.3550
507.4560, 451.0025
507.9381, 451.3528
508.4202, 451.9543
508.9023, 452.3019
509.3844, 452.4208
509.8665, 452.7986
510.3487, 453.6064
510.8308, 454.5666
511.3129, 455.1311
511.7950, 455.4007
512.2772, 455.8383
512.7593, 457.1054
513.2414, 458.4537
513.7235, 458.7833
514.2056, 458.1254
514.6877, 457.6016
515.1699, 457.9145
515.6520, 458.6928
516.1341, 459.6704
516.6162, 461.1178
517.0983, 462.1019
517.5804, 461.9917
518.0626, 461.2895
518.5447, 460.8217
519.0268, 460.4966
519.5089, 460.6664
519.9910, 461.6496
520.4731, 463.3681
520.9553, 464.5752
521.4374, 465.1983
521.9195, 465.4088
522.4016, 465.1159
522.8837, 464.0877
523.3658, 463.9384
523.8480, 464.9442
524.3301, 466.2903
524.8122, 466.7773
525.2943, 466.4701
525.7764, 466.3526
526.2585, 466.6256
526.7407, 467.3210
527.2228, 468.6117
527.7049, 470.4443
528.1870, 472.4469
528.6691, 474.6900
529.1512, 476.8498
529.6334, 478.3944
530.1155, 479.2735
530.5976, 480.3047
531.0797, 481.9379
531.5618, 483.9914
532.0439, 486.2572
532.5261, 488.6067
533.0082, 491.2959
533.4903, 494.5105
533.9724, 498.1093
534.4545, 501.8816
534.9366, 506.0121
535.4188, 510.0400
535.9009, 513.6550
536.3830, 516.8865
536.8651, 520.8936
537.3472, 525.7423
537.8293, 531.2316
538.3115, 537.3541
538.7936, 544.1507
539.2757, 550.7434
539.7578, 557.0323
540.2399, 563.1602
540.7220, 569.1493
541.2042, 575.0658
541.6863, 581.7302
542.1684, 589.6591
542.6505, 598.2369
543.1326, 606.5600
543.6147, 614.7359
544.0969, 623.4330
544.5790, 633.0592
545.0611, 643.1394
545.5432, 653.2950
546.0253, 663.4479
546.5074, 673.7128
546.9896, 684.0067
547.4717, 694.4042
547.9538, 704.9742
548.4359, 716.0735
548.9180, 726.9010
549.4001, 738.1399
549.8823, 748.9402
550.3644, 757.8657
550.8465, 765.0500
551.3286, 770.3392
551.8107, 774.0176
552.2928, 775.8604
552.7750, 774.3111
553.2571, 769.4175
553.7392, 760.9961
554.2213, 748.0524
554.7034, 731.2375
555.1855, 713.2634
555.6677, 694.1035
556.1498, 674.8586
556.6319, 656.4099
557.1140, 638.9183
557.5961, 622.8658
558.0782, 608.3089
558.5604, 595.3106
559.0425, 584.1657
559.5246, 574.6980
560.0067, 566.6108
560.4888, 560.7967
560.9709, 555.5020
561.4531, 549.8060
561.9352, 543.6565
562.4173, 538.5550
562.8994, 535.4040
563.3815, 532.8025
563.8636, 530.0133
564.3458, 526.8473
564.8279, 524.0699
565.3100, 521.7022
565.7921, 519.6654
566.2742, 517.9166
566.7563, 516.4622
567.2385, 515.1792
567.7206, 514.1019
568.2027, 513.1204
568.6848, 511.9439
569.1669, 510.6112
569.6490, 509.5390
570.1312, 508.9745
570.6133, 508.7783
571.0954, 508.7711
571.5775, 508.9486
572.0596, 509.3218
572.5417, 510.0527
573.0239, 510.8918
573.5060, 511.6280
573.9881, 512.2472
574.4702, 512.7213
574.9523, 512.8763
575.4344, 512.9523
575.9166, 513.2554
576.3987, 514.2597
576.8808, 514.8728
577.3629, 514.6533
577.8450, 513.9969
578.3271, 514.2560
578.8093, 515.6403
579.2914, 517.2964
579.7735, 518.8924
580.2556, 520.4271
580.7377, 522.2139
581.2198, 524.2807
581.7020, 526.1163
582.1841, 527.1487
582.6662, 527.6314
583.1483, 528.1661
583.6304, 528.8138
584.1125, 529.5612
584.5947, 530.5825
585.0768, 531.6544
585.5589, 532.4373
586.0410, 532.2241
586.5231, 532.3873
587.0052, 533.7780
587.4873, 536.0190
587.9694, 538.0535
588.4515, 539.4742
588.9337, 540.9175
