##NAMES=Scholzite
##RRUFFID=R050238
##IDEAL CHEMISTRY=CaZn^2+^_2_(PO_4_)_2_&#183;2H_2_O
##LOCALITY=near Blinman, South Australia, Australia
##OWNER=RRUFF
##SOURCE=Marcus Origlieri
##DESCRIPTION=Colorless bladed crystals
##STATUS=The identification of this mineral has been confirmed by X-ray diffraction and chemical analysis
##URL=rruff.info/R050238
##MEASURED CHEMISTRY=Ca_1.00_Zn_2.00_(P_1.00_O_4_)_2_Â·2H_2_O
92.35352, 125.9228
92.83563, 125.9408
93.31775, 126.0538
93.79987, 127.4055
94.28198, 127.7729
94.76410, 127.4749
95.24622, 126.8087
95.72833, 125.9631
96.21045, 124.9598
96.69257, 123.7248
97.17468, 122.6472
97.65680, 122.2649
98.13892, 121.9675
98.62103, 121.2190
99.10315, 119.6275
99.58527, 117.3533
100.0674, 115.3964
100.5495, 113.8542
101.0316, 112.5423
101.5137, 111.3708
101.9958, 110.3641
102.4780, 109.6209
102.9601, 109.2516
103.4422, 109.2875
103.9243, 108.8877
104.4064, 107.7351
104.8885, 106.5450
105.3707, 105.7810
105.8528, 105.3972
106.3349, 104.8581
106.8170, 103.5113
107.2991, 101.2111
107.7813, 99.17976
108.2634, 97.63793
108.7455, 96.33883
109.2276, 94.91308
109.7097, 93.20577
110.1918, 91.59882
110.6740, 90.54944
111.1561, 89.98669
111.6382, 89.59781
112.1203, 89.25003
112.6024, 88.94341
113.0845, 88.69118
113.5666, 88.49819
114.0488, 88.36793
114.5309, 88.38503
115.0130, 88.54726
115.4951, 88.61836
115.9772, 88.23876
116.4593, 87.17396
116.9415, 86.32325
117.4236, 85.97147
117.9057, 85.75615
118.3878, 85.33923
118.8699, 84.60452
119.3520, 83.43043
119.8342, 83.98103
120.3163, 84.33850
120.7984, 84.51324
121.2805, 83.95798
121.7626, 84.34537
122.2447, 84.35498
122.7269, 84.34913
123.2090, 84.86920
123.6911, 84.42011
124.1732, 84.93184
124.6553, 85.06002
125.1374, 85.36375
125.6196, 85.28738
126.1017, 85.32841
126.5838, 85.74966
127.0659, 85.96037
127.5480, 85.84023
128.0302, 85.77729
128.5123, 85.82390
128.9944, 85.94217
129.4765, 86.12776
129.9586, 86.44676
130.4407, 87.16785
130.9229, 88.07785
131.4050, 88.73047
131.8871, 88.80972
132.3692, 88.47904
132.8513, 88.24692
133.3334, 88.08592
133.8155, 88.10303
134.2977, 88.36777
134.7798, 88.83250
135.2619, 89.37428
135.7440, 89.90490
136.2261, 90.42398
136.7082, 90.96107
137.1904, 91.46712
137.6725, 92.03548
138.1546, 92.77957
138.6367, 93.66277
139.1188, 94.51324
139.6009, 95.12025
140.0831, 95.43604
140.5652, 95.58534
141.0473, 95.27276
141.5294, 95.01140
142.0115, 95.21017
142.4936, 95.95475
142.9758, 96.98864
143.4579, 97.88028
143.9400, 98.64436
144.4221, 99.20567
144.9042, 99.35259
145.3863, 99.34731
145.8685, 99.57068
146.3506, 100.1990
146.8327, 100.9955
147.3148, 101.3949
147.7969, 101.2797
148.2790, 101.1973
148.7612, 101.4506
149.2433, 101.9356
149.7254, 102.2578
150.2075, 102.1350
150.6896, 101.8684
151.1717, 101.9821
151.6539, 102.6290
152.1360, 103.2983
152.6181, 103.5326
153.1002, 103.3030
153.5823, 102.9720
154.0644, 102.5469
154.5466, 102.1470
155.0287, 101.9257
155.5108, 101.9747
155.9929, 102.0646
156.4750, 101.8115
156.9571, 101.1687
157.4393, 100.2445
157.9214, 98.76208
158.4035, 97.17759
158.8856, 95.96906
159.3677, 95.38116
159.8498, 95.27019
160.3320, 95.11381
160.8141, 94.94193
161.2962, 94.67314
161.7783, 94.30198
162.2604, 93.82857
162.7425, 93.26784
163.2247, 92.63376
163.7068, 91.91490
164.1889, 90.98191
164.6710, 89.59942
165.1531, 88.26789
165.6352, 87.15480
166.1174, 86.20523
166.5995, 85.29611
167.0816, 84.33343
167.5637, 83.32084
168.0458, 82.30583
168.5279, 81.19474
169.0101, 80.16481
169.4922, 79.35136
169.9743, 78.74155
170.4564, 78.17603
170.9385, 77.53311
171.4206, 76.81824
171.9028, 76.12116
172.3849, 75.43168
172.8670, 74.77245
173.3491, 74.17762
173.8312, 73.65589
174.3133, 73.15029
174.7955, 72.55518
175.2776, 71.93100
175.7597, 71.43884
176.2418, 71.12768
176.7239, 70.98157
177.2060, 71.03716
177.6882, 71.44917
178.1703, 71.73310
178.6524, 71.48074
179.1345, 70.88559
179.6166, 70.33817
180.0987, 70.06721
180.5809, 70.03193
181.0630, 70.00130
181.5451, 70.01918
182.0272, 69.97929
182.5093, 69.81834
182.9914, 69.56745
183.4736, 69.29964
183.9557, 69.08537
184.4378, 68.92920
184.9199, 68.68581
185.4020, 68.15422
185.8841, 67.71078
186.3663, 67.55618
186.8484, 67.61704
187.3305, 67.66745
187.8126, 67.49020
188.2947, 67.04282
188.7768, 66.62029
189.2590, 66.09107
189.7411, 65.69701
190.2232, 65.59609
190.7053, 65.76209
191.1874, 66.04467
191.6695, 66.30394
192.1517, 66.56342
192.6338, 66.66670
193.1159, 66.58229
193.5980, 66.39316
194.0801, 66.07072
194.5622, 65.64492
195.0444, 65.28680
195.5265, 65.21263
196.0086, 65.53464
196.4907, 65.70871
196.9728, 65.56153
197.4549, 65.36425
197.9371, 65.37675
198.4192, 65.64610
198.9013, 66.01227
199.3834, 66.26517
199.8655, 66.40141
200.3476, 66.71688
200.8298, 67.52698
201.3119, 68.45421
201.7940, 68.92021
202.2761, 68.76087
202.7582, 68.43474
203.2403, 68.41476
203.7225, 68.64012
204.2046, 68.92165
204.6867, 69.21782
205.1688, 69.52259
205.6509, 69.80381
206.1330, 70.00856
206.6152, 70.29406
207.0973, 70.87670
207.5794, 71.66528
208.0615, 72.33167
208.5436, 72.60709
209.0257, 72.58074
209.5079, 72.68655
209.9900, 73.01287
210.4721, 73.39762
210.9542, 73.71715
211.4363, 74.00346
211.9184, 74.35296
212.4006, 74.85753
212.8827, 75.50890
213.3648, 76.13207
213.8469, 76.64985
214.3290, 77.21992
214.8111, 77.95748
215.2933, 78.80795
215.7754, 79.62937
216.2575, 80.30070
216.7396, 80.81341
217.2217, 81.32210
217.7038, 81.82868
218.1859, 82.33105
218.6681, 82.85262
219.1502, 83.37556
219.6323, 83.85278
220.1144, 84.21847
220.5965, 84.44508
221.0786, 84.87216
221.5608, 85.91615
222.0429, 86.76725
222.5250, 86.96632
223.0071, 86.67226
223.4892, 86.40474
223.9713, 86.64454
224.4535, 87.48200
224.9356, 87.96716
225.4177, 87.94890
225.8998, 87.79726
226.3819, 87.59904
226.8640, 87.39297
227.3462, 87.23164
227.8283, 87.16604
228.3104, 87.20613
228.7925, 87.21706
229.2746, 87.08115
229.7567, 87.02398
230.2389, 87.23575
230.7210, 87.66322
231.2031, 88.05319
231.6852, 88.19411
232.1673, 88.08178
232.6494, 88.03889
233.1316, 88.19303
233.6137, 88.30254
234.0958, 88.16286
234.5779, 87.81057
235.0600, 87.51295
235.5421, 87.51074
236.0243, 87.75040
236.5064, 87.73137
236.9885, 87.26817
237.4706, 86.70616
237.9527, 86.28392
238.4348, 85.99136
238.9170, 85.65369
239.3991, 85.12011
239.8812, 84.45539
240.3633, 83.91316
240.8454, 83.61910
241.3275, 83.33923
241.8097, 82.84340
242.2918, 82.13845
242.7739, 81.48702
243.2560, 81.03442
243.7381, 80.73276
244.2202, 80.47395
244.7024, 80.24087
245.1845, 80.05989
245.6666, 79.95710
246.1487, 79.93359
246.6308, 79.96653
247.1129, 80.10537
247.5951, 80.26685
248.0772, 80.34114
248.5593, 80.29090
249.0414, 80.21061
249.5235, 80.15577
250.0056, 80.11841
250.4878, 80.22508
250.9699, 80.69381
251.4520, 81.22739
251.9341, 81.53748
252.4162, 81.55953
252.8983, 81.50811
253.3805, 81.54655
253.8626, 81.65685
254.3447, 82.02219
254.8268, 83.07033
255.3089, 84.14564
255.7910, 84.74971
256.2732, 84.81642
256.7553, 84.74156
257.2374, 84.96226
257.7195, 85.52891
258.2016, 86.02834
258.6837, 86.22091
259.1659, 86.45609
259.6480, 86.96127
260.1301, 87.73642
260.6122, 88.57497
261.0943, 89.30821
261.5764, 89.94691
262.0586, 90.38799
262.5407, 90.18510
263.0228, 90.13342
263.5049, 90.74326
263.9870, 91.91553
264.4691, 93.08745
264.9513, 93.64738
265.4334, 93.47755
265.9155, 93.64844
266.3976, 94.54760
266.8797, 95.46849
267.3618, 96.17868
267.8440, 96.69177
268.3261, 97.12852
268.8082, 97.60451
269.2903, 98.12785
269.7724, 98.47091
270.2545, 98.42992
270.7367, 98.39128
271.2188, 98.47727
271.7009, 98.65007
272.1830, 98.80888
272.6651, 98.87974
273.1472, 98.86765
273.6294, 98.86118
274.1115, 98.91998
274.5936, 98.92049
275.0757, 98.79631
275.5578, 98.60078
276.0399, 98.42648
276.5221, 98.33459
277.0042, 98.30201
277.4863, 98.19290
277.9684, 97.99590
278.4505, 97.72102
278.9326, 97.22399
279.4148, 96.68589
279.8969, 96.37989
280.3790, 96.44775
280.8611, 96.74363
281.3432, 96.79144
281.8253, 96.23953
282.3075, 95.85018
282.7896, 95.83688
283.2717, 95.93449
283.7538, 95.85049
284.2359, 95.47554
284.7180, 94.91679
285.2002, 94.39978
285.6823, 93.89348
286.1644, 93.48619
286.6465, 93.38390
287.1286, 93.26450
287.6107, 92.77325
288.0929, 91.83779
288.5750, 90.75380
289.0571, 89.96442
289.5392, 89.67020
290.0213, 89.24545
290.5034, 88.55298
290.9856, 87.83724
291.4677, 87.29166
291.9498, 86.93582
292.4319, 86.64479
292.9140, 86.27795
293.3961, 85.79813
293.8783, 85.41345
294.3604, 85.24480
294.8425, 85.05761
295.3246, 84.68511
295.8067, 84.14847
296.2888, 83.60524
296.7710, 83.19648
297.2531, 82.93430
297.7352, 82.59419
298.2173, 82.03310
298.6994, 81.54910
299.1815, 81.30920
299.6637, 81.25967
300.1458, 81.23483
300.6279, 81.12365
301.1100, 80.94376
301.5921, 80.84450
302.0742, 80.99353
302.5564, 81.02181
303.0385, 80.68135
303.5206, 80.16633
304.0027, 79.84811
304.4848, 79.92628
304.9669, 80.25517
305.4491, 80.39421
305.9312, 80.23792
306.4133, 80.04996
306.8954, 79.85885
307.3775, 79.65734
307.8596, 79.43967
308.3418, 79.20471
308.8239, 78.94461
309.3060, 78.64501
309.7881, 78.28423
310.2702, 77.92565
310.7523, 77.51870
311.2345, 77.14245
311.7166, 76.89867
312.1987, 76.80046
312.6808, 76.74388
313.1629, 76.61450
313.6451, 76.40031
314.1272, 76.13448
314.6093, 75.78132
315.0914, 75.40783
315.5735, 75.03141
316.0556, 74.66666
316.5378, 74.36715
317.0199, 74.20018
317.5020, 74.16966
317.9841, 73.95379
318.4662, 73.31358
318.9483, 72.75291
319.4305, 72.60855
319.9126, 72.74261
320.3947, 72.72868
320.8768, 72.27567
321.3589, 71.51049
321.8410, 71.11378
322.3232, 71.50443
322.8053, 71.70091
323.2874, 71.27699
323.7695, 70.55384
324.2516, 70.05664
324.7337, 70.01212
325.2159, 70.21745
325.6980, 70.22301
326.1801, 69.84711
326.6622, 69.58791
327.1443, 69.65006
327.6264, 69.76012
328.1086, 69.58389
328.5907, 69.05325
329.0728, 68.43750
329.5549, 68.09435
330.0370, 68.15522
330.5191, 68.07199
331.0013, 67.75607
331.4834, 67.37144
331.9655, 66.99551
332.4476, 66.65016
332.9297, 66.36315
333.4118, 66.16451
333.8940, 66.06003
334.3761, 65.93731
334.8582, 65.82119
335.3403, 65.66667
335.8224, 65.46639
336.3045, 65.21374
336.7867, 64.87082
337.2688, 64.40119
337.7509, 63.85587
338.2330, 63.48925
338.7151, 63.50868
339.1972, 63.44636
339.6793, 63.18620
340.1614, 62.82182
340.6436, 62.46960
341.1257, 62.17038
341.6078, 61.90155
342.0899, 61.61153
342.5720, 61.20252
343.0541, 60.95698
343.5363, 61.01337
344.0184, 61.13350
344.5005, 61.12653
344.9826, 60.96637
345.4647, 60.75102
345.9468, 60.58812
346.4290, 60.48906
346.9111, 60.38610
347.3932, 60.26008
347.8753, 60.14854
348.3574, 60.11596
348.8395, 60.11817
349.3217, 60.02572
349.8038, 59.72654
350.2859, 59.25210
350.7680, 58.96758
351.2501, 59.05128
351.7322, 59.12707
352.2144, 59.18288
352.6965, 59.17804
353.1786, 59.03540
353.6607, 58.72030
354.1428, 58.32704
354.6249, 58.07587
355.1071, 58.03677
355.5892, 58.04424
356.0713, 58.14183
356.5534, 58.24613
357.0355, 58.30431
357.5176, 58.30143
357.9998, 58.23788
358.4819, 58.08995
358.9640, 57.80136
359.4461, 57.66824
359.9282, 57.84669
360.4103, 58.02551
360.8925, 58.07635
361.3746, 58.01512
361.8567, 57.90869
362.3388, 57.78960
362.8209, 57.67033
363.3030, 57.67533
363.7852, 57.94621
364.2673, 58.16364
364.7494, 58.24837
365.2315, 58.24493
365.7136, 58.18711
366.1957, 58.08528
366.6779, 57.99219
367.1600, 58.02853
367.6421, 58.25093
368.1242, 58.46124
368.6063, 58.66188
369.0884, 58.82001
369.5706, 58.87784
370.0527, 58.84319
370.5348, 58.81773
371.0169, 58.94865
371.4990, 59.25600
371.9811, 59.41063
372.4633, 59.19740
372.9454, 59.05120
373.4275, 59.22154
373.9096, 59.61190
374.3917, 59.97756
374.8738, 60.15369
375.3560, 60.20779
375.8381, 60.34519
376.3202, 60.58820
376.8023, 60.86635
377.2844, 61.20518
377.7665, 61.53943
378.2487, 61.78111
378.7308, 61.89138
379.2129, 61.97288
379.6950, 62.11469
380.1771, 62.31353
380.6592, 62.66021
381.1414, 63.29858
381.6235, 63.98917
382.1056, 64.49290
382.5877, 64.81752
383.0698, 65.19377
383.5519, 65.81168
384.0341, 66.59611
384.5162, 67.30936
384.9983, 67.91637
385.4804, 68.49620
385.9625, 69.05911
386.4446, 69.63905
386.9268, 70.30946
387.4089, 71.04273
387.8910, 71.91361
388.3731, 73.06387
388.8552, 74.48105
389.3373, 75.88364
389.8195, 77.15039
390.3016, 78.31367
390.7837, 79.44918
391.2658, 80.53247
391.7479, 81.65292
392.2300, 82.91310
392.7122, 84.23194
393.1943, 85.42941
393.6764, 86.45669
394.1585, 87.38023
394.6406, 88.25861
395.1227, 89.08787
395.6049, 89.97092
396.0870, 91.03442
396.5691, 92.07260
397.0512, 92.83382
397.5333, 93.35017
398.0154, 93.95286
398.4976, 94.91631
398.9797, 96.14503
399.4618, 97.06478
399.9439, 97.45455
400.4260, 97.85001
400.9081, 98.44474
401.3903, 99.14097
401.8724, 99.78914
402.3545, 100.3356
402.8366, 100.8001
403.3187, 101.2212
403.8008, 101.6731
404.2830, 101.8783
404.7651, 101.6049
405.2472, 101.2729
405.7293, 101.2669
406.2114, 101.5316
406.6935, 101.6854
407.1757, 101.4098
407.6578, 100.7138
408.1399, 99.85522
408.6220, 98.65152
409.1041, 97.49297
409.5862, 96.57388
410.0684, 95.71120
410.5505, 94.67670
411.0326, 93.37704
411.5147, 91.81114
411.9968, 89.92393
412.4789, 87.52798
412.9611, 85.23791
413.4432, 83.09345
413.9253, 81.02782
414.4074, 78.97628
414.8895, 76.94756
415.3716, 75.03670
415.8538, 73.34103
416.3359, 71.84985
416.8180, 70.37109
417.3001, 68.80801
417.7822, 67.41070
418.2643, 66.30885
418.7465, 65.38883
419.2286, 64.52071
419.7107, 63.67099
420.1928, 62.78300
420.6749, 61.67678
421.1570, 60.28339
421.6392, 59.18287
422.1213, 58.72977
422.6034, 58.45984
423.0855, 58.00853
423.5676, 57.37033
424.0497, 56.76926
424.5319, 56.42151
425.0140, 56.21382
425.4961, 55.78722
425.9782, 55.04332
426.4603, 54.34642
426.9424, 54.04781
427.4246, 53.97419
427.9067, 53.77638
428.3888, 53.29317
428.8709, 52.79924
429.3530, 52.57063
429.8351, 52.54284
430.3173, 52.37850
430.7994, 51.88396
431.2815, 51.32504
431.7636, 51.22178
432.2457, 51.62970
432.7278, 51.93587
433.2100, 52.03444
433.6921, 51.94624
434.1742, 51.58311
434.6563, 50.97604
435.1384, 50.46268
435.6205, 50.33828
436.1027, 50.57709
436.5848, 50.70918
437.0669, 50.71354
437.5490, 50.65719
438.0311, 50.53058
438.5132, 50.36535
438.9954, 50.19051
439.4775, 50.01836
439.9596, 49.88374
440.4417, 49.86129
440.9238, 50.05741
441.4059, 50.11330
441.8881, 49.91935
442.3702, 49.70144
442.8523, 49.61516
443.3344, 49.62806
443.8165, 49.58366
444.2986, 49.34267
444.7808, 48.96352
445.2629, 48.83228
445.7450, 49.18573
446.2271, 49.43395
446.7092, 49.43464
447.1913, 49.30701
447.6735, 49.11723
448.1556, 48.89434
448.6377, 48.74160
449.1198, 48.86618
449.6019, 49.29828
450.0840, 49.45018
450.5662, 49.04889
451.0483, 48.63239
451.5304, 48.50677
452.0125, 48.59499
452.4946, 48.70276
452.9767, 48.75941
453.4589, 48.77519
453.9410, 48.77904
454.4231, 48.77575
454.9052, 48.68501
455.3873, 48.38430
455.8694, 48.05212
456.3516, 47.94740
456.8337, 48.10724
457.3158, 48.27149
457.7979, 48.33088
458.2800, 48.31041
458.7621, 48.23577
459.2443, 48.10728
459.7264, 47.97394
460.2085, 47.86002
460.6906, 47.77556
461.1727, 47.76873
461.6548, 47.89799
462.1370, 48.04192
462.6191, 48.20866
463.1012, 48.34201
463.5833, 48.28853
464.0654, 47.98205
464.5475, 47.61190
465.0297, 47.50567
465.5118, 47.81409
465.9939, 48.02107
466.4760, 48.08847
466.9581, 48.09592
467.4402, 48.07896
467.9224, 48.04324
468.4045, 47.97307
468.8866, 47.84616
469.3687, 47.69723
469.8508, 47.70220
470.3329, 48.07951
470.8151, 48.25334
471.2972, 48.02047
471.7793, 47.66299
472.2614, 47.35894
472.7435, 47.16503
473.2256, 47.11966
473.7078, 47.35163
474.1899, 47.85064
474.6720, 48.11499
475.1541, 48.00856
475.6362, 47.87324
476.1183, 47.89016
476.6005, 47.98214
477.0826, 48.01953
477.5647, 47.92984
478.0468, 47.84685
478.5289, 47.99489
479.0110, 48.33295
479.4932, 48.45059
479.9753, 48.16282
480.4574, 47.73812
480.9395, 47.44037
481.4216, 47.25950
481.9037, 47.22451
482.3859, 47.45207
482.8680, 47.75363
483.3501, 47.98460
483.8322, 48.13208
484.3143, 48.17034
484.7964, 48.06356
485.2786, 47.86631
485.7607, 47.74163
486.2428, 47.69233
486.7249, 47.70199
487.2070, 47.79266
487.6891, 47.92717
488.1713, 48.10947
488.6534, 48.31664
489.1355, 48.44915
489.6176, 48.05455
490.0997, 48.53679
490.5818, 48.82592
491.0640, 48.93233
491.5461, 48.30872
492.0282, 48.62777
492.5103, 48.56905
492.9924, 48.49484
493.4745, 48.94656
493.9567, 48.42914
494.4388, 48.87253
494.9209, 48.93238
495.4030, 49.16776
495.8851, 49.02304
496.3672, 48.99572
496.8494, 49.34863
497.3315, 49.49101
497.8136, 49.30252
498.2957, 49.54907
498.7778, 49.01836
499.2599, 49.16970
499.7421, 49.61532
500.2242, 49.44595
500.7063, 49.69944
501.1884, 49.79189
501.6705, 49.15243
502.1526, 49.78582
502.6348, 49.86876
503.1169, 49.38647
503.5990, 49.97625
504.0811, 49.57189
504.5632, 49.52237
505.0453, 49.73990
505.5274, 49.67905
506.0096, 50.05711
506.4917, 50.01233
506.9738, 49.92977
507.4559, 50.01208
507.9380, 49.62721
508.4201, 50.10905
508.9023, 49.99887
509.3844, 50.18296
509.8665, 50.43375
510.3486, 50.17380
510.8307, 50.45456
511.3128, 49.89680
511.7950, 50.44637
512.2771, 50.61447
512.7592, 50.73865
513.2413, 50.82635
513.7234, 50.85387
514.2056, 50.82854
514.6877, 50.84071
515.1698, 51.00520
515.6519, 51.30159
516.1340, 51.57391
516.6161, 51.87269
517.0983, 52.03148
517.5804, 51.77473
518.0625, 51.36992
518.5446, 51.21014
519.0267, 51.41436
519.5089, 51.77256
519.9910, 52.22817
520.4731, 52.71802
520.9552, 53.06519
521.4373, 53.22715
521.9194, 53.26387
522.4016, 53.17059
522.8837, 52.94770
523.3658, 52.99736
523.8479, 53.47988
524.3300, 54.06104
524.8121, 54.60031
525.2943, 55.13036
525.7764, 55.71571
526.2585, 56.37650
526.7406, 57.12226
527.2227, 57.96730
527.7048, 58.94429
528.1870, 59.89977
528.6691, 60.82187
529.1512, 61.73314
529.6333, 62.51123
530.1154, 63.30723
530.5975, 64.37957
531.0797, 65.86034
531.5618, 67.60325
532.0439, 69.34122
532.5260, 71.03765
533.0081, 73.03822
533.4902, 75.59174
533.9724, 78.26086
534.4545, 80.73817
534.9366, 83.06582
535.4187, 85.40478
535.9008, 87.97478
536.3829, 90.47692
536.8651, 92.52229
537.3472, 94.17167
537.8293, 95.70595
538.3114, 97.21150
538.7935, 98.68877
539.2756, 100.0904
539.7578, 101.3833
540.2399, 102.8384
540.7220, 104.6835
541.2041, 106.5237
541.6862, 108.0199
542.1683, 109.2804
542.6505, 110.6719
543.1326, 112.4085
543.6147, 114.2648
544.0968, 115.6513
544.5789, 116.1842
545.0610, 117.0299
545.5432, 118.5331
546.0253, 120.0377
546.5074, 121.1835
546.9895, 122.0109
547.4716, 122.7523
547.9537, 123.5873
548.4359, 124.3381
548.9180, 124.5889
549.4001, 124.2994
549.8822, 123.8200
550.3643, 123.4372
550.8464, 122.6762
551.3286, 121.1767
551.8107, 118.9585
552.2928, 116.1720
552.7749, 112.6478
553.2570, 108.7504
553.7391, 104.9136
554.2213, 101.0945
554.7034, 96.88072
555.1855, 91.93855
555.6676, 86.78726
556.1497, 82.44910
556.6318, 79.23860
557.1140, 76.23108
557.5961, 73.31477
558.0782, 70.66250
558.5603, 68.47881
559.0424, 66.65682
559.5245, 64.92892
560.0067, 63.12725
560.4888, 61.37074
560.9709, 59.97564
561.4530, 59.05336
561.9351, 58.19369
562.4172, 57.36022
562.8994, 56.57851
563.3815, 55.86415
563.8636, 55.21622
564.3457, 54.63918
564.8278, 54.14823
565.3099, 53.71387
565.7921, 53.26668
566.2742, 52.81300
566.7563, 52.53386
567.2384, 52.58791
567.7205, 52.67443
568.2026, 52.30622
568.6848, 51.49154
569.1669, 50.88712
569.6490, 50.73657
570.1311, 50.69509
570.6132, 50.48177
571.0953, 50.18951
571.5775, 50.11165
572.0596, 50.37958
572.5417, 50.76543
573.0238, 50.85433
573.5059, 50.50299
573.9880, 50.29366
574.4702, 50.32896
574.9523, 50.39166
575.4344, 50.39075
575.9165, 50.35842
576.3986, 50.36769
576.8807, 50.45431
577.3629, 50.56043
577.8450, 50.60130
578.3271, 50.57772
578.8092, 50.53727
579.2913, 50.42794
579.7734, 50.40486
580.2556, 50.64787
580.7377, 51.06884
581.2198, 51.47467
581.7019, 51.94729
582.1840, 52.24169
582.6661, 52.00950
583.1483, 51.52962
583.6304, 51.38349
584.1125, 51.71421
584.5946, 52.22521
585.0767, 52.63178
585.5588, 52.93208
586.0409, 53.14691
586.5230, 53.25493
587.0051, 53.31168
587.4872, 53.25312
587.9694, 53.18955
588.4515, 53.25888
