##NAMES=Schorlomite
##RRUFFID=R060349
##IDEAL CHEMISTRY=Ca_3_Ti^4+^_2_(Fe^3+^_2_Si)O_12_
##LOCALITY=Sundsvall, Medelpad, Sweden
##OWNER=RRUFF
##SOURCE=Marcus Origlieri
##DESCRIPTION=Black massive, intimately associated with andradite
##STATUS=The identification of this mineral is confirmed by single-crystal X-ray diffraction and chemical analysis.
##URL=rruff.info/R060349
93.30109, 0.0000000E+00
93.78320, 56.39238
94.26532, 58.00027
94.74744, 58.13949
95.22955, 56.65287
95.71167, 54.58654
96.19379, 53.25008
96.67590, 52.81540
97.15803, 52.76610
97.64014, 53.34640
98.12226, 54.20402
98.60438, 54.76793
99.08649, 54.91833
99.56861, 54.61488
100.0507, 53.71091
100.5328, 51.89648
101.0150, 50.34791
101.4971, 49.93166
101.9792, 50.64985
102.4613, 51.85276
102.9434, 53.56776
103.4255, 55.54361
103.9077, 57.79728
104.3898, 60.47239
104.8719, 63.06133
105.3540, 64.62691
105.8361, 65.36736
106.3182, 64.53140
106.8004, 61.35232
107.2825, 56.96989
107.7646, 52.59002
108.2467, 48.88806
108.7288, 45.85994
109.2109, 43.61681
109.6931, 42.49052
110.1752, 41.76838
110.6573, 41.38291
111.1394, 41.26865
111.6215, 41.38155
112.1037, 41.75386
112.5858, 42.46788
113.0679, 42.53011
113.5500, 41.47270
114.0321, 40.15760
114.5142, 39.20205
114.9964, 38.70387
115.4785, 38.35039
115.9606, 37.69861
116.4427, 36.76520
116.9248, 36.17424
117.4069, 36.15852
117.8891, 36.57969
118.3712, 37.26642
118.8533, 38.47997
119.3354, 39.45487
119.8175, 39.43383
120.2996, 38.49577
120.7818, 37.37235
121.2639, 36.52915
121.7460, 35.97044
122.2281, 35.56989
122.7102, 35.49772
123.1923, 35.46010
123.6745, 35.36882
124.1566, 35.19106
124.6387, 34.85272
125.1208, 34.15604
125.6029, 32.70246
126.0850, 31.76602
126.5672, 31.61533
127.0493, 31.81562
127.5314, 32.07716
128.0135, 32.27733
128.4956, 32.40557
128.9778, 32.43292
129.4599, 32.36344
129.9420, 32.17191
130.4241, 31.77580
130.9062, 31.26766
131.3883, 30.75728
131.8705, 30.28664
132.3526, 29.88279
132.8347, 29.69118
133.3168, 29.86537
133.7989, 30.04539
134.2810, 30.10072
134.7632, 30.03716
135.2453, 29.88704
135.7274, 29.61001
136.2095, 29.27117
136.6916, 29.08475
137.1737, 29.14565
137.6559, 29.31194
138.1380, 29.45085
138.6201, 29.56082
139.1022, 29.65064
139.5843, 29.79259
140.0664, 29.91358
140.5486, 29.87878
141.0307, 29.56365
141.5128, 29.06313
141.9949, 28.66745
142.4770, 28.44675
142.9591, 28.22978
143.4413, 27.90044
143.9234, 27.52229
144.4055, 27.21131
144.8876, 27.06245
145.3697, 27.07667
145.8518, 27.09656
146.3340, 27.17425
146.8161, 27.20990
147.2982, 27.15168
147.7803, 27.01718
148.2624, 26.86296
148.7445, 26.74519
149.2267, 26.67914
149.7088, 26.58892
150.1909, 26.43564
150.6730, 26.29367
151.1551, 26.19473
151.6372, 26.14722
152.1194, 26.15613
152.6015, 26.24091
153.0836, 26.46756
153.5657, 26.57206
154.0478, 26.45237
154.5300, 26.25946
155.0121, 26.17184
155.4942, 26.24324
155.9763, 26.32809
156.4584, 26.15444
156.9405, 25.69620
157.4227, 25.32225
157.9048, 25.15829
158.3869, 25.14662
158.8690, 25.17798
159.3511, 25.24796
159.8332, 25.31470
160.3154, 25.33657
160.7975, 25.31589
161.2796, 25.25489
161.7617, 25.12484
162.2438, 24.93335
162.7259, 24.79269
163.2081, 24.76914
163.6902, 24.77540
164.1723, 24.72705
164.6544, 24.61700
165.1365, 24.53395
165.6186, 24.59559
166.1008, 24.84245
166.5829, 25.05067
167.0650, 25.23675
167.5471, 25.34052
168.0292, 25.27109
168.5113, 25.01718
168.9935, 24.70564
169.4756, 24.55795
169.9577, 24.69003
170.4398, 24.76984
170.9219, 24.74435
171.4040, 24.68004
171.8862, 24.62399
172.3683, 24.59509
172.8504, 24.59139
173.3325, 24.60869
173.8146, 24.65808
174.2967, 24.71850
174.7789, 24.86310
175.2610, 24.99508
175.7431, 24.95736
176.2252, 24.66832
176.7073, 24.24877
177.1894, 24.10963
177.6716, 24.55441
178.1537, 24.87467
178.6358, 24.86961
179.1179, 24.65184
179.6000, 24.42839
180.0822, 24.29211
180.5643, 24.22952
181.0464, 24.19118
181.5285, 24.15806
182.0106, 24.16809
182.4927, 24.25701
182.9749, 24.41155
183.4570, 24.57456
183.9391, 24.72845
184.4212, 24.86622
184.9033, 24.97498
185.3854, 25.03347
185.8676, 25.09770
186.3497, 25.27184
186.8318, 25.56312
187.3139, 25.70426
187.7960, 25.40277
188.2781, 24.95984
188.7603, 24.71841
189.2424, 24.78867
189.7245, 24.97375
190.2066, 24.97537
190.6887, 24.69902
191.1708, 24.59058
191.6530, 25.03667
192.1351, 25.61155
192.6172, 25.93307
193.0993, 25.84574
193.5814, 25.52536
194.0635, 25.30985
194.5457, 25.21681
195.0278, 25.20760
195.5099, 25.29838
195.9920, 25.43935
196.4741, 25.59809
196.9562, 25.76333
197.4384, 25.91102
197.9205, 25.96573
198.4026, 25.82250
198.8847, 25.72559
199.3668, 25.69427
199.8489, 25.72612
200.3311, 25.82915
200.8132, 26.00928
201.2953, 26.24388
201.7774, 26.44106
202.2595, 26.60232
202.7417, 26.72001
203.2238, 26.77096
203.7059, 26.78275
204.1880, 26.78752
204.6701, 26.80021
205.1522, 26.82563
205.6344, 26.88797
206.1165, 26.96633
206.5986, 27.10018
207.0807, 27.39787
207.5628, 27.75238
208.0449, 27.93337
208.5271, 27.78623
209.0092, 27.42755
209.4913, 27.34701
209.9734, 27.75726
210.4555, 28.12686
210.9376, 28.20626
211.4198, 28.08848
211.9019, 28.03735
212.3840, 28.20090
212.8661, 28.50553
213.3482, 28.73647
213.8303, 28.88433
214.3125, 28.98282
214.7946, 29.05936
215.2767, 29.10665
215.7588, 29.07394
216.2409, 28.89691
216.7230, 28.65265
217.2052, 28.46928
217.6873, 28.33228
218.1694, 28.29442
218.6515, 28.44087
219.1336, 28.76493
219.6157, 29.07308
220.0979, 29.30148
220.5800, 29.46983
221.0621, 29.60768
221.5442, 29.72150
222.0263, 29.78943
222.5084, 29.75925
222.9906, 29.61716
223.4727, 29.52810
223.9548, 29.61805
224.4369, 29.73703
224.9190, 29.76143
225.4011, 29.66463
225.8833, 29.54501
226.3654, 29.54656
226.8475, 29.71423
227.3296, 29.78432
227.8117, 29.54002
228.2939, 29.28373
228.7760, 29.23252
229.2581, 29.42410
229.7402, 29.69355
230.2223, 29.80636
230.7044, 29.69084
231.1866, 29.64923
231.6687, 29.83658
232.1508, 30.01612
232.6329, 30.02118
233.1150, 29.82963
233.5971, 29.55970
234.0793, 29.36657
234.5614, 29.25635
235.0435, 29.21774
235.5256, 29.32033
236.0077, 29.43161
236.4898, 29.46177
236.9720, 29.39974
237.4541, 29.30336
237.9362, 29.24963
238.4183, 29.25295
238.9004, 29.26871
239.3825, 29.40262
239.8647, 29.47099
240.3468, 29.28274
240.8289, 28.85062
241.3110, 28.40777
241.7931, 28.26031
242.2752, 28.58496
242.7574, 28.69563
243.2395, 28.36540
243.7216, 28.02329
244.2037, 27.98969
244.6858, 28.27624
245.1679, 28.63165
245.6501, 28.78232
246.1322, 28.68164
246.6143, 28.51357
247.0964, 28.16328
247.5785, 27.83771
248.0606, 27.70382
248.5428, 27.75996
249.0249, 27.85489
249.5070, 27.83944
249.9891, 27.68996
250.4712, 27.59497
250.9533, 27.58172
251.4355, 27.59774
251.9176, 27.63016
252.3997, 27.66967
252.8818, 27.66978
253.3639, 27.57084
253.8461, 27.37422
254.3282, 27.28165
254.8103, 27.45827
255.2924, 27.60711
255.7745, 27.45642
256.2566, 27.03114
256.7387, 26.64502
257.2209, 26.53588
257.7030, 26.67257
258.1851, 26.73935
258.6672, 26.58724
259.1493, 26.48507
259.6314, 26.72131
260.1136, 27.25006
260.5957, 27.63512
261.0778, 27.56105
261.5599, 27.15766
262.0420, 26.89699
262.5241, 26.83124
263.0063, 26.85056
263.4884, 26.94895
263.9705, 27.10580
264.4526, 27.11715
264.9348, 26.76912
265.4169, 26.29457
265.8990, 26.14948
266.3811, 26.46922
266.8632, 26.83364
267.3453, 26.89197
267.8275, 26.69066
268.3096, 26.60499
268.7917, 26.82143
269.2738, 27.17822
269.7559, 27.46511
270.2380, 27.68167
270.7202, 27.81519
271.2023, 27.80714
271.6844, 27.68291
272.1665, 27.62894
272.6486, 27.76940
273.1307, 27.90810
273.6129, 27.81267
274.0950, 27.48546
274.5771, 27.20923
275.0592, 27.17166
275.5413, 27.34709
276.0234, 27.60719
276.5056, 28.03258
276.9877, 28.40314
277.4698, 28.51486
277.9519, 28.41458
278.4340, 28.34126
278.9161, 28.48905
279.3983, 28.79671
279.8804, 28.98370
280.3625, 28.98105
280.8446, 28.93292
281.3267, 28.86994
281.8088, 28.82864
282.2910, 28.90237
282.7731, 29.20307
283.2552, 29.65466
283.7373, 30.02350
284.2194, 30.34644
284.7015, 30.50036
285.1837, 30.33648
285.6658, 30.00940
286.1479, 29.74625
286.6300, 29.65775
287.1121, 29.68879
287.5942, 29.70401
288.0764, 29.65573
288.5585, 29.71091
289.0406, 30.05317
289.5227, 30.47141
290.0048, 30.73012
290.4869, 30.73228
290.9691, 30.60297
291.4512, 30.55795
291.9333, 30.62917
292.4154, 30.68395
292.8975, 30.69522
293.3796, 30.67318
293.8618, 30.59293
294.3439, 30.44879
294.8260, 30.33433
295.3081, 30.41210
295.7902, 30.74621
296.2723, 30.96662
296.7545, 30.90111
297.2366, 30.78067
297.7187, 30.70499
298.2008, 30.69432
298.6829, 30.74862
299.1650, 30.90762
299.6472, 31.19412
300.1293, 31.37008
300.6114, 31.32014
301.0935, 31.23990
301.5756, 31.22020
302.0577, 31.24848
302.5399, 31.25903
303.0220, 31.18583
303.5041, 31.03445
303.9862, 30.92743
304.4683, 30.88331
304.9504, 30.86814
305.4326, 30.91296
305.9147, 30.97312
306.3968, 30.95837
306.8789, 30.78576
307.3610, 30.51315
307.8431, 30.41351
308.3253, 30.66748
308.8074, 30.80810
309.2895, 30.58590
309.7716, 30.23583
310.2537, 30.07251
310.7358, 30.25391
311.2180, 30.58884
311.7001, 30.63477
312.1822, 30.24551
312.6643, 29.88352
313.1465, 29.62430
313.6286, 29.43100
314.1107, 29.26672
314.5928, 29.12291
315.0749, 29.03329
315.5570, 29.07795
316.0392, 29.32062
316.5213, 29.46262
317.0034, 29.44995
317.4855, 29.34795
317.9676, 29.14951
318.4497, 28.87457
318.9319, 28.59739
319.4140, 28.37728
319.8961, 28.21155
320.3782, 28.13168
320.8603, 28.16819
321.3424, 28.27366
321.8246, 28.52550
322.3067, 28.84004
322.7888, 29.02366
323.2709, 28.89425
323.7530, 28.50415
324.2351, 28.25289
324.7173, 28.25423
325.1994, 28.24008
325.6815, 28.02812
326.1636, 27.77478
326.6457, 27.73384
327.1278, 28.07011
327.6100, 28.58258
328.0921, 28.75012
328.5742, 28.36565
329.0563, 28.07997
329.5384, 28.08286
330.0205, 28.21579
330.5027, 28.38197
330.9848, 28.55260
331.4669, 28.67000
331.9490, 28.62833
332.4311, 28.38214
332.9132, 28.17724
333.3954, 28.04195
333.8775, 27.96485
334.3596, 27.95590
334.8417, 28.00997
335.3238, 28.10063
335.8059, 28.23357
336.2881, 28.41111
336.7702, 28.49119
337.2523, 28.36846
337.7344, 28.26030
338.2165, 28.31513
338.6986, 28.46294
339.1808, 28.52828
339.6629, 28.35178
340.1450, 28.02397
340.6271, 27.90860
341.1092, 28.14013
341.5913, 28.32595
342.0735, 28.27326
342.5556, 28.10999
343.0377, 27.99182
343.5198, 27.98364
344.0019, 28.02058
344.4840, 27.97489
344.9662, 27.80589
345.4483, 27.73163
345.9304, 27.92838
346.4125, 28.18352
346.8946, 28.36877
347.3767, 28.46383
347.8589, 28.47526
348.3410, 28.37943
348.8231, 28.17919
349.3052, 27.99820
349.7873, 27.81364
350.2694, 27.70418
350.7516, 27.76870
351.2337, 27.96412
351.7158, 28.10995
352.1979, 28.07715
352.6800, 27.91034
353.1621, 27.74952
353.6443, 27.58950
354.1264, 27.45299
354.6085, 27.35462
355.0906, 27.28644
355.5727, 27.23575
356.0548, 27.17597
356.5370, 27.15885
357.0191, 27.32165
357.5012, 27.69370
357.9833, 27.90473
358.4654, 27.64134
358.9475, 27.22830
359.4297, 27.07340
359.9118, 27.25557
360.3939, 27.48357
360.8760, 27.53784
361.3581, 27.44944
361.8402, 27.37653
362.3224, 27.35482
362.8045, 27.35966
363.2866, 27.39070
363.7687, 27.44171
364.2509, 27.42794
364.7330, 27.24289
365.2151, 26.99424
365.6972, 26.87131
366.1793, 26.90203
366.6614, 26.98056
367.1436, 27.02118
367.6257, 27.04823
368.1078, 27.13830
368.5899, 27.42874
369.0720, 27.68046
369.5541, 27.61054
370.0363, 27.27694
370.5184, 27.08002
371.0005, 27.25257
371.4826, 27.63824
371.9647, 27.88132
372.4468, 27.95807
372.9290, 27.97466
373.4111, 27.92642
373.8932, 27.85334
374.3753, 27.81468
374.8574, 27.81921
375.3395, 27.90380
375.8217, 28.16994
376.3038, 28.65682
376.7859, 28.95192
377.2680, 28.83689
377.7501, 28.63629
378.2322, 28.62261
378.7144, 28.80656
379.1965, 29.06320
379.6786, 29.31789
380.1607, 29.56532
380.6428, 29.76365
381.1249, 29.92452
381.6071, 30.03135
382.0892, 30.00151
382.5713, 29.92276
383.0534, 29.96836
383.5355, 30.21798
384.0176, 30.59481
384.4998, 30.94101
384.9819, 31.30329
385.4640, 31.54703
385.9461, 31.57395
386.4282, 31.53957
386.9103, 31.54396
387.3925, 31.61716
387.8746, 31.78728
388.3567, 32.10276
388.8388, 32.60097
389.3209, 32.96946
389.8030, 33.10783
390.2852, 33.24377
390.7673, 33.52027
391.2494, 33.85714
391.7315, 34.06107
392.2136, 34.00526
392.6957, 33.78666
393.1779, 33.78792
393.6600, 34.26120
394.1421, 34.60205
394.6242, 34.61959
395.1063, 34.56904
395.5884, 34.71623
396.0706, 35.11147
396.5527, 35.55351
397.0348, 35.74152
397.5169, 35.56365
397.9990, 35.57434
398.4811, 36.02207
398.9633, 36.43562
399.4454, 36.67632
399.9275, 36.72786
400.4096, 36.58937
400.8917, 36.21177
401.3738, 35.66805
401.8560, 35.27203
402.3381, 35.05990
402.8202, 34.93715
403.3023, 34.89096
403.7844, 34.89878
404.2665, 34.96392
404.7487, 35.09425
405.2308, 35.19948
405.7129, 35.14951
406.1950, 34.93528
406.6771, 34.73640
407.1592, 34.61963
407.6414, 34.48910
408.1235, 34.23959
408.6056, 33.89884
409.0877, 33.62003
409.5698, 33.55952
410.0519, 33.61396
410.5341, 33.52492
411.0162, 33.25620
411.4983, 32.96157
411.9804, 32.73955
412.4626, 32.55150
412.9447, 32.33184
413.4268, 32.04691
413.9089, 31.76787
414.3910, 31.57288
414.8731, 31.44164
415.3553, 31.26458
415.8374, 30.98053
416.3195, 30.68060
416.8016, 30.51302
417.2837, 30.47966
417.7658, 30.44639
418.2480, 30.45279
418.7301, 30.40163
419.2122, 30.10872
419.6943, 29.57091
420.1764, 29.09051
420.6585, 28.94074
421.1407, 29.08141
421.6228, 29.02984
422.1049, 28.63567
422.5870, 28.23424
423.0691, 27.88199
423.5512, 27.62559
424.0334, 27.60616
424.5155, 27.89343
424.9976, 28.26158
425.4797, 28.27582
425.9618, 27.66903
426.4439, 27.22865
426.9261, 27.01763
427.4082, 26.91534
427.8903, 26.87541
428.3724, 26.87086
428.8545, 26.85583
429.3366, 26.78988
429.8188, 26.67578
430.3009, 26.58132
430.7830, 26.55306
431.2651, 26.49198
431.7472, 26.35219
432.2293, 26.18270
432.7115, 26.03113
433.1936, 25.91678
433.6757, 25.85419
434.1578, 25.89496
434.6399, 26.09735
435.1220, 26.19499
435.6042, 26.08960
436.0863, 25.93810
436.5684, 25.78259
437.0505, 25.64058
437.5326, 25.54028
438.0147, 25.52010
438.4969, 25.55148
438.9790, 25.51867
439.4611, 25.37576
439.9432, 25.28545
440.4253, 25.40434
440.9074, 25.57010
441.3896, 25.58400
441.8717, 25.37772
442.3538, 25.17729
442.8359, 25.25787
443.3180, 25.55437
443.8001, 25.64016
444.2823, 25.33624
444.7644, 24.98457
445.2465, 24.96185
445.7286, 25.19477
446.2107, 25.37598
446.6928, 25.42843
447.1750, 25.38715
447.6571, 25.24245
448.1392, 25.01100
448.6213, 24.82485
449.1034, 24.76242
449.5855, 24.78500
450.0677, 24.78729
450.5498, 24.77004
451.0319, 24.73652
451.5140, 24.66805
451.9961, 24.59248
452.4782, 24.56337
452.9604, 24.58466
453.4425, 24.57647
453.9246, 24.43949
454.4067, 24.14874
454.8888, 24.00217
455.3709, 24.05085
455.8531, 24.15992
456.3352, 24.33549
456.8173, 24.52685
457.2994, 24.67811
457.7815, 24.76339
458.2636, 24.75768
458.7458, 24.57426
459.2279, 24.00571
459.7100, 23.70221
460.1921, 23.82732
460.6742, 24.06271
461.1564, 24.28727
461.6385, 24.46079
462.1206, 24.53664
462.6027, 24.44688
463.0848, 24.23618
463.5670, 24.15408
464.0491, 24.28995
464.5312, 24.37239
465.0133, 24.25752
465.4954, 24.07383
465.9775, 23.94425
466.4597, 23.89683
466.9418, 23.89096
467.4239, 23.90551
467.9060, 23.93456
468.3881, 23.94320
468.8702, 23.93653
469.3524, 23.88840
469.8345, 23.70523
470.3166, 23.45153
470.7987, 23.33384
471.2808, 23.50453
471.7629, 23.75365
472.2451, 23.90807
472.7272, 23.97855
473.2093, 24.02563
473.6914, 24.08284
474.1735, 24.11449
474.6556, 24.01785
475.1378, 23.71800
475.6199, 23.55936
476.1020, 23.68649
476.5841, 23.91151
477.0662, 24.09906
477.5483, 24.22460
478.0305, 24.28609
478.5126, 24.27141
478.9947, 24.19345
479.4768, 24.16770
479.9589, 24.24295
480.4410, 24.31120
480.9232, 24.31610
481.4053, 24.32961
481.8874, 24.46771
482.3695, 24.73905
482.8516, 24.99081
483.3337, 25.01489
483.8159, 24.77534
484.2980, 24.61527
484.7801, 24.59089
485.2622, 24.58764
485.7443, 24.55374
486.2264, 24.51706
486.7086, 24.52628
487.1907, 24.60513
487.6728, 24.72513
488.1549, 24.85273
488.6370, 24.98865
489.1191, 25.12640
489.6013, 25.30700
490.0834, 25.43740
490.5655, 25.39160
491.0476, 25.20259
491.5297, 25.09934
492.0118, 25.27294
492.4940, 25.52636
492.9761, 25.59177
493.4582, 25.47235
493.9403, 25.33595
494.4224, 25.24691
494.9045, 25.21464
495.3867, 25.27384
495.8688, 25.45301
496.3509, 25.63231
496.8330, 25.79783
497.3151, 25.94224
497.7972, 26.05511
498.2794, 26.13642
498.7615, 26.19957
499.2436, 26.26243
499.7257, 26.32001
500.2078, 26.28287
500.6899, 25.97757
501.1721, 25.78777
501.6542, 25.84535
502.1363, 26.01419
502.6184, 26.15357
503.1005, 26.22384
503.5826, 26.26727
504.0648, 26.34594
504.5469, 26.47029
505.0290, 26.52496
505.5111, 26.47837
505.9932, 26.39683
506.4753, 26.26005
506.9575, 26.12015
507.4396, 26.06796
507.9217, 26.15287
508.4038, 26.28086
508.8859, 26.33531
509.3680, 26.32030
509.8502, 26.31362
510.3323, 26.34689
510.8144, 26.36890
511.2965, 26.31114
511.7787, 26.18985
512.2607, 26.09176
512.7429, 26.05548
513.2250, 26.03731
513.7071, 26.01647
514.1892, 25.98461
514.6713, 25.90582
515.1534, 25.75662
515.6356, 25.57229
516.1177, 25.41735
516.5998, 25.27320
517.0819, 25.20630
517.5640, 25.30709
518.0461, 25.41324
518.5283, 25.38807
519.0104, 25.26223
519.4925, 25.15867
519.9746, 25.15690
520.4567, 25.24203
520.9388, 25.37626
521.4210, 25.67424
521.9031, 25.79836
522.3852, 25.59032
522.8673, 25.30878
523.3494, 25.13261
523.8315, 25.06997
524.3137, 25.02557
524.7958, 24.92414
525.2779, 24.78447
525.7600, 24.66306
526.2421, 24.54783
526.7242, 24.49866
527.2064, 24.60079
527.6885, 24.75351
528.1706, 24.82179
528.6527, 24.78070
529.1348, 24.74288
529.6169, 24.83786
530.0991, 24.94781
530.5812, 24.83165
531.0633, 24.46459
531.5454, 24.10106
532.0275, 23.91963
532.5096, 23.90299
532.9918, 23.93703
533.4739, 24.08270
533.9560, 24.19243
534.4381, 24.25093
534.9202, 24.25071
535.4024, 24.14813
535.8845, 23.95531
536.3666, 23.77353
536.8488, 23.70253
537.3309, 23.74180
537.8130, 23.84756
538.2951, 24.10792
538.7772, 24.31933
539.2593, 24.42866
539.7415, 24.47240
540.2236, 24.47632
540.7057, 24.44917
541.1878, 24.42260
541.6699, 24.39708
542.1520, 24.38709
542.6342, 24.52779
543.1163, 24.90462
543.5984, 25.24523
544.0805, 25.32710
544.5626, 25.25829
545.0447, 25.23524
545.5269, 25.30392
546.0090, 25.38150
546.4911, 25.45144
546.9732, 25.49016
547.4553, 25.42967
547.9374, 25.25434
548.4196, 25.06584
548.9017, 24.96060
549.3838, 24.93986
549.8659, 24.93125
550.3480, 25.06069
550.8301, 25.05191
551.3123, 24.67660
551.7944, 24.18922
552.2765, 23.93124
552.7586, 23.97841
553.2407, 24.10161
553.7228, 23.99597
554.2050, 23.63831
554.6871, 23.49003
555.1692, 23.71691
555.6513, 23.92254
556.1334, 23.93984
556.6155, 23.86503
557.0977, 23.81957
557.5798, 23.83627
558.0619, 23.87746
558.5440, 23.95989
559.0261, 24.04521
559.5082, 23.95809
559.9904, 23.63829
560.4725, 23.30789
560.9546, 23.10826
561.4367, 23.04645
561.9188, 23.09332
562.4009, 23.37237
562.8831, 23.60485
563.3652, 23.63286
563.8473, 23.57547
564.3294, 23.61106
564.8115, 23.77065
565.2936, 23.93982
565.7758, 23.99515
566.2579, 23.93625
566.7400, 23.96332
567.2221, 24.19821
567.7042, 24.37368
568.1863, 24.40200
568.6685, 24.37371
569.1506, 24.36872
569.6327, 24.40885
570.1148, 24.48892
570.5969, 24.65860
571.0790, 24.88354
571.5612, 24.90117
572.0433, 24.61054
572.5254, 24.39801
573.0075, 24.54392
573.4896, 24.85359
573.9717, 25.02807
574.4539, 25.00489
574.9360, 24.99042
575.4181, 25.08133
575.9002, 25.23948
576.3823, 25.44103
576.8644, 25.67323
577.3466, 25.85044
577.8287, 25.89913
578.3108, 25.85321
578.7929, 25.87948
579.2750, 26.09105
579.7571, 26.22650
580.2393, 26.20499
580.7214, 26.15200
581.2035, 26.15529
581.6856, 26.22461
582.1677, 26.33492
582.6498, 26.47652
583.1320, 26.63480
583.6141, 26.75449
584.0962, 26.82620
584.5783, 26.89310
585.0604, 26.97857
585.5425, 27.05408
586.0247, 27.08218
586.5068, 27.06793
586.9889, 27.07716
587.4710, 27.15828
587.9531, 27.26498
588.4352, 27.29169
588.9174, 27.27198
589.3995, 27.44157
589.8816, 27.94822
590.3637, 28.55572
