##NAMES=Schorl
##RRUFFID=R050304
##IDEAL CHEMISTRY=NaFe^2+^_3_Al_6_(Si_6_O_18_)(BO_3_)_3_(OH)_3_OH
##LOCALITY=Erongo Mountains, Namibia
##OWNER=RRUFF
##SOURCE=Eugene Schlepp
##DESCRIPTION=Black prismatic crystal associated with quartz and orthoclase
##STATUS=The identification of this mineral has been confirmed by X-ray diffraction and chemical analysis
##URL=rruff.info/R050304
##MEASURED CHEMISTRY=(Na_0.86_[box]_0.14_)_Σ=1_(Fe^2+^_2.68_Mg_0.22_Al_0.06_Ti_0.04_)_Σ=3_Al_6.00_(BO_3_)_3_Si_6.00_O_18_(OH)_4_
92.52344, 143.9468
93.00555, 143.1207
93.48767, 143.2968
93.96979, 147.3344
94.45190, 151.6463
94.93402, 155.6616
95.41614, 157.4357
95.89825, 157.7704
96.38037, 157.9762
96.86249, 158.0347
97.34460, 158.0024
97.82672, 158.0863
98.30884, 158.1726
98.79095, 158.4444
99.27307, 158.5346
99.75519, 157.9781
100.2373, 156.9206
100.7194, 155.6204
101.2015, 154.7396
101.6837, 154.4370
102.1658, 154.3001
102.6479, 153.9251
103.1300, 153.2505
103.6121, 152.7974
104.0942, 153.2321
104.5764, 154.1212
105.0585, 154.8192
105.5406, 154.9472
106.0227, 154.6968
106.5048, 154.6756
106.9869, 155.0412
107.4691, 155.3215
107.9512, 155.2186
108.4333, 154.8438
108.9154, 154.4826
109.3975, 154.3725
109.8796, 154.5398
110.3618, 154.7489
110.8439, 155.0448
111.3260, 155.3357
111.8081, 155.5507
112.2902, 155.6958
112.7723, 155.8519
113.2544, 156.1447
113.7366, 156.7326
114.2187, 157.1583
114.7008, 157.3279
115.1829, 157.3969
115.6650, 157.5085
116.1471, 157.7148
116.6293, 157.9580
117.1114, 158.1088
117.5935, 158.2207
118.0756, 158.1702
118.5577, 157.6775
119.0398, 156.9742
119.5220, 156.6528
120.0041, 157.1030
120.4862, 158.0148
120.9683, 158.6294
121.4504, 158.8289
121.9325, 158.9354
122.4147, 159.2567
122.8968, 159.8219
123.3789, 160.2378
123.8610, 160.1776
124.3431, 159.8981
124.8252, 159.5974
125.3074, 159.2969
125.7895, 159.0545
126.2716, 159.0073
126.7537, 159.2478
127.2358, 159.5344
127.7179, 159.8713
128.2001, 160.1821
128.6822, 160.3773
129.1643, 160.4060
129.6464, 160.2691
130.1285, 159.9716
130.6107, 159.1883
131.0928, 158.5475
131.5749, 158.2150
132.0570, 158.1558
132.5391, 158.2731
133.0212, 158.5109
133.5034, 158.9199
133.9855, 159.0761
134.4676, 158.7654
134.9497, 158.4308
135.4318, 158.3717
135.9139, 158.5949
136.3960, 158.8377
136.8782, 158.7707
137.3603, 158.3028
137.8424, 158.0196
138.3245, 158.1448
138.8066, 158.3980
139.2887, 158.4466
139.7709, 158.2040
140.2530, 157.8108
140.7351, 157.4029
141.2172, 156.9831
141.6993, 156.5865
142.1814, 156.2085
142.6636, 155.8631
143.1457, 155.6188
143.6278, 155.5916
144.1099, 155.5552
144.5920, 155.3078
145.0741, 154.8508
145.5563, 154.3415
146.0384, 153.9175
146.5205, 153.5918
147.0026, 153.2522
147.4847, 152.9617
147.9668, 152.5957
148.4490, 151.9879
148.9311, 151.1314
149.4132, 150.2715
149.8953, 149.8264
150.3774, 150.0983
150.8595, 150.1694
151.3417, 149.8661
151.8238, 149.4291
152.3059, 149.0383
152.7880, 148.7649
153.2701, 148.5649
153.7522, 148.3334
154.2344, 148.1567
154.7165, 147.8325
155.1986, 147.1873
155.6807, 146.4333
156.1628, 145.8392
156.6449, 145.5453
157.1271, 145.4884
157.6092, 145.4230
158.0913, 145.3000
158.5734, 145.2233
159.0555, 145.3966
159.5376, 145.6679
160.0198, 145.5997
160.5019, 144.8569
160.9840, 143.6288
161.4661, 142.6891
161.9482, 142.0535
162.4303, 141.6615
162.9125, 141.6257
163.3946, 141.9267
163.8767, 142.0833
164.3588, 141.6906
164.8409, 140.9961
165.3230, 140.4256
165.8052, 140.1235
166.2873, 139.9065
166.7694, 139.5458
167.2515, 139.0175
167.7336, 138.4183
168.2157, 137.5818
168.6979, 136.7583
169.1800, 136.2905
169.6621, 136.4273
170.1442, 136.9393
170.6263, 137.1965
171.1084, 137.1664
171.5906, 136.8885
172.0727, 136.2400
172.5548, 135.4211
173.0369, 134.6991
173.5190, 134.2358
174.0011, 134.0114
174.4833, 133.8627
174.9654, 133.8329
175.4475, 133.8454
175.9296, 134.0462
176.4117, 134.2748
176.8938, 134.2292
177.3760, 133.6418
177.8581, 132.4903
178.3402, 131.6738
178.8223, 131.3971
179.3044, 131.2115
179.7865, 131.0244
180.2687, 130.8059
180.7508, 130.5170
181.2329, 130.1030
181.7150, 129.5415
182.1971, 129.1982
182.6792, 129.1662
183.1614, 129.2384
183.6435, 129.4039
184.1256, 129.6202
184.6077, 129.6633
185.0898, 129.2538
185.5719, 128.3607
186.0541, 127.7721
186.5362, 127.7479
187.0183, 127.8939
187.5004, 127.8173
187.9825, 127.4647
188.4646, 127.1173
188.9468, 127.1211
189.4289, 127.3754
189.9110, 127.4587
190.3931, 127.1543
190.8752, 126.6604
191.3573, 126.3118
191.8395, 126.2001
192.3216, 126.0380
192.8037, 125.4836
193.2858, 124.7020
193.7679, 124.0744
194.2500, 123.8452
194.7322, 123.9105
195.2143, 123.9400
195.6964, 123.9342
196.1785, 123.8770
196.6606, 123.7699
197.1427, 123.6154
197.6249, 123.4150
198.1070, 123.1152
198.5891, 122.7405
199.0712, 122.5570
199.5533, 122.7905
200.0354, 122.9718
200.5176, 122.9088
200.9997, 122.6532
201.4818, 122.3336
201.9639, 122.0372
202.4460, 121.7628
202.9281, 121.5361
203.4103, 121.2418
203.8924, 121.1126
204.3745, 121.3722
204.8566, 121.8863
205.3387, 122.3233
205.8208, 122.3750
206.3030, 121.9877
206.7851, 121.7177
207.2672, 121.7630
207.7493, 121.7305
208.2314, 121.3901
208.7135, 120.8078
209.1957, 120.2283
209.6778, 119.8753
210.1599, 119.7815
210.6420, 119.6866
211.1241, 119.6202
211.6062, 119.5277
212.0884, 119.3307
212.5705, 119.0577
213.0526, 118.8515
213.5347, 118.8706
214.0168, 119.1544
214.4989, 119.2050
214.9811, 118.7999
215.4632, 118.3553
215.9453, 118.1371
216.4274, 118.1599
216.9095, 118.3049
217.3916, 118.5372
217.8737, 118.8401
218.3559, 118.8737
218.8380, 118.4330
219.3201, 117.8508
219.8022, 117.4079
220.2843, 117.1255
220.7664, 116.8685
221.2486, 116.4777
221.7307, 116.0135
222.2128, 115.7438
222.6949, 115.8548
223.1770, 116.1015
223.6591, 116.2902
224.1413, 116.4442
224.6234, 116.3353
225.1055, 115.4771
225.5876, 114.2516
226.0697, 113.3688
226.5518, 113.1190
227.0340, 113.2596
227.5161, 113.5022
227.9982, 113.8973
228.4803, 114.2149
228.9624, 114.3189
229.4445, 114.2661
229.9267, 114.0906
230.4088, 113.7360
230.8909, 113.3222
231.3730, 113.1069
231.8551, 113.1798
232.3372, 113.2274
232.8194, 113.1004
233.3015, 112.8836
233.7836, 112.6750
234.2657, 112.5256
234.7478, 112.3914
235.2299, 112.1540
235.7121, 111.7244
236.1942, 111.3731
236.6763, 111.2554
237.1584, 111.2143
237.6405, 111.0541
238.1227, 110.6689
238.6048, 110.1966
239.0869, 110.0286
239.5690, 110.4706
240.0511, 110.6726
240.5332, 110.3247
241.0154, 109.7646
241.4975, 109.3187
241.9796, 109.1264
242.4617, 109.1095
242.9438, 109.0975
243.4259, 109.2292
243.9081, 109.1212
244.3902, 108.5422
244.8723, 107.8237
245.3544, 107.2710
245.8365, 107.0013
246.3186, 106.9318
246.8008, 106.8819
247.2829, 106.9514
247.7650, 106.8821
248.2471, 106.5779
248.7292, 106.1841
249.2113, 105.8030
249.6935, 105.4762
250.1756, 105.2266
250.6577, 105.1097
251.1398, 105.3694
251.6219, 105.3974
252.1040, 104.9040
252.5862, 104.3428
253.0683, 104.2089
253.5504, 104.6209
254.0325, 105.1969
254.5146, 105.3055
254.9967, 104.6193
255.4789, 104.0235
255.9610, 103.5207
256.4431, 103.1082
256.9252, 102.7669
257.4073, 102.4964
257.8894, 102.3476
258.3716, 102.4220
258.8537, 102.9112
259.3358, 103.0852
259.8179, 102.6843
260.3000, 102.1254
260.7821, 101.7225
261.2643, 101.5389
261.7464, 101.5519
262.2285, 101.7986
262.7106, 102.3775
263.1927, 102.6273
263.6748, 102.3442
264.1570, 101.8496
264.6391, 101.3269
265.1212, 100.8141
265.6033, 100.4370
266.0854, 100.3596
266.5675, 100.6013
267.0497, 100.7449
267.5318, 100.7503
268.0139, 100.6755
268.4960, 100.5316
268.9781, 100.3269
269.4602, 100.1426
269.9424, 100.0423
270.4245, 100.0230
270.9066, 100.0125
271.3887, 100.1197
271.8708, 100.1522
272.3529, 99.85156
272.8351, 99.25422
273.3172, 98.81963
273.7993, 98.93089
274.2814, 99.39429
274.7635, 99.54509
275.2456, 99.15601
275.7278, 98.69289
276.2099, 98.54370
276.6920, 98.66051
277.1741, 98.61729
277.6562, 98.06878
278.1383, 97.33639
278.6205, 97.07984
279.1026, 97.46430
279.5847, 97.96043
280.0668, 98.24825
280.5489, 98.35049
281.0310, 98.39015
281.5132, 98.39063
281.9953, 98.36252
282.4774, 98.36205
282.9595, 98.41798
283.4416, 98.34007
283.9237, 97.86382
284.4059, 97.11466
284.8880, 96.63184
285.3701, 96.61635
285.8522, 96.82716
286.3343, 97.06739
286.8164, 97.33279
287.2986, 97.44981
287.7807, 97.23739
288.2628, 96.79209
288.7449, 96.42329
289.2270, 96.16671
289.7091, 96.00768
290.1913, 96.01405
290.6734, 96.12444
291.1555, 96.10123
291.6376, 95.66480
292.1197, 95.03232
292.6018, 94.74239
293.0840, 94.91519
293.5661, 95.21269
294.0482, 95.49231
294.5303, 95.72871
295.0124, 95.86607
295.4945, 95.89275
295.9767, 95.80035
296.4588, 95.50676
296.9409, 94.91707
297.4230, 94.45374
297.9051, 94.53601
298.3872, 94.80962
298.8694, 94.82777
299.3515, 94.36330
299.8336, 93.77058
300.3157, 93.54475
300.7978, 93.74526
301.2799, 93.94604
301.7621, 93.88906
302.2442, 93.81178
302.7263, 93.96358
303.2084, 94.41991
303.6905, 94.92277
304.1726, 95.27235
304.6548, 95.47156
305.1369, 95.38769
305.6190, 94.59383
306.1011, 93.82781
306.5832, 93.77852
307.0653, 94.46416
307.5475, 95.14664
308.0296, 95.16434
308.5117, 94.57761
308.9938, 94.09579
309.4759, 93.75219
309.9580, 93.62035
310.4402, 93.84550
310.9223, 94.33244
311.4044, 94.72786
311.8865, 94.75026
312.3686, 94.48198
312.8507, 94.27725
313.3329, 94.13893
313.8150, 94.07349
314.2971, 94.17005
314.7792, 94.32487
315.2613, 94.32922
315.7434, 93.99430
316.2256, 93.51153
316.7077, 93.32322
317.1898, 93.53210
317.6719, 93.74719
318.1540, 93.77443
318.6361, 93.72365
319.1183, 93.72761
319.6004, 93.85369
320.0825, 93.96751
320.5646, 93.82612
321.0467, 93.36757
321.5288, 93.04967
322.0110, 93.08440
322.4931, 93.28700
322.9752, 93.61513
323.4573, 94.06910
323.9394, 94.36874
324.4215, 94.08174
324.9037, 93.22778
325.3858, 92.76279
325.8679, 93.15958
326.3500, 93.69438
326.8321, 93.78713
327.3142, 93.49938
327.7964, 93.28524
328.2785, 93.52939
328.7606, 94.12753
329.2427, 94.57594
329.7248, 94.82677
330.2069, 94.95577
330.6891, 94.97335
331.1712, 94.91877
331.6533, 94.87015
332.1354, 94.83780
332.6175, 94.84602
333.0996, 94.97958
333.5818, 95.29925
334.0639, 95.54897
334.5460, 95.56602
335.0281, 95.45158
335.5102, 95.26961
335.9923, 94.97435
336.4745, 94.75709
336.9566, 94.95309
337.4387, 95.59871
337.9208, 96.01611
338.4029, 95.82696
338.8850, 95.41236
339.3671, 95.12704
339.8492, 95.00022
340.3314, 94.95569
340.8135, 94.95318
341.2956, 94.98963
341.7777, 95.02998
342.2598, 95.00433
342.7419, 95.08303
343.2241, 95.54227
343.7062, 96.28450
344.1883, 96.78691
344.6704, 96.55232
345.1525, 95.94485
345.6346, 95.79947
346.1168, 96.26482
346.5989, 96.84732
347.0810, 97.24760
347.5631, 97.51353
348.0452, 97.71028
348.5273, 97.87575
349.0095, 97.95979
349.4916, 97.81734
349.9737, 97.44061
350.4558, 97.24036
350.9379, 97.56072
351.4200, 98.08336
351.9022, 98.28024
352.3843, 98.04446
352.8664, 97.71407
353.3485, 97.40202
353.8306, 97.15340
354.3127, 97.17856
354.7949, 97.61478
355.2770, 98.21781
355.7591, 98.74763
356.2412, 99.21540
356.7233, 99.47440
357.2054, 99.26852
357.6876, 98.88522
358.1697, 98.82601
358.6518, 99.19062
359.1339, 99.61867
359.6160, 99.78620
360.0981, 99.73933
360.5803, 99.72885
361.0624, 99.82641
361.5445, 99.93936
362.0266, 99.97681
362.5087, 99.94900
362.9908, 99.97957
363.4730, 100.2447
363.9551, 100.5397
364.4372, 100.2370
364.9193, 98.86578
365.4014, 97.72961
365.8835, 97.60564
366.3657, 98.07381
366.8478, 98.26189
367.3299, 97.85526
367.8120, 97.19146
368.2941, 96.82045
368.7762, 96.84207
369.2584, 96.69473
369.7405, 96.11256
370.2226, 95.43885
370.7047, 95.05198
371.1868, 94.98265
371.6689, 94.94384
372.1511, 94.67262
372.6332, 94.15438
373.1153, 93.69143
373.5974, 93.28800
374.0795, 92.92571
374.5616, 92.56993
375.0438, 92.24563
375.5259, 92.04072
376.0080, 92.02720
376.4901, 92.11423
376.9722, 91.97393
377.4543, 91.28831
377.9365, 90.78835
378.4186, 90.57307
378.9007, 90.56773
379.3828, 90.80916
379.8649, 91.27452
380.3470, 91.66933
380.8292, 91.55250
381.3113, 90.67381
381.7934, 90.01048
382.2755, 89.65405
382.7576, 89.40109
383.2397, 89.15234
383.7219, 88.90286
384.2040, 88.67500
384.6861, 88.46845
385.1682, 88.29692
385.6503, 88.39186
386.1324, 89.37154
386.6146, 89.92883
387.0967, 89.49441
387.5788, 88.62038
388.0609, 88.00767
388.5430, 87.95618
389.0251, 88.24403
389.5073, 88.44488
389.9894, 88.57349
390.4715, 88.56960
390.9536, 88.37469
391.4357, 88.11045
391.9178, 87.81649
392.4000, 87.51796
392.8821, 87.25555
393.3642, 87.04542
393.8463, 86.88358
394.3284, 86.91415
394.8105, 87.35998
395.2927, 87.74609
395.7748, 87.89237
396.2569, 87.87589
396.7390, 87.84276
397.2211, 87.87759
397.7032, 87.91115
398.1854, 87.73486
398.6675, 87.21549
399.1496, 86.89260
399.6317, 87.19793
400.1138, 87.58595
400.5959, 87.61005
401.0781, 87.19950
401.5602, 86.68475
402.0423, 86.25420
402.5244, 85.93021
403.0065, 86.03405
403.4886, 86.94527
403.9708, 87.78794
404.4529, 87.88235
404.9350, 87.42647
405.4171, 86.96265
405.8992, 86.68201
406.3813, 86.54765
406.8635, 86.55174
407.3456, 86.71654
407.8277, 86.80952
408.3098, 86.67094
408.7919, 86.40750
409.2740, 86.20329
409.7562, 86.07847
410.2383, 85.98559
410.7204, 85.92537
411.2025, 85.87592
411.6846, 85.75023
412.1667, 85.49637
412.6489, 85.24696
413.1310, 85.21136
413.6131, 85.38289
414.0952, 85.45548
414.5773, 85.35728
415.0594, 85.15120
415.5416, 84.80305
416.0237, 84.35091
416.5058, 84.05521
416.9879, 84.11313
417.4700, 84.46221
417.9521, 84.75436
418.4343, 85.07901
418.9164, 85.25366
419.3985, 85.12634
419.8806, 84.84859
420.3627, 84.62418
420.8448, 84.51868
421.3270, 84.51942
421.8091, 84.63596
422.2912, 85.00161
422.7733, 85.06773
423.2554, 84.53933
423.7375, 83.99236
424.2197, 83.74922
424.7018, 83.79832
425.1839, 84.01680
425.6660, 84.35147
426.1481, 84.74597
426.6302, 84.80506
427.1124, 84.09785
427.5945, 83.57314
428.0766, 83.49866
428.5587, 83.58166
429.0408, 83.47649
429.5229, 83.09580
430.0051, 82.68687
430.4872, 82.62599
430.9693, 83.00879
431.4514, 83.33958
431.9335, 83.74300
432.4156, 83.96311
432.8978, 83.77827
433.3799, 83.31517
433.8620, 82.88620
434.3441, 82.68472
434.8262, 82.65283
435.3083, 82.62424
435.7905, 82.57936
436.2726, 82.59301
436.7547, 82.76170
437.2368, 82.96445
437.7189, 83.07279
438.2010, 83.05515
438.6832, 83.05733
439.1653, 83.27770
439.6474, 83.65286
440.1295, 83.83070
440.6116, 83.71976
441.0938, 83.47212
441.5759, 83.12064
442.0580, 82.72236
442.5401, 82.47757
443.0222, 82.48540
443.5043, 82.64288
443.9865, 82.91796
444.4686, 83.28738
444.9507, 83.56960
445.4328, 83.69367
445.9149, 83.66051
446.3970, 83.43401
446.8792, 82.91161
447.3613, 82.52225
447.8434, 82.44486
448.3255, 82.53504
448.8076, 82.61774
449.2897, 82.66365
449.7719, 82.75263
450.2540, 82.99647
450.7361, 83.41304
451.2182, 83.53426
451.7003, 83.15670
452.1824, 82.75567
452.6646, 82.43450
453.1467, 82.22033
453.6288, 82.17124
454.1109, 82.31300
454.5930, 82.54717
455.0751, 82.68468
455.5573, 82.72460
456.0394, 82.65618
456.5215, 82.38573
457.0036, 82.10462
457.4857, 81.91882
457.9678, 81.82714
458.4500, 81.76127
458.9321, 81.64361
459.4142, 81.51775
459.8963, 81.67640
460.3784, 82.37439
460.8605, 82.89875
461.3427, 82.99170
461.8248, 82.88597
462.3069, 82.78458
462.7890, 82.73876
463.2711, 82.72967
463.7532, 82.71587
464.2354, 82.70493
464.7175, 82.84598
465.1996, 83.32887
465.6817, 83.68378
466.1638, 83.45325
466.6459, 82.84321
467.1281, 82.36552
467.6102, 82.22704
468.0923, 82.25945
468.5744, 82.29239
469.0565, 82.33125
469.5386, 82.45647
470.0208, 82.76865
470.5029, 83.09417
470.9850, 83.06466
471.4671, 82.60654
471.9492, 82.28510
472.4313, 82.32377
472.9135, 82.52065
473.3956, 82.70858
473.8777, 82.85373
474.3598, 82.88222
474.8419, 82.68715
475.3240, 82.32099
475.8062, 82.31342
476.2883, 83.09400
476.7704, 83.65617
477.2525, 83.67223
477.7346, 83.41688
478.2167, 83.22067
478.6989, 83.17158
479.1810, 83.13067
479.6631, 82.89236
480.1452, 82.38394
480.6273, 82.06007
481.1094, 81.96932
481.5916, 82.01822
482.0737, 82.30116
482.5558, 82.68221
483.0379, 82.94408
483.5200, 82.97960
484.0021, 82.86446
484.4843, 82.73154
484.9664, 82.57748
485.4485, 82.41393
485.9306, 82.14725
486.4127, 81.95964
486.8948, 82.01038
487.3770, 82.26934
487.8591, 82.54466
488.3412, 82.79050
488.8233, 82.96046
489.3054, 82.92597
489.7875, 82.66776
490.2697, 82.38966
490.7518, 82.15437
491.2339, 81.99220
491.7160, 81.95064
492.1981, 82.07072
492.6802, 82.19157
493.1624, 82.28304
493.6445, 82.31938
494.1266, 82.23372
494.6087, 82.01803
495.0908, 81.77937
495.5729, 81.58514
496.0551, 81.44021
496.5372, 81.49440
497.0193, 81.95876
497.5014, 82.34511
497.9835, 82.47672
498.4656, 82.45055
498.9478, 82.38161
499.4299, 82.31508
499.9120, 82.28472
500.3941, 82.36572
500.8762, 82.63701
501.3583, 82.70346
501.8405, 82.27220
502.3226, 81.93359
502.8047, 81.99662
503.2868, 82.29084
503.7689, 82.48300
504.2510, 82.40049
504.7331, 82.18378
505.2152, 82.07734
505.6974, 82.08805
506.1795, 82.17184
506.6616, 82.42607
507.1437, 82.64809
507.6258, 82.68668
508.1079, 82.55873
508.5901, 82.37119
509.0722, 82.05537
509.5543, 81.76998
510.0364, 81.80950
510.5185, 82.16930
511.0006, 82.48958
511.4828, 82.58342
511.9649, 82.55241
512.4470, 82.64519
512.9291, 82.95628
513.4113, 83.06232
513.8934, 82.63821
514.3755, 82.08644
514.8576, 81.83292
515.3397, 81.90112
515.8218, 82.08338
516.3040, 82.24300
516.7861, 82.37329
517.2682, 82.42454
517.7503, 82.33725
518.2324, 82.24184
518.7145, 82.11327
519.1967, 82.00276
519.6788, 82.00325
520.1609, 82.10243
520.6430, 82.14336
521.1251, 81.92455
521.6072, 81.45773
522.0894, 81.20116
522.5715, 81.22095
523.0536, 81.35648
523.5357, 81.62733
524.0178, 81.93346
524.4999, 82.17513
524.9821, 82.33130
525.4642, 82.38015
525.9463, 82.18306
526.4284, 81.83328
526.9105, 81.80239
527.3926, 82.24998
527.8748, 82.73914
528.3569, 82.99687
528.8390, 83.01969
529.3211, 82.79141
529.8032, 81.97704
530.2853, 81.29044
530.7675, 81.20665
531.2496, 81.51252
531.7317, 81.82317
532.2138, 82.02861
532.6959, 82.15159
533.1780, 82.21895
533.6602, 82.23144
534.1423, 82.17606
534.6244, 82.05543
535.1065, 81.87565
535.5886, 81.56021
536.0707, 81.21054
536.5529, 80.97327
537.0350, 80.90771
537.5171, 80.96436
537.9992, 81.11032
538.4813, 81.39645
538.9634, 81.50761
539.4456, 81.33109
539.9277, 81.07868
540.4098, 80.86024
540.8919, 80.63962
541.3740, 80.31008
541.8561, 79.75780
542.3383, 79.23514
542.8204, 79.09131
543.3025, 79.29205
543.7846, 79.53030
544.2667, 79.77617
544.7488, 79.94828
545.2310, 79.90457
545.7131, 79.67216
546.1952, 79.49171
546.6773, 79.51807
547.1594, 79.49747
547.6415, 79.09871
548.1237, 78.52457
548.6058, 78.37163
549.0879, 78.90043
549.5700, 79.60564
550.0521, 79.60920
550.5342, 78.54052
551.0164, 77.90398
551.4985, 77.93758
551.9806, 78.09290
552.4627, 78.22842
552.9448, 78.28999
553.4269, 78.20264
553.9091, 77.92170
554.3912, 77.57007
554.8733, 77.34274
555.3554, 77.23719
555.8375, 77.28372
556.3196, 77.67482
556.8018, 77.99797
557.2839, 77.92086
557.7660, 77.57178
558.2481, 77.32457
558.7302, 77.43196
559.2123, 77.55288
559.6945, 77.24293
560.1766, 76.61440
560.6587, 76.18979
561.1408, 76.15260
561.6229, 76.29122
562.1050, 76.38394
562.5872, 76.43758
563.0693, 76.32176
563.5514, 75.75858
564.0335, 75.30434
564.5156, 75.33483
564.9977, 75.65791
565.4799, 75.93294
565.9620, 76.02103
566.4441, 75.96727
566.9262, 75.81709
567.4083, 75.52043
567.8904, 75.33031
568.3726, 75.37101
568.8547, 75.39255
569.3368, 75.35159
569.8189, 75.22336
570.3010, 74.93810
570.7831, 74.43433
571.2653, 73.94247
571.7474, 73.76161
572.2295, 73.85668
572.7116, 73.93365
573.1937, 73.93455
573.6758, 73.94113
574.1580, 74.06810
574.6401, 74.26489
575.1222, 74.33012
575.6043, 74.14381
576.0864, 73.93759
576.5685, 73.88927
577.0507, 73.87859
577.5328, 73.64303
578.0149, 73.13377
578.4970, 72.64832
578.9791, 72.54052
579.4612, 72.83621
579.9434, 72.86225
580.4255, 72.29755
580.9076, 71.83647
581.3897, 71.58546
581.8718, 71.50967
582.3539, 71.65263
582.8361, 71.98634
583.3182, 72.24369
583.8003, 72.06783
584.2824, 71.53671
584.7645, 71.25741
585.2466, 71.31324
585.7288, 71.38472
586.2108, 71.27814
