##NAMES=Schoepite
##RRUFFID=R100188
##IDEAL CHEMISTRY=(U^6+^O_2_)_4_O(OH)_6_(H_2_O)_6_
##LOCALITY=Shinkolobwe mine, Katanga, Congo
##OWNER=RRUFF
##SOURCE=William W Pinch
##DESCRIPTION=Lemon-yellow tabular to blocky crystals associated with orange-yellow fourmarierite (R100187) and soddyite
##STATUS=The identification of this mineral has been confirmed by single-crystal X-ray diffraction.
##URL=rruff.info/R100188
195.6546, 13024.67
196.1367, 13022.57
196.6188, 13023.18
197.1009, 13026.14
197.5831, 13032.62
198.0652, 13042.60
198.5473, 13048.82
199.0294, 13049.38
199.5115, 13047.77
199.9937, 13050.73
200.4758, 13058.12
200.9579, 13069.21
201.4400, 13085.87
201.9221, 13108.86
202.4042, 13124.65
202.8864, 13131.01
203.3685, 13131.04
203.8506, 13131.69
204.3327, 13132.91
204.8148, 13134.52
205.2969, 13136.62
205.7791, 13139.36
206.2612, 13141.47
206.7433, 13143.05
207.2254, 13143.79
207.7075, 13143.75
208.1896, 13144.17
208.6718, 13140.26
209.1539, 13126.94
209.6360, 13101.04
210.1181, 13083.36
210.6002, 13077.32
211.0823, 13079.14
211.5645, 13077.60
212.0466, 13070.94
212.5287, 13065.86
213.0108, 13066.72
213.4929, 13075.45
213.9750, 13083.51
214.4572, 13091.44
214.9393, 13098.11
215.4214, 13099.00
215.9035, 13090.38
216.3856, 13083.39
216.8678, 13085.84
217.3499, 13103.08
217.8320, 13110.88
218.3141, 13104.40
218.7962, 13088.32
219.2783, 13077.29
219.7605, 13071.41
220.2426, 13069.74
220.7247, 13072.71
221.2068, 13082.82
221.6889, 13090.03
222.1710, 13093.68
222.6532, 13094.26
223.1353, 13092.90
223.6174, 13089.32
224.0995, 13084.69
224.5816, 13079.55
225.0637, 13073.64
225.5459, 13068.14
226.0280, 13062.58
226.5101, 13057.69
226.9922, 13056.43
227.4743, 13062.40
227.9564, 13066.39
228.4386, 13063.34
228.9207, 13049.74
229.4028, 13037.42
229.8849, 13026.54
230.3670, 13016.83
230.8492, 13007.49
231.3313, 12999.05
231.8134, 12990.24
232.2955, 12979.91
232.7776, 12966.06
233.2597, 12956.51
233.7419, 12953.70
234.2240, 12954.87
234.7061, 12952.25
235.1882, 12943.06
235.6703, 12934.85
236.1524, 12930.95
236.6346, 12933.16
237.1167, 12936.31
237.5988, 12941.96
238.0809, 12948.06
238.5630, 12948.94
239.0451, 12939.48
239.5273, 12932.20
240.0094, 12932.76
240.4915, 12945.17
240.9736, 12954.11
241.4557, 12958.36
241.9378, 12959.32
242.4200, 12960.30
242.9021, 12962.95
243.3842, 12962.62
243.8663, 12956.75
244.3484, 12942.47
244.8306, 12930.87
245.3127, 12921.55
245.7948, 12915.21
246.2769, 12914.33
246.7590, 12924.30
247.2411, 12930.78
247.7233, 12928.39
248.2054, 12915.07
248.6875, 12900.63
249.1696, 12883.27
249.6517, 12866.33
250.1338, 12855.96
250.6160, 12856.24
251.0981, 12856.01
251.5802, 12852.11
252.0623, 12844.37
252.5444, 12833.32
253.0265, 12815.36
253.5087, 12797.23
253.9908, 12790.07
254.4729, 12800.72
254.9550, 12808.48
255.4371, 12806.32
255.9192, 12792.58
256.4014, 12783.10
256.8835, 12779.44
257.3656, 12778.48
257.8477, 12775.99
258.3298, 12770.25
258.8120, 12766.98
259.2941, 12769.32
259.7762, 12777.97
260.2583, 12777.63
260.7404, 12762.52
261.2225, 12745.19
261.7047, 12740.38
262.1868, 12754.60
262.6689, 12763.28
263.1510, 12758.55
263.6331, 12740.93
264.1152, 12732.36
264.5974, 12737.11
265.0795, 12744.35
265.5616, 12743.21
266.0437, 12731.10
266.5258, 12719.47
267.0079, 12709.74
267.4901, 12702.25
267.9722, 12701.44
268.4543, 12712.35
268.9364, 12720.62
269.4185, 12711.75
269.9006, 12680.27
270.3828, 12656.47
270.8649, 12646.38
271.3470, 12647.12
271.8291, 12645.00
272.3112, 12638.90
272.7933, 12631.93
273.2755, 12625.87
273.7576, 12620.32
274.2397, 12616.64
274.7218, 12616.15
275.2039, 12616.66
275.6860, 12611.19
276.1682, 12598.54
276.6503, 12584.32
277.1324, 12571.90
277.6145, 12561.71
278.0966, 12552.29
278.5787, 12544.33
279.0609, 12537.07
279.5430, 12528.57
280.0251, 12519.16
280.5072, 12509.06
280.9893, 12497.76
281.4715, 12485.52
281.9536, 12474.75
282.4357, 12464.58
282.9178, 12457.69
283.3999, 12460.81
283.8820, 12474.32
284.3642, 12486.88
284.8463, 12493.52
285.3284, 12494.14
285.8105, 12488.33
286.2926, 12473.66
286.7747, 12459.02
287.2569, 12457.75
287.7390, 12469.30
288.2211, 12483.14
288.7032, 12499.01
289.1853, 12514.25
289.6674, 12514.51
290.1496, 12498.03
290.6317, 12478.97
291.1138, 12477.42
291.5959, 12490.20
292.0780, 12494.08
292.5602, 12476.30
293.0423, 12446.68
293.5244, 12430.79
294.0065, 12429.23
294.4886, 12431.92
294.9707, 12431.55
295.4529, 12428.22
295.9350, 12421.79
296.4171, 12410.44
296.8992, 12397.64
297.3813, 12390.06
297.8634, 12387.40
298.3456, 12385.89
298.8277, 12383.79
299.3098, 12380.69
299.7919, 12374.96
300.2740, 12364.50
300.7561, 12354.53
301.2383, 12353.91
301.7204, 12360.84
302.2025, 12367.12
302.6846, 12365.25
303.1667, 12360.16
303.6488, 12360.85
304.1310, 12371.07
304.6131, 12379.67
305.0952, 12371.36
305.5773, 12351.81
306.0594, 12336.43
306.5415, 12335.52
307.0237, 12341.66
307.5058, 12348.26
307.9879, 12355.05
308.4700, 12359.11
308.9521, 12357.88
309.4343, 12352.38
309.9164, 12344.50
310.3985, 12330.02
310.8806, 12316.73
311.3627, 12312.18
311.8448, 12316.73
312.3270, 12321.10
312.8091, 12318.37
313.2912, 12312.81
313.7733, 12309.47
314.2554, 12312.51
314.7375, 12316.22
315.2197, 12317.29
315.7018, 12316.08
316.1839, 12315.67
316.6660, 12318.40
317.1481, 12322.07
317.6302, 12325.02
318.1124, 12328.78
318.5945, 12329.35
319.0766, 12322.84
319.5587, 12311.42
320.0408, 12302.56
320.5229, 12301.57
321.0051, 12301.65
321.4872, 12299.03
321.9693, 12292.54
322.4514, 12284.50
322.9335, 12271.81
323.4156, 12258.16
323.8978, 12250.64
324.3799, 12257.08
324.8620, 12264.13
325.3441, 12267.03
325.8262, 12264.31
326.3083, 12260.98
326.7905, 12256.50
327.2726, 12251.91
327.7547, 12248.54
328.2368, 12247.09
328.7189, 12246.13
329.2010, 12245.89
329.6832, 12246.60
330.1653, 12245.79
330.6474, 12244.64
331.1295, 12241.18
331.6116, 12233.42
332.0938, 12217.13
332.5759, 12203.17
333.0580, 12193.23
333.5401, 12186.83
334.0222, 12181.63
334.5043, 12179.41
334.9865, 12175.84
335.4686, 12167.08
335.9507, 12148.57
336.4328, 12137.86
336.9149, 12139.36
337.3970, 12147.44
337.8792, 12146.11
338.3613, 12131.82
338.8434, 12118.23
339.3255, 12112.28
339.8076, 12115.36
340.2898, 12116.33
340.7719, 12115.58
341.2540, 12112.47
341.7361, 12104.10
342.2182, 12089.75
342.7003, 12079.38
343.1825, 12079.70
343.6646, 12087.95
344.1467, 12082.90
344.6288, 12061.95
345.1109, 12040.32
345.5930, 12034.61
346.0752, 12043.41
346.5573, 12052.42
347.0394, 12058.87
347.5215, 12062.63
348.0036, 12062.67
348.4857, 12059.00
348.9679, 12054.86
349.4500, 12052.97
349.9321, 12052.46
350.4142, 12051.09
350.8963, 12048.67
351.3784, 12044.93
351.8606, 12038.59
352.3427, 12030.43
352.8248, 12023.15
353.3069, 12018.79
353.7890, 12016.18
354.2711, 12013.88
354.7533, 12011.85
355.2354, 12009.95
355.7175, 12011.13
356.1996, 12012.08
356.6817, 12006.96
357.1638, 11984.17
357.6460, 11960.99
358.1281, 11952.84
358.6102, 11958.68
359.0923, 11963.40
359.5744, 11957.86
360.0565, 11947.31
360.5387, 11936.69
361.0208, 11926.05
361.5029, 11917.23
361.9850, 11911.83
362.4671, 11909.11
362.9492, 11906.88
363.4314, 11905.67
363.9135, 11903.86
364.3956, 11900.29
364.8777, 11893.69
365.3598, 11888.12
365.8419, 11884.75
366.3241, 11882.92
366.8062, 11881.62
367.2883, 11882.61
367.7704, 11882.25
368.2526, 11879.67
368.7347, 11874.76
369.2168, 11867.63
369.6989, 11854.93
370.1810, 11842.00
370.6631, 11833.13
371.1453, 11830.80
371.6274, 11828.84
372.1095, 11826.21
372.5916, 11823.23
373.0737, 11822.35
373.5558, 11826.10
374.0380, 11828.18
374.5201, 11823.70
375.0022, 11808.64
375.4843, 11801.00
375.9664, 11803.75
376.4485, 11812.10
376.9307, 11816.92
377.4128, 11817.72
377.8949, 11816.75
378.3770, 11814.73
378.8591, 11811.65
379.3412, 11807.71
379.8234, 11803.36
380.3055, 11796.64
380.7876, 11783.30
381.2697, 11763.80
381.7518, 11748.59
382.2339, 11741.61
382.7161, 11739.86
383.1982, 11736.46
383.6803, 11731.54
384.1624, 11726.85
384.6445, 11723.94
385.1266, 11722.32
385.6088, 11720.80
386.0909, 11719.20
386.5730, 11717.76
387.0551, 11717.81
387.5372, 11718.44
388.0193, 11716.95
388.5015, 11709.27
388.9836, 11700.11
389.4657, 11694.29
389.9478, 11692.04
390.4299, 11692.18
390.9120, 11697.45
391.3942, 11703.50
391.8763, 11704.85
392.3584, 11693.51
392.8405, 11682.89
393.3226, 11682.31
393.8047, 11689.33
394.2869, 11692.58
394.7690, 11684.90
395.2511, 11674.05
395.7332, 11664.42
396.2154, 11655.68
396.6975, 11650.44
397.1796, 11651.10
397.6617, 11655.33
398.1438, 11659.12
398.6259, 11661.92
399.1081, 11664.16
399.5902, 11666.96
400.0723, 11671.12
400.5544, 11669.21
401.0365, 11654.30
401.5186, 11638.15
402.0008, 11631.03
402.4829, 11639.30
402.9650, 11644.11
403.4471, 11643.06
403.9292, 11636.86
404.4113, 11628.03
404.8935, 11614.85
405.3756, 11602.87
405.8577, 11595.79
406.3398, 11594.70
406.8219, 11592.00
407.3040, 11588.45
407.7862, 11582.15
408.2683, 11569.04
408.7504, 11549.09
409.2325, 11529.12
409.7146, 11510.83
410.1967, 11494.82
410.6789, 11481.00
411.1610, 11469.42
411.6431, 11461.86
412.1252, 11461.69
412.6073, 11466.97
413.0894, 11472.69
413.5716, 11478.70
414.0537, 11482.69
414.5358, 11479.55
415.0179, 11471.31
415.5000, 11464.63
415.9821, 11465.66
416.4643, 11468.45
416.9464, 11466.22
417.4285, 11458.02
417.9106, 11448.89
418.3927, 11441.21
418.8748, 11434.50
419.3570, 11428.42
419.8391, 11420.27
420.3212, 11415.09
420.8033, 11417.61
421.2854, 11425.95
421.7675, 11431.01
422.2497, 11426.01
422.7318, 11420.28
423.2139, 11419.83
423.6960, 11430.97
424.1781, 11435.58
424.6602, 11427.83
425.1424, 11413.67
425.6245, 11401.67
426.1066, 11393.23
426.5887, 11385.43
427.0709, 11376.16
427.5530, 11365.38
428.0351, 11363.15
428.5172, 11375.26
428.9993, 11387.72
429.4814, 11388.81
429.9636, 11373.79
430.4457, 11366.33
430.9278, 11371.66
431.4099, 11382.21
431.8920, 11378.62
432.3741, 11358.37
432.8563, 11343.19
433.3384, 11347.61
433.8205, 11367.52
434.3026, 11373.36
434.7847, 11364.00
435.2668, 11350.22
435.7490, 11342.57
436.2311, 11339.58
436.7132, 11336.09
437.1953, 11330.08
437.6774, 11323.86
438.1595, 11321.93
438.6417, 11323.01
439.1238, 11321.82
439.6059, 11311.59
440.0880, 11299.39
440.5701, 11293.50
441.0522, 11295.62
441.5344, 11298.63
442.0165, 11299.01
442.4986, 11297.44
442.9807, 11294.71
443.4628, 11293.69
443.9449, 11288.97
444.4271, 11275.41
444.9092, 11254.89
445.3913, 11238.25
445.8734, 11229.17
446.3555, 11224.07
446.8376, 11221.80
447.3198, 11225.28
447.8019, 11225.31
448.2840, 11218.20
448.7661, 11208.99
449.2482, 11205.10
449.7303, 11210.90
450.2125, 11214.83
450.6946, 11214.94
451.1767, 11211.25
451.6588, 11203.01
452.1409, 11187.97
452.6230, 11173.64
453.1052, 11166.65
453.5873, 11167.71
454.0694, 11165.89
454.5515, 11160.12
455.0337, 11151.55
455.5158, 11139.93
455.9979, 11125.62
456.4800, 11116.29
456.9621, 11119.09
457.4442, 11127.88
457.9264, 11127.81
458.4085, 11119.18
458.8906, 11107.96
459.3727, 11098.45
459.8548, 11089.87
460.3369, 11080.68
460.8191, 11069.40
461.3012, 11060.23
461.7833, 11057.55
462.2654, 11059.50
462.7475, 11062.14
463.2296, 11068.23
463.7118, 11070.87
464.1939, 11064.38
464.6760, 11048.21
465.1581, 11032.94
465.6402, 11018.85
466.1223, 11008.49
466.6045, 11003.83
467.0866, 11013.30
467.5687, 11017.97
468.0508, 11013.12
468.5329, 11003.00
469.0150, 10997.15
469.4972, 10997.90
469.9793, 10999.55
470.4614, 11001.25
470.9435, 11003.27
471.4256, 11000.89
471.9077, 10992.88
472.3899, 10983.29
472.8720, 10975.07
473.3541, 10968.09
473.8362, 10964.92
474.3183, 10967.62
474.8004, 10971.57
475.2826, 10965.95
475.7647, 10951.43
476.2468, 10937.82
476.7289, 10931.60
477.2110, 10929.38
477.6931, 10922.83
478.1753, 10911.82
478.6574, 10902.16
479.1395, 10900.96
479.6216, 10903.49
480.1037, 10902.76
480.5858, 10896.38
481.0680, 10887.54
481.5501, 10878.30
482.0322, 10868.36
482.5143, 10857.08
482.9964, 10838.97
483.4786, 10824.21
483.9607, 10820.08
484.4428, 10828.05
484.9249, 10832.00
485.4070, 10825.85
485.8892, 10816.59
486.3713, 10809.08
486.8534, 10803.84
487.3355, 10799.88
487.8176, 10797.69
488.2997, 10796.55
488.7819, 10794.59
489.2640, 10790.61
489.7461, 10788.38
490.2282, 10790.05
490.7103, 10795.12
491.1924, 10795.97
491.6746, 10792.04
492.1567, 10785.76
492.6388, 10778.03
493.1209, 10769.10
493.6030, 10762.60
494.0851, 10758.95
494.5673, 10757.42
495.0494, 10758.61
495.5315, 10761.45
496.0136, 10762.21
496.4957, 10758.55
496.9778, 10752.34
497.4600, 10744.70
497.9421, 10735.93
498.4242, 10728.05
498.9063, 10722.37
499.3884, 10718.08
499.8705, 10714.85
500.3527, 10713.81
500.8348, 10710.91
501.3169, 10703.37
501.7990, 10693.59
502.2811, 10684.91
502.7632, 10681.31
503.2454, 10675.46
503.7275, 10663.42
504.2096, 10646.30
504.6917, 10635.62
505.1738, 10636.52
505.6559, 10637.32
506.1381, 10631.31
506.6202, 10616.10
507.1023, 10604.02
507.5844, 10594.91
508.0665, 10589.45
508.5486, 10590.54
509.0308, 10598.38
509.5129, 10602.82
509.9950, 10599.41
510.4771, 10592.48
510.9592, 10592.13
511.4413, 10597.58
511.9235, 10602.83
512.4056, 10605.12
512.8877, 10604.21
513.3698, 10597.60
513.8519, 10584.45
514.3340, 10574.76
514.8162, 10581.07
515.2983, 10593.15
515.7804, 10598.71
516.2625, 10590.71
516.7446, 10580.11
517.2267, 10571.14
517.7089, 10563.11
518.1910, 10554.15
518.6731, 10542.81
519.1552, 10531.78
519.6373, 10521.54
520.1194, 10511.79
520.6016, 10505.49
521.0837, 10503.22
521.5658, 10503.64
522.0479, 10506.44
522.5300, 10512.89
523.0121, 10516.97
523.4943, 10518.82
523.9764, 10517.27
524.4585, 10507.81
524.9406, 10490.32
525.4227, 10476.56
525.9048, 10471.57
526.3870, 10472.90
526.8691, 10476.61
527.3513, 10482.36
527.8334, 10484.16
528.3155, 10474.73
528.7976, 10459.84
529.2797, 10446.75
529.7618, 10435.79
530.2440, 10429.89
530.7261, 10438.19
531.2082, 10450.57
531.6903, 10453.90
532.1724, 10432.17
532.6545, 10413.16
533.1367, 10408.15
533.6188, 10413.41
534.1009, 10415.33
534.5830, 10409.10
535.0651, 10401.94
535.5472, 10395.78
536.0294, 10390.37
536.5115, 10388.02
536.9936, 10390.87
537.4757, 10393.87
537.9578, 10392.08
538.4399, 10384.32
538.9221, 10379.70
539.4042, 10380.26
539.8863, 10382.24
540.3684, 10378.11
540.8505, 10368.37
541.3326, 10359.18
541.8148, 10353.67
542.2969, 10349.89
542.7790, 10344.74
543.2611, 10338.25
543.7432, 10330.40
544.2253, 10318.51
544.7075, 10306.74
545.1896, 10300.35
545.6717, 10301.14
546.1538, 10301.20
546.6359, 10295.80
547.1180, 10288.00
547.6002, 10281.08
548.0823, 10274.87
548.5644, 10270.69
549.0465, 10270.68
549.5286, 10272.90
550.0107, 10271.73
550.4929, 10265.10
550.9750, 10258.02
551.4571, 10252.56
551.9392, 10248.65
552.4213, 10240.28
552.9034, 10225.68
553.3856, 10211.83
553.8677, 10205.82
554.3498, 10206.80
554.8319, 10204.45
555.3140, 10197.32
555.7961, 10188.27
556.2783, 10180.64
556.7604, 10174.16
557.2425, 10168.14
557.7246, 10162.63
558.2067, 10157.27
558.6888, 10153.49
559.1710, 10150.11
559.6531, 10142.94
560.1352, 10122.30
560.6173, 10103.52
561.0994, 10098.22
561.5815, 10109.28
562.0637, 10115.94
562.5458, 10111.44
563.0279, 10102.79
563.5100, 10095.06
563.9921, 10088.46
564.4742, 10082.07
564.9564, 10075.43
565.4385, 10069.09
565.9206, 10064.33
566.4027, 10061.40
566.8848, 10058.05
567.3669, 10052.81
567.8491, 10047.04
568.3312, 10046.70
568.8133, 10051.54
569.2954, 10055.06
569.7775, 10054.31
570.2596, 10049.08
570.7418, 10036.73
571.2239, 10016.77
571.7060, 9998.710
572.1881, 9989.534
572.6702, 9986.322
573.1523, 9986.676
573.6345, 9994.778
574.1166, 9997.739
574.5987, 9985.139
575.0808, 9965.432
575.5629, 9952.432
576.0450, 9958.754
576.5272, 9960.479
577.0093, 9951.419
577.4914, 9933.441
577.9735, 9918.157
578.4556, 9905.803
578.9377, 9896.108
579.4199, 9889.452
579.9020, 9886.061
580.3841, 9883.075
580.8662, 9880.919
581.3483, 9877.676
581.8304, 9870.364
582.3126, 9860.303
582.7947, 9851.566
583.2768, 9844.448
583.7589, 9840.225
584.2410, 9841.577
584.7231, 9846.607
585.2053, 9851.605
585.6874, 9856.181
586.1696, 9858.875
586.6517, 9858.306
587.1338, 9854.740
587.6159, 9850.000
588.0980, 9841.731
588.5801, 9834.515
589.0623, 9831.362
589.5444, 9833.479
590.0265, 9830.905
590.5086, 9821.549
590.9907, 9810.321
591.4728, 9801.065
591.9550, 9794.380
592.4371, 9787.517
592.9192, 9780.450
593.4013, 9773.616
593.8834, 9768.690
594.3655, 9765.219
594.8477, 9759.063
595.3298, 9747.069
595.8119, 9734.447
596.2940, 9729.665
596.7761, 9730.593
597.2582, 9729.920
597.7404, 9720.044
598.2225, 9709.832
598.7046, 9706.076
599.1867, 9708.974
599.6688, 9711.433
600.1509, 9711.248
600.6331, 9709.709
601.1152, 9707.791
601.5973, 9706.896
602.0794, 9702.082
602.5615, 9692.230
603.0436, 9679.558
603.5258, 9665.642
604.0079, 9649.540
604.4900, 9638.667
604.9721, 9636.143
605.4542, 9637.130
605.9363, 9630.104
606.4185, 9616.410
606.9006, 9606.696
607.3827, 9610.248
607.8648, 9618.123
608.3469, 9616.333
608.8290, 9606.360
609.3112, 9596.537
609.7933, 9590.738
610.2754, 9587.562
610.7575, 9585.942
611.2396, 9585.741
611.7217, 9586.828
612.2039, 9593.658
612.6860, 9598.682
613.1681, 9595.626
613.6502, 9575.516
614.1323, 9562.681
614.6144, 9559.710
615.0966, 9561.976
615.5787, 9563.719
616.0608, 9565.365
616.5429, 9563.808
617.0250, 9558.104
617.5071, 9549.260
617.9893, 9538.281
618.4714, 9525.667
618.9535, 9515.051
619.4356, 9509.281
619.9177, 9506.009
620.3998, 9502.897
620.8820, 9499.812
621.3641, 9495.634
621.8462, 9486.608
622.3283, 9478.295
622.8104, 9476.068
623.2925, 9483.078
623.7747, 9485.491
624.2568, 9474.940
624.7389, 9462.263
625.2210, 9456.650
625.7031, 9463.518
626.1852, 9464.800
626.6674, 9457.446
627.1495, 9446.442
627.6316, 9440.598
628.1137, 9440.178
628.5958, 9438.191
629.0779, 9431.358
629.5601, 9423.396
630.0422, 9423.610
630.5243, 9430.172
631.0064, 9434.078
631.4885, 9428.173
631.9706, 9418.937
632.4528, 9412.158
632.9349, 9407.985
633.4170, 9404.274
633.8991, 9400.495
634.3812, 9396.694
634.8633, 9392.875
635.3455, 9389.151
635.8276, 9385.121
636.3097, 9379.339
636.7918, 9374.498
637.2739, 9372.923
637.7560, 9375.020
638.2382, 9378.620
638.7203, 9384.096
639.2024, 9389.454
639.6845, 9391.620
640.1666, 9390.703
640.6487, 9388.311
641.1309, 9383.815
641.6130, 9379.286
642.0951, 9378.197
642.5772, 9379.471
643.0594, 9380.333
643.5415, 9382.919
644.0236, 9381.614
644.5057, 9369.936
644.9879, 9349.342
645.4700, 9333.926
645.9521, 9333.089
646.4342, 9332.821
646.9163, 9327.330
647.3984, 9316.260
647.8806, 9303.013
648.3627, 9285.890
648.8448, 9270.190
649.3269, 9261.051
649.8090, 9258.598
650.2911, 9254.661
650.7733, 9248.419
651.2554, 9241.734
651.7375, 9235.152
652.2196, 9229.802
652.7017, 9228.675
653.1838, 9233.848
653.6660, 9240.690
654.1481, 9248.022
654.6302, 9253.946
655.1123, 9255.253
655.5944, 9243.876
656.0765, 9234.700
656.5587, 9233.560
657.0408, 9238.621
657.5229, 9241.437
658.0050, 9241.348
658.4871, 9239.590
658.9692, 9236.015
659.4514, 9230.825
659.9335, 9226.632
660.4156, 9223.446
660.8977, 9221.264
661.3798, 9222.297
661.8619, 9224.243
662.3441, 9220.090
662.8262, 9209.390
663.3083, 9197.111
663.7904, 9186.522
664.2725, 9176.974
664.7546, 9167.652
665.2368, 9158.088
665.7189, 9149.966
666.2010, 9145.499
666.6831, 9142.162
667.1652, 9137.011
667.6473, 9128.876
668.1295, 9120.786
668.6116, 9112.095
669.0937, 9104.239
669.5758, 9101.351
670.0579, 9104.244
670.5400, 9103.625
671.0222, 9095.000
671.5043, 9082.908
671.9864, 9075.524
672.4685, 9072.651
672.9506, 9073.826
673.4327, 9084.658
673.9149, 9094.885
674.3970, 9093.851
674.8791, 9082.634
675.3612, 9071.083
675.8433, 9059.344
676.3254, 9051.335
676.8076, 9051.629
677.2897, 9063.028
677.7718, 9065.285
678.2539, 9052.526
678.7360, 9039.225
679.2181, 9036.335
679.7003, 9045.408
680.1824, 9050.185
680.6645, 9049.845
681.1466, 9047.129
681.6287, 9044.792
682.1108, 9042.401
682.5930, 9038.601
683.0751, 9032.607
683.5572, 9026.357
684.0393, 9021.113
684.5214, 9016.478
685.0035, 9011.908
685.4857, 9005.607
685.9678, 9000.936
686.4499, 8999.049
686.9320, 8999.291
687.4141, 9000.476
687.8962, 9004.594
688.3784, 9005.833
688.8605, 9002.489
689.3426, 8995.675
689.8247, 8988.938
690.3068, 8982.317
690.7889, 8975.355
691.2711, 8967.659
691.7532, 8959.601
