##NAMES=Schorlomite
##RRUFFID=R140772
##IDEAL CHEMISTRY=Ca_3_Ti^4+^_2_(Fe^3+^_2_Si)O_12_
##LOCALITY=Graulay, Hillesheim, Eifel, Rhineland-Palatinate, Germany
##OWNER=RRUFF
##SOURCE=Ch. and H. Sch√§fer
##DESCRIPTION=Associated with noonkanbahnite, pyroxene and oxyphlogopite.
##STATUS=The identification of this mineral has been confirmed only by single crystal X-ray diffraction.
##URL=rruff.info/R140772
8.930109e+001, 0.000000e+000
8.978320e+001, 1.830307e+002
9.026532e+001, 1.826208e+002
9.074744e+001, 1.826545e+002
9.122955e+001, 1.831056e+002
9.171167e+001, 1.842973e+002
9.219379e+001, 1.868232e+002
9.267590e+001, 1.905773e+002
9.315802e+001, 1.941167e+002
9.364014e+001, 1.969720e+002
9.412225e+001, 1.989055e+002
9.460437e+001, 1.988089e+002
9.508649e+001, 1.954247e+002
9.556860e+001, 1.904222e+002
9.605072e+001, 1.881670e+002
9.653284e+001, 1.890096e+002
9.701495e+001, 1.904141e+002
9.749707e+001, 1.896878e+002
9.797919e+001, 1.868967e+002
9.846130e+001, 1.841691e+002
9.894342e+001, 1.818726e+002
9.942554e+001, 1.800239e+002
9.990765e+001, 1.794297e+002
1.003898e+002, 1.802498e+002
1.008719e+002, 1.818547e+002
1.013540e+002, 1.836146e+002
1.018361e+002, 1.858458e+002
1.023182e+002, 1.872166e+002
1.028004e+002, 1.869236e+002
1.032825e+002, 1.842972e+002
1.037646e+002, 1.830456e+002
1.042467e+002, 1.835269e+002
1.047288e+002, 1.851424e+002
1.052109e+002, 1.864487e+002
1.056931e+002, 1.869503e+002
1.061752e+002, 1.878810e+002
1.066573e+002, 1.897516e+002
1.071394e+002, 1.923585e+002
1.076215e+002, 1.961534e+002
1.081036e+002, 2.019919e+002
1.085858e+002, 2.093152e+002
1.090679e+002, 2.150386e+002
1.095500e+002, 2.193974e+002
1.100321e+002, 2.221592e+002
1.105142e+002, 2.231972e+002
1.109963e+002, 2.201838e+002
1.114785e+002, 2.181155e+002
1.119606e+002, 2.176653e+002
1.124427e+002, 2.187806e+002
1.129248e+002, 2.203712e+002
1.134069e+002, 2.226225e+002
1.138890e+002, 2.251018e+002
1.143712e+002, 2.274890e+002
1.148533e+002, 2.293716e+002
1.153354e+002, 2.314520e+002
1.158175e+002, 2.338935e+002
1.162996e+002, 2.367317e+002
1.167817e+002, 2.399905e+002
1.172639e+002, 2.445010e+002
1.177460e+002, 2.492664e+002
1.182281e+002, 2.530185e+002
1.187102e+002, 2.546606e+002
1.191923e+002, 2.556136e+002
1.196744e+002, 2.567269e+002
1.201566e+002, 2.581752e+002
1.206387e+002, 2.593922e+002
1.211208e+002, 2.596608e+002
1.216029e+002, 2.594191e+002
1.220850e+002, 2.595536e+002
1.225671e+002, 2.604277e+002
1.230493e+002, 2.619271e+002
1.235314e+002, 2.639819e+002
1.240135e+002, 2.666471e+002
1.244956e+002, 2.696890e+002
1.249777e+002, 2.736991e+002
1.254598e+002, 2.781827e+002
1.259420e+002, 2.811951e+002
1.264241e+002, 2.803141e+002
1.269062e+002, 2.772216e+002
1.273883e+002, 2.750081e+002
1.278704e+002, 2.744653e+002
1.283525e+002, 2.748694e+002
1.288347e+002, 2.751065e+002
1.293168e+002, 2.752086e+002
1.297989e+002, 2.757120e+002
1.302810e+002, 2.775258e+002
1.307631e+002, 2.802488e+002
1.312452e+002, 2.822405e+002
1.317274e+002, 2.827642e+002
1.322095e+002, 2.824456e+002
1.326916e+002, 2.832212e+002
1.331737e+002, 2.852780e+002
1.336558e+002, 2.871794e+002
1.341379e+002, 2.872531e+002
1.346201e+002, 2.855323e+002
1.351022e+002, 2.840374e+002
1.355843e+002, 2.834007e+002
1.360664e+002, 2.835223e+002
1.365485e+002, 2.836379e+002
1.370306e+002, 2.836686e+002
1.375128e+002, 2.838897e+002
1.379949e+002, 2.848061e+002
1.384770e+002, 2.866112e+002
1.389591e+002, 2.881387e+002
1.394412e+002, 2.887076e+002
1.399233e+002, 2.881441e+002
1.404055e+002, 2.891255e+002
1.408876e+002, 2.924287e+002
1.413697e+002, 2.964781e+002
1.418518e+002, 2.986493e+002
1.423339e+002, 2.984100e+002
1.428160e+002, 2.974734e+002
1.432982e+002, 2.962964e+002
1.437803e+002, 2.946601e+002
1.442624e+002, 2.935317e+002
1.447445e+002, 2.930485e+002
1.452266e+002, 2.930366e+002
1.457087e+002, 2.931086e+002
1.461909e+002, 2.932066e+002
1.466730e+002, 2.934677e+002
1.471551e+002, 2.939629e+002
1.476372e+002, 2.948295e+002
1.481193e+002, 2.957069e+002
1.486014e+002, 2.967230e+002
1.490836e+002, 2.977718e+002
1.495657e+002, 2.985196e+002
1.500478e+002, 2.989807e+002
1.505299e+002, 2.991174e+002
1.510120e+002, 2.989075e+002
1.514941e+002, 2.972302e+002
1.519763e+002, 2.965190e+002
1.524584e+002, 2.972781e+002
1.529405e+002, 2.992206e+002
1.534226e+002, 3.009018e+002
1.539047e+002, 3.020451e+002
1.543868e+002, 3.030063e+002
1.548690e+002, 3.039788e+002
1.553511e+002, 3.049836e+002
1.558332e+002, 3.059991e+002
1.563153e+002, 3.071631e+002
1.567974e+002, 3.084169e+002
1.572795e+002, 3.092862e+002
1.577617e+002, 3.094404e+002
1.582438e+002, 3.092996e+002
1.587259e+002, 3.091680e+002
1.592080e+002, 3.093290e+002
1.596901e+002, 3.093108e+002
1.601722e+002, 3.087869e+002
1.606544e+002, 3.077977e+002
1.611365e+002, 3.071176e+002
1.616186e+002, 3.073143e+002
1.621007e+002, 3.078245e+002
1.625828e+002, 3.081320e+002
1.630649e+002, 3.076667e+002
1.635471e+002, 3.072928e+002
1.640292e+002, 3.075997e+002
1.645113e+002, 3.086046e+002
1.649934e+002, 3.093227e+002
1.654755e+002, 3.090114e+002
1.659576e+002, 3.081903e+002
1.664398e+002, 3.075089e+002
1.669219e+002, 3.073113e+002
1.674040e+002, 3.072561e+002
1.678861e+002, 3.070962e+002
1.683682e+002, 3.068083e+002
1.688503e+002, 3.066066e+002
1.693325e+002, 3.066302e+002
1.698146e+002, 3.068338e+002
1.702967e+002, 3.071411e+002
1.707788e+002, 3.074700e+002
1.712609e+002, 3.079236e+002
1.717430e+002, 3.087782e+002
1.722252e+002, 3.101354e+002
1.727073e+002, 3.111765e+002
1.731894e+002, 3.109437e+002
1.736715e+002, 3.098766e+002
1.741536e+002, 3.089740e+002
1.746357e+002, 3.087947e+002
1.751179e+002, 3.089978e+002
1.756000e+002, 3.092037e+002
1.760821e+002, 3.093852e+002
1.765642e+002, 3.095401e+002
1.770463e+002, 3.096411e+002
1.775284e+002, 3.097070e+002
1.780106e+002, 3.097945e+002
1.784927e+002, 3.099354e+002
1.789748e+002, 3.101185e+002
1.794569e+002, 3.102822e+002
1.799390e+002, 3.103872e+002
1.804211e+002, 3.106156e+002
1.809033e+002, 3.114370e+002
1.813854e+002, 3.126916e+002
1.818675e+002, 3.135973e+002
1.823496e+002, 3.132062e+002
1.828317e+002, 3.121609e+002
1.833138e+002, 3.120860e+002
1.837960e+002, 3.133173e+002
1.842781e+002, 3.150754e+002
1.847602e+002, 3.162423e+002
1.852423e+002, 3.168883e+002
1.857244e+002, 3.175196e+002
1.862065e+002, 3.185806e+002
1.866887e+002, 3.199095e+002
1.871708e+002, 3.208525e+002
1.876529e+002, 3.212239e+002
1.881350e+002, 3.214176e+002
1.886171e+002, 3.221880e+002
1.890992e+002, 3.235240e+002
1.895814e+002, 3.248036e+002
1.900635e+002, 3.255536e+002
1.905456e+002, 3.258625e+002
1.910277e+002, 3.262469e+002
1.915098e+002, 3.267429e+002
1.919919e+002, 3.273812e+002
1.924741e+002, 3.283219e+002
1.929562e+002, 3.295802e+002
1.934383e+002, 3.307388e+002
1.939204e+002, 3.313626e+002
1.944025e+002, 3.314962e+002
1.948846e+002, 3.319752e+002
1.953668e+002, 3.330128e+002
1.958489e+002, 3.343160e+002
1.963310e+002, 3.351596e+002
1.968131e+002, 3.355001e+002
1.972952e+002, 3.357005e+002
1.977773e+002, 3.358849e+002
1.982595e+002, 3.360432e+002
1.987416e+002, 3.366372e+002
1.992237e+002, 3.378462e+002
1.997058e+002, 3.394184e+002
2.001879e+002, 3.406398e+002
2.006700e+002, 3.414801e+002
2.011522e+002, 3.421704e+002
2.016343e+002, 3.428815e+002
2.021164e+002, 3.436304e+002
2.025985e+002, 3.442226e+002
2.030806e+002, 3.445550e+002
2.035627e+002, 3.447531e+002
2.040449e+002, 3.452417e+002
2.045270e+002, 3.460795e+002
2.050091e+002, 3.470059e+002
2.054912e+002, 3.478722e+002
2.059733e+002, 3.486863e+002
2.064554e+002, 3.494029e+002
2.069376e+002, 3.500883e+002
2.074197e+002, 3.506496e+002
2.079018e+002, 3.506006e+002
2.083839e+002, 3.496490e+002
2.088660e+002, 3.488361e+002
2.093481e+002, 3.490040e+002
2.098303e+002, 3.504160e+002
2.103124e+002, 3.516356e+002
2.107945e+002, 3.524746e+002
2.112766e+002, 3.530141e+002
2.117587e+002, 3.536143e+002
2.122408e+002, 3.543207e+002
2.127230e+002, 3.550001e+002
2.132051e+002, 3.555376e+002
2.136872e+002, 3.558540e+002
2.141693e+002, 3.562846e+002
2.146514e+002, 3.568358e+002
2.151335e+002, 3.575201e+002
2.156157e+002, 3.584515e+002
2.160978e+002, 3.598233e+002
2.165799e+002, 3.610789e+002
2.170620e+002, 3.617292e+002
2.175441e+002, 3.613559e+002
2.180262e+002, 3.616327e+002
2.185084e+002, 3.629575e+002
2.189905e+002, 3.650821e+002
2.194726e+002, 3.666674e+002
2.199547e+002, 3.675429e+002
2.204368e+002, 3.682231e+002
2.209189e+002, 3.690384e+002
2.214011e+002, 3.700994e+002
2.218832e+002, 3.710415e+002
2.223653e+002, 3.718379e+002
2.228474e+002, 3.725018e+002
2.233295e+002, 3.730586e+002
2.238116e+002, 3.732852e+002
2.242938e+002, 3.737398e+002
2.247759e+002, 3.748293e+002
2.252580e+002, 3.768797e+002
2.257401e+002, 3.787387e+002
2.262222e+002, 3.802521e+002
2.267043e+002, 3.815082e+002
2.271865e+002, 3.829647e+002
2.276686e+002, 3.846595e+002
2.281507e+002, 3.864468e+002
2.286328e+002, 3.882653e+002
2.291149e+002, 3.902460e+002
2.295970e+002, 3.919101e+002
2.300792e+002, 3.930239e+002
2.305613e+002, 3.938017e+002
2.310434e+002, 3.950458e+002
2.315255e+002, 3.968544e+002
2.320076e+002, 3.989698e+002
2.324897e+002, 4.012804e+002
2.329719e+002, 4.039376e+002
2.334540e+002, 4.064484e+002
2.339361e+002, 4.087451e+002
2.344182e+002, 4.109048e+002
2.349003e+002, 4.132466e+002
2.353824e+002, 4.159367e+002
2.358646e+002, 4.185735e+002
2.363467e+002, 4.209178e+002
2.368288e+002, 4.227171e+002
2.373109e+002, 4.247656e+002
2.377930e+002, 4.270535e+002
2.382751e+002, 4.296068e+002
2.387573e+002, 4.324670e+002
2.392394e+002, 4.357815e+002
2.397215e+002, 4.391768e+002
2.402036e+002, 4.425464e+002
2.406857e+002, 4.460127e+002
2.411678e+002, 4.491505e+002
2.416500e+002, 4.519071e+002
2.421321e+002, 4.543322e+002
2.426142e+002, 4.565593e+002
2.430963e+002, 4.583590e+002
2.435784e+002, 4.602846e+002
2.440605e+002, 4.625927e+002
2.445427e+002, 4.655344e+002
2.450248e+002, 4.682428e+002
2.455069e+002, 4.706284e+002
2.459890e+002, 4.728327e+002
2.464711e+002, 4.751738e+002
2.469532e+002, 4.779650e+002
2.474354e+002, 4.804223e+002
2.479175e+002, 4.821043e+002
2.483996e+002, 4.826117e+002
2.488817e+002, 4.837376e+002
2.493638e+002, 4.858055e+002
2.498459e+002, 4.883207e+002
2.503281e+002, 4.903073e+002
2.508102e+002, 4.913567e+002
2.512923e+002, 4.926200e+002
2.517744e+002, 4.946723e+002
2.522565e+002, 4.978793e+002
2.527386e+002, 5.002151e+002
2.532208e+002, 5.013070e+002
2.537029e+002, 5.018021e+002
2.541850e+002, 5.027542e+002
2.546671e+002, 5.044095e+002
2.551492e+002, 5.060365e+002
2.556313e+002, 5.074101e+002
2.561135e+002, 5.085013e+002
2.565956e+002, 5.094247e+002
2.570777e+002, 5.100428e+002
2.575598e+002, 5.105949e+002
2.580419e+002, 5.114162e+002
2.585240e+002, 5.125856e+002
2.590062e+002, 5.138112e+002
2.594883e+002, 5.150753e+002
2.599704e+002, 5.163737e+002
2.604525e+002, 5.173678e+002
2.609346e+002, 5.178557e+002
2.614167e+002, 5.182772e+002
2.618989e+002, 5.191974e+002
2.623810e+002, 5.208364e+002
2.628631e+002, 5.223811e+002
2.633452e+002, 5.235891e+002
2.638273e+002, 5.244854e+002
2.643094e+002, 5.255560e+002
2.647916e+002, 5.268382e+002
2.652737e+002, 5.282835e+002
2.657558e+002, 5.298670e+002
2.662379e+002, 5.315801e+002
2.667200e+002, 5.334764e+002
2.672021e+002, 5.357273e+002
2.676843e+002, 5.382415e+002
2.681664e+002, 5.400864e+002
2.686485e+002, 5.409363e+002
2.691306e+002, 5.417756e+002
2.696127e+002, 5.434747e+002
2.700948e+002, 5.461918e+002
2.705770e+002, 5.490046e+002
2.710591e+002, 5.517976e+002
2.715412e+002, 5.545298e+002
2.720233e+002, 5.570947e+002
2.725054e+002, 5.594097e+002
2.729875e+002, 5.616434e+002
2.734697e+002, 5.638412e+002
2.739518e+002, 5.659818e+002
2.744339e+002, 5.683812e+002
2.749160e+002, 5.711898e+002
2.753981e+002, 5.742066e+002
2.758802e+002, 5.769348e+002
2.763624e+002, 5.793559e+002
2.768445e+002, 5.814149e+002
2.773266e+002, 5.827957e+002
2.778087e+002, 5.834046e+002
2.782908e+002, 5.848602e+002
2.787729e+002, 5.874686e+002
2.792551e+002, 5.907931e+002
2.797372e+002, 5.939130e+002
2.802193e+002, 5.968711e+002
2.807014e+002, 5.994223e+002
2.811835e+002, 6.014193e+002
2.816656e+002, 6.028668e+002
2.821478e+002, 6.039691e+002
2.826299e+002, 6.046168e+002
2.831120e+002, 6.051599e+002
2.835941e+002, 6.062466e+002
2.840762e+002, 6.079079e+002
2.845583e+002, 6.095944e+002
2.850405e+002, 6.110905e+002
2.855226e+002, 6.124064e+002
2.860047e+002, 6.136502e+002
2.864868e+002, 6.148334e+002
2.869689e+002, 6.159041e+002
2.874510e+002, 6.167530e+002
2.879332e+002, 6.173868e+002
2.884153e+002, 6.179852e+002
2.888974e+002, 6.186164e+002
2.893795e+002, 6.192578e+002
2.898616e+002, 6.198192e+002
2.903438e+002, 6.203009e+002
2.908259e+002, 6.206884e+002
2.913080e+002, 6.210582e+002
2.917901e+002, 6.213603e+002
2.922722e+002, 6.212872e+002
2.927543e+002, 6.205159e+002
2.932365e+002, 6.194065e+002
2.937186e+002, 6.188835e+002
2.942007e+002, 6.189597e+002
2.946828e+002, 6.191207e+002
2.951649e+002, 6.189342e+002
2.956470e+002, 6.184651e+002
2.961292e+002, 6.178905e+002
2.966113e+002, 6.171672e+002
2.970934e+002, 6.164722e+002
2.975755e+002, 6.161791e+002
2.980576e+002, 6.162498e+002
2.985397e+002, 6.162782e+002
2.990219e+002, 6.158846e+002
2.995040e+002, 6.152396e+002
2.999861e+002, 6.146862e+002
3.004682e+002, 6.142530e+002
3.009503e+002, 6.140252e+002
3.014324e+002, 6.141619e+002
3.019146e+002, 6.146186e+002
3.023967e+002, 6.152010e+002
3.028788e+002, 6.159341e+002
3.033609e+002, 6.166760e+002
3.038430e+002, 6.171346e+002
3.043251e+002, 6.171826e+002
3.048073e+002, 6.172769e+002
3.052894e+002, 6.178573e+002
3.057715e+002, 6.188082e+002
3.062536e+002, 6.198708e+002
3.067357e+002, 6.209342e+002
3.072178e+002, 6.220096e+002
3.077000e+002, 6.229902e+002
3.081821e+002, 6.238196e+002
3.086642e+002, 6.249434e+002
3.091463e+002, 6.269540e+002
3.096284e+002, 6.294145e+002
3.101105e+002, 6.316798e+002
3.105927e+002, 6.329326e+002
3.110748e+002, 6.342463e+002
3.115569e+002, 6.365380e+002
3.120390e+002, 6.398226e+002
3.125211e+002, 6.431606e+002
3.130032e+002, 6.461127e+002
3.134854e+002, 6.488549e+002
3.139675e+002, 6.515353e+002
3.144496e+002, 6.539813e+002
3.149317e+002, 6.565872e+002
3.154138e+002, 6.595916e+002
3.158959e+002, 6.629613e+002
3.163781e+002, 6.665418e+002
3.168602e+002, 6.704294e+002
3.173423e+002, 6.743824e+002
3.178244e+002, 6.782053e+002
3.183065e+002, 6.817216e+002
3.187886e+002, 6.852943e+002
3.192708e+002, 6.889561e+002
3.197529e+002, 6.927321e+002
3.202350e+002, 6.967119e+002
3.207171e+002, 7.008788e+002
3.211992e+002, 7.052313e+002
3.216813e+002, 7.097703e+002
3.221635e+002, 7.145380e+002
3.226456e+002, 7.193681e+002
3.231277e+002, 7.245716e+002
3.236098e+002, 7.297540e+002
3.240919e+002, 7.342784e+002
3.245740e+002, 7.375662e+002
3.250562e+002, 7.405518e+002
3.255383e+002, 7.434805e+002
3.260204e+002, 7.463666e+002
3.265025e+002, 7.491963e+002
3.269846e+002, 7.522250e+002
3.274667e+002, 7.550964e+002
3.279489e+002, 7.574686e+002
3.284310e+002, 7.589022e+002
3.289131e+002, 7.603623e+002
3.293952e+002, 7.621749e+002
3.298773e+002, 7.643700e+002
3.303594e+002, 7.659467e+002
3.308416e+002, 7.668463e+002
3.313237e+002, 7.671708e+002
3.318058e+002, 7.669572e+002
3.322879e+002, 7.659570e+002
3.327700e+002, 7.648267e+002
3.332521e+002, 7.636465e+002
3.337343e+002, 7.623692e+002
3.342164e+002, 7.607558e+002
3.346985e+002, 7.587118e+002
3.351806e+002, 7.564899e+002
3.356627e+002, 7.541830e+002
3.361448e+002, 7.517499e+002
3.366270e+002, 7.494440e+002
3.371091e+002, 7.474489e+002
3.375912e+002, 7.454770e+002
3.380733e+002, 7.428370e+002
3.385554e+002, 7.393961e+002
3.390375e+002, 7.358154e+002
3.395197e+002, 7.323459e+002
3.400018e+002, 7.290300e+002
3.404839e+002, 7.255831e+002
3.409660e+002, 7.219938e+002
3.414481e+002, 7.184386e+002
3.419302e+002, 7.153933e+002
3.424124e+002, 7.128939e+002
3.428945e+002, 7.099846e+002
3.433766e+002, 7.061859e+002
3.438587e+002, 7.017472e+002
3.443408e+002, 6.976477e+002
3.448229e+002, 6.939342e+002
3.453051e+002, 6.903705e+002
3.457872e+002, 6.867746e+002
3.462693e+002, 6.831650e+002
3.467514e+002, 6.795937e+002
3.472335e+002, 6.762566e+002
3.477156e+002, 6.727828e+002
3.481978e+002, 6.684041e+002
3.486799e+002, 6.631783e+002
3.491620e+002, 6.577646e+002
3.496441e+002, 6.522823e+002
3.501262e+002, 6.469664e+002
3.506083e+002, 6.425912e+002
3.510905e+002, 6.394370e+002
3.515726e+002, 6.363799e+002
3.520547e+002, 6.319701e+002
3.525368e+002, 6.265319e+002
3.530189e+002, 6.210518e+002
3.535010e+002, 6.158705e+002
3.539832e+002, 6.109874e+002
3.544653e+002, 6.065311e+002
3.549474e+002, 6.024797e+002
3.554295e+002, 5.984256e+002
3.559116e+002, 5.940548e+002
3.563937e+002, 5.894396e+002
3.568759e+002, 5.847538e+002
3.573580e+002, 5.797975e+002
3.578401e+002, 5.749568e+002
3.583222e+002, 5.705104e+002
3.588043e+002, 5.663987e+002
3.592864e+002, 5.625092e+002
3.597686e+002, 5.589865e+002
3.602507e+002, 5.555290e+002
3.607328e+002, 5.518985e+002
3.612149e+002, 5.478447e+002
3.616970e+002, 5.438871e+002
3.621791e+002, 5.405876e+002
3.626613e+002, 5.375405e+002
3.631434e+002, 5.338190e+002
3.636255e+002, 5.281967e+002
3.641076e+002, 5.225689e+002
3.645897e+002, 5.178705e+002
3.650718e+002, 5.145956e+002
3.655540e+002, 5.112053e+002
3.660361e+002, 5.072850e+002
3.665182e+002, 5.031641e+002
3.670003e+002, 4.992387e+002
3.674824e+002, 4.958863e+002
3.679645e+002, 4.924020e+002
3.684467e+002, 4.884149e+002
3.689288e+002, 4.839481e+002
3.694109e+002, 4.801271e+002
3.698930e+002, 4.775857e+002
3.703751e+002, 4.752174e+002
3.708572e+002, 4.722375e+002
3.713394e+002, 4.680983e+002
3.718215e+002, 4.643510e+002
3.723036e+002, 4.612664e+002
3.727857e+002, 4.586473e+002
3.732678e+002, 4.556832e+002
3.737499e+002, 4.519770e+002
3.742321e+002, 4.485693e+002
3.747142e+002, 4.460847e+002
3.751963e+002, 4.447967e+002
3.756784e+002, 4.431643e+002
3.761605e+002, 4.411112e+002
3.766426e+002, 4.388088e+002
3.771248e+002, 4.365254e+002
3.776069e+002, 4.341971e+002
3.780890e+002, 4.321245e+002
3.785711e+002, 4.305507e+002
3.790532e+002, 4.293607e+002
3.795353e+002, 4.277212e+002
3.800175e+002, 4.255211e+002
3.804996e+002, 4.233643e+002
3.809817e+002, 4.219254e+002
3.814638e+002, 4.211218e+002
3.819459e+002, 4.202130e+002
3.824280e+002, 4.190695e+002
3.829102e+002, 4.177264e+002
3.833923e+002, 4.161289e+002
3.838744e+002, 4.143038e+002
3.843565e+002, 4.126926e+002
3.848386e+002, 4.117268e+002
3.853207e+002, 4.111524e+002
3.858029e+002, 4.104998e+002
3.862850e+002, 4.097103e+002
3.867671e+002, 4.088643e+002
3.872492e+002, 4.081665e+002
3.877313e+002, 4.074755e+002
3.882134e+002, 4.064796e+002
3.886956e+002, 4.046502e+002
3.891777e+002, 4.027274e+002
3.896598e+002, 4.013951e+002
3.901419e+002, 4.006524e+002
3.906240e+002, 4.001100e+002
3.911061e+002, 3.997607e+002
3.915883e+002, 3.993926e+002
3.920704e+002, 3.987517e+002
3.925525e+002, 3.974437e+002
3.930346e+002, 3.963127e+002
3.935167e+002, 3.957929e+002
3.939988e+002, 3.957489e+002
3.944810e+002, 3.957854e+002
3.949631e+002, 3.960605e+002
3.954452e+002, 3.961533e+002
3.959273e+002, 3.957890e+002
3.964094e+002, 3.947676e+002
3.968915e+002, 3.938257e+002
3.973737e+002, 3.929485e+002
3.978558e+002, 3.922657e+002
3.983379e+002, 3.919368e+002
3.988200e+002, 3.926597e+002
3.993021e+002, 3.929991e+002
3.997842e+002, 3.925128e+002
4.002664e+002, 3.912015e+002
4.007485e+002, 3.901424e+002
4.012306e+002, 3.892534e+002
4.017127e+002, 3.886985e+002
4.021948e+002, 3.886626e+002
4.026769e+002, 3.895866e+002
4.031591e+002, 3.900223e+002
4.036412e+002, 3.896298e+002
4.041233e+002, 3.888163e+002
4.046054e+002, 3.886530e+002
4.050875e+002, 3.893568e+002
4.055696e+002, 3.900859e+002
4.060518e+002, 3.905799e+002
4.065339e+002, 3.908476e+002
4.070160e+002, 3.905584e+002
4.074981e+002, 3.895429e+002
4.079802e+002, 3.884783e+002
4.084623e+002, 3.882815e+002
4.089445e+002, 3.889381e+002
4.094266e+002, 3.894383e+002
4.099087e+002, 3.894482e+002
4.103908e+002, 3.892050e+002
4.108729e+002, 3.893101e+002
4.113550e+002, 3.897557e+002
4.118372e+002, 3.901763e+002
4.123193e+002, 3.902321e+002
4.128014e+002, 3.900775e+002
4.132835e+002, 3.900790e+002
4.137656e+002, 3.902980e+002
4.142477e+002, 3.906117e+002
