##NAMES=Schorlomite
##RRUFFID=R140772
##IDEAL CHEMISTRY=Ca_3_Ti^4+^_2_(Fe^3+^_2_Si)O_12_
##LOCALITY=Graulay, Hillesheim, Eifel, Rhineland-Palatinate, Germany
##OWNER=RRUFF
##SOURCE=Ch. and H. Sch√§fer
##DESCRIPTION=Associated with noonkanbahnite, pyroxene and oxyphlogopite.
##STATUS=The identification of this mineral has been confirmed only by single crystal X-ray diffraction.
##URL=rruff.info/R140772
9.059570e+001, 5.612292e+002
9.107782e+001, 5.573256e+002
9.155994e+001, 5.559649e+002
9.204205e+001, 5.588582e+002
9.252417e+001, 5.631422e+002
9.300629e+001, 5.678002e+002
9.348840e+001, 5.695862e+002
9.397052e+001, 5.651962e+002
9.445264e+001, 5.540404e+002
9.493475e+001, 5.441012e+002
9.541687e+001, 5.344936e+002
9.589898e+001, 5.257824e+002
9.638110e+001, 5.176202e+002
9.686321e+001, 5.095526e+002
9.734533e+001, 5.010100e+002
9.782745e+001, 4.913997e+002
9.830956e+001, 4.834812e+002
9.879168e+001, 4.772714e+002
9.927380e+001, 4.722225e+002
9.975591e+001, 4.685002e+002
1.002380e+002, 4.657253e+002
1.007201e+002, 4.630727e+002
1.012023e+002, 4.600243e+002
1.016844e+002, 4.566927e+002
1.021665e+002, 4.536232e+002
1.026486e+002, 4.505817e+002
1.031307e+002, 4.478485e+002
1.036128e+002, 4.457020e+002
1.040950e+002, 4.441278e+002
1.045771e+002, 4.429732e+002
1.050592e+002, 4.420518e+002
1.055413e+002, 4.413308e+002
1.060234e+002, 4.408546e+002
1.065055e+002, 4.404356e+002
1.069877e+002, 4.402128e+002
1.074698e+002, 4.410003e+002
1.079519e+002, 4.443639e+002
1.084340e+002, 4.467029e+002
1.089161e+002, 4.461909e+002
1.093982e+002, 4.434589e+002
1.098804e+002, 4.401012e+002
1.103625e+002, 4.372820e+002
1.108446e+002, 4.348691e+002
1.113267e+002, 4.337871e+002
1.118088e+002, 4.348444e+002
1.122909e+002, 4.364265e+002
1.127731e+002, 4.379829e+002
1.132552e+002, 4.393381e+002
1.137373e+002, 4.404898e+002
1.142194e+002, 4.413658e+002
1.147015e+002, 4.413063e+002
1.151836e+002, 4.422920e+002
1.156658e+002, 4.452666e+002
1.161479e+002, 4.488065e+002
1.166300e+002, 4.515043e+002
1.171121e+002, 4.528489e+002
1.175942e+002, 4.533350e+002
1.180763e+002, 4.540626e+002
1.185584e+002, 4.551662e+002
1.190406e+002, 4.561751e+002
1.195227e+002, 4.569134e+002
1.200048e+002, 4.574431e+002
1.204869e+002, 4.579223e+002
1.209690e+002, 4.583569e+002
1.214511e+002, 4.588329e+002
1.219333e+002, 4.594178e+002
1.224154e+002, 4.599463e+002
1.228975e+002, 4.608499e+002
1.233796e+002, 4.628572e+002
1.238617e+002, 4.661655e+002
1.243438e+002, 4.689146e+002
1.248260e+002, 4.698848e+002
1.253081e+002, 4.699185e+002
1.257902e+002, 4.695787e+002
1.262723e+002, 4.689429e+002
1.267544e+002, 4.681756e+002
1.272365e+002, 4.676097e+002
1.277187e+002, 4.671070e+002
1.282008e+002, 4.671119e+002
1.286829e+002, 4.681066e+002
1.291650e+002, 4.695284e+002
1.296471e+002, 4.706088e+002
1.301292e+002, 4.708158e+002
1.306114e+002, 4.702238e+002
1.310935e+002, 4.699010e+002
1.315756e+002, 4.702958e+002
1.320577e+002, 4.705478e+002
1.325398e+002, 4.704100e+002
1.330219e+002, 4.699438e+002
1.335041e+002, 4.693335e+002
1.339862e+002, 4.687163e+002
1.344683e+002, 4.680659e+002
1.349504e+002, 4.676171e+002
1.354325e+002, 4.676636e+002
1.359146e+002, 4.676409e+002
1.363968e+002, 4.669573e+002
1.368789e+002, 4.656612e+002
1.373610e+002, 4.645893e+002
1.378431e+002, 4.648598e+002
1.383252e+002, 4.668687e+002
1.388073e+002, 4.681958e+002
1.392895e+002, 4.683215e+002
1.397716e+002, 4.678538e+002
1.402537e+002, 4.675299e+002
1.407358e+002, 4.675566e+002
1.412179e+002, 4.675469e+002
1.417000e+002, 4.668722e+002
1.421821e+002, 4.655978e+002
1.426643e+002, 4.644066e+002
1.431464e+002, 4.635055e+002
1.436285e+002, 4.628954e+002
1.441106e+002, 4.626132e+002
1.445927e+002, 4.628782e+002
1.450748e+002, 4.632499e+002
1.455570e+002, 4.632863e+002
1.460391e+002, 4.629855e+002
1.465212e+002, 4.626877e+002
1.470033e+002, 4.627621e+002
1.474854e+002, 4.632671e+002
1.479675e+002, 4.635693e+002
1.484497e+002, 4.635154e+002
1.489318e+002, 4.632289e+002
1.494139e+002, 4.625522e+002
1.498960e+002, 4.615011e+002
1.503781e+002, 4.605504e+002
1.508602e+002, 4.604393e+002
1.513424e+002, 4.614632e+002
1.518245e+002, 4.627623e+002
1.523066e+002, 4.647183e+002
1.527887e+002, 4.666065e+002
1.532708e+002, 4.677089e+002
1.537529e+002, 4.677780e+002
1.542351e+002, 4.673231e+002
1.547172e+002, 4.676236e+002
1.551993e+002, 4.696830e+002
1.556814e+002, 4.713481e+002
1.561635e+002, 4.725514e+002
1.566456e+002, 4.733047e+002
1.571278e+002, 4.735876e+002
1.576099e+002, 4.733803e+002
1.580920e+002, 4.727480e+002
1.585741e+002, 4.719355e+002
1.590562e+002, 4.708768e+002
1.595383e+002, 4.697401e+002
1.600205e+002, 4.685081e+002
1.605026e+002, 4.672228e+002
1.609847e+002, 4.659989e+002
1.614668e+002, 4.649502e+002
1.619489e+002, 4.639851e+002
1.624310e+002, 4.627516e+002
1.629131e+002, 4.609405e+002
1.633953e+002, 4.591809e+002
1.638774e+002, 4.579699e+002
1.643595e+002, 4.572448e+002
1.648416e+002, 4.563945e+002
1.653237e+002, 4.549393e+002
1.658058e+002, 4.531101e+002
1.662880e+002, 4.514532e+002
1.667701e+002, 4.499554e+002
1.672522e+002, 4.486992e+002
1.677343e+002, 4.479454e+002
1.682164e+002, 4.478442e+002
1.686985e+002, 4.475368e+002
1.691807e+002, 4.459818e+002
1.696628e+002, 4.440406e+002
1.701449e+002, 4.428401e+002
1.706270e+002, 4.430851e+002
1.711091e+002, 4.441672e+002
1.715912e+002, 4.447057e+002
1.720734e+002, 4.445543e+002
1.725555e+002, 4.440693e+002
1.730376e+002, 4.432677e+002
1.735197e+002, 4.423107e+002
1.740018e+002, 4.413975e+002
1.744839e+002, 4.406002e+002
1.749661e+002, 4.399511e+002
1.754482e+002, 4.396760e+002
1.759303e+002, 4.401854e+002
1.764124e+002, 4.406381e+002
1.768945e+002, 4.407537e+002
1.773766e+002, 4.406568e+002
1.778588e+002, 4.406154e+002
1.783409e+002, 4.408723e+002
1.788230e+002, 4.414334e+002
1.793051e+002, 4.414791e+002
1.797872e+002, 4.401193e+002
1.802693e+002, 4.391149e+002
1.807515e+002, 4.392010e+002
1.812336e+002, 4.401327e+002
1.817157e+002, 4.411831e+002
1.821978e+002, 4.417134e+002
1.826799e+002, 4.416324e+002
1.831620e+002, 4.419217e+002
1.836441e+002, 4.429017e+002
1.841263e+002, 4.438759e+002
1.846084e+002, 4.444420e+002
1.850905e+002, 4.446328e+002
1.855726e+002, 4.447873e+002
1.860547e+002, 4.452269e+002
1.865368e+002, 4.460050e+002
1.870190e+002, 4.466525e+002
1.875011e+002, 4.470737e+002
1.879832e+002, 4.474355e+002
1.884653e+002, 4.478374e+002
1.889474e+002, 4.482930e+002
1.894296e+002, 4.488038e+002
1.899117e+002, 4.493441e+002
1.903938e+002, 4.499250e+002
1.908759e+002, 4.507127e+002
1.913580e+002, 4.518449e+002
1.918401e+002, 4.531364e+002
1.923223e+002, 4.544626e+002
1.928044e+002, 4.558516e+002
1.932865e+002, 4.570625e+002
1.937686e+002, 4.576634e+002
1.942507e+002, 4.578426e+002
1.947328e+002, 4.581600e+002
1.952150e+002, 4.589119e+002
1.956971e+002, 4.598959e+002
1.961792e+002, 4.606435e+002
1.966613e+002, 4.609365e+002
1.971434e+002, 4.614010e+002
1.976255e+002, 4.627197e+002
1.981077e+002, 4.645943e+002
1.985898e+002, 4.662383e+002
1.990719e+002, 4.671530e+002
1.995540e+002, 4.674858e+002
2.000361e+002, 4.678519e+002
2.005182e+002, 4.682601e+002
2.010004e+002, 4.687180e+002
2.014825e+002, 4.690699e+002
2.019646e+002, 4.694423e+002
2.024467e+002, 4.701529e+002
2.029288e+002, 4.716682e+002
2.034109e+002, 4.739106e+002
2.038930e+002, 4.754425e+002
2.043752e+002, 4.755294e+002
2.048573e+002, 4.756183e+002
2.053394e+002, 4.762791e+002
2.058215e+002, 4.773924e+002
2.063036e+002, 4.786083e+002
2.067857e+002, 4.796954e+002
2.072679e+002, 4.806637e+002
2.077500e+002, 4.813158e+002
2.082321e+002, 4.813399e+002
2.087142e+002, 4.813125e+002
2.091963e+002, 4.813543e+002
2.096784e+002, 4.814888e+002
2.101606e+002, 4.817188e+002
2.106427e+002, 4.820719e+002
2.111248e+002, 4.825777e+002
2.116069e+002, 4.829089e+002
2.120890e+002, 4.824987e+002
2.125711e+002, 4.824442e+002
2.130533e+002, 4.834964e+002
2.135354e+002, 4.853922e+002
2.140175e+002, 4.872079e+002
2.144996e+002, 4.880215e+002
2.149817e+002, 4.875765e+002
2.154638e+002, 4.879853e+002
2.159460e+002, 4.901408e+002
2.164281e+002, 4.921667e+002
2.169102e+002, 4.928907e+002
2.173923e+002, 4.924821e+002
2.178744e+002, 4.920553e+002
2.183565e+002, 4.926348e+002
2.188387e+002, 4.943688e+002
2.193208e+002, 4.960197e+002
2.198029e+002, 4.975029e+002
2.202850e+002, 4.989882e+002
2.207671e+002, 5.007012e+002
2.212492e+002, 5.025934e+002
2.217314e+002, 5.042437e+002
2.222135e+002, 5.051240e+002
2.226956e+002, 5.051989e+002
2.231777e+002, 5.062177e+002
2.236598e+002, 5.087549e+002
2.241419e+002, 5.117963e+002
2.246240e+002, 5.146738e+002
2.251062e+002, 5.173422e+002
2.255883e+002, 5.199143e+002
2.260704e+002, 5.224847e+002
2.265525e+002, 5.250296e+002
2.270346e+002, 5.274790e+002
2.275167e+002, 5.297239e+002
2.279989e+002, 5.319333e+002
2.284810e+002, 5.340977e+002
2.289631e+002, 5.361989e+002
2.294452e+002, 5.387027e+002
2.299273e+002, 5.422697e+002
2.304094e+002, 5.465003e+002
2.308916e+002, 5.502921e+002
2.313737e+002, 5.529071e+002
2.318558e+002, 5.553008e+002
2.323379e+002, 5.588564e+002
2.328200e+002, 5.638048e+002
2.333021e+002, 5.682750e+002
2.337843e+002, 5.703412e+002
2.342664e+002, 5.712856e+002
2.347485e+002, 5.730398e+002
2.352306e+002, 5.761761e+002
2.357127e+002, 5.802538e+002
2.361948e+002, 5.849159e+002
2.366770e+002, 5.903827e+002
2.371591e+002, 5.956273e+002
2.376412e+002, 5.996469e+002
2.381233e+002, 6.033167e+002
2.386054e+002, 6.078076e+002
2.390875e+002, 6.139259e+002
2.395697e+002, 6.203726e+002
2.400518e+002, 6.247011e+002
2.405339e+002, 6.260983e+002
2.410160e+002, 6.280538e+002
2.414981e+002, 6.323920e+002
2.419802e+002, 6.377235e+002
2.424624e+002, 6.428550e+002
2.429445e+002, 6.473839e+002
2.434266e+002, 6.514939e+002
2.439087e+002, 6.554922e+002
2.443908e+002, 6.594026e+002
2.448729e+002, 6.630988e+002
2.453550e+002, 6.662428e+002
2.458372e+002, 6.693148e+002
2.463193e+002, 6.726582e+002
2.468014e+002, 6.763837e+002
2.472835e+002, 6.805303e+002
2.477656e+002, 6.855378e+002
2.482477e+002, 6.923649e+002
2.487299e+002, 6.976232e+002
2.492120e+002, 6.998416e+002
2.496941e+002, 7.009911e+002
2.501762e+002, 7.024479e+002
2.506583e+002, 7.046498e+002
2.511404e+002, 7.072680e+002
2.516226e+002, 7.098924e+002
2.521047e+002, 7.128467e+002
2.525868e+002, 7.149827e+002
2.530689e+002, 7.155414e+002
2.535510e+002, 7.158222e+002
2.540331e+002, 7.168002e+002
2.545153e+002, 7.186973e+002
2.549974e+002, 7.209951e+002
2.554795e+002, 7.228884e+002
2.559616e+002, 7.240488e+002
2.564437e+002, 7.255132e+002
2.569258e+002, 7.279046e+002
2.574080e+002, 7.301298e+002
2.578901e+002, 7.312567e+002
2.583722e+002, 7.312295e+002
2.588543e+002, 7.309066e+002
2.593364e+002, 7.314539e+002
2.598185e+002, 7.332126e+002
2.603007e+002, 7.350413e+002
2.607828e+002, 7.370889e+002
2.612649e+002, 7.390936e+002
2.617470e+002, 7.406877e+002
2.622291e+002, 7.419556e+002
2.627112e+002, 7.434516e+002
2.631934e+002, 7.459219e+002
2.636755e+002, 7.498632e+002
2.641576e+002, 7.529344e+002
2.646397e+002, 7.545753e+002
2.651218e+002, 7.559857e+002
2.656039e+002, 7.576121e+002
2.660861e+002, 7.595822e+002
2.665682e+002, 7.620176e+002
2.670503e+002, 7.651407e+002
2.675324e+002, 7.691641e+002
2.680145e+002, 7.723938e+002
2.684966e+002, 7.740684e+002
2.689788e+002, 7.758076e+002
2.694609e+002, 7.785195e+002
2.699430e+002, 7.820619e+002
2.704251e+002, 7.856498e+002
2.709072e+002, 7.885970e+002
2.713893e+002, 7.908420e+002
2.718715e+002, 7.937842e+002
2.723536e+002, 7.979708e+002
2.728357e+002, 8.021501e+002
2.733178e+002, 8.056942e+002
2.737999e+002, 8.087648e+002
2.742820e+002, 8.118351e+002
2.747642e+002, 8.151863e+002
2.752463e+002, 8.188306e+002
2.757284e+002, 8.228959e+002
2.762105e+002, 8.283893e+002
2.766926e+002, 8.331442e+002
2.771747e+002, 8.358564e+002
2.776568e+002, 8.372816e+002
2.781389e+002, 8.391207e+002
2.786211e+002, 8.423425e+002
2.791032e+002, 8.466093e+002
2.795853e+002, 8.505255e+002
2.800674e+002, 8.541203e+002
2.805495e+002, 8.574374e+002
2.810316e+002, 8.604254e+002
2.815138e+002, 8.631540e+002
2.819959e+002, 8.657970e+002
2.824780e+002, 8.684616e+002
2.829601e+002, 8.709824e+002
2.834422e+002, 8.727830e+002
2.839243e+002, 8.734037e+002
2.844065e+002, 8.743126e+002
2.848886e+002, 8.758909e+002
2.853707e+002, 8.779157e+002
2.858528e+002, 8.802000e+002
2.863349e+002, 8.827422e+002
2.868170e+002, 8.851813e+002
2.872992e+002, 8.868291e+002
2.877813e+002, 8.874436e+002
2.882634e+002, 8.881567e+002
2.887455e+002, 8.893351e+002
2.892276e+002, 8.906176e+002
2.897097e+002, 8.915469e+002
2.901919e+002, 8.920146e+002
2.906740e+002, 8.922411e+002
2.911561e+002, 8.925598e+002
2.916382e+002, 8.930427e+002
2.921203e+002, 8.929450e+002
2.926024e+002, 8.914267e+002
2.930846e+002, 8.897240e+002
2.935667e+002, 8.892028e+002
2.940488e+002, 8.900183e+002
2.945309e+002, 8.910969e+002
2.950130e+002, 8.914716e+002
2.954951e+002, 8.911116e+002
2.959773e+002, 8.908088e+002
2.964594e+002, 8.904404e+002
2.969415e+002, 8.902402e+002
2.974236e+002, 8.904090e+002
2.979057e+002, 8.909390e+002
2.983878e+002, 8.916974e+002
2.988700e+002, 8.926862e+002
2.993521e+002, 8.938301e+002
2.998342e+002, 8.947072e+002
3.003163e+002, 8.953298e+002
3.007984e+002, 8.956738e+002
3.012805e+002, 8.955175e+002
3.017627e+002, 8.949903e+002
3.022448e+002, 8.946213e+002
3.027269e+002, 8.945643e+002
3.032090e+002, 8.949821e+002
3.036911e+002, 8.962517e+002
3.041732e+002, 8.987010e+002
3.046554e+002, 9.013741e+002
3.051375e+002, 9.040234e+002
3.056196e+002, 9.065923e+002
3.061017e+002, 9.088248e+002
3.065838e+002, 9.104728e+002
3.070659e+002, 9.120313e+002
3.075481e+002, 9.144691e+002
3.080302e+002, 9.178147e+002
3.085123e+002, 9.215576e+002
3.089944e+002, 9.256571e+002
3.094765e+002, 9.300192e+002
3.099586e+002, 9.344771e+002
3.104408e+002, 9.389902e+002
3.109229e+002, 9.435013e+002
3.114050e+002, 9.477465e+002
3.118871e+002, 9.516842e+002
3.123692e+002, 9.561734e+002
3.128513e+002, 9.613569e+002
3.133335e+002, 9.671825e+002
3.138156e+002, 9.738168e+002
3.142977e+002, 9.812913e+002
3.147798e+002, 9.889543e+002
3.152619e+002, 9.962933e+002
3.157440e+002, 1.003321e+003
3.162262e+002, 1.010179e+003
3.167083e+002, 1.016337e+003
3.171904e+002, 1.022707e+003
3.176725e+002, 1.030301e+003
3.181546e+002, 1.039075e+003
3.186367e+002, 1.047738e+003
3.191188e+002, 1.055388e+003
3.196010e+002, 1.062201e+003
3.200831e+002, 1.069370e+003
3.205652e+002, 1.077105e+003
3.210473e+002, 1.085009e+003
3.215294e+002, 1.093308e+003
3.220115e+002, 1.101696e+003
3.224937e+002, 1.109035e+003
3.229758e+002, 1.114385e+003
3.234579e+002, 1.118790e+003
3.239400e+002, 1.124888e+003
3.244221e+002, 1.133542e+003
3.249042e+002, 1.141756e+003
3.253864e+002, 1.148464e+003
3.258685e+002, 1.154035e+003
3.263506e+002, 1.159309e+003
3.268327e+002, 1.164622e+003
3.273148e+002, 1.169446e+003
3.277969e+002, 1.172797e+003
3.282791e+002, 1.174575e+003
3.287612e+002, 1.175977e+003
3.292433e+002, 1.177495e+003
3.297254e+002, 1.178614e+003
3.302075e+002, 1.178697e+003
3.306896e+002, 1.177635e+003
3.311718e+002, 1.175785e+003
3.316539e+002, 1.173344e+003
3.321360e+002, 1.170256e+003
3.326181e+002, 1.167212e+003
3.331002e+002, 1.164920e+003
3.335823e+002, 1.162180e+003
3.340645e+002, 1.157973e+003
3.345466e+002, 1.152383e+003
3.350287e+002, 1.146206e+003
3.355108e+002, 1.140030e+003
3.359929e+002, 1.133719e+003
3.364750e+002, 1.126673e+003
3.369572e+002, 1.118701e+003
3.374393e+002, 1.110219e+003
3.379214e+002, 1.100909e+003
3.384035e+002, 1.091174e+003
3.388856e+002, 1.082205e+003
3.393677e+002, 1.074701e+003
3.398499e+002, 1.067961e+003
3.403320e+002, 1.060023e+003
3.408141e+002, 1.049948e+003
3.412962e+002, 1.040579e+003
3.417783e+002, 1.033180e+003
3.422604e+002, 1.026513e+003
3.427426e+002, 1.018907e+003
3.432247e+002, 1.009913e+003
3.437068e+002, 1.000429e+003
3.441889e+002, 9.917160e+002
3.446710e+002, 9.841347e+002
3.451531e+002, 9.763876e+002
3.456353e+002, 9.685836e+002
3.461174e+002, 9.606016e+002
3.465995e+002, 9.523578e+002
3.470816e+002, 9.438920e+002
3.475637e+002, 9.351082e+002
3.480458e+002, 9.259449e+002
3.485280e+002, 9.163344e+002
3.490101e+002, 9.073095e+002
3.494922e+002, 8.991491e+002
3.499743e+002, 8.911915e+002
3.504564e+002, 8.832526e+002
3.509385e+002, 8.753672e+002
3.514207e+002, 8.677105e+002
3.519028e+002, 8.604948e+002
3.523849e+002, 8.534591e+002
3.528670e+002, 8.453464e+002
3.533491e+002, 8.346710e+002
3.538312e+002, 8.247919e+002
3.543134e+002, 8.162680e+002
3.547955e+002, 8.087043e+002
3.552776e+002, 8.017737e+002
3.557597e+002, 7.953456e+002
3.562418e+002, 7.891000e+002
3.567239e+002, 7.824521e+002
3.572061e+002, 7.753243e+002
3.576882e+002, 7.678757e+002
3.581703e+002, 7.596846e+002
3.586524e+002, 7.515014e+002
3.591345e+002, 7.438986e+002
3.596166e+002, 7.368672e+002
3.600987e+002, 7.300956e+002
3.605808e+002, 7.232275e+002
3.610630e+002, 7.162195e+002
3.615451e+002, 7.095120e+002
3.620272e+002, 7.035473e+002
3.625093e+002, 6.974189e+002
3.629914e+002, 6.906457e+002
3.634735e+002, 6.834746e+002
3.639557e+002, 6.765580e+002
3.644378e+002, 6.703044e+002
3.649199e+002, 6.645125e+002
3.654020e+002, 6.583005e+002
3.658841e+002, 6.511459e+002
3.663662e+002, 6.442985e+002
3.668484e+002, 6.379573e+002
3.673305e+002, 6.319731e+002
3.678126e+002, 6.261803e+002
3.682947e+002, 6.205533e+002
3.687768e+002, 6.151568e+002
3.692589e+002, 6.101683e+002
3.697411e+002, 6.059050e+002
3.702232e+002, 6.011924e+002
3.707053e+002, 5.959337e+002
3.711874e+002, 5.902892e+002
3.716695e+002, 5.839286e+002
3.721516e+002, 5.771161e+002
3.726338e+002, 5.705868e+002
3.731159e+002, 5.650951e+002
3.735980e+002, 5.606170e+002
3.740801e+002, 5.560494e+002
3.745622e+002, 5.513287e+002
3.750443e+002, 5.465742e+002
3.755265e+002, 5.416584e+002
3.760086e+002, 5.367639e+002
3.764907e+002, 5.322247e+002
3.769728e+002, 5.282034e+002
3.774549e+002, 5.245505e+002
3.779370e+002, 5.209849e+002
3.784192e+002, 5.176249e+002
3.789013e+002, 5.140120e+002
3.793834e+002, 5.096635e+002
3.798655e+002, 5.052299e+002
3.803476e+002, 5.012752e+002
3.808297e+002, 4.979068e+002
3.813119e+002, 4.946620e+002
3.817940e+002, 4.909764e+002
3.822761e+002, 4.868608e+002
3.827582e+002, 4.831815e+002
3.832403e+002, 4.800661e+002
3.837224e+002, 4.774479e+002
3.842046e+002, 4.754178e+002
3.846867e+002, 4.738293e+002
3.851688e+002, 4.721070e+002
3.856509e+002, 4.699757e+002
3.861330e+002, 4.675092e+002
3.866151e+002, 4.646904e+002
3.870973e+002, 4.613184e+002
3.875794e+002, 4.583479e+002
3.880615e+002, 4.567100e+002
3.885436e+002, 4.557097e+002
3.890257e+002, 4.543973e+002
3.895078e+002, 4.525613e+002
3.899900e+002, 4.504340e+002
3.904721e+002, 4.479673e+002
3.909542e+002, 4.452475e+002
3.914363e+002, 4.431024e+002
3.919184e+002, 4.420165e+002
3.924005e+002, 4.413666e+002
3.928827e+002, 4.402581e+002
3.933648e+002, 4.386639e+002
3.938469e+002, 4.371065e+002
3.943290e+002, 4.357967e+002
3.948111e+002, 4.346537e+002
3.952932e+002, 4.336937e+002
3.957754e+002, 4.329544e+002
3.962575e+002, 4.319261e+002
3.967396e+002, 4.299063e+002
3.972217e+002, 4.270351e+002
3.977038e+002, 4.249214e+002
3.981859e+002, 4.240174e+002
3.986681e+002, 4.235345e+002
3.991501e+002, 4.231502e+002
3.996323e+002, 4.227857e+002
4.001144e+002, 4.221903e+002
4.005965e+002, 4.211876e+002
4.010786e+002, 4.199536e+002
4.015607e+002, 4.190282e+002
4.020428e+002, 4.185876e+002
4.025250e+002, 4.180858e+002
4.030071e+002, 4.173012e+002
4.034892e+002, 4.164610e+002
4.039713e+002, 4.158528e+002
4.044534e+002, 4.155361e+002
4.049355e+002, 4.153298e+002
4.054177e+002, 4.150132e+002
4.058998e+002, 4.145350e+002
4.063819e+002, 4.142301e+002
4.068640e+002, 4.140042e+002
4.073461e+002, 4.140149e+002
4.078282e+002, 4.146541e+002
4.083104e+002, 4.156088e+002
4.087925e+002, 4.161106e+002
4.092746e+002, 4.156466e+002
4.097567e+002, 4.144406e+002
4.102388e+002, 4.135125e+002
4.107209e+002, 4.128573e+002
4.112031e+002, 4.125360e+002
4.116852e+002, 4.127742e+002
4.121673e+002, 4.132193e+002
4.126494e+002, 4.135935e+002
4.131315e+002, 4.138031e+002
4.136136e+002, 4.138405e+002
4.140958e+002, 4.136037e+002
4.145779e+002, 4.129063e+002
4.150600e+002, 4.126869e+002
4.155421e+002, 4.135432e+002
