##NAMES=Schorlomite
##RRUFFID=R060125
##IDEAL CHEMISTRY=Ca_3_Ti^4+^_2_(Fe^3+^_2_Si)O_12_
##LOCALITY=Magnet Cove, Arkansas, USA
##OWNER=RRUFF
##SOURCE=University of Arizona Mineral Museum
##DESCRIPTION=Black massive
##STATUS=The identification of this mineral has been confirmed by X-ray diffraction and chemical analysis
##URL=rruff.info/R060125
##MEASURED CHEMISTRY=Ca_3.00_(Ti^4+^_0.74_Zr_0.44_Fe^3+^_0.38_Al_0.21_Mg_0.20_Mn_0.03_)_Σ=2_[(Si_0.68_Fe^3+^_0.32_)_Σ=1_O_4_]_3_
93.30109, 0.0000000E+00
93.78320, 101.7526
94.26532, 102.2980
94.74744, 102.6653
95.22955, 102.5954
95.71167, 102.4656
96.19379, 102.3388
96.67590, 102.5641
97.15802, 102.4507
97.64014, 101.6865
98.12225, 100.5586
98.60437, 99.55672
99.08649, 98.85696
99.56860, 98.41669
100.0507, 98.17133
100.5328, 98.03545
101.0150, 97.75903
101.4971, 97.10989
101.9792, 96.07565
102.4613, 95.10876
102.9434, 94.34301
103.4255, 93.70841
103.9077, 93.16809
104.3898, 92.70424
104.8719, 92.33292
105.3540, 92.09390
105.8361, 92.02064
106.3182, 92.01981
106.8004, 92.24849
107.2825, 92.47490
107.7646, 92.39433
108.2467, 91.79430
108.7288, 90.71874
109.2109, 89.78279
109.6931, 89.00517
110.1752, 88.32941
110.6573, 87.69508
111.1394, 87.13894
111.6215, 86.76698
112.1036, 86.69413
112.5858, 86.97286
113.0679, 87.19196
113.5500, 87.25803
114.0321, 87.33088
114.5142, 87.59292
114.9964, 88.07165
115.4785, 88.51055
115.9606, 88.54536
116.4427, 88.20208
116.9248, 87.88306
117.4069, 87.61436
117.8891, 87.43620
118.3712, 87.45812
118.8533, 87.78498
119.3354, 88.19426
119.8175, 88.50915
120.2996, 88.73245
120.7818, 88.84370
121.2639, 88.71850
121.7460, 88.33913
122.2281, 88.20839
122.7102, 88.65975
123.1923, 89.23833
123.6745, 89.79846
124.1566, 90.29308
124.6387, 90.63100
125.1208, 90.61851
125.6029, 89.94743
126.0850, 89.58620
126.5672, 89.74548
127.0493, 90.10654
127.5314, 90.44762
128.0135, 90.67725
128.4956, 90.80296
128.9777, 90.84715
129.4599, 90.60172
129.9420, 90.50826
130.4241, 90.79212
130.9062, 91.21918
131.3883, 91.41160
131.8704, 91.13087
132.3526, 90.49099
132.8347, 90.14259
133.3168, 90.23038
133.7989, 90.38859
134.2810, 90.47586
134.7632, 90.50301
135.2453, 90.54267
135.7274, 90.66617
136.2095, 90.83375
136.6916, 90.91090
137.1737, 90.80593
137.6559, 90.65909
138.1380, 90.61562
138.6201, 90.68926
139.1022, 90.80210
139.5843, 90.92976
140.0664, 91.06056
140.5486, 91.17603
141.0307, 91.28087
141.5128, 91.36378
141.9949, 91.38466
142.4770, 91.30922
142.9591, 91.21764
143.4413, 91.11152
143.9234, 91.01662
144.4055, 90.97366
144.8876, 90.99915
145.3697, 91.09216
145.8518, 91.32035
146.3340, 92.04395
146.8161, 92.58481
147.2982, 92.52577
147.7803, 92.03933
148.2624, 91.65607
148.7445, 91.96047
149.2267, 93.23566
149.7088, 93.99570
150.1909, 94.00049
150.6730, 93.81062
151.1551, 93.70279
151.6372, 93.72832
152.1194, 93.80233
152.6015, 93.81377
153.0836, 93.70463
153.5657, 93.70684
154.0478, 93.86621
154.5299, 94.11404
155.0121, 94.40104
155.4942, 94.71806
155.9763, 95.03298
156.4584, 95.27235
156.9405, 95.42089
157.4226, 95.63380
157.9048, 96.10433
158.3869, 96.66256
158.8690, 96.92039
159.3511, 96.69492
159.8332, 96.25311
160.3153, 95.89450
160.7975, 95.61248
161.2796, 95.43533
161.7617, 95.37778
162.2438, 95.43972
162.7259, 95.63514
163.2081, 96.16602
163.6902, 96.66954
164.1723, 96.89491
164.6544, 96.81872
165.1365, 96.53060
165.6186, 96.06017
166.1008, 95.34375
166.5829, 94.74557
167.0650, 94.24651
167.5471, 93.93147
168.0292, 93.99002
168.5113, 94.44014
168.9935, 94.97342
169.4756, 95.03362
169.9577, 94.24310
170.4398, 93.69402
170.9219, 93.66663
171.4040, 93.76855
171.8862, 93.62743
172.3683, 93.11442
172.8504, 92.43647
173.3325, 92.08842
173.8146, 92.67376
174.2967, 92.87526
174.7789, 92.36349
175.2610, 91.54716
175.7431, 90.93372
176.2252, 90.75639
176.7073, 90.84604
177.1894, 90.63737
177.6716, 89.64584
178.1537, 88.97464
178.6358, 89.06565
179.1179, 89.61027
179.6000, 90.01260
180.0821, 89.96574
180.5643, 89.59996
181.0464, 89.33350
181.5285, 89.20406
182.0106, 89.09432
182.4927, 88.95362
182.9748, 88.78697
183.4570, 88.61087
183.9391, 88.41057
184.4212, 88.22442
184.9033, 88.11441
185.3854, 88.08604
185.8675, 88.12635
186.3497, 88.28404
186.8318, 88.56541
187.3139, 88.74018
187.7960, 88.60648
188.2781, 88.34970
188.7602, 88.15891
189.2424, 88.06458
189.7245, 88.05568
190.2066, 88.15092
190.6887, 88.39437
191.1708, 88.57951
191.6530, 88.57570
192.1351, 88.50895
192.6172, 88.49004
193.0993, 88.56394
193.5814, 88.67813
194.0635, 88.69368
194.5457, 88.45322
195.0278, 88.44670
195.5099, 89.03149
195.9920, 89.74812
196.4741, 90.11244
196.9562, 89.89672
197.4384, 89.31042
197.9205, 88.96597
198.4026, 89.15041
198.8847, 89.19418
199.3668, 88.80876
199.8489, 88.31448
200.3311, 88.10783
200.8132, 88.39637
201.2953, 89.03565
201.7774, 89.45012
202.2595, 89.38472
202.7416, 89.36353
203.2238, 89.47955
203.7059, 89.66216
204.1880, 89.79194
204.6701, 89.79773
205.1522, 89.72965
205.6343, 89.81871
206.1165, 90.23171
206.5986, 90.59409
207.0807, 90.83996
207.5628, 90.97993
208.0449, 91.01945
208.5270, 90.94428
209.0092, 90.79453
209.4913, 90.73811
209.9734, 90.81087
210.4555, 90.90982
210.9376, 90.95187
211.4197, 90.98357
211.9019, 91.16226
212.3840, 91.62266
212.8661, 92.23047
213.3482, 92.61729
213.8303, 92.74369
214.3124, 92.74075
214.7946, 92.49048
215.2767, 92.08398
215.7588, 92.07377
216.2409, 92.95117
216.7230, 94.20275
217.2052, 94.87167
217.6873, 94.75710
218.1694, 94.45551
218.6515, 94.42590
219.1336, 94.65601
219.6157, 94.81069
220.0979, 94.63437
220.5800, 94.40836
221.0621, 94.45161
221.5442, 94.83379
222.0263, 95.34113
222.5084, 95.82180
222.9906, 96.28859
223.4727, 96.60384
223.9548, 96.47613
224.4369, 96.32666
224.9190, 96.54228
225.4011, 97.21296
225.8833, 97.93212
226.3654, 98.12998
226.8475, 97.64445
227.3296, 97.41733
227.8117, 97.98980
228.2938, 98.66247
228.7760, 98.98486
229.2581, 98.87058
229.7402, 98.57464
230.2223, 98.37789
230.7044, 98.21803
231.1865, 98.37455
231.6687, 99.30320
232.1508, 100.2356
232.6329, 100.6241
233.1150, 100.4001
233.5971, 99.96387
234.0792, 99.90698
234.5614, 100.4801
235.0435, 100.8115
235.5256, 100.7158
236.0077, 100.5335
236.4898, 100.4746
236.9719, 100.5736
237.4541, 100.7201
237.9362, 100.7321
238.4183, 100.4118
238.9004, 100.4687
239.3825, 101.1432
239.8646, 101.9396
240.3468, 102.5762
240.8289, 102.9997
241.3110, 103.2936
241.7931, 103.5753
242.2752, 103.9043
242.7573, 104.0042
243.2395, 103.6017
243.7216, 103.2078
244.2037, 103.1996
244.6858, 103.5926
245.1679, 104.0903
245.6501, 104.3505
246.1322, 104.2693
246.6143, 104.3815
247.0964, 104.8783
247.5785, 105.4041
248.0606, 105.7019
248.5428, 105.7628
249.0249, 105.7683
249.5070, 105.8879
249.9891, 106.1429
250.4712, 106.4106
250.9533, 106.8634
251.4355, 107.1993
251.9176, 107.1139
252.3997, 106.6391
252.8818, 106.1704
253.3639, 106.0582
253.8460, 106.3154
254.3282, 106.4439
254.8103, 106.2282
255.2924, 106.0559
255.7745, 106.3453
256.2566, 107.0415
256.7387, 107.5365
257.2209, 107.3195
257.7030, 106.4887
258.1851, 105.9173
258.6672, 105.6062
259.1493, 105.5529
259.6314, 105.9576
260.1136, 106.7496
260.5957, 107.2865
261.0778, 107.0613
261.5599, 106.3230
262.0420, 105.9332
262.5241, 106.1096
263.0063, 106.3842
263.4884, 106.4925
263.9705, 106.4347
264.4526, 106.1857
264.9347, 105.6009
265.4168, 104.9010
265.8990, 104.5065
266.3811, 104.5095
266.8632, 104.6218
267.3453, 104.6433
267.8274, 104.5888
268.3095, 104.5795
268.7917, 104.6915
269.2738, 104.8415
269.7559, 104.9261
270.2380, 104.9424
270.7201, 104.9039
271.2022, 104.7769
271.6844, 104.5819
272.1665, 104.4784
272.6486, 104.6197
273.1307, 104.7367
273.6128, 104.4291
274.0949, 103.7034
274.5771, 103.2586
275.0592, 103.8119
275.5413, 105.1535
276.0234, 106.0086
276.5055, 105.8946
276.9876, 105.6338
277.4698, 105.8674
277.9519, 106.5272
278.4340, 107.2668
278.9161, 107.9716
279.3982, 108.6084
279.8803, 109.0039
280.3625, 108.9766
280.8446, 108.9706
281.3267, 109.2773
281.8088, 109.8050
282.2909, 110.3455
282.7730, 110.7799
283.2552, 111.1399
283.7373, 111.5001
284.2194, 111.7661
284.7015, 112.2259
285.1836, 113.3025
285.6658, 114.5845
286.1479, 115.4082
286.6300, 115.3121
287.1121, 114.7296
287.5942, 114.6785
288.0764, 115.3911
288.5585, 116.0973
289.0406, 116.4959
289.5227, 116.7506
290.0048, 117.0141
290.4869, 117.3410
290.9691, 117.7088
291.4512, 118.0644
291.9333, 118.3708
292.4154, 118.7878
292.8975, 119.5477
293.3796, 120.3220
293.8618, 120.8368
294.3439, 121.0230
294.8260, 121.0550
295.3081, 121.1301
295.7902, 121.2435
296.2723, 121.4239
296.7545, 121.8152
297.2366, 122.1758
297.7187, 122.3022
298.2008, 122.2041
298.6829, 122.1201
299.1650, 122.3352
299.6472, 122.8906
300.1293, 123.3515
300.6114, 123.6452
301.0935, 123.8718
301.5756, 124.0794
302.0577, 124.2586
302.5399, 124.3675
303.0220, 124.3244
303.5041, 124.1423
303.9862, 124.1275
304.4683, 124.4241
304.9504, 124.7346
305.4326, 124.9966
305.9147, 125.1922
306.3968, 125.2881
306.8789, 125.2365
307.3610, 125.0871
307.8431, 125.0473
308.3253, 125.1254
308.8074, 125.3191
309.2895, 125.6396
309.7716, 126.0517
310.2537, 126.5449
310.7358, 127.1340
311.2180, 127.7177
311.7001, 128.0283
312.1822, 127.8820
312.6643, 127.8744
313.1464, 128.0857
313.6285, 128.4786
314.1107, 129.0855
314.5928, 129.9045
315.0749, 130.7862
315.5570, 131.5045
316.0391, 132.0093
316.5212, 132.5289
317.0034, 132.9508
317.4855, 133.5003
317.9676, 134.3853
318.4497, 135.5772
318.9318, 136.8112
319.4139, 137.7166
319.8961, 138.2110
320.3782, 139.1843
320.8603, 141.1551
321.3424, 143.1452
321.8245, 144.7026
322.3066, 145.9658
322.7888, 147.3455
323.2709, 149.1324
323.7530, 151.2881
324.2351, 153.4550
324.7172, 155.4823
325.1993, 157.7652
325.6815, 160.6519
326.1636, 163.7882
326.6457, 166.7121
327.1278, 169.1724
327.6099, 171.3168
328.0920, 173.4765
328.5742, 175.5562
329.0563, 177.8828
329.5384, 180.6486
330.0205, 183.5981
330.5026, 186.5719
330.9847, 189.5345
331.4669, 192.3823
331.9490, 194.9476
332.4311, 197.1704
332.9132, 199.3745
333.3953, 201.5068
333.8774, 203.7163
334.3596, 206.0601
334.8417, 208.5513
335.3238, 211.1763
335.8059, 214.0098
336.2880, 217.0650
336.7701, 219.8323
337.2523, 222.1611
337.7344, 224.3320
338.2165, 226.5029
338.6986, 228.6304
339.1807, 230.6278
339.6628, 232.4441
340.1450, 234.0859
340.6271, 235.5970
341.1092, 236.9881
341.5913, 238.2048
342.0735, 239.3353
342.5556, 240.2710
343.0377, 240.8557
343.5198, 241.0080
344.0019, 240.8586
344.4840, 240.5987
344.9662, 240.2256
345.4483, 239.7493
345.9304, 239.2233
346.4125, 238.5526
346.8946, 237.6510
347.3767, 236.5000
347.8589, 235.1693
348.3410, 233.6804
348.8231, 232.0317
349.3052, 230.3975
349.7873, 228.7610
350.2694, 227.1850
350.7516, 225.7565
351.2337, 224.4348
351.7158, 223.0806
352.1979, 221.5003
352.6800, 219.8072
353.1621, 218.4404
353.6443, 217.5621
354.1264, 216.6548
354.6085, 215.2594
355.0906, 213.6607
355.5727, 212.3535
356.0548, 211.6732
356.5370, 211.1451
357.0191, 210.1640
357.5012, 208.7230
357.9833, 206.9837
358.4654, 204.8287
358.9475, 202.5071
359.4297, 200.3720
359.9118, 198.5046
360.3939, 196.5547
360.8760, 194.1881
361.3581, 191.4924
361.8402, 188.8490
362.3224, 186.3309
362.8045, 183.9392
363.2866, 181.7867
363.7687, 179.8393
364.2508, 177.6462
364.7329, 174.9150
365.2151, 171.8523
365.6972, 168.7630
366.1793, 165.6473
366.6614, 162.5754
367.1435, 159.5655
367.6256, 156.6410
368.1078, 153.8873
368.5899, 151.3862
369.0720, 148.9827
369.5541, 146.5198
370.0362, 144.0224
370.5183, 141.7083
371.0005, 139.7419
371.4826, 137.9704
371.9647, 136.0307
372.4468, 133.8806
372.9289, 131.7141
373.4110, 129.6271
373.8932, 127.5706
374.3753, 125.4669
374.8574, 123.2834
375.3395, 121.1281
375.8216, 119.1333
376.3037, 117.2971
376.7859, 115.6798
377.2680, 114.5242
377.7501, 113.4281
378.2322, 111.9709
378.7143, 110.1720
379.1964, 108.4418
379.6786, 107.1016
380.1607, 106.1136
380.6428, 104.9619
381.1249, 103.5009
381.6070, 102.0725
382.0891, 100.7634
382.5713, 99.57101
383.0534, 98.53103
383.5355, 97.66783
384.0176, 96.85485
384.4997, 95.79970
384.9818, 94.22424
385.4640, 92.85574
385.9461, 91.85612
386.4282, 90.98191
386.9103, 89.99455
387.3924, 88.88327
387.8745, 87.83704
388.3567, 87.08540
388.8388, 86.67901
389.3209, 86.20723
389.8030, 85.71456
390.2851, 85.12132
390.7672, 84.30270
391.2494, 83.36574
391.7315, 82.51122
392.2136, 81.85859
392.6957, 81.37178
393.1778, 80.92398
393.6599, 80.50040
394.1421, 80.14487
394.6242, 79.83792
395.1063, 79.60547
395.5884, 79.53140
396.0706, 79.61134
396.5527, 79.68120
397.0348, 79.48329
397.5169, 78.90941
397.9990, 78.50314
398.4811, 78.42675
398.9633, 78.37804
399.4454, 78.22783
399.9275, 78.00443
400.4096, 77.80750
400.8917, 77.71793
401.3738, 77.70266
401.8560, 77.60876
402.3381, 77.37389
402.8202, 77.18087
403.3023, 77.10049
403.7844, 77.07668
404.2665, 77.06651
404.7487, 77.06072
405.2308, 77.02939
405.7129, 76.89218
406.1950, 76.63541
406.6771, 76.53168
407.1592, 76.81240
407.6414, 77.06919
408.1235, 76.93584
408.6056, 76.48158
409.0877, 76.10862
409.5698, 76.09075
410.0519, 76.31086
410.5341, 76.49352
411.0162, 76.61563
411.4983, 76.76431
411.9804, 77.09516
412.4625, 77.45993
412.9446, 77.58898
413.4268, 77.35863
413.9089, 77.02113
414.3910, 76.67453
414.8731, 76.35981
415.3552, 76.33189
415.8373, 76.79494
416.3195, 77.37322
416.8016, 77.44238
417.2837, 76.98246
417.7658, 76.62929
418.2479, 76.61565
418.7300, 76.76189
419.2122, 76.86384
419.6943, 76.90068
420.1764, 76.96096
420.6585, 77.13091
421.1406, 77.39382
421.6227, 77.55627
422.1049, 77.57483
422.5870, 77.55366
423.0691, 77.54038
423.5512, 77.51492
424.0333, 77.40965
424.5154, 77.19218
424.9976, 76.96438
425.4797, 76.92535
425.9618, 77.22043
426.4439, 77.42158
426.9260, 77.47578
427.4081, 77.48284
427.8903, 77.53867
428.3724, 77.62747
428.8545, 77.63088
429.3366, 77.42676
429.8187, 77.03275
430.3008, 76.85311
430.7830, 77.16492
431.2651, 77.39501
431.7472, 77.41683
432.2293, 77.32253
432.7114, 77.17852
433.1935, 77.01639
433.6757, 76.93718
434.1578, 77.15266
434.6399, 77.77802
435.1220, 78.28374
435.6041, 78.61744
436.0862, 78.82565
436.5684, 78.88611
437.0505, 78.82760
437.5326, 78.72618
438.0147, 78.62132
438.4968, 78.51662
438.9789, 78.41707
439.4611, 78.30273
439.9432, 78.24527
440.4253, 78.40535
440.9074, 78.57859
441.3895, 78.48949
441.8716, 78.03130
442.3538, 77.59910
442.8359, 77.66735
443.3180, 78.12607
443.8001, 78.28687
444.2822, 77.93151
444.7643, 77.40956
445.2465, 77.02596
445.7286, 76.75664
446.2107, 76.54017
446.6928, 76.41167
447.1749, 76.29287
447.6570, 76.07726
448.1392, 75.77815
448.6213, 75.54067
449.1034, 75.47690
449.5855, 75.49495
450.0677, 75.33233
450.5498, 74.95156
451.0319, 74.51380
451.5140, 74.01904
451.9961, 73.50742
452.4782, 72.97841
452.9604, 72.44640
453.4425, 72.06483
453.9246, 72.03105
454.4067, 72.40042
454.8888, 72.52567
455.3709, 72.31237
455.8531, 72.00647
456.3352, 71.54904
456.8173, 71.09087
457.2994, 70.89601
457.7815, 71.08977
458.2636, 71.48811
458.7458, 71.71974
459.2279, 71.79147
459.7100, 71.66401
460.1921, 71.15781
460.6742, 70.63062
461.1563, 70.25501
461.6385, 70.04814
462.1206, 69.97694
462.6027, 70.04410
463.0848, 70.21928
463.5669, 70.33991
464.0490, 70.36534
464.5312, 70.41627
465.0133, 70.57494
465.4954, 70.75535
465.9775, 70.86089
466.4596, 70.86536
466.9417, 70.85593
467.4239, 70.95593
467.9060, 71.13425
468.3881, 71.15429
468.8702, 70.89822
469.3523, 70.64336
469.8344, 70.62545
470.3166, 70.79462
470.7987, 71.03773
471.2808, 71.39559
471.7629, 71.76350
472.2450, 72.09201
472.7271, 72.36382
473.2093, 72.43935
473.6914, 72.18032
474.1735, 71.84037
474.6556, 71.96786
475.1377, 72.71048
475.6198, 73.33566
476.1020, 73.72210
476.5841, 73.95662
477.0662, 74.07334
477.5483, 74.09846
478.0304, 74.09516
478.5125, 74.09121
478.9947, 74.10692
479.4768, 74.32483
479.9589, 75.17254
480.4410, 75.69904
480.9231, 75.49745
481.4052, 75.06373
481.8874, 74.92603
482.3695, 75.20137
482.8516, 75.61278
483.3337, 75.80167
483.8158, 75.72056
484.2979, 75.83229
484.7801, 76.42668
485.2622, 76.88441
485.7443, 76.90088
486.2264, 76.66448
486.7085, 76.48221
487.1906, 76.48617
487.6728, 76.57751
488.1549, 76.61012
488.6370, 76.57866
489.1191, 76.59095
489.6012, 76.76660
490.0833, 76.87915
490.5655, 76.65044
491.0476, 76.14224
491.5297, 75.78413
492.0118, 75.80799
492.4939, 76.04130
492.9760, 76.29362
493.4582, 76.55938
493.9403, 76.82622
494.4224, 77.07417
494.9045, 77.33231
495.3866, 77.66509
495.8687, 78.04517
496.3509, 78.54390
496.8330, 79.21893
497.3151, 79.99816
497.7972, 80.81424
498.2793, 81.65304
498.7614, 82.52940
499.2436, 83.47538
499.7257, 84.47330
500.2078, 85.26389
500.6899, 85.42887
501.1720, 85.89475
501.6541, 86.96169
502.1363, 88.32766
502.6184, 89.71098
503.1005, 91.02023
503.5826, 92.27706
504.0647, 93.56595
504.5468, 94.93131
505.0290, 95.85240
505.5111, 95.81375
505.9932, 95.97703
506.4753, 96.90243
506.9575, 98.28211
507.4396, 99.65739
507.9217, 100.8962
508.4038, 101.9565
508.8859, 102.6543
509.3680, 103.0221
509.8502, 103.6575
510.3323, 104.8275
510.8144, 106.0833
511.2965, 107.0909
511.7786, 107.8453
512.2607, 108.2174
512.7429, 108.0475
513.2250, 107.5835
513.7071, 106.9344
514.1892, 106.1519
514.6713, 105.4296
515.1534, 104.8698
515.6356, 104.3611
516.1177, 103.7030
516.5998, 102.9598
517.0819, 101.8674
517.5640, 100.2500
518.0461, 98.42025
518.5283, 96.39711
519.0104, 94.32930
519.4925, 92.61992
519.9746, 91.57373
520.4567, 90.96520
520.9388, 89.92212
521.4210, 88.07564
521.9031, 86.48360
522.3852, 85.42697
522.8673, 84.50825
523.3494, 83.42944
523.8315, 82.19498
524.3137, 81.02593
524.7958, 80.14529
525.2779, 79.46358
525.7600, 78.68860
526.2421, 77.81417
526.7242, 76.87045
527.2064, 75.76046
527.6885, 74.65141
528.1706, 73.74008
528.6527, 73.05233
529.1348, 72.51259
529.6169, 72.13172
530.0991, 71.85484
530.5812, 71.60657
531.0633, 71.37673
531.5454, 71.14713
532.0275, 70.92878
532.5096, 70.69875
532.9918, 70.29759
533.4739, 69.54014
533.9560, 68.88026
534.4381, 68.39218
534.9202, 68.05722
535.4023, 67.92902
535.8845, 67.97654
536.3666, 67.99801
536.8487, 67.78625
537.3308, 67.34167
537.8129, 66.86831
538.2950, 66.27126
538.7772, 65.77415
539.2593, 65.40733
539.7414, 65.16938
540.2235, 65.09957
540.7056, 65.20147
541.1877, 65.32557
541.6699, 65.29133
542.1520, 65.13029
542.6341, 65.10359
543.1162, 65.32854
543.5983, 65.44232
544.0804, 65.07801
544.5626, 64.46510
545.0447, 64.03587
545.5268, 63.93042
546.0089, 63.85588
546.4910, 63.65378
546.9731, 63.36030
547.4553, 63.01295
547.9374, 62.61638
548.4195, 62.28466
548.9016, 62.14785
549.3837, 62.21180
549.8658, 62.16883
550.3480, 62.01026
550.8301, 61.77644
551.3122, 61.42010
551.7943, 61.02113
552.2764, 60.70309
552.7585, 60.48640
553.2407, 60.24011
553.7228, 59.76423
554.2049, 59.03432
554.6870, 58.53986
555.1691, 58.48897
555.6512, 58.38153
556.1334, 57.95028
556.6155, 57.40129
557.0976, 57.00328
557.5797, 56.83628
558.0618, 56.75364
558.5439, 56.65050
559.0261, 56.52573
559.5082, 56.36406
559.9903, 56.15450
560.4724, 55.94700
560.9545, 55.74594
561.4366, 55.58125
561.9188, 55.55996
562.4009, 55.82121
562.8830, 56.05274
563.3651, 56.10929
563.8472, 56.07973
564.3293, 56.10701
564.8115, 56.21244
565.2936, 56.26883
565.7757, 56.11747
566.2578, 55.75640
566.7399, 55.66953
567.2220, 56.22388
567.7042, 56.61604
568.1863, 56.54086
568.6684, 56.33519
569.1505, 56.34468
569.6326, 56.64036
570.1147, 57.04886
570.5969, 57.45671
571.0790, 57.84735
571.5611, 58.08740
572.0432, 58.12294
572.5253, 58.16023
573.0074, 58.33472
573.4896, 58.56082
573.9717, 58.71431
574.4538, 58.77715
574.9359, 58.79612
575.4180, 58.66180
575.9001, 58.55735
576.3823, 58.84370
576.8644, 59.51737
577.3465, 60.10239
577.8286, 60.24131
578.3107, 60.03115
578.7928, 59.94895
579.2750, 60.13433
579.7571, 60.26750
580.2392, 60.40562
580.7213, 60.43182
581.2034, 60.13647
581.6855, 59.60446
582.1677, 59.19460
582.6498, 59.19370
583.1319, 59.50330
583.6140, 59.81205
584.0961, 60.14935
584.5782, 60.38737
585.0604, 60.46130
585.5425, 60.44061
586.0246, 60.37345
586.5067, 60.26397
586.9889, 60.12952
587.4710, 59.90673
587.9531, 59.70998
