##NAMES=Schorlomite
##RRUFFID=R060349
##IDEAL CHEMISTRY=Ca_3_Ti^4+^_2_(Fe^3+^_2_Si)O_12_
##LOCALITY=Sundsvall, Medelpad, Sweden
##OWNER=RRUFF
##SOURCE=Marcus Origlieri
##DESCRIPTION=Black massive, intimately associated with andradite
##STATUS=The identification of this mineral is confirmed by single-crystal X-ray diffraction and chemical analysis.
##URL=rruff.info/R060349
91.00781, 7.693985
91.48993, 8.011390
91.97205, 8.138545
92.45416, 7.942429
92.93628, 7.562374
93.41840, 7.308763
93.90051, 7.252425
94.38263, 7.303017
94.86475, 7.315735
95.34686, 7.291138
95.82898, 7.282755
96.31110, 7.360793
96.79321, 7.513735
97.27533, 7.612741
97.75745, 7.615756
98.23956, 7.544090
98.72168, 7.474007
99.20380, 7.399284
99.68591, 7.347641
100.1680, 7.345498
100.6501, 7.391943
101.1323, 7.493806
101.6144, 7.664937
102.0965, 7.911822
102.5786, 8.152027
103.0607, 8.397091
103.5428, 8.627289
104.0250, 8.809805
104.5071, 8.916306
104.9892, 9.019732
105.4713, 9.138767
105.9534, 9.247544
106.4355, 9.428517
106.9177, 9.701331
107.3998, 10.04669
107.8819, 10.41556
108.3640, 10.82514
108.8461, 11.24015
109.3282, 11.64995
109.8104, 12.11132
110.2925, 12.49396
110.7746, 12.70026
111.2567, 12.76762
111.7388, 12.99998
112.2209, 13.47681
112.7031, 14.09991
113.1852, 14.80794
113.6673, 15.76173
114.1494, 16.63057
114.6315, 17.28988
115.1136, 17.73534
115.5958, 18.20136
116.0779, 18.76446
116.5600, 19.38680
117.0421, 20.02317
117.5242, 20.68942
118.0063, 21.34976
118.4885, 21.94737
118.9706, 22.44170
119.4527, 23.07286
119.9348, 24.04455
120.4169, 25.23876
120.8990, 26.45658
121.3812, 27.73824
121.8633, 28.92577
122.3454, 29.89727
122.8275, 30.70155
123.3096, 31.13950
123.7917, 30.82767
124.2739, 29.92743
124.7560, 29.03109
125.2381, 28.37906
125.7202, 28.00195
126.2023, 27.98930
126.6844, 28.46562
127.1666, 29.17406
127.6487, 29.81462
128.1308, 30.38878
128.6129, 30.87910
129.0950, 31.20251
129.5771, 31.41624
130.0593, 31.75362
130.5414, 32.44149
131.0235, 33.23201
131.5056, 33.31518
131.9877, 32.50338
132.4698, 31.47094
132.9520, 31.08883
133.4341, 31.32508
133.9162, 31.75576
134.3983, 32.32493
134.8804, 32.99712
135.3625, 33.43454
135.8447, 33.54293
136.3268, 33.66095
136.8089, 34.35847
137.2910, 35.74511
137.7731, 37.05913
138.2552, 38.13247
138.7374, 39.01936
139.2195, 39.18588
139.7016, 38.47620
140.1837, 37.21605
140.6658, 36.01371
141.1479, 34.74958
141.6301, 33.77468
142.1122, 33.28805
142.5943, 33.47707
143.0764, 33.61641
143.5585, 33.62291
144.0406, 33.57066
144.5228, 33.75578
145.0049, 34.38065
145.4870, 34.98698
145.9691, 35.32542
146.4512, 35.35664
146.9333, 35.18615
147.4155, 34.67372
147.8976, 33.88020
148.3797, 33.42860
148.8618, 33.44125
149.3439, 33.69831
149.8260, 34.05614
150.3082, 34.78174
150.7903, 35.31502
151.2724, 35.55268
151.7545, 35.48535
152.2366, 35.45693
152.7188, 35.46629
153.2009, 35.52391
153.6830, 35.63831
154.1651, 36.14661
154.6472, 36.38412
155.1293, 36.06342
155.6115, 35.09016
156.0936, 34.32312
156.5757, 33.95712
157.0578, 33.84758
157.5399, 33.84309
158.0220, 34.12585
158.5042, 34.32351
158.9863, 34.22992
159.4684, 33.74558
159.9505, 33.39652
160.4326, 33.36686
160.9147, 33.56914
161.3969, 33.87366
161.8790, 34.54557
162.3611, 35.08636
162.8432, 35.15307
163.3253, 34.53707
163.8074, 33.95994
164.2896, 33.81410
164.7717, 33.93920
165.2538, 34.01602
165.7359, 33.80714
166.2180, 33.54797
166.7001, 33.40871
167.1823, 33.42398
167.6644, 33.55446
168.1465, 33.84375
168.6286, 34.24197
169.1107, 34.60946
169.5928, 34.97727
170.0750, 35.23072
170.5571, 35.22258
171.0392, 34.79252
171.5213, 34.30643
172.0034, 34.08494
172.4855, 34.08187
172.9677, 34.09715
173.4498, 33.97007
173.9319, 33.78923
174.4140, 33.69423
174.8961, 33.80128
175.3782, 33.91658
175.8604, 33.74245
176.3425, 33.31918
176.8246, 32.99019
177.3067, 33.10702
177.7888, 33.49741
178.2709, 33.81042
178.7531, 33.94145
179.2352, 33.94778
179.7173, 33.88130
180.1994, 33.74475
180.6815, 33.61312
181.1636, 33.56505
181.6458, 33.57769
182.1279, 33.58101
182.6100, 33.51148
183.0921, 33.43551
183.5742, 33.50400
184.0563, 33.71985
184.5385, 33.99348
185.0206, 34.26231
185.5027, 34.52169
185.9848, 34.74183
186.4669, 34.98916
186.9490, 35.18330
187.4312, 34.99919
187.9133, 34.39148
188.3954, 33.73034
188.8775, 33.50261
189.3596, 33.66419
189.8417, 33.78857
190.3239, 33.65165
190.8060, 33.32542
191.2881, 33.17406
191.7702, 33.20568
192.2523, 33.38288
192.7344, 33.78485
193.2166, 34.40926
193.6987, 34.81061
194.1808, 34.70018
194.6629, 34.13282
195.1450, 33.76271
195.6271, 33.61781
196.1093, 33.59750
196.5914, 33.59142
197.0735, 33.60576
197.5556, 33.55685
198.0377, 33.32632
198.5198, 32.90896
199.0020, 32.80104
199.4841, 33.08421
199.9662, 33.53180
200.4483, 33.79742
200.9304, 33.86858
201.4125, 33.83448
201.8947, 33.66040
202.3768, 33.31730
202.8589, 33.24231
203.3410, 33.53287
203.8231, 33.96743
204.3052, 34.08271
204.7874, 33.79258
205.2695, 33.55077
205.7516, 33.60097
206.2337, 34.00153
206.7158, 34.31405
207.1979, 34.56694
207.6801, 34.69942
208.1622, 34.50480
208.6443, 33.83987
209.1264, 33.28664
209.6085, 33.17683
210.0906, 33.64817
210.5728, 33.91479
211.0549, 33.88887
211.5370, 33.70662
212.0191, 33.69799
212.5012, 33.94341
212.9833, 34.16475
213.4655, 34.21461
213.9476, 34.03820
214.4297, 33.88496
214.9118, 33.71910
215.3939, 33.60026
215.8760, 33.70972
216.3581, 34.16089
216.8403, 34.60467
217.3224, 34.86721
217.8045, 34.90460
218.2866, 34.89479
218.7687, 34.81800
219.2508, 34.70359
219.7330, 34.62887
220.2151, 34.58911
220.6972, 34.59551
221.1793, 34.67578
221.6614, 34.90430
222.1435, 34.99274
222.6257, 34.86496
223.1078, 34.61583
223.5899, 34.51939
224.0720, 34.66801
224.5541, 34.82188
225.0362, 34.85989
225.5184, 34.70472
226.0005, 34.63315
226.4826, 34.69910
226.9647, 34.83964
227.4468, 34.85962
227.9289, 34.64421
228.4111, 34.48640
228.8932, 34.54826
229.3753, 34.98557
229.8574, 35.27108
230.3395, 35.36127
230.8216, 35.30235
231.3038, 35.20957
231.7859, 35.04678
232.2680, 34.90376
232.7501, 34.82091
233.2322, 34.81227
233.7143, 34.83242
234.1965, 34.88915
234.6786, 34.97257
235.1607, 35.05291
235.6428, 35.10945
236.1249, 35.19190
236.6070, 35.33680
237.0892, 35.62428
237.5713, 35.78570
238.0534, 35.74488
238.5355, 35.59729
239.0176, 35.60406
239.4997, 35.89454
239.9819, 36.15337
240.4640, 36.21253
240.9461, 35.88590
241.4282, 35.82222
241.9103, 36.18761
242.3924, 36.76361
242.8746, 37.01181
243.3567, 36.76892
243.8388, 36.44668
244.3209, 36.18150
244.8030, 35.92588
245.2851, 35.88139
245.7673, 36.18636
246.2494, 36.64668
246.7315, 36.82710
247.2136, 36.57872
247.6957, 36.28623
248.1778, 36.07222
248.6600, 35.90520
249.1421, 35.93662
249.6242, 36.02106
250.1063, 36.36526
250.5884, 36.57813
251.0705, 36.66674
251.5527, 36.25893
252.0348, 36.49215
252.5169, 36.46846
252.9990, 36.43425
253.4811, 36.75769
253.9632, 36.42207
254.4454, 36.73985
254.9275, 36.79680
255.4096, 36.97312
255.8917, 36.89095
256.3738, 36.82392
256.8560, 36.86734
257.3381, 37.02520
257.8202, 37.22497
258.3023, 37.36263
258.7844, 37.43195
259.2665, 37.45044
259.7487, 37.41991
260.2308, 37.33784
260.7129, 37.21222
261.1950, 37.00268
261.6771, 36.79351
262.1592, 36.71258
262.6414, 36.80997
263.1235, 36.91014
263.6056, 36.95798
264.0877, 36.94849
264.5698, 36.97675
265.0519, 37.06927
265.5341, 37.16337
266.0162, 37.15576
266.4983, 36.97594
266.9804, 36.92299
267.4625, 37.14148
267.9446, 37.62220
268.4268, 37.82312
268.9089, 37.64410
269.3910, 37.35598
269.8731, 37.24860
270.3552, 37.37564
270.8373, 37.46791
271.3195, 37.45667
271.8016, 37.35282
272.2837, 37.26080
272.7658, 37.15989
273.2479, 37.11530
273.7300, 37.23693
274.2122, 37.57349
274.6943, 37.75251
275.1764, 37.61618
275.6585, 37.26350
276.1406, 37.27849
276.6227, 37.76445
277.1049, 38.27781
277.5870, 38.42953
278.0691, 38.18765
278.5512, 37.94515
279.0333, 37.73300
279.5154, 37.57886
279.9976, 37.63026
280.4797, 37.93370
280.9618, 38.20309
281.4439, 38.16148
281.9260, 37.80404
282.4081, 37.66609
282.8903, 37.87434
283.3724, 38.27432
283.8545, 38.51602
284.3366, 38.59404
284.8187, 38.57026
285.3008, 38.39521
285.7830, 38.09563
286.2651, 38.04266
286.7472, 38.33440
287.2293, 38.75924
287.7114, 38.87897
288.1935, 38.69650
288.6757, 38.57778
289.1578, 38.85819
289.6399, 39.42396
290.1220, 39.63056
290.6041, 39.37764
291.0862, 38.97828
291.5684, 38.90181
292.0505, 39.11591
292.5326, 39.31686
293.0147, 39.31137
293.4968, 39.17714
293.9789, 39.16201
294.4611, 39.28549
294.9432, 39.44977
295.4253, 39.54142
295.9074, 39.57571
296.3895, 39.61560
296.8716, 39.66864
297.3538, 39.75035
297.8359, 39.94534
298.3180, 40.26409
298.8001, 40.50542
299.2822, 40.38997
299.7643, 40.04160
300.2465, 39.78605
300.7286, 39.77566
301.2107, 39.89493
301.6928, 40.01147
302.1749, 40.12340
302.6570, 40.21653
303.1392, 40.27008
303.6213, 40.29789
304.1034, 40.32104
304.5855, 40.33930
305.0676, 40.36351
305.5497, 40.41813
306.0319, 40.49499
306.5140, 40.55422
306.9961, 40.53042
307.4782, 40.48762
307.9603, 40.52515
308.4424, 40.74326
308.9246, 40.89783
309.4067, 40.66912
309.8888, 40.19951
310.3709, 39.89301
310.8530, 40.16232
311.3351, 40.58517
311.8173, 40.76683
312.2994, 40.55761
312.7815, 40.38303
313.2636, 40.58417
313.7457, 40.98913
314.2278, 41.29103
314.7100, 41.28181
315.1921, 41.18351
315.6742, 41.11086
316.1563, 41.07171
316.6384, 41.08693
317.1205, 41.19936
317.6027, 41.36266
318.0848, 41.51767
318.5669, 41.73994
319.0490, 41.86655
319.5311, 41.78492
320.0132, 41.48182
320.4954, 41.21845
320.9775, 41.04281
321.4596, 40.95131
321.9417, 40.94462
322.4238, 41.08936
322.9059, 41.24922
323.3881, 41.41806
323.8702, 41.58846
324.3523, 41.70082
324.8344, 41.65010
325.3165, 41.60242
325.7986, 41.65554
326.2808, 41.89438
326.7629, 42.14381
327.2450, 42.39043
327.7271, 42.63900
328.2092, 42.91055
328.6913, 43.36214
329.1735, 43.69764
329.6556, 43.78494
330.1377, 43.41333
330.6198, 43.19547
331.1019, 43.20925
331.5840, 43.35310
332.0662, 43.42141
332.5483, 43.26571
333.0304, 43.25287
333.5125, 43.56574
333.9946, 44.32568
334.4767, 44.76916
334.9589, 44.77077
335.4410, 44.57375
335.9231, 44.47741
336.4052, 44.51538
336.8873, 44.56562
337.3694, 44.58205
337.8516, 44.57182
338.3336, 44.69292
338.8158, 45.00872
339.2979, 45.32405
339.7800, 45.44270
340.2621, 45.33181
340.7442, 45.25030
341.2263, 45.24430
341.7085, 45.29876
342.1906, 45.38785
342.6727, 45.52592
343.1548, 45.61451
343.6369, 45.55328
344.1190, 45.35398
344.6012, 45.19276
345.0833, 45.07370
345.5654, 45.02959
346.0475, 45.17030
346.5296, 45.48199
347.0117, 45.76305
347.4939, 45.88493
347.9760, 45.88688
348.4581, 45.92395
348.9402, 46.02259
349.4223, 46.04026
349.9044, 45.64690
350.3866, 44.99824
350.8687, 44.62416
351.3508, 44.99200
351.8329, 45.65050
352.3150, 45.90273
352.7971, 45.75575
353.2793, 45.44951
353.7614, 44.97639
354.2435, 44.50462
354.7256, 44.33616
355.2077, 44.79479
355.6898, 45.28817
356.1720, 45.22932
356.6541, 44.72542
357.1362, 44.24407
357.6183, 44.01271
358.1004, 43.94240
358.5826, 43.98531
359.0647, 44.19926
359.5468, 44.35224
360.0289, 44.26850
360.5110, 44.03900
360.9931, 43.83620
361.4753, 43.78623
361.9574, 43.73539
362.4395, 43.61246
362.9216, 43.40909
363.4037, 43.14513
363.8858, 42.73275
364.3680, 42.29986
364.8501, 41.97993
365.3322, 41.90087
365.8143, 41.84023
366.2964, 41.70538
366.7785, 41.50040
367.2607, 41.44112
367.7428, 41.75863
368.2249, 42.08767
368.7070, 42.20630
369.1891, 41.98125
369.6712, 41.71726
370.1534, 41.35755
370.6355, 40.96099
371.1176, 40.71914
371.5997, 40.72411
372.0818, 40.76499
372.5639, 40.78569
373.0461, 40.84071
373.5282, 40.65619
374.0103, 40.08357
374.4924, 39.40465
374.9745, 39.07837
375.4566, 39.20498
375.9388, 39.36431
376.4209, 39.44852
376.9030, 39.46094
377.3851, 39.43592
377.8672, 39.37135
378.3493, 39.27967
378.8315, 39.16185
379.3136, 39.01671
379.7957, 38.90001
380.2778, 38.83249
380.7599, 38.78887
381.2420, 38.66362
381.7242, 38.45873
382.2063, 38.34449
382.6884, 38.54451
383.1705, 38.94215
383.6526, 39.10017
384.1347, 38.94160
384.6169, 38.68179
385.0990, 38.60358
385.5811, 38.65416
386.0632, 38.66756
386.5453, 38.53202
387.0274, 38.32980
387.5096, 38.15829
387.9917, 38.02018
388.4738, 37.92087
388.9559, 37.82967
389.4380, 37.79290
389.9201, 37.88853
390.4023, 38.32322
390.8844, 38.68682
391.3665, 38.58553
391.8486, 38.14852
392.3307, 37.85305
392.8128, 38.05087
393.2950, 38.38777
393.7771, 38.65817
394.2592, 38.87989
394.7413, 38.89532
395.2234, 38.41108
395.7055, 37.73430
396.1877, 37.34012
396.6698, 37.59673
397.1519, 37.89937
397.6340, 38.11405
398.1161, 38.24511
398.5982, 38.18285
399.0804, 37.65446
399.5625, 37.09238
400.0446, 36.81392
400.5267, 37.03638
401.0088, 37.22862
401.4909, 37.34095
401.9731, 37.39030
402.4552, 37.44194
402.9373, 37.50818
403.4194, 37.55727
403.9015, 37.56707
404.3836, 37.52103
404.8658, 37.50177
405.3479, 37.51453
405.8300, 37.54616
406.3121, 37.56531
406.7942, 37.56188
407.2763, 37.62022
407.7585, 37.81858
408.2406, 38.10694
408.7227, 38.15163
409.2048, 37.92247
409.6869, 37.69766
410.1690, 37.83321
410.6512, 38.22569
411.1333, 38.34467
411.6154, 38.00980
412.0975, 37.50825
412.5796, 37.22984
413.0617, 37.15824
413.5439, 37.20149
414.0260, 37.40844
414.5081, 37.66039
414.9902, 37.78088
415.4723, 37.75202
415.9544, 37.66167
416.4366, 37.51331
416.9187, 37.36388
417.4008, 37.29877
417.8829, 37.39840
418.3650, 37.54888
418.8471, 37.76799
419.3293, 38.01720
419.8114, 38.08445
420.2935, 37.63372
420.7756, 37.12456
421.2577, 36.88401
421.7398, 37.07452
422.2220, 37.31014
422.7041, 37.58698
423.1862, 37.84591
423.6683, 37.98293
424.1504, 37.91427
424.6325, 37.79375
425.1147, 37.63660
425.5968, 37.42785
426.0789, 37.30255
426.5610, 37.28024
427.0431, 37.32335
427.5252, 37.42087
428.0074, 37.64685
428.4895, 37.74119
428.9716, 37.61031
429.4537, 37.34961
429.9358, 37.29511
430.4179, 37.51427
430.9001, 37.70031
431.3822, 37.65609
431.8643, 37.37649
432.3464, 37.22076
432.8285, 37.20460
433.3106, 37.26390
433.7928, 37.36781
434.2749, 37.50107
434.7570, 37.52026
435.2391, 37.30291
435.7212, 37.00671
436.2033, 37.00465
436.6855, 37.26503
437.1676, 37.46654
437.6497, 37.24486
438.1318, 36.85726
438.6139, 36.72739
439.0960, 36.97545
439.5782, 37.29000
440.0603, 37.43574
440.5424, 37.46435
441.0245, 37.47108
441.5066, 37.49235
441.9887, 37.50785
442.4709, 37.51921
442.9530, 37.52397
443.4351, 37.47784
443.9172, 37.27807
444.3993, 37.07137
444.8814, 36.97343
445.3636, 37.20771
445.8457, 37.27449
446.3278, 36.91793
446.8099, 36.34591
447.2920, 36.06865
447.7741, 36.31820
448.2563, 36.61950
448.7384, 36.87772
449.2205, 37.11992
449.7026, 37.11102
450.1847, 36.71391
450.6668, 36.23976
451.1490, 35.98838
451.6311, 36.01952
452.1132, 36.04332
452.5953, 36.01851
453.0774, 35.95985
453.5595, 35.89486
454.0417, 35.81974
454.5238, 35.77138
455.0059, 35.82035
455.4880, 35.92804
455.9701, 35.83824
456.4522, 35.50991
456.9344, 35.21038
457.4165, 35.33168
457.8986, 35.72348
458.3807, 35.94960
458.8628, 35.76530
459.3449, 35.47561
459.8271, 35.46690
460.3092, 35.67478
460.7913, 35.82161
461.2734, 35.62835
461.7555, 35.37423
462.2376, 35.31363
462.7198, 35.51937
463.2019, 35.74260
463.6840, 35.91752
464.1661, 36.02711
464.6482, 36.05068
465.1303, 35.95858
465.6125, 35.80443
466.0946, 35.53316
466.5767, 35.16964
467.0588, 34.96087
467.5409, 35.07888
468.0230, 35.21910
468.5052, 35.24366
468.9873, 35.08680
469.4694, 34.97723
469.9515, 34.91952
470.4336, 34.90567
470.9157, 34.93876
471.3979, 35.04480
471.8800, 35.10506
472.3621, 35.06778
472.8442, 34.96317
473.3263, 34.95430
473.8084, 35.05576
474.2906, 35.13928
474.7727, 35.06195
475.2548, 34.87139
475.7369, 34.83771
476.2190, 35.02849
476.7011, 35.21439
477.1833, 35.01098
477.6654, 34.56733
478.1475, 34.29504
478.6296, 34.55172
479.1117, 34.93260
479.5938, 34.98310
480.0760, 34.75234
480.5581, 34.56836
481.0402, 34.67438
481.5223, 34.87138
482.0044, 35.00301
482.4865, 35.03194
482.9687, 35.01752
483.4508, 34.98313
483.9329, 34.91616
484.4150, 34.79955
484.8971, 34.51752
485.3792, 34.30347
485.8614, 34.24586
486.3435, 34.33048
486.8256, 34.34888
487.3077, 34.18927
487.7898, 34.09438
488.2719, 34.23247
488.7541, 34.73196
489.2362, 35.03004
489.7183, 35.06918
490.2004, 34.97864
490.6825, 34.96096
491.1646, 35.02843
491.6468, 35.03862
492.1289, 34.93583
492.6110, 34.75369
493.0931, 34.54330
493.5752, 34.30573
494.0573, 34.16261
494.5395, 34.25956
495.0216, 34.50234
495.5037, 34.70977
495.9858, 34.86054
496.4679, 34.95485
496.9500, 34.96066
497.4322, 34.91322
497.9143, 34.87072
498.3964, 34.80187
498.8785, 34.79323
499.3606, 34.99594
499.8427, 35.34070
500.3249, 35.49270
500.8070, 35.00887
501.2891, 34.56083
501.7712, 34.55812
502.2533, 35.27254
502.7354, 35.76776
503.2176, 35.77563
503.6997, 35.63196
504.1818, 35.67947
504.6639, 36.03820
505.1460, 36.36798
505.6281, 36.63231
506.1103, 36.83068
506.5924, 36.93581
507.0745, 36.92144
507.5566, 36.90482
508.0387, 36.96729
508.5208, 37.10116
509.0030, 37.12400
509.4851, 37.01320
509.9672, 36.91861
510.4493, 37.06355
510.9314, 37.36843
511.4135, 37.56387
511.8957, 37.57544
512.3778, 37.46107
512.8599, 37.18260
513.3420, 36.81656
513.8242, 36.58681
514.3063, 36.72979
514.7884, 36.96722
515.2705, 37.12302
515.7526, 37.18508
516.2347, 37.10800
516.7169, 36.71878
517.1990, 36.27348
517.6811, 35.96795
518.1632, 35.94241
518.6453, 35.90938
519.1274, 35.81702
519.6096, 35.70284
520.0917, 35.64437
520.5738, 35.71269
521.0559, 35.71965
521.5380, 35.61834
522.0201, 35.41142
522.5023, 35.10991
522.9844, 34.65525
523.4665, 34.27118
523.9486, 34.16192
524.4307, 34.31178
524.9128, 34.41907
525.3950, 34.46719
525.8771, 34.44158
526.3592, 34.24184
526.8413, 33.93320
527.3234, 33.75693
527.8055, 33.92028
528.2877, 34.14618
528.7698, 34.06496
529.2519, 33.74607
529.7340, 33.48290
530.2161, 33.49226
530.6982, 33.58612
531.1804, 33.63290
531.6625, 33.61402
532.1446, 33.56076
532.6267, 33.42627
533.1088, 33.29081
533.5909, 33.23042
534.0731, 33.15094
534.5552, 33.41510
535.0373, 33.54794
535.5194, 33.55651
536.0015, 33.06865
536.4836, 33.22183
536.9658, 33.11811
537.4479, 33.00386
537.9300, 33.24726
538.4121, 32.83160
538.8942, 33.06934
539.3763, 33.04626
539.8585, 33.14253
540.3406, 32.98033
540.8227, 32.89797
541.3048, 33.07417
541.7869, 33.10721
542.2690, 32.91525
542.7512, 33.01912
543.2333, 32.59443
543.7154, 32.63356
544.1975, 32.87281
544.6796, 32.69384
545.1617, 32.80245
545.6439, 32.80152
546.1260, 32.30288
546.6081, 32.66982
547.0902, 32.66243
547.5723, 32.27067
548.0544, 32.60796
548.5366, 32.26918
549.0187, 32.13274
549.5008, 32.03868
549.9829, 32.10177
550.4650, 32.13805
550.9471, 32.12485
551.4293, 32.08039
551.9114, 32.04670
552.3935, 32.02630
552.8756, 32.00370
553.3577, 31.96049
553.8398, 31.91040
554.3220, 31.94239
554.8041, 32.06030
555.2862, 32.14881
555.7683, 32.08786
556.2504, 31.93921
556.7325, 31.82199
557.2147, 31.75189
557.6968, 31.48441
558.1789, 31.76036
558.6610, 31.90498
559.1431, 31.92535
559.6252, 31.44928
560.1074, 31.61424
560.5895, 31.52232
561.0716, 31.41985
561.5537, 31.67505
562.0358, 31.27118
562.5179, 31.52071
563.0001, 31.50940
563.4822, 31.61748
563.9643, 31.46706
564.4464, 31.39649
564.9285, 31.58448
565.4106, 31.62930
565.8928, 31.44913
566.3749, 31.44449
566.8570, 31.59015
567.3391, 31.70772
567.8212, 31.75096
568.3033, 31.72059
568.7855, 31.60244
569.2676, 31.28603
569.7497, 30.98567
570.2318, 31.11868
570.7139, 31.58538
571.1960, 31.96066
571.6782, 31.93203
572.1603, 31.74700
572.6424, 31.56544
573.1245, 31.39506
573.6066, 31.32175
574.0887, 31.46965
574.5709, 31.67225
575.0530, 31.80086
575.5351, 31.80837
576.0172, 31.78563
576.4993, 31.72420
576.9814, 31.64023
577.4636, 31.55041
577.9457, 31.42736
578.4278, 31.37613
578.9099, 31.44442
579.3920, 31.59619
579.8741, 31.69044
580.3563, 31.72210
580.8384, 31.75809
581.3205, 31.92011
581.8026, 32.11381
582.2847, 31.97385
582.7668, 31.48220
583.2490, 31.06091
583.7311, 31.21941
584.2132, 31.60087
584.6953, 31.70418
585.1774, 31.25817
585.6595, 30.88950
586.1416, 31.02897
586.6237, 31.42673
587.1058, 31.70587
587.5880, 31.72656
588.0701, 31.27376
