##NAMES=Schoepite
##RRUFFID=R100188
##IDEAL CHEMISTRY=(U^6+^O_2_)_4_O(OH)_6_(H_2_O)_6_
##LOCALITY=Shinkolobwe mine, Katanga, Congo
##OWNER=RRUFF
##SOURCE=William W Pinch
##DESCRIPTION=Lemon-yellow tabular to blocky crystals associated with orange-yellow fourmarierite (R100187) and soddyite
##STATUS=The identification of this mineral has been confirmed by single-crystal X-ray diffraction.
##URL=rruff.info/R100188
101.2120, 197.7847
101.6941, 200.2197
102.1763, 201.6883
102.6584, 201.1344
103.1405, 199.6612
103.6226, 198.8820
104.1047, 199.7668
104.5868, 202.0276
105.0690, 203.5937
105.5511, 203.8281
106.0332, 204.1080
106.5153, 205.2184
106.9974, 207.0701
107.4795, 208.8271
107.9617, 209.5531
108.4438, 209.6911
108.9259, 210.7820
109.4080, 213.9357
109.8901, 217.8220
110.3722, 220.5655
110.8544, 221.8698
111.3365, 222.5815
111.8186, 222.7908
112.3007, 222.8419
112.7828, 223.4900
113.2649, 225.7722
113.7471, 229.4872
114.2292, 231.7525
114.7113, 230.5911
115.1934, 229.7815
115.6755, 231.2146
116.1576, 234.5255
116.6397, 238.0695
117.1219, 240.0196
117.6040, 239.6195
118.0861, 239.9200
118.5682, 240.9236
119.0503, 242.4584
119.5324, 244.6024
120.0146, 247.2957
120.4967, 250.2500
120.9788, 252.9721
121.4609, 255.3933
121.9430, 257.6153
122.4251, 259.6893
122.9073, 261.5528
123.3894, 263.0873
123.8715, 264.2428
124.3536, 265.0971
124.8357, 265.7462
125.3178, 265.9423
125.8000, 266.4553
126.2821, 267.5349
126.7642, 269.1573
127.2463, 271.3241
127.7284, 274.5386
128.2105, 277.9509
128.6927, 280.1251
129.1748, 280.6288
129.6569, 280.5334
130.1390, 280.6944
130.6211, 281.0801
131.1032, 281.9236
131.5854, 283.5937
132.0675, 285.6887
132.5496, 287.8891
133.0317, 290.0885
133.5138, 292.3156
133.9959, 294.6168
134.4781, 296.7976
134.9602, 299.4492
135.4423, 303.1836
135.9244, 307.3251
136.4065, 310.9190
136.8886, 313.3128
137.3708, 314.6325
137.8529, 316.4318
138.3350, 319.6074
138.8171, 322.4068
139.2992, 324.3474
139.7813, 325.5669
140.2635, 326.4297
140.7456, 327.1964
141.2277, 327.8363
141.7098, 328.7308
142.1919, 330.2729
142.6740, 331.6940
143.1561, 332.4068
143.6383, 332.4436
144.1204, 332.4611
144.6025, 333.1451
145.0846, 334.6263
145.5667, 336.1084
146.0488, 337.6631
146.5310, 339.1595
147.0131, 340.5420
147.4952, 341.8472
147.9773, 342.8076
148.4594, 342.7336
148.9415, 341.8271
149.4237, 341.3243
149.9058, 341.9505
150.3879, 343.3442
150.8700, 344.5089
151.3521, 345.2906
151.8342, 345.7798
152.3164, 346.0273
152.7985, 346.0630
153.2806, 346.1273
153.7627, 346.5703
154.2448, 347.4103
154.7269, 347.7118
155.2091, 346.5900
155.6912, 345.4503
156.1733, 344.9779
156.6554, 345.2331
157.1375, 345.8969
157.6196, 346.6221
158.1018, 347.4164
158.5839, 348.2532
159.0660, 349.2179
159.5481, 350.1608
160.0302, 351.0495
160.5123, 351.8511
160.9945, 352.4716
161.4766, 352.7567
161.9587, 352.7760
162.4408, 352.2551
162.9229, 350.8480
163.4050, 349.1178
163.8871, 347.4966
164.3693, 346.1481
164.8514, 345.1051
165.3335, 344.4855
165.8156, 344.8692
166.2977, 344.8700
166.7798, 344.0287
167.2620, 342.7712
167.7441, 341.6460
168.2262, 340.8214
168.7083, 340.4338
169.1904, 341.0337
169.6725, 343.3524
170.1547, 345.1563
170.6368, 345.4585
171.1189, 344.5031
171.6010, 343.0148
172.0831, 340.9682
172.5652, 338.8690
173.0474, 337.6491
173.5295, 337.6410
174.0116, 337.8731
174.4937, 337.6345
174.9758, 336.9264
175.4579, 336.1171
175.9401, 334.9244
176.4222, 333.9583
176.9043, 334.1084
177.3864, 335.9159
177.8685, 337.9623
178.3506, 338.1005
178.8328, 335.5798
179.3149, 333.8618
179.7970, 335.0469
180.2791, 337.1151
180.7612, 338.3307
181.2433, 338.0152
181.7255, 336.7775
182.2076, 335.9257
182.6897, 335.7520
183.1718, 335.4316
183.6539, 334.5814
184.1360, 333.6015
184.6181, 332.9694
185.1003, 332.9367
185.5824, 333.2678
186.0645, 333.1259
186.5466, 332.1051
187.0287, 331.0538
187.5108, 330.3388
187.9930, 329.6035
188.4751, 328.2870
188.9572, 326.0471
189.4393, 323.1223
189.9214, 320.8752
190.4035, 319.5762
190.8857, 318.6591
191.3678, 318.6519
191.8499, 318.9236
192.3320, 318.3657
192.8141, 316.2384
193.2962, 312.7693
193.7784, 309.6571
194.2605, 306.9511
194.7426, 304.4447
195.2247, 302.1099
195.7068, 299.9201
196.1889, 297.8189
196.6711, 295.8063
197.1532, 293.8388
197.6353, 291.7201
198.1174, 289.2105
198.5995, 286.7703
199.0816, 284.9847
199.5638, 283.6781
200.0459, 281.6432
200.5280, 277.7568
201.0101, 272.6915
201.4922, 268.6395
201.9743, 266.2975
202.4565, 264.3376
202.9386, 261.5738
203.4207, 257.9776
203.9028, 254.4409
204.3849, 251.4605
204.8670, 248.8538
205.3492, 246.4993
205.8313, 244.7493
206.3134, 242.7589
206.7955, 239.2849
207.2776, 234.0163
207.7597, 228.7089
208.2419, 223.3829
208.7240, 218.7095
209.2061, 215.7586
209.6882, 215.2633
210.1703, 215.8188
210.6524, 214.9045
211.1346, 211.9107
211.6167, 209.0106
212.0988, 206.9788
212.5809, 205.3335
213.0630, 203.5669
213.5451, 201.4539
214.0273, 199.2612
214.5094, 197.6754
214.9915, 197.2112
215.4736, 196.4226
215.9557, 194.9145
216.4378, 193.0531
216.9200, 191.0499
217.4021, 188.9885
217.8842, 187.0925
218.3663, 186.0896
218.8484, 187.0543
219.3305, 187.3739
219.8127, 186.5125
220.2948, 185.0082
220.7769, 183.2546
221.2590, 181.4297
221.7411, 179.7610
222.2232, 178.9390
222.7054, 180.1938
223.1875, 180.8594
223.6696, 180.4814
224.1517, 179.5455
224.6338, 178.4693
225.1159, 177.4290
225.5980, 176.6038
226.0802, 176.5357
226.5623, 178.6190
227.0444, 179.8013
227.5265, 179.0237
228.0086, 177.4588
228.4907, 176.6174
228.9729, 177.1442
229.4550, 178.6147
229.9371, 179.9793
230.4192, 181.3722
230.9013, 182.4711
231.3834, 183.2170
231.8656, 183.6354
232.3477, 183.6177
232.8298, 183.0416
233.3119, 182.3339
233.7940, 182.5018
234.2761, 183.7061
234.7583, 185.1172
235.2404, 187.0433
235.7225, 188.9661
236.2046, 189.7574
236.6867, 188.7763
237.1688, 187.2205
237.6510, 187.4545
238.1331, 189.7715
238.6152, 191.5922
239.0973, 191.7326
239.5794, 190.7867
240.0615, 189.9228
240.5437, 189.3290
241.0258, 189.1668
241.5079, 189.8284
241.9900, 191.3008
242.4721, 192.6434
242.9542, 193.3810
243.4364, 193.6910
243.9185, 194.0478
244.4006, 194.6093
244.8827, 195.1038
245.3648, 195.4070
245.8469, 195.5104
246.3290, 195.0967
246.8112, 193.4792
247.2933, 191.1778
247.7754, 189.8044
248.2575, 189.8226
248.7396, 190.4070
249.2217, 191.1382
249.7039, 191.9150
250.1860, 192.3480
250.6681, 192.2225
251.1502, 191.5853
251.6323, 190.5377
252.1144, 188.8371
252.5966, 187.1271
253.0787, 185.8696
253.5608, 184.8979
254.0429, 183.8048
254.5250, 182.1500
255.0071, 180.1900
255.4893, 179.0289
255.9714, 179.3480
256.4535, 179.3747
256.9356, 178.0314
257.4177, 175.9566
257.8998, 174.1929
258.3820, 173.3904
258.8641, 173.2785
259.3462, 172.9195
259.8283, 172.2619
260.3104, 171.4099
260.7925, 170.3753
261.2747, 169.2070
261.7568, 167.9319
262.2389, 166.5104
262.7210, 165.0725
263.2031, 164.0345
263.6852, 163.7760
264.1674, 163.2632
264.6495, 162.0259
265.1316, 160.5457
265.6137, 159.3139
266.0958, 158.5392
266.5779, 158.1376
267.0601, 157.9863
267.5422, 158.4515
268.0243, 158.4805
268.5064, 157.8036
268.9885, 156.7687
269.4706, 155.6397
269.9528, 154.5160
270.4349, 153.4019
270.9170, 152.3795
271.3991, 151.8693
271.8812, 150.5696
272.3633, 147.2200
272.8455, 143.9231
273.3276, 142.6994
273.8097, 143.8574
274.2918, 145.7300
274.7739, 145.6849
275.2560, 142.4832
275.7382, 139.9392
276.2202, 137.8580
276.7024, 136.4125
277.1845, 136.1395
277.6666, 136.8667
278.1487, 137.5236
278.6308, 136.6752
279.1129, 133.5786
279.5951, 131.5724
280.0772, 131.2136
280.5593, 131.2411
281.0414, 131.3048
281.5235, 131.2026
282.0056, 130.6187
282.4878, 129.1690
282.9699, 126.6580
283.4520, 124.6418
283.9341, 122.5753
284.4162, 121.4128
284.8983, 122.0527
285.3805, 124.0069
285.8626, 126.0658
286.3447, 127.3409
286.8268, 127.8348
287.3089, 127.8541
287.7910, 127.0851
288.2732, 126.2255
288.7553, 125.4558
289.2374, 124.7406
289.7195, 123.9301
290.2016, 122.9007
290.6837, 121.7703
291.1659, 121.2038
291.6480, 121.5629
292.1301, 122.0598
292.6122, 122.8445
293.0943, 123.6230
293.5764, 123.8502
294.0586, 123.2511
294.5407, 122.2924
295.0228, 122.2409
295.5049, 124.5609
295.9870, 126.0141
296.4691, 125.9344
296.9513, 125.1718
297.4334, 124.4842
297.9155, 124.1411
298.3976, 124.2059
298.8797, 124.8341
299.3618, 126.6308
299.8440, 127.8455
300.3261, 128.1935
300.8082, 128.1461
301.2903, 127.8339
301.7724, 127.3799
302.2545, 127.2864
302.7367, 128.2461
303.2188, 130.7125
303.7009, 132.4530
304.1830, 133.2581
304.6651, 133.5967
305.1472, 133.4401
305.6294, 132.9765
306.1115, 132.8434
306.5936, 133.6571
307.0757, 135.4940
307.5578, 136.8731
308.0399, 137.8964
308.5221, 138.4668
309.0042, 138.3304
309.4863, 137.6825
309.9684, 136.8832
310.4505, 136.0659
310.9326, 135.3669
311.4148, 135.8390
311.8969, 138.7778
312.3790, 141.2069
312.8611, 142.3228
313.3432, 142.4826
313.8253, 142.0860
314.3075, 141.2459
314.7896, 140.3950
315.2717, 140.6951
315.7538, 143.4263
316.2359, 145.4655
316.7180, 146.0849
317.2001, 146.1071
317.6823, 146.4117
318.1644, 147.2568
318.6465, 148.3425
319.1286, 149.2014
319.6107, 149.5693
320.0928, 150.3785
320.5750, 152.2517
321.0571, 154.1280
321.5392, 154.9585
322.0213, 154.7499
322.5034, 154.5746
322.9855, 155.5926
323.4677, 158.0909
323.9498, 159.6719
324.4319, 159.8767
324.9140, 159.7497
325.3961, 159.5395
325.8782, 159.4076
326.3604, 159.6560
326.8425, 160.5273
327.3246, 161.9701
327.8067, 163.4294
328.2888, 165.6309
328.7709, 167.0454
329.2531, 166.9081
329.7352, 165.7864
330.2173, 164.5384
330.6994, 163.5581
331.1815, 162.7976
331.6636, 162.1230
332.1458, 161.2151
332.6279, 160.8242
333.1100, 161.6572
333.5921, 162.6816
334.0742, 162.7316
334.5563, 161.5274
335.0385, 159.8610
335.5206, 158.9126
336.0027, 159.1174
336.4848, 158.9313
336.9669, 158.3407
337.4490, 157.4185
337.9312, 156.1373
338.4133, 154.5392
338.8954, 152.7294
339.3775, 150.7250
339.8596, 148.4409
340.3417, 147.0108
340.8239, 146.9376
341.3060, 147.0667
341.7881, 147.1497
342.2702, 147.1176
342.7523, 146.9624
343.2344, 146.7005
343.7166, 146.2625
344.1987, 145.3084
344.6808, 143.1720
345.1629, 141.2461
345.6450, 139.7648
346.1271, 138.5227
346.6093, 137.2171
347.0914, 135.7588
347.5735, 134.3859
348.0556, 133.6119
348.5377, 133.8911
349.0198, 133.9671
349.5020, 134.1569
349.9841, 133.9510
350.4662, 132.7711
350.9483, 130.7038
351.4304, 128.4596
351.9125, 126.7957
352.3947, 125.7727
352.8768, 124.9517
353.3589, 124.9365
353.8410, 124.5269
354.3231, 122.8311
354.8052, 120.4133
355.2874, 118.4745
355.7695, 117.8842
356.2516, 118.3980
356.7337, 118.6030
357.2158, 118.1786
357.6979, 117.8701
358.1800, 118.0905
358.6621, 118.3727
359.1443, 118.1449
359.6264, 117.1891
360.1085, 115.8692
360.5906, 114.7979
361.0727, 113.9812
361.5548, 113.4162
362.0370, 113.3953
362.5191, 113.3880
363.0012, 113.0742
363.4833, 112.4227
363.9654, 111.5985
364.4475, 110.6040
364.9297, 109.3916
365.4118, 108.8313
365.8939, 109.4555
366.3760, 110.1910
366.8581, 110.7113
367.3402, 111.0113
367.8224, 111.1175
368.3045, 111.0007
368.7866, 110.7361
369.2687, 110.5222
369.7508, 110.3137
370.2329, 110.2695
370.7151, 110.5161
371.1972, 110.9037
371.6793, 111.3192
372.1614, 111.7358
372.6435, 112.1149
373.1256, 112.4020
373.6078, 112.5937
374.0899, 112.7428
374.5720, 112.8342
375.0541, 112.9066
375.5362, 112.9597
376.0183, 113.0046
376.5005, 113.1159
376.9826, 113.1893
377.4647, 113.3464
377.9468, 114.1917
378.4289, 116.1632
378.9110, 117.9235
379.3932, 118.0782
379.8753, 117.4222
380.3574, 117.5518
380.8395, 119.6874
381.3216, 122.1576
381.8037, 122.4517
382.2859, 120.5103
382.7680, 119.3694
383.2501, 120.7273
383.7322, 123.4589
384.2143, 125.7247
384.6964, 127.4599
385.1786, 128.8020
385.6607, 129.3798
386.1428, 129.5990
386.6249, 130.7930
387.1070, 133.6038
387.5891, 136.4878
388.0713, 137.2477
388.5534, 136.1081
389.0355, 135.5657
389.5176, 136.4241
389.9997, 137.9208
390.4818, 139.3994
390.9640, 140.8121
391.4461, 142.2252
391.9282, 143.8299
392.4103, 145.4363
392.8924, 146.1836
393.3745, 144.9399
393.8567, 144.1479
394.3388, 145.1472
394.8209, 147.2293
395.3030, 149.0235
395.7851, 150.0287
396.2672, 150.5790
396.7494, 151.2757
397.2315, 152.2474
397.7136, 153.0415
398.1957, 153.2722
398.6778, 153.5689
399.1599, 154.7204
399.6420, 156.6418
400.1241, 158.3450
400.6063, 158.9002
401.0884, 158.2673
401.5705, 157.9120
402.0526, 158.1771
402.5347, 158.3025
403.0168, 157.9632
403.4990, 157.3503
403.9811, 156.7124
404.4632, 156.1647
404.9453, 155.8211
405.4274, 156.0446
405.9095, 157.7551
406.3917, 158.4330
406.8738, 157.5173
407.3559, 156.0191
407.8380, 154.4790
408.3201, 153.0636
408.8022, 151.8498
409.2844, 151.0116
409.7665, 150.6109
410.2486, 149.5859
410.7307, 146.8357
411.2128, 144.6642
411.6949, 144.1676
412.1771, 144.6073
412.6592, 144.7773
413.1413, 144.0727
413.6234, 142.8145
414.1055, 141.6052
414.5876, 140.3319
415.0698, 139.4430
415.5519, 139.2823
416.0340, 139.3922
416.5161, 139.6249
416.9982, 139.9200
417.4803, 139.9626
417.9625, 139.2906
418.4446, 138.0435
418.9267, 137.2061
419.4088, 137.0436
419.8909, 136.9444
420.3730, 136.5715
420.8552, 135.9744
421.3373, 135.1987
421.8194, 133.9904
422.3015, 132.8886
422.7836, 132.5762
423.2657, 133.0486
423.7479, 133.8901
424.2300, 135.2368
424.7121, 136.5937
425.1942, 137.1971
425.6763, 136.9410
426.1584, 136.5212
426.6406, 136.0374
427.1227, 135.6389
427.6048, 135.6590
428.0869, 136.1774
428.5690, 136.7712
429.0511, 136.9643
429.5333, 136.7831
430.0154, 137.1396
430.4975, 138.5457
430.9796, 140.0124
431.4617, 141.0717
431.9438, 141.7466
432.4260, 142.1517
432.9081, 142.3338
433.3902, 142.2863
433.8723, 141.9536
434.3544, 140.6980
434.8365, 140.2481
435.3187, 141.1490
435.8008, 142.5503
436.2829, 144.0557
436.7650, 145.4414
437.2471, 146.1875
437.7292, 145.6376
438.2114, 143.7260
438.6935, 143.0844
439.1756, 145.0327
439.6577, 146.8047
440.1398, 147.7151
440.6219, 148.0995
441.1040, 148.3431
441.5862, 148.6105
442.0683, 149.0670
442.5504, 150.1759
443.0325, 152.4142
443.5146, 153.8448
443.9967, 153.7355
444.4789, 153.2486
444.9610, 152.5682
445.4431, 151.9576
445.9252, 152.0522
446.4073, 153.5823
446.8894, 156.1425
447.3716, 158.2218
447.8537, 159.8220
448.3358, 160.9221
448.8179, 161.4139
449.3000, 161.4475
449.7821, 161.0236
450.2643, 160.0356
450.7464, 159.0961
451.2285, 158.6909
451.7106, 158.7790
452.1927, 159.2901
452.6748, 160.4496
453.1570, 161.5293
453.6391, 161.4417
454.1212, 160.4881
454.6033, 160.1375
455.0854, 161.6891
455.5675, 163.2764
456.0497, 162.8938
456.5318, 160.8221
457.0139, 159.0125
457.4960, 158.5741
457.9781, 158.8866
458.4602, 158.1797
458.9424, 155.8700
459.4245, 153.9482
459.9066, 153.1089
460.3887, 152.6333
460.8708, 151.8288
461.3529, 150.5794
461.8351, 149.1068
462.3172, 147.6115
462.7993, 146.1089
463.2814, 144.3604
463.7635, 141.6671
464.2456, 139.5430
464.7278, 138.5304
465.2099, 138.2486
465.6920, 138.3654
466.1741, 138.7189
466.6562, 138.8694
467.1383, 137.9710
467.6205, 135.5915
468.1026, 133.4780
468.5847, 131.6632
469.0668, 130.1511
469.5489, 129.1044
470.0310, 128.3870
470.5132, 127.6673
470.9953, 126.7023
471.4774, 125.6362
471.9595, 124.8119
472.4416, 124.2184
472.9237, 123.9242
473.4059, 124.6133
473.8880, 125.2049
474.3701, 124.3936
474.8522, 121.9820
475.3343, 119.8700
475.8164, 119.7765
476.2986, 120.8562
476.7807, 120.8834
477.2628, 119.4516
477.7449, 117.8239
478.2270, 116.7506
478.7091, 116.2763
479.1913, 116.4367
479.6734, 118.2186
480.1555, 119.5401
480.6376, 118.8064
481.1197, 116.8877
481.6018, 115.6389
482.0839, 115.6780
482.5660, 116.3452
483.0482, 116.7804
483.5303, 116.9772
484.0124, 116.8744
484.4945, 116.1674
484.9766, 115.4663
485.4587, 115.1254
485.9409, 115.0570
486.4230, 114.9870
486.9051, 114.7571
487.3872, 114.4435
487.8693, 114.2686
488.3514, 114.2817
488.8336, 114.3476
489.3157, 114.6816
489.7978, 114.8825
490.2799, 114.4139
490.7620, 113.4541
491.2441, 112.8876
491.7263, 113.7472
492.2084, 115.5705
492.6905, 115.9534
493.1726, 114.2608
493.6547, 112.6571
494.1368, 111.9326
494.6190, 111.8009
495.1011, 112.2521
495.5832, 113.4049
496.0653, 114.1763
496.5474, 113.1820
497.0295, 111.1318
497.5117, 110.4174
497.9938, 111.6807
498.4759, 113.0379
498.9580, 112.7617
499.4401, 111.1858
499.9222, 110.2182
500.4044, 110.2735
500.8865, 110.6451
501.3686, 111.0092
501.8507, 111.4194
502.3328, 112.1033
502.8149, 113.1534
503.2971, 114.1447
503.7792, 114.4176
504.2613, 113.6454
504.7434, 113.3399
505.2255, 113.8572
505.7076, 114.4367
506.1898, 114.8699
506.6719, 115.0703
507.1540, 114.8190
507.6361, 113.9696
508.1182, 112.9489
508.6003, 112.8574
509.0825, 114.2119
509.5646, 115.1084
510.0467, 114.7933
510.5288, 114.4616
511.0109, 115.0176
511.4930, 116.2036
511.9752, 116.9239
512.4573, 116.1651
512.9394, 114.6939
513.4215, 114.5252
513.9036, 115.9536
514.3857, 116.7465
514.8679, 115.3020
515.3500, 113.3547
515.8321, 113.3739
516.3142, 115.6642
516.7963, 117.5393
517.2784, 117.5617
517.7606, 116.6270
518.2427, 115.7983
518.7248, 115.2042
519.2069, 114.9937
519.6890, 115.2892
520.1711, 116.0418
520.6533, 117.0156
521.1354, 118.2995
521.6175, 119.6533
522.0996, 121.3680
522.5817, 122.9418
523.0638, 123.7089
523.5460, 123.6544
524.0281, 123.4179
524.5102, 123.5952
524.9923, 124.1753
525.4744, 124.8562
525.9565, 125.9297
526.4387, 126.6985
526.9208, 126.7872
527.4029, 126.6446
527.8850, 126.7462
528.3671, 127.2084
528.8492, 127.7868
529.3314, 128.1738
529.8135, 128.4097
530.2956, 128.9464
530.7777, 129.9562
531.2598, 130.9586
531.7419, 131.4286
532.2241, 131.7397
532.7062, 132.5958
533.1883, 134.4321
533.6704, 136.1978
534.1525, 137.2979
534.6346, 137.7855
535.1168, 137.5343
535.5989, 136.4265
536.0810, 135.5577
536.5631, 136.1873
537.0452, 138.4074
537.5273, 139.8701
538.0095, 140.1887
538.4916, 140.2612
538.9737, 140.4508
539.4558, 140.5949
539.9379, 140.4025
540.4200, 139.7905
540.9022, 138.9314
541.3843, 137.9293
541.8664, 136.5798
542.3485, 136.2652
542.8306, 138.3409
543.3127, 140.0042
543.7948, 140.4970
544.2769, 139.9773
544.7590, 138.5108
545.2411, 135.9928
545.7233, 133.4500
546.2054, 132.3273
546.6875, 132.5224
547.1696, 132.6622
547.6517, 132.7279
548.1339, 132.3458
548.6160, 130.6581
549.0981, 128.2058
549.5802, 126.5614
550.0623, 126.6228
550.5444, 126.9297
551.0266, 126.8504
551.5087, 126.2819
551.9908, 124.7979
552.4729, 122.2361
552.9550, 119.3927
553.4371, 117.2490
553.9193, 115.9057
554.4014, 114.6550
554.8835, 113.5499
555.3656, 112.4664
555.8477, 111.4109
556.3298, 110.3242
556.8120, 109.1337
557.2941, 107.8083
557.7762, 106.4091
558.2583, 104.9555
558.7404, 103.4191
559.2225, 102.1364
559.7047, 101.2593
560.1868, 100.4741
560.6689, 99.79552
561.1510, 99.06046
561.6331, 97.89446
562.1152, 95.99855
562.5974, 94.18820
563.0795, 93.57236
563.5616, 93.72038
564.0437, 92.94401
564.5258, 90.76784
565.0079, 88.25190
565.4901, 86.21400
565.9722, 84.69798
566.4543, 83.67937
566.9364, 83.39400
567.4185, 83.33034
567.9006, 83.54601
568.3828, 83.77029
568.8649, 83.56845
569.3470, 82.85807
569.8291, 81.97204
570.3112, 81.26993
570.7933, 80.74620
571.2755, 80.48764
571.7576, 81.13880
572.2397, 81.21913
572.7218, 79.76834
573.2039, 77.88445
573.6860, 77.02247
574.1682, 77.50525
574.6503, 77.90153
575.1324, 76.49709
575.6145, 73.78303
576.0966, 71.96748
576.5787, 71.28520
577.0609, 71.14014
577.5430, 71.55043
578.0251, 72.13934
578.5072, 71.97320
578.9893, 70.60972
579.4714, 69.44838
579.9536, 69.21053
580.4357, 69.36935
580.9178, 69.38866
581.3999, 69.15494
581.8820, 68.58871
582.3641, 67.58826
582.8463, 66.23698
583.3284, 65.00034
583.8105, 63.67554
584.2926, 62.78531
584.7747, 62.56555
585.2568, 62.61577
585.7390, 62.64899
586.2211, 62.64709
586.7032, 62.76736
587.1853, 63.25504
587.6674, 63.84918
588.1495, 63.72920
588.6317, 62.76324
589.1138, 61.89734
589.5959, 61.45889
590.0780, 61.23084
590.5601, 61.01747
591.0422, 60.81750
591.5244, 60.44320
592.0065, 59.29866
592.4886, 58.37724
592.9707, 59.05647
593.4528, 60.82398
593.9349, 61.89016
594.4171, 61.45391
594.8992, 60.00282
595.3813, 58.27327
595.8634, 55.85411
596.3455, 54.41063
596.8276, 54.65304
597.3098, 54.98050
