##NAMES=Schorlomite
##RRUFFID=R060125
##IDEAL CHEMISTRY=Ca_3_Ti^4+^_2_(Fe^3+^_2_Si)O_12_
##LOCALITY=Magnet Cove, Arkansas, USA
##OWNER=RRUFF
##SOURCE=University of Arizona Mineral Museum
##DESCRIPTION=Black massive
##STATUS=The identification of this mineral has been confirmed by X-ray diffraction and chemical analysis
##URL=rruff.info/R060125
##MEASURED CHEMISTRY=Ca_3.00_(Ti^4+^_0.74_Zr_0.44_Fe^3+^_0.38_Al_0.21_Mg_0.20_Mn_0.03_)_Σ=2_[(Si_0.68_Fe^3+^_0.32_)_Σ=1_O_4_]_3_
90.52570, 0.0000000E+00
91.00781, 5.381804
91.48993, 5.646255
91.97205, 5.752164
92.45416, 5.579023
92.93628, 5.252925
93.41840, 5.054793
93.90051, 5.048409
94.38263, 5.152413
94.86475, 5.277205
95.34686, 5.421958
95.82898, 5.508173
96.31110, 5.418486
96.79321, 5.174471
97.27533, 5.017636
97.75745, 5.040700
98.23956, 5.188184
98.72168, 5.205661
99.20380, 5.058304
99.68591, 4.889535
100.1680, 4.859757
100.6501, 4.990179
101.1323, 5.160398
101.6144, 5.362092
102.0965, 5.606668
102.5786, 5.721855
103.0607, 5.631346
103.5428, 5.479407
104.0250, 5.511697
104.5071, 5.801034
104.9892, 6.152960
105.4713, 6.513511
105.9534, 6.951995
106.4355, 7.239115
106.9177, 7.270638
107.3998, 7.146297
107.8819, 7.183227
108.3640, 7.478699
108.8461, 7.856776
109.3282, 8.242283
109.8104, 8.400250
110.2925, 8.823356
110.7746, 9.650411
111.2567, 10.82491
111.7388, 11.94180
112.2209, 12.92206
112.7031, 13.83939
113.1852, 14.75580
113.6673, 15.64090
114.1494, 16.55587
114.6315, 17.53843
115.1136, 18.60067
115.5958, 19.64019
116.0779, 20.65198
116.5600, 21.61712
117.0421, 22.51056
117.5242, 23.41598
118.0063, 24.18893
118.4885, 24.67397
118.9706, 24.78370
119.4527, 25.01903
119.9348, 25.59832
120.4169, 26.49135
120.8990, 27.65717
121.3812, 29.20581
121.8633, 30.95615
122.3454, 32.75091
122.8275, 34.62264
123.3096, 36.42293
123.7917, 38.10687
124.2739, 39.63851
124.7560, 40.88597
125.2381, 41.40743
125.7202, 41.64461
126.2023, 42.36794
126.6844, 43.88478
127.1666, 45.78337
127.6487, 47.57154
128.1308, 49.25714
128.6129, 50.83875
129.0950, 52.37601
129.5771, 53.83659
130.0593, 55.10801
130.5414, 56.13346
131.0235, 56.94730
131.5056, 57.52015
131.9877, 57.62319
132.4698, 57.41049
132.9520, 57.29309
133.4341, 57.27130
133.9162, 57.40351
134.3983, 57.76742
134.8804, 58.32418
135.3625, 58.75200
135.8447, 58.99681
136.3268, 59.25702
136.8089, 59.81033
137.2910, 60.67658
137.7731, 61.70838
138.2552, 62.92731
138.7374, 64.37191
139.2195, 65.67413
139.7016, 66.93349
140.1837, 67.98564
140.6658, 68.37129
141.1479, 67.81550
141.6301, 67.24522
142.1122, 67.06313
142.5943, 67.31446
143.0764, 67.84312
143.5585, 68.80937
144.0406, 70.03083
144.5228, 70.84451
145.0049, 70.83730
145.4870, 70.92896
145.9691, 71.68282
146.4512, 73.93891
146.9333, 75.49437
147.4155, 76.03130
147.8976, 75.66181
148.3797, 75.35838
148.8618, 74.92277
149.3439, 74.68850
149.8260, 74.86623
150.3082, 75.90122
150.7903, 76.85101
151.2724, 77.63217
151.7545, 78.23731
152.2366, 78.80943
152.7188, 79.31949
153.2009, 79.81428
153.6830, 80.32529
154.1651, 81.02739
154.6472, 81.57853
155.1293, 81.81270
155.6115, 81.67652
156.0936, 81.67022
156.5757, 82.01861
157.0578, 82.49187
157.5399, 82.83427
158.0220, 82.69766
158.5042, 82.67358
158.9863, 83.03451
159.4684, 83.88166
159.9505, 84.71296
160.4326, 85.30226
160.9147, 85.79099
161.3969, 86.38860
161.8790, 87.34420
162.3611, 88.30147
162.8432, 89.06557
163.3253, 89.56837
163.8074, 89.98597
164.2896, 90.33376
164.7717, 90.64997
165.2538, 91.01194
165.7359, 91.66870
166.2180, 92.25951
166.7001, 92.44186
167.1823, 91.94766
167.6644, 91.50004
168.1465, 91.73699
168.6286, 92.41978
169.1107, 92.87816
169.5928, 92.55336
170.0750, 91.89772
170.5571, 91.39995
171.0392, 91.30373
171.5213, 91.17941
172.0034, 90.57195
172.4855, 89.57933
172.9677, 88.64962
173.4498, 88.07183
173.9319, 87.72547
174.4140, 87.43900
174.8961, 87.15288
175.3782, 86.92564
175.8604, 86.90126
176.3425, 87.04637
176.8246, 87.08548
177.3067, 86.67439
177.7888, 86.01242
178.2709, 85.52125
178.7531, 85.40724
179.2352, 85.45522
179.7173, 85.36729
180.1994, 85.14592
180.6815, 84.84094
181.1636, 84.37540
181.6458, 83.83957
182.1279, 83.52441
182.6100, 83.60530
183.0921, 83.92713
183.5742, 84.23401
184.0563, 84.52577
184.5385, 84.70477
185.0206, 84.54954
185.5027, 84.14188
185.9848, 83.89095
186.4669, 84.05476
186.9490, 84.46599
187.4312, 84.58616
187.9133, 84.37849
188.3954, 84.10963
188.8775, 84.14676
189.3596, 84.45078
189.8417, 84.64928
190.3239, 84.55399
190.8060, 84.22221
191.2881, 83.88768
191.7702, 83.51637
192.2523, 83.28678
192.7344, 83.56711
193.2166, 84.35593
193.6987, 84.99429
194.1808, 85.13106
194.6629, 84.81909
195.1450, 84.70502
195.6271, 84.82507
196.1093, 85.05000
196.5914, 85.21293
197.0735, 85.31351
197.5556, 85.35352
198.0377, 85.24519
198.5198, 84.98413
199.0020, 85.08169
199.4841, 85.65894
199.9662, 86.37952
200.4483, 86.66711
200.9304, 86.45710
201.4125, 86.20596
201.8947, 86.04295
202.3768, 85.95017
202.8589, 86.23701
203.3410, 87.05765
203.8231, 88.06043
204.3052, 88.52760
204.7874, 88.34907
205.2695, 88.11868
205.7516, 88.09680
206.2337, 88.30900
206.7158, 88.55802
207.1979, 88.84203
207.6801, 89.16391
208.1622, 89.54787
208.6443, 90.03493
209.1264, 90.46593
209.6085, 90.74931
210.0906, 90.84618
210.5728, 90.97758
211.0549, 91.15988
211.5370, 91.36819
212.0191, 91.50479
212.5012, 91.48493
212.9833, 91.60529
213.4655, 92.08485
213.9476, 93.11141
214.4297, 93.78397
214.9118, 93.95049
215.3939, 93.82381
215.8760, 93.95716
216.3581, 94.46362
216.8403, 94.99425
217.3224, 95.36026
217.8045, 95.48232
218.2866, 95.68703
218.7687, 95.98030
219.2508, 96.35723
219.7330, 96.82686
220.2151, 97.47857
220.6972, 98.05083
221.1793, 98.33506
221.6614, 98.05583
222.1435, 98.28513
222.6257, 99.33503
223.1078, 100.8140
223.5899, 101.6113
224.0720, 101.3688
224.5541, 101.0212
225.0362, 101.0108
225.5184, 101.5026
226.0005, 101.9289
226.4826, 102.2678
226.9647, 102.5421
227.4468, 102.8194
227.9289, 103.0914
228.4111, 103.3816
228.8932, 103.7261
229.3753, 104.2314
229.8574, 104.5265
230.3395, 104.4904
230.8216, 104.2668
231.3038, 104.2751
231.7859, 104.6949
232.2680, 105.0805
232.7501, 105.2020
233.2322, 104.8552
233.7143, 104.6995
234.1965, 104.7562
234.6786, 105.0003
235.1607, 105.3877
235.6428, 106.0452
236.1249, 106.6585
236.6070, 107.0741
237.0892, 107.1732
237.5713, 107.3335
238.0534, 107.5742
238.5355, 107.8697
239.0176, 108.1519
239.4997, 108.4068
239.9819, 108.6742
240.4640, 108.9778
240.9461, 109.3655
241.4282, 109.6788
241.9103, 109.8909
242.3924, 110.0384
242.8746, 110.2039
243.3567, 110.3790
243.8388, 110.5860
244.3209, 110.7908
244.8030, 110.8354
245.2851, 111.3480
245.7673, 112.6829
246.2494, 114.3437
246.7315, 115.1992
247.2136, 114.7796
247.6957, 114.3036
248.1778, 114.2757
248.6600, 114.9242
249.1421, 115.3055
249.6242, 115.2364
250.1063, 114.9997
250.5884, 115.1765
251.0705, 116.0059
251.5527, 116.8419
252.0348, 117.4272
252.5169, 117.6770
252.9990, 118.0005
253.4811, 118.4212
253.9632, 118.9025
254.4454, 119.3532
254.9275, 119.6854
255.4096, 120.1619
255.8917, 120.9426
256.3738, 122.1535
256.8560, 123.0600
257.3381, 123.6101
257.8202, 123.9077
258.3023, 124.0797
258.7844, 124.0210
259.2665, 124.0684
259.7487, 124.3888
260.2308, 125.0569
260.7129, 125.4591
261.1950, 125.5371
261.6771, 125.4133
262.1592, 125.1934
262.6414, 124.7573
263.1235, 124.5486
263.6056, 124.8192
264.0877, 125.6351
264.5698, 125.9290
265.0519, 125.5393
265.5341, 124.8514
266.0162, 124.2824
266.4983, 123.8421
266.9804, 123.5082
267.4625, 123.2981
267.9446, 123.2114
268.4268, 123.0658
268.9089, 122.7956
269.3910, 122.5873
269.8731, 122.6948
270.3552, 123.2283
270.8373, 123.6330
271.3195, 123.8037
271.8016, 123.7424
272.2837, 123.4411
272.7658, 122.7946
273.2479, 122.1344
273.7300, 121.7365
274.2122, 121.6108
274.6943, 121.7034
275.1764, 122.0683
275.6585, 122.6451
276.1406, 123.0872
276.6227, 123.3476
277.1049, 123.6324
277.5870, 124.1639
278.0691, 124.9755
278.5512, 125.6441
279.0333, 126.0637
279.5154, 126.3147
279.9976, 126.6745
280.4797, 127.1648
280.9618, 127.6569
281.4439, 128.0252
281.9260, 128.2651
282.4081, 128.6544
282.8903, 129.2532
283.3724, 129.9916
283.8545, 130.6754
284.3366, 131.2886
284.8187, 132.0159
285.3008, 133.0882
285.7830, 134.4663
286.2651, 135.5311
286.7472, 136.1625
287.2293, 136.5994
287.7114, 137.3176
288.1935, 138.3134
288.6757, 139.2457
289.1578, 139.7240
289.6399, 139.9061
290.1220, 140.6946
290.6041, 142.2810
291.0862, 144.0247
291.5684, 144.9191
292.0505, 145.0484
292.5326, 145.1776
293.0147, 145.7201
293.4968, 146.5528
293.9789, 147.3663
294.4611, 148.1608
294.9432, 148.8450
295.4253, 149.1531
295.9074, 149.2014
296.3895, 149.4787
296.8716, 150.4970
297.3538, 151.8182
297.8359, 152.4555
298.3180, 152.3889
298.8001, 152.2163
299.2822, 152.5051
299.7643, 153.1338
300.2465, 153.7895
300.7286, 154.4807
301.2107, 155.0596
301.6928, 155.2433
302.1749, 155.0533
302.6570, 154.8401
303.1392, 154.7659
303.6213, 154.8749
304.1034, 155.2841
304.5855, 156.2808
305.0676, 157.2945
305.5497, 157.6954
306.0319, 157.5716
306.5140, 157.4012
306.9961, 157.4301
307.4782, 157.6110
307.9603, 157.9360
308.4424, 158.5408
308.9246, 159.0194
309.4067, 158.8599
309.8888, 158.2811
310.3709, 157.9087
310.8530, 158.3707
311.3351, 159.0276
311.8173, 159.2973
312.2994, 158.9817
312.7815, 158.6142
313.2636, 158.5104
313.7457, 158.5776
314.2278, 158.6494
314.7100, 158.5609
315.1921, 158.5276
315.6742, 158.7517
316.1563, 159.3156
316.6384, 159.7450
317.1205, 159.6418
317.6027, 159.3354
318.0848, 159.2436
318.5669, 159.6687
319.0490, 160.1788
319.5311, 160.5713
320.0132, 160.8269
320.4954, 161.2122
320.9775, 161.7497
321.4596, 162.4684
321.9417, 163.3868
322.4238, 164.6119
322.9059, 165.9285
323.3881, 167.2952
323.8702, 168.7029
324.3523, 170.1929
324.8344, 171.7541
325.3165, 173.4094
325.7986, 175.1869
326.2808, 177.1331
326.7629, 179.1517
327.2450, 181.1992
327.7271, 183.3054
328.2092, 185.5888
328.6913, 188.0000
329.1735, 190.6299
329.6556, 193.5942
330.1377, 197.2453
330.6198, 200.5386
331.1019, 203.1179
331.5840, 205.4341
332.0662, 208.4455
332.5483, 212.7244
333.0304, 216.8955
333.5125, 220.3488
333.9946, 222.8940
334.4767, 225.9169
334.9589, 229.4851
335.4410, 233.4214
335.9231, 237.5644
336.4052, 242.0009
336.8873, 246.3054
337.3694, 250.2293
337.8515, 253.8026
338.3336, 257.9738
338.8158, 263.0225
339.2979, 268.1068
339.7800, 272.4981
340.2621, 276.0702
340.7442, 279.6270
341.2263, 283.2682
341.7085, 286.9583
342.1906, 290.4508
342.6727, 293.8034
343.1548, 296.7915
343.6369, 299.3793
344.1190, 301.5312
344.6012, 302.9858
345.0833, 303.6138
345.5654, 303.6912
346.0475, 303.7313
346.5296, 303.7139
347.0117, 303.3234
347.4939, 302.3104
347.9760, 300.7888
348.4581, 299.0070
348.9402, 296.9287
349.4223, 294.8684
349.9044, 293.0244
350.3866, 291.4331
350.8687, 290.1979
351.3508, 289.7414
351.8329, 289.4874
352.3150, 288.2288
352.7971, 286.0015
353.2793, 284.1772
353.7614, 284.0927
354.2435, 285.0458
354.7256, 285.9094
355.2077, 286.3759
355.6898, 286.6100
356.1720, 286.7659
356.6541, 286.8190
357.1362, 286.6733
357.6183, 286.0990
358.1004, 285.3934
358.5826, 284.8931
359.0647, 284.8471
359.5468, 284.5276
360.0289, 283.3730
360.5110, 281.6795
360.9931, 280.0037
361.4753, 279.3473
361.9574, 278.1600
362.4395, 275.4450
362.9216, 270.8845
363.4037, 266.2982
363.8858, 262.0545
364.3680, 258.1276
364.8501, 254.4750
365.3322, 251.7744
365.8143, 248.7021
366.2964, 244.8024
366.7785, 240.0742
367.2607, 235.4405
367.7428, 230.9406
368.2249, 226.5613
368.7070, 222.2843
369.1891, 218.3399
369.6712, 214.2367
370.1534, 209.8615
370.6355, 205.2934
371.1176, 200.7641
371.5997, 196.1122
372.0818, 191.6911
372.5639, 187.6029
373.0461, 183.8404
373.5282, 180.3821
374.0103, 177.3071
374.4924, 174.3864
374.9745, 171.2616
375.4566, 167.7649
375.9388, 164.5485
376.4209, 161.9919
376.9030, 159.9938
377.3851, 157.3358
377.8672, 153.8137
378.3493, 150.1917
378.8315, 147.2578
379.3136, 144.9998
379.7957, 142.8725
380.2778, 140.7583
380.7599, 138.7085
381.2420, 136.8092
381.7242, 135.0914
382.2063, 133.3902
382.6884, 131.6280
383.1705, 129.8037
383.6526, 127.9607
384.1347, 126.0937
384.6169, 124.2454
385.0990, 122.4606
385.5811, 120.7541
386.0632, 119.2623
386.5453, 118.3340
387.0274, 117.5208
387.5096, 116.1009
387.9917, 114.0818
388.4738, 112.1630
388.9559, 110.9702
389.4380, 110.2233
389.9201, 109.5619
390.4023, 109.0033
390.8844, 108.3595
391.3665, 107.4326
391.8486, 106.2901
392.3307, 105.2111
392.8128, 104.2846
393.2950, 103.4955
393.7771, 102.8190
394.2592, 102.2408
394.7413, 101.8035
395.2234, 101.7154
395.7055, 101.7410
396.1877, 101.5165
396.6698, 100.5770
397.1519, 99.74258
397.6340, 99.35703
398.1161, 99.50842
398.5982, 99.40244
399.0804, 98.63954
399.5625, 97.81471
400.0446, 97.37025
400.5267, 97.70562
401.0088, 97.83218
401.4909, 97.52077
401.9731, 96.92791
402.4552, 96.72956
402.9373, 97.19197
403.4194, 97.61601
403.9015, 97.64129
404.3836, 97.14998
404.8658, 96.71741
405.3479, 96.34386
405.8300, 96.03178
406.3121, 95.75713
406.7942, 95.50146
407.2763, 95.41093
407.7585, 95.59695
408.2406, 95.99368
408.7227, 96.23427
409.2048, 96.30939
409.6869, 96.29402
410.1690, 96.19632
410.6512, 96.04639
411.1333, 95.98361
411.6154, 96.02989
412.0975, 96.18434
412.5796, 96.49868
413.0617, 96.94337
413.5439, 97.37405
414.0260, 97.80376
414.5081, 98.13897
414.9902, 98.19852
415.4723, 97.95219
415.9544, 97.64304
416.4366, 97.36121
416.9187, 97.16798
417.4008, 97.15458
417.8829, 97.58712
418.3650, 98.00896
418.8471, 98.12434
419.3293, 97.97423
419.8114, 97.81778
420.2935, 97.75283
420.7756, 97.72754
421.2577, 97.69812
421.7398, 97.59330
422.2220, 97.60747
422.7041, 97.92797
423.1862, 98.37411
423.6683, 98.62212
424.1504, 98.47115
424.6325, 98.28178
425.1147, 98.16250
425.5968, 98.12935
426.0789, 97.85614
426.5610, 98.07121
427.0431, 98.20118
427.5252, 98.25060
428.0074, 97.97829
428.4895, 98.12144
428.9716, 98.09810
429.4537, 98.06792
429.9358, 98.26954
430.4179, 98.51582
430.9001, 98.64825
431.3822, 98.52547
431.8643, 98.14099
432.3464, 97.96896
432.8285, 98.05351
433.3106, 98.21088
433.7928, 98.19141
434.2749, 98.01827
434.7570, 97.89096
435.2391, 97.90366
435.7212, 97.97437
436.2033, 97.90952
436.6855, 97.72655
437.1676, 97.59075
437.6497, 97.55785
438.1318, 97.66707
438.6139, 98.05370
439.0960, 98.83552
439.5782, 99.53978
440.0603, 99.63731
440.5424, 99.39200
441.0245, 99.29642
441.5066, 99.71856
441.9887, 100.2208
442.4709, 100.5885
442.9530, 100.8115
443.4351, 100.8964
443.9172, 100.6751
444.3993, 100.4147
444.8814, 100.3262
445.3636, 100.8735
445.8457, 101.0143
446.3278, 100.2773
446.8099, 99.03390
447.2920, 98.19158
447.7741, 98.08410
448.2563, 98.03013
448.7384, 97.87301
449.2205, 97.62109
449.7026, 97.17719
450.1847, 96.41325
450.6668, 95.62736
451.1490, 95.13381
451.6311, 95.03358
452.1132, 94.82993
452.5953, 94.43035
453.0774, 93.89711
453.5595, 93.36020
454.0417, 92.81477
454.5238, 92.28880
455.0059, 91.76358
455.4880, 91.25944
455.9701, 90.86736
456.4522, 90.59715
456.9344, 90.40297
457.4165, 90.33298
457.8986, 90.30785
458.3807, 90.09181
458.8628, 89.48064
459.3449, 88.78909
459.8271, 88.35389
460.3092, 88.14595
460.7913, 88.02862
461.2734, 88.08046
461.7555, 88.09365
462.2376, 87.80135
462.7198, 87.06133
463.2019, 86.53415
463.6840, 86.85176
464.1661, 87.45042
464.6482, 87.64799
465.1303, 86.75292
465.6125, 85.97212
466.0946, 85.65230
466.5767, 85.75573
467.0588, 85.91051
467.5409, 86.10824
468.0230, 86.33591
468.5052, 86.59529
468.9873, 86.91665
469.4694, 87.19913
469.9515, 87.45251
470.4336, 87.65967
470.9157, 87.79143
471.3979, 87.83152
471.8800, 87.83866
472.3621, 87.76393
472.8442, 87.67415
473.3263, 87.94585
473.8084, 88.61876
474.2906, 89.34341
474.7727, 89.94236
475.2548, 90.39584
475.7369, 90.50971
476.2190, 90.16846
476.7011, 89.86916
477.1833, 90.42370
477.6654, 91.52834
478.1475, 92.34708
478.6296, 92.28643
479.1117, 91.94395
479.5938, 91.90154
480.0760, 92.12846
480.5581, 92.41475
481.0402, 92.58479
481.5223, 92.79874
482.0044, 93.22716
482.4865, 94.01157
482.9687, 94.69722
483.4508, 95.08659
483.9329, 95.29807
484.4150, 95.49561
484.8971, 95.62627
485.3792, 95.83510
485.8614, 96.18859
486.3435, 96.67484
486.8256, 97.13184
487.3077, 97.54375
487.7898, 97.93881
488.2719, 98.36843
488.7541, 98.92442
489.2362, 99.17064
489.7183, 99.01421
490.2004, 98.66705
490.6825, 98.39916
491.1646, 98.20232
491.6468, 98.17346
492.1289, 98.39198
492.6110, 98.77044
493.0931, 99.08046
493.5752, 99.32316
494.0573, 99.51861
494.5395, 99.63164
495.0216, 99.71730
495.5037, 99.87171
495.9858, 100.0899
496.4679, 100.4544
496.9500, 101.1406
497.4322, 102.0074
497.9143, 102.8086
498.3964, 103.2427
498.8785, 103.7701
499.3606, 104.6313
499.8427, 105.8115
500.3249, 107.1732
500.8070, 108.7730
501.2891, 110.4735
501.7712, 112.1637
502.2533, 113.7348
502.7354, 115.5649
503.2176, 117.8350
503.6997, 120.2879
504.1818, 122.6527
504.6639, 124.7586
505.1460, 127.0878
505.6281, 129.7005
506.1103, 132.5944
506.5924, 135.6808
507.0745, 138.9712
507.5566, 142.4052
508.0387, 146.0660
508.5208, 149.9263
509.0030, 153.3961
509.4851, 156.4273
509.9672, 159.3359
510.4493, 162.3675
510.9314, 165.5430
511.4135, 169.0426
511.8957, 173.1754
512.3778, 177.1262
512.8599, 179.8743
513.3420, 181.6340
513.8242, 183.0204
514.3063, 184.5887
514.7884, 185.7656
515.2705, 186.1283
515.7526, 185.6503
516.2347, 184.4933
516.7169, 182.5912
517.1990, 180.1083
517.6811, 177.1558
518.1632, 173.4211
518.6453, 169.6624
519.1274, 166.0570
519.6096, 162.4330
520.0917, 158.4982
520.5738, 153.9857
521.0559, 149.6232
521.5380, 145.5739
522.0201, 141.8353
522.5023, 138.4033
522.9844, 135.3383
523.4665, 132.3747
523.9486, 129.2151
524.4307, 125.8764
524.9128, 123.0663
525.3950, 120.9482
525.8771, 119.0770
526.3592, 116.7360
526.8413, 114.1294
527.3234, 111.9444
527.8055, 110.7732
528.2877, 109.8508
528.7698, 108.1288
529.2519, 105.8171
529.7340, 103.7428
530.2161, 102.4757
530.6982, 101.5612
531.1804, 100.6648
531.6625, 99.76206
532.1446, 98.88979
532.6267, 98.18828
533.1088, 97.46890
533.5909, 96.56918
534.0731, 94.99995
534.5552, 93.83058
535.0373, 93.29832
535.5194, 93.18886
536.0015, 92.93154
536.4836, 92.45144
536.9658, 91.98396
537.4479, 91.65701
537.9300, 91.45637
538.4121, 90.96513
538.8942, 90.11274
539.3763, 89.27092
539.8585, 88.77370
540.3406, 88.57220
540.8227, 88.39035
541.3048, 88.18666
541.7869, 88.01083
542.2690, 87.97570
542.7512, 88.01884
543.2333, 87.98263
543.7154, 87.70256
544.1975, 87.39979
544.6796, 87.34371
545.1617, 87.45409
545.6439, 87.37831
546.1260, 86.73254
546.6081, 86.02332
547.0902, 85.55473
547.5723, 85.41654
548.0544, 85.30094
548.5366, 85.23633
549.0187, 85.13409
549.5008, 84.91274
549.9829, 84.49702
550.4650, 84.10049
550.9471, 83.74822
551.4293, 83.42262
551.9114, 83.10029
552.3935, 82.80820
552.8756, 82.38259
553.3577, 81.68367
553.8398, 80.80117
554.3220, 80.16899
554.8041, 79.79076
555.2862, 79.49584
555.7683, 79.15329
556.2504, 78.79404
556.7325, 78.50047
557.2147, 78.30605
557.6968, 78.05114
558.1789, 77.56282
558.6610, 76.93449
559.1431, 76.30945
559.6252, 75.72104
560.1074, 75.16453
560.5895, 74.56916
561.0716, 73.98989
561.5537, 73.62148
562.0358, 73.59673
562.5179, 73.69611
563.0001, 73.88615
563.4822, 74.18559
563.9643, 74.35682
564.4464, 74.36871
564.9285, 74.29662
565.4106, 74.14214
565.8928, 73.85765
566.3749, 73.84260
566.8570, 74.19071
567.3391, 74.67829
567.8212, 74.94949
568.3033, 75.03707
568.7855, 75.16446
569.2676, 75.42484
569.7497, 75.75047
570.2318, 76.01113
570.7139, 76.23528
571.1960, 76.56973
571.6782, 77.22160
572.1603, 77.93400
572.6424, 78.51685
573.1245, 78.95982
573.6066, 79.25002
574.0887, 79.23286
574.5709, 79.15477
575.0530, 79.21005
575.5351, 79.55078
576.0172, 79.84661
576.4993, 80.09990
576.9814, 80.29992
577.4636, 80.40926
577.9457, 80.37682
578.4278, 80.39854
578.9099, 80.56051
579.3920, 80.79774
579.8741, 80.83295
580.3563, 80.65136
580.8384, 80.45963
581.3205, 80.36318
581.8026, 80.35172
582.2847, 80.42478
582.7668, 80.58363
583.2490, 80.73547
583.7311, 80.81947
584.2131, 80.84340
584.6953, 80.81087
585.1774, 80.70318
