##NAMES=Schreibersite
##RRUFFID=R070239
##IDEAL CHEMISTRY=(Fe,Ni,Cr)_3_P
##LOCALITY=Sao Juliao de Moreira meteorite, Ponte de Lima, Viana do Castelo district, Portugal
##OWNER=RRUFF
##SOURCE=Michael Scott
##DESCRIPTION=Silvery fragments with slightly brassy luster, co-type specimen
##STATUS=The identification of this mineral has been confirmed by X-ray diffraction.
##URL=rruff.info/R070239
156.8936, 939.0436
157.3757, 950.1982
157.8578, 962.9681
158.3399, 981.0228
158.8221, 995.4135
159.3042, 1000.411
159.7863, 978.1829
160.2684, 962.4585
160.7505, 969.8456
161.2326, 997.1974
161.7148, 1019.716
162.1969, 1024.369
162.6790, 1020.188
163.1611, 1015.882
163.6432, 1013.684
164.1253, 1012.587
164.6075, 1010.607
165.0896, 1007.623
165.5717, 1009.403
166.0538, 1027.831
166.5359, 1051.544
167.0180, 1064.412
167.5002, 1045.603
167.9823, 1022.407
168.4644, 1017.933
168.9465, 1036.231
169.4286, 1056.833
169.9107, 1065.108
170.3929, 1064.628
170.8750, 1063.119
171.3571, 1063.944
171.8392, 1065.985
172.3213, 1068.601
172.8034, 1072.268
173.2856, 1074.578
173.7677, 1071.715
174.2498, 1065.098
174.7319, 1059.655
175.2140, 1057.063
175.6961, 1057.785
176.1783, 1063.713
176.6604, 1077.654
177.1425, 1092.332
177.6246, 1098.397
178.1067, 1096.642
178.5888, 1092.576
179.0710, 1087.627
179.5531, 1083.314
180.0352, 1084.067
180.5173, 1094.379
180.9994, 1106.700
181.4815, 1105.644
181.9637, 1091.651
182.4458, 1078.751
182.9279, 1082.424
183.4100, 1098.130
183.8921, 1108.319
184.3742, 1104.051
184.8564, 1092.789
185.3385, 1093.652
185.8206, 1107.472
186.3027, 1123.370
186.7848, 1129.446
187.2669, 1126.959
187.7491, 1125.837
188.2312, 1131.309
188.7133, 1140.894
189.1954, 1144.482
189.6775, 1141.028
190.1596, 1136.133
190.6418, 1136.764
191.1239, 1142.819
191.6060, 1149.803
192.0881, 1158.189
192.5702, 1167.116
193.0524, 1167.611
193.5345, 1157.872
194.0166, 1144.409
194.4987, 1136.982
194.9808, 1135.832
195.4629, 1137.084
195.9451, 1139.696
196.4272, 1143.661
196.9093, 1146.617
197.3914, 1148.078
197.8735, 1149.176
198.3556, 1152.405
198.8378, 1158.102
199.3199, 1163.696
199.8020, 1167.621
200.2841, 1169.719
200.7662, 1172.160
201.2483, 1175.417
201.7305, 1178.764
202.2126, 1180.125
202.6947, 1179.032
203.1768, 1177.697
203.6589, 1177.722
204.1410, 1179.449
204.6232, 1179.678
205.1053, 1176.750
205.5874, 1172.743
206.0695, 1176.074
206.5516, 1189.784
207.0337, 1202.845
207.5159, 1206.773
207.9980, 1199.329
208.4801, 1193.093
208.9622, 1189.727
209.4443, 1188.732
209.9264, 1187.252
210.4086, 1184.214
210.8907, 1182.856
211.3728, 1186.775
211.8549, 1198.495
212.3370, 1206.844
212.8191, 1209.508
213.3013, 1207.155
213.7834, 1205.742
214.2655, 1206.059
214.7476, 1206.037
215.2297, 1203.296
215.7118, 1195.971
216.1940, 1191.033
216.6761, 1189.776
217.1582, 1192.105
217.6403, 1196.791
218.1224, 1205.468
218.6045, 1214.248
219.0867, 1219.161
219.5688, 1218.743
220.0509, 1217.772
220.5330, 1217.043
221.0151, 1216.541
221.4972, 1216.717
221.9794, 1218.720
222.4615, 1220.128
222.9436, 1217.341
223.4257, 1205.915
223.9078, 1199.765
224.3899, 1204.590
224.8721, 1221.980
225.3542, 1229.315
225.8363, 1220.612
226.3184, 1207.590
226.8005, 1204.892
227.2827, 1218.841
227.7648, 1231.149
228.2469, 1237.362
228.7290, 1236.984
229.2111, 1233.922
229.6932, 1225.984
230.1754, 1217.177
230.6575, 1212.805
231.1396, 1214.590
231.6217, 1217.871
232.1038, 1221.527
232.5859, 1225.528
233.0681, 1230.193
233.5502, 1236.250
234.0323, 1242.431
234.5144, 1247.336
234.9965, 1252.392
235.4786, 1253.478
235.9608, 1247.012
236.4429, 1229.099
236.9250, 1222.887
237.4071, 1235.113
237.8892, 1254.925
238.3713, 1264.601
238.8535, 1258.060
239.3356, 1251.596
239.8177, 1251.225
240.2998, 1259.891
240.7819, 1262.857
241.2640, 1256.667
241.7462, 1246.835
242.2283, 1242.886
242.7104, 1246.923
243.1925, 1253.469
243.6746, 1261.934
244.1567, 1274.842
244.6389, 1280.511
245.1210, 1275.436
245.6031, 1265.227
246.0852, 1259.868
246.5673, 1261.423
247.0494, 1264.328
247.5316, 1266.732
248.0137, 1268.406
248.4958, 1270.226
248.9779, 1271.499
249.4600, 1273.305
249.9421, 1278.377
250.4243, 1290.290
250.9064, 1299.139
251.3885, 1300.951
251.8706, 1293.927
252.3527, 1284.927
252.8348, 1270.461
253.3170, 1256.171
253.7991, 1254.746
254.2812, 1274.328
254.7633, 1291.135
255.2454, 1294.300
255.7275, 1277.661
256.2097, 1270.639
256.6918, 1276.660
257.1739, 1290.014
257.6560, 1300.524
258.1381, 1307.683
258.6202, 1313.097
259.1024, 1318.309
259.5845, 1324.967
260.0666, 1323.350
260.5487, 1308.818
261.0308, 1289.538
261.5129, 1280.866
261.9951, 1286.922
262.4772, 1293.911
262.9593, 1295.671
263.4414, 1290.161
263.9235, 1289.797
264.4056, 1296.851
264.8878, 1306.940
265.3699, 1312.562
265.8520, 1312.974
266.3341, 1311.133
266.8162, 1307.095
267.2983, 1299.951
267.7805, 1296.781
268.2626, 1298.207
268.7447, 1302.977
269.2268, 1310.688
269.7089, 1323.592
270.1910, 1331.279
270.6732, 1327.366
271.1553, 1310.032
271.6374, 1299.157
272.1195, 1295.507
272.6016, 1297.189
273.0837, 1302.741
273.5659, 1313.393
274.0480, 1321.725
274.5301, 1323.535
275.0122, 1318.457
275.4943, 1317.906
275.9764, 1323.336
276.4586, 1330.557
276.9407, 1332.235
277.4228, 1327.465
277.9049, 1324.880
278.3870, 1329.920
278.8691, 1341.995
279.3513, 1346.737
279.8334, 1342.763
280.3155, 1335.010
280.7976, 1328.487
281.2798, 1323.108
281.7619, 1322.288
282.2440, 1329.095
282.7261, 1342.357
283.2082, 1353.901
283.6903, 1364.128
284.1725, 1371.162
284.6546, 1371.500
285.1367, 1365.358
285.6188, 1358.391
286.1009, 1351.552
286.5830, 1345.404
287.0652, 1342.587
287.5473, 1343.317
288.0294, 1346.226
288.5115, 1350.434
288.9936, 1355.822
289.4757, 1361.202
289.9579, 1366.238
290.4400, 1370.991
290.9221, 1376.354
291.4042, 1382.486
291.8863, 1387.216
292.3684, 1388.774
292.8506, 1387.161
293.3327, 1382.069
293.8148, 1369.789
294.2969, 1356.009
294.7790, 1353.099
295.2611, 1361.087
295.7433, 1371.365
296.2254, 1375.622
296.7075, 1376.216
297.1896, 1380.225
297.6717, 1394.335
298.1538, 1408.999
298.6360, 1404.839
299.1181, 1383.597
299.6002, 1366.319
300.0823, 1377.722
300.5644, 1403.472
301.0465, 1415.118
301.5287, 1397.073
302.0108, 1372.165
302.4929, 1367.780
302.9750, 1380.927
303.4571, 1394.688
303.9392, 1397.780
304.4214, 1394.625
304.9035, 1390.817
305.3856, 1386.665
305.8677, 1383.975
306.3498, 1383.159
306.8319, 1384.813
307.3141, 1391.132
307.7962, 1412.934
308.2783, 1435.524
308.7604, 1443.379
309.2425, 1428.580
309.7246, 1408.807
310.2068, 1390.285
310.6889, 1374.934
311.1710, 1367.415
311.6531, 1376.543
312.1352, 1390.346
312.6173, 1400.221
313.0995, 1404.219
313.5816, 1405.614
314.0637, 1401.323
314.5458, 1395.769
315.0279, 1397.198
315.5100, 1420.402
315.9922, 1442.659
316.4743, 1449.888
316.9564, 1436.502
317.4385, 1424.564
317.9206, 1422.036
318.4027, 1425.150
318.8849, 1428.639
319.3670, 1432.350
319.8491, 1435.089
320.3312, 1435.205
320.8133, 1431.535
321.2954, 1431.778
321.7776, 1444.874
322.2597, 1459.766
322.7418, 1464.669
323.2239, 1444.409
323.7060, 1427.464
324.1881, 1420.960
324.6703, 1425.780
325.1524, 1432.650
325.6345, 1446.728
326.1166, 1459.488
326.5987, 1464.099
327.0808, 1449.749
327.5630, 1439.916
328.0451, 1437.221
328.5272, 1441.539
329.0093, 1450.942
329.4914, 1474.343
329.9735, 1494.557
330.4557, 1499.458
330.9378, 1477.949
331.4199, 1460.333
331.9020, 1449.169
332.3841, 1443.675
332.8662, 1440.348
333.3484, 1440.292
333.8305, 1440.777
334.3126, 1439.525
334.7947, 1434.206
335.2768, 1435.245
335.7589, 1446.873
336.2411, 1463.083
336.7232, 1466.770
337.2053, 1452.658
337.6874, 1441.370
338.1695, 1445.672
338.6516, 1468.417
339.1338, 1480.319
339.6159, 1477.874
340.0980, 1469.099
340.5801, 1468.673
341.0622, 1477.763
341.5443, 1484.209
342.0265, 1479.086
342.5086, 1464.739
342.9907, 1466.338
343.4728, 1487.368
343.9549, 1510.621
344.4370, 1510.735
344.9192, 1490.398
345.4013, 1475.498
345.8834, 1479.157
346.3655, 1493.777
346.8476, 1498.684
347.3297, 1493.626
347.8119, 1486.159
348.2940, 1483.166
348.7761, 1483.433
349.2582, 1483.023
349.7403, 1478.815
350.2225, 1475.444
350.7046, 1482.625
351.1867, 1498.842
351.6688, 1511.905
352.1509, 1510.371
352.6331, 1500.787
353.1152, 1492.680
353.5973, 1487.844
354.0794, 1485.587
354.5615, 1486.177
355.0436, 1489.028
355.5258, 1492.364
356.0079, 1495.919
356.4900, 1499.135
356.9721, 1500.961
357.4542, 1500.324
357.9363, 1501.395
358.4185, 1509.545
358.9006, 1520.670
359.3827, 1527.668
359.8648, 1523.703
360.3469, 1518.123
360.8290, 1515.467
361.3112, 1516.296
361.7933, 1518.890
362.2754, 1527.919
362.7575, 1536.496
363.2396, 1537.135
363.7217, 1517.183
364.2039, 1500.075
364.6860, 1492.561
365.1681, 1494.865
365.6502, 1498.564
366.1323, 1503.438
366.6144, 1508.959
367.0966, 1514.811
367.5787, 1523.094
368.0608, 1528.983
368.5429, 1530.386
369.0250, 1528.597
369.5071, 1530.504
369.9893, 1540.387
370.4714, 1548.981
370.9535, 1551.360
371.4356, 1543.912
371.9177, 1538.264
372.3998, 1534.149
372.8820, 1532.120
373.3641, 1534.166
373.8462, 1542.161
374.3283, 1549.384
374.8104, 1553.509
375.2925, 1554.577
375.7747, 1551.534
376.2568, 1542.836
376.7389, 1533.033
377.2210, 1527.748
377.7031, 1527.019
378.1852, 1530.605
378.6674, 1540.897
379.1495, 1555.317
379.6316, 1563.180
380.1137, 1564.172
380.5958, 1560.859
381.0779, 1551.403
381.5601, 1538.124
382.0422, 1534.398
382.5243, 1547.726
383.0064, 1566.042
383.4885, 1566.428
383.9706, 1551.240
384.4528, 1537.826
384.9349, 1540.674
385.4170, 1552.267
385.8991, 1561.156
386.3812, 1566.549
386.8633, 1566.376
387.3455, 1552.150
387.8276, 1530.606
388.3097, 1516.985
388.7918, 1525.823
389.2739, 1541.476
389.7560, 1551.382
390.2382, 1554.145
390.7203, 1556.386
391.2024, 1563.361
391.6845, 1571.194
392.1666, 1575.494
392.6487, 1572.001
393.1309, 1567.262
393.6130, 1562.253
394.0951, 1557.358
394.5772, 1556.445
395.0593, 1566.035
395.5414, 1576.415
396.0236, 1581.410
396.5057, 1574.048
396.9878, 1568.541
397.4699, 1567.070
397.9520, 1568.519
398.4341, 1569.402
398.9163, 1569.803
399.3984, 1569.527
399.8805, 1568.036
400.3626, 1563.849
400.8447, 1562.916
401.3268, 1565.994
401.8090, 1571.773
402.2911, 1579.668
402.7732, 1592.538
403.2553, 1599.445
403.7374, 1594.530
404.2195, 1578.918
404.7017, 1574.471
405.1838, 1584.088
405.6659, 1597.090
406.1480, 1603.722
406.6301, 1603.932
407.1122, 1604.227
407.5944, 1606.521
408.0765, 1608.789
408.5586, 1605.203
409.0407, 1595.860
409.5228, 1586.259
410.0049, 1578.533
410.4871, 1573.392
410.9692, 1573.239
411.4513, 1578.816
411.9334, 1587.440
412.4155, 1599.549
412.8976, 1612.880
413.3798, 1620.590
413.8619, 1613.788
414.3440, 1603.348
414.8261, 1601.519
415.3082, 1608.540
415.7903, 1615.855
416.2725, 1617.569
416.7546, 1616.624
417.2367, 1616.402
417.7188, 1619.243
418.2009, 1621.600
418.6830, 1620.952
419.1652, 1618.230
419.6473, 1616.868
420.1294, 1621.429
420.6115, 1625.130
421.0937, 1622.898
421.5758, 1607.153
422.0579, 1600.591
422.5400, 1617.466
423.0221, 1642.922
423.5042, 1652.697
423.9864, 1628.567
424.4685, 1608.252
424.9506, 1600.660
425.4327, 1606.863
425.9148, 1613.776
426.3969, 1622.937
426.8791, 1631.059
427.3612, 1634.848
427.8433, 1632.949
428.3254, 1630.824
428.8075, 1628.759
429.2896, 1627.155
429.7718, 1628.101
430.2539, 1632.267
430.7360, 1635.459
431.2181, 1632.847
431.7002, 1625.258
432.1823, 1625.848
432.6645, 1636.546
433.1466, 1651.203
433.6287, 1662.921
434.1108, 1671.639
434.5929, 1676.896
435.0750, 1677.608
435.5572, 1675.040
436.0393, 1670.394
436.5214, 1663.791
437.0035, 1657.779
437.4856, 1655.614
437.9677, 1654.958
438.4499, 1652.148
438.9320, 1644.154
439.4141, 1637.373
439.8962, 1637.355
440.3783, 1642.207
440.8604, 1647.049
441.3426, 1650.226
441.8247, 1652.353
442.3068, 1653.087
442.7889, 1651.661
443.2710, 1652.400
443.7531, 1659.876
444.2353, 1668.766
444.7174, 1673.310
445.1995, 1663.331
445.6816, 1659.172
446.1637, 1668.858
446.6458, 1690.305
447.1280, 1701.892
447.6101, 1700.824
448.0922, 1692.932
448.5743, 1679.113
449.0564, 1651.219
449.5385, 1639.909
450.0207, 1650.739
450.5028, 1674.064
450.9849, 1694.302
451.4670, 1712.490
451.9491, 1721.129
452.4312, 1713.217
452.9134, 1691.644
453.3955, 1679.024
453.8776, 1675.972
454.3597, 1677.589
454.8418, 1681.811
455.3239, 1687.399
455.8061, 1688.740
456.2882, 1683.514
456.7703, 1675.159
457.2524, 1665.963
457.7345, 1657.065
458.2166, 1653.008
458.6988, 1660.235
459.1809, 1671.920
459.6630, 1681.012
460.1451, 1686.811
460.6272, 1690.491
461.1093, 1691.493
461.5915, 1691.203
462.0736, 1691.321
462.5557, 1693.675
463.0378, 1695.293
463.5199, 1695.272
464.0020, 1693.616
464.4842, 1690.469
464.9663, 1678.298
465.4484, 1670.283
465.9305, 1674.540
466.4126, 1706.776
466.8947, 1723.737
467.3769, 1715.665
467.8590, 1696.595
468.3411, 1689.913
468.8232, 1702.083
469.3053, 1714.073
469.7874, 1721.551
470.2696, 1724.583
470.7517, 1723.228
471.2338, 1715.896
471.7159, 1709.070
472.1980, 1709.620
472.6801, 1717.337
473.1623, 1721.842
473.6444, 1719.969
474.1265, 1717.648
474.6086, 1728.803
475.0907, 1750.896
475.5728, 1767.521
476.0550, 1766.477
476.5371, 1755.645
477.0192, 1747.789
477.5013, 1743.354
477.9834, 1738.099
478.4655, 1725.809
478.9477, 1711.613
479.4298, 1702.285
479.9119, 1699.708
480.3940, 1702.444
480.8761, 1714.674
481.3582, 1732.324
481.8404, 1743.492
482.3225, 1737.937
482.8046, 1730.255
483.2867, 1727.165
483.7688, 1730.550
484.2509, 1733.975
484.7331, 1734.803
485.2152, 1736.532
485.6973, 1742.832
486.1794, 1757.508
486.6615, 1770.538
487.1436, 1781.990
487.6258, 1790.873
488.1079, 1791.036
488.5900, 1779.360
489.0721, 1767.563
489.5542, 1764.556
490.0363, 1770.482
490.5185, 1764.134
491.0006, 1741.525
491.4827, 1718.320
491.9648, 1718.848
492.4470, 1738.827
492.9291, 1754.859
493.4112, 1756.760
493.8933, 1752.036
494.3754, 1750.446
494.8575, 1751.977
495.3397, 1756.618
495.8218, 1769.959
496.3039, 1783.769
496.7860, 1788.655
497.2681, 1782.189
497.7502, 1771.399
498.2324, 1752.207
498.7145, 1733.105
499.1966, 1725.286
499.6787, 1747.048
500.1608, 1765.630
500.6429, 1770.186
501.1251, 1761.250
501.6072, 1751.025
502.0893, 1733.826
502.5714, 1721.179
503.0535, 1719.226
503.5356, 1733.542
504.0178, 1745.288
504.4999, 1753.996
504.9820, 1760.438
505.4641, 1766.857
505.9462, 1774.348
506.4283, 1775.320
506.9105, 1763.522
507.3926, 1744.440
507.8747, 1742.818
508.3568, 1759.582
508.8389, 1776.866
509.3210, 1779.366
509.8032, 1772.290
510.2853, 1771.058
510.7674, 1778.890
511.2495, 1787.020
511.7316, 1785.474
512.2137, 1777.618
512.6959, 1770.361
513.1780, 1765.007
513.6601, 1762.465
514.1422, 1764.179
514.6243, 1769.693
515.1064, 1775.920
515.5886, 1784.094
516.0707, 1790.917
516.5528, 1794.175
517.0349, 1792.409
517.5170, 1789.622
517.9991, 1783.236
518.4813, 1777.192
518.9634, 1777.295
519.4455, 1790.437
519.9276, 1797.470
520.4097, 1791.337
520.8918, 1775.155
521.3740, 1770.344
521.8561, 1780.118
522.3382, 1790.615
522.8203, 1791.155
523.3024, 1782.575
523.7845, 1780.583
524.2667, 1787.458
524.7488, 1795.497
525.2309, 1793.774
525.7130, 1785.008
526.1951, 1778.611
526.6772, 1777.560
527.1594, 1780.679
527.6415, 1787.989
528.1236, 1798.723
528.6057, 1809.737
529.0878, 1823.179
529.5699, 1833.514
530.0521, 1834.726
530.5342, 1823.564
531.0163, 1814.813
531.4984, 1814.303
531.9805, 1818.052
532.4626, 1821.805
532.9448, 1829.459
533.4269, 1831.531
533.9090, 1823.484
534.3911, 1808.707
534.8732, 1800.411
535.3553, 1798.941
535.8375, 1803.392
536.3196, 1816.062
536.8017, 1837.954
537.2838, 1849.606
537.7659, 1849.781
538.2480, 1844.105
538.7302, 1836.183
539.2123, 1826.737
539.6944, 1821.906
540.1765, 1824.734
540.6586, 1829.581
541.1407, 1827.796
541.6229, 1821.026
542.1050, 1815.184
542.5871, 1811.942
543.0692, 1812.020
543.5513, 1818.250
544.0334, 1830.616
544.5156, 1840.150
544.9977, 1840.197
545.4798, 1837.096
545.9619, 1835.841
546.4440, 1838.860
546.9261, 1841.537
547.4083, 1841.728
547.8904, 1841.521
548.3725, 1845.202
548.8546, 1858.477
549.3367, 1866.057
549.8188, 1861.979
550.3010, 1847.655
550.7831, 1840.116
551.2652, 1840.769
551.7473, 1843.521
552.2294, 1842.938
552.7115, 1839.766
553.1937, 1842.575
553.6758, 1853.055
554.1579, 1865.317
554.6400, 1872.600
555.1221, 1875.820
555.6042, 1877.337
556.0864, 1876.220
556.5685, 1875.614
557.0506, 1880.519
557.5327, 1889.067
558.0148, 1894.200
558.4969, 1890.168
558.9791, 1883.387
559.4612, 1877.527
559.9433, 1873.125
560.4254, 1869.004
560.9075, 1860.207
561.3896, 1854.412
561.8718, 1858.693
562.3539, 1883.628
562.8360, 1900.412
563.3181, 1904.307
563.8002, 1899.904
564.2823, 1898.356
564.7645, 1900.536
565.2466, 1901.624
565.7287, 1898.859
566.2108, 1893.380
566.6929, 1891.142
567.1750, 1892.271
567.6572, 1894.243
568.1393, 1896.117
568.6214, 1897.113
569.1035, 1895.115
569.5856, 1889.168
570.0677, 1882.740
570.5499, 1876.351
571.0320, 1871.810
571.5141, 1871.908
571.9962, 1883.790
572.4783, 1894.405
572.9604, 1897.553
573.4426, 1894.479
573.9247, 1892.020
574.4068, 1892.585
574.8889, 1892.703
575.3710, 1890.067
575.8531, 1883.054
576.3353, 1882.696
576.8174, 1892.607
577.2995, 1903.818
577.7816, 1906.372
578.2637, 1899.037
578.7458, 1896.886
579.2280, 1903.727
579.7101, 1913.683
580.1922, 1914.125
580.6743, 1907.131
581.1564, 1904.433
581.6385, 1917.418
582.1207, 1934.592
582.6028, 1940.838
583.0849, 1936.910
583.5670, 1929.208
584.0491, 1913.862
584.5313, 1901.123
585.0134, 1901.055
585.4955, 1920.436
585.9776, 1935.071
586.4597, 1935.607
586.9418, 1929.513
587.4240, 1925.195
587.9061, 1924.430
588.3882, 1923.067
588.8703, 1919.864
589.3524, 1915.997
589.8345, 1916.300
590.3167, 1923.010
590.7988, 1924.945
591.2809, 1913.086
591.7630, 1891.839
592.2451, 1886.866
592.7272, 1898.738
593.2094, 1912.946
593.6915, 1916.749
594.1736, 1914.440
594.6557, 1913.996
595.1378, 1916.755
595.6199, 1921.231
596.1021, 1927.797
596.5842, 1934.993
597.0663, 1940.756
597.5485, 1946.830
598.0306, 1948.707
598.5127, 1938.907
598.9948, 1922.068
599.4769, 1918.583
599.9590, 1946.176
600.4412, 1966.890
600.9233, 1964.100
601.4054, 1935.201
601.8875, 1925.794
602.3696, 1941.574
602.8517, 1963.094
603.3339, 1975.551
603.8160, 1979.282
604.2981, 1973.910
604.7802, 1956.851
605.2623, 1939.870
605.7444, 1941.126
606.2266, 1955.008
606.7087, 1966.490
607.1908, 1970.791
607.6729, 1969.990
608.1550, 1963.024
608.6371, 1951.887
609.1193, 1942.824
609.6014, 1934.868
610.0835, 1932.663
610.5656, 1941.689
611.0477, 1964.697
611.5298, 1978.977
612.0120, 1980.545
612.4941, 1976.443
612.9762, 1969.453
613.4583, 1956.104
613.9404, 1954.293
614.4225, 1969.359
614.9047, 1987.992
615.3868, 1988.657
615.8689, 1972.887
616.3510, 1960.704
616.8331, 1957.751
617.3152, 1961.614
617.7974, 1972.351
618.2795, 1987.689
618.7616, 1999.373
619.2437, 2000.069
619.7258, 1997.415
620.2079, 1997.833
620.6901, 2001.596
621.1722, 2002.289
621.6543, 1992.151
622.1364, 1982.083
622.6185, 1979.706
623.1006, 1989.640
623.5828, 1998.077
624.0649, 2006.653
624.5470, 2012.230
625.0291, 2009.304
625.5112, 1995.489
625.9933, 1986.026
626.4755, 1984.101
626.9576, 1987.502
627.4397, 1994.601
627.9218, 2004.406
628.4039, 2009.343
628.8860, 2002.108
629.3682, 1989.701
629.8503, 1980.235
630.3324, 1973.805
630.8145, 1971.071
631.2966, 1977.174
631.7787, 1983.832
632.2609, 1984.200
632.7430, 1975.117
633.2251, 1968.832
633.7072, 1967.843
634.1893, 1970.631
634.6714, 1976.429
635.1536, 1988.025
635.6357, 1996.277
636.1178, 1999.430
636.5999, 2000.011
637.0820, 2001.662
637.5641, 2004.291
638.0463, 2011.048
638.5284, 2026.389
639.0105, 2043.542
639.4926, 2047.472
639.9747, 2040.059
640.4568, 2032.192
640.9390, 2030.248
641.4211, 2030.991
641.9032, 2031.879
642.3853, 2032.719
642.8674, 2033.042
643.3495, 2033.157
643.8317, 2032.352
644.3138, 2029.887
644.7959, 2023.498
645.2780, 2019.597
645.7601, 2017.676
646.2422, 2018.675
646.7244, 2025.603
647.2065, 2040.813
647.6886, 2049.106
648.1707, 2046.625
648.6528, 2037.511
649.1349, 2026.540
649.6171, 2014.855
650.0992, 2010.079
650.5813, 2020.667
651.0634, 2037.057
651.5455, 2049.027
652.0276, 2056.803
652.5098, 2061.004
652.9919, 2062.795
653.4740, 2060.494
