##NAMES=Schrockingerite
##RRUFFID=R060232
##IDEAL CHEMISTRY=NaCa_3_(U^6+^O_2_)(S^6+^O_4_)(CO_3_)_3_F&#183;10H_2_O
##LOCALITY=Atomic King #2 mine, Cane Wash, San Juan County, Utah, USA
##OWNER=RRUFF
##SOURCE=Michael Scott
##DESCRIPTION=Aggregate of yellowish-green platy crystals
##STATUS=The identification of this mineral is confirmed by single-crystal X-ray diffraction and chemical analysis.
##URL=rruff.info/R060232
##MEASURED CHEMISTRY=Na_0.17_Ca_3.33_(UO_2_)_1.21_(SO_4_)_0.99_(CO_3_)_2.95_F_1.11_Â·1.53H_2_O
150.1633, 502.8933
150.6454, 504.6983
151.1275, 506.8016
151.6096, 508.4001
152.0917, 509.0237
152.5739, 509.1288
153.0560, 509.4694
153.5381, 510.0601
154.0202, 510.8258
154.5023, 511.8369
154.9844, 513.1107
155.4665, 514.1356
155.9487, 514.5659
156.4308, 514.7104
156.9129, 514.7054
157.3950, 514.5319
157.8771, 514.4348
158.3592, 514.9897
158.8414, 516.7981
159.3235, 517.6731
159.8056, 516.6801
160.2877, 514.8577
160.7698, 513.0070
161.2519, 511.4683
161.7341, 510.1693
162.2162, 508.9482
162.6983, 508.2287
163.1804, 506.9630
163.6625, 504.5721
164.1446, 501.7056
164.6268, 499.1840
165.1089, 497.4717
165.5910, 496.4331
166.0731, 495.1480
166.5552, 493.4543
167.0373, 491.6924
167.5195, 490.0242
168.0016, 488.3324
168.4837, 486.3744
168.9658, 483.9897
169.4479, 481.1761
169.9300, 478.2723
170.4122, 474.8510
170.8943, 471.7544
171.3764, 469.5280
171.8585, 468.0431
172.3406, 466.6333
172.8227, 464.7597
173.3049, 462.5401
173.7870, 460.8424
174.2691, 460.0343
174.7512, 459.4779
175.2333, 458.7388
175.7154, 457.8004
176.1976, 456.6518
176.6797, 455.1118
177.1618, 453.3472
177.6439, 451.8081
178.1260, 450.7230
178.6081, 449.8613
179.0903, 448.6779
179.5724, 446.8494
180.0545, 445.7047
180.5366, 446.9638
181.0187, 449.3443
181.5008, 450.7378
181.9830, 449.5815
182.4651, 446.8213
182.9472, 445.5702
183.4293, 447.1364
183.9114, 448.2016
184.3935, 446.9443
184.8757, 444.3178
185.3578, 441.9595
185.8399, 441.0233
186.3220, 441.3565
186.8041, 441.3357
187.2862, 440.8677
187.7684, 440.0850
188.2505, 438.6384
188.7326, 436.9020
189.2147, 435.5800
189.6968, 435.2878
190.1789, 436.0673
190.6611, 436.6766
191.1432, 437.3113
191.6253, 437.5943
192.1074, 437.1616
192.5895, 436.2202
193.0716, 435.2709
193.5538, 434.7482
194.0359, 434.6867
194.5180, 434.7727
195.0001, 435.2530
195.4822, 435.6243
195.9643, 435.6457
196.4465, 435.3267
196.9286, 434.8039
197.4107, 434.1800
197.8928, 433.4356
198.3749, 432.7518
198.8570, 432.2573
199.3392, 431.7221
199.8213, 430.9835
200.3034, 430.0332
200.7855, 428.9845
201.2676, 427.8999
201.7497, 426.7818
202.2319, 425.7840
202.7140, 425.0023
203.1961, 424.2923
203.6782, 423.4984
204.1603, 422.5967
204.6424, 421.7256
205.1246, 420.9551
205.6067, 420.3024
206.0888, 419.8937
206.5709, 420.3384
207.0530, 420.8200
207.5351, 419.8507
208.0173, 416.8659
208.4994, 414.1795
208.9815, 414.1984
209.4636, 415.8957
209.9457, 417.2572
210.4278, 417.5967
210.9100, 417.0960
211.3921, 415.9483
211.8742, 413.6714
212.3563, 411.8060
212.8384, 411.3351
213.3205, 411.8468
213.8027, 412.6921
214.2848, 413.7737
214.7669, 414.9268
215.2490, 415.4759
215.7311, 415.0023
216.2132, 414.5496
216.6954, 414.6240
217.1775, 415.0158
217.6596, 415.3397
218.1417, 415.2863
218.6238, 414.9732
219.1059, 415.1373
219.5881, 416.3358
220.0702, 417.3383
220.5523, 417.8177
221.0344, 417.8647
221.5165, 417.6060
221.9986, 417.0583
222.4808, 416.2827
222.9629, 415.8525
223.4450, 416.2234
223.9271, 416.4874
224.4092, 416.3936
224.8913, 416.0685
225.3735, 415.7135
225.8556, 415.4371
226.3377, 415.2572
226.8198, 415.3857
227.3019, 416.3039
227.7840, 417.0296
228.2662, 417.2670
228.7483, 417.1668
229.2304, 417.0233
229.7125, 417.0342
230.1946, 417.1657
230.6767, 417.0482
231.1589, 416.6202
231.6410, 416.0347
232.1231, 415.2418
232.6052, 414.3172
233.0873, 413.3839
233.5694, 412.5126
234.0516, 411.7002
234.5337, 410.9297
235.0158, 410.2142
235.4979, 409.5150
235.9800, 408.7713
236.4621, 408.0376
236.9443, 407.4320
237.4264, 407.0350
237.9085, 406.8056
238.3906, 406.5500
238.8727, 406.3698
239.3548, 406.0663
239.8370, 405.4287
240.3191, 404.6046
240.8012, 403.9726
241.2833, 403.7465
241.7654, 403.8078
242.2475, 403.7985
242.7297, 403.7264
243.2118, 403.5871
243.6939, 403.1859
244.1760, 402.6802
244.6581, 402.5804
245.1402, 403.1823
245.6224, 404.2173
246.1045, 405.1357
246.5866, 405.9185
247.0687, 406.6484
247.5508, 407.3083
248.0329, 407.9326
248.5151, 408.7086
248.9972, 409.8644
249.4793, 410.9890
249.9614, 411.4404
250.4435, 411.1240
250.9256, 410.8239
251.4078, 411.0239
251.8899, 411.6231
252.3720, 412.2827
252.8541, 413.2722
253.3362, 413.7820
253.8183, 412.8536
254.3005, 410.5039
254.7826, 408.0839
255.2647, 406.4662
255.7468, 405.5081
256.2289, 404.5216
256.7110, 403.5320
257.1931, 402.2783
257.6753, 400.3563
258.1574, 397.9032
258.6395, 395.7923
259.1216, 394.8925
259.6037, 394.9366
260.0858, 394.3521
260.5680, 392.5589
261.0501, 390.7130
261.5322, 389.5449
262.0143, 388.9165
262.4964, 388.3986
262.9785, 387.5943
263.4607, 386.6195
263.9428, 386.2518
264.4249, 387.1896
264.9070, 387.7109
265.3891, 386.4699
265.8712, 384.2732
266.3534, 382.7731
266.8355, 383.1586
267.3176, 384.9857
267.7997, 386.3668
268.2818, 387.0932
268.7639, 387.6527
269.2461, 388.2267
269.7282, 388.7788
270.2103, 389.2602
270.6924, 389.6537
271.1745, 389.9497
271.6566, 390.0987
272.1388, 390.0339
272.6209, 389.9223
273.1030, 389.9190
273.5851, 389.8651
274.0672, 389.5324
274.5493, 388.7918
275.0315, 387.8393
275.5136, 387.1688
275.9957, 386.9000
276.4778, 386.7040
276.9599, 386.5856
277.4420, 386.4647
277.9242, 386.2434
278.4063, 385.8883
278.8884, 385.4961
279.3705, 385.2498
279.8526, 385.2178
280.3347, 385.2010
280.8169, 385.1808
281.2990, 385.1669
281.7811, 385.2728
282.2632, 385.4864
282.7453, 385.5492
283.2274, 384.9466
283.7096, 383.1123
284.1917, 382.0583
284.6738, 382.3848
285.1559, 382.9582
285.6380, 383.1125
286.1201, 382.7809
286.6023, 382.3260
287.0844, 382.1679
287.5665, 382.3960
288.0486, 382.5652
288.5307, 382.2121
289.0128, 382.2021
289.4950, 383.2515
289.9771, 385.1091
290.4592, 386.8442
290.9413, 387.5532
291.4234, 387.1281
291.9055, 387.0858
292.3877, 387.7278
292.8698, 388.4447
293.3519, 389.0161
293.8340, 389.5093
294.3161, 390.0975
294.7982, 390.8983
295.2804, 391.9101
295.7625, 393.0589
296.2446, 394.3634
296.7267, 395.8053
297.2088, 397.6291
297.6909, 399.5403
298.1731, 401.0054
298.6552, 401.6964
299.1373, 401.9183
299.6194, 402.8364
300.1015, 405.2091
300.5836, 407.4056
301.0658, 409.4353
301.5479, 411.1533
302.0300, 412.2876
302.5121, 412.7455
302.9942, 412.9057
303.4763, 413.5800
303.9585, 415.2631
304.4406, 416.7360
304.9227, 418.4342
305.4048, 419.6664
305.8869, 419.8088
306.3690, 418.7507
306.8512, 416.9105
307.3333, 414.8199
307.8154, 412.3587
308.2975, 409.9592
308.7796, 407.8555
309.2617, 405.6063
309.7439, 402.9254
310.2260, 399.8170
310.7081, 396.4583
311.1902, 392.9907
311.6723, 389.3018
312.1544, 386.1675
312.6366, 384.4160
313.1187, 382.3163
313.6008, 378.8233
314.0829, 374.3736
314.5650, 370.0575
315.0471, 366.6517
315.5293, 364.1252
316.0114, 362.1085
316.4935, 361.4298
316.9756, 360.3219
317.4577, 358.2455
317.9398, 355.5464
318.4220, 352.6179
318.9041, 349.6337
319.3862, 346.8140
319.8683, 344.8535
320.3504, 344.8268
320.8326, 344.3735
321.3147, 343.0793
321.7968, 341.4607
322.2789, 340.0148
322.7610, 338.9136
323.2431, 337.9679
323.7253, 336.8312
324.2074, 335.1180
324.6895, 334.0089
325.1716, 333.7765
325.6537, 333.8460
326.1358, 333.9741
326.6180, 334.0477
327.1001, 333.9106
327.5822, 333.3486
328.0643, 332.2298
328.5464, 331.3591
329.0285, 331.0677
329.5107, 330.6743
329.9928, 329.7595
330.4749, 328.4821
330.9570, 327.2912
331.4391, 326.5184
331.9212, 326.1439
332.4034, 325.8759
332.8855, 325.9384
333.3676, 325.8645
333.8497, 325.5888
334.3318, 325.1171
334.8139, 324.3414
335.2961, 323.1943
335.7782, 321.9682
336.2603, 321.6032
336.7424, 323.1400
337.2245, 323.9876
337.7066, 323.6189
338.1888, 322.7398
338.6709, 321.7981
339.1530, 320.9775
339.6351, 320.4673
340.1172, 320.7010
340.5993, 322.3385
341.0815, 323.0058
341.5636, 321.9967
342.0457, 320.7419
342.5278, 319.9408
343.0099, 319.6478
343.4920, 319.5995
343.9742, 319.6068
344.4563, 319.6862
344.9384, 319.5124
345.4205, 318.7476
345.9026, 318.0465
346.3847, 317.5434
346.8669, 317.2315
347.3490, 317.1005
347.8311, 317.1724
348.3132, 317.3682
348.7953, 317.3596
349.2774, 316.9839
349.7596, 316.6473
350.2417, 316.4373
350.7238, 316.2914
351.2059, 316.2056
351.6880, 316.1728
352.1701, 316.0497
352.6523, 315.4884
353.1344, 314.1829
353.6165, 313.3896
354.0986, 313.4064
354.5807, 313.8228
355.0628, 314.6867
355.5450, 315.8551
356.0271, 316.7950
356.5092, 316.8740
356.9913, 316.0565
357.4734, 315.4472
357.9555, 315.1450
358.4377, 314.9677
358.9198, 314.9554
359.4019, 315.0020
359.8840, 314.9086
360.3661, 314.5502
360.8482, 313.9796
361.3304, 313.2888
361.8125, 312.3087
362.2946, 311.6052
362.7767, 311.4307
363.2588, 311.5791
363.7409, 311.8911
364.2231, 312.3376
364.7052, 312.8327
365.1873, 313.3564
365.6694, 313.9516
366.1515, 314.1843
366.6336, 313.8127
367.1158, 313.1271
367.5979, 312.1031
368.0800, 310.8102
368.5621, 309.9171
369.0442, 310.1865
369.5263, 311.3475
370.0085, 312.0910
370.4906, 312.1945
370.9727, 312.0841
371.4548, 312.0847
371.9369, 312.1085
372.4190, 311.9344
372.9012, 311.3365
373.3833, 310.5893
373.8654, 310.1080
374.3475, 309.9191
374.8296, 309.8002
375.3117, 309.7503
375.7939, 309.6540
376.2760, 309.3017
376.7581, 308.5576
377.2402, 307.8639
377.7223, 307.5379
378.2044, 307.5331
378.6866, 307.6647
379.1687, 307.9175
379.6508, 308.2332
380.1329, 308.6532
380.6150, 309.1846
381.0971, 309.3527
381.5793, 308.8520
382.0614, 307.9601
382.5435, 306.8929
383.0256, 305.6437
383.5077, 304.7805
383.9898, 304.9433
384.4720, 305.9759
384.9541, 306.5534
385.4362, 306.3827
385.9183, 305.9782
386.4004, 305.5382
386.8825, 305.1029
387.3647, 304.7690
387.8468, 304.5681
388.3289, 304.5244
388.8110, 304.7529
389.2931, 305.4205
389.7752, 305.9512
390.2574, 306.2152
390.7395, 306.2867
391.2216, 306.2081
391.7037, 305.9972
392.1858, 305.7550
392.6679, 305.5945
393.1501, 305.5282
393.6322, 305.5028
394.1143, 305.8483
394.5964, 305.9360
395.0785, 305.1291
395.5606, 303.7190
396.0428, 302.6137
396.5249, 302.4293
397.0070, 302.9674
397.4891, 303.1536
397.9712, 302.3737
398.4533, 301.9811
398.9355, 302.3541
399.4176, 303.0779
399.8997, 303.7396
400.3818, 304.1988
400.8639, 304.5337
401.3460, 304.9020
401.8282, 305.4935
402.3103, 305.5567
402.7924, 304.6073
403.2745, 303.6385
403.7566, 303.1241
404.2387, 303.0350
404.7209, 303.1283
405.2030, 303.2497
405.6851, 303.3857
406.1672, 303.4295
406.6493, 303.3940
407.1314, 303.2323
407.6136, 303.0287
408.0957, 302.6696
408.5778, 301.8864
409.0599, 300.5764
409.5420, 299.2788
410.0241, 298.8441
410.5063, 299.4244
410.9884, 300.0700
411.4705, 300.9688
411.9526, 301.6134
412.4347, 301.5617
412.9168, 300.9270
413.3990, 300.2775
413.8811, 299.9201
414.3632, 299.8534
414.8453, 300.1725
415.3274, 301.1070
415.8095, 301.8585
416.2917, 301.7793
416.7738, 301.3208
417.2559, 301.0808
417.7380, 301.2829
418.2201, 301.5691
418.7022, 301.5440
419.1844, 301.2482
419.6665, 301.0961
420.1486, 301.3000
420.6307, 301.5758
421.1128, 301.4994
421.5949, 301.0706
422.0771, 300.7962
422.5592, 301.1511
423.0413, 301.6347
423.5234, 301.4081
424.0055, 300.3790
424.4876, 299.4213
424.9698, 299.2005
425.4519, 299.6418
425.9340, 300.0280
426.4161, 300.3532
426.8982, 300.6312
427.3803, 300.8199
427.8625, 300.9691
428.3446, 301.2738
428.8267, 301.8451
429.3088, 302.3208
429.7909, 301.9941
430.2730, 300.1033
430.7552, 299.1981
431.2373, 300.1495
431.7194, 301.4553
432.2015, 302.0308
432.6836, 301.8672
433.1657, 301.5624
433.6479, 301.5858
434.1300, 301.9095
434.6121, 302.1641
435.0942, 302.3591
435.5763, 302.4687
436.0584, 302.4588
436.5406, 302.3723
437.0227, 302.3199
437.5048, 302.3235
437.9869, 302.1876
438.4690, 301.4678
438.9511, 299.7663
439.4333, 298.7824
439.9154, 299.0970
440.3975, 299.6431
440.8796, 300.0333
441.3617, 300.2635
441.8438, 300.4514
442.3260, 300.6618
442.8081, 300.8952
443.2902, 301.0900
443.7723, 301.0970
444.2544, 301.4524
444.7365, 302.9904
445.2187, 304.6142
445.7008, 305.1178
446.1829, 304.2045
446.6650, 303.1771
447.1471, 303.3551
447.6292, 304.4836
448.1114, 305.0949
448.5935, 304.7823
449.0756, 304.2958
449.5577, 304.2668
450.0398, 304.5743
450.5219, 304.8970
451.0041, 305.1158
451.4862, 305.3380
451.9683, 305.7283
452.4504, 306.2495
452.9325, 306.5909
453.4146, 306.4978
453.8968, 306.2884
454.3789, 306.7260
454.8610, 307.9619
455.3431, 309.1793
455.8252, 310.3480
456.3073, 311.3243
456.7895, 311.8647
457.2716, 311.9755
457.7537, 312.0111
458.2358, 312.2765
458.7179, 312.7733
459.2000, 313.2565
459.6822, 313.6906
460.1643, 314.1557
460.6464, 314.6959
461.1285, 315.2741
461.6106, 315.7926
462.0927, 316.2227
462.5748, 316.7044
463.0569, 317.5247
463.5391, 318.9258
464.0212, 319.9862
464.5033, 320.7996
464.9854, 321.2086
465.4675, 320.9149
465.9496, 320.1417
466.4318, 319.3948
466.9139, 318.9722
467.3960, 318.8391
467.8781, 318.9746
468.3602, 319.6215
468.8423, 319.9007
469.3245, 319.4983
469.8066, 318.6656
470.2887, 317.3694
470.7708, 315.6339
471.2529, 314.1288
471.7350, 313.7215
472.2172, 314.0191
472.6993, 313.4198
473.1814, 311.5284
473.6635, 309.4955
474.1456, 308.1714
474.6277, 307.3020
475.1099, 306.3556
475.5920, 305.1180
476.0741, 303.9568
476.5562, 303.2678
477.0383, 302.8765
477.5204, 302.2528
478.0026, 301.2257
478.4847, 299.9164
478.9668, 298.3920
479.4489, 296.5005
479.9310, 295.1942
480.4131, 294.9740
480.8953, 294.9835
481.3774, 294.7003
481.8595, 294.1420
482.3416, 293.5059
482.8237, 292.8954
483.3058, 292.3239
483.7880, 291.8213
484.2701, 291.1600
484.7522, 290.9325
485.2343, 291.7971
485.7164, 292.6270
486.1985, 292.4455
486.6807, 291.2459
487.1628, 289.7408
487.6449, 288.3944
488.1270, 287.2610
488.6091, 287.2099
489.0912, 289.3211
489.5734, 290.7829
490.0555, 290.3544
490.5376, 289.1020
491.0197, 288.2424
491.5018, 288.1263
491.9839, 288.1260
492.4661, 287.4087
492.9482, 286.1053
493.4303, 285.4622
493.9124, 285.8421
494.3945, 286.5377
494.8766, 287.1660
495.3588, 287.6777
495.8409, 287.8734
496.3230, 287.5379
496.8051, 287.0243
497.2872, 286.5328
497.7693, 286.0921
498.2515, 285.8393
498.7336, 285.8583
499.2157, 285.9984
499.6978, 286.0433
500.1799, 286.0083
500.6620, 285.8109
501.1442, 285.0848
501.6263, 284.4963
502.1084, 284.7835
502.5905, 285.6655
503.0726, 286.0889
503.5547, 285.3328
504.0369, 283.9115
504.5190, 283.6679
505.0011, 286.0267
505.4832, 287.3002
505.9653, 286.7179
506.4474, 285.5284
506.9296, 284.3973
507.4117, 283.5172
507.8938, 282.9891
508.3759, 282.9159
508.8580, 283.2640
509.3401, 283.9737
509.8223, 285.5003
510.3044, 286.3762
510.7865, 285.4714
511.2686, 283.9853
511.7507, 283.0334
512.2328, 282.8263
512.7150, 282.9270
513.1971, 283.0663
513.6792, 283.2569
514.1613, 283.5912
514.6434, 284.1327
515.1255, 284.5713
515.6077, 284.6380
516.0898, 284.3997
516.5719, 284.1955
517.0540, 284.0244
517.5361, 283.9058
518.0182, 283.8582
518.5004, 283.8671
518.9825, 283.9640
519.4646, 284.1523
519.9467, 284.2309
520.4288, 283.8981
520.9109, 283.0180
521.3931, 282.6557
521.8752, 283.2705
522.3573, 283.8082
522.8394, 283.8594
523.3215, 283.6075
523.8036, 283.3588
524.2858, 283.2368
524.7679, 283.1304
525.2500, 282.7486
525.7321, 281.9165
526.2142, 281.7165
526.6964, 282.9814
527.1785, 284.0663
527.6606, 284.0892
528.1427, 283.3629
528.6248, 282.5931
529.1069, 281.9948
529.5891, 281.6234
530.0712, 281.6833
530.5533, 282.1411
531.0354, 282.4031
531.5175, 282.2166
531.9996, 281.9156
532.4818, 282.0258
532.9639, 282.5064
533.4460, 282.6054
533.9281, 281.7059
534.4102, 280.7605
534.8923, 280.7714
535.3745, 281.4190
535.8566, 281.4117
536.3387, 280.0528
536.8208, 278.2280
537.3029, 277.8362
537.7850, 280.1367
538.2672, 281.2520
538.7493, 280.3629
539.2314, 279.1299
539.7135, 278.1974
540.1956, 277.7299
540.6777, 277.9338
541.1599, 279.0353
541.6420, 280.5011
542.1241, 280.8730
542.6062, 279.7609
543.0883, 278.8122
543.5704, 278.4542
544.0526, 278.2470
544.5347, 277.9575
545.0168, 277.5793
545.4989, 277.1813
545.9810, 276.7807
546.4631, 276.3886
546.9453, 275.9188
547.4274, 275.3814
547.9095, 275.2680
548.3916, 275.9459
548.8737, 276.9456
549.3558, 277.4495
549.8380, 277.4469
550.3201, 277.2567
550.8022, 276.5722
551.2843, 276.0024
551.7664, 276.3195
552.2485, 277.2602
552.7307, 277.8045
553.2128, 277.3505
553.6949, 276.2158
554.1770, 275.2596
554.6591, 274.3462
555.1412, 273.8900
555.6234, 274.2897
556.1055, 274.7450
556.5876, 274.7880
557.0697, 274.4534
557.5518, 274.0152
558.0339, 273.6558
558.5161, 273.2777
558.9982, 272.5005
559.4803, 271.1694
559.9624, 270.4382
560.4445, 271.0618
560.9266, 271.9857
561.4088, 272.1916
561.8909, 271.7269
562.3730, 271.2178
562.8551, 270.7994
563.3372, 270.5150
563.8193, 270.5828
564.3015, 270.8917
564.7836, 270.8091
565.2657, 269.9722
565.7478, 268.8553
566.2299, 268.3257
566.7120, 268.5975
567.1942, 269.0096
567.6763, 269.8722
568.1584, 270.5807
568.6405, 270.7696
569.1226, 270.5221
569.6047, 270.0302
570.0869, 269.3784
570.5690, 268.7231
571.0511, 268.4415
571.5332, 268.6604
572.0153, 268.7485
572.4974, 268.4447
572.9796, 268.2025
573.4617, 268.3954
573.9438, 268.8426
574.4259, 269.0356
574.9080, 268.6094
575.3901, 268.0846
575.8723, 268.2050
576.3544, 268.8210
576.8365, 269.0199
577.3186, 268.4539
577.8007, 267.7050
578.2828, 267.4986
578.7650, 267.8737
579.2471, 267.8387
579.7292, 266.6340
580.2113, 265.7848
580.6934, 266.4058
581.1755, 267.7504
581.6577, 268.5683
582.1398, 268.4427
582.6219, 267.8757
583.1040, 267.4744
583.5861, 267.2118
584.0682, 267.3439
584.5504, 268.3909
585.0325, 269.2134
585.5146, 269.3468
585.9967, 269.1220
586.4788, 269.0307
586.9609, 269.2274
587.4431, 269.2469
587.9252, 268.4113
588.4073, 267.0000
588.8894, 266.0746
589.3715, 265.7430
589.8536, 265.8919
590.3358, 266.6979
590.8179, 267.8891
591.3000, 268.5207
591.7821, 268.3546
592.2642, 268.0796
592.7463, 267.9391
593.2285, 267.7818
593.7106, 267.3319
594.1927, 266.6356
594.6748, 266.1027
595.1569, 266.0904
595.6390, 266.4781
596.1212, 266.6246
596.6033, 266.4357
597.0854, 266.1597
597.5675, 265.6367
598.0496, 265.1998
598.5317, 265.1655
599.0139, 265.4744
599.4960, 265.7522
599.9781, 265.6494
600.4602, 265.4535
600.9423, 265.8199
601.4244, 266.7571
601.9066, 267.5363
602.3887, 267.9835
602.8708, 268.0742
603.3529, 267.6035
603.8350, 266.5645
604.3171, 265.7737
604.7993, 265.2933
605.2814, 265.1327
605.7635, 265.5340
606.2456, 266.2229
606.7277, 266.6648
607.2098, 266.6542
607.6920, 266.3109
608.1741, 265.7238
608.6562, 264.7447
609.1383, 264.3406
609.6204, 265.0119
610.1025, 265.7047
610.5847, 266.2816
611.0668, 266.6140
611.5489, 266.3990
612.0310, 265.5198
612.5131, 264.7463
612.9952, 265.0980
613.4774, 266.1278
613.9595, 266.2126
614.4416, 265.0625
614.9237, 264.0858
615.4058, 264.2879
615.8879, 265.2562
616.3701, 265.6410
616.8522, 265.2144
617.3343, 264.7498
617.8164, 264.1747
618.2985, 263.7852
618.7806, 264.0449
619.2628, 264.7854
619.7449, 265.3416
620.2270, 265.2829
620.7091, 264.7670
621.1912, 264.1952
621.6733, 263.4870
622.1555, 262.9579
622.6376, 262.4988
623.1197, 262.3857
623.6018, 263.2806
624.0839, 264.6624
624.5660, 265.0744
625.0482, 263.5343
625.5303, 261.5063
626.0124, 260.3839
626.4945, 259.9991
626.9766, 259.8993
627.4587, 260.0258
627.9409, 260.0310
628.4230, 259.5170
628.9051, 258.4988
629.3872, 257.7811
629.8693, 257.6066
630.3514, 257.3774
630.8336, 256.8919
631.3157, 256.3318
631.7978, 255.8505
632.2799, 255.4883
632.7620, 255.2488
633.2441, 255.1587
633.7263, 255.1797
634.2084, 255.2095
634.6905, 255.3089
635.1726, 255.1580
635.6547, 254.4790
636.1368, 253.6727
636.6190, 253.0827
637.1011, 252.7165
637.5832, 252.5947
638.0653, 253.0351
638.5474, 253.4539
639.0295, 253.3037
639.5117, 252.7489
639.9938, 252.2221
640.4759, 251.8730
640.9580, 251.5797
641.4401, 251.1932
641.9222, 250.7099
642.4044, 250.1676
642.8865, 249.2358
643.3686, 248.6462
643.8507, 248.8213
