##NAMES=Schrockingerite
##RRUFFID=R060232
##IDEAL CHEMISTRY=NaCa_3_(U^6+^O_2_)(S^6+^O_4_)(CO_3_)_3_F&#183;10H_2_O
##LOCALITY=Atomic King #2 mine, Cane Wash, San Juan County, Utah, USA
##OWNER=RRUFF
##SOURCE=Michael Scott
##DESCRIPTION=Aggregate of yellowish-green platy crystals
##STATUS=The identification of this mineral is confirmed by single-crystal X-ray diffraction and chemical analysis.
##URL=rruff.info/R060232
##MEASURED CHEMISTRY=Na_0.17_Ca_3.33_(UO_2_)_1.21_(SO_4_)_0.99_(CO_3_)_2.95_F_1.11_Â·1.53H_2_O
150.8963, 1772.956
151.3785, 1805.526
151.8606, 1838.128
152.3427, 1871.044
152.8248, 1904.636
153.3069, 1939.354
153.7890, 1974.838
154.2712, 2004.434
154.7533, 2020.610
155.2354, 2034.773
155.7175, 2047.355
156.1996, 2057.278
156.6817, 2067.238
157.1639, 2078.283
157.6460, 2089.649
158.1281, 2099.427
158.6102, 2107.111
159.0923, 2113.259
159.5744, 2118.151
160.0566, 2121.624
160.5387, 2124.193
161.0208, 2126.301
161.5029, 2127.713
161.9850, 2127.649
162.4671, 2124.620
162.9493, 2120.843
163.4314, 2117.793
163.9135, 2115.977
164.3956, 2114.736
164.8777, 2114.368
165.3598, 2114.521
165.8420, 2113.752
166.3241, 2110.201
166.8062, 2105.901
167.2883, 2102.662
167.7704, 2101.424
168.2525, 2100.829
168.7346, 2100.693
169.2168, 2100.765
169.6989, 2099.563
170.1810, 2095.688
170.6631, 2090.189
171.1452, 2084.278
171.6273, 2078.060
172.1095, 2071.904
172.5916, 2065.967
173.0737, 2060.270
173.5558, 2054.993
174.0379, 2050.957
174.5201, 2047.359
175.0022, 2042.813
175.4843, 2036.023
175.9664, 2028.416
176.4485, 2021.579
176.9306, 2015.430
177.4128, 2010.145
177.8949, 2006.442
178.3770, 2003.737
178.8591, 2000.665
179.3412, 1995.551
179.8233, 1990.090
180.3055, 1987.664
180.7876, 1988.430
181.2697, 1989.151
181.7518, 1985.745
182.2339, 1979.465
182.7160, 1974.229
183.1982, 1973.026
183.6803, 1973.915
184.1624, 1972.484
184.6445, 1968.558
185.1266, 1963.556
185.6087, 1958.637
186.0909, 1953.846
186.5730, 1949.652
187.0551, 1946.687
187.5372, 1944.507
188.0193, 1941.254
188.5014, 1936.657
188.9836, 1932.022
189.4657, 1929.191
189.9478, 1928.000
190.4299, 1926.539
190.9120, 1923.724
191.3941, 1919.806
191.8763, 1916.166
192.3584, 1912.870
192.8405, 1909.723
193.3226, 1906.315
193.8047, 1902.662
194.2868, 1899.092
194.7690, 1895.831
195.2511, 1892.865
195.7332, 1889.624
196.2153, 1886.075
196.6974, 1882.384
197.1795, 1878.818
197.6617, 1875.354
198.1438, 1872.353
198.6259, 1870.332
199.1080, 1869.310
199.5901, 1867.442
200.0722, 1864.601
200.5544, 1861.047
201.0365, 1856.823
201.5186, 1851.600
202.0007, 1847.505
202.4828, 1846.455
202.9649, 1848.851
203.4471, 1848.137
203.9292, 1843.237
204.4113, 1836.287
204.8934, 1831.591
205.3755, 1829.673
205.8576, 1827.954
206.3398, 1825.180
206.8219, 1821.167
207.3040, 1817.270
207.7861, 1813.523
208.2682, 1809.950
208.7503, 1806.666
209.2325, 1803.793
209.7146, 1800.986
210.1967, 1797.897
210.6788, 1794.240
211.1609, 1791.905
211.6430, 1791.381
212.1252, 1791.861
212.6073, 1791.439
213.0894, 1789.738
213.5715, 1788.157
214.0536, 1787.379
214.5357, 1787.629
215.0179, 1787.860
215.5000, 1788.066
215.9821, 1788.240
216.4642, 1788.270
216.9463, 1787.867
217.4284, 1787.904
217.9105, 1788.984
218.3927, 1791.711
218.8748, 1793.338
219.3569, 1793.462
219.8390, 1792.695
220.3211, 1792.488
220.8032, 1793.361
221.2854, 1793.801
221.7675, 1792.908
222.2496, 1789.783
222.7317, 1788.235
223.2138, 1789.043
223.6959, 1791.030
224.1781, 1791.504
224.6602, 1789.489
225.1423, 1787.655
225.6244, 1787.193
226.1065, 1788.631
226.5886, 1789.841
227.0708, 1790.938
227.5529, 1791.754
228.0350, 1791.851
228.5171, 1790.665
228.9992, 1789.708
229.4813, 1789.622
229.9635, 1790.740
230.4456, 1791.748
230.9277, 1792.811
231.4098, 1793.691
231.8919, 1793.904
232.3740, 1793.251
232.8562, 1792.282
233.3383, 1791.186
233.8204, 1789.979
234.3025, 1788.604
234.7846, 1786.968
235.2667, 1785.230
235.7489, 1783.785
236.2310, 1783.140
236.7131, 1781.985
237.1952, 1779.609
237.6773, 1775.389
238.1594, 1772.448
238.6416, 1771.225
239.1237, 1771.030
239.6058, 1770.833
240.0879, 1770.869
240.5700, 1770.500
241.0521, 1769.223
241.5343, 1766.500
242.0164, 1765.332
242.4985, 1766.301
242.9806, 1768.388
243.4627, 1770.108
243.9448, 1771.102
244.4270, 1772.256
244.9091, 1773.799
245.3912, 1775.759
245.8733, 1777.702
246.3554, 1778.998
246.8375, 1780.724
247.3197, 1784.460
247.8018, 1791.250
248.2839, 1798.165
248.7660, 1804.594
249.2481, 1810.590
249.7302, 1816.024
250.2124, 1821.227
250.6945, 1825.671
251.1766, 1828.644
251.6587, 1829.287
252.1408, 1830.257
252.6229, 1832.522
253.1051, 1836.301
253.5872, 1838.495
254.0693, 1839.094
254.5514, 1838.220
255.0335, 1836.014
255.5156, 1832.668
255.9978, 1827.573
256.4799, 1820.275
256.9620, 1810.736
257.4441, 1801.082
257.9262, 1791.501
258.4083, 1781.524
258.8904, 1770.493
259.3726, 1757.024
259.8547, 1745.828
260.3368, 1738.669
260.8189, 1734.982
261.3010, 1728.771
261.7831, 1718.692
262.2653, 1708.231
262.7474, 1700.325
263.2295, 1695.615
263.7116, 1691.450
264.1937, 1687.468
264.6758, 1683.759
265.1580, 1680.644
265.6401, 1678.382
266.1222, 1676.301
266.6043, 1673.930
267.0864, 1671.134
267.5685, 1668.441
268.0507, 1665.691
268.5328, 1663.123
269.0149, 1661.807
269.4970, 1662.276
269.9791, 1662.724
270.4612, 1661.737
270.9434, 1658.723
271.4255, 1657.277
271.9076, 1658.090
272.3897, 1660.260
272.8718, 1661.593
273.3539, 1662.087
273.8361, 1661.669
274.3182, 1659.626
274.8003, 1655.449
275.2824, 1653.850
275.7645, 1655.917
276.2466, 1659.513
276.7288, 1660.059
277.2109, 1656.888
277.6930, 1653.917
278.1751, 1653.611
278.6572, 1656.212
279.1393, 1656.116
279.6215, 1652.478
280.1036, 1647.827
280.5857, 1646.552
281.0678, 1649.089
281.5499, 1651.015
282.0320, 1650.411
282.5142, 1647.474
282.9963, 1644.515
283.4784, 1641.487
283.9605, 1638.608
284.4426, 1635.892
284.9247, 1633.318
285.4069, 1631.844
285.8890, 1632.071
286.3711, 1633.674
286.8532, 1635.152
287.3353, 1636.482
287.8174, 1637.769
288.2996, 1639.758
288.7817, 1642.252
289.2638, 1642.582
289.7459, 1638.875
290.2280, 1633.112
290.7101, 1630.864
291.1923, 1632.263
291.6744, 1635.075
292.1565, 1637.910
292.6386, 1640.682
293.1207, 1642.832
293.6028, 1643.870
294.0850, 1644.636
294.5671, 1647.150
295.0492, 1651.283
295.5313, 1655.182
296.0134, 1656.896
296.4955, 1657.227
296.9777, 1658.623
297.4598, 1661.666
297.9419, 1665.387
298.4240, 1668.179
298.9061, 1670.261
299.3882, 1672.854
299.8704, 1677.462
300.3525, 1682.974
300.8346, 1687.073
301.3167, 1689.227
301.7988, 1691.225
302.2809, 1695.206
302.7631, 1700.680
303.2452, 1706.283
303.7273, 1711.490
304.2094, 1716.337
304.6915, 1720.869
305.1736, 1725.160
305.6558, 1728.787
306.1379, 1731.129
306.6200, 1732.559
307.1021, 1733.784
307.5842, 1735.832
308.0663, 1737.321
308.5485, 1736.688
309.0306, 1733.944
309.5127, 1730.576
309.9948, 1728.104
310.4769, 1725.438
310.9590, 1721.146
311.4412, 1713.128
311.9233, 1704.842
312.4054, 1699.037
312.8875, 1695.220
313.3696, 1691.095
313.8517, 1685.605
314.3339, 1679.222
314.8160, 1672.204
315.2981, 1664.131
315.7802, 1656.362
316.2623, 1649.570
316.7444, 1643.673
317.2266, 1638.289
317.7087, 1633.876
318.1908, 1629.612
318.6729, 1624.809
319.1550, 1618.974
319.6371, 1613.661
320.1193, 1609.562
320.6014, 1606.292
321.0835, 1603.166
321.5656, 1598.752
322.0477, 1595.493
322.5298, 1595.118
323.0120, 1598.613
323.4941, 1600.202
323.9762, 1597.272
324.4583, 1592.357
324.9404, 1588.201
325.4225, 1585.890
325.9047, 1583.710
326.3868, 1581.309
326.8689, 1578.664
327.3510, 1576.191
327.8331, 1573.890
328.3152, 1571.836
328.7974, 1570.089
329.2795, 1568.660
329.7616, 1567.543
330.2437, 1566.718
330.7258, 1566.200
331.2079, 1566.126
331.6901, 1567.107
332.1722, 1567.895
332.6543, 1567.792
333.1364, 1565.827
333.6185, 1564.722
334.1006, 1564.909
334.5828, 1565.813
335.0649, 1566.042
335.5470, 1565.094
336.0291, 1564.320
336.5112, 1564.370
336.9933, 1565.534
337.4755, 1566.022
337.9576, 1565.675
338.4397, 1564.857
338.9218, 1563.821
339.4039, 1562.279
339.8860, 1561.715
340.3681, 1563.093
340.8503, 1566.166
341.3324, 1566.961
341.8145, 1564.789
342.2966, 1562.339
342.7787, 1562.501
343.2608, 1565.444
343.7430, 1567.485
344.2251, 1567.792
344.7072, 1566.801
345.1893, 1565.531
345.6714, 1563.928
346.1535, 1562.558
346.6357, 1561.749
347.1178, 1561.494
347.5999, 1561.919
348.0820, 1563.275
348.5641, 1564.736
349.0462, 1564.648
349.5284, 1563.245
350.0105, 1562.319
350.4926, 1563.167
350.9747, 1565.113
351.4568, 1566.847
351.9389, 1568.350
352.4211, 1569.279
352.9032, 1568.816
353.3853, 1567.469
353.8674, 1566.462
354.3495, 1566.333
354.8316, 1566.770
355.3138, 1567.593
355.7959, 1568.773
356.2780, 1569.897
356.7601, 1570.870
357.2422, 1571.584
357.7243, 1571.812
358.2065, 1571.017
358.6886, 1570.463
359.1707, 1571.099
359.6528, 1572.697
360.1349, 1574.572
360.6170, 1576.901
361.0992, 1579.034
361.5813, 1580.462
362.0634, 1580.959
362.5455, 1581.154
363.0276, 1580.899
363.5097, 1580.554
363.9919, 1580.665
364.4740, 1581.813
364.9561, 1583.039
365.4382, 1584.098
365.9203, 1584.993
366.4024, 1585.386
366.8846, 1584.426
367.3667, 1583.360
367.8488, 1583.202
368.3309, 1585.449
368.8130, 1587.080
369.2951, 1587.418
369.7773, 1586.682
370.2594, 1586.336
370.7415, 1586.483
371.2236, 1586.959
371.7057, 1587.792
372.1878, 1589.722
372.6700, 1590.544
373.1521, 1589.484
373.6342, 1587.653
374.1163, 1587.235
374.5984, 1588.689
375.0805, 1590.678
375.5627, 1593.069
376.0448, 1595.989
376.5269, 1597.475
377.0090, 1596.936
377.4911, 1595.974
377.9732, 1596.456
378.4554, 1598.622
378.9375, 1600.628
379.4196, 1602.177
379.9017, 1603.262
380.3838, 1603.707
380.8659, 1603.416
381.3481, 1603.268
381.8302, 1604.252
382.3123, 1606.147
382.7944, 1607.094
383.2765, 1606.691
383.7586, 1605.883
384.2408, 1606.154
384.7229, 1607.374
385.2050, 1608.724
385.6871, 1609.866
386.1692, 1610.831
386.6513, 1611.567
387.1335, 1612.045
387.6156, 1612.778
388.0977, 1614.066
388.5798, 1615.925
389.0619, 1618.506
389.5440, 1622.757
390.0262, 1626.776
390.5083, 1628.514
390.9904, 1628.372
391.4725, 1628.198
391.9546, 1629.164
392.4367, 1630.493
392.9189, 1631.466
393.4010, 1631.720
393.8831, 1632.166
394.3652, 1633.093
394.8473, 1634.523
395.3294, 1636.515
395.8116, 1640.498
396.2937, 1643.813
396.7758, 1644.919
397.2579, 1643.456
397.7400, 1642.699
398.2221, 1643.920
398.7043, 1645.789
399.1864, 1647.225
399.6685, 1647.193
400.1506, 1647.802
400.6327, 1649.872
401.1148, 1652.926
401.5970, 1654.651
402.0791, 1653.812
402.5612, 1653.056
403.0433, 1653.737
403.5254, 1656.879
404.0075, 1658.533
404.4897, 1657.978
404.9718, 1656.625
405.4539, 1656.677
405.9360, 1658.522
406.4181, 1660.684
406.9002, 1662.912
407.3824, 1665.156
407.8645, 1667.075
408.3466, 1668.669
408.8287, 1669.907
409.3108, 1670.422
409.7929, 1670.260
410.2751, 1670.924
410.7572, 1672.791
411.2393, 1675.275
411.7214, 1677.209
412.2035, 1678.652
412.6856, 1680.229
413.1678, 1682.574
413.6499, 1685.259
414.1320, 1687.276
414.6141, 1688.561
415.0962, 1689.775
415.5783, 1691.480
416.0605, 1693.613
416.5426, 1696.104
417.0247, 1699.705
417.5068, 1702.996
417.9889, 1704.357
418.4710, 1704.167
418.9532, 1704.178
419.4353, 1705.669
419.9174, 1707.533
420.3995, 1708.635
420.8816, 1708.083
421.3637, 1708.533
421.8459, 1711.905
422.3280, 1716.676
422.8101, 1720.601
423.2922, 1722.367
423.7743, 1723.823
424.2564, 1725.716
424.7386, 1728.148
425.2207, 1729.658
425.7028, 1728.975
426.1849, 1728.109
426.6670, 1728.395
427.1491, 1730.748
427.6313, 1732.898
428.1134, 1734.746
428.5955, 1736.361
429.0776, 1737.822
429.5597, 1738.970
430.0418, 1740.395
430.5240, 1742.478
431.0061, 1745.296
431.4882, 1747.613
431.9703, 1749.278
432.4524, 1750.723
432.9345, 1752.277
433.4167, 1753.906
433.8988, 1756.168
434.3809, 1759.467
434.8630, 1763.155
435.3451, 1765.356
435.8272, 1766.117
436.3094, 1766.982
436.7915, 1768.850
437.2736, 1771.614
437.7557, 1775.295
438.2378, 1780.112
438.7199, 1784.633
439.2020, 1787.408
439.6841, 1788.822
440.1663, 1789.662
440.6484, 1789.121
441.1305, 1788.977
441.6126, 1791.121
442.0947, 1795.218
442.5768, 1799.178
443.0590, 1802.047
443.5411, 1804.240
444.0232, 1805.945
444.5053, 1806.743
444.9874, 1808.030
445.4695, 1810.480
445.9517, 1813.631
446.4338, 1816.766
446.9159, 1819.690
447.3980, 1822.657
447.8801, 1825.774
448.3622, 1829.079
448.8444, 1832.171
449.3265, 1835.110
449.8086, 1837.809
450.2907, 1840.228
450.7728, 1842.445
451.2549, 1844.219
451.7371, 1845.095
452.2192, 1845.817
452.7013, 1848.189
453.1834, 1852.598
453.6655, 1857.216
454.1476, 1861.478
454.6298, 1865.341
455.1119, 1868.193
455.5940, 1869.760
456.0761, 1871.592
456.5582, 1875.441
457.0403, 1880.967
457.5225, 1886.333
458.0046, 1890.962
458.4867, 1895.409
458.9688, 1900.467
459.4509, 1906.012
459.9330, 1911.374
460.4152, 1916.456
460.8973, 1921.090
461.3794, 1924.822
461.8615, 1927.667
462.3436, 1930.542
462.8257, 1933.572
463.3079, 1937.203
463.7900, 1941.952
464.2721, 1948.775
464.7542, 1955.852
465.2363, 1963.239
465.7184, 1970.423
466.2006, 1975.936
466.6827, 1977.744
467.1648, 1979.297
467.6469, 1981.978
468.1290, 1986.171
468.6111, 1990.332
469.0933, 1994.825
469.5754, 1999.042
470.0575, 2002.503
470.5396, 2005.038
471.0217, 2007.193
471.5038, 2009.203
471.9860, 2010.855
472.4681, 2011.350
472.9502, 2010.458
473.4323, 2009.164
473.9144, 2008.027
474.3965, 2007.005
474.8787, 2005.180
475.3608, 2002.426
475.8429, 1999.398
476.3250, 1996.759
476.8071, 1994.471
477.2892, 1992.328
477.7714, 1990.145
478.2535, 1988.296
478.7356, 1987.925
479.2177, 1988.599
479.6998, 1988.471
480.1819, 1985.437
480.6641, 1981.645
481.1462, 1979.365
481.6283, 1978.829
482.1104, 1978.976
482.5925, 1979.638
483.0746, 1980.515
483.5568, 1981.301
484.0389, 1981.570
484.5210, 1982.133
485.0031, 1983.194
485.4852, 1984.717
485.9673, 1986.615
486.4495, 1989.014
486.9316, 1991.612
487.4137, 1994.547
487.8958, 1998.139
488.3779, 2000.122
488.8600, 1998.894
489.3422, 1997.667
489.8243, 1999.710
490.3064, 2006.230
490.7885, 2011.608
491.2706, 2014.872
491.7527, 2016.756
492.2349, 2019.453
492.7170, 2023.095
493.1991, 2025.799
493.6812, 2025.559
494.1633, 2023.485
494.6454, 2024.736
495.1276, 2029.486
495.6097, 2034.347
496.0918, 2035.636
496.5739, 2034.794
497.0560, 2034.724
497.5381, 2036.070
498.0203, 2038.413
498.5024, 2042.136
498.9845, 2046.578
499.4666, 2050.364
499.9487, 2052.269
500.4308, 2053.781
500.9130, 2055.842
501.3951, 2058.483
501.8772, 2060.794
502.3593, 2061.760
502.8414, 2062.761
503.3235, 2064.740
503.8057, 2068.768
504.2878, 2072.360
504.7699, 2075.106
505.2520, 2077.487
505.7341, 2080.331
506.2162, 2083.878
506.6984, 2087.287
507.1805, 2090.042
507.6626, 2092.302
508.1447, 2096.112
508.6268, 2101.961
509.1089, 2107.446
509.5911, 2110.478
510.0732, 2111.305
510.5553, 2112.815
511.0374, 2115.343
511.5195, 2118.181
512.0016, 2119.994
512.4838, 2121.304
512.9659, 2123.879
513.4480, 2129.732
513.9301, 2135.912
514.4122, 2138.379
514.8943, 2137.989
515.3765, 2138.312
515.8586, 2142.622
516.3407, 2147.611
516.8228, 2150.383
517.3049, 2150.116
517.7870, 2150.459
518.2692, 2153.093
518.7513, 2156.714
519.2334, 2160.065
519.7155, 2162.665
520.1976, 2165.353
520.6797, 2168.292
521.1619, 2171.371
521.6440, 2174.236
522.1261, 2176.690
522.6082, 2179.271
523.0903, 2182.307
523.5724, 2185.833
524.0546, 2188.681
524.5367, 2190.675
525.0188, 2192.551
525.5009, 2194.689
525.9830, 2197.176
526.4651, 2200.993
526.9473, 2206.617
527.4294, 2212.738
527.9115, 2217.500
528.3936, 2221.091
528.8757, 2224.248
529.3578, 2226.855
529.8400, 2229.393
530.3221, 2232.432
530.8042, 2235.854
531.2863, 2239.210
531.7684, 2242.134
532.2505, 2244.893
532.7327, 2247.571
533.2148, 2250.024
533.6969, 2252.871
534.1790, 2257.031
534.6611, 2261.368
535.1432, 2264.531
535.6254, 2265.361
536.1075, 2266.462
536.5896, 2268.098
537.0717, 2270.240
537.5538, 2272.655
538.0359, 2275.389
538.5181, 2278.443
539.0002, 2282.167
539.4823, 2286.519
539.9644, 2289.358
540.4465, 2290.410
540.9286, 2291.360
541.4108, 2293.664
541.8929, 2297.192
542.3750, 2301.586
542.8571, 2307.141
543.3392, 2312.406
543.8214, 2315.446
544.3035, 2316.832
544.7856, 2318.093
545.2677, 2319.739
545.7498, 2321.634
546.2319, 2323.679
546.7141, 2325.870
547.1962, 2328.218
547.6783, 2330.853
548.1604, 2333.523
548.6425, 2336.030
549.1246, 2338.046
549.6068, 2340.785
550.0889, 2344.810
550.5710, 2349.320
551.0531, 2353.766
551.5352, 2358.942
552.0173, 2362.195
552.4995, 2362.401
552.9816, 2361.016
553.4637, 2361.849
553.9458, 2365.221
554.4279, 2368.601
554.9100, 2370.768
555.3922, 2372.127
555.8743, 2374.589
556.3564, 2378.147
556.8385, 2381.171
557.3206, 2381.364
557.8027, 2380.396
558.2849, 2381.409
558.7670, 2385.242
559.2491, 2389.274
559.7312, 2391.333
560.2133, 2392.376
560.6954, 2393.699
561.1776, 2395.994
561.6597, 2398.333
562.1418, 2400.204
562.6239, 2401.814
563.1060, 2403.909
563.5881, 2407.570
564.0703, 2410.716
564.5524, 2412.394
565.0345, 2412.375
565.5166, 2413.909
565.9987, 2417.988
566.4808, 2421.961
566.9630, 2423.365
567.4451, 2421.905
567.9272, 2422.031
568.4093, 2424.429
568.8914, 2427.637
569.3735, 2429.283
569.8557, 2429.802
570.3378, 2431.396
570.8199, 2435.479
571.3020, 2440.312
571.7841, 2444.026
572.2662, 2446.602
572.7484, 2447.970
573.2305, 2446.093
573.7126, 2444.486
574.1947, 2445.993
574.6768, 2450.968
575.1589, 2455.931
575.6411, 2460.104
576.1232, 2463.571
576.6053, 2466.263
577.0874, 2467.202
577.5695, 2469.000
578.0516, 2472.529
578.5338, 2476.298
579.0159, 2477.738
579.4980, 2475.726
579.9801, 2475.410
580.4622, 2478.334
580.9443, 2483.499
581.4265, 2487.971
581.9086, 2491.761
582.3907, 2495.001
582.8728, 2497.889
583.3549, 2500.284
583.8370, 2501.973
584.3192, 2502.961
584.8013, 2503.323
585.2834, 2501.481
585.7655, 2499.816
586.2476, 2501.385
586.7297, 2507.977
587.2118, 2514.444
587.6939, 2519.002
588.1760, 2522.083
588.6581, 2524.233
589.1403, 2524.300
589.6224, 2524.869
590.1045, 2526.384
590.5866, 2528.635
591.0687, 2531.063
591.5508, 2533.898
592.0330, 2536.310
592.5151, 2537.973
592.9972, 2538.920
593.4793, 2539.200
593.9614, 2538.670
594.4435, 2538.685
594.9257, 2540.867
595.4078, 2544.505
595.8899, 2547.465
596.3720, 2549.476
596.8541, 2551.100
597.3362, 2552.180
597.8184, 2553.407
598.3005, 2555.928
598.7826, 2561.297
599.2647, 2566.386
599.7468, 2569.066
600.2289, 2570.424
600.7111, 2572.872
601.1932, 2578.925
601.6753, 2583.948
602.1574, 2586.353
602.6395, 2586.277
603.1216, 2586.068
603.6038, 2584.899
604.0859, 2584.980
604.5680, 2588.184
605.0501, 2594.835
605.5322, 2598.850
606.0143, 2599.859
606.4965, 2599.965
606.9786, 2601.184
607.4607, 2603.301
607.9428, 2605.844
608.4249, 2609.051
608.9070, 2611.779
609.3892, 2612.187
609.8713, 2611.421
610.3534, 2611.612
610.8355, 2614.990
611.3176, 2618.230
611.7997, 2619.280
612.2819, 2618.813
612.7640, 2619.433
613.2461, 2623.154
613.7282, 2626.532
614.2103, 2628.286
614.6924, 2628.284
615.1746, 2628.707
615.6567, 2629.778
616.1388, 2630.796
616.6209, 2630.953
617.1030, 2630.182
617.5851, 2631.021
618.0673, 2633.823
618.5494, 2637.262
619.0315, 2640.187
619.5136, 2642.484
619.9957, 2643.519
620.4778, 2642.564
620.9600, 2641.571
621.4421, 2642.474
621.9242, 2644.694
622.4063, 2647.023
622.8884, 2649.146
623.3705, 2651.085
623.8527, 2652.623
624.3348, 2653.835
624.8169, 2655.464
625.2990, 2657.885
625.7811, 2660.347
626.2632, 2662.836
626.7454, 2665.462
627.2275, 2666.102
627.7096, 2664.151
628.1917, 2661.828
628.6738, 2660.851
629.1559, 2661.171
629.6381, 2662.122
630.1202, 2663.834
630.6023, 2665.484
631.0844, 2666.340
631.5665, 2666.468
632.0486, 2665.820
632.5308, 2663.728
633.0129, 2662.075
633.4950, 2662.086
633.9771, 2663.474
634.4592, 2665.673
634.9413, 2669.869
635.4235, 2673.370
635.9056, 2674.338
636.3877, 2673.405
636.8698, 2675.312
637.3519, 2682.892
637.8340, 2688.495
638.3162, 2687.895
638.7983, 2681.252
639.2804, 2679.128
639.7625, 2682.184
640.2446, 2685.816
640.7267, 2686.067
641.2089, 2683.813
641.6910, 2681.799
642.1731, 2680.291
642.6552, 2679.227
643.1373, 2678.839
643.6194, 2678.824
644.1016, 2678.783
644.5837, 2678.666
