##NAMES=Schrockingerite
##RRUFFID=R050565
##IDEAL CHEMISTRY=NaCa_3_(U^6+^O_2_)(S^6+^O_4_)(CO_3_)_3_F&#183;10H_2_O
##LOCALITY=Lost Creek, Sweetwater County, Wyoming, USA
##OWNER=RRUFF
##SOURCE=Dave Bunk Minerals
##DESCRIPTION=Scaly aggregate of pale green micaceous crystals
##STATUS=The identification of this mineral has been confirmed by X-ray diffraction and chemical analysis
##URL=rruff.info/R050565
##MEASURED CHEMISTRY=Na_1.00_Ca_3.00_(U_1.00_O_2_)(S_1.00_O_4_)(CO_3_)_3_F_1.00_Â·12H_2_O ; C and H not measured but estimated by stoichiometry
92.06543, 367.5812
92.54755, 367.7510
93.02966, 369.5633
93.51178, 370.5589
93.99390, 368.7719
94.47601, 364.6837
94.95813, 358.9858
95.44025, 352.1442
95.92236, 344.3065
96.40448, 335.2079
96.88660, 328.0264
97.36871, 323.7439
97.85082, 320.4357
98.33294, 316.9528
98.81506, 312.9422
99.29717, 308.1110
99.77929, 303.4529
100.2614, 299.0379
100.7435, 294.7567
101.2256, 290.6151
101.7078, 286.5027
102.1899, 282.1328
102.6720, 276.9711
103.1541, 272.1650
103.6362, 268.6560
104.1183, 266.4005
104.6005, 264.6718
105.0826, 263.0709
105.5647, 261.6452
106.0468, 259.8430
106.5289, 257.0742
107.0110, 254.0908
107.4931, 251.1017
107.9753, 248.1700
108.4574, 245.6645
108.9395, 244.4254
109.4216, 245.6233
109.9037, 246.2870
110.3858, 246.0084
110.8680, 245.1262
111.3501, 243.9185
111.8322, 242.5139
112.3143, 240.9809
112.7964, 239.7487
113.2785, 239.2500
113.7607, 238.5637
114.2428, 237.2916
114.7249, 235.6089
115.2070, 233.9387
115.6891, 232.5264
116.1712, 231.4335
116.6534, 230.9256
117.1355, 231.5275
117.6176, 232.3138
118.0997, 232.5576
118.5818, 232.1825
119.0639, 231.6033
119.5461, 230.8990
120.0282, 230.2153
120.5103, 230.1764
120.9924, 231.3351
121.4745, 233.2538
121.9566, 234.9812
122.4388, 236.5279
122.9209, 237.6710
123.4030, 238.1866
123.8851, 238.2080
124.3672, 238.2058
124.8493, 238.6010
125.3315, 239.4337
125.8136, 240.0671
126.2957, 239.9099
126.7778, 239.9519
127.2599, 240.9126
127.7420, 242.7155
128.2242, 244.5423
128.7063, 245.2244
129.1884, 244.1012
129.6705, 243.1131
130.1526, 241.9776
130.6347, 241.1233
131.1169, 240.9467
131.5990, 241.5597
132.0811, 242.6982
132.5632, 243.7896
133.0453, 245.0131
133.5274, 245.9637
134.0096, 246.3596
134.4917, 246.5203
134.9738, 246.9522
135.4559, 247.9432
135.9380, 249.2516
136.4201, 250.0018
136.9023, 249.6712
137.3844, 249.5882
137.8665, 250.6389
138.3486, 252.5606
138.8307, 254.1329
139.3128, 254.5314
139.7950, 254.1398
140.2771, 253.9622
140.7592, 254.1201
141.2413, 254.4367
141.7234, 254.7641
142.2055, 255.1083
142.6877, 255.4224
143.1698, 255.5071
143.6519, 255.5850
144.1340, 255.9642
144.6161, 256.8831
145.0982, 258.1089
145.5803, 258.9792
146.0625, 259.0941
146.5446, 259.5038
147.0267, 260.8266
147.5088, 262.6128
147.9909, 264.1827
148.4730, 265.0731
148.9552, 265.3146
149.4373, 265.5192
149.9194, 265.1974
150.4015, 265.3135
150.8836, 266.4637
151.3657, 268.3180
151.8479, 270.1073
152.3300, 271.1122
152.8121, 271.1865
153.2942, 271.3975
153.7763, 272.1941
154.2584, 272.7287
154.7406, 272.4920
155.2227, 271.4984
155.7048, 270.1354
156.1869, 268.7372
156.6690, 267.1712
157.1511, 266.3192
157.6333, 266.7816
158.1154, 267.6041
158.5975, 267.9460
159.0796, 267.6257
159.5617, 266.9846
160.0438, 266.3818
160.5260, 265.8026
161.0081, 265.3810
161.4902, 265.5391
161.9723, 265.8257
162.4544, 265.3107
162.9365, 263.5643
163.4187, 261.4066
163.9008, 259.8149
164.3829, 258.7652
164.8650, 257.7323
165.3471, 256.4169
165.8292, 254.8567
166.3113, 253.2752
166.7935, 251.4301
167.2756, 249.8900
167.7577, 249.2760
168.2398, 249.5672
168.7219, 249.8438
169.2040, 249.2561
169.6862, 247.7380
170.1683, 245.8082
170.6504, 242.9035
171.1325, 240.0384
171.6146, 237.7088
172.0967, 236.0326
172.5789, 234.8592
173.0610, 234.0656
173.5431, 233.9432
174.0252, 233.5287
174.5073, 232.6582
174.9894, 231.5893
175.4716, 230.4039
175.9537, 229.1619
176.4358, 228.0063
176.9179, 227.2579
177.4000, 227.5004
177.8821, 227.3534
178.3643, 226.4518
178.8464, 225.3077
179.3285, 224.4917
179.8106, 224.2356
180.2927, 224.2810
180.7748, 223.9197
181.2570, 222.6229
181.7391, 221.5782
182.2212, 221.1001
182.7033, 220.9210
183.1854, 220.6209
183.6675, 219.9853
184.1497, 219.1578
184.6318, 218.6046
185.1139, 218.3873
185.5960, 218.2607
186.0781, 218.2603
186.5602, 218.3062
187.0423, 218.1683
187.5245, 217.7270
188.0066, 217.0254
188.4887, 216.1856
188.9708, 215.0495
189.4529, 214.0520
189.9350, 213.4763
190.4172, 213.3049
190.8993, 213.3692
191.3814, 213.9014
191.8635, 214.4443
192.3456, 214.3347
192.8277, 213.3230
193.3099, 212.0178
193.7920, 210.9138
194.2741, 209.9942
194.7562, 209.3961
195.2383, 209.6225
195.7204, 210.0155
196.2026, 209.9714
196.6847, 209.2574
197.1668, 208.2942
197.6489, 207.7166
198.1310, 207.6253
198.6131, 207.6531
199.0953, 208.1086
199.5774, 208.4397
200.0595, 207.9847
200.5416, 206.4264
201.0237, 204.3761
201.5058, 203.2908
201.9880, 203.9940
202.4701, 204.1812
202.9522, 202.8903
203.4343, 201.1904
203.9164, 200.2624
204.3985, 200.6601
204.8807, 201.8419
205.3628, 202.1477
205.8449, 200.5233
206.3270, 199.3572
206.8091, 199.0908
207.2912, 199.3369
207.7733, 199.7467
208.2555, 200.1576
208.7376, 200.4709
209.2197, 200.3114
209.7018, 198.5109
210.1839, 197.5581
210.6660, 198.3748
211.1482, 200.0541
211.6303, 201.3768
212.1124, 201.7223
212.5945, 201.2580
213.0766, 200.6237
213.5587, 199.3168
214.0409, 198.4327
214.5230, 198.2660
215.0051, 198.6614
215.4872, 199.4516
215.9693, 200.6511
216.4514, 202.0286
216.9336, 202.6455
217.4157, 202.1791
217.8978, 201.5828
218.3799, 201.1035
218.8620, 200.7237
219.3441, 200.3912
219.8263, 200.0786
220.3084, 199.8087
220.7905, 199.6570
221.2726, 199.7796
221.7547, 199.7500
222.2368, 199.1562
222.7190, 198.1648
223.2011, 197.4759
223.6832, 197.4793
224.1653, 197.9027
224.6474, 198.1577
225.1295, 198.1806
225.6117, 198.1909
226.0938, 198.5023
226.5759, 199.0395
227.0580, 199.0735
227.5401, 197.7993
228.0222, 196.3107
228.5043, 196.1027
228.9865, 197.5403
229.4686, 199.0833
229.9507, 199.2330
230.4328, 198.0032
230.9149, 197.1676
231.3970, 197.7735
231.8792, 198.6231
232.3613, 198.6432
232.8434, 197.6716
233.3255, 196.4074
233.8076, 195.3944
234.2897, 194.6179
234.7719, 194.2788
235.2540, 195.0592
235.7361, 195.8736
236.2182, 196.0966
236.7003, 195.6317
237.1824, 194.6664
237.6646, 193.0431
238.1467, 190.4367
238.6288, 188.9816
239.1109, 190.2840
239.5930, 191.9180
240.0751, 192.5520
240.5573, 192.0686
241.0394, 191.3242
241.5215, 191.4561
242.0036, 192.8506
242.4857, 193.5292
242.9678, 192.6981
243.4500, 191.6811
243.9321, 191.0396
244.4142, 190.8687
244.8963, 191.0083
245.3784, 191.2981
245.8605, 191.7488
246.3427, 192.3197
246.8248, 192.6413
247.3069, 193.3717
247.7890, 195.5497
248.2711, 198.7760
248.7532, 201.2905
249.2354, 200.9465
249.7175, 196.6660
250.1996, 194.1827
250.6817, 194.5480
251.1638, 195.5246
251.6459, 196.4747
252.1281, 197.1523
252.6102, 197.3294
253.0923, 196.7274
253.5744, 195.1966
254.0565, 193.8032
254.5386, 192.4829
255.0208, 191.3221
255.5029, 190.5079
255.9850, 189.9260
256.4671, 189.2230
256.9492, 188.0712
257.4313, 186.4271
257.9135, 184.8451
258.3956, 182.7811
258.8777, 181.2668
259.3598, 181.2750
259.8419, 182.3262
260.3240, 182.9304
260.8062, 181.8588
261.2883, 179.1246
261.7704, 177.3215
262.2525, 176.6737
262.7346, 176.4651
263.2167, 176.6474
263.6989, 177.0673
264.1810, 177.4148
264.6631, 177.5061
265.1452, 177.3475
265.6273, 176.9908
266.1094, 176.0738
266.5916, 175.3848
267.0737, 175.3521
267.5558, 175.7746
268.0379, 176.1799
268.5200, 176.3189
269.0021, 176.2409
269.4843, 176.1496
269.9664, 176.0657
270.4485, 175.9476
270.9306, 175.7578
271.4127, 175.5242
271.8948, 175.2712
272.3770, 174.9719
272.8591, 174.7284
273.3412, 174.8783
273.8233, 175.6721
274.3054, 176.2550
274.7875, 176.2473
275.2697, 175.8622
275.7518, 175.5225
276.2339, 175.4050
276.7160, 175.3133
277.1981, 174.7886
277.6802, 173.7323
278.1623, 172.8334
278.6444, 172.2020
279.1266, 171.8657
279.6087, 172.0211
280.0908, 172.8372
280.5729, 173.7060
281.0550, 173.5983
281.5371, 172.5128
282.0193, 171.7229
282.5014, 171.9729
282.9835, 172.5663
283.4656, 172.3266
283.9477, 170.9275
284.4298, 169.4344
284.9120, 169.1165
285.3941, 169.8069
285.8762, 170.4135
286.3583, 170.6527
286.8404, 170.7195
287.3225, 170.7415
287.8047, 170.6957
288.2868, 170.9534
288.7689, 172.2798
289.2510, 174.2247
289.7331, 175.1756
290.2152, 173.6589
290.6974, 171.7575
291.1795, 171.8976
291.6616, 174.1822
292.1437, 176.4534
292.6258, 177.3016
293.1079, 177.1982
293.5901, 177.3385
294.0722, 177.9998
294.5543, 178.7529
295.0364, 179.0824
295.5185, 179.0312
296.0006, 179.4084
296.4828, 180.9300
296.9649, 182.9071
297.4470, 184.0823
297.9291, 184.1491
298.4112, 184.0428
298.8933, 184.3462
299.3755, 185.0240
299.8576, 185.9354
300.3397, 187.2887
300.8218, 188.5665
301.3039, 188.9856
301.7860, 188.4111
302.2682, 187.9907
302.7503, 188.5333
303.2324, 189.7732
303.7145, 190.8233
304.1966, 191.5661
304.6787, 191.9391
305.1609, 191.8636
305.6430, 191.3812
306.1251, 190.6833
306.6072, 189.8093
307.0893, 188.7839
307.5714, 187.7477
308.0536, 186.8508
308.5357, 185.5649
309.0178, 182.9512
309.4999, 179.5184
309.9820, 176.6711
310.4641, 175.4126
310.9463, 174.7895
311.4284, 173.3058
311.9105, 170.7824
312.3926, 168.2593
312.8747, 166.3666
313.3568, 164.9597
313.8390, 163.8894
314.3211, 163.5589
314.8032, 163.1050
315.2853, 161.4636
315.7674, 158.6153
316.2495, 155.7004
316.7317, 153.0617
317.2138, 150.7556
317.6959, 148.8401
318.1780, 147.3616
318.6601, 146.1658
319.1422, 145.1695
319.6243, 144.3650
320.1064, 143.7401
320.5886, 143.3358
321.0707, 143.0727
321.5528, 142.9267
322.0349, 142.9281
322.5170, 142.6734
322.9991, 141.7321
323.4813, 140.3590
323.9634, 139.2599
324.4455, 138.5804
324.9276, 138.1730
325.4097, 138.0639
325.8918, 138.1742
326.3740, 138.0498
326.8561, 137.4644
327.3382, 136.5725
327.8203, 135.4586
328.3024, 134.0186
328.7845, 132.9270
329.2667, 133.1060
329.7488, 134.0340
330.2309, 134.4018
330.7130, 133.4275
331.1951, 132.1735
331.6772, 131.7780
332.1594, 132.2270
332.6415, 132.6772
333.1236, 132.7608
333.6057, 132.5038
334.0878, 131.9895
334.5699, 130.9754
335.0521, 130.1562
335.5342, 130.1883
336.0163, 130.8615
336.4984, 131.2429
336.9805, 130.9260
337.4626, 130.2901
337.9448, 129.8469
338.4269, 129.5428
338.9090, 129.6006
339.3911, 130.6115
339.8732, 131.9563
340.3553, 132.2945
340.8375, 131.1983
341.3196, 129.7610
341.8017, 129.3678
342.2838, 129.8964
342.7659, 129.9005
343.2480, 128.2307
343.7302, 126.3983
344.2123, 126.4089
344.6944, 128.3789
345.1765, 130.1813
345.6586, 130.1418
346.1407, 128.5010
346.6229, 127.3821
347.1050, 126.9991
347.5871, 126.9678
348.0692, 127.2872
348.5513, 127.8276
349.0334, 128.0840
349.5156, 127.7435
349.9977, 127.0264
350.4798, 126.5579
350.9619, 126.5139
351.4440, 126.3257
351.9261, 125.4829
352.4083, 124.4553
352.8904, 124.1259
353.3725, 124.8154
353.8546, 125.8781
354.3367, 126.4128
354.8188, 126.3397
355.3010, 126.0544
355.7831, 125.1928
356.2652, 124.3805
356.7473, 124.3219
357.2294, 125.0417
357.7115, 125.8471
358.1937, 126.1475
358.6758, 125.9108
359.1579, 125.6078
359.6400, 124.8772
360.1221, 124.4306
360.6042, 124.8606
361.0863, 125.8838
361.5685, 126.7644
362.0506, 127.1088
362.5327, 126.9726
363.0148, 126.5562
363.4969, 125.3590
363.9790, 124.5268
364.4612, 124.4301
364.9433, 124.7048
365.4254, 124.9570
365.9075, 125.0515
366.3896, 125.0206
366.8717, 124.9131
367.3539, 124.7188
367.8360, 124.4553
368.3181, 123.7862
368.8002, 123.3076
369.2823, 123.6430
369.7644, 124.6732
370.2466, 125.6604
370.7287, 125.9370
371.2108, 125.4695
371.6929, 124.8032
372.1750, 123.2851
372.6571, 122.2730
373.1393, 122.5081
373.6214, 123.4756
374.1035, 124.2791
374.5856, 124.4181
375.0677, 124.0880
375.5498, 123.9139
376.0320, 123.9189
376.5141, 124.0709
376.9962, 124.4965
377.4783, 124.9779
377.9604, 125.4940
378.4425, 125.9726
378.9247, 126.0579
379.4068, 125.0278
379.8889, 122.2680
380.3710, 120.5587
380.8531, 120.5571
381.3352, 121.0178
381.8174, 121.7301
382.2995, 122.4864
382.7816, 122.9188
383.2637, 122.6702
383.7458, 121.8561
384.2279, 121.2519
384.7101, 120.7940
385.1922, 120.6847
385.6743, 121.1414
386.1564, 121.8635
386.6385, 122.5550
387.1206, 123.1256
387.6028, 123.4683
388.0849, 123.2933
388.5670, 122.4428
389.0491, 121.8318
389.5312, 121.7471
390.0133, 121.9299
390.4955, 122.2562
390.9776, 122.7073
391.4597, 123.2640
391.9418, 124.2771
392.4239, 125.5264
392.9060, 125.4931
393.3882, 123.3240
393.8703, 121.1900
394.3524, 120.6208
394.8345, 121.1132
395.3166, 121.6512
395.7987, 121.9423
396.2809, 122.0275
396.7630, 121.8743
397.2451, 121.4592
397.7272, 121.1698
398.2093, 121.3382
398.6914, 121.6340
399.1736, 121.4679
399.6557, 120.6278
400.1378, 119.9572
400.6199, 120.3244
401.1020, 121.2538
401.5841, 121.2743
402.0662, 119.8014
402.5483, 118.1065
403.0305, 117.7669
403.5126, 118.6825
403.9947, 119.7371
404.4768, 121.2047
404.9589, 122.4174
405.4410, 122.4636
405.9232, 121.4318
406.4053, 120.5225
406.8874, 120.5804
407.3695, 121.3887
407.8516, 121.7843
408.3337, 121.3334
408.8159, 121.0315
409.2980, 121.5244
409.7801, 122.2858
410.2622, 122.3609
410.7443, 121.4066
411.2264, 120.0442
411.7086, 119.2574
412.1907, 119.2916
412.6728, 119.3690
413.1549, 119.4657
413.6370, 119.6219
414.1191, 119.9340
414.6013, 120.3530
415.0834, 120.6809
415.5655, 120.7381
416.0476, 120.5496
416.5297, 120.5548
417.0118, 121.1338
417.4940, 121.4709
417.9761, 121.3036
418.4582, 120.8641
418.9403, 120.4138
419.4224, 120.0558
419.9045, 119.7819
420.3867, 119.5946
420.8688, 119.5591
421.3509, 119.4387
421.8330, 118.8054
422.3151, 118.4435
422.7972, 119.0494
423.2794, 120.3966
423.7615, 121.5805
424.2436, 121.8049
424.7257, 121.2380
425.2078, 121.0962
425.6899, 121.8764
426.1721, 122.1907
426.6542, 121.0535
427.1363, 119.4270
427.6184, 118.4651
428.1005, 118.5672
428.5826, 119.2090
429.0648, 119.9425
429.5469, 120.7792
430.0290, 121.1719
430.5111, 120.6784
430.9932, 120.0539
431.4753, 119.9574
431.9575, 120.3456
432.4396, 120.8582
432.9217, 121.4245
433.4038, 121.9717
433.8859, 122.4372
434.3680, 122.8380
434.8502, 122.9341
435.3323, 122.4259
435.8144, 121.5166
436.2965, 120.7840
436.7786, 120.1044
437.2607, 119.8175
437.7429, 120.4628
438.2250, 121.6218
438.7071, 122.2932
439.1892, 122.1372
439.6713, 121.5850
440.1534, 121.1557
440.6356, 120.8058
441.1177, 120.8509
441.5998, 121.8076
442.0819, 122.7713
442.5640, 122.9723
443.0461, 122.5252
443.5282, 122.0954
444.0103, 122.1325
444.4925, 122.5533
444.9746, 122.8949
445.4567, 123.1115
445.9388, 123.3028
446.4209, 123.4484
446.9030, 123.5878
447.3852, 123.7300
447.8673, 123.8899
448.3494, 124.1415
448.8315, 124.6198
449.3136, 125.4131
449.7957, 125.9838
450.2779, 126.1734
450.7600, 126.2923
451.2421, 126.5198
451.7242, 126.7436
452.2063, 126.6877
452.6884, 126.1396
453.1706, 125.3955
453.6527, 125.2163
454.1348, 125.8036
454.6169, 126.3214
455.0990, 126.3674
455.5811, 126.4038
456.0633, 126.8142
456.5454, 127.6126
457.0275, 128.4044
457.5096, 128.9088
457.9917, 129.1758
458.4738, 129.3760
458.9560, 129.5016
459.4381, 129.6110
459.9202, 129.6851
460.4023, 129.7788
460.8844, 130.0148
461.3665, 130.4746
461.8487, 130.9923
462.3308, 131.4475
462.8129, 131.8571
463.2950, 132.2861
463.7771, 132.7656
464.2592, 133.2486
464.7414, 133.6534
465.2235, 133.9597
465.7056, 134.3396
466.1877, 134.9456
466.6698, 135.5354
467.1519, 135.9694
467.6341, 136.2199
468.1162, 136.2201
468.5983, 135.8991
469.0804, 135.3377
469.5625, 134.9186
470.0446, 134.6858
470.5268, 134.5484
471.0089, 134.8132
471.4910, 134.9915
471.9731, 134.3801
472.4552, 132.9864
472.9373, 131.7297
473.4195, 131.8194
473.9016, 133.4510
474.3837, 133.7607
474.8658, 131.5059
475.3479, 129.2215
475.8300, 127.3283
476.3122, 125.9315
476.7943, 125.2330
477.2764, 125.3937
477.7585, 125.7937
478.2406, 125.3897
478.7227, 124.0724
479.2049, 122.9563
479.6870, 122.3353
480.1691, 121.8811
480.6512, 121.4191
481.1333, 120.9281
481.6154, 120.3334
482.0976, 119.3170
482.5797, 118.3007
483.0618, 118.1151
483.5439, 118.7920
484.0260, 119.3086
484.5081, 119.1216
484.9902, 118.4886
485.4724, 117.9667
485.9545, 117.5468
486.4366, 117.2475
486.9187, 117.0495
487.4008, 116.9852
487.8829, 117.1456
488.3651, 117.5307
488.8472, 117.9802
489.3293, 118.3865
489.8114, 118.7503
490.2935, 118.8278
490.7756, 118.3512
491.2578, 117.9559
491.7399, 118.0169
492.2220, 118.1909
492.7041, 117.8773
493.1862, 116.9158
493.6683, 115.8992
494.1505, 115.7969
494.6326, 116.9854
495.1147, 117.5966
495.5968, 117.0224
496.0789, 116.4500
496.5610, 116.3074
497.0432, 116.4856
497.5253, 116.7315
498.0074, 116.9299
498.4895, 117.0888
498.9716, 117.2832
499.4537, 117.5674
499.9359, 117.5223
500.4180, 116.7789
500.9001, 115.9051
501.3822, 115.3336
501.8643, 115.0623
502.3464, 114.9682
502.8286, 115.0768
503.3107, 115.2880
503.7928, 115.3712
504.2749, 115.3211
504.7570, 115.5870
505.2391, 116.6178
505.7213, 117.9738
506.2034, 118.4536
506.6855, 117.7709
507.1676, 117.0196
507.6497, 116.3780
508.1318, 115.8756
508.6140, 115.5796
509.0961, 115.4842
509.5782, 115.4935
510.0603, 115.5385
510.5424, 115.6150
511.0245, 115.6406
511.5067, 115.4422
511.9888, 115.4034
512.4709, 115.8588
512.9530, 116.3702
513.4351, 116.2744
513.9172, 115.4820
514.3994, 114.7739
514.8815, 115.3814
515.3636, 117.4984
515.8457, 118.2370
516.3278, 116.0798
516.8099, 114.5808
517.2921, 116.1508
517.7742, 118.9755
518.2563, 120.0766
518.7384, 118.1314
519.2205, 115.3962
519.7026, 114.4529
520.1848, 115.0554
520.6669, 115.1815
521.1490, 114.1319
521.6311, 113.0738
522.1132, 113.4542
522.5953, 114.9875
523.0775, 116.1894
523.5596, 116.7136
524.0417, 116.9086
524.5238, 116.9167
525.0059, 116.7848
525.4880, 116.6012
525.9702, 116.3942
526.4523, 116.2082
526.9344, 116.1312
527.4165, 116.2616
527.8986, 116.2382
528.3807, 115.9071
528.8629, 115.5795
529.3450, 115.4174
529.8271, 115.4003
530.3092, 115.4756
530.7913, 115.6288
531.2734, 115.7698
531.7556, 115.6172
532.2377, 114.9739
532.7198, 114.5996
533.2019, 114.9846
533.6840, 115.3547
534.1661, 115.0988
534.6483, 114.3798
535.1304, 113.9737
535.6125, 114.5083
536.0946, 115.5086
536.5767, 116.1963
537.0588, 116.5722
537.5410, 116.5816
538.0231, 116.0788
538.5052, 115.3085
538.9873, 114.5673
539.4694, 113.7931
539.9515, 113.4191
540.4337, 113.8670
540.9158, 114.5671
541.3979, 115.0434
541.8800, 115.2449
542.3621, 115.1316
542.8442, 114.6057
543.3264, 113.8884
543.8085, 113.7407
544.2906, 114.8073
544.7726, 115.5655
545.2548, 115.9521
545.7369, 116.0628
546.2190, 115.8243
546.7011, 115.3481
547.1832, 114.9547
547.6653, 114.9168
548.1475, 115.1274
548.6296, 115.1466
549.1117, 114.8908
549.5938, 114.6643
550.0759, 114.3406
550.5580, 114.2272
551.0402, 114.7945
551.5223, 116.0115
552.0044, 116.9152
552.4865, 116.7851
552.9686, 116.0409
553.4507, 115.4104
553.9329, 114.9245
554.4150, 114.3392
554.8971, 113.4268
555.3792, 112.4108
555.8613, 111.8917
556.3434, 111.9561
556.8256, 112.1773
557.3077, 112.6373
557.7898, 113.1068
558.2719, 113.2984
558.7540, 113.2625
559.2361, 113.3626
559.7183, 113.9015
560.2004, 114.6797
560.6825, 114.8359
561.1646, 113.9620
561.6467, 113.1398
562.1288, 112.1300
562.6110, 111.4653
563.0931, 111.8760
563.5752, 113.1202
564.0573, 113.9774
564.5394, 113.3577
565.0215, 111.8766
565.5037, 111.1231
565.9858, 111.1734
566.4679, 111.4536
566.9500, 111.8661
567.4321, 112.3182
567.9142, 112.7942
568.3964, 113.3290
568.8785, 113.4231
569.3606, 112.5347
569.8427, 111.3803
570.3248, 110.5759
570.8069, 110.1727
571.2891, 110.2300
571.7712, 110.8726
572.2533, 111.7208
572.7354, 111.7912
573.2175, 110.2259
573.6996, 109.4006
574.1818, 109.7941
574.6639, 110.4512
575.1460, 110.9260
575.6281, 111.1639
576.1102, 111.1701
576.5923, 110.9049
577.0745, 110.5572
577.5566, 110.6718
578.0387, 111.4263
578.5208, 111.6446
579.0029, 110.6614
579.4850, 109.5284
579.9672, 109.0275
580.4493, 109.0664
580.9314, 109.2161
581.4135, 109.3074
581.8956, 109.4543
582.3777, 109.7635
582.8599, 110.2227
583.3420, 110.9179
583.8241, 111.9728
584.3062, 112.7948
584.7883, 112.4136
