##NAMES=Schreibersite
##RRUFFID=R070239
##IDEAL CHEMISTRY=(Fe,Ni,Cr)_3_P
##LOCALITY=Sao Juliao de Moreira meteorite, Ponte de Lima, Viana do Castelo district, Portugal
##OWNER=RRUFF
##SOURCE=Michael Scott
##DESCRIPTION=Silvery fragments with slightly brassy luster, co-type specimen
##STATUS=The identification of this mineral has been confirmed by X-ray diffraction.
##URL=rruff.info/R070239
141.7504, 1631.490
142.2325, 1621.095
142.7147, 1623.087
143.1968, 1651.238
143.6789, 1706.229
144.1610, 1749.304
144.6431, 1775.200
145.1252, 1795.083
145.6074, 1810.412
146.0895, 1823.300
146.5716, 1843.526
147.0537, 1882.164
147.5358, 1939.090
148.0179, 1980.586
148.5001, 1996.841
148.9822, 2005.275
149.4643, 2019.408
149.9464, 2039.718
150.4285, 2056.703
150.9106, 2062.542
151.3928, 2057.179
151.8749, 2048.667
152.3570, 2035.236
152.8391, 2020.144
153.3212, 2006.043
153.8033, 1993.153
154.2855, 1981.068
154.7676, 1971.481
155.2497, 1962.766
155.7318, 1948.076
156.2139, 1921.786
156.6960, 1891.211
157.1782, 1862.808
157.6603, 1836.289
158.1424, 1816.101
158.6245, 1810.480
159.1066, 1814.456
159.5887, 1816.571
160.0709, 1812.028
160.5530, 1804.747
161.0351, 1799.733
161.5172, 1796.844
161.9993, 1797.293
162.4814, 1806.391
162.9636, 1819.434
163.4457, 1827.459
163.9278, 1821.190
164.4099, 1809.670
164.8920, 1811.790
165.3741, 1833.189
165.8563, 1852.327
166.3384, 1852.706
166.8205, 1842.085
167.3026, 1833.094
167.7847, 1833.614
168.2668, 1838.087
168.7490, 1833.346
169.2311, 1815.454
169.7132, 1797.058
170.1953, 1783.619
170.6774, 1774.194
171.1595, 1767.909
171.6417, 1765.565
172.1238, 1765.613
172.6059, 1765.314
173.0880, 1767.717
173.5701, 1762.990
174.0522, 1738.370
174.5344, 1706.186
175.0165, 1685.968
175.4986, 1692.517
175.9807, 1713.790
176.4628, 1714.398
176.9449, 1681.005
177.4271, 1651.134
177.9092, 1638.617
178.3913, 1637.876
178.8734, 1642.469
179.3555, 1650.939
179.8376, 1661.203
180.3197, 1666.684
180.8019, 1663.973
181.2840, 1662.417
181.7661, 1667.313
182.2482, 1674.233
182.7303, 1676.755
183.2124, 1670.432
183.6946, 1659.890
184.1767, 1659.606
184.6588, 1678.275
185.1409, 1692.012
185.6230, 1689.967
186.1051, 1681.874
186.5873, 1679.595
187.0694, 1689.412
187.5515, 1705.975
188.0336, 1715.204
188.5157, 1713.823
188.9978, 1709.942
189.4800, 1701.796
189.9621, 1693.959
190.4442, 1691.920
190.9263, 1698.502
191.4084, 1709.896
191.8905, 1716.885
192.3727, 1717.575
192.8548, 1716.872
193.3369, 1714.809
193.8190, 1712.409
194.3011, 1711.494
194.7832, 1712.851
195.2654, 1713.891
195.7475, 1707.865
196.2296, 1686.821
196.7117, 1673.896
197.1938, 1676.244
197.6759, 1684.197
198.1581, 1689.486
198.6402, 1689.326
199.1223, 1686.620
199.6044, 1687.128
200.0865, 1693.998
200.5686, 1697.687
201.0508, 1695.929
201.5329, 1692.204
202.0150, 1688.617
202.4971, 1685.898
202.9792, 1684.304
203.4613, 1684.488
203.9435, 1687.620
204.4256, 1689.910
204.9077, 1693.943
205.3898, 1695.420
205.8719, 1689.377
206.3540, 1675.745
206.8362, 1660.712
207.3183, 1652.720
207.8004, 1653.977
208.2825, 1657.245
208.7646, 1669.834
209.2467, 1678.643
209.7289, 1673.344
210.2110, 1654.314
210.6931, 1631.419
211.1752, 1615.349
211.6573, 1606.419
212.1395, 1603.972
212.6216, 1614.019
213.1037, 1624.935
213.5858, 1632.419
214.0679, 1635.623
214.5500, 1634.711
215.0322, 1628.286
215.5143, 1614.297
215.9964, 1608.853
216.4785, 1621.005
216.9606, 1633.159
217.4427, 1639.565
217.9249, 1640.246
218.4070, 1637.318
218.8891, 1631.623
219.3712, 1622.951
219.8533, 1619.165
220.3354, 1625.731
220.8176, 1632.130
221.2997, 1635.653
221.7818, 1636.824
222.2639, 1637.152
222.7460, 1637.581
223.2281, 1638.127
223.7103, 1638.992
224.1924, 1642.675
224.6745, 1643.765
225.1566, 1640.760
225.6387, 1634.562
226.1208, 1625.758
226.6030, 1614.180
227.0851, 1601.475
227.5672, 1594.594
228.0493, 1595.881
228.5314, 1600.593
229.0135, 1611.296
229.4957, 1623.481
229.9778, 1632.296
230.4599, 1635.558
230.9420, 1634.344
231.4241, 1630.653
231.9062, 1620.684
232.3884, 1615.073
232.8705, 1616.734
233.3526, 1621.751
233.8347, 1627.160
234.3168, 1631.906
234.7989, 1636.150
235.2811, 1640.691
235.7632, 1647.615
236.2453, 1649.592
236.7274, 1642.464
237.2095, 1633.337
237.6916, 1626.212
238.1738, 1622.131
238.6559, 1620.478
239.1380, 1621.616
239.6201, 1627.491
240.1022, 1628.806
240.5843, 1618.268
241.0665, 1608.812
241.5486, 1607.711
242.0307, 1614.474
242.5128, 1623.130
242.9949, 1628.456
243.4770, 1630.331
243.9592, 1630.300
244.4413, 1626.469
244.9234, 1622.388
245.4055, 1618.974
245.8876, 1616.354
246.3697, 1614.367
246.8519, 1612.081
247.3340, 1610.040
247.8161, 1613.712
248.2982, 1628.964
248.7803, 1642.208
249.2624, 1649.882
249.7446, 1652.513
250.2267, 1650.617
250.7088, 1643.448
251.1909, 1633.048
251.6730, 1624.376
252.1551, 1614.839
252.6373, 1612.835
253.1194, 1628.497
253.6015, 1649.130
254.0836, 1660.223
254.5657, 1655.501
255.0478, 1643.463
255.5300, 1637.568
256.0121, 1639.399
256.4942, 1641.467
256.9763, 1640.228
257.4584, 1639.268
257.9406, 1642.592
258.4227, 1651.229
258.9048, 1659.016
259.3869, 1659.115
259.8690, 1651.237
260.3511, 1641.637
260.8333, 1625.895
261.3154, 1614.001
261.7975, 1615.367
262.2796, 1629.401
262.7617, 1643.429
263.2438, 1649.318
263.7260, 1647.709
264.2081, 1641.103
264.6902, 1625.028
265.1723, 1611.424
265.6544, 1610.355
266.1365, 1618.865
266.6187, 1627.499
267.1008, 1632.296
267.5829, 1634.119
268.0650, 1633.982
268.5471, 1630.943
269.0292, 1629.108
269.5114, 1634.570
269.9935, 1642.940
270.4756, 1646.195
270.9577, 1638.650
271.4398, 1628.112
271.9219, 1624.547
272.4041, 1628.211
272.8862, 1629.308
273.3683, 1619.673
273.8504, 1606.042
274.3325, 1601.427
274.8146, 1609.814
275.2968, 1621.088
275.7789, 1631.222
276.2610, 1639.347
276.7431, 1641.014
277.2252, 1632.453
277.7073, 1619.599
278.1895, 1611.440
278.6716, 1607.326
279.1537, 1608.569
279.6358, 1620.559
280.1179, 1637.159
280.6000, 1647.031
281.0822, 1647.139
281.5643, 1644.051
282.0464, 1647.001
282.5285, 1657.105
283.0106, 1658.744
283.4927, 1639.136
283.9749, 1617.299
284.4570, 1612.274
284.9391, 1624.741
285.4212, 1640.805
285.9033, 1650.106
286.3854, 1652.380
286.8676, 1651.893
287.3497, 1645.169
287.8318, 1639.307
288.3139, 1638.532
288.7960, 1641.490
289.2781, 1644.219
289.7603, 1644.420
290.2424, 1642.902
290.7245, 1643.086
291.2066, 1646.417
291.6887, 1649.533
292.1708, 1651.736
292.6530, 1653.526
293.1351, 1655.700
293.6172, 1658.521
294.0993, 1661.339
294.5814, 1662.960
295.0635, 1662.630
295.5457, 1662.444
296.0278, 1662.687
296.5099, 1662.863
296.9920, 1662.630
297.4741, 1661.948
297.9562, 1660.990
298.4384, 1659.957
298.9205, 1658.905
299.4026, 1657.341
299.8847, 1651.526
300.3668, 1648.917
300.8489, 1655.239
301.3310, 1666.802
301.8131, 1675.542
302.2953, 1675.714
302.7774, 1669.275
303.2595, 1666.573
303.7416, 1672.443
304.2237, 1674.813
304.7058, 1670.037
305.1880, 1661.427
305.6701, 1650.271
306.1522, 1636.734
306.6343, 1627.024
307.1164, 1635.736
307.5985, 1671.505
308.0807, 1693.266
308.5628, 1675.693
309.0449, 1654.323
309.5270, 1652.792
310.0091, 1672.075
310.4912, 1692.489
310.9734, 1697.083
311.4555, 1687.041
311.9376, 1674.167
312.4197, 1655.325
312.9018, 1639.624
313.3839, 1633.298
313.8661, 1634.113
314.3482, 1636.539
314.8303, 1638.756
315.3124, 1640.764
315.7945, 1642.551
316.2766, 1644.105
316.7588, 1645.537
317.2409, 1647.492
317.7230, 1649.104
318.2051, 1648.870
318.6872, 1646.067
319.1693, 1642.353
319.6515, 1636.273
320.1336, 1629.469
320.6157, 1630.584
321.0978, 1645.527
321.5799, 1664.950
322.0620, 1672.806
322.5442, 1667.428
323.0263, 1664.060
323.5084, 1670.958
323.9905, 1680.578
324.4726, 1681.607
324.9547, 1672.199
325.4369, 1661.837
325.9190, 1660.581
326.4011, 1669.644
326.8832, 1671.423
327.3653, 1655.471
327.8474, 1642.068
328.3296, 1645.440
328.8117, 1661.434
329.2938, 1676.670
329.7759, 1683.523
330.2580, 1683.329
330.7401, 1681.895
331.2223, 1674.179
331.7044, 1671.505
332.1865, 1681.001
332.6686, 1693.397
333.1507, 1697.768
333.6328, 1691.120
334.1150, 1679.973
334.5971, 1674.132
335.0792, 1676.237
335.5613, 1676.639
336.0434, 1676.232
336.5255, 1673.598
337.0077, 1663.863
337.4898, 1650.444
337.9719, 1643.785
338.4540, 1654.998
338.9361, 1680.841
339.4182, 1690.843
339.9004, 1670.934
340.3825, 1655.638
340.8646, 1657.552
341.3467, 1668.402
341.8288, 1677.613
342.3109, 1681.005
342.7931, 1682.604
343.2752, 1692.048
343.7573, 1712.420
344.2394, 1717.734
344.7215, 1685.821
345.2036, 1649.164
345.6858, 1634.560
346.1679, 1642.963
346.6500, 1655.694
347.1321, 1662.949
347.6142, 1665.522
348.0963, 1665.393
348.5785, 1662.487
349.0606, 1657.583
349.5427, 1648.229
350.0248, 1636.960
350.5069, 1632.004
350.9890, 1639.022
351.4712, 1649.525
351.9533, 1658.096
352.4354, 1664.557
352.9175, 1668.083
353.3996, 1667.977
353.8817, 1665.046
354.3639, 1660.622
354.8460, 1651.897
355.3281, 1647.633
355.8102, 1655.305
356.2923, 1665.985
356.7744, 1666.843
357.2566, 1655.788
357.7387, 1644.222
358.2208, 1646.260
358.7029, 1666.626
359.1850, 1673.622
359.6671, 1653.165
360.1493, 1635.343
360.6314, 1636.456
361.1135, 1650.687
361.5956, 1664.326
362.0777, 1669.595
362.5598, 1667.458
363.0420, 1660.488
363.5241, 1639.186
364.0062, 1628.951
364.4883, 1640.405
364.9704, 1658.022
365.4525, 1669.658
365.9347, 1672.433
366.4168, 1670.266
366.8989, 1664.565
367.3810, 1654.521
367.8631, 1654.898
368.3452, 1677.129
368.8274, 1696.893
369.3095, 1699.710
369.7916, 1690.804
370.2737, 1683.142
370.7558, 1684.237
371.2379, 1688.847
371.7201, 1686.633
372.2022, 1676.513
372.6843, 1670.227
373.1664, 1675.326
373.6485, 1685.656
374.1306, 1691.515
374.6128, 1691.567
375.0949, 1690.943
375.5770, 1691.674
376.0591, 1693.693
376.5412, 1698.252
377.0233, 1706.220
377.5055, 1711.668
377.9876, 1706.417
378.4697, 1688.959
378.9518, 1680.803
379.4339, 1691.536
379.9160, 1703.258
380.3982, 1706.398
380.8803, 1701.721
381.3624, 1691.598
381.8445, 1676.431
382.3266, 1659.817
382.8087, 1652.609
383.2909, 1663.918
383.7730, 1673.402
384.2551, 1678.855
384.7372, 1683.457
385.2193, 1692.081
385.7014, 1704.145
386.1836, 1712.344
386.6657, 1707.282
387.1478, 1687.955
387.6299, 1675.248
388.1120, 1674.142
388.5941, 1674.239
389.0763, 1672.609
389.5584, 1669.799
390.0405, 1666.965
390.5226, 1664.657
391.0047, 1662.279
391.4868, 1657.771
391.9690, 1650.529
392.4511, 1647.205
392.9332, 1651.035
393.4153, 1658.400
393.8974, 1666.514
394.3795, 1675.287
394.8617, 1682.560
395.3438, 1687.426
395.8259, 1690.075
396.3080, 1690.551
396.7901, 1688.794
397.2722, 1685.825
397.7544, 1682.056
398.2365, 1677.621
398.7186, 1673.317
399.2007, 1669.861
399.6828, 1665.786
400.1649, 1659.382
400.6471, 1652.260
401.1292, 1645.702
401.6113, 1640.086
402.0934, 1639.187
402.5755, 1649.924
403.0576, 1679.891
403.5398, 1697.823
404.0219, 1695.305
404.5040, 1690.499
404.9861, 1694.983
405.4682, 1705.164
405.9503, 1709.257
406.4325, 1698.628
406.9146, 1679.102
407.3967, 1673.350
407.8788, 1693.285
408.3609, 1702.285
408.8430, 1679.895
409.3252, 1653.532
409.8073, 1647.333
410.2894, 1664.037
410.7715, 1683.490
411.2536, 1686.735
411.7357, 1677.290
412.2179, 1673.274
412.7000, 1677.014
413.1821, 1683.410
413.6642, 1691.169
414.1463, 1698.950
414.6284, 1703.632
415.1106, 1704.821
415.5927, 1702.569
416.0748, 1693.479
416.5569, 1680.552
417.0390, 1673.794
417.5211, 1677.254
418.0033, 1685.827
418.4854, 1692.286
418.9675, 1696.153
419.4496, 1699.194
419.9317, 1701.776
420.4138, 1703.248
420.8960, 1702.677
421.3781, 1700.532
421.8602, 1698.415
422.3423, 1697.475
422.8244, 1697.085
423.3065, 1694.545
423.7887, 1688.882
424.2708, 1682.407
424.7529, 1671.501
425.2350, 1662.498
425.7171, 1663.026
426.1992, 1672.834
426.6814, 1682.151
427.1635, 1679.301
427.6456, 1665.763
428.1277, 1659.986
428.6098, 1664.720
429.0919, 1672.052
429.5741, 1681.217
430.0562, 1689.469
430.5383, 1691.884
431.0204, 1685.595
431.5025, 1676.973
431.9846, 1668.090
432.4668, 1660.705
432.9489, 1663.459
433.4310, 1681.177
433.9131, 1700.586
434.3952, 1704.941
434.8773, 1692.405
435.3595, 1682.964
435.8416, 1677.486
436.3237, 1675.540
436.8058, 1678.297
437.2879, 1684.368
437.7701, 1691.293
438.2522, 1698.053
438.7343, 1703.254
439.2164, 1702.789
439.6985, 1690.285
440.1806, 1683.581
440.6628, 1691.487
441.1449, 1697.629
441.6270, 1686.515
442.1091, 1662.268
442.5912, 1643.800
443.0733, 1647.528
443.5555, 1667.340
444.0376, 1679.184
444.5197, 1680.313
445.0018, 1681.199
445.4839, 1688.226
445.9660, 1695.686
446.4482, 1697.719
446.9303, 1693.248
447.4124, 1686.160
447.8945, 1675.795
448.3766, 1665.073
448.8587, 1662.138
449.3409, 1668.703
449.8230, 1673.467
450.3051, 1665.277
450.7872, 1646.396
451.2693, 1639.373
451.7514, 1656.531
452.2336, 1670.260
452.7157, 1665.078
453.1978, 1653.342
453.6799, 1655.843
454.1620, 1677.464
454.6441, 1700.700
455.1263, 1700.843
455.6084, 1671.515
456.0905, 1655.305
456.5726, 1665.227
457.0547, 1675.639
457.5368, 1679.547
458.0190, 1678.703
458.5011, 1675.318
458.9832, 1669.303
459.4653, 1666.063
459.9474, 1677.587
460.4295, 1704.205
460.9117, 1719.465
461.3938, 1714.177
461.8759, 1701.559
462.3580, 1691.259
462.8401, 1683.380
463.3222, 1679.159
463.8044, 1682.521
464.2865, 1686.840
464.7686, 1684.107
465.2507, 1676.620
465.7328, 1675.198
466.2149, 1685.822
466.6971, 1700.325
467.1792, 1702.229
467.6613, 1682.060
468.1434, 1668.943
468.6255, 1664.445
469.1076, 1665.425
469.5898, 1673.703
470.0719, 1686.022
470.5540, 1694.864
471.0361, 1695.341
471.5182, 1689.673
472.0003, 1684.048
472.4825, 1678.470
472.9646, 1673.024
473.4467, 1666.389
473.9288, 1660.939
474.4109, 1658.186
474.8930, 1658.222
475.3752, 1660.433
475.8573, 1667.081
476.3394, 1674.647
476.8215, 1677.029
477.3036, 1674.056
477.7857, 1667.656
478.2679, 1656.131
478.7500, 1643.970
479.2321, 1643.005
479.7142, 1656.858
480.1963, 1670.647
480.6784, 1684.168
481.1606, 1694.668
481.6427, 1699.104
482.1248, 1697.717
482.6069, 1692.322
483.0890, 1683.234
483.5711, 1672.403
484.0533, 1671.466
484.5354, 1691.822
485.0175, 1703.150
485.4996, 1694.910
485.9817, 1681.512
486.4638, 1674.748
486.9460, 1675.544
487.4281, 1676.558
487.9102, 1671.849
488.3923, 1662.956
488.8744, 1652.634
489.3565, 1639.467
489.8387, 1633.642
490.3208, 1643.439
490.8029, 1662.584
491.2850, 1678.255
491.7671, 1691.752
492.2492, 1698.368
492.7314, 1691.896
493.2135, 1680.207
493.6956, 1671.609
494.1777, 1667.110
494.6598, 1664.076
495.1419, 1660.333
495.6241, 1656.476
496.1062, 1656.478
496.5883, 1665.957
497.0704, 1671.352
497.5525, 1668.714
498.0346, 1663.494
498.5168, 1659.731
498.9989, 1658.102
499.4810, 1657.452
499.9631, 1655.823
500.4452, 1654.444
500.9273, 1659.327
501.4095, 1672.449
501.8916, 1683.458
502.3737, 1687.015
502.8558, 1686.255
503.3379, 1685.808
503.8200, 1685.282
504.3022, 1687.090
504.7843, 1698.416
505.2664, 1708.952
505.7485, 1701.289
506.2306, 1677.554
506.7127, 1661.148
507.1949, 1669.289
507.6770, 1694.874
508.1591, 1706.573
508.6412, 1690.929
509.1233, 1680.740
509.6054, 1680.445
510.0876, 1683.865
510.5697, 1686.986
511.0518, 1689.410
511.5339, 1692.806
512.0161, 1700.031
512.4982, 1708.027
512.9803, 1706.783
513.4624, 1694.418
513.9445, 1684.129
514.4266, 1679.993
514.9088, 1680.768
515.3909, 1686.155
515.8730, 1696.861
516.3551, 1703.240
516.8372, 1701.139
517.3193, 1694.395
517.8015, 1684.654
518.2836, 1673.164
518.7657, 1662.531
519.2478, 1653.842
519.7299, 1648.406
520.2120, 1650.364
520.6942, 1669.880
521.1763, 1677.058
521.6584, 1660.604
522.1405, 1643.884
522.6226, 1640.681
523.1047, 1647.644
523.5869, 1653.092
524.0690, 1649.154
524.5511, 1644.522
525.0332, 1658.803
525.5153, 1691.786
525.9974, 1708.546
526.4796, 1695.234
526.9617, 1672.258
527.4438, 1659.018
527.9259, 1654.641
528.4080, 1655.905
528.8901, 1668.973
529.3723, 1681.068
529.8544, 1683.469
530.3365, 1679.672
530.8186, 1676.805
531.3007, 1677.283
531.7828, 1678.383
532.2650, 1676.039
532.7471, 1669.354
533.2292, 1664.772
533.7113, 1663.847
534.1934, 1663.319
534.6755, 1660.786
535.1577, 1658.595
535.6398, 1661.396
536.1219, 1671.246
536.6040, 1679.255
537.0861, 1671.866
537.5682, 1655.784
538.0504, 1656.133
538.5325, 1678.127
539.0146, 1698.762
539.4967, 1701.237
539.9788, 1688.808
540.4609, 1678.229
540.9431, 1666.170
541.4252, 1660.072
541.9073, 1666.663
542.3894, 1676.497
542.8715, 1678.773
543.3536, 1673.938
543.8358, 1672.319
544.3179, 1683.722
544.8000, 1703.442
545.2821, 1708.765
545.7642, 1691.872
546.2463, 1682.101
546.7285, 1694.901
547.2106, 1711.647
547.6926, 1719.940
548.1747, 1719.148
548.6569, 1711.017
549.1390, 1686.420
549.6211, 1661.811
550.1032, 1657.151
550.5853, 1669.321
551.0674, 1685.140
551.5496, 1700.459
552.0317, 1711.920
552.5138, 1713.909
552.9959, 1704.198
553.4780, 1692.156
553.9601, 1670.919
554.4423, 1654.927
554.9244, 1651.388
555.4065, 1656.465
555.8886, 1664.646
556.3707, 1674.036
556.8528, 1683.313
557.3350, 1692.314
557.8171, 1700.441
558.2992, 1702.037
558.7813, 1695.157
559.2634, 1686.057
559.7455, 1676.654
560.2277, 1668.554
560.7098, 1666.198
561.1919, 1671.982
561.6740, 1679.333
562.1561, 1689.932
562.6382, 1698.814
563.1204, 1698.624
563.6025, 1690.353
564.0846, 1682.766
564.5667, 1682.472
565.0488, 1687.360
565.5309, 1688.952
566.0131, 1685.850
566.4952, 1682.989
566.9773, 1682.653
567.4594, 1681.579
567.9415, 1676.528
568.4236, 1668.500
568.9058, 1662.339
569.3879, 1660.875
569.8700, 1661.427
570.3521, 1663.117
570.8342, 1664.736
571.3163, 1660.519
571.7985, 1648.070
572.2806, 1635.861
572.7627, 1634.930
573.2448, 1647.014
573.7269, 1653.897
574.2090, 1649.774
574.6912, 1647.735
575.1733, 1653.544
575.6554, 1661.817
576.1375, 1667.046
576.6196, 1667.823
577.1017, 1665.115
577.5839, 1656.080
578.0660, 1644.299
578.5481, 1643.564
579.0302, 1655.325
579.5123, 1667.399
579.9944, 1676.214
580.4766, 1680.370
580.9587, 1674.237
581.4408, 1653.246
581.9229, 1642.391
582.4050, 1652.722
582.8871, 1667.379
583.3693, 1677.088
583.8514, 1681.932
584.3335, 1684.323
584.8156, 1685.307
585.2977, 1684.724
585.7798, 1682.199
586.2620, 1677.660
586.7441, 1671.246
587.2262, 1658.747
587.7083, 1651.307
588.1904, 1660.004
588.6725, 1676.639
589.1547, 1688.111
589.6368, 1691.961
590.1189, 1692.634
590.6010, 1692.530
591.0831, 1690.310
591.5652, 1682.670
592.0474, 1670.485
592.5295, 1659.014
593.0116, 1651.483
593.4937, 1648.015
593.9758, 1649.832
594.4579, 1661.254
594.9401, 1667.653
595.4222, 1661.317
595.9043, 1655.591
596.3864, 1656.773
596.8685, 1663.915
597.3506, 1674.716
597.8328, 1691.808
598.3149, 1705.391
598.7970, 1703.849
599.2791, 1692.140
599.7612, 1682.303
600.2433, 1676.615
600.7255, 1674.471
601.2076, 1676.181
601.6897, 1680.916
602.1718, 1681.813
602.6539, 1670.674
603.1360, 1667.096
603.6182, 1681.282
604.1003, 1696.536
604.5824, 1698.129
605.0645, 1688.279
605.5466, 1681.203
606.0287, 1687.107
606.5109, 1697.380
606.9930, 1698.435
607.4751, 1691.382
607.9572, 1684.725
608.4393, 1680.209
608.9214, 1678.167
609.4036, 1680.651
609.8857, 1687.658
610.3678, 1685.466
610.8499, 1659.618
611.3320, 1643.749
611.8141, 1655.880
612.2963, 1675.250
612.7784, 1680.362
613.2605, 1669.612
613.7426, 1655.279
614.2247, 1643.447
614.7068, 1637.229
615.1890, 1649.102
615.6711, 1680.278
616.1532, 1701.273
616.6353, 1700.404
617.1174, 1692.097
617.5995, 1694.040
618.0817, 1706.489
618.5638, 1708.233
619.0459, 1691.283
619.5280, 1671.831
620.0101, 1649.738
620.4922, 1631.815
620.9744, 1627.460
621.4565, 1637.481
621.9386, 1654.188
622.4207, 1673.723
622.9028, 1693.132
623.3849, 1699.053
623.8671, 1689.427
624.3492, 1677.892
624.8313, 1666.564
625.3134, 1657.279
625.7955, 1653.368
626.2776, 1654.470
626.7598, 1654.880
627.2419, 1647.512
627.7240, 1646.097
628.2061, 1665.263
628.6882, 1691.674
629.1703, 1704.839
629.6525, 1700.720
630.1346, 1691.061
630.6167, 1687.435
631.0988, 1688.109
631.5809, 1681.140
632.0630, 1662.186
632.5452, 1653.124
633.0273, 1667.175
633.5094, 1687.609
633.9915, 1695.401
634.4736, 1691.244
634.9557, 1687.500
635.4379, 1692.571
635.9200, 1682.047
636.4021, 1693.787
636.8842, 1699.165
637.3663, 1698.532
637.8484, 1673.312
638.3306, 1680.276
