##NAMES=Schuilingite-(Nd)
##RRUFFID=R100063
##IDEAL CHEMISTRY=Cu^2+^Pb^2+^Nd^3+^(CO_3_)_3_(OH)&#183;1.5H_2_O
##LOCALITY=Kasompi, 70 km. west of Kambove, Katanga, Congo
##OWNER=RRUFF
##SOURCE=William W Pinch
##DESCRIPTION=Azure-blue, prismatic crystals. Same sample as used by Schindler and Hawthorne (1999) for structure determination
##STATUS=The identification of this mineral has been confirmed only by single crystal X-ray diffraction.
##URL=rruff.info/R100063
91.53320, 59.16762
92.01532, 59.07778
92.49744, 58.88398
92.97955, 59.37215
93.46167, 59.88127
93.94379, 60.07837
94.42590, 60.67487
94.90802, 60.92496
95.39014, 59.59137
95.87225, 56.22994
96.35437, 53.24103
96.83649, 51.65724
97.31860, 50.87462
97.80072, 50.36467
98.28284, 49.88005
98.76495, 49.35452
99.24707, 48.67664
99.72919, 47.43045
100.2113, 46.52319
100.6934, 46.42577
101.1755, 46.83703
101.6577, 47.13043
102.1398, 46.69294
102.6219, 45.26961
103.1040, 44.47924
103.5861, 44.69574
104.0682, 45.04386
104.5504, 45.05442
105.0325, 44.65430
105.5146, 44.06766
105.9967, 43.59150
106.4788, 43.26882
106.9609, 42.93956
107.4431, 42.51540
107.9252, 42.09529
108.4073, 41.87982
108.8894, 42.00866
109.3715, 42.18185
109.8536, 41.81397
110.3358, 40.79448
110.8179, 39.83031
111.3000, 39.29642
111.7821, 39.16455
112.2642, 39.16613
112.7463, 39.17992
113.2285, 39.31498
113.7106, 39.76961
114.1927, 40.69087
114.6748, 41.61705
115.1569, 41.82233
115.6390, 40.99155
116.1212, 40.23551
116.6033, 39.83989
117.0854, 39.68147
117.5675, 39.66573
118.0496, 39.75629
118.5317, 39.93773
119.0139, 40.13887
119.4960, 40.46739
119.9781, 40.69251
120.4602, 40.80298
120.9423, 40.78126
121.4244, 40.56816
121.9066, 40.07873
122.3887, 39.26372
122.8708, 38.89741
123.3529, 39.32135
123.8350, 39.77608
124.3171, 39.85224
124.7993, 39.56313
125.2814, 39.24465
125.7635, 39.24325
126.2456, 39.64699
126.7277, 39.98778
127.2098, 40.32569
127.6920, 40.56748
128.1741, 40.56878
128.6562, 40.26872
129.1383, 39.88280
129.6204, 39.69840
130.1025, 39.69030
130.5847, 39.66168
131.0668, 39.40676
131.5489, 39.03990
132.0310, 39.01026
132.5131, 39.69738
132.9952, 40.43650
133.4774, 40.54697
133.9595, 40.02718
134.4416, 39.53788
134.9237, 39.83319
135.4058, 41.08927
135.8879, 41.90946
136.3701, 41.44526
136.8522, 40.83332
137.3343, 40.80788
137.8164, 41.53605
138.2985, 42.51982
138.7806, 42.86986
139.2628, 42.08463
139.7449, 41.55880
140.2270, 41.68430
140.7091, 41.96700
141.1912, 41.88815
141.6733, 41.21617
142.1555, 40.19995
142.6376, 39.70689
143.1197, 40.26550
143.6018, 40.79845
144.0839, 41.24368
144.5660, 41.58681
145.0482, 41.82167
145.5303, 41.94258
146.0124, 41.95129
146.4945, 41.86354
146.9766, 41.62796
147.4587, 41.37103
147.9409, 41.12549
148.4230, 40.89702
148.9051, 40.69567
149.3872, 40.50560
149.8693, 40.35883
150.3514, 40.34367
150.8336, 40.63055
151.3157, 40.94645
151.7978, 41.01223
152.2799, 40.79174
152.7620, 40.54470
153.2441, 40.52380
153.7263, 40.61129
154.2084, 40.60323
154.6905, 40.44361
155.1726, 40.14239
155.6547, 39.65638
156.1368, 38.79201
156.6190, 38.11400
157.1011, 37.97204
157.5832, 38.20330
158.0653, 38.50401
158.5474, 38.72622
159.0295, 38.86712
159.5117, 38.87951
159.9938, 38.53711
160.4759, 38.28943
160.9580, 38.38766
161.4401, 38.73330
161.9222, 39.05543
162.4044, 39.08879
162.8865, 38.76637
163.3686, 38.54591
163.8507, 38.39875
164.3328, 38.36433
164.8149, 38.62331
165.2971, 39.08991
165.7792, 39.41022
166.2613, 39.11180
166.7434, 37.77786
167.2255, 37.06779
167.7076, 37.30265
168.1898, 37.83813
168.6719, 38.31862
169.1540, 38.64577
169.6361, 38.80352
170.1182, 38.75882
170.6003, 38.45036
171.0825, 38.05597
171.5646, 37.37782
172.0467, 36.69655
172.5288, 36.36580
173.0109, 36.50549
173.4930, 36.89134
173.9752, 37.27943
174.4573, 37.76610
174.9394, 37.85095
175.4215, 36.88697
175.9036, 35.41795
176.3857, 34.77478
176.8679, 35.62761
177.3500, 36.99075
177.8321, 37.53671
178.3142, 37.23824
178.7963, 36.73039
179.2784, 36.30648
179.7606, 35.96514
180.2427, 35.74086
180.7248, 35.77806
181.2069, 35.81684
181.6890, 35.53747
182.1711, 34.89920
182.6533, 34.35856
183.1354, 34.54564
183.6175, 35.61205
184.0996, 36.20339
184.5817, 35.47552
185.0638, 34.48761
185.5460, 33.81988
186.0281, 33.59882
186.5102, 33.60018
186.9923, 33.46868
187.4744, 33.02659
187.9565, 32.94956
188.4387, 33.53712
188.9208, 34.33474
189.4029, 35.15768
189.8850, 35.92121
190.3671, 36.43674
190.8492, 36.26607
191.3314, 34.59583
191.8135, 33.57811
192.2956, 33.64986
192.7777, 34.19266
193.2598, 34.73501
193.7419, 35.08157
194.2241, 35.25057
194.7062, 35.28497
195.1883, 34.91620
195.6704, 34.72359
196.1525, 34.95772
196.6346, 35.29781
197.1168, 35.27150
197.5989, 34.65350
198.0810, 33.76205
198.5631, 33.55008
199.0452, 34.69133
199.5273, 35.57364
200.0095, 35.80989
200.4916, 35.64165
200.9737, 35.43472
201.4558, 35.32813
201.9379, 35.32653
202.4200, 35.45824
202.9022, 35.76416
203.3843, 36.09315
203.8664, 36.41565
204.3485, 36.72452
204.8306, 37.02883
205.3127, 37.40076
205.7949, 37.67997
206.2770, 37.52270
206.7591, 36.74638
207.2412, 35.97101
207.7233, 35.43585
208.2054, 35.15728
208.6876, 35.31723
209.1697, 36.33779
209.6518, 37.57555
210.1339, 38.02338
210.6160, 37.41098
211.0981, 36.67592
211.5803, 36.64838
212.0624, 37.33009
212.5445, 37.93021
213.0266, 38.15613
213.5087, 38.16761
213.9908, 38.07044
214.4730, 37.85696
214.9551, 37.65689
215.4372, 37.57929
215.9193, 37.61126
216.4014, 37.84613
216.8836, 38.75710
217.3657, 39.63203
217.8478, 39.92723
218.3299, 39.50420
218.8120, 38.75458
219.2941, 38.14718
219.7763, 37.64900
220.2584, 37.41971
220.7405, 37.66482
221.2226, 38.05886
221.7047, 38.45684
222.1868, 38.80640
222.6690, 39.01305
223.1511, 38.86726
223.6332, 38.11042
224.1153, 37.59290
224.5974, 37.45359
225.0795, 37.50244
225.5617, 37.65795
226.0438, 37.88114
226.5259, 38.10798
227.0080, 38.22700
227.4901, 38.20105
227.9722, 38.12032
228.4544, 38.06629
228.9365, 37.92492
229.4186, 37.48925
229.9007, 36.74421
230.3828, 35.99011
230.8649, 35.79390
231.3471, 36.85872
231.8292, 37.34236
232.3113, 36.68953
232.7934, 35.83022
233.2755, 35.59063
233.7576, 36.17807
234.2398, 37.13226
234.7219, 37.68837
235.2040, 37.57767
235.6861, 37.50373
236.1682, 37.61326
236.6503, 37.68140
237.1325, 37.41519
237.6146, 36.75600
238.0967, 36.02399
238.5788, 35.74018
239.0609, 36.30009
239.5430, 36.36528
240.0252, 35.33656
240.5073, 34.06678
240.9894, 33.52909
241.4715, 33.94920
241.9536, 34.61704
242.4357, 34.51366
242.9179, 33.37970
243.4000, 32.63844
243.8821, 32.77205
244.3642, 33.20191
244.8463, 33.23448
245.3284, 32.71465
245.8106, 32.11885
246.2927, 32.04123
246.7748, 32.49865
247.2569, 32.94103
247.7390, 33.43175
248.2211, 33.80621
248.7033, 33.78879
249.1854, 33.29943
249.6675, 32.72588
250.1496, 32.55045
250.6317, 32.69181
251.1138, 32.56019
251.5960, 31.73819
252.0781, 30.70144
252.5602, 30.00411
253.0423, 29.69031
253.5244, 29.76205
254.0065, 30.64582
254.4887, 31.99232
254.9708, 32.77059
255.4529, 32.25806
255.9350, 31.21855
256.4171, 30.78936
256.8992, 31.13418
257.3813, 31.48725
257.8635, 31.10686
258.3456, 30.37186
258.8277, 29.92920
259.3098, 30.17902
259.7919, 30.69262
260.2740, 30.83356
260.7562, 30.52814
261.2383, 30.16772
261.7204, 29.90396
262.2025, 29.73536
262.6846, 29.69101
263.1667, 29.83228
263.6489, 30.03673
264.1310, 30.15646
264.6131, 30.20099
265.0952, 30.11786
265.5773, 29.48903
266.0594, 28.87964
266.5416, 28.97190
267.0237, 30.13061
267.5058, 31.55496
267.9879, 32.11423
268.4700, 31.62812
268.9521, 31.10287
269.4343, 30.85394
269.9164, 30.71489
270.3985, 30.56557
270.8806, 30.37345
271.3627, 30.20582
271.8448, 30.19149
272.3270, 30.38468
272.8091, 30.44617
273.2912, 30.18519
273.7733, 29.83086
274.2554, 29.47755
274.7375, 29.14672
275.2197, 28.89316
275.7018, 28.82789
276.1839, 28.99968
276.6660, 29.04222
277.1481, 28.63362
277.6302, 28.28175
278.1124, 28.34124
278.5945, 28.78659
279.0766, 29.23663
279.5587, 29.24945
280.0408, 28.75570
280.5229, 28.45531
281.0051, 28.45588
281.4872, 28.60745
281.9693, 29.04997
282.4514, 29.64380
282.9335, 29.98481
283.4156, 29.56911
283.8978, 28.36966
284.3799, 27.69425
284.8620, 27.87157
285.3441, 28.30006
285.8262, 29.03758
286.3083, 29.87008
286.7905, 30.37922
287.2726, 30.18238
287.7547, 29.37448
288.2368, 28.88818
288.7189, 29.12235
289.2010, 29.21197
289.6832, 28.73287
290.1653, 28.00037
290.6474, 27.53466
291.1295, 27.68399
291.6116, 28.24171
292.0938, 28.33735
292.5759, 27.50186
293.0580, 26.86422
293.5401, 26.63179
294.0222, 26.69772
294.5043, 26.99704
294.9865, 27.51009
295.4686, 28.11455
295.9507, 28.48495
296.4328, 28.37300
296.9149, 28.47586
297.3970, 29.36634
297.8792, 30.20933
298.3613, 30.09696
298.8434, 28.80620
299.3255, 27.09855
299.8076, 26.26356
300.2897, 26.70148
300.7719, 27.14650
301.2540, 27.74050
301.7361, 28.17671
302.2182, 28.18117
302.7003, 27.75246
303.1824, 27.17573
303.6646, 26.74827
304.1467, 26.43089
304.6288, 26.43169
305.1109, 27.14509
305.5930, 27.81406
306.0751, 28.01114
306.5573, 27.80356
307.0394, 27.57405
307.5215, 27.71431
308.0036, 28.27413
308.4857, 28.47193
308.9678, 27.85360
309.4500, 27.30557
309.9321, 26.97606
310.4142, 26.91585
310.8963, 27.24800
311.3784, 28.15643
311.8605, 29.48060
312.3427, 29.92833
312.8248, 28.47647
313.3069, 27.29582
313.7890, 26.82924
314.2711, 26.84217
314.7532, 27.04855
315.2354, 27.31754
315.7175, 27.60353
316.1996, 27.77213
316.6817, 27.79037
317.1638, 27.72836
317.6459, 27.61426
318.1281, 27.42523
318.6102, 27.02988
319.0923, 26.41742
319.5744, 25.87870
320.0565, 26.00406
320.5386, 27.35472
321.0208, 28.05262
321.5029, 27.59698
321.9850, 26.89616
322.4671, 26.39939
322.9492, 26.21707
323.4313, 26.32170
323.9135, 26.77530
324.3956, 27.72219
324.8777, 28.27062
325.3598, 27.92801
325.8419, 27.64367
326.3240, 27.96671
326.8062, 28.69072
327.2883, 29.17322
327.7704, 28.83724
328.2525, 27.75034
328.7346, 27.11593
329.2167, 27.26159
329.6989, 27.53021
330.1810, 27.91324
330.6631, 28.28136
331.1452, 28.42669
331.6273, 28.21205
332.1094, 27.79014
332.5916, 27.69611
333.0737, 28.42039
333.5558, 28.60138
334.0379, 27.52871
334.5200, 26.13992
335.0021, 25.33331
335.4843, 25.39239
335.9664, 25.92215
336.4485, 26.32746
336.9306, 26.59807
337.4127, 26.77190
337.8948, 26.73029
338.3770, 26.69057
338.8591, 26.85744
339.3412, 27.20541
339.8233, 27.47335
340.3055, 27.32990
340.7876, 26.71736
341.2697, 26.27766
341.7518, 25.95967
342.2339, 25.89862
342.7160, 26.38844
343.1982, 27.18965
343.6803, 27.73986
344.1624, 27.56537
344.6445, 26.84922
345.1266, 26.56219
345.6087, 27.12186
346.0909, 27.42361
346.5730, 26.88607
347.0551, 25.99837
347.5372, 25.37695
348.0193, 25.28055
348.5014, 25.50973
348.9836, 25.73401
349.4657, 25.97072
349.9478, 26.13989
350.4299, 26.15202
350.9120, 26.13072
351.3941, 26.21740
351.8763, 26.43144
352.3584, 26.55336
352.8405, 26.21338
353.3226, 25.38680
353.8047, 24.95980
354.2868, 25.21567
354.7690, 25.75747
355.2511, 26.40023
355.7332, 27.11289
356.2153, 27.80684
356.6974, 28.61938
357.1795, 29.40029
357.6617, 29.41516
358.1438, 28.20322
358.6259, 27.17309
359.1080, 27.59163
359.5901, 28.62692
360.0722, 28.84558
360.5544, 27.26023
361.0365, 25.19421
361.5186, 24.62769
362.0007, 25.74375
362.4828, 26.97549
362.9649, 27.94562
363.4471, 28.54417
363.9292, 28.56816
364.4113, 27.88729
364.8934, 27.11967
365.3755, 26.70011
365.8576, 26.59468
366.3398, 26.66164
366.8219, 27.00611
367.3040, 27.30520
367.7861, 27.07095
368.2682, 26.36927
368.7503, 25.96856
369.2325, 26.38442
369.7146, 27.23419
370.1967, 27.92737
370.6788, 28.43283
371.1609, 28.65967
371.6430, 28.40011
372.1252, 27.78402
372.6073, 27.25679
373.0894, 26.82378
373.5715, 26.54074
374.0536, 26.60226
374.5357, 26.92900
375.0179, 26.97304
375.5000, 26.28186
375.9821, 25.32346
376.4642, 25.28605
376.9463, 26.66521
377.4284, 27.69913
377.9106, 27.50138
378.3927, 26.58478
378.8748, 25.73433
379.3569, 25.12993
379.8390, 24.85775
380.3211, 25.19376
380.8033, 26.33981
381.2854, 26.84020
381.7675, 25.98364
382.2496, 24.87918
382.7317, 24.30784
383.2138, 24.33798
383.6960, 24.81877
384.1781, 25.76269
384.6602, 27.09515
385.1423, 27.76484
385.6244, 27.41794
386.1065, 26.94276
386.5887, 26.48614
387.0708, 26.12246
387.5529, 26.02123
388.0350, 26.27193
388.5171, 26.64665
388.9992, 26.63283
389.4814, 25.70550
389.9635, 25.19870
390.4456, 25.39155
390.9277, 25.81214
391.4098, 26.09304
391.8919, 26.17922
392.3741, 26.23254
392.8562, 26.42849
393.3383, 26.79679
393.8204, 27.08591
394.3025, 27.24434
394.7846, 27.38390
395.2668, 27.52052
395.7489, 27.66895
396.2310, 27.84171
396.7131, 28.04388
397.1952, 28.28546
397.6773, 28.64472
398.1595, 29.49740
398.6416, 29.80923
399.1237, 28.99531
399.6058, 27.93150
400.0879, 27.37271
400.5700, 27.48665
401.0522, 27.89824
401.5343, 28.25149
402.0164, 28.59543
402.4985, 28.55924
402.9806, 27.66922
403.4627, 26.82069
403.9449, 26.32677
404.4270, 26.18389
404.9091, 26.35930
405.3912, 27.05936
405.8733, 27.95046
406.3554, 27.75220
406.8376, 25.74959
407.3197, 24.45248
407.8018, 25.73670
408.2839, 27.81721
408.7660, 28.82290
409.2481, 28.20926
409.7303, 27.11483
410.2124, 26.72706
410.6945, 26.98794
411.1766, 26.92436
411.6587, 26.06046
412.1408, 25.16590
412.6230, 25.02568
413.1051, 25.54484
413.5872, 26.04631
414.0693, 26.28259
414.5514, 26.31359
415.0335, 26.14390
415.5157, 25.74415
415.9978, 25.48037
416.4799, 25.67755
416.9620, 26.18418
417.4441, 26.50890
417.9262, 26.61237
418.4084, 26.56049
418.8905, 26.35538
419.3726, 26.02269
419.8547, 25.59006
420.3368, 25.03335
420.8189, 24.48999
421.3011, 24.16540
421.7832, 24.03732
422.2653, 24.20162
422.7474, 25.06712
423.2295, 25.96197
423.7116, 26.24578
424.1938, 25.92115
424.6759, 25.45535
425.1580, 25.19093
425.6401, 25.12076
426.1222, 25.10926
426.6043, 25.31396
427.0865, 25.38585
427.5686, 25.07246
428.0507, 24.62560
428.5328, 24.42245
429.0149, 24.60322
429.4970, 24.97081
429.9792, 25.17093
430.4613, 25.06597
430.9434, 25.09724
431.4255, 25.41713
431.9076, 25.71606
432.3897, 25.87000
432.8719, 25.85016
433.3540, 25.61513
433.8361, 25.05942
434.3182, 24.27630
434.8003, 23.99075
435.2824, 24.72577
435.7646, 25.15416
436.2467, 24.77718
436.7288, 24.04903
437.2109, 23.34542
437.6930, 22.77841
438.1751, 22.53082
438.6573, 23.08059
439.1394, 24.52872
439.6215, 25.29534
440.1036, 24.64440
440.5857, 23.83284
441.0678, 23.68343
441.5500, 24.08282
442.0321, 24.54694
442.5142, 24.97557
442.9963, 25.25906
443.4784, 25.08011
443.9605, 24.36057
444.4427, 23.78913
444.9248, 23.76410
445.4069, 24.08526
445.8890, 24.40545
446.3711, 24.74878
446.8532, 24.98727
447.3354, 24.98781
447.8175, 24.83896
448.2996, 24.78032
448.7817, 24.89383
449.2638, 24.90695
449.7459, 24.41922
450.2281, 23.39060
450.7102, 22.78394
451.1923, 22.85691
451.6744, 23.16311
452.1565, 23.61846
452.6386, 24.09491
453.1208, 24.19268
453.6029, 23.64179
454.0850, 22.78864
454.5671, 22.60151
455.0492, 24.07145
455.5313, 24.85834
456.0135, 24.24201
456.4956, 23.39951
456.9777, 23.42834
457.4598, 24.35734
457.9419, 25.30436
458.4240, 25.37681
458.9062, 24.55649
459.3883, 24.15886
459.8704, 24.77185
460.3525, 25.15407
460.8346, 24.75073
461.3167, 24.07098
461.7989, 23.79240
462.2810, 24.17618
462.7631, 24.88549
463.2452, 25.55285
463.7273, 26.28410
464.2094, 26.30329
464.6916, 24.63379
465.1737, 23.05607
465.6558, 22.73061
466.1379, 23.42444
466.6200, 24.14970
467.1021, 24.40116
467.5843, 24.32215
468.0664, 24.09031
468.5485, 23.64762
469.0306, 23.49648
469.5127, 24.14706
469.9948, 25.05529
470.4770, 25.29860
470.9591, 24.64755
471.4412, 24.08626
471.9233, 24.36884
472.4054, 25.01028
472.8875, 25.00203
473.3697, 24.12976
473.8518, 23.18491
474.3339, 22.87958
474.8160, 23.22907
475.2981, 23.56354
475.7802, 23.91101
476.2624, 24.21344
476.7445, 24.58723
477.2266, 24.87667
477.7087, 24.69494
478.1908, 23.87909
478.6729, 22.83488
479.1551, 22.30066
479.6372, 22.50142
480.1193, 22.71307
480.6014, 23.02217
481.0835, 23.26486
481.5656, 23.28270
482.0478, 23.14937
482.5299, 23.06961
483.0120, 23.18070
483.4941, 23.44123
483.9762, 23.72798
484.4583, 24.19514
484.9405, 24.35939
485.4226, 23.87927
485.9047, 23.25498
486.3868, 22.82858
486.8689, 22.65890
487.3510, 22.67920
487.8332, 22.93318
488.3153, 23.35470
488.7974, 23.61377
489.2795, 23.65410
489.7616, 23.64047
490.2437, 23.74412
490.7259, 23.84082
491.2080, 23.67673
491.6901, 23.01987
492.1722, 22.46927
492.6543, 22.55566
493.1364, 23.09881
493.6186, 23.61221
494.1007, 23.99837
494.5828, 24.23046
495.0649, 24.27539
495.5470, 24.11886
496.0291, 23.81154
496.5113, 23.09929
496.9934, 22.47281
497.4755, 22.20276
497.9576, 22.24921
498.4397, 22.54198
498.9218, 23.06250
499.4040, 23.64875
499.8861, 23.92118
500.3682, 23.65126
500.8503, 23.47433
501.3324, 23.22135
501.8145, 23.19029
502.2967, 23.86374
502.7788, 24.96717
503.2609, 25.64395
503.7430, 25.21565
504.2251, 24.00404
504.7072, 23.25559
505.1894, 23.07957
505.6715, 23.11987
506.1536, 23.65325
506.6357, 24.12082
507.1178, 23.91343
507.5999, 23.00396
508.0821, 22.21264
508.5642, 22.31114
509.0463, 22.99084
509.5284, 23.29767
510.0105, 23.09681
510.4926, 22.88609
510.9748, 23.01311
511.4569, 23.33665
511.9390, 23.52966
512.4211, 23.59160
512.9032, 23.48828
513.3853, 23.00990
513.8674, 22.40578
514.3495, 22.15026
514.8317, 22.34635
515.3138, 22.70283
515.7959, 22.96182
516.2780, 23.12980
516.7601, 23.05016
517.2422, 22.23440
517.7244, 21.75724
518.2065, 22.38232
518.6886, 23.43778
519.1707, 23.87440
519.6528, 23.34175
520.1349, 22.43963
520.6171, 22.09561
521.0992, 22.46652
521.5813, 22.75721
522.0634, 23.01612
522.5455, 23.13508
523.0276, 22.87560
523.5098, 22.47666
523.9919, 22.39094
524.4740, 22.85904
524.9561, 23.60190
525.4382, 24.44133
525.9203, 25.38629
526.4025, 25.45696
526.8846, 23.79669
527.3667, 22.02947
527.8488, 21.95878
528.3309, 23.30637
528.8130, 24.29879
529.2952, 24.20239
529.7773, 23.69791
530.2594, 23.33386
530.7415, 23.10502
531.2236, 22.88724
531.7057, 22.60865
532.1879, 22.36253
532.6700, 22.33608
533.1521, 22.63217
533.6342, 22.93168
534.1163, 23.46631
534.5984, 23.80044
535.0806, 23.49045
535.5627, 22.71622
536.0448, 21.98606
536.5269, 21.60275
537.0090, 21.53478
537.4911, 21.72961
537.9733, 22.36281
538.4554, 22.87636
538.9375, 23.24223
539.4196, 23.44602
539.9017, 23.38681
540.3839, 23.12814
540.8660, 22.91135
541.3481, 22.86744
541.8302, 22.98244
542.3123, 23.32445
542.7944, 23.94766
543.2766, 24.29868
543.7587, 23.98931
544.2408, 23.43159
544.7229, 23.32715
545.2050, 23.76703
545.6871, 23.85115
546.1693, 22.72831
546.6514, 21.43349
547.1335, 21.25098
547.6156, 22.11429
548.0977, 23.00851
548.5798, 23.33419
549.0620, 23.21778
549.5441, 23.08574
550.0262, 23.08185
550.5083, 22.85639
550.9904, 21.83761
551.4725, 21.02848
551.9547, 21.52333
552.4368, 23.04383
552.9189, 24.27321
553.4010, 24.14874
553.8831, 23.06106
554.3652, 22.63581
554.8474, 23.21225
555.3295, 23.59870
555.8116, 23.15116
556.2937, 22.64199
556.7758, 22.77514
557.2579, 23.52617
557.7401, 24.05808
558.2222, 23.61979
558.7043, 22.75066
559.1864, 22.41873
559.6685, 22.65336
560.1506, 22.95133
560.6328, 23.10418
561.1149, 23.13758
561.5970, 23.06774
562.0791, 22.81571
562.5612, 22.72497
563.0433, 22.98235
563.5255, 23.33213
564.0076, 23.63952
564.4897, 23.84960
564.9718, 23.82697
565.4539, 23.44956
565.9360, 22.89297
566.4182, 22.80609
566.9003, 23.74646
567.3824, 24.08957
567.8645, 23.19554
568.3466, 22.19165
568.8287, 21.65825
569.3109, 21.65038
569.7930, 22.13916
570.2751, 23.42651
570.7572, 24.86581
571.2393, 24.78199
571.7214, 23.00310
572.2036, 21.84068
572.6857, 22.35870
573.1678, 23.44962
573.6499, 23.73580
574.1320, 23.24216
574.6141, 22.95807
575.0963, 23.34313
575.5784, 23.89465
576.0605, 24.21962
576.5426, 24.33442
577.0247, 24.38840
577.5068, 24.45781
577.9890, 24.43399
578.4711, 24.07069
578.9532, 23.05036
579.4353, 22.51572
579.9174, 22.72349
580.3995, 23.09388
580.8817, 23.48509
581.3638, 23.80747
581.8459, 23.92188
582.3280, 23.74782
582.8101, 23.46062
583.2922, 23.36839
583.7744, 23.49105
584.2565, 23.53352
584.7386, 23.52589
585.2207, 23.32636
585.7029, 22.47328
586.1850, 21.35404
586.6671, 21.05220
