##NAMES=Schultenite
##RRUFFID=R050584
##IDEAL CHEMISTRY=Pb^2+^(As^5+^O_3_OH)
##LOCALITY=Tsumeb mine, Tsumeb, Otavi District, Oshikoto, Namibia
##OWNER=RRUFF
##SOURCE=University of Arizona Mineral Museum
##DESCRIPTION=Colorless prismatic crystals with obvious striations, associated with keyite, R050585, and zincolivenite, R050583
##STATUS=The identification of this mineral is confirmed by single-crystal X-ray diffraction and chemical analysis.
##URL=rruff.info/R050584
##MEASURED CHEMISTRY=Pb_1.00_(As_1.00_O_3_OH)
118.5592, 5550.335
119.0413, 5573.316
119.5234, 5598.503
120.0056, 5605.974
120.4877, 5602.982
120.9698, 5612.405
121.4519, 5639.580
121.9340, 5683.888
122.4161, 5745.753
122.8982, 5831.554
123.3804, 5926.833
123.8625, 6018.818
124.3446, 6109.045
124.8267, 6204.905
125.3088, 6315.646
125.7909, 6442.662
126.2731, 6565.388
126.7552, 6692.373
127.2373, 6806.619
127.7194, 6900.788
128.2015, 6973.239
128.6837, 7022.373
129.1658, 7046.376
129.6479, 7044.078
130.1300, 7013.473
130.6121, 6934.161
131.0942, 6842.331
131.5764, 6764.776
132.0585, 6713.760
132.5406, 6687.267
133.0227, 6679.733
133.5048, 6683.683
133.9869, 6717.194
134.4691, 6787.344
134.9512, 6888.566
135.4333, 7010.748
135.9154, 7147.069
136.3975, 7298.956
136.8796, 7482.861
137.3618, 7706.708
137.8439, 7947.332
138.3260, 8196.518
138.8081, 8453.855
139.2902, 8717.363
139.7723, 8984.779
140.2545, 9258.134
140.7366, 9549.531
141.2187, 9882.932
141.7008, 10224.05
142.1829, 10526.90
142.6650, 10774.63
143.1472, 11026.80
143.6293, 11362.77
144.1114, 11763.91
144.5935, 12160.03
145.0756, 12534.29
145.5577, 12882.72
146.0399, 13197.24
146.5220, 13485.85
147.0041, 13720.22
147.4862, 13893.88
147.9683, 14006.80
148.4504, 14063.19
148.9326, 14069.12
149.4147, 14026.18
149.8968, 13917.48
150.3789, 13716.71
150.8610, 13457.75
151.3431, 13147.43
151.8252, 12788.15
152.3074, 12388.14
152.7895, 11956.53
153.2716, 11470.98
153.7537, 10998.64
154.2358, 10533.91
154.7179, 10085.79
155.2001, 9663.338
155.6822, 9268.516
156.1643, 8896.010
156.6464, 8528.145
157.1285, 8149.195
157.6106, 7790.423
158.0928, 7447.438
158.5749, 7127.516
159.0570, 6843.908
159.5391, 6607.210
160.0212, 6411.685
160.5033, 6205.269
160.9855, 5946.591
161.4676, 5719.459
161.9497, 5566.399
162.4318, 5470.699
162.9139, 5382.983
163.3960, 5265.785
163.8782, 5117.471
164.3603, 4981.898
164.8424, 4855.222
165.3245, 4741.557
165.8066, 4650.451
166.2887, 4580.892
166.7709, 4515.187
167.2530, 4434.787
167.7351, 4339.972
168.2172, 4256.549
168.6993, 4189.655
169.1814, 4134.593
169.6636, 4087.031
170.1457, 4047.444
170.6278, 4011.375
171.1099, 3972.234
171.5920, 3930.908
172.0741, 3896.170
172.5563, 3872.936
173.0384, 3858.973
173.5205, 3849.274
174.0026, 3846.937
174.4847, 3842.924
174.9668, 3826.906
175.4490, 3799.963
175.9311, 3776.124
176.4132, 3762.691
176.8953, 3759.674
177.3774, 3769.760
177.8595, 3807.821
178.3417, 3848.393
178.8238, 3872.368
179.3059, 3878.560
179.7880, 3883.462
180.2701, 3905.280
180.7522, 3946.993
181.2344, 3994.026
181.7165, 4047.826
182.1986, 4103.710
182.6807, 4157.165
183.1628, 4207.154
183.6449, 4259.384
184.1271, 4326.197
184.6092, 4422.746
185.0913, 4502.895
185.5734, 4542.080
186.0555, 4575.460
186.5376, 4639.113
187.0198, 4747.559
187.5019, 4877.864
187.9840, 4970.745
188.4661, 4974.607
188.9482, 5004.083
189.4303, 5081.267
189.9125, 5184.309
190.3946, 5288.296
190.8767, 5381.777
191.3588, 5465.833
191.8409, 5548.224
192.3230, 5644.994
192.8052, 5722.108
193.2873, 5765.607
193.7694, 5785.191
194.2515, 5800.107
194.7336, 5823.953
195.2157, 5852.574
195.6979, 5841.362
196.1800, 5791.375
196.6621, 5712.265
197.1442, 5601.840
197.6263, 5463.888
198.1084, 5307.311
198.5906, 5134.481
199.0727, 4946.434
199.5548, 4759.508
200.0369, 4572.796
200.5190, 4389.219
201.0011, 4211.534
201.4833, 4039.132
201.9654, 3866.015
202.4475, 3682.804
202.9296, 3493.422
203.4117, 3321.648
203.8938, 3169.961
204.3760, 3034.771
204.8581, 2918.878
205.3402, 2822.725
205.8223, 2728.984
206.3044, 2616.091
206.7865, 2492.756
207.2687, 2392.907
207.7508, 2342.607
208.2329, 2312.103
208.7150, 2258.960
209.1971, 2175.807
209.6792, 2090.090
210.1614, 2023.612
210.6435, 1971.259
211.1256, 1924.095
211.6077, 1877.497
212.0898, 1834.008
212.5719, 1801.103
213.0541, 1784.180
213.5362, 1767.586
214.0183, 1736.544
214.5004, 1696.915
214.9825, 1663.514
215.4646, 1650.415
215.9468, 1651.618
216.4289, 1640.615
216.9110, 1605.914
217.3931, 1574.182
217.8752, 1563.021
218.3573, 1567.042
218.8395, 1570.688
219.3216, 1562.862
219.8037, 1544.467
220.2858, 1526.515
220.7679, 1509.946
221.2500, 1492.834
221.7322, 1470.803
222.2143, 1446.580
222.6964, 1428.245
223.1785, 1427.191
223.6606, 1444.784
224.1427, 1448.395
224.6249, 1413.959
225.1070, 1386.377
225.5891, 1391.290
226.0712, 1421.672
226.5533, 1449.769
227.0354, 1446.114
227.5176, 1404.353
227.9997, 1375.296
228.4818, 1367.427
228.9639, 1365.645
229.4460, 1367.108
229.9281, 1370.168
230.4103, 1372.697
230.8924, 1372.730
231.3745, 1370.313
231.8566, 1364.936
232.3387, 1354.405
232.8208, 1342.978
233.3030, 1331.542
233.7851, 1320.729
234.2672, 1311.685
234.7493, 1305.733
235.2314, 1303.416
235.7135, 1302.516
236.1957, 1305.550
236.6778, 1307.763
237.1599, 1305.269
237.6420, 1298.597
238.1241, 1292.006
238.6062, 1290.533
239.0884, 1295.774
239.5705, 1301.260
240.0526, 1307.237
240.5347, 1313.185
241.0168, 1318.295
241.4989, 1322.757
241.9811, 1328.061
242.4632, 1336.833
242.9453, 1353.318
243.4274, 1358.709
243.9095, 1342.220
244.3916, 1324.312
244.8738, 1318.182
245.3559, 1325.347
245.8380, 1338.408
246.3201, 1348.947
246.8022, 1355.589
247.2843, 1364.113
247.7665, 1378.877
248.2486, 1392.391
248.7307, 1398.382
249.2128, 1396.502
249.6949, 1391.456
250.1770, 1387.840
250.6592, 1384.699
251.1413, 1388.425
251.6234, 1409.402
252.1055, 1429.858
252.5876, 1432.142
253.0697, 1415.618
253.5519, 1398.678
254.0340, 1402.830
254.5161, 1435.953
254.9982, 1460.052
255.4803, 1474.588
255.9624, 1480.705
256.4445, 1474.051
256.9267, 1455.529
257.4088, 1439.194
257.8909, 1441.241
258.3730, 1467.472
258.8551, 1483.608
259.3372, 1480.369
259.8194, 1472.976
260.3015, 1473.663
260.7836, 1483.791
261.2657, 1497.641
261.7478, 1510.831
262.2299, 1523.441
262.7121, 1530.966
263.1942, 1530.762
263.6763, 1527.124
264.1584, 1522.041
264.6405, 1516.009
265.1227, 1511.350
265.6048, 1509.013
266.0869, 1509.502
266.5690, 1518.718
267.0511, 1553.881
267.5332, 1586.493
268.0154, 1588.297
268.4975, 1558.492
268.9796, 1523.423
269.4617, 1503.052
269.9438, 1498.307
270.4259, 1498.803
270.9081, 1511.011
271.3902, 1523.692
271.8723, 1525.757
272.3544, 1517.312
272.8365, 1510.291
273.3186, 1515.144
273.8008, 1530.659
274.2829, 1539.632
274.7650, 1533.806
275.2471, 1527.338
275.7292, 1533.565
276.2113, 1551.618
276.6935, 1567.406
277.1756, 1571.713
277.6577, 1564.600
278.1398, 1554.730
278.6219, 1540.437
279.1040, 1524.685
279.5862, 1506.563
280.0683, 1487.063
280.5504, 1474.487
281.0325, 1476.787
281.5146, 1490.020
281.9967, 1495.897
282.4789, 1488.620
282.9610, 1479.466
283.4431, 1474.415
283.9252, 1473.252
284.4073, 1474.875
284.8894, 1478.942
285.3716, 1485.504
285.8537, 1494.391
286.3358, 1511.544
286.8179, 1523.575
287.3000, 1518.571
287.7821, 1500.632
288.2643, 1485.885
288.7464, 1480.618
289.2285, 1484.415
289.7106, 1496.426
290.1927, 1527.050
290.6748, 1547.106
291.1570, 1532.573
291.6391, 1494.656
292.1212, 1468.859
292.6033, 1471.658
293.0854, 1490.407
293.5675, 1499.183
294.0497, 1495.791
294.5318, 1490.882
295.0139, 1488.166
295.4960, 1487.060
295.9781, 1486.823
296.4602, 1487.962
296.9424, 1488.297
297.4245, 1481.193
297.9066, 1462.850
298.3887, 1454.394
298.8708, 1472.149
299.3529, 1502.316
299.8351, 1518.458
300.3172, 1511.200
300.7993, 1497.571
301.2814, 1504.912
301.7635, 1535.582
302.2456, 1557.728
302.7278, 1560.739
303.2099, 1552.255
303.6920, 1538.964
304.1741, 1521.101
304.6562, 1508.026
305.1383, 1514.974
305.6205, 1543.585
306.1026, 1560.637
306.5847, 1550.112
307.0668, 1532.253
307.5489, 1530.087
308.0310, 1546.475
308.5132, 1564.427
308.9953, 1566.921
309.4774, 1553.222
309.9595, 1546.693
310.4416, 1552.558
310.9237, 1562.831
311.4059, 1572.856
311.8880, 1581.950
312.3701, 1588.530
312.8522, 1590.429
313.3343, 1588.072
313.8164, 1589.354
314.2986, 1594.036
314.7807, 1602.298
315.2628, 1618.366
315.7449, 1639.505
316.2270, 1654.793
316.7091, 1656.359
317.1913, 1646.606
317.6734, 1640.536
318.1555, 1640.722
318.6376, 1641.170
319.1197, 1640.359
319.6018, 1638.127
320.0840, 1633.506
320.5661, 1625.426
321.0482, 1615.784
321.5303, 1611.364
322.0124, 1615.216
322.4945, 1619.152
322.9767, 1621.805
323.4588, 1623.442
323.9409, 1623.867
324.4230, 1622.840
324.9051, 1621.974
325.3872, 1624.765
325.8694, 1634.508
326.3515, 1642.055
326.8336, 1647.453
327.3157, 1649.979
327.7978, 1647.505
328.2799, 1639.762
328.7621, 1630.782
329.2442, 1625.794
329.7263, 1625.276
330.2084, 1628.939
330.6905, 1641.446
331.1726, 1654.593
331.6548, 1664.731
332.1369, 1670.350
332.6190, 1668.279
333.1011, 1653.317
333.5832, 1620.634
334.0653, 1603.351
334.5475, 1608.355
335.0296, 1619.198
335.5117, 1630.412
335.9938, 1640.754
336.4759, 1650.246
336.9580, 1659.299
337.4402, 1667.833
337.9223, 1670.042
338.4044, 1656.197
338.8865, 1646.768
339.3686, 1649.910
339.8507, 1660.784
340.3329, 1670.537
340.8150, 1674.001
341.2971, 1673.024
341.7792, 1675.441
342.2613, 1679.011
342.7434, 1689.661
343.2256, 1717.402
343.7077, 1748.419
344.1898, 1766.477
344.6719, 1765.347
345.1540, 1753.876
345.6361, 1749.608
346.1183, 1755.164
346.6004, 1763.512
347.0825, 1778.232
347.5646, 1792.243
348.0467, 1798.176
348.5288, 1795.539
349.0110, 1792.714
349.4931, 1801.316
349.9752, 1824.881
350.4573, 1845.896
350.9394, 1864.227
351.4215, 1879.869
351.9037, 1890.190
352.3858, 1896.953
352.8679, 1906.043
353.3500, 1923.865
353.8321, 1950.018
354.3142, 1972.968
354.7964, 1998.371
355.2785, 2012.286
355.7606, 2002.521
356.2427, 1978.612
356.7248, 1959.014
357.2069, 1954.618
357.6891, 1961.414
358.1712, 1969.161
358.6533, 1979.671
359.1354, 1986.959
359.6175, 1986.472
360.0996, 1982.494
360.5818, 1979.355
361.0639, 1978.018
361.5460, 1979.001
362.0281, 1984.129
362.5102, 1994.051
362.9923, 2002.242
363.4745, 2003.589
363.9566, 2004.323
364.4387, 2012.021
364.9208, 2028.587
365.4029, 2043.324
365.8850, 2043.541
366.3672, 2033.088
366.8493, 2034.642
367.3314, 2058.747
367.8135, 2087.849
368.2956, 2100.668
368.7777, 2098.668
369.2599, 2103.572
369.7420, 2128.640
370.2241, 2164.936
370.7062, 2197.808
371.1883, 2225.558
371.6704, 2250.826
372.1526, 2276.810
372.6347, 2302.700
373.1168, 2323.618
373.5989, 2333.535
374.0810, 2342.324
374.5631, 2359.846
375.0453, 2385.158
375.5274, 2407.836
376.0095, 2419.678
376.4916, 2424.974
376.9737, 2442.068
377.4558, 2477.984
377.9380, 2516.142
378.4201, 2550.857
378.9022, 2583.659
379.3843, 2618.996
379.8664, 2659.503
380.3485, 2698.904
380.8307, 2722.835
381.3128, 2721.815
381.7949, 2722.832
382.2770, 2725.709
382.7591, 2732.396
383.2412, 2747.805
383.7234, 2771.645
384.2055, 2794.399
384.6876, 2803.384
385.1697, 2792.112
385.6518, 2795.636
386.1339, 2832.077
386.6161, 2864.001
387.0982, 2868.812
387.5803, 2852.472
388.0624, 2836.353
388.5445, 2837.356
389.0266, 2852.520
389.5088, 2849.670
389.9909, 2810.350
390.4730, 2772.911
390.9551, 2748.042
391.4372, 2727.366
391.9193, 2698.963
392.4015, 2657.461
392.8836, 2609.635
393.3657, 2568.765
393.8478, 2536.892
394.3299, 2507.972
394.8120, 2479.063
395.2942, 2453.962
395.7763, 2437.552
396.2584, 2429.677
396.7405, 2422.701
397.2226, 2405.945
397.7047, 2379.330
398.1869, 2364.260
398.6690, 2371.866
399.1511, 2379.799
399.6332, 2369.412
400.1153, 2348.183
400.5974, 2337.780
401.0796, 2348.750
401.5617, 2378.533
402.0438, 2426.524
402.5259, 2498.546
403.0080, 2565.574
403.4901, 2598.224
403.9723, 2619.900
404.4544, 2667.645
404.9365, 2758.391
405.4186, 2858.834
405.9007, 2938.979
406.3828, 3003.037
406.8650, 3073.282
407.3471, 3155.203
407.8292, 3249.924
408.3113, 3363.120
408.7934, 3496.933
409.2755, 3630.260
409.7577, 3749.408
410.2398, 3866.284
410.7219, 3997.021
411.2040, 4144.258
411.6861, 4299.768
412.1682, 4457.165
412.6504, 4616.603
413.1325, 4769.747
413.6146, 4924.514
414.0967, 5066.678
414.5788, 5198.563
415.0609, 5312.882
415.5431, 5392.959
416.0252, 5428.658
416.5073, 5422.090
416.9894, 5382.759
417.4715, 5320.708
417.9536, 5210.604
418.4358, 5024.606
418.9179, 4801.036
419.4000, 4574.608
419.8821, 4357.364
420.3642, 4146.431
420.8463, 3937.343
421.3285, 3730.950
421.8106, 3526.394
422.2927, 3317.093
422.7748, 3115.956
423.2569, 2923.830
423.7390, 2744.918
424.2212, 2588.183
424.7033, 2464.229
425.1854, 2368.993
425.6675, 2274.205
426.1496, 2177.906
426.6317, 2086.772
427.1139, 2002.071
427.5960, 1923.711
428.0781, 1850.435
428.5602, 1781.416
429.0423, 1720.479
429.5244, 1674.903
430.0066, 1644.976
430.4887, 1617.079
430.9708, 1586.598
431.4529, 1557.693
431.9350, 1535.505
432.4171, 1520.330
432.8993, 1505.326
433.3814, 1485.679
433.8635, 1464.448
434.3456, 1447.534
434.8277, 1436.102
435.3098, 1425.779
435.7920, 1410.658
436.2741, 1392.160
436.7562, 1384.713
437.2383, 1397.780
437.7204, 1413.744
438.2025, 1422.711
438.6847, 1426.108
439.1668, 1429.179
439.6489, 1434.580
440.1310, 1441.000
440.6131, 1444.748
441.0952, 1437.910
441.5774, 1439.755
442.0595, 1456.807
442.5416, 1479.640
443.0237, 1500.607
443.5058, 1517.969
443.9879, 1533.060
444.4701, 1547.232
444.9522, 1560.344
445.4343, 1573.122
445.9164, 1580.606
446.3985, 1592.804
446.8806, 1614.187
447.3628, 1642.461
447.8449, 1673.836
448.3270, 1707.137
448.8091, 1740.456
449.2912, 1768.251
449.7733, 1786.927
450.2555, 1809.936
450.7376, 1844.407
451.2197, 1882.256
451.7018, 1918.537
452.1839, 1952.188
452.6660, 1983.780
453.1482, 2011.676
453.6303, 2037.357
454.1124, 2067.029
454.5945, 2101.386
455.0766, 2140.455
455.5587, 2191.650
456.0409, 2249.133
456.5230, 2292.515
457.0051, 2300.560
457.4872, 2305.812
457.9693, 2341.154
458.4514, 2402.042
458.9336, 2461.595
459.4156, 2508.416
459.8978, 2543.975
460.3799, 2569.533
460.8620, 2574.710
461.3441, 2590.919
461.8262, 2632.940
462.3083, 2683.705
462.7905, 2726.052
463.2726, 2756.624
463.7547, 2780.478
464.2368, 2803.098
464.7189, 2824.942
465.2010, 2840.962
465.6832, 2846.088
466.1653, 2851.031
466.6474, 2861.388
467.1295, 2873.391
467.6116, 2879.983
468.0938, 2877.173
468.5759, 2869.570
469.0580, 2869.299
469.5401, 2882.640
470.0222, 2885.333
470.5043, 2864.146
470.9865, 2837.540
471.4686, 2817.715
471.9507, 2805.143
472.4328, 2790.498
472.9149, 2765.792
473.3970, 2733.358
473.8792, 2701.812
474.3613, 2672.207
474.8434, 2641.419
475.3255, 2603.571
475.8076, 2563.479
476.2897, 2531.356
476.7719, 2513.372
477.2540, 2497.769
477.7361, 2481.507
478.2182, 2461.680
478.7003, 2425.810
479.1824, 2366.656
479.6646, 2301.277
480.1467, 2258.439
480.6288, 2248.513
481.1109, 2227.636
481.5930, 2183.328
482.0751, 2135.648
482.5573, 2097.276
483.0394, 2068.818
483.5215, 2047.234
484.0036, 2031.532
484.4857, 2019.686
484.9678, 1998.165
485.4500, 1961.324
485.9321, 1921.494
486.4142, 1875.547
486.8963, 1830.181
487.3784, 1792.004
487.8605, 1762.689
488.3427, 1738.152
488.8248, 1713.066
489.3069, 1687.195
489.7890, 1667.830
490.2711, 1660.949
490.7532, 1653.063
491.2354, 1637.669
491.7175, 1615.752
492.1996, 1588.891
492.6817, 1554.177
493.1638, 1518.546
493.6459, 1489.541
494.1281, 1466.968
494.6102, 1449.053
495.0923, 1435.922
495.5744, 1426.172
496.0565, 1419.134
496.5386, 1417.210
497.0208, 1407.761
497.5029, 1379.798
497.9850, 1347.804
498.4671, 1326.639
498.9492, 1317.188
499.4313, 1312.147
499.9135, 1306.650
500.3956, 1300.410
500.8777, 1289.127
501.3598, 1261.494
501.8419, 1242.523
502.3240, 1243.880
502.8062, 1252.549
503.2883, 1253.874
503.7704, 1243.577
504.2525, 1228.099
504.7346, 1214.582
505.2167, 1202.896
505.6989, 1195.136
506.1810, 1197.771
506.6631, 1196.786
507.1452, 1181.415
507.6273, 1157.851
508.1094, 1140.117
508.5916, 1135.968
509.0737, 1138.148
509.5558, 1139.013
510.0379, 1138.435
510.5200, 1131.738
511.0021, 1114.114
511.4843, 1093.365
511.9664, 1082.917
512.4485, 1084.514
512.9306, 1081.654
513.4127, 1063.072
513.8948, 1042.692
514.3770, 1037.776
514.8591, 1046.972
515.3412, 1052.307
515.8233, 1039.970
516.3054, 1013.762
516.7875, 998.4355
517.2697, 1002.675
517.7518, 1007.422
518.2339, 1018.318
518.7160, 1024.708
519.1981, 1010.961
519.6802, 976.6986
520.1624, 942.6066
520.6445, 933.8348
521.1266, 951.1678
521.6087, 961.8347
522.0908, 964.8984
522.5729, 962.1138
523.0551, 949.8593
523.5372, 934.1016
524.0193, 924.6228
524.5014, 925.6091
524.9835, 930.6257
525.4656, 936.3621
525.9478, 941.5738
526.4299, 938.1583
526.9120, 921.3672
527.3941, 902.2571
527.8762, 895.2361
528.3583, 900.9085
528.8405, 902.2514
529.3226, 895.3840
529.8047, 885.7577
530.2868, 875.1508
530.7689, 864.6731
531.2510, 856.1477
531.7332, 850.4230
532.2153, 847.6828
532.6974, 848.8694
533.1795, 858.6578
533.6616, 863.7517
534.1437, 860.6378
534.6259, 856.1379
535.1080, 855.4515
535.5901, 857.5904
536.0722, 857.2427
536.5543, 848.9305
537.0364, 836.3254
537.5186, 832.9841
538.0007, 842.7801
538.4828, 846.8787
538.9649, 832.4005
539.4470, 812.0727
539.9291, 800.2015
540.4113, 798.2349
540.8934, 800.7725
541.3755, 810.6689
541.8576, 821.3142
542.3397, 820.1140
542.8218, 806.0389
543.3040, 791.4310
543.7861, 785.1951
544.2682, 786.5036
544.7503, 788.5453
545.2324, 792.8376
545.7145, 795.8790
546.1967, 794.5995
546.6788, 792.9524
547.1609, 796.7681
547.6430, 806.4855
548.1251, 815.7183
548.6072, 817.4817
549.0894, 811.6143
549.5715, 802.0859
550.0536, 780.1556
550.5357, 767.5570
551.0178, 781.1846
551.4999, 804.4871
551.9821, 813.4122
552.4642, 798.4731
552.9463, 778.7755
553.4284, 772.2611
553.9105, 775.9147
554.3926, 777.8350
554.8748, 775.5479
555.3569, 772.0658
555.8390, 769.6745
556.3211, 768.4814
556.8032, 768.9951
557.2853, 774.0407
557.7675, 777.8348
558.2496, 777.0803
558.7317, 773.3688
559.2138, 768.9547
559.6959, 764.7404
560.1780, 761.5490
560.6602, 761.3416
561.1423, 765.9989
561.6244, 766.1568
562.1065, 757.1047
562.5886, 748.0459
563.0707, 741.4431
563.5529, 737.2090
564.0350, 734.9371
564.5171, 734.8080
564.9992, 735.5914
565.4813, 735.3590
565.9634, 734.2438
566.4456, 735.1205
566.9277, 740.6247
567.4098, 744.7958
567.8919, 738.5429
568.3740, 723.2653
568.8561, 713.0656
569.3383, 711.7906
569.8204, 714.5058
570.3025, 721.7255
570.7846, 730.2061
571.2667, 731.8392
571.7488, 723.1492
572.2310, 709.5276
572.7131, 700.7431
573.1952, 698.7855
573.6773, 696.2750
574.1594, 690.5572
574.6415, 686.9282
575.1237, 688.8790
575.6058, 694.5922
576.0879, 700.4147
576.5700, 705.0104
577.0521, 707.7316
577.5342, 707.3487
578.0164, 703.8490
578.4985, 698.2690
578.9806, 688.6644
579.4627, 680.3577
579.9448, 679.9540
580.4269, 686.5393
580.9091, 693.5620
581.3912, 702.8745
581.8733, 709.4545
582.3554, 707.0801
582.8375, 699.2595
583.3196, 695.9589
583.8018, 701.5454
584.2839, 709.5302
584.7660, 707.8066
585.2481, 690.6327
585.7302, 680.1872
586.2123, 678.3154
586.6945, 680.8602
587.1766, 689.8269
587.6587, 701.4438
588.1408, 708.8029
588.6229, 708.2673
589.1050, 703.7258
589.5872, 700.0948
590.0693, 697.3498
590.5514, 695.3619
591.0335, 694.1971
591.5156, 693.5819
591.9977, 692.5578
592.4799, 691.4202
592.9620, 693.2969
593.4441, 703.5646
593.9262, 712.0634
594.4083, 711.6790
594.8904, 705.3773
595.3726, 699.2543
595.8547, 695.4777
596.3368, 691.8192
596.8189, 683.8721
597.3010, 668.6210
597.7831, 663.5762
598.2653, 681.3320
598.7474, 696.4026
599.2295, 700.3166
599.7116, 696.5020
600.1937, 689.7336
600.6758, 680.9894
601.1580, 673.5105
601.6401, 671.8242
602.1222, 674.7407
602.6043, 675.7120
603.0864, 672.7705
603.5685, 671.6335
604.0507, 679.2307
604.5328, 693.9954
605.0149, 700.6218
605.4970, 692.9987
605.9791, 684.5192
606.4612, 678.4321
606.9434, 674.7412
607.4255, 673.9479
607.9076, 675.8589
608.3897, 678.5951
608.8718, 680.0214
609.3539, 680.1926
609.8361, 682.3316
610.3182, 690.6111
610.8003, 693.7580
611.2824, 682.2020
611.7645, 667.1531
612.2466, 661.1223
