##NAMES=Schultenite
##RRUFFID=R050584
##IDEAL CHEMISTRY=Pb^2+^(As^5+^O_3_OH)
##LOCALITY=Tsumeb mine, Tsumeb, Otavi District, Oshikoto, Namibia
##OWNER=RRUFF
##SOURCE=University of Arizona Mineral Museum
##DESCRIPTION=Colorless prismatic crystals with obvious striations, associated with keyite, R050585, and zincolivenite, R050583
##STATUS=The identification of this mineral is confirmed by single-crystal X-ray diffraction and chemical analysis.
##URL=rruff.info/R050584
##MEASURED CHEMISTRY=Pb_1.00_(As_1.00_O_3_OH)
127.8412, 10377.08
128.3233, 10644.98
128.8054, 10880.66
129.2875, 11073.26
129.7696, 11228.40
130.2518, 11343.71
130.7339, 11428.32
131.2160, 11537.28
131.6981, 11685.82
132.1802, 11873.16
132.6623, 12111.21
133.1445, 12411.90
133.6266, 12770.49
134.1087, 13148.19
134.5908, 13546.33
135.0729, 13963.35
135.5550, 14397.50
136.0372, 14845.65
136.5193, 15312.26
137.0014, 15813.47
137.4835, 16348.44
137.9656, 16863.09
138.4477, 17340.61
138.9299, 17797.69
139.4120, 18312.92
139.8941, 18900.46
140.3762, 19520.19
140.8583, 20151.34
141.3404, 20773.66
141.8226, 21453.18
142.3047, 22223.16
142.7868, 23080.96
143.2689, 23901.88
143.7510, 24679.41
144.2331, 25421.73
144.7152, 26148.75
145.1974, 26944.33
145.6795, 27609.83
146.1616, 28100.91
146.6437, 28416.32
147.1258, 28558.70
147.6079, 28541.05
148.0901, 28349.38
148.5722, 27950.12
149.0543, 27261.99
149.5364, 26437.98
150.0185, 25549.26
150.5006, 24550.66
150.9828, 23540.49
151.4649, 22508.97
151.9470, 21460.46
152.4291, 20450.10
152.9112, 19470.25
153.3933, 18537.13
153.8755, 17651.12
154.3576, 16812.44
154.8397, 16028.50
155.3218, 15308.19
155.8039, 14648.34
156.2860, 14022.19
156.7682, 13423.48
157.2503, 12862.20
157.7324, 12346.64
158.2145, 11914.79
158.6966, 11506.27
159.1787, 11092.02
159.6609, 10650.80
160.1430, 10242.30
160.6251, 9899.208
161.1072, 9606.295
161.5893, 9326.311
162.0714, 9051.711
162.5536, 8785.219
163.0357, 8528.175
163.5178, 8273.548
163.9999, 8035.649
164.4820, 7825.245
164.9641, 7639.647
165.4463, 7469.049
165.9284, 7313.725
166.4105, 7168.889
166.8926, 7029.376
167.3747, 6887.071
167.8568, 6753.479
168.3390, 6636.566
168.8211, 6538.987
169.3032, 6450.349
169.7853, 6365.633
170.2674, 6285.486
170.7495, 6211.125
171.2317, 6138.915
171.7138, 6074.455
172.1959, 6027.172
172.6780, 6002.377
173.1601, 5980.389
173.6422, 5937.902
174.1244, 5882.326
174.6065, 5838.410
175.0886, 5826.541
175.5707, 5833.605
176.0528, 5839.438
176.5349, 5835.709
177.0171, 5835.333
177.4992, 5858.304
177.9813, 5901.927
178.4634, 5945.431
178.9455, 5963.309
179.4276, 5968.357
179.9098, 5992.056
180.3919, 6063.415
180.8740, 6148.610
181.3561, 6186.858
181.8382, 6175.952
182.3203, 6155.031
182.8025, 6164.023
183.2846, 6196.791
183.7667, 6228.787
184.2488, 6215.153
184.7309, 6191.948
185.2130, 6278.254
185.6951, 6494.912
186.1773, 6749.786
186.6594, 6940.182
187.1415, 7066.584
187.6236, 7142.890
188.1057, 7128.301
188.5878, 7053.875
189.0700, 7084.909
189.5521, 7264.198
190.0342, 7506.372
190.5163, 7657.344
190.9984, 7713.588
191.4805, 7739.584
191.9627, 7779.090
192.4448, 7829.729
192.9269, 7864.597
193.4090, 7878.724
193.8911, 7874.247
194.3732, 7865.224
194.8554, 7856.411
195.3375, 7816.424
195.8196, 7707.456
196.3017, 7528.581
196.7838, 7338.875
197.2659, 7159.333
197.7481, 6983.693
198.2302, 6761.259
198.7123, 6482.143
199.1944, 6185.287
199.6765, 5916.618
200.1586, 5675.841
200.6408, 5446.125
201.1229, 5217.920
201.6050, 4992.760
202.0871, 4790.202
202.5692, 4614.167
203.0513, 4454.242
203.5335, 4290.597
204.0156, 4118.871
204.4977, 3961.049
204.9798, 3829.810
205.4619, 3729.830
205.9440, 3630.479
206.4262, 3530.364
206.9083, 3430.602
207.3904, 3333.775
207.8725, 3239.601
208.3546, 3149.008
208.8367, 3060.593
209.3189, 2970.966
209.8010, 2896.886
210.2831, 2842.862
210.7652, 2804.288
211.2473, 2759.038
211.7294, 2701.672
212.2116, 2648.311
212.6937, 2613.632
213.1758, 2603.380
213.6579, 2592.423
214.1400, 2577.160
214.6221, 2557.782
215.1043, 2536.376
215.5864, 2509.933
216.0685, 2485.617
216.5506, 2471.355
217.0327, 2469.919
217.5148, 2471.270
217.9970, 2473.813
218.4791, 2477.611
218.9612, 2481.036
219.4433, 2485.581
219.9254, 2488.064
220.4075, 2482.306
220.8897, 2461.009
221.3718, 2446.552
221.8539, 2448.320
222.3360, 2471.438
222.8181, 2486.048
223.3002, 2491.880
223.7824, 2489.174
224.2645, 2476.729
224.7466, 2447.630
225.2287, 2420.540
225.7108, 2403.006
226.1929, 2398.568
226.6750, 2394.566
227.1572, 2393.349
227.6393, 2391.998
228.1214, 2381.320
228.6035, 2353.619
229.0856, 2328.232
229.5677, 2315.726
230.0499, 2323.627
230.5320, 2327.426
231.0141, 2325.549
231.4962, 2318.792
231.9783, 2310.355
232.4604, 2300.951
232.9426, 2289.029
233.4247, 2271.710
233.9068, 2240.701
234.3889, 2222.814
234.8710, 2227.035
235.3531, 2249.684
235.8353, 2255.534
236.3174, 2234.290
236.7995, 2208.005
237.2816, 2193.251
237.7637, 2194.690
238.2458, 2198.970
238.7280, 2206.000
239.2101, 2215.679
239.6922, 2219.667
240.1743, 2213.800
240.6564, 2206.358
241.1385, 2205.464
241.6207, 2215.665
242.1028, 2224.125
242.5849, 2226.977
243.0670, 2223.280
243.5491, 2226.286
244.0313, 2240.020
244.5134, 2257.090
244.9955, 2268.635
245.4776, 2271.160
245.9597, 2274.195
246.4418, 2279.581
246.9240, 2287.093
247.4061, 2299.207
247.8882, 2320.482
248.3703, 2342.990
248.8524, 2354.492
249.3345, 2349.607
249.8167, 2342.808
250.2988, 2336.033
250.7809, 2325.600
251.2630, 2331.773
251.7451, 2365.812
252.2272, 2409.694
252.7094, 2428.788
253.1915, 2408.391
253.6736, 2388.222
254.1557, 2383.465
254.6378, 2399.969
255.1199, 2413.131
255.6021, 2420.562
256.0842, 2425.695
256.5663, 2436.823
257.0484, 2458.424
257.5305, 2478.341
258.0126, 2489.581
258.4948, 2485.688
258.9769, 2492.915
259.4590, 2518.185
259.9411, 2552.429
260.4232, 2569.618
260.9053, 2561.033
261.3875, 2551.479
261.8696, 2553.792
262.3517, 2570.959
262.8338, 2591.094
263.3159, 2616.128
263.7980, 2643.112
264.2802, 2658.996
264.7623, 2657.035
265.2444, 2657.620
265.7265, 2676.605
266.2086, 2722.135
266.6907, 2753.618
267.1729, 2762.193
267.6550, 2754.889
268.1371, 2760.087
268.6192, 2782.214
269.1013, 2806.714
269.5834, 2824.685
270.0656, 2836.081
270.5477, 2839.016
271.0298, 2828.431
271.5119, 2809.857
271.9940, 2807.293
272.4761, 2823.039
272.9583, 2849.103
273.4404, 2882.228
273.9225, 2924.185
274.4046, 2963.504
274.8867, 2999.072
275.3688, 3030.800
275.8510, 3058.091
276.3331, 3079.684
276.8152, 3100.251
277.2973, 3124.134
277.7794, 3151.814
278.2615, 3178.187
278.7437, 3201.982
279.2258, 3223.780
279.7079, 3247.593
280.1900, 3274.901
280.6721, 3298.631
281.1542, 3310.630
281.6364, 3310.440
282.1185, 3311.442
282.6006, 3319.988
283.0827, 3331.379
283.5648, 3324.203
284.0469, 3296.159
284.5291, 3261.648
285.0112, 3233.770
285.4933, 3212.314
285.9754, 3190.498
286.4575, 3164.983
286.9396, 3138.314
287.4217, 3120.351
287.9038, 3111.579
288.3860, 3107.500
288.8681, 3104.838
289.3502, 3103.422
289.8323, 3101.886
290.3144, 3099.389
290.7965, 3096.594
291.2787, 3096.879
291.7608, 3100.707
292.2429, 3102.334
292.7250, 3092.928
293.2071, 3075.177
293.6892, 3062.130
294.1714, 3057.281
294.6535, 3060.323
295.1356, 3075.794
295.6177, 3104.608
296.0998, 3128.732
296.5819, 3122.507
297.0641, 3095.923
297.5462, 3082.893
298.0283, 3106.313
298.5104, 3143.889
298.9925, 3156.762
299.4746, 3144.772
299.9568, 3126.602
300.4389, 3109.894
300.9210, 3099.099
301.4031, 3104.584
301.8852, 3139.106
302.3673, 3186.422
302.8495, 3228.757
303.3316, 3265.667
303.8137, 3296.510
304.2958, 3314.709
304.7779, 3326.660
305.2600, 3343.513
305.7422, 3376.294
306.2243, 3411.422
306.7064, 3433.674
307.1885, 3443.824
307.6706, 3453.428
308.1527, 3468.820
308.6349, 3489.293
309.1170, 3513.527
309.5991, 3542.798
310.0812, 3574.768
310.5633, 3610.358
311.0454, 3649.465
311.5276, 3684.614
312.0097, 3708.235
312.4918, 3726.550
312.9739, 3746.802
313.4560, 3775.113
313.9381, 3802.975
314.4203, 3824.784
314.9024, 3841.186
315.3845, 3856.840
315.8666, 3874.267
316.3487, 3891.845
316.8308, 3908.038
317.3130, 3926.867
317.7951, 3940.057
318.2772, 3944.029
318.7593, 3939.038
319.2414, 3927.675
319.7235, 3908.538
320.2057, 3884.549
320.6878, 3858.035
321.1699, 3827.468
321.6520, 3796.475
322.1341, 3763.022
322.6162, 3728.049
323.0984, 3702.209
323.5805, 3704.248
324.0626, 3706.404
324.5447, 3689.959
325.0268, 3626.312
325.5089, 3572.712
325.9911, 3541.745
326.4732, 3531.373
326.9553, 3516.082
327.4374, 3492.738
327.9195, 3465.120
328.4016, 3434.981
328.8838, 3390.634
329.3659, 3358.383
329.8480, 3345.794
330.3301, 3349.053
330.8122, 3343.696
331.2943, 3320.864
331.7765, 3298.076
332.2586, 3285.492
332.7407, 3289.522
333.2228, 3292.231
333.7049, 3291.951
334.1870, 3289.653
334.6692, 3288.871
335.1513, 3288.729
335.6334, 3291.658
336.1155, 3300.607
336.5976, 3319.970
337.0797, 3330.959
337.5619, 3329.066
338.0440, 3319.621
338.5261, 3318.003
339.0082, 3325.337
339.4903, 3336.861
339.9724, 3351.846
340.4546, 3371.476
340.9367, 3384.502
341.4188, 3389.036
341.9009, 3388.455
342.3830, 3388.307
342.8651, 3388.189
343.3473, 3392.523
343.8294, 3407.100
344.3115, 3430.866
344.7936, 3445.424
345.2757, 3447.121
345.7578, 3446.632
346.2400, 3462.387
346.7221, 3493.458
347.2042, 3526.470
347.6863, 3558.916
348.1684, 3588.435
348.6505, 3603.073
349.1327, 3598.707
349.6148, 3596.423
350.0969, 3625.688
350.5790, 3680.179
351.0611, 3735.691
351.5432, 3781.789
352.0254, 3821.014
352.5075, 3859.766
352.9896, 3898.681
353.4717, 3929.737
353.9538, 3937.201
354.4359, 3931.628
354.9181, 3933.529
355.4002, 3967.166
355.8823, 4002.927
356.3644, 4005.601
356.8465, 3974.486
357.3286, 3951.134
357.8108, 3976.083
358.2929, 4021.199
358.7750, 4050.100
359.2571, 4028.587
359.7392, 4004.824
360.2213, 4011.320
360.7035, 4045.778
361.1856, 4070.825
361.6677, 4051.126
362.1498, 4023.703
362.6319, 4020.406
363.1140, 4070.097
363.5962, 4124.112
364.0783, 4171.772
364.5604, 4212.883
365.0425, 4247.075
365.5246, 4261.008
366.0067, 4276.503
366.4889, 4306.890
366.9710, 4373.718
367.4531, 4432.471
367.9352, 4473.023
368.4173, 4500.547
368.8994, 4538.124
369.3815, 4594.702
369.8636, 4653.755
370.3458, 4706.840
370.8279, 4743.180
371.3100, 4792.970
371.7921, 4860.077
372.2742, 4939.967
372.7563, 5022.978
373.2385, 5112.352
373.7206, 5198.320
374.2027, 5278.465
374.6848, 5355.744
375.1669, 5411.378
375.6490, 5436.780
376.1312, 5449.440
376.6133, 5477.966
377.0954, 5524.119
377.5775, 5580.006
378.0596, 5648.246
378.5417, 5727.096
379.0239, 5794.290
379.5060, 5847.760
379.9881, 5894.208
380.4702, 5939.396
380.9523, 5983.769
381.4344, 6029.348
381.9166, 6084.794
382.3987, 6140.401
382.8808, 6163.260
383.3629, 6151.276
383.8450, 6135.184
384.3271, 6152.964
384.8093, 6191.751
385.2914, 6211.233
385.7735, 6194.979
386.2556, 6157.767
386.7377, 6111.195
387.2198, 6057.674
387.7020, 6014.081
388.1841, 6016.027
388.6662, 6028.727
389.1483, 6003.055
389.6304, 5913.463
390.1125, 5805.323
390.5947, 5710.783
391.0768, 5624.503
391.5589, 5532.422
392.0410, 5417.145
392.5231, 5300.140
393.0052, 5196.635
393.4874, 5113.691
393.9695, 5034.595
394.4516, 4953.660
394.9337, 4871.325
395.4158, 4788.450
395.8979, 4686.815
396.3801, 4599.984
396.8622, 4547.248
397.3443, 4541.457
397.8264, 4527.915
398.3085, 4484.127
398.7906, 4434.187
399.2728, 4407.588
399.7549, 4419.409
400.2370, 4438.351
400.7191, 4455.872
401.2012, 4470.557
401.6833, 4507.263
402.1655, 4577.992
402.6476, 4658.518
403.1297, 4725.896
403.6118, 4768.880
404.0939, 4826.986
404.5760, 4907.710
405.0582, 5008.094
405.5403, 5110.503
406.0224, 5212.271
406.5045, 5320.824
406.9866, 5437.877
407.4688, 5563.285
407.9509, 5710.602
408.4330, 5884.954
408.9151, 6078.091
409.3972, 6272.894
409.8793, 6468.541
410.3615, 6674.248
410.8436, 6898.716
411.3257, 7139.891
411.8078, 7390.861
412.2899, 7656.283
412.7720, 7915.625
413.2542, 8143.761
413.7363, 8343.198
414.2184, 8525.391
414.7005, 8725.232
415.1826, 8893.617
415.6647, 8972.305
416.1469, 8958.658
416.6290, 8875.599
417.1111, 8729.288
417.5932, 8524.782
418.0753, 8274.534
418.5574, 7958.550
419.0396, 7615.405
419.5217, 7246.442
420.0038, 6859.849
420.4859, 6485.999
420.9680, 6142.589
421.4501, 5814.394
421.9323, 5498.931
422.4144, 5176.378
422.8965, 4884.779
423.3786, 4633.456
423.8607, 4417.055
424.3428, 4217.338
424.8250, 4033.995
425.3071, 3863.269
425.7892, 3705.803
426.2713, 3559.098
426.7534, 3425.441
427.2355, 3304.660
427.7177, 3196.601
428.1998, 3104.965
428.6819, 3036.712
429.1640, 2968.508
429.6461, 2887.267
430.1282, 2794.767
430.6104, 2735.160
431.0925, 2715.566
431.5746, 2710.546
432.0567, 2696.094
432.5388, 2671.889
433.0209, 2647.777
433.5031, 2622.929
433.9852, 2601.854
434.4673, 2599.707
434.9494, 2616.060
435.4315, 2631.226
435.9136, 2630.330
436.3958, 2617.437
436.8779, 2599.350
437.3600, 2572.681
437.8421, 2554.347
438.3242, 2570.549
438.8063, 2611.591
439.2885, 2650.236
439.7706, 2664.709
440.2527, 2674.924
440.7348, 2702.452
441.2169, 2751.027
441.6990, 2795.288
442.1812, 2814.307
442.6633, 2823.431
443.1454, 2841.234
443.6275, 2883.231
444.1096, 2925.301
444.5917, 2956.103
445.0739, 2976.822
445.5560, 3004.575
446.0381, 3050.386
446.5202, 3098.974
447.0023, 3141.206
447.4844, 3159.907
447.9666, 3194.111
448.4487, 3252.517
448.9308, 3326.192
449.4129, 3391.760
449.8950, 3446.561
450.3771, 3495.554
450.8593, 3540.424
451.3413, 3580.801
451.8235, 3616.759
452.3056, 3647.484
452.7877, 3675.218
453.2698, 3702.682
453.7519, 3729.550
454.2340, 3758.471
454.7162, 3791.085
455.1983, 3826.210
455.6804, 3860.404
456.1625, 3893.674
456.6446, 3927.926
457.1267, 3970.678
457.6089, 4015.968
458.0910, 4047.977
458.5731, 4058.111
459.0552, 4062.828
459.5373, 4081.820
460.0194, 4111.691
460.5016, 4141.647
460.9837, 4171.459
461.4658, 4194.893
461.9479, 4204.791
462.4300, 4198.661
462.9121, 4188.674
463.3943, 4179.751
463.8764, 4170.973
464.3585, 4161.279
464.8406, 4149.910
465.3227, 4138.008
465.8048, 4127.735
466.2870, 4119.030
466.7691, 4103.827
467.2512, 4080.415
467.7333, 4050.476
468.2154, 4014.724
468.6975, 3967.872
469.1797, 3923.761
469.6618, 3884.865
470.1439, 3849.012
470.6260, 3811.841
471.1081, 3775.030
471.5902, 3732.666
472.0724, 3680.446
472.5545, 3617.059
473.0366, 3558.094
473.5187, 3504.670
474.0008, 3454.134
474.4829, 3405.428
474.9651, 3358.135
475.4472, 3306.499
475.9293, 3246.056
476.4114, 3182.166
476.8935, 3124.786
477.3756, 3074.295
477.8578, 3028.754
478.3399, 2993.038
478.8220, 2959.752
479.3041, 2915.362
479.7862, 2851.174
480.2683, 2791.019
480.7505, 2757.208
481.2326, 2740.640
481.7147, 2721.845
482.1968, 2690.121
482.6789, 2655.958
483.1610, 2625.955
483.6432, 2601.550
484.1253, 2571.818
484.6074, 2531.448
485.0895, 2486.158
485.5716, 2440.601
486.0537, 2386.141
486.5359, 2342.546
487.0180, 2317.061
487.5001, 2304.752
487.9822, 2281.295
488.4643, 2238.183
488.9464, 2198.309
489.4286, 2175.666
489.9107, 2176.087
490.3928, 2162.326
490.8749, 2130.020
491.3570, 2090.983
491.8391, 2062.720
492.3213, 2045.434
492.8034, 2027.057
493.2855, 2000.845
493.7676, 1971.903
494.2497, 1955.354
494.7318, 1951.069
495.2140, 1945.787
495.6961, 1924.509
496.1782, 1895.754
496.6603, 1875.247
497.1424, 1867.433
497.6245, 1864.996
498.1067, 1862.937
498.5888, 1861.745
499.0709, 1862.544
499.5530, 1868.196
500.0351, 1873.942
500.5172, 1878.628
500.9994, 1882.658
501.4815, 1880.051
501.9636, 1860.165
502.4457, 1837.622
502.9278, 1825.639
503.4099, 1835.696
503.8921, 1842.884
504.3742, 1844.051
504.8563, 1840.750
505.3384, 1839.572
505.8205, 1842.139
506.3026, 1843.969
506.7848, 1843.174
507.2669, 1839.763
507.7490, 1832.917
508.2311, 1820.728
508.7132, 1809.647
509.1953, 1812.251
509.6775, 1826.789
510.1596, 1832.977
510.6417, 1820.827
511.1238, 1798.296
511.6059, 1778.244
512.0880, 1760.832
512.5701, 1749.105
513.0522, 1753.711
513.5344, 1761.692
514.0165, 1753.255
514.4986, 1717.464
514.9807, 1687.173
515.4628, 1691.614
515.9449, 1714.055
516.4271, 1725.993
516.9092, 1712.379
517.3913, 1692.064
517.8734, 1667.262
518.3555, 1637.700
518.8376, 1621.027
519.3198, 1632.193
519.8019, 1647.708
520.2840, 1653.602
520.7661, 1646.218
521.2482, 1635.794
521.7303, 1619.983
522.2125, 1602.886
522.6946, 1595.544
523.1767, 1600.716
523.6588, 1603.674
524.1409, 1597.440
524.6230, 1583.417
525.1052, 1570.902
525.5873, 1559.873
526.0694, 1550.480
526.5515, 1544.541
527.0336, 1540.561
527.5157, 1534.236
527.9979, 1524.537
528.4800, 1512.434
528.9621, 1495.468
529.4442, 1476.461
529.9263, 1463.220
530.4084, 1468.875
530.8906, 1475.377
531.3727, 1469.143
531.8548, 1447.597
532.3369, 1424.930
532.8190, 1402.101
533.3011, 1382.035
533.7833, 1367.743
534.2654, 1363.112
534.7475, 1360.025
535.2296, 1360.098
535.7117, 1361.232
536.1938, 1355.847
536.6760, 1341.211
537.1581, 1325.095
537.6402, 1309.850
538.1223, 1295.389
538.6044, 1284.652
539.0865, 1278.317
539.5687, 1273.447
540.0508, 1266.325
540.5329, 1257.327
541.0150, 1249.506
541.4971, 1242.610
541.9792, 1238.604
542.4614, 1244.984
542.9435, 1258.862
543.4256, 1266.737
543.9077, 1255.469
544.3898, 1237.211
544.8719, 1224.076
545.3541, 1218.071
545.8362, 1211.345
546.3183, 1195.402
546.8004, 1178.572
547.2825, 1169.806
547.7646, 1181.453
548.2468, 1189.962
548.7289, 1189.798
549.2110, 1182.593
549.6931, 1175.039
550.1752, 1163.400
550.6573, 1156.539
551.1395, 1159.411
551.6216, 1174.287
552.1037, 1185.875
552.5858, 1194.445
553.0679, 1199.392
553.5500, 1200.040
554.0322, 1196.413
554.5143, 1188.006
554.9964, 1172.212
555.4785, 1154.673
555.9606, 1147.610
556.4427, 1149.184
556.9249, 1149.613
557.4070, 1138.988
557.8891, 1126.057
558.3712, 1122.476
558.8533, 1130.463
559.3354, 1136.193
559.8176, 1127.610
560.2997, 1114.780
560.7818, 1108.013
561.2639, 1117.034
561.7460, 1124.422
562.2281, 1125.444
562.7103, 1121.830
563.1924, 1120.411
563.6745, 1123.505
564.1566, 1125.742
564.6387, 1124.269
565.1208, 1118.204
565.6030, 1118.495
566.0851, 1128.174
566.5672, 1137.265
567.0493, 1133.792
567.5314, 1118.485
568.0135, 1105.420
568.4957, 1097.047
568.9778, 1092.600
569.4599, 1092.925
569.9420, 1096.873
570.4241, 1099.534
570.9063, 1095.828
571.3884, 1091.063
571.8705, 1091.113
572.3526, 1096.201
572.8347, 1101.451
573.3168, 1108.580
573.7990, 1112.385
574.2811, 1107.719
574.7632, 1079.707
575.2453, 1062.811
575.7274, 1070.216
576.2095, 1090.848
576.6917, 1102.979
577.1738, 1104.328
577.6559, 1100.651
578.1380, 1091.407
578.6201, 1077.241
579.1022, 1068.844
579.5844, 1066.655
580.0665, 1068.570
580.5486, 1075.325
581.0307, 1085.832
581.5128, 1091.182
581.9949, 1089.339
582.4771, 1085.909
582.9592, 1088.018
583.4413, 1093.982
583.9234, 1099.641
584.4055, 1108.281
584.8876, 1111.932
585.3698, 1099.506
585.8519, 1074.560
586.3340, 1056.034
586.8161, 1056.171
587.2982, 1062.036
587.7803, 1066.296
588.2625, 1066.188
588.7446, 1069.952
589.2267, 1081.740
589.7088, 1094.949
590.1909, 1102.315
590.6730, 1101.935
591.1552, 1100.586
591.6373, 1098.923
592.1194, 1097.260
592.6015, 1095.607
593.0836, 1093.749
593.5657, 1095.457
594.0479, 1106.028
594.5300, 1121.452
595.0121, 1130.886
595.4942, 1134.059
595.9763, 1133.493
596.4584, 1130.120
596.9406, 1124.677
597.4227, 1118.012
597.9048, 1109.964
598.3869, 1101.357
598.8690, 1088.550
599.3511, 1075.854
599.8333, 1071.365
600.3154, 1091.150
600.7975, 1104.271
601.2796, 1098.565
601.7617, 1074.723
602.2438, 1062.625
602.7260, 1066.655
603.2081, 1074.851
603.6902, 1079.620
604.1723, 1080.591
604.6544, 1084.441
605.1365, 1092.616
605.6187, 1100.208
606.1008, 1097.610
606.5829, 1087.813
607.0650, 1083.987
607.5471, 1095.509
608.0292, 1109.121
608.5114, 1105.514
608.9935, 1089.729
609.4756, 1079.604
609.9577, 1088.974
610.4398, 1103.590
610.9219, 1116.535
611.4041, 1127.894
611.8862, 1132.614
612.3683, 1123.007
612.8504, 1110.662
613.3325, 1104.605
613.8146, 1108.920
614.2968, 1111.256
614.7789, 1110.114
615.2610, 1107.473
615.7431, 1107.608
616.2252, 1110.870
616.7073, 1113.313
617.1895, 1112.958
617.6716, 1111.009
618.1537, 1111.541
618.6358, 1114.271
619.1179, 1115.530
619.6000, 1108.944
620.0822, 1101.153
620.5643, 1101.925
621.0464, 1114.198
621.5285, 1124.759
