##NAMES=Schuilingite-(Nd)
##RRUFFID=R100063
##IDEAL CHEMISTRY=Cu^2+^Pb^2+^Nd^3+^(CO_3_)_3_(OH)&#183;1.5H_2_O
##LOCALITY=Kasompi, 70 km. west of Kambove, Katanga, Congo
##OWNER=RRUFF
##SOURCE=William W Pinch
##DESCRIPTION=Azure-blue, prismatic crystals. Same sample as used by Schindler and Hawthorne (1999) for structure determination
##STATUS=The identification of this mineral has been confirmed only by single crystal X-ray diffraction.
##URL=rruff.info/R100063
90.49219, 42.13266
90.97430, 41.60974
91.45642, 41.42518
91.93854, 41.85122
92.42065, 42.53703
92.90277, 43.01567
93.38489, 43.27586
93.86700, 43.27269
94.34912, 42.91179
94.83124, 42.21718
95.31335, 41.32814
95.79547, 40.06377
96.27759, 38.60522
96.75970, 37.64175
97.24182, 37.27861
97.72394, 37.45255
98.20605, 38.28154
98.68817, 39.86906
99.17029, 41.29039
99.65240, 41.67216
100.1345, 40.93365
100.6166, 40.36763
101.0988, 40.28302
101.5809, 40.60879
102.0630, 40.69263
102.5451, 40.41518
103.0272, 40.10913
103.5093, 40.13643
103.9915, 40.54748
104.4736, 41.18052
104.9557, 42.15884
105.4378, 43.68663
105.9199, 44.33592
106.4020, 43.53572
106.8842, 42.14007
107.3663, 41.69117
107.8484, 43.24704
108.3305, 44.52765
108.8126, 44.67970
109.2947, 42.62269
109.7769, 41.23338
110.2590, 40.80482
110.7411, 41.09377
111.2232, 41.35530
111.7053, 41.30204
112.1874, 41.41200
112.6696, 41.90097
113.1517, 43.57542
113.6338, 44.78381
114.1159, 45.16505
114.5980, 44.80587
115.0801, 44.34029
115.5623, 43.48085
116.0444, 42.78027
116.5265, 42.66598
117.0086, 43.81264
117.4907, 45.07046
117.9728, 46.15259
118.4550, 47.05126
118.9371, 47.49778
119.4192, 46.92376
119.9013, 45.92739
120.3834, 45.28034
120.8655, 45.64398
121.3477, 46.24897
121.8298, 46.47795
122.3119, 46.20044
122.7940, 46.00897
123.2761, 46.28621
123.7582, 46.96104
124.2404, 47.87505
124.7225, 48.78215
125.2046, 49.94395
125.6867, 51.77505
126.1688, 54.53777
126.6509, 57.50557
127.1331, 59.53238
127.6152, 60.88384
128.0973, 62.87995
128.5794, 66.62400
129.0615, 71.68957
129.5436, 77.00206
130.0258, 82.13982
130.5079, 87.63151
130.9900, 94.48235
131.4721, 102.6330
131.9542, 111.9343
132.4363, 122.0229
132.9185, 133.0102
133.4006, 145.6659
133.8827, 160.3571
134.3648, 176.7483
134.8469, 194.3534
135.3290, 212.9361
135.8112, 233.8715
136.2933, 258.6054
136.7754, 287.3319
137.2575, 318.3338
137.7396, 351.2280
138.2217, 385.4741
138.7039, 422.9155
139.1860, 464.5714
139.6681, 507.9220
140.1502, 550.0515
140.6323, 590.2653
141.1144, 630.1993
141.5966, 670.9205
142.0787, 712.8622
142.5608, 752.6349
143.0429, 789.8625
143.5250, 825.0590
144.0071, 858.9325
144.4893, 890.4487
144.9714, 921.8480
145.4535, 953.2754
145.9356, 982.8917
146.4177, 1016.781
146.8998, 1054.578
147.3820, 1096.681
147.8641, 1146.837
148.3462, 1208.329
148.8283, 1274.133
149.3104, 1341.221
149.7925, 1406.639
150.2747, 1476.827
150.7568, 1554.172
151.2389, 1637.762
151.7210, 1716.367
152.2031, 1789.192
152.6852, 1856.778
153.1674, 1920.246
153.6495, 1983.056
154.1316, 2037.492
154.6137, 2081.846
155.0958, 2116.033
155.5779, 2143.871
156.0601, 2163.311
156.5422, 2177.771
157.0243, 2189.920
157.5064, 2200.234
157.9885, 2208.297
158.4706, 2212.829
158.9528, 2213.209
159.4349, 2215.406
159.9170, 2220.528
160.3991, 2228.399
160.8812, 2238.810
161.3633, 2249.084
161.8455, 2263.984
162.3276, 2286.528
162.8097, 2317.697
163.2918, 2351.429
163.7739, 2386.004
164.2560, 2418.692
164.7382, 2434.191
165.2203, 2442.798
165.7024, 2453.654
166.1845, 2470.004
166.6666, 2494.042
167.1487, 2517.668
167.6309, 2535.550
168.1130, 2550.048
168.5951, 2565.808
169.0772, 2586.666
169.5593, 2608.989
170.0414, 2629.634
170.5236, 2647.756
171.0057, 2665.015
171.4878, 2683.252
171.9699, 2701.979
172.4520, 2719.312
172.9341, 2732.314
173.4163, 2744.191
173.8984, 2759.116
174.3805, 2779.711
174.8626, 2800.723
175.3447, 2818.971
175.8268, 2834.254
176.3090, 2845.538
176.7911, 2848.316
177.2732, 2847.212
177.7553, 2850.339
178.2374, 2863.116
178.7195, 2877.144
179.2017, 2881.707
179.6838, 2877.387
180.1659, 2868.960
180.6480, 2857.772
181.1301, 2845.230
181.6122, 2834.749
182.0944, 2829.680
182.5765, 2825.470
183.0586, 2813.286
183.5407, 2793.436
184.0228, 2771.280
184.5049, 2751.745
184.9871, 2734.000
185.4692, 2715.795
185.9513, 2695.662
186.4334, 2674.767
186.9155, 2655.239
187.3976, 2637.193
187.8798, 2620.177
188.3619, 2604.668
188.8440, 2590.160
189.3261, 2574.262
189.8082, 2554.834
190.2903, 2533.308
190.7725, 2514.569
191.2546, 2498.481
191.7367, 2484.557
192.2188, 2472.733
192.7009, 2462.777
193.1830, 2452.360
193.6652, 2440.279
194.1473, 2426.788
194.6294, 2414.122
195.1115, 2402.250
195.5936, 2391.267
196.0757, 2381.270
196.5579, 2372.247
197.0400, 2364.286
197.5221, 2357.634
198.0042, 2352.250
198.4863, 2346.787
198.9684, 2340.871
199.4506, 2335.801
199.9327, 2333.996
200.4148, 2335.740
200.8969, 2337.929
201.3790, 2339.136
201.8611, 2339.277
202.3433, 2340.765
202.8254, 2344.238
203.3075, 2347.979
203.7896, 2348.364
204.2717, 2344.522
204.7538, 2341.570
205.2360, 2341.923
205.7181, 2345.913
206.2002, 2349.957
206.6823, 2354.131
207.1644, 2358.247
207.6465, 2362.226
208.1287, 2366.353
208.6108, 2369.302
209.0929, 2369.980
209.5750, 2367.719
210.0571, 2367.127
210.5392, 2368.674
211.0214, 2371.569
211.5035, 2374.058
211.9856, 2375.799
212.4677, 2378.142
212.9498, 2381.670
213.4319, 2386.397
213.9141, 2392.125
214.3962, 2398.766
214.8783, 2406.473
215.3604, 2415.618
215.8425, 2426.683
216.3246, 2438.166
216.8067, 2449.546
217.2889, 2460.645
217.7710, 2471.409
218.2531, 2480.740
218.7352, 2490.187
219.2173, 2504.354
219.6994, 2525.712
220.1816, 2547.109
220.6637, 2565.448
221.1458, 2579.481
221.6279, 2594.222
222.1100, 2610.131
222.5921, 2626.736
223.0743, 2643.081
223.5564, 2658.286
224.0385, 2674.750
224.5206, 2693.665
225.0027, 2717.018
225.4848, 2738.161
225.9670, 2755.802
226.4491, 2771.427
226.9312, 2789.474
227.4133, 2811.354
227.8954, 2833.212
228.3775, 2852.472
228.8597, 2867.578
229.3418, 2884.605
229.8239, 2904.163
230.3060, 2925.460
230.7881, 2945.834
231.2702, 2965.306
231.7524, 2984.026
232.2345, 3001.480
232.7166, 3016.419
233.1987, 3033.715
233.6808, 3054.831
234.1629, 3077.841
234.6451, 3097.781
235.1272, 3112.638
235.6093, 3127.342
236.0914, 3144.410
236.5735, 3166.078
237.0556, 3185.104
237.5378, 3200.186
238.0199, 3213.151
238.5020, 3228.765
238.9841, 3249.565
239.4662, 3269.659
239.9483, 3286.570
240.4305, 3299.040
240.9126, 3311.031
241.3947, 3323.494
241.8768, 3335.126
242.3589, 3342.832
242.8410, 3346.436
243.3232, 3346.266
243.8053, 3342.480
244.2874, 3335.322
244.7695, 3323.720
245.2516, 3307.252
245.7337, 3286.468
246.2159, 3262.560
246.6980, 3235.461
247.1801, 3205.334
247.6622, 3171.901
248.1443, 3134.504
248.6264, 3095.161
249.1086, 3052.172
249.5907, 3007.854
250.0728, 2967.325
250.5549, 2933.017
251.0370, 2898.352
251.5191, 2860.032
252.0013, 2816.172
252.4834, 2776.042
252.9655, 2741.086
253.4476, 2709.275
253.9297, 2677.005
254.4118, 2643.816
254.8940, 2611.583
255.3761, 2580.994
255.8582, 2552.034
256.3403, 2524.220
256.8224, 2497.267
257.3046, 2471.677
257.7867, 2449.022
258.2688, 2429.920
258.7509, 2412.170
259.2330, 2395.606
259.7151, 2380.527
260.1973, 2364.163
260.6794, 2345.548
261.1615, 2326.990
261.6436, 2312.416
262.1257, 2302.589
262.6078, 2294.606
263.0900, 2287.820
263.5721, 2282.192
264.0542, 2277.516
264.5363, 2274.008
265.0184, 2271.073
265.5005, 2267.836
265.9827, 2264.217
266.4648, 2260.450
266.9469, 2256.125
267.4290, 2251.167
267.9111, 2248.919
268.3932, 2250.221
268.8754, 2252.932
269.3575, 2254.744
269.8396, 2255.561
270.3217, 2255.835
270.8038, 2255.194
271.2859, 2253.790
271.7681, 2254.780
272.2502, 2258.797
272.7323, 2263.917
273.2144, 2268.116
273.6965, 2271.257
274.1786, 2274.295
274.6608, 2277.211
275.1429, 2280.162
275.6250, 2284.501
276.1071, 2290.502
276.5892, 2297.108
277.0714, 2303.211
277.5535, 2308.774
278.0356, 2314.625
278.5177, 2321.227
278.9998, 2328.183
279.4819, 2333.868
279.9641, 2338.338
280.4462, 2341.650
280.9283, 2344.077
281.4104, 2345.649
281.8925, 2345.230
282.3746, 2342.226
282.8568, 2337.445
283.3389, 2333.279
283.8210, 2329.852
284.3031, 2325.938
284.7852, 2321.209
285.2673, 2315.583
285.7495, 2306.719
286.2316, 2293.251
286.7137, 2277.853
287.1958, 2267.189
287.6779, 2261.431
288.1600, 2254.204
288.6422, 2239.821
289.1243, 2219.417
289.6064, 2202.647
290.0885, 2190.644
290.5706, 2181.074
291.0527, 2170.254
291.5349, 2158.316
292.0170, 2146.833
292.4991, 2137.429
292.9812, 2129.345
293.4633, 2119.807
293.9454, 2108.324
294.4276, 2096.709
294.9097, 2087.667
295.3918, 2080.812
295.8739, 2074.289
296.3560, 2067.638
296.8381, 2060.635
297.3203, 2052.428
297.8024, 2042.826
298.2845, 2033.763
298.7666, 2027.557
299.2487, 2023.665
299.7308, 2020.279
300.2130, 2017.424
300.6951, 2014.341
301.1772, 2009.248
301.6593, 2002.189
302.1414, 1995.362
302.6235, 1991.136
303.1057, 1988.584
303.5878, 1985.914
304.0699, 1982.095
304.5520, 1978.202
305.0341, 1976.123
305.5162, 1975.580
305.9984, 1974.036
306.4805, 1967.936
306.9626, 1960.146
307.4447, 1955.022
307.9268, 1955.384
308.4089, 1956.418
308.8911, 1952.904
309.3732, 1946.003
309.8553, 1940.551
310.3374, 1941.235
310.8195, 1943.897
311.3016, 1944.209
311.7838, 1940.357
312.2659, 1936.007
312.7480, 1933.953
313.2301, 1933.332
313.7122, 1931.937
314.1943, 1926.883
314.6765, 1921.902
315.1586, 1919.961
315.6407, 1922.260
316.1228, 1924.902
316.6049, 1926.122
317.0870, 1926.459
317.5692, 1926.780
318.0513, 1928.162
318.5334, 1928.942
319.0155, 1927.606
319.4976, 1923.495
319.9797, 1920.985
320.4619, 1922.996
320.9440, 1926.801
321.4261, 1929.325
321.9082, 1928.774
322.3903, 1927.849
322.8724, 1927.399
323.3546, 1927.475
323.8367, 1927.295
324.3188, 1926.491
324.8009, 1925.543
325.2830, 1924.836
325.7651, 1923.538
326.2473, 1923.529
326.7294, 1925.977
327.2115, 1930.493
327.6936, 1933.813
328.1757, 1934.996
328.6578, 1935.500
329.1400, 1936.031
329.6221, 1936.417
330.1042, 1937.053
330.5863, 1938.167
331.0684, 1939.515
331.5505, 1940.398
332.0327, 1940.769
332.5148, 1940.672
332.9969, 1939.953
333.4790, 1938.085
333.9611, 1936.954
334.4432, 1936.410
334.9254, 1936.668
335.4075, 1938.342
335.8896, 1942.459
336.3717, 1945.964
336.8538, 1947.880
337.3359, 1948.142
337.8180, 1947.704
338.3001, 1946.226
338.7823, 1944.611
339.2644, 1944.011
339.7465, 1944.689
340.2286, 1945.246
340.7107, 1945.291
341.1928, 1944.915
341.6750, 1944.793
342.1571, 1944.936
342.6392, 1945.207
343.1213, 1945.693
343.6034, 1946.387
344.0855, 1946.400
344.5677, 1945.617
345.0498, 1943.996
345.5319, 1940.993
346.0140, 1936.547
346.4961, 1932.520
346.9782, 1930.165
347.4604, 1929.287
347.9425, 1929.014
348.4246, 1929.276
348.9067, 1930.175
349.3888, 1932.615
349.8709, 1936.205
350.3531, 1938.658
350.8352, 1938.297
351.3173, 1936.165
351.7994, 1933.756
352.2815, 1931.033
352.7636, 1929.329
353.2458, 1930.518
353.7279, 1933.677
354.2100, 1936.821
354.6921, 1939.198
355.1742, 1941.151
355.6563, 1943.273
356.1385, 1945.459
356.6206, 1946.890
357.1027, 1945.370
357.5848, 1943.358
358.0669, 1944.082
358.5490, 1950.709
359.0312, 1956.768
359.5133, 1956.302
359.9954, 1951.543
360.4775, 1949.441
360.9596, 1956.121
361.4417, 1964.755
361.9239, 1970.575
362.4060, 1971.947
362.8881, 1973.095
363.3702, 1976.566
363.8523, 1980.623
364.3344, 1982.603
364.8166, 1978.906
365.2987, 1975.555
365.7808, 1975.413
366.2629, 1979.107
366.7450, 1981.740
367.2271, 1981.496
367.7093, 1980.422
368.1914, 1980.312
368.6735, 1982.937
369.1556, 1984.793
369.6377, 1984.953
370.1198, 1983.673
370.6020, 1983.103
371.0841, 1983.400
371.5662, 1984.264
372.0483, 1985.542
372.5304, 1987.356
373.0125, 1989.430
373.4947, 1992.207
373.9768, 1995.052
374.4589, 1996.250
374.9410, 1994.748
375.4231, 1993.758
375.9052, 1994.656
376.3874, 1997.725
376.8695, 2000.646
377.3516, 2003.639
377.8337, 2006.182
378.3158, 2007.362
378.7979, 2006.927
379.2801, 2007.157
379.7622, 2008.964
380.2443, 2011.888
380.7264, 2013.596
381.2085, 2013.830
381.6906, 2014.556
382.1728, 2018.019
382.6549, 2023.741
383.1370, 2028.317
383.6191, 2030.766
384.1012, 2032.599
384.5833, 2036.524
385.0655, 2042.344
385.5476, 2048.475
386.0297, 2054.157
386.5118, 2059.570
386.9939, 2065.052
387.4760, 2070.558
387.9582, 2076.465
388.4403, 2083.513
388.9224, 2091.296
389.4045, 2098.900
389.8866, 2105.232
390.3687, 2111.805
390.8509, 2119.874
391.3330, 2129.337
391.8151, 2139.491
392.2972, 2150.494
392.7793, 2161.612
393.2614, 2172.130
393.7436, 2181.143
394.2257, 2190.349
394.7078, 2199.853
395.1899, 2209.971
395.6720, 2221.539
396.1541, 2235.818
396.6363, 2250.844
397.1184, 2265.788
397.6005, 2280.613
398.0826, 2295.258
398.5647, 2309.816
399.0468, 2324.174
399.5290, 2338.188
400.0111, 2351.366
400.4932, 2364.738
400.9753, 2378.492
401.4574, 2392.682
401.9395, 2406.891
402.4217, 2421.069
402.9038, 2435.399
403.3859, 2450.181
403.8680, 2466.208
404.3501, 2480.844
404.8322, 2493.917
405.3144, 2505.389
405.7965, 2514.363
406.2786, 2520.121
406.7607, 2525.926
407.2428, 2533.503
407.7249, 2542.965
408.2071, 2551.687
408.6892, 2559.979
409.1713, 2566.768
409.6534, 2570.332
410.1355, 2570.765
410.6176, 2570.357
411.0998, 2569.666
411.5819, 2568.658
412.0640, 2567.466
412.5461, 2566.073
413.0282, 2563.748
413.5103, 2559.612
413.9925, 2554.213
414.4746, 2548.740
414.9567, 2543.563
415.4388, 2537.772
415.9209, 2529.384
416.4030, 2519.528
416.8852, 2510.768
417.3673, 2504.438
417.8494, 2499.839
418.3315, 2496.840
418.8136, 2495.471
419.2957, 2493.946
419.7779, 2490.057
420.2600, 2486.041
420.7421, 2484.211
421.2242, 2487.210
421.7063, 2490.422
422.1884, 2492.574
422.6706, 2493.814
423.1527, 2494.742
423.6348, 2497.381
424.1169, 2498.258
424.5990, 2495.594
425.0811, 2487.919
425.5633, 2479.809
426.0454, 2471.450
426.5275, 2462.801
427.0096, 2453.718
427.4917, 2444.651
427.9738, 2434.563
428.4560, 2423.251
428.9381, 2410.630
429.4202, 2397.076
429.9023, 2382.675
430.3844, 2367.454
430.8665, 2351.455
431.3487, 2334.515
431.8308, 2317.534
432.3129, 2300.369
432.7950, 2283.451
433.2771, 2268.013
433.7592, 2254.189
434.2414, 2241.285
434.7235, 2229.243
435.2056, 2217.895
435.6877, 2206.182
436.1698, 2194.003
436.6519, 2183.007
437.1341, 2175.857
437.6162, 2171.380
438.0983, 2166.267
438.5804, 2159.297
439.0625, 2151.831
439.5446, 2145.187
440.0268, 2139.339
440.5089, 2134.141
440.9910, 2129.787
441.4731, 2125.927
441.9552, 2122.360
442.4373, 2119.230
442.9195, 2115.714
443.4016, 2110.867
443.8837, 2105.589
444.3658, 2100.974
444.8479, 2097.290
445.3300, 2094.383
445.8122, 2092.148
446.2943, 2090.615
446.7764, 2089.877
447.2585, 2090.906
447.7406, 2091.987
448.2227, 2092.257
448.7049, 2091.370
449.1870, 2090.293
449.6691, 2088.832
450.1512, 2087.280
450.6333, 2086.045
451.1154, 2084.878
451.5976, 2084.587
452.0797, 2085.767
452.5618, 2088.248
453.0439, 2089.308
453.5260, 2088.528
454.0081, 2087.560
454.4903, 2088.059
454.9724, 2089.985
455.4545, 2090.568
455.9366, 2089.017
456.4187, 2086.942
456.9008, 2087.624
457.3830, 2090.679
457.8651, 2093.060
458.3472, 2091.665
458.8293, 2089.183
459.3114, 2091.426
459.7935, 2098.363
460.2757, 2105.135
460.7578, 2107.092
461.2399, 2106.629
461.7220, 2107.018
462.2041, 2109.171
462.6862, 2112.260
463.1684, 2116.540
463.6505, 2121.376
464.1326, 2125.205
464.6147, 2126.771
465.0968, 2127.681
465.5789, 2128.709
466.0611, 2129.972
466.5432, 2130.845
467.0253, 2131.203
467.5074, 2131.081
467.9895, 2130.495
468.4716, 2128.350
468.9538, 2127.166
469.4359, 2127.860
469.9180, 2129.628
470.4001, 2129.669
470.8822, 2126.719
471.3643, 2124.402
471.8465, 2124.848
472.3286, 2128.627
472.8107, 2129.040
473.2928, 2125.234
473.7749, 2120.273
474.2570, 2118.084
474.7392, 2118.653
475.2213, 2117.403
475.7034, 2112.244
476.1855, 2106.045
476.6676, 2106.035
477.1497, 2111.503
477.6319, 2115.778
478.1140, 2113.821
478.5961, 2108.395
479.0782, 2103.621
479.5603, 2099.700
480.0424, 2097.189
480.5246, 2097.552
481.0067, 2099.325
481.4888, 2100.416
481.9709, 2099.556
482.4530, 2098.533
482.9352, 2098.492
483.4173, 2099.066
483.8994, 2099.110
484.3815, 2098.308
484.8636, 2096.819
485.3457, 2094.389
485.8279, 2090.424
486.3100, 2087.710
486.7921, 2087.129
487.2742, 2087.561
487.7563, 2088.173
488.2384, 2089.990
488.7206, 2090.134
489.2027, 2087.542
489.6848, 2083.185
490.1669, 2080.694
490.6490, 2080.659
491.1311, 2080.804
491.6133, 2079.634
492.0954, 2077.202
492.5775, 2077.255
493.0596, 2080.335
493.5417, 2083.663
494.0238, 2083.872
494.5060, 2081.570
494.9881, 2079.552
495.4702, 2078.674
495.9523, 2078.167
496.4344, 2076.522
496.9165, 2074.179
497.3987, 2072.796
497.8808, 2073.994
498.3629, 2076.146
498.8450, 2077.604
499.3271, 2078.204
499.8092, 2079.033
500.2914, 2081.415
500.7735, 2083.917
501.2556, 2085.228
501.7377, 2083.724
502.2198, 2082.498
502.7019, 2082.668
503.1841, 2083.615
503.6662, 2083.660
504.1483, 2082.139
504.6304, 2080.259
505.1125, 2078.169
505.5946, 2075.799
506.0768, 2074.280
506.5589, 2073.847
507.0410, 2073.995
507.5231, 2074.471
508.0052, 2075.397
508.4873, 2075.940
508.9695, 2075.918
509.4516, 2075.632
509.9337, 2075.356
510.4158, 2075.128
510.8979, 2075.748
511.3800, 2078.199
511.8622, 2081.521
512.3443, 2083.823
512.8264, 2085.064
513.3085, 2085.156
513.7906, 2082.482
514.2728, 2079.180
514.7549, 2078.583
515.2370, 2082.463
515.7191, 2085.585
516.2012, 2083.361
516.6833, 2078.552
517.1655, 2075.357
517.6476, 2076.820
518.1297, 2078.477
518.6118, 2078.698
519.0939, 2077.598
519.5760, 2076.822
520.0582, 2077.123
520.5403, 2077.318
521.0224, 2076.801
521.5045, 2075.055
521.9866, 2074.049
522.4688, 2073.805
522.9509, 2074.243
523.4330, 2075.487
523.9151, 2077.763
524.3972, 2079.480
524.8793, 2080.046
525.3615, 2080.017
525.8436, 2081.092
526.3257, 2083.253
526.8078, 2085.112
527.2899, 2085.595
527.7720, 2085.265
528.2542, 2085.435
528.7363, 2086.185
529.2184, 2086.995
529.7005, 2087.670
530.1826, 2088.065
530.6647, 2087.908
531.1469, 2086.765
531.6290, 2085.658
532.1111, 2085.131
532.5932, 2085.046
533.0753, 2085.123
533.5574, 2084.722
534.0396, 2084.980
534.5217, 2086.982
535.0038, 2090.899
535.4859, 2092.635
535.9680, 2090.091
536.4501, 2087.274
536.9323, 2086.508
537.4144, 2088.493
537.8965, 2090.656
538.3786, 2093.194
538.8607, 2095.592
539.3428, 2097.220
539.8250, 2098.146
540.3071, 2097.541
540.7892, 2094.253
541.2713, 2090.061
541.7534, 2090.180
542.2355, 2094.222
542.7177, 2097.968
543.1998, 2098.236
543.6819, 2096.724
544.1640, 2096.025
544.6461, 2096.362
545.1282, 2096.878
545.6104, 2096.690
546.0925, 2096.451
546.5746, 2096.971
547.0567, 2099.629
547.5388, 2101.429
548.0209, 2100.445
548.5031, 2097.910
548.9852, 2096.523
549.4673, 2097.106
549.9494, 2098.474
550.4315, 2100.847
550.9136, 2104.217
551.3958, 2105.809
551.8779, 2104.719
552.3600, 2103.389
552.8421, 2103.484
553.3242, 2105.194
553.8063, 2106.617
554.2885, 2107.760
554.7706, 2108.382
555.2527, 2107.722
555.7348, 2106.045
556.2169, 2104.982
556.6990, 2105.015
557.1812, 2105.921
557.6633, 2108.161
558.1454, 2111.228
558.6275, 2113.219
559.1096, 2111.720
559.5917, 2109.602
560.0739, 2109.389
560.5560, 2111.286
561.0381, 2113.167
561.5202, 2114.489
562.0023, 2115.257
562.4844, 2115.405
562.9666, 2113.817
563.4487, 2113.292
563.9308, 2114.398
564.4129, 2116.416
564.8950, 2118.361
565.3771, 2120.405
565.8593, 2121.812
566.3414, 2121.996
566.8235, 2121.434
567.3056, 2123.038
567.7877, 2127.266
568.2698, 2130.116
568.7520, 2127.685
569.2341, 2121.747
569.7162, 2119.182
570.1983, 2120.333
570.6804, 2123.103
571.1625, 2127.451
571.6447, 2131.651
572.1268, 2132.382
572.6089, 2127.008
573.0910, 2122.110
573.5731, 2123.176
574.0552, 2127.415
574.5374, 2129.964
575.0195, 2126.928
575.5016, 2124.322
575.9837, 2124.813
576.4658, 2128.104
576.9479, 2129.718
577.4301, 2128.205
577.9122, 2126.615
578.3943, 2126.145
578.8764, 2126.842
579.3585, 2128.673
579.8406, 2132.089
580.3228, 2135.625
580.8049, 2137.476
581.2870, 2137.739
581.7691, 2138.620
582.2512, 2140.582
582.7333, 2142.993
583.2155, 2145.561
583.6976, 2147.854
584.1797, 2148.677
584.6617, 2145.168
585.1439, 2141.542
585.6260, 2141.901
