##NAMES=Schwartzembergite
##RRUFFID=R070429
##IDEAL CHEMISTRY=Pb^2+^_5_H_2_I^3+^O_6_Cl_3_
##LOCALITY=Venado mine, Copiapo, Chile
##OWNER=RRUFF
##SOURCE=Bob Jenkins
##DESCRIPTION=Bright yellow/orange tabular crystals associated with blue diaboleite and colorless cerussite
##STATUS=The identification of this mineral has been confirmed only by single crystal X-ray diffraction.
##URL=rruff.info/R070429
156.1903, 10065.83
156.6724, 10053.80
157.1546, 10051.16
157.6367, 10080.85
158.1188, 10100.15
158.6009, 10090.83
159.0830, 10040.49
159.5651, 9991.904
160.0473, 9959.965
160.5294, 9936.625
161.0115, 9906.845
161.4936, 9859.357
161.9757, 9808.449
162.4578, 9762.127
162.9400, 9724.580
163.4221, 9687.304
163.9042, 9645.292
164.3863, 9600.631
164.8684, 9560.137
165.3505, 9528.847
165.8327, 9502.428
166.3148, 9477.575
166.7969, 9454.008
167.2790, 9431.145
167.7611, 9407.688
168.2433, 9383.912
168.7254, 9363.032
169.2075, 9344.280
169.6896, 9330.133
170.1717, 9323.643
170.6538, 9331.460
171.1360, 9343.768
171.6181, 9351.871
172.1002, 9355.448
172.5823, 9362.162
173.0644, 9376.772
173.5465, 9398.448
174.0287, 9425.938
174.5108, 9464.362
174.9929, 9505.636
175.4750, 9538.939
175.9571, 9561.687
176.4392, 9587.553
176.9214, 9636.361
177.4035, 9699.737
177.8856, 9755.135
178.3677, 9782.728
178.8498, 9796.183
179.3319, 9816.688
179.8141, 9846.773
180.2962, 9884.581
180.7783, 9934.836
181.2604, 9993.820
181.7425, 10046.85
182.2246, 10075.81
182.7068, 10091.33
183.1889, 10118.78
183.6710, 10162.41
184.1531, 10220.02
184.6352, 10294.55
185.1173, 10385.49
185.5995, 10471.34
186.0816, 10527.48
186.5637, 10562.39
187.0458, 10609.21
187.5279, 10678.80
188.0100, 10762.97
188.4922, 10838.93
188.9743, 10906.48
189.4564, 10978.98
189.9385, 11078.98
190.4206, 11201.43
190.9027, 11306.43
191.3849, 11375.47
191.8670, 11418.64
192.3491, 11472.76
192.8312, 11538.30
193.3133, 11615.18
193.7954, 11709.56
194.2776, 11820.98
194.7597, 11926.74
195.2418, 12014.04
195.7239, 12085.71
196.2060, 12169.86
196.6881, 12268.84
197.1703, 12373.23
197.6524, 12469.27
198.1345, 12555.20
198.6166, 12641.28
199.0987, 12730.38
199.5808, 12822.49
200.0630, 12921.44
200.5451, 13033.28
201.0272, 13142.18
201.5093, 13210.24
201.9914, 13226.72
202.4735, 13256.84
202.9557, 13343.02
203.4378, 13491.33
203.9199, 13624.37
204.4020, 13739.35
204.8841, 13836.07
205.3662, 13908.54
205.8484, 13950.12
206.3305, 13990.79
206.8126, 14051.67
207.2947, 14137.39
207.7768, 14213.85
208.2589, 14275.76
208.7411, 14327.19
209.2232, 14382.63
209.7053, 14444.11
210.1874, 14505.40
210.6695, 14562.04
211.1517, 14611.60
211.6338, 14668.64
212.1159, 14741.77
212.5980, 14824.78
213.0801, 14877.10
213.5622, 14886.00
214.0444, 14887.28
214.5265, 14914.26
215.0086, 14981.63
215.4907, 15026.48
215.9728, 15031.01
216.4549, 14999.43
216.9371, 14990.92
217.4192, 15018.57
217.9013, 15050.11
218.3834, 15051.18
218.8655, 15006.89
219.3476, 14973.06
219.8298, 14964.40
220.3119, 14981.26
220.7940, 14990.76
221.2761, 14996.98
221.7582, 14991.04
222.2403, 14958.48
222.7225, 14884.44
223.2046, 14819.86
223.6867, 14782.72
224.1688, 14776.95
224.6509, 14747.70
225.1330, 14682.49
225.6152, 14605.11
226.0973, 14549.37
226.5794, 14531.27
227.0615, 14503.22
227.5436, 14450.29
228.0257, 14366.87
228.5079, 14290.88
228.9900, 14230.28
229.4721, 14170.26
229.9542, 14084.59
230.4363, 13950.98
230.9184, 13833.04
231.4006, 13753.70
231.8827, 13725.72
232.3648, 13685.35
232.8469, 13630.89
233.3290, 13564.60
233.8111, 13488.35
234.2933, 13394.60
234.7754, 13303.52
235.2575, 13223.45
235.7396, 13160.23
236.2217, 13088.48
236.7038, 12999.97
237.1860, 12906.11
237.6681, 12829.22
238.1502, 12774.62
238.6323, 12728.83
239.1144, 12689.58
239.5965, 12667.66
240.0787, 12622.47
240.5608, 12545.48
241.0429, 12448.34
241.5250, 12355.53
242.0071, 12263.42
242.4892, 12180.87
242.9714, 12113.48
243.4535, 12065.57
243.9356, 12021.06
244.4177, 11985.29
244.8998, 11951.58
245.3819, 11899.82
245.8641, 11814.67
246.3462, 11733.81
246.8283, 11677.58
247.3104, 11662.90
247.7925, 11632.18
248.2746, 11577.72
248.7568, 11508.30
249.2389, 11449.45
249.7210, 11407.65
250.2031, 11366.60
250.6852, 11317.20
251.1674, 11253.25
251.6495, 11197.15
252.1316, 11152.87
252.6137, 11116.57
253.0958, 11076.21
253.5779, 11027.63
254.0601, 10981.24
254.5422, 10942.56
255.0243, 10912.49
255.5064, 10889.21
255.9885, 10878.38
256.4706, 10873.45
256.9528, 10848.75
257.4349, 10788.98
257.9170, 10734.61
258.3991, 10708.69
258.8812, 10722.15
259.3633, 10735.98
259.8455, 10754.58
260.3276, 10771.00
260.8097, 10756.26
261.2918, 10692.66
261.7739, 10630.06
262.2560, 10598.23
262.7382, 10608.65
263.2203, 10615.02
263.7024, 10612.76
264.1845, 10604.95
264.6666, 10603.55
265.1487, 10612.87
265.6309, 10619.68
266.1130, 10611.51
266.5951, 10578.01
267.0772, 10568.44
267.5593, 10592.92
268.0414, 10641.29
268.5236, 10680.51
269.0057, 10712.58
269.4878, 10731.54
269.9699, 10725.42
270.4520, 10682.22
270.9341, 10672.08
271.4163, 10710.17
271.8984, 10780.35
272.3805, 10836.51
272.8626, 10880.86
273.3447, 10906.14
273.8268, 10895.87
274.3090, 10839.76
274.7911, 10823.42
275.2732, 10867.20
275.7553, 10946.59
276.2374, 10989.41
276.7195, 10986.51
277.2017, 10984.17
277.6838, 11018.24
278.1659, 11093.28
278.6480, 11145.92
279.1301, 11165.66
279.6122, 11164.43
280.0944, 11167.14
280.5765, 11172.12
281.0586, 11190.96
281.5407, 11235.25
282.0228, 11305.19
282.5049, 11375.71
282.9871, 11447.91
283.4692, 11515.45
283.9513, 11564.62
284.4334, 11594.45
284.9155, 11617.01
285.3976, 11634.84
285.8798, 11648.94
286.3619, 11673.92
286.8440, 11712.92
287.3261, 11760.23
287.8082, 11804.80
288.2903, 11846.56
288.7725, 11893.95
289.2546, 11961.40
289.7367, 12042.27
290.2188, 12098.88
290.7009, 12123.42
291.1830, 12133.45
291.6652, 12153.66
292.1473, 12184.12
292.6294, 12222.92
293.1115, 12275.19
293.5936, 12336.08
294.0757, 12387.32
294.5579, 12425.69
295.0400, 12460.29
295.5221, 12504.86
296.0042, 12558.18
296.4863, 12610.43
296.9684, 12660.50
297.4506, 12706.00
297.9327, 12736.94
298.4148, 12749.82
298.8969, 12761.76
299.3790, 12801.80
299.8611, 12860.63
300.3433, 12904.96
300.8254, 12904.22
301.3075, 12881.39
301.7896, 12873.08
302.2717, 12881.93
302.7538, 12901.25
303.2360, 12929.05
303.7181, 12962.42
304.2002, 12994.91
304.6823, 13033.03
305.1644, 13063.97
305.6465, 13067.17
306.1287, 13039.93
306.6108, 13007.29
307.0929, 12989.69
307.5750, 12981.15
308.0571, 12969.94
308.5392, 12948.37
309.0214, 12923.74
309.5035, 12901.98
309.9856, 12883.46
310.4677, 12865.88
310.9498, 12847.62
311.4319, 12829.30
311.9141, 12811.46
312.3962, 12799.87
312.8783, 12784.39
313.3604, 12754.51
313.8426, 12710.96
314.3247, 12671.09
314.8068, 12653.74
315.2889, 12641.70
315.7710, 12616.82
316.2531, 12552.75
316.7353, 12492.65
317.2174, 12461.72
317.6995, 12457.00
318.1816, 12446.56
318.6637, 12404.98
319.1458, 12359.06
319.6280, 12330.37
320.1101, 12342.90
320.5922, 12354.47
321.0743, 12348.20
321.5564, 12328.32
322.0385, 12318.66
322.5207, 12342.81
323.0028, 12368.14
323.4849, 12374.07
323.9670, 12335.95
324.4491, 12304.10
324.9312, 12288.91
325.4134, 12286.49
325.8955, 12282.20
326.3776, 12271.86
326.8597, 12261.11
327.3418, 12252.53
327.8239, 12248.35
328.3061, 12243.56
328.7882, 12231.29
329.2703, 12218.02
329.7524, 12220.95
330.2345, 12259.19
330.7166, 12294.89
331.1988, 12313.33
331.6809, 12303.78
332.1630, 12300.84
332.6451, 12305.88
333.1272, 12317.10
333.6093, 12331.73
334.0915, 12354.15
334.5736, 12373.22
335.0557, 12383.84
335.5378, 12382.81
336.0199, 12388.20
336.5020, 12401.37
336.9842, 12419.65
337.4663, 12438.86
337.9484, 12457.07
338.4305, 12482.05
338.9126, 12519.52
339.3947, 12569.45
339.8769, 12607.49
340.3590, 12630.39
340.8411, 12648.67
341.3232, 12676.21
341.8053, 12714.71
342.2874, 12746.37
342.7696, 12760.55
343.2517, 12764.02
343.7338, 12794.46
344.2159, 12856.11
344.6980, 12924.21
345.1801, 12980.29
345.6623, 13024.04
346.1444, 13056.50
346.6265, 13072.83
347.1086, 13081.93
347.5907, 13104.97
348.0728, 13141.51
348.5550, 13184.50
349.0371, 13230.90
349.5192, 13279.30
350.0013, 13327.02
350.4834, 13374.91
350.9655, 13418.72
351.4477, 13446.77
351.9298, 13462.74
352.4119, 13482.99
352.8940, 13521.93
353.3761, 13570.66
353.8582, 13612.10
354.3404, 13641.52
354.8225, 13673.93
355.3046, 13733.84
355.7867, 13808.77
356.2688, 13868.76
356.7509, 13881.34
357.2331, 13882.25
357.7152, 13905.19
358.1973, 13954.14
358.6794, 14009.90
359.1615, 14061.10
359.6436, 14111.27
360.1258, 14165.34
360.6079, 14232.74
361.0900, 14298.37
361.5721, 14354.58
362.0542, 14401.16
362.5363, 14441.49
363.0185, 14463.41
363.5006, 14486.10
363.9827, 14526.41
364.4648, 14602.14
364.9469, 14682.28
365.4290, 14765.17
365.9112, 14847.96
366.3933, 14916.82
366.8754, 14956.49
367.3575, 14990.08
367.8396, 15030.22
368.3217, 15083.45
368.8039, 15137.03
369.2860, 15195.67
369.7681, 15254.58
370.2502, 15300.95
370.7323, 15332.97
371.2144, 15354.19
371.6966, 15362.15
372.1787, 15341.67
372.6608, 15346.46
373.1429, 15386.40
373.6250, 15446.21
374.1071, 15504.81
374.5893, 15572.05
375.0714, 15617.97
375.5535, 15628.24
376.0356, 15600.38
376.5177, 15576.85
376.9998, 15560.83
377.4820, 15544.06
377.9641, 15517.12
378.4462, 15479.03
378.9283, 15435.76
379.4104, 15385.93
379.8925, 15332.54
380.3747, 15291.02
380.8568, 15262.47
381.3389, 15237.01
381.8210, 15208.15
382.3031, 15175.77
382.7852, 15136.29
383.2674, 15088.57
383.7495, 15034.40
384.2316, 14978.10
384.7137, 14919.12
385.1958, 14859.27
385.6779, 14797.62
386.1601, 14735.84
386.6422, 14679.42
387.1243, 14628.90
387.6064, 14581.52
388.0885, 14534.94
388.5706, 14488.36
389.0528, 14440.91
389.5349, 14401.65
390.0170, 14356.01
390.4991, 14279.63
390.9812, 14168.86
391.4633, 14070.91
391.9455, 14036.38
392.4276, 14026.99
392.9097, 13994.08
393.3918, 13889.97
393.8739, 13785.95
394.3561, 13715.36
394.8382, 13676.42
395.3203, 13644.07
395.8024, 13627.07
396.2845, 13603.08
396.7667, 13555.80
397.2488, 13444.29
397.7309, 13357.09
398.2130, 13326.79
398.6951, 13335.41
399.1772, 13326.19
399.6594, 13271.97
400.1415, 13217.48
400.6236, 13178.69
401.1057, 13159.68
401.5878, 13148.00
402.0699, 13158.11
402.5521, 13168.49
403.0342, 13143.91
403.5163, 13058.06
403.9984, 12984.16
404.4805, 12943.19
404.9626, 12936.03
405.4448, 12927.43
405.9269, 12919.12
406.4090, 12906.21
406.8911, 12880.29
407.3732, 12837.91
407.8553, 12806.21
408.3375, 12793.55
408.8196, 12792.81
409.3017, 12780.57
409.7838, 12755.70
410.2659, 12731.82
410.7480, 12718.59
411.2302, 12714.69
411.7123, 12715.66
412.1944, 12723.00
412.6765, 12729.39
413.1586, 12726.62
413.6407, 12714.73
414.1229, 12694.32
414.6050, 12653.67
415.0871, 12608.76
415.5692, 12586.79
416.0513, 12589.08
416.5334, 12598.17
417.0156, 12606.37
417.4977, 12611.12
417.9798, 12608.60
418.4619, 12594.46
418.9440, 12575.21
419.4261, 12553.92
419.9083, 12530.92
420.3904, 12505.64
420.8725, 12459.51
421.3546, 12422.50
421.8367, 12419.71
422.3188, 12482.29
422.8010, 12532.70
423.2831, 12543.23
423.7652, 12528.92
424.2473, 12522.79
424.7294, 12536.63
425.2115, 12552.66
425.6937, 12567.22
426.1758, 12582.54
426.6579, 12513.53
427.1400, 12595.03
427.6221, 12639.71
428.1042, 12649.55
428.5864, 12520.20
429.0685, 12570.58
429.5506, 12548.93
430.0327, 12524.33
430.5148, 12600.02
430.9969, 12490.91
431.4791, 12565.00
431.9612, 12565.96
432.4433, 12600.40
432.9254, 12562.35
433.4075, 12546.69
433.8896, 12603.53
434.3718, 12528.07
434.8539, 12525.44
435.3360, 12525.46
435.8181, 12518.94
436.3002, 12509.63
436.7823, 12508.32
437.2645, 12515.51
437.7466, 12527.49
438.2287, 12547.57
438.7108, 12569.59
439.1929, 12578.89
439.6750, 12557.95
440.1572, 12534.47
440.6393, 12542.35
441.1214, 12574.76
441.6035, 12597.88
442.0856, 12577.04
442.5677, 12547.09
443.0499, 12540.14
443.5320, 12573.70
444.0141, 12601.81
444.4962, 12605.02
444.9783, 12591.14
445.4604, 12573.20
445.9426, 12537.24
446.4247, 12513.93
446.9068, 12523.37
447.3889, 12574.18
447.8710, 12595.73
448.3531, 12550.79
448.8353, 12496.79
449.3174, 12476.64
449.7995, 12512.51
450.2816, 12546.13
450.7637, 12576.28
451.2458, 12599.98
451.7280, 12600.86
452.2101, 12568.83
452.6922, 12538.21
453.1743, 12526.68
453.6564, 12535.79
454.1385, 12551.08
454.6207, 12575.21
455.1028, 12599.24
455.5849, 12609.40
456.0670, 12606.36
456.5491, 12602.13
457.0313, 12602.07
457.5134, 12603.13
457.9955, 12593.13
458.4776, 12572.72
458.9597, 12561.02
459.4418, 12587.91
459.9240, 12630.50
460.4061, 12646.74
460.8882, 12618.63
461.3703, 12584.16
461.8524, 12577.64
462.3345, 12590.13
462.8167, 12601.02
463.2988, 12596.38
463.7809, 12590.07
464.2630, 12587.83
464.7451, 12589.42
465.2272, 12603.40
465.7094, 12650.72
466.1915, 12702.86
466.6736, 12734.70
467.1557, 12726.71
467.6378, 12714.53
468.1199, 12696.22
468.6021, 12675.79
469.0842, 12671.84
469.5663, 12691.71
470.0484, 12719.58
470.5305, 12753.15
471.0126, 12801.65
471.4948, 12820.67
471.9769, 12797.55
472.4590, 12760.96
472.9411, 12754.11
473.4232, 12782.68
473.9053, 12803.33
474.3875, 12798.47
474.8696, 12777.49
475.3517, 12779.23
475.8338, 12804.36
476.3159, 12838.16
476.7981, 12878.41
477.2802, 12918.91
477.7623, 12939.07
478.2444, 12933.38
478.7265, 12914.71
479.2086, 12888.09
479.6908, 12859.52
480.1729, 12844.49
480.6550, 12872.18
481.1371, 12901.75
481.6192, 12892.98
482.1013, 12846.09
482.5835, 12801.37
483.0656, 12777.52
483.5477, 12765.94
484.0298, 12759.85
484.5119, 12760.63
484.9940, 12762.89
485.4762, 12769.89
485.9583, 12777.76
486.4404, 12776.52
486.9225, 12751.45
487.4046, 12730.87
487.8867, 12726.82
488.3689, 12745.48
488.8510, 12740.99
489.3331, 12698.58
489.8152, 12650.81
490.2973, 12633.95
490.7794, 12658.83
491.2616, 12666.90
491.7437, 12643.38
492.2258, 12601.69
492.7079, 12577.27
493.1900, 12570.60
493.6721, 12575.33
494.1543, 12599.22
494.6364, 12632.57
495.1185, 12634.32
495.6006, 12598.71
496.0827, 12565.22
496.5648, 12589.63
497.0470, 12644.85
497.5291, 12673.56
498.0112, 12637.54
498.4933, 12587.10
498.9754, 12561.52
499.4576, 12556.72
499.9397, 12559.03
500.4218, 12559.82
500.9039, 12567.01
501.3860, 12589.86
501.8681, 12638.37
502.3503, 12672.88
502.8324, 12675.04
503.3145, 12661.96
503.7966, 12653.83
504.2787, 12647.65
504.7608, 12652.20
505.2430, 12676.42
505.7251, 12715.27
506.2072, 12731.89
506.6893, 12713.36
507.1714, 12695.42
507.6535, 12697.05
508.1357, 12719.59
508.6178, 12754.32
509.0999, 12807.51
509.5820, 12857.48
510.0641, 12869.62
510.5462, 12846.59
511.0284, 12821.42
511.5105, 12802.10
511.9926, 12788.66
512.4747, 12775.10
512.9568, 12763.58
513.4389, 12772.14
513.9210, 12838.60
514.4031, 12921.80
514.8853, 12966.29
515.3674, 12957.04
515.8495, 12940.61
516.3316, 12945.48
516.8137, 12960.55
517.2958, 12970.49
517.7780, 12954.04
518.2601, 12948.13
518.7422, 12970.07
519.2244, 13017.22
519.7065, 13061.33
520.1886, 13116.12
520.6707, 13152.19
521.1528, 13151.33
521.6349, 13087.77
522.1171, 13055.27
522.5992, 13065.57
523.0813, 13095.31
523.5634, 13112.16
524.0455, 13112.54
524.5276, 13119.26
525.0098, 13139.43
525.4919, 13169.47
525.9740, 13200.59
526.4561, 13233.16
526.9382, 13260.17
527.4203, 13272.13
527.9025, 13276.05
528.3846, 13288.17
528.8667, 13310.39
529.3488, 13338.82
529.8309, 13382.32
530.3130, 13426.99
530.7952, 13450.72
531.2773, 13415.99
531.7594, 13384.05
532.2415, 13396.92
532.7236, 13443.92
533.2057, 13478.60
533.6879, 13470.79
534.1700, 13459.79
534.6521, 13468.80
535.1342, 13515.36
535.6163, 13535.90
536.0984, 13504.20
536.5806, 13463.17
537.0627, 13461.24
537.5448, 13519.96
538.0269, 13565.30
538.5090, 13582.33
538.9911, 13579.70
539.4733, 13586.38
539.9554, 13604.50
540.4375, 13616.76
540.9196, 13609.25
541.4017, 13586.82
541.8839, 13569.36
542.3660, 13556.50
542.8481, 13555.94
543.3302, 13584.69
543.8123, 13629.80
544.2944, 13666.71
544.7766, 13690.90
545.2587, 13701.00
545.7408, 13684.46
546.2229, 13652.13
546.7050, 13630.40
547.1871, 13639.15
547.6693, 13653.18
548.1514, 13661.61
548.6335, 13663.47
549.1156, 13661.38
549.5977, 13648.01
550.0798, 13636.03
550.5620, 13634.75
551.0441, 13652.35
551.5262, 13663.40
552.0083, 13660.91
552.4904, 13655.67
552.9725, 13670.31
553.4547, 13707.87
553.9368, 13750.74
554.4189, 13800.29
554.9010, 13849.12
555.3831, 13859.07
555.8652, 13829.39
556.3474, 13798.65
556.8295, 13794.40
557.3116, 13811.35
557.7937, 13843.58
558.2758, 13895.14
558.7579, 13940.45
559.2401, 13948.95
559.7222, 13938.37
560.2043, 13936.00
560.6864, 13963.55
561.1685, 13990.43
561.6506, 14001.67
562.1328, 13999.81
562.6149, 13999.67
563.0970, 14006.06
563.5791, 14012.87
564.0612, 14016.38
564.5433, 14013.39
565.0255, 14019.82
565.5076, 14038.62
565.9897, 14063.23
566.4718, 14087.61
566.9539, 14111.41
567.4360, 14137.56
567.9182, 14169.80
568.4003, 14199.95
568.8824, 14208.25
569.3645, 14195.86
569.8466, 14177.36
570.3287, 14151.29
570.8109, 14127.54
571.2930, 14124.94
571.7751, 14143.20
572.2572, 14170.44
572.7393, 14209.84
573.2214, 14248.62
573.7036, 14273.47
574.1857, 14278.81
574.6678, 14276.61
575.1499, 14259.50
575.6320, 14240.48
576.1141, 14238.42
576.5963, 14279.21
577.0784, 14311.26
577.5605, 14321.83
578.0426, 14314.58
578.5247, 14313.31
579.0068, 14319.36
579.4890, 14328.73
579.9711, 14339.37
580.4532, 14351.14
580.9353, 14369.88
581.4174, 14398.82
581.8995, 14421.34
582.3817, 14407.05
582.8638, 14368.40
583.3459, 14354.66
583.8280, 14388.29
584.3101, 14430.71
584.7922, 14426.37
585.2744, 14394.77
585.7565, 14385.97
586.2386, 14450.97
586.7207, 14523.15
587.2028, 14565.03
587.6849, 14575.35
588.1671, 14573.77
588.6492, 14554.13
589.1313, 14532.02
589.6134, 14515.03
590.0955, 14492.43
590.5776, 14500.28
591.0598, 14555.38
591.5419, 14625.86
592.0240, 14669.10
592.5061, 14680.58
592.9882, 14687.35
593.4703, 14694.50
593.9525, 14700.93
594.4346, 14694.60
594.9167, 14677.89
595.3988, 14684.21
595.8809, 14764.06
596.3630, 14867.52
596.8452, 14902.07
597.3273, 14865.02
597.8094, 14830.52
598.2915, 14854.57
598.7736, 14902.10
599.2557, 14940.27
599.7379, 14961.43
600.2200, 14973.14
600.7021, 14961.58
601.1842, 14945.80
601.6663, 14957.01
602.1484, 15021.24
602.6306, 15078.44
603.1127, 15120.83
603.5948, 15148.59
604.0769, 15155.84
604.5590, 15133.22
605.0411, 15120.90
605.5233, 15142.97
606.0054, 15196.06
606.4875, 15257.16
606.9696, 15327.78
607.4517, 15386.09
607.9338, 15394.84
608.4160, 15377.71
608.8981, 15385.46
609.3802, 15436.89
609.8623, 15493.02
610.3444, 15528.00
610.8265, 15547.33
611.3087, 15560.95
611.7908, 15552.73
612.2729, 15559.06
612.7550, 15602.59
613.2371, 15676.88
613.7192, 15733.86
614.2014, 15752.43
614.6835, 15777.43
615.1656, 15831.69
615.6477, 15920.61
616.1298, 15985.42
616.6119, 16023.55
617.0941, 16043.14
617.5762, 16039.07
618.0583, 16016.95
618.5404, 16026.72
619.0225, 16080.38
619.5046, 16153.89
619.9868, 16229.23
620.4689, 16301.09
620.9510, 16359.24
621.4331, 16381.41
621.9152, 16403.77
622.3973, 16448.72
622.8795, 16513.85
623.3616, 16589.21
623.8437, 16682.35
624.3258, 16775.94
624.8079, 16860.47
625.2900, 16934.62
625.7722, 17009.97
626.2543, 17087.78
626.7364, 17165.20
627.2185, 17237.10
627.7006, 17300.22
628.1827, 17381.03
628.6649, 17483.96
629.1470, 17596.77
629.6291, 17698.68
630.1112, 17793.13
630.5933, 17898.38
631.0754, 18024.88
631.5576, 18160.09
632.0397, 18282.64
632.5218, 18399.08
633.0039, 18529.03
633.4860, 18692.62
633.9681, 18862.36
634.4503, 19017.93
634.9324, 19157.67
635.4145, 19313.67
635.8966, 19483.09
636.3787, 19676.74
636.8608, 19906.87
637.3430, 20199.10
637.8251, 20451.33
638.3072, 20637.71
638.7893, 20819.30
639.2714, 21082.83
639.7535, 21428.19
640.2357, 21745.68
640.7178, 21999.99
641.1999, 22246.74
641.6820, 22583.15
642.1641, 22995.33
642.6462, 23425.14
643.1284, 23845.51
643.6105, 24276.88
644.0926, 24729.54
644.5747, 25204.44
645.0568, 25719.21
645.5389, 26297.08
646.0211, 26902.29
646.5032, 27523.05
646.9853, 28154.21
647.4674, 28807.76
647.9495, 29470.09
648.4316, 30167.20
648.9138, 30930.66
649.3959, 31759.27
649.8780, 32623.32
650.3601, 33514.07
650.8422, 34437.41
651.3243, 35429.15
651.8065, 36475.43
652.2886, 37520.96
652.7707, 38521.75
