##NAMES=Schwartzembergite
##RRUFFID=R050159
##IDEAL CHEMISTRY=Pb^2+^_5_H_2_I^3+^O_6_Cl_3_
##LOCALITY=Ponderosa mine, Sierra Gorda, Antofagasta, Chile
##OWNER=RRUFF
##SOURCE=Jim McGlasson
##DESCRIPTION=Orange thin plates
##STATUS=The identification of this mineral has been confirmed by single-crystal X-ray diffraction.
##URL=rruff.info/R050159
119.1007, 1188.245
119.5828, 1288.450
120.0649, 1392.139
120.5471, 1505.770
121.0292, 1640.163
121.5113, 1799.076
121.9934, 1968.974
122.4755, 2140.415
122.9576, 2322.737
123.4398, 2525.580
123.9219, 2754.089
124.4040, 3004.317
124.8861, 3263.475
125.3682, 3528.318
125.8503, 3814.799
126.3325, 4126.317
126.8146, 4457.454
127.2967, 4803.275
127.7788, 5157.520
128.2609, 5527.174
128.7430, 5927.917
129.2252, 6368.527
129.7073, 6834.618
130.1894, 7327.100
130.6715, 7840.347
131.1536, 8364.757
131.6357, 8895.580
132.1179, 9432.521
132.6000, 9973.152
133.0821, 10508.66
133.5642, 11058.38
134.0463, 11643.16
134.5284, 12242.64
135.0106, 12824.21
135.4927, 13362.54
135.9748, 13859.12
136.4569, 14341.88
136.9390, 14796.27
137.4211, 15251.94
137.9033, 15727.11
138.3854, 16211.99
138.8675, 16685.90
139.3496, 17130.33
139.8317, 17545.43
140.3138, 17987.45
140.7960, 18506.35
141.2781, 18999.15
141.7602, 19412.16
142.2423, 19753.60
142.7244, 20063.97
143.2065, 20377.09
143.6887, 20690.16
144.1708, 20957.76
144.6529, 21189.27
145.1350, 21373.34
145.6171, 21502.70
146.0992, 21577.80
146.5814, 21602.90
147.0635, 21576.44
147.5456, 21493.51
148.0277, 21391.63
148.5098, 21269.78
148.9919, 21130.60
149.4741, 20989.12
149.9562, 20842.32
150.4383, 20648.59
150.9204, 20359.24
151.4025, 19979.37
151.8846, 19604.73
152.3668, 19253.44
152.8489, 18901.92
153.3310, 18527.25
153.8131, 18128.53
154.2952, 17711.70
154.7773, 17264.01
155.2595, 16795.76
155.7416, 16357.80
156.2237, 15976.10
156.7058, 15619.60
157.1879, 15245.69
157.6700, 14847.65
158.1522, 14468.29
158.6343, 14148.99
159.1164, 13876.17
159.5985, 13625.16
160.0806, 13394.50
160.5627, 13181.26
161.0449, 12985.70
161.5270, 12810.82
162.0091, 12645.84
162.4912, 12475.92
162.9733, 12310.76
163.4554, 12169.93
163.9376, 12075.03
164.4197, 12005.52
164.9018, 11922.29
165.3839, 11817.26
165.8660, 11722.02
166.3481, 11667.10
166.8303, 11634.07
167.3124, 11591.81
167.7945, 11519.56
168.2766, 11432.54
168.7587, 11365.47
169.2408, 11325.86
169.7230, 11288.98
170.2051, 11242.89
170.6872, 11190.49
171.1693, 11134.99
171.6514, 11072.77
172.1335, 11010.46
172.6157, 10966.40
173.0978, 10947.61
173.5799, 10933.71
174.0620, 10916.72
174.5441, 10897.77
175.0262, 10877.19
175.5084, 10849.70
175.9905, 10823.79
176.4726, 10825.42
176.9547, 10868.83
177.4368, 10914.77
177.9189, 10941.19
178.4010, 10961.89
178.8832, 10997.64
179.3653, 11064.12
179.8474, 11147.59
180.3295, 11205.02
180.8116, 11215.29
181.2937, 11236.94
181.7759, 11284.06
182.2580, 11352.25
182.7401, 11437.86
183.2222, 11541.40
183.7043, 11657.73
184.1864, 11772.12
184.6686, 11879.82
185.1507, 11993.12
185.6328, 12116.00
186.1149, 12244.28
186.5970, 12374.81
187.0791, 12506.83
187.5613, 12638.11
188.0434, 12762.80
188.5255, 12863.01
189.0076, 12988.25
189.4897, 13163.19
189.9718, 13357.16
190.4540, 13541.88
190.9361, 13703.69
191.4182, 13848.18
191.9003, 13984.91
192.3824, 14096.15
192.8645, 14234.38
193.3467, 14409.88
193.8288, 14611.01
194.3109, 14834.32
194.7930, 15079.01
195.2751, 15329.18
195.7572, 15546.64
196.2394, 15714.57
196.7215, 15882.59
197.2036, 16047.22
197.6857, 16220.20
198.1678, 16413.94
198.6499, 16632.72
199.1321, 16864.44
199.6142, 17087.46
200.0963, 17301.28
200.5784, 17506.89
201.0605, 17694.60
201.5426, 17882.24
202.0248, 18085.41
202.5069, 18308.25
202.9890, 18534.79
203.4711, 18741.77
203.9532, 18929.95
204.4353, 19093.10
204.9175, 19203.09
205.3996, 19311.67
205.8817, 19456.48
206.3638, 19643.78
206.8459, 19850.67
207.3280, 20051.40
207.8102, 20251.04
208.2923, 20425.66
208.7744, 20561.18
209.2565, 20686.25
209.7386, 20817.98
210.2207, 20957.04
210.7029, 21092.23
211.1850, 21206.95
211.6671, 21289.76
212.1492, 21392.38
212.6313, 21548.32
213.1134, 21693.80
213.5956, 21794.79
214.0777, 21852.73
214.5598, 21890.73
215.0419, 21929.35
215.5240, 21968.27
216.0061, 22009.33
216.4883, 22039.36
216.9704, 22083.75
217.4525, 22179.67
217.9346, 22303.66
218.4167, 22393.03
218.8988, 22388.53
219.3810, 22286.93
219.8631, 22208.37
220.3452, 22172.28
220.8273, 22141.74
221.3094, 22119.44
221.7915, 22095.06
222.2737, 22050.67
222.7558, 21972.29
223.2379, 21862.40
223.7200, 21754.65
224.2021, 21655.33
224.6842, 21550.56
225.1664, 21438.13
225.6485, 21318.15
226.1306, 21192.67
226.6127, 21064.34
227.0948, 20929.12
227.5770, 20768.00
228.0591, 20545.61
228.5412, 20344.00
229.0233, 20190.07
229.5054, 20058.72
229.9875, 19926.03
230.4697, 19781.94
230.9518, 19621.97
231.4339, 19429.73
231.9160, 19177.01
232.3981, 18941.18
232.8802, 18737.79
233.3624, 18550.42
233.8445, 18364.91
234.3266, 18176.95
234.8087, 17985.77
235.2908, 17789.72
235.7729, 17581.81
236.2551, 17384.79
236.7372, 17211.23
237.2193, 17038.83
237.7014, 16846.35
238.1835, 16632.41
238.6656, 16417.34
239.1478, 16229.26
239.6299, 16078.93
240.1120, 15914.32
240.5941, 15723.79
241.0762, 15526.83
241.5583, 15328.68
242.0405, 15130.98
242.5226, 14936.45
243.0047, 14748.41
243.4868, 14567.23
243.9689, 14384.73
244.4510, 14199.49
244.9332, 14012.27
245.4153, 13820.92
245.8974, 13627.17
246.3795, 13437.45
246.8616, 13259.96
247.3437, 13090.49
247.8259, 12899.33
248.3080, 12659.98
248.7901, 12433.46
249.2722, 12239.69
249.7543, 12070.59
250.2364, 11916.50
250.7186, 11776.78
251.2007, 11642.19
251.6828, 11481.25
252.1649, 11273.79
252.6470, 11080.16
253.1291, 10919.51
253.6113, 10781.16
254.0934, 10656.81
254.5755, 10545.20
255.0576, 10440.06
255.5397, 10331.29
256.0219, 10218.83
256.5040, 10103.98
256.9861, 9977.527
257.4682, 9854.641
257.9503, 9747.118
258.4324, 9657.896
258.9146, 9576.645
259.3967, 9492.531
259.8788, 9405.176
260.3609, 9320.052
260.8430, 9233.501
261.3251, 9153.518
261.8073, 9086.198
262.2894, 9031.378
262.7715, 8981.226
263.2536, 8928.142
263.7357, 8873.865
264.2178, 8830.564
264.7000, 8805.538
265.1821, 8782.519
265.6642, 8747.721
266.1463, 8704.476
266.6284, 8664.330
267.1105, 8627.477
267.5927, 8598.304
268.0748, 8591.942
268.5569, 8617.234
269.0390, 8637.557
269.5211, 8613.904
270.0032, 8568.979
270.4854, 8541.661
270.9675, 8547.059
271.4496, 8569.955
271.9317, 8599.060
272.4138, 8634.823
272.8959, 8661.511
273.3781, 8664.288
273.8602, 8656.123
274.3423, 8661.691
274.8244, 8684.827
275.3065, 8716.931
275.7886, 8755.407
276.2708, 8798.868
276.7529, 8840.781
277.2350, 8876.026
277.7171, 8912.880
278.1992, 8969.530
278.6813, 9052.080
279.1635, 9122.413
279.6456, 9150.886
280.1277, 9161.655
280.6098, 9198.235
281.0919, 9272.214
281.5740, 9360.641
282.0562, 9439.601
282.5383, 9508.422
283.0204, 9571.162
283.5025, 9616.409
283.9846, 9663.180
284.4667, 9735.854
284.9489, 9833.854
285.4310, 9927.288
285.9131, 9989.046
286.3952, 10019.48
286.8773, 10065.06
287.3594, 10133.96
287.8416, 10208.57
288.3237, 10283.92
288.8058, 10358.58
289.2879, 10426.73
289.7700, 10482.80
290.2521, 10533.87
290.7343, 10609.62
291.2164, 10751.80
291.6985, 10865.70
292.1806, 10914.52
292.6627, 10935.35
293.1448, 10974.71
293.6270, 11048.84
294.1091, 11141.76
294.5912, 11225.08
295.0733, 11294.59
295.5554, 11361.79
296.0375, 11422.85
296.5197, 11484.10
297.0018, 11548.55
297.4839, 11617.38
297.9660, 11691.71
298.4481, 11776.76
298.9302, 11878.55
299.4124, 11948.74
299.8945, 11952.20
300.3766, 11960.08
300.8587, 12002.24
301.3408, 12068.20
301.8229, 12132.78
302.3050, 12180.31
302.7871, 12212.22
303.2693, 12236.00
303.7514, 12255.56
304.2335, 12259.33
304.7156, 12237.20
305.1977, 12203.41
305.6798, 12173.43
306.1620, 12153.09
306.6441, 12135.85
307.1262, 12112.49
307.6083, 12084.28
308.0904, 12045.36
308.5725, 11984.85
309.0547, 11919.88
309.5368, 11862.80
310.0189, 11813.67
310.5010, 11761.27
310.9831, 11695.14
311.4652, 11616.13
311.9474, 11534.75
312.4295, 11451.80
312.9116, 11366.52
313.3937, 11273.97
313.8758, 11178.27
314.3579, 11091.60
314.8401, 11024.38
315.3222, 10967.29
315.8043, 10906.50
316.2864, 10843.13
316.7685, 10769.45
317.2506, 10672.38
317.7328, 10565.70
318.2149, 10473.21
318.6970, 10403.76
319.1791, 10339.13
319.6612, 10263.17
320.1433, 10180.01
320.6255, 10109.32
321.1076, 10063.96
321.5897, 10024.90
322.0718, 9954.410
322.5539, 9845.754
323.0360, 9754.930
323.5182, 9713.370
324.0003, 9691.488
324.4824, 9646.212
324.9645, 9570.274
325.4466, 9496.129
325.9287, 9458.093
326.4109, 9460.842
326.8930, 9444.012
327.3751, 9387.108
327.8572, 9330.116
328.3393, 9298.988
328.8214, 9287.238
329.3036, 9271.595
329.7857, 9237.303
330.2678, 9190.283
330.7499, 9158.539
331.2320, 9160.203
331.7141, 9154.567
332.1963, 9130.361
332.6784, 9100.017
333.1605, 9076.563
333.6426, 9064.095
334.1247, 9058.495
334.6068, 9054.043
335.0890, 9051.358
335.5711, 9048.201
336.0532, 9042.961
336.5353, 9038.718
337.0174, 9034.422
337.4995, 9032.108
337.9817, 9037.664
338.4638, 9058.693
338.9459, 9092.216
339.4280, 9109.244
339.9101, 9088.383
340.3922, 9083.138
340.8744, 9122.322
341.3565, 9179.477
341.8386, 9219.740
342.3207, 9228.495
342.8028, 9224.287
343.2849, 9233.546
343.7671, 9257.497
344.2492, 9286.619
344.7313, 9320.151
345.2134, 9357.484
345.6955, 9402.836
346.1776, 9455.729
346.6598, 9498.873
347.1419, 9513.014
347.6240, 9509.190
348.1061, 9518.052
348.5882, 9543.840
349.0703, 9578.485
349.5525, 9615.033
350.0346, 9655.401
350.5167, 9706.776
350.9988, 9793.216
351.4809, 9873.323
351.9630, 9899.562
352.4452, 9883.556
352.9273, 9889.273
353.4094, 9952.788
353.8915, 10049.66
354.3736, 10115.25
354.8557, 10140.45
355.3379, 10161.53
355.8200, 10182.12
356.3021, 10204.62
356.7842, 10232.95
357.2663, 10267.68
357.7484, 10303.49
358.2306, 10333.97
358.7127, 10357.40
359.1948, 10385.78
359.6769, 10423.14
360.1590, 10460.54
360.6411, 10494.77
361.1233, 10525.87
361.6054, 10552.91
362.0875, 10574.46
362.5696, 10595.09
363.0517, 10632.98
363.5338, 10704.64
364.0160, 10767.22
364.4981, 10818.52
364.9802, 10858.12
365.4623, 10881.03
365.9444, 10888.00
366.4265, 10892.79
366.9087, 10911.02
367.3908, 10943.56
367.8729, 10977.27
368.3550, 11012.97
368.8371, 11048.43
369.3192, 11081.71
369.8014, 11114.04
370.2835, 11148.75
370.7656, 11192.29
371.2477, 11235.18
371.7298, 11259.93
372.2119, 11265.29
372.6941, 11263.31
373.1762, 11250.14
373.6583, 11238.11
374.1404, 11248.31
374.6225, 11289.28
375.1046, 11323.96
375.5868, 11339.59
376.0689, 11334.17
376.5510, 11299.44
377.0331, 11231.83
377.5152, 11148.80
377.9973, 11064.28
378.4795, 10978.14
378.9616, 10902.01
379.4437, 10848.17
379.9258, 10793.73
380.4079, 10722.11
380.8900, 10638.56
381.3722, 10561.42
381.8543, 10501.59
382.3364, 10451.48
382.8185, 10386.71
383.3006, 10298.86
383.7827, 10206.42
384.2649, 10109.32
384.7470, 10008.46
385.2291, 9898.636
385.7112, 9782.436
386.1933, 9674.250
386.6754, 9593.929
387.1576, 9544.434
387.6397, 9471.526
388.1218, 9357.146
388.6039, 9238.049
389.0860, 9118.086
389.5681, 9003.489
390.0503, 8906.375
390.5324, 8833.938
391.0145, 8771.836
391.4966, 8694.394
391.9787, 8599.652
392.4608, 8510.750
392.9430, 8432.793
393.4251, 8365.006
393.9072, 8311.753
394.3893, 8272.348
394.8714, 8223.805
395.3535, 8150.901
395.8357, 8063.159
396.3178, 7973.376
396.7999, 7882.489
397.2820, 7795.449
397.7641, 7716.234
398.2462, 7644.293
398.7284, 7573.091
399.2105, 7491.245
399.6926, 7423.391
400.1747, 7396.866
400.6568, 7386.646
401.1389, 7344.053
401.6211, 7252.577
402.1032, 7148.775
402.5853, 7088.247
403.0674, 7094.293
403.5495, 7073.577
404.0316, 7008.937
404.5138, 6937.220
404.9959, 6871.767
405.4780, 6814.979
405.9601, 6769.479
406.4422, 6738.778
406.9243, 6716.245
407.4065, 6677.961
407.8886, 6616.178
408.3707, 6554.338
408.8528, 6485.689
409.3349, 6425.710
409.8170, 6392.240
410.2992, 6386.203
410.7813, 6382.879
411.2634, 6362.553
411.7455, 6327.068
412.2276, 6283.885
412.7097, 6228.738
413.1919, 6177.671
413.6740, 6146.015
414.1561, 6126.169
414.6382, 6104.875
415.1203, 6079.957
415.6024, 6052.409
416.0846, 6019.673
416.5667, 5984.460
417.0488, 5957.163
417.5309, 5943.026
418.0130, 5931.958
418.4951, 5907.884
418.9773, 5865.016
419.4594, 5828.888
419.9415, 5802.453
420.4236, 5781.545
420.9057, 5767.682
421.3878, 5757.342
421.8700, 5740.250
422.3521, 5708.465
422.8342, 5667.310
423.3163, 5640.712
423.7984, 5644.968
424.2805, 5638.208
424.7627, 5610.092
425.2448, 5574.360
425.7269, 5541.300
426.2090, 5512.704
426.6911, 5485.600
427.1732, 5457.263
427.6554, 5427.641
428.1375, 5397.344
428.6196, 5361.212
429.1017, 5334.653
429.5838, 5336.241
430.0659, 5349.247
430.5481, 5347.858
431.0302, 5321.688
431.5123, 5289.365
431.9944, 5263.254
432.4765, 5243.279
432.9586, 5230.467
433.4408, 5226.493
433.9229, 5224.949
434.4050, 5218.138
434.8871, 5205.457
435.3692, 5193.877
435.8513, 5185.551
436.3335, 5176.846
436.8156, 5165.579
437.2977, 5152.078
437.7798, 5137.765
438.2619, 5123.499
438.7440, 5107.980
439.2262, 5087.599
439.7083, 5057.295
440.1904, 5031.274
440.6725, 5011.856
441.1546, 4994.340
441.6367, 4973.546
442.1189, 4951.193
442.6010, 4934.758
443.0831, 4932.431
443.5652, 4939.518
444.0473, 4937.647
444.5294, 4924.876
445.0116, 4908.522
445.4937, 4886.764
445.9758, 4865.003
446.4579, 4851.201
446.9400, 4848.123
447.4221, 4839.078
447.9043, 4804.156
448.3864, 4757.886
448.8685, 4734.796
449.3506, 4740.896
449.8327, 4747.929
450.3148, 4731.954
450.7970, 4695.916
451.2791, 4672.036
451.7612, 4673.071
452.2433, 4670.473
452.7254, 4650.147
453.2076, 4622.306
453.6897, 4602.345
454.1718, 4594.375
454.6539, 4590.041
455.1360, 4578.562
455.6181, 4558.762
456.1003, 4538.580
456.5824, 4510.493
457.0645, 4490.218
457.5466, 4488.962
458.0287, 4497.265
458.5108, 4499.096
458.9930, 4486.736
459.4751, 4470.313
459.9572, 4465.124
460.4393, 4471.372
460.9214, 4475.653
461.4035, 4472.807
461.8857, 4470.981
462.3678, 4480.882
462.8499, 4499.592
463.3320, 4511.167
463.8141, 4502.702
464.2962, 4492.086
464.7784, 4498.221
465.2605, 4516.958
465.7426, 4530.304
466.2247, 4529.789
466.7068, 4522.125
467.1889, 4519.999
467.6711, 4524.068
468.1532, 4533.256
468.6353, 4549.318
469.1174, 4568.854
469.5995, 4591.305
470.0816, 4615.405
470.5638, 4638.526
471.0459, 4659.123
471.5280, 4677.679
472.0101, 4696.503
472.4922, 4716.888
472.9743, 4733.656
473.4565, 4740.164
473.9386, 4746.592
474.4207, 4762.199
474.9028, 4785.964
475.3849, 4805.371
475.8670, 4809.026
476.3492, 4805.423
476.8313, 4808.630
477.3134, 4819.008
477.7955, 4834.461
478.2776, 4858.703
478.7597, 4883.436
479.2419, 4886.958
479.7240, 4863.385
480.2061, 4837.633
480.6882, 4810.933
481.1703, 4786.400
481.6524, 4773.069
482.1346, 4767.056
482.6167, 4747.745
483.0988, 4696.367
483.5809, 4622.281
484.0630, 4579.231
484.5451, 4602.573
485.0273, 4598.189
485.5094, 4532.341
485.9915, 4451.429
486.4736, 4392.255
486.9557, 4358.267
487.4378, 4330.175
487.9200, 4294.845
488.4021, 4253.691
488.8842, 4211.034
489.3663, 4167.170
489.8484, 4120.105
490.3305, 4064.514
490.8127, 4007.660
491.2948, 3964.522
491.7769, 3938.802
492.2590, 3915.494
492.7411, 3888.910
493.2232, 3862.742
493.7054, 3844.443
494.1875, 3832.908
494.6696, 3815.014
495.1517, 3778.691
495.6338, 3728.882
496.1159, 3697.321
496.5981, 3705.029
497.0802, 3701.957
497.5623, 3674.720
498.0444, 3641.067
498.5265, 3616.517
499.0086, 3602.141
499.4908, 3587.693
499.9729, 3564.100
500.4550, 3533.663
500.9371, 3502.879
501.4192, 3468.850
501.9013, 3447.336
502.3835, 3452.955
502.8656, 3470.811
503.3477, 3477.084
503.8298, 3469.293
504.3119, 3458.588
504.7940, 3445.456
505.2762, 3433.701
505.7583, 3429.978
506.2404, 3433.428
506.7225, 3435.285
507.2046, 3429.321
507.6867, 3417.605
508.1689, 3409.350
508.6510, 3408.844
509.1331, 3405.477
509.6152, 3397.349
510.0973, 3387.350
510.5794, 3374.172
511.0616, 3360.277
511.5437, 3354.111
512.0258, 3365.143
512.5079, 3386.069
512.9901, 3395.307
513.4722, 3390.307
513.9543, 3389.011
514.4364, 3400.270
514.9185, 3416.020
515.4006, 3425.690
515.8828, 3428.944
516.3649, 3431.229
516.8470, 3432.589
517.3291, 3434.892
517.8112, 3442.106
518.2933, 3452.407
518.7755, 3457.911
519.2576, 3453.858
519.7397, 3445.020
520.2218, 3442.795
520.7039, 3450.152
521.1860, 3458.723
521.6682, 3469.023
522.1503, 3479.860
522.6324, 3490.461
523.1145, 3501.110
523.5966, 3512.600
524.0787, 3525.739
524.5609, 3539.212
525.0430, 3549.668
525.5251, 3557.152
526.0072, 3569.281
526.4893, 3590.309
526.9714, 3612.575
527.4536, 3627.536
527.9357, 3636.050
528.4178, 3643.615
528.8999, 3650.137
529.3820, 3656.763
529.8641, 3664.088
530.3463, 3672.037
530.8284, 3680.676
531.3105, 3690.017
531.7926, 3699.058
532.2747, 3706.528
532.7568, 3712.483
533.2390, 3716.635
533.7211, 3716.778
534.2032, 3717.649
534.6853, 3722.770
535.1674, 3728.659
535.6495, 3730.057
536.1317, 3725.123
536.6138, 3718.858
537.0959, 3717.062
537.5780, 3717.729
538.0601, 3713.341
538.5422, 3702.353
539.0244, 3691.697
539.5065, 3686.404
539.9886, 3685.566
540.4707, 3684.635
540.9528, 3689.510
541.4349, 3686.333
541.9171, 3664.141
542.3992, 3637.948
542.8813, 3621.061
543.3634, 3615.150
543.8455, 3616.803
544.3276, 3625.630
544.8098, 3637.522
545.2919, 3631.810
545.7740, 3599.293
546.2561, 3574.529
546.7382, 3575.724
547.2203, 3580.938
547.7024, 3571.846
548.1845, 3549.067
548.6666, 3528.042
549.1487, 3515.977
549.6309, 3508.791
550.1130, 3502.905
550.5951, 3498.143
551.0772, 3494.128
551.5593, 3490.505
552.0414, 3488.664
552.5236, 3492.151
553.0057, 3506.798
553.4878, 3506.484
553.9699, 3467.886
554.4520, 3441.396
554.9341, 3459.240
555.4163, 3498.814
555.8984, 3523.174
556.3805, 3518.621
556.8626, 3503.114
557.3447, 3499.218
557.8268, 3504.775
558.3090, 3499.018
558.7911, 3474.267
559.2732, 3456.931
559.7553, 3469.641
560.2374, 3502.818
560.7195, 3524.468
561.2017, 3532.680
561.6838, 3532.425
562.1659, 3515.323
562.6480, 3496.545
563.1301, 3496.407
563.6122, 3513.280
564.0944, 3526.230
564.5765, 3518.775
565.0586, 3497.781
565.5407, 3491.065
566.0228, 3504.644
566.5049, 3517.287
566.9871, 3524.115
567.4692, 3529.987
567.9513, 3539.945
568.4334, 3552.298
568.9155, 3558.741
569.3976, 3545.229
569.8798, 3533.796
570.3619, 3557.510
570.8440, 3603.459
571.3261, 3625.346
571.8082, 3607.790
572.2903, 3574.329
572.7725, 3551.232
573.2546, 3538.272
573.7367, 3537.702
574.2188, 3563.682
574.7009, 3584.507
575.1830, 3588.395
575.6652, 3585.056
576.1473, 3585.772
576.6294, 3592.920
577.1115, 3600.696
577.5936, 3602.206
578.0757, 3600.154
578.5579, 3604.984
579.0400, 3617.808
579.5221, 3628.363
580.0042, 3629.753
580.4863, 3628.091
580.9684, 3637.281
581.4506, 3661.770
581.9327, 3676.995
582.4148, 3669.338
582.8969, 3660.588
583.3790, 3664.108
583.8611, 3678.198
584.3433, 3699.951
584.8254, 3728.105
585.3075, 3752.651
585.7896, 3751.698
586.2717, 3721.309
586.7538, 3714.109
587.2360, 3747.045
587.7181, 3779.507
588.2002, 3786.194
588.6823, 3777.827
589.1644, 3769.427
589.6465, 3759.258
590.1287, 3759.021
590.6108, 3782.572
591.0929, 3814.790
591.5750, 3837.521
592.0571, 3849.139
592.5392, 3853.840
593.0214, 3853.260
593.5035, 3850.853
593.9856, 3858.327
594.4677, 3881.808
594.9498, 3900.506
595.4319, 3906.176
595.9141, 3912.577
596.3962, 3926.372
596.8783, 3946.372
597.3604, 3969.685
597.8425, 3998.854
598.3246, 4023.738
598.8068, 4028.285
599.2889, 4022.035
599.7710, 4032.639
600.2531, 4065.527
600.7352, 4099.427
601.2173, 4114.993
601.6995, 4115.601
602.1816, 4128.933
602.6637, 4166.474
603.1458, 4201.498
603.6279, 4230.065
604.1100, 4256.965
604.5922, 4288.754
605.0743, 4323.018
605.5564, 4348.592
606.0385, 4355.103
606.5206, 4355.105
607.0027, 4363.482
607.4849, 4381.129
607.9670, 4418.757
608.4491, 4483.924
608.9312, 4551.562
609.4133, 4597.520
609.8954, 4621.653
610.3776, 4637.945
610.8597, 4636.670
611.3418, 4640.560
611.8239, 4657.035
612.3060, 4679.842
612.7881, 4701.680
613.2703, 4722.401
613.7524, 4747.817
614.2345, 4783.419
614.7166, 4825.912
615.1987, 4871.529
615.6808, 4921.123
616.1630, 4950.268
616.6451, 4939.154
617.1272, 4928.010
