##NAMES=Schwartzembergite
##RRUFFID=R050159
##IDEAL CHEMISTRY=Pb^2+^_5_H_2_I^3+^O_6_Cl_3_
##LOCALITY=Ponderosa mine, Sierra Gorda, Antofagasta, Chile
##OWNER=RRUFF
##SOURCE=Jim McGlasson
##DESCRIPTION=Orange thin plates
##STATUS=The identification of this mineral has been confirmed by single-crystal X-ray diffraction.
##URL=rruff.info/R050159
126.7812, 5008.556
127.2633, 5342.320
127.7454, 5691.809
128.2276, 6047.059
128.7097, 6394.717
129.1918, 6749.132
129.6739, 7138.870
130.1560, 7567.052
130.6381, 8025.073
131.1203, 8512.283
131.6024, 9022.455
132.0845, 9539.933
132.5666, 10039.29
133.0487, 10529.78
133.5308, 11049.62
134.0130, 11612.66
134.4951, 12199.06
134.9772, 12777.12
135.4593, 13345.96
135.9414, 13915.59
136.4235, 14484.79
136.9057, 15050.51
137.3878, 15637.72
137.8699, 16276.06
138.3520, 16944.27
138.8341, 17531.19
139.3162, 18042.68
139.7984, 18462.33
140.2805, 18779.55
140.7626, 18986.66
141.2447, 19099.17
141.7268, 19118.73
142.2089, 19044.13
142.6911, 18880.94
143.1732, 18616.62
143.6553, 18274.86
144.1374, 17894.41
144.6195, 17462.42
145.1016, 17017.30
145.5838, 16574.31
146.0659, 16124.50
146.5480, 15687.48
147.0301, 15260.72
147.5122, 14846.89
147.9943, 14437.71
148.4765, 14021.81
148.9586, 13626.42
149.4407, 13257.96
149.9228, 12915.58
150.4049, 12605.72
150.8870, 12340.11
151.3692, 12119.20
151.8513, 11898.46
152.3334, 11657.69
152.8155, 11430.30
153.2976, 11236.02
153.7797, 11107.57
154.2619, 10983.01
154.7440, 10846.35
155.2261, 10693.16
155.7082, 10557.69
156.1903, 10457.46
156.6724, 10372.20
157.1546, 10280.75
157.6367, 10180.55
158.1188, 10071.75
158.6009, 9950.079
159.0830, 9803.631
159.5652, 9673.930
160.0473, 9582.487
160.5294, 9513.950
161.0115, 9440.021
161.4936, 9363.089
161.9757, 9270.350
162.4579, 9151.138
162.9400, 8983.977
163.4221, 8823.463
163.9042, 8697.790
164.3863, 8598.468
164.8684, 8496.615
165.3506, 8369.220
165.8327, 8239.899
166.3148, 8128.876
166.7969, 8057.489
167.2790, 7989.957
167.7611, 7904.596
168.2433, 7803.063
168.7254, 7703.307
169.2075, 7608.573
169.6896, 7523.261
170.1717, 7453.119
170.6538, 7411.729
171.1360, 7378.854
171.6181, 7337.359
172.1002, 7286.416
172.5823, 7239.456
173.0644, 7208.646
173.5465, 7188.246
174.0287, 7167.314
174.5108, 7131.010
174.9929, 7096.325
175.4750, 7085.568
175.9571, 7103.539
176.4392, 7126.013
176.9214, 7121.420
177.4035, 7101.026
177.8856, 7096.179
178.3677, 7145.311
178.8498, 7215.599
179.3319, 7249.885
179.8141, 7230.143
180.2962, 7202.430
180.7783, 7231.389
181.2604, 7306.829
181.7425, 7377.684
182.2246, 7399.970
182.7068, 7392.747
183.1889, 7402.919
183.6710, 7444.085
184.1531, 7498.740
184.6352, 7533.615
185.1173, 7550.401
185.5995, 7574.456
186.0816, 7635.212
186.5637, 7722.094
187.0458, 7796.577
187.5279, 7843.130
188.0100, 7875.054
188.4922, 7920.354
188.9743, 7979.816
189.4564, 8047.063
189.9385, 8119.571
190.4206, 8196.390
190.9027, 8269.539
191.3849, 8333.966
191.8670, 8393.398
192.3491, 8464.261
192.8312, 8548.782
193.3133, 8637.072
193.7955, 8721.493
194.2776, 8801.914
194.7597, 8871.393
195.2418, 8916.294
195.7239, 8942.371
196.2060, 9003.703
196.6882, 9107.846
197.1703, 9227.495
197.6524, 9321.488
198.1345, 9386.918
198.6166, 9453.057
199.0987, 9534.215
199.5809, 9630.411
200.0630, 9720.019
200.5451, 9801.895
201.0272, 9878.101
201.5093, 9952.104
201.9914, 10022.98
202.4736, 10095.82
202.9557, 10175.72
203.4378, 10263.66
203.9199, 10346.95
204.4020, 10425.33
204.8841, 10498.38
205.3663, 10563.54
205.8484, 10619.15
206.3305, 10673.24
206.8126, 10730.80
207.2947, 10792.11
207.7768, 10856.30
208.2590, 10926.84
208.7411, 10998.97
209.2232, 11054.88
209.7053, 11091.53
210.1874, 11119.63
210.6695, 11143.83
211.1517, 11146.36
211.6338, 11210.18
212.1159, 11260.88
212.5980, 11298.94
213.0801, 11298.97
213.5622, 11338.58
214.0444, 11356.51
214.5265, 11369.56
215.0086, 11402.85
215.4907, 11387.01
215.9728, 11411.60
216.4549, 11414.23
216.9371, 11420.85
217.4192, 11405.67
217.9013, 11391.79
218.3834, 11375.13
218.8655, 11378.97
219.3476, 11376.42
219.8298, 11361.30
220.3119, 11333.63
220.7940, 11307.41
221.2761, 11285.08
221.7582, 11261.37
222.2403, 11230.34
222.7225, 11193.04
223.2046, 11146.73
223.6867, 11085.73
224.1688, 11006.27
224.6509, 10952.74
225.1330, 10941.15
225.6152, 10939.83
226.0973, 10906.29
226.5794, 10827.96
227.0615, 10744.00
227.5436, 10662.81
228.0257, 10581.88
228.5079, 10516.69
228.9900, 10477.51
229.4721, 10445.63
229.9542, 10393.06
230.4363, 10312.95
230.9185, 10224.67
231.4006, 10128.82
231.8827, 10019.08
232.3648, 9932.739
232.8469, 9880.660
233.3290, 9844.856
233.8112, 9793.606
234.2933, 9719.839
234.7754, 9642.340
235.2575, 9566.533
235.7396, 9491.663
236.2217, 9421.607
236.7039, 9358.250
237.1860, 9298.283
237.6681, 9235.164
238.1502, 9170.516
238.6323, 9100.196
239.1144, 9018.869
239.5966, 8917.571
240.0787, 8831.324
240.5608, 8765.021
241.0429, 8711.977
241.5250, 8658.781
242.0071, 8610.955
242.4893, 8554.289
242.9714, 8481.458
243.4535, 8378.926
243.9356, 8289.612
244.4177, 8218.384
244.8998, 8159.155
245.3820, 8095.417
245.8641, 8022.168
246.3462, 7951.503
246.8283, 7890.775
247.3104, 7847.907
247.7925, 7796.188
248.2747, 7731.257
248.7568, 7658.152
249.2389, 7590.670
249.7210, 7528.369
250.2031, 7472.360
250.6852, 7425.224
251.1674, 7396.407
251.6495, 7354.093
252.1316, 7292.650
252.6137, 7218.226
253.0958, 7149.679
253.5779, 7084.125
254.0601, 7028.747
254.5422, 6988.897
255.0243, 6969.811
255.5064, 6953.864
255.9885, 6944.683
256.4706, 6937.531
256.9528, 6914.408
257.4349, 6866.773
257.9170, 6817.163
258.3991, 6776.315
258.8812, 6745.013
259.3633, 6722.330
259.8455, 6713.113
260.3276, 6711.391
260.8097, 6694.035
261.2918, 6650.502
261.7739, 6610.365
262.2560, 6592.453
262.7382, 6606.583
263.2203, 6613.050
263.7024, 6607.631
264.1845, 6593.398
264.6666, 6579.972
265.1487, 6566.429
265.6309, 6555.848
266.1130, 6550.250
266.5951, 6550.101
267.0772, 6552.913
267.5593, 6557.580
268.0414, 6565.400
268.5236, 6582.412
269.0057, 6613.058
269.4878, 6642.529
269.9699, 6659.338
270.4520, 6658.268
270.9341, 6669.820
271.4163, 6702.398
271.8984, 6746.307
272.3805, 6768.367
272.8626, 6761.288
273.3447, 6754.493
273.8268, 6768.032
274.3090, 6805.180
274.7911, 6839.295
275.2732, 6866.735
275.7553, 6890.083
276.2374, 6916.532
276.7195, 6947.383
277.2017, 6977.255
277.6838, 7000.986
278.1659, 7017.606
278.6480, 7040.819
279.1301, 7073.653
279.6122, 7111.890
280.0944, 7146.794
280.5765, 7177.759
281.0586, 7207.795
281.5407, 7236.686
282.0229, 7264.368
282.5050, 7301.196
282.9871, 7352.413
283.4692, 7407.722
283.9513, 7442.001
284.4334, 7453.240
284.9156, 7466.966
285.3977, 7502.897
285.8798, 7558.875
286.3619, 7605.426
286.8440, 7638.991
287.3261, 7663.884
287.8083, 7685.078
288.2904, 7702.481
288.7725, 7726.121
289.2546, 7767.344
289.7367, 7821.953
290.2188, 7867.474
290.7010, 7901.029
291.1831, 7927.261
291.6652, 7952.789
292.1473, 7977.699
292.6294, 8000.017
293.1115, 8013.902
293.5937, 8023.741
294.0758, 8047.045
294.5579, 8088.193
295.0400, 8134.210
295.5221, 8166.812
296.0042, 8187.970
296.4864, 8207.505
296.9685, 8232.569
297.4506, 8259.982
297.9327, 8280.523
298.4148, 8292.424
298.8969, 8303.227
299.3791, 8324.947
299.8612, 8354.002
300.3433, 8377.396
300.8254, 8385.322
301.3075, 8384.028
301.7896, 8382.148
302.2718, 8379.717
302.7539, 8379.796
303.2360, 8390.832
303.7181, 8407.221
304.2002, 8415.490
304.6823, 8403.968
305.1645, 8383.140
305.6466, 8365.958
306.1287, 8353.267
306.6108, 8339.337
307.0929, 8316.956
307.5750, 8290.198
308.0572, 8265.572
308.5393, 8248.913
309.0214, 8234.135
309.5035, 8215.249
309.9856, 8192.028
310.4677, 8168.907
310.9499, 8151.618
311.4320, 8135.482
311.9141, 8113.736
312.3962, 8080.492
312.8783, 8043.097
313.3604, 8001.712
313.8426, 7957.142
314.3247, 7922.329
314.8068, 7915.258
315.2889, 7917.852
315.7710, 7911.077
316.2531, 7882.734
316.7353, 7849.058
317.2174, 7814.434
317.6995, 7779.459
318.1816, 7749.063
318.6637, 7723.793
319.1458, 7704.600
319.6280, 7692.253
320.1101, 7701.404
320.5922, 7702.711
321.0743, 7678.261
321.5564, 7634.363
322.0385, 7606.327
322.5207, 7622.092
323.0028, 7644.710
323.4849, 7651.097
323.9670, 7620.574
324.4491, 7594.168
324.9312, 7578.395
325.4134, 7571.515
325.8955, 7566.989
326.3776, 7561.999
326.8597, 7560.718
327.3418, 7565.671
327.8239, 7589.787
328.3061, 7601.915
328.7882, 7590.363
329.2703, 7566.033
329.7524, 7557.085
330.2345, 7576.744
330.7166, 7598.873
331.1988, 7614.624
331.6809, 7622.599
332.1630, 7626.467
332.6451, 7622.924
333.1272, 7616.460
333.6093, 7614.709
334.0915, 7614.592
334.5736, 7624.031
335.0557, 7647.859
335.5378, 7689.917
336.0199, 7728.815
336.5020, 7768.757
336.9842, 7801.841
337.4663, 7812.687
337.9484, 7788.175
338.4305, 7777.913
338.9126, 7802.045
339.3947, 7860.803
339.8769, 7898.514
340.3590, 7908.362
340.8411, 7911.672
341.3232, 7936.681
341.8053, 7987.590
342.2874, 8025.009
342.7696, 8032.342
343.2517, 8017.691
343.7338, 8023.456
344.2159, 8051.420
344.6980, 8090.311
345.1801, 8134.760
345.6623, 8183.689
346.1444, 8226.509
346.6265, 8259.002
347.1086, 8285.216
347.5907, 8316.318
348.0728, 8351.752
348.5550, 8384.759
349.0371, 8402.256
349.5192, 8411.648
350.0013, 8440.437
350.4834, 8499.400
350.9655, 8567.203
351.4477, 8608.717
351.9298, 8629.410
352.4119, 8653.495
352.8940, 8699.236
353.3762, 8757.265
353.8583, 8812.050
354.3404, 8861.491
354.8225, 8908.367
355.3046, 8951.399
355.7867, 8993.598
356.2689, 9042.181
356.7510, 9106.517
357.2331, 9175.558
357.7152, 9239.556
358.1973, 9297.592
358.6794, 9352.543
359.1616, 9408.930
359.6437, 9462.781
360.1258, 9508.538
360.6079, 9524.515
361.0900, 9547.922
361.5721, 9606.040
362.0543, 9698.904
362.5364, 9785.502
363.0185, 9839.526
363.5006, 9884.387
363.9827, 9940.420
364.4648, 10030.42
364.9470, 10114.53
365.4291, 10180.66
365.9112, 10230.07
366.3933, 10277.08
366.8754, 10311.55
367.3575, 10353.14
367.8397, 10412.80
368.3218, 10530.36
368.8039, 10618.54
369.2860, 10657.65
369.7681, 10661.98
370.2502, 10675.32
370.7324, 10702.59
371.2145, 10734.14
371.6966, 10767.58
372.1787, 10807.55
372.6608, 10837.82
373.1429, 10858.98
373.6251, 10870.06
374.1072, 10868.80
374.5893, 10851.18
375.0714, 10829.19
375.5535, 10807.13
376.0356, 10785.56
376.5178, 10756.63
376.9999, 10718.89
377.4820, 10676.66
377.9641, 10636.42
378.4462, 10599.04
378.9283, 10555.88
379.4105, 10502.24
379.8926, 10441.56
380.3747, 10393.12
380.8568, 10359.02
381.3389, 10321.64
381.8210, 10264.49
382.3032, 10189.61
382.7853, 10107.54
383.2674, 10017.57
383.7495, 9925.942
384.2316, 9850.092
384.7137, 9787.708
385.1959, 9726.246
385.6780, 9654.182
386.1601, 9577.205
386.6422, 9513.229
387.1243, 9468.343
387.6064, 9418.902
388.0886, 9327.071
388.5707, 9208.196
389.0528, 9104.387
389.5349, 9044.209
390.0170, 9004.766
390.4991, 8969.907
390.9813, 8939.790
391.4634, 8897.076
391.9455, 8817.240
392.4276, 8721.996
392.9097, 8638.934
393.3918, 8587.266
393.8740, 8541.854
394.3561, 8488.486
394.8382, 8428.762
395.3203, 8376.691
395.8024, 8343.021
396.2845, 8315.959
396.7667, 8287.883
397.2488, 8264.596
397.7309, 8231.188
398.2130, 8178.231
398.6951, 8112.204
399.1772, 8053.308
399.6594, 8015.750
400.1415, 7975.867
400.6236, 7922.741
401.1057, 7843.225
401.5878, 7782.241
402.0699, 7748.805
402.5521, 7729.509
403.0342, 7704.208
403.5163, 7666.483
403.9984, 7634.382
404.4805, 7614.739
404.9626, 7608.038
405.4448, 7593.577
405.9269, 7570.370
406.4090, 7541.210
406.8911, 7507.017
407.3732, 7466.453
407.8553, 7428.123
408.3375, 7391.245
408.8196, 7359.017
409.3017, 7346.313
409.7838, 7354.886
410.2659, 7363.244
410.7480, 7354.174
411.2302, 7331.141
411.7123, 7312.352
412.1944, 7301.283
412.6765, 7291.018
413.1586, 7269.982
413.6407, 7240.452
414.1229, 7213.014
414.6050, 7194.342
415.0871, 7180.090
415.5692, 7161.956
416.0513, 7138.924
416.5334, 7122.386
417.0156, 7135.259
417.4977, 7157.314
417.9798, 7158.069
418.4619, 7097.986
418.9440, 7037.861
419.4261, 7022.098
419.9083, 7043.750
420.3904, 7059.850
420.8725, 7043.538
421.3546, 7019.326
421.8367, 7005.521
422.3188, 7014.235
422.8010, 7018.079
423.2831, 7002.525
423.7652, 6977.816
424.2473, 6965.513
424.7295, 6985.191
425.2116, 7002.384
425.6937, 7006.191
426.1758, 6994.464
426.6579, 6976.590
427.1400, 6943.445
427.6222, 6910.113
428.1043, 6892.432
428.5864, 6898.833
429.0685, 6903.756
429.5506, 6900.933
430.0327, 6892.252
430.5149, 6894.737
430.9970, 6915.359
431.4791, 6930.330
431.9612, 6916.866
432.4433, 6872.309
432.9254, 6844.760
433.4076, 6840.934
433.8897, 6852.656
434.3718, 6868.661
434.8539, 6888.733
435.3360, 6905.374
435.8181, 6915.814
436.3003, 6919.872
436.7824, 6913.788
437.2645, 6896.543
437.7466, 6880.077
438.2287, 6882.318
438.7108, 6894.022
439.1930, 6893.832
439.6751, 6862.575
440.1572, 6828.157
440.6393, 6819.513
441.1214, 6832.737
441.6035, 6848.539
442.0857, 6860.407
442.5678, 6867.427
443.0499, 6868.381
443.5320, 6861.284
444.0141, 6852.448
444.4962, 6841.489
444.9784, 6830.854
445.4605, 6824.635
445.9426, 6835.358
446.4247, 6839.938
446.9068, 6825.777
447.3889, 6788.361
447.8711, 6764.368
448.3532, 6759.173
448.8353, 6765.933
449.3174, 6781.615
449.7995, 6824.302
450.2816, 6844.575
450.7638, 6828.781
451.2459, 6787.251
451.7280, 6760.602
452.2101, 6751.977
452.6922, 6750.750
453.1743, 6753.262
453.6565, 6760.042
454.1386, 6764.125
454.6207, 6764.129
455.1028, 6764.389
455.5849, 6775.928
456.0670, 6797.466
456.5492, 6806.164
457.0313, 6786.484
457.5134, 6751.821
457.9955, 6734.655
458.4776, 6734.443
458.9597, 6740.450
459.4419, 6749.946
459.9240, 6758.597
460.4061, 6757.862
460.8882, 6742.965
461.3703, 6725.465
461.8524, 6710.728
462.3346, 6700.858
462.8167, 6701.151
463.2988, 6725.508
463.7809, 6752.121
464.2630, 6766.905
464.7451, 6767.936
465.2273, 6766.607
465.7094, 6765.465
466.1915, 6764.346
466.6736, 6763.090
467.1557, 6765.572
467.6378, 6763.498
468.1200, 6748.789
468.6021, 6726.431
469.0842, 6719.933
469.5663, 6741.788
470.0484, 6764.924
470.5305, 6779.273
471.0127, 6785.119
471.4948, 6778.633
471.9769, 6752.976
472.4590, 6723.450
472.9411, 6714.706
473.4232, 6731.099
473.9054, 6739.436
474.3875, 6725.592
474.8696, 6697.549
475.3517, 6688.714
475.8338, 6699.669
476.3159, 6717.103
476.7981, 6736.452
477.2802, 6754.465
477.7623, 6760.346
478.2444, 6751.176
478.7265, 6733.744
479.2086, 6715.212
479.6908, 6694.682
480.1729, 6670.041
480.6550, 6632.225
481.1371, 6595.249
481.6192, 6573.773
482.1013, 6567.546
482.5835, 6560.579
483.0656, 6546.610
483.5477, 6527.541
484.0298, 6504.491
484.5119, 6468.686
484.9940, 6441.030
485.4762, 6434.878
485.9583, 6440.369
486.4404, 6432.116
486.9225, 6390.661
487.4046, 6351.938
487.8867, 6326.905
488.3689, 6318.488
488.8510, 6306.221
489.3331, 6290.637
489.8152, 6270.496
490.2973, 6241.096
490.7794, 6197.390
491.2616, 6168.398
491.7437, 6163.501
492.2258, 6172.429
492.7079, 6164.497
493.1900, 6138.809
493.6722, 6115.459
494.1543, 6113.594
494.6364, 6124.218
495.1185, 6111.158
495.6006, 6070.114
496.0828, 6030.670
496.5649, 6029.459
497.0470, 6051.816
497.5291, 6067.588
498.0112, 6063.637
498.4933, 6052.188
498.9755, 6041.998
499.4576, 6032.635
499.9397, 6023.043
500.4218, 6003.865
500.9039, 5990.497
501.3860, 5997.533
501.8682, 6038.131
502.3503, 6061.716
502.8324, 6037.822
503.3145, 5997.931
503.7966, 5979.734
504.2787, 6003.950
504.7609, 6027.366
505.2430, 6046.434
505.7251, 6060.580
506.2072, 6064.403
506.6893, 6051.006
507.1714, 6039.552
507.6536, 6043.831
508.1357, 6067.343
508.6178, 6076.491
509.0999, 6067.961
509.5820, 6050.521
510.0641, 6030.695
510.5463, 6009.622
511.0284, 6002.596
511.5105, 6018.908
511.9926, 6048.758
512.4747, 6077.291
512.9568, 6103.947
513.4390, 6124.034
513.9211, 6131.583
514.4032, 6131.858
514.8853, 6131.190
515.3674, 6130.723
515.8495, 6128.474
516.3317, 6119.138
516.8138, 6108.358
517.2959, 6103.944
517.7780, 6111.378
518.2601, 6122.583
518.7422, 6134.101
519.2244, 6146.377
519.7065, 6164.276
520.1886, 6196.316
520.6707, 6227.036
521.1528, 6249.486
521.6349, 6261.093
522.1171, 6270.533
522.5992, 6275.791
523.0813, 6280.906
523.5634, 6291.734
524.0455, 6308.931
524.5276, 6328.616
525.0098, 6351.019
525.4919, 6374.641
525.9740, 6396.123
526.4561, 6415.653
526.9382, 6430.452
527.4203, 6436.896
527.9025, 6437.741
528.3846, 6439.344
528.8667, 6442.422
529.3488, 6445.614
529.8309, 6447.353
530.3130, 6448.366
530.7952, 6449.856
531.2773, 6452.968
531.7594, 6456.045
532.2415, 6459.619
532.7236, 6462.868
533.2057, 6462.104
533.6879, 6443.080
534.1700, 6430.226
534.6521, 6440.007
535.1342, 6489.921
535.6163, 6515.612
536.0984, 6499.121
536.5806, 6469.437
537.0627, 6457.389
537.5448, 6470.009
538.0269, 6484.024
538.5090, 6499.002
538.9911, 6511.547
539.4733, 6506.707
539.9554, 6482.012
540.4375, 6457.610
540.9196, 6443.666
541.4017, 6439.069
541.8839, 6440.495
542.3660, 6448.281
542.8481, 6458.185
543.3302, 6471.478
543.8123, 6483.422
544.2944, 6482.623
544.7766, 6455.068
545.2587, 6431.489
545.7408, 6442.860
546.2229, 6477.572
546.7050, 6507.136
547.1871, 6519.862
547.6693, 6524.798
548.1514, 6523.801
548.6335, 6516.284
549.1156, 6511.738
549.5977, 6514.305
550.0798, 6518.481
550.5620, 6520.332
551.0441, 6517.239
551.5262, 6517.277
552.0083, 6522.490
552.4904, 6529.747
552.9725, 6530.834
553.4547, 6523.174
553.9368, 6523.415
554.4189, 6541.229
554.9010, 6570.822
555.3831, 6590.876
555.8652, 6601.394
556.3474, 6602.237
556.8295, 6583.896
557.3116, 6557.269
557.7937, 6546.114
558.2758, 6555.615
558.7579, 6572.028
559.2401, 6586.175
559.7222, 6598.936
560.2043, 6611.569
560.6864, 6629.678
561.1685, 6642.827
561.6506, 6643.280
562.1328, 6633.479
562.6149, 6626.631
563.0970, 6624.625
563.5791, 6626.726
564.0612, 6633.795
564.5433, 6648.685
565.0255, 6656.549
565.5076, 6651.067
565.9897, 6645.969
566.4718, 6659.156
566.9539, 6695.361
567.4360, 6716.640
567.9182, 6709.925
568.4003, 6693.735
568.8824, 6716.166
569.3645, 6773.190
569.8466, 6817.813
570.3287, 6812.571
570.8109, 6783.329
571.2930, 6772.315
571.7751, 6779.562
572.2572, 6792.770
572.7393, 6807.243
573.2214, 6821.478
573.7036, 6833.963
574.1857, 6844.050
574.6678, 6853.091
575.1499, 6859.105
575.6320, 6864.896
576.1141, 6874.681
576.5963, 6893.309
577.0784, 6911.306
577.5605, 6928.891
578.0426, 6944.920
578.5247, 6952.495
579.0068, 6948.646
579.4890, 6942.279
579.9711, 6936.371
580.4532, 6930.681
580.9353, 6930.607
581.4174, 6936.134
581.8995, 6947.366
582.3817, 6968.971
582.8638, 6997.273
583.3459, 7018.324
583.8280, 7027.281
584.3101, 7030.590
584.7922, 7032.040
585.2744, 7033.271
585.7565, 7038.519
586.2386, 7050.020
586.7207, 7065.949
587.2028, 7088.457
587.6849, 7116.983
588.1671, 7139.295
588.6492, 7146.342
589.1313, 7150.188
589.6134, 7157.685
590.0955, 7168.552
590.5776, 7184.702
591.0598, 7210.967
591.5419, 7238.175
592.0240, 7253.108
592.5061, 7253.292
592.9882, 7253.403
593.4703, 7255.965
593.9525, 7260.908
594.4346, 7265.172
594.9167, 7269.490
595.3988, 7284.137
595.8809, 7324.309
596.3630, 7375.112
596.8452, 7411.678
597.3273, 7432.671
597.8094, 7450.806
598.2915, 7474.312
598.7736, 7499.076
599.2557, 7521.448
599.7379, 7540.993
600.2200, 7556.855
600.7021, 7564.294
601.1843, 7568.985
601.6664, 7579.884
602.1485, 7595.812
602.6306, 7620.814
603.1127, 7661.068
603.5948, 7711.526
604.0770, 7744.246
604.5591, 7754.708
605.0412, 7761.516
605.5233, 7771.122
606.0054, 7784.205
606.4875, 7807.594
606.9697, 7841.477
607.4518, 7881.922
607.9339, 7936.169
608.4160, 7992.655
608.8981, 8020.860
609.3802, 8003.321
609.8624, 7988.360
610.3445, 8016.301
610.8266, 8070.821
611.3087, 8125.162
611.7908, 8177.172
612.2729, 8219.877
612.7551, 8241.587
613.2372, 8246.903
613.7193, 8269.796
614.2014, 8323.397
614.6835, 8379.179
615.1656, 8424.148
615.6478, 8456.057
616.1299, 8499.685
616.6120, 8560.443
617.0941, 8618.396
617.5762, 8649.336
618.0583, 8657.671
618.5405, 8677.208
619.0226, 8712.341
619.5047, 8762.021
619.9868, 8838.680
620.4689, 8929.256
620.9510, 9004.608
621.4332, 9033.421
621.9153, 9059.093
622.3974, 9110.343
622.8795, 9182.959
623.3616, 9259.804
623.8438, 9337.590
624.3259, 9416.607
624.8080, 9495.019
