##NAMES=Schwartzembergite
##RRUFFID=R070429
##IDEAL CHEMISTRY=Pb^2+^_5_H_2_I^3+^O_6_Cl_3_
##LOCALITY=Venado mine, Copiapo, Chile
##OWNER=RRUFF
##SOURCE=Bob Jenkins
##DESCRIPTION=Bright yellow/orange tabular crystals associated with blue diaboleite and colorless cerussite
##STATUS=The identification of this mineral has been confirmed only by single crystal X-ray diffraction.
##URL=rruff.info/R070429
166.8303, 3742.451
167.3124, 3722.224
167.7945, 3713.090
168.2766, 3712.253
168.7587, 3715.027
169.2408, 3724.242
169.7230, 3730.490
170.2051, 3728.777
170.6872, 3721.225
171.1693, 3710.080
171.6514, 3692.950
172.1335, 3674.290
172.6157, 3666.668
173.0978, 3675.825
173.5799, 3684.726
174.0620, 3682.049
174.5441, 3674.952
175.0262, 3674.257
175.5084, 3687.114
175.9905, 3708.591
176.4726, 3723.983
176.9547, 3726.508
177.4368, 3735.944
177.9189, 3764.192
178.4010, 3801.740
178.8832, 3834.972
179.3653, 3855.528
179.8474, 3869.509
180.3295, 3895.608
180.8116, 3938.828
181.2937, 3986.262
181.7759, 4038.629
182.2580, 4090.747
182.7401, 4134.859
183.2222, 4165.809
183.7043, 4188.741
184.1864, 4218.218
184.6686, 4255.585
185.1507, 4297.604
185.6328, 4340.860
186.1149, 4387.908
186.5970, 4443.375
187.0791, 4510.646
187.5613, 4584.007
188.0434, 4648.780
188.5255, 4696.063
189.0076, 4749.449
189.4897, 4815.882
189.9718, 4888.664
190.4540, 4962.094
190.9361, 5033.243
191.4182, 5102.871
191.9003, 5172.384
192.3824, 5240.747
192.8645, 5311.561
193.3467, 5386.600
193.8288, 5463.601
194.3109, 5539.330
194.7930, 5612.402
195.2751, 5686.856
195.7572, 5772.939
196.2394, 5886.095
196.7215, 5982.228
197.2036, 6042.676
197.6857, 6093.901
198.1678, 6158.315
198.6499, 6243.667
199.1321, 6341.555
199.6142, 6437.406
200.0963, 6532.790
200.5784, 6622.685
201.0605, 6704.372
201.5426, 6783.204
202.0248, 6862.273
202.5069, 6942.880
202.9890, 7023.433
203.4711, 7101.947
203.9532, 7179.053
204.4353, 7251.916
204.9175, 7319.411
205.3996, 7384.271
205.8817, 7447.844
206.3638, 7510.649
206.8459, 7573.013
207.3280, 7635.201
207.8102, 7694.564
208.2923, 7759.739
208.7744, 7839.639
209.2565, 7917.966
209.7386, 7986.286
210.2207, 8042.779
210.7029, 8089.808
211.1850, 8127.620
211.6671, 8150.758
212.1492, 8184.302
212.6313, 8237.214
213.1134, 8291.887
213.5956, 8339.079
214.0777, 8379.120
214.5598, 8419.141
215.0419, 8469.323
215.5240, 8534.657
216.0061, 8575.070
216.4883, 8570.350
216.9704, 8560.043
217.4525, 8552.552
217.9346, 8551.473
218.4167, 8562.342
218.8988, 8595.048
219.3810, 8651.148
219.8631, 8671.918
220.3452, 8619.348
220.8273, 8566.422
221.3094, 8532.729
221.7915, 8513.790
222.2737, 8497.703
222.7558, 8477.250
223.2379, 8452.064
223.7200, 8420.267
224.2021, 8383.517
224.6842, 8336.825
225.1664, 8272.699
225.6485, 8199.210
226.1306, 8128.883
226.6127, 8069.962
227.0948, 8017.855
227.5770, 7953.349
228.0591, 7870.563
228.5412, 7781.269
229.0233, 7680.045
229.5054, 7576.889
229.9875, 7484.090
230.4697, 7407.443
230.9518, 7340.648
231.4339, 7268.021
231.9160, 7189.645
232.3981, 7104.652
232.8802, 7005.979
233.3624, 6905.789
233.8445, 6815.032
234.3266, 6737.408
234.8087, 6665.146
235.2908, 6585.268
235.7729, 6493.917
236.2551, 6403.313
236.7372, 6307.995
237.2193, 6217.284
237.7014, 6139.258
238.1835, 6074.592
238.6656, 6014.323
239.1478, 5948.133
239.6299, 5875.947
240.1120, 5797.246
240.5941, 5701.443
241.0762, 5607.826
241.5583, 5526.729
242.0405, 5457.436
242.5226, 5391.824
243.0047, 5321.391
243.4868, 5245.196
243.9689, 5174.346
244.4510, 5115.301
244.9332, 5055.031
245.4153, 4987.264
245.8974, 4913.947
246.3795, 4841.219
246.8616, 4772.750
247.3437, 4708.076
247.8259, 4647.660
248.3080, 4598.377
248.7901, 4543.503
249.2722, 4475.520
249.7543, 4398.752
250.2364, 4319.664
250.7186, 4239.212
251.2007, 4160.691
251.6828, 4093.469
252.1649, 4039.599
252.6470, 3993.224
253.1291, 3958.711
253.6113, 3927.322
254.0934, 3887.905
254.5755, 3834.810
255.0576, 3778.680
255.5397, 3738.687
256.0219, 3720.621
256.5040, 3697.056
256.9861, 3650.499
257.4682, 3601.066
257.9503, 3564.851
258.4324, 3545.632
258.9146, 3529.742
259.3967, 3500.633
259.8788, 3457.407
260.3609, 3420.652
260.8430, 3394.758
261.3251, 3376.473
261.8073, 3366.950
262.2894, 3365.082
262.7715, 3358.898
263.2536, 3335.827
263.7357, 3299.321
264.2178, 3270.245
264.7000, 3253.368
265.1821, 3240.391
265.6642, 3222.232
266.1463, 3201.718
266.6284, 3189.173
267.1105, 3196.800
267.5927, 3214.355
268.0748, 3217.897
268.5569, 3202.362
269.0390, 3187.565
269.5211, 3190.192
270.0032, 3202.702
270.4854, 3212.971
270.9675, 3217.079
271.4496, 3218.339
271.9317, 3219.943
272.4138, 3221.888
272.8959, 3223.956
273.3781, 3222.621
273.8602, 3223.433
274.3423, 3236.402
274.8244, 3267.048
275.3065, 3300.782
275.7886, 3327.170
276.2708, 3348.160
276.7529, 3373.557
277.2350, 3410.563
277.7171, 3448.225
278.1992, 3465.954
278.6813, 3459.565
279.1635, 3457.379
279.6456, 3471.683
280.1277, 3496.330
280.6098, 3520.135
281.0919, 3540.241
281.5740, 3562.217
282.0562, 3594.405
282.5383, 3637.607
283.0204, 3678.510
283.5025, 3713.410
283.9846, 3746.770
284.4667, 3782.148
284.9489, 3819.998
285.4310, 3860.269
285.9131, 3902.669
286.3952, 3947.322
286.8773, 3995.358
287.3594, 4050.951
287.8416, 4105.621
288.3237, 4153.077
288.8058, 4196.181
289.2879, 4243.625
289.7700, 4301.506
290.2521, 4365.319
290.7343, 4414.599
291.2164, 4438.110
291.6985, 4462.184
292.1806, 4490.792
292.6627, 4522.044
293.1448, 4554.617
293.6270, 4587.932
294.1091, 4619.831
294.5912, 4645.980
295.0733, 4661.648
295.5554, 4680.466
296.0375, 4705.861
296.5197, 4731.578
297.0018, 4751.651
297.4839, 4766.426
297.9660, 4781.976
298.4481, 4806.123
298.9302, 4841.865
299.4124, 4865.171
299.8945, 4864.565
300.3766, 4863.386
300.8587, 4869.469
301.3408, 4881.303
301.8229, 4895.592
302.3050, 4911.875
302.7871, 4927.054
303.2693, 4923.571
303.7514, 4882.018
304.2335, 4850.237
304.7156, 4843.113
305.1977, 4847.483
305.6798, 4852.005
306.1620, 4852.827
306.6441, 4845.693
307.1262, 4819.136
307.6083, 4764.954
308.0904, 4722.397
308.5725, 4711.489
309.0547, 4705.427
309.5368, 4689.384
310.0189, 4661.797
310.5010, 4629.702
310.9831, 4599.534
311.4652, 4570.705
311.9474, 4536.582
312.4295, 4493.208
312.9116, 4449.649
313.3937, 4413.249
313.8758, 4381.159
314.3579, 4346.293
314.8401, 4304.112
315.3222, 4257.767
315.8043, 4210.940
316.2864, 4162.615
316.7685, 4120.215
317.2506, 4091.520
317.7328, 4070.708
318.2149, 4049.426
318.6970, 4030.935
319.1791, 4004.642
319.6612, 3954.418
320.1433, 3887.057
320.6255, 3833.404
321.1076, 3807.295
321.5897, 3794.576
322.0718, 3771.332
322.5539, 3735.389
323.0360, 3705.043
323.5182, 3689.693
324.0003, 3680.907
324.4824, 3667.479
324.9645, 3647.482
325.4466, 3626.229
325.9287, 3608.593
326.4109, 3595.003
326.8930, 3582.012
327.3751, 3570.512
327.8572, 3558.713
328.3393, 3542.117
328.8214, 3523.844
329.3036, 3514.946
329.7857, 3523.727
330.2678, 3543.594
330.7499, 3544.304
331.2320, 3499.816
331.7141, 3468.375
332.1963, 3466.303
332.6784, 3475.415
333.1605, 3474.431
333.6426, 3457.454
334.1247, 3436.427
334.6068, 3429.605
335.0890, 3442.966
335.5711, 3454.799
336.0532, 3467.728
336.5353, 3477.061
337.0174, 3477.334
337.4995, 3471.148
337.9817, 3466.837
338.4638, 3471.937
338.9459, 3484.968
339.4280, 3491.913
339.9101, 3485.419
340.3922, 3483.808
340.8744, 3493.728
341.3565, 3510.502
341.8386, 3529.509
342.3207, 3549.927
342.8028, 3567.954
343.2849, 3575.219
343.7671, 3569.348
344.2492, 3569.546
344.7313, 3578.893
345.2134, 3597.976
345.6955, 3634.337
346.1776, 3687.211
346.6598, 3728.563
347.1419, 3730.153
347.6240, 3706.885
348.1061, 3701.950
348.5882, 3723.937
349.0703, 3750.617
349.5525, 3763.679
350.0346, 3767.339
350.5167, 3773.741
350.9988, 3782.587
351.4809, 3796.898
351.9630, 3824.004
352.4452, 3860.852
352.9273, 3891.732
353.4094, 3909.251
353.8915, 3916.246
354.3736, 3918.809
354.8557, 3914.906
355.3379, 3911.905
355.8200, 3908.675
356.3021, 3908.436
356.7842, 3916.768
357.2663, 3934.409
357.7484, 3954.895
358.2306, 3971.777
358.7127, 3985.684
359.1948, 3991.415
359.6769, 3978.653
360.1590, 3969.144
360.6411, 3976.362
361.1233, 3994.349
361.6054, 4007.722
362.0875, 4006.528
362.5696, 3997.322
363.0517, 4005.965
363.5338, 4056.170
364.0160, 4085.402
364.4981, 4071.072
364.9802, 4044.771
365.4623, 4030.497
365.9444, 4034.221
366.4265, 4050.176
366.9087, 4075.901
367.3908, 4112.643
367.8729, 4141.498
368.3550, 4160.096
368.8371, 4172.076
369.3192, 4176.710
369.8014, 4176.820
370.2835, 4178.903
370.7656, 4186.658
371.2477, 4197.585
371.7298, 4207.877
372.2119, 4217.561
372.6941, 4226.111
373.1762, 4232.166
373.6583, 4237.614
374.1404, 4245.958
374.6225, 4258.724
375.1046, 4269.230
375.5868, 4277.101
376.0689, 4279.691
376.5510, 4268.193
377.0331, 4239.190
377.5152, 4208.925
377.9973, 4195.845
378.4795, 4202.350
378.9616, 4198.782
379.4437, 4178.163
379.9258, 4153.382
380.4079, 4133.245
380.8900, 4115.496
381.3722, 4092.139
381.8543, 4058.210
382.3364, 4018.003
382.8185, 3983.930
383.3006, 3960.893
383.7827, 3938.441
384.2649, 3918.794
384.7470, 3898.105
385.2291, 3871.594
385.7112, 3839.499
386.1933, 3807.508
386.6754, 3782.585
387.1576, 3765.499
387.6397, 3742.577
388.1218, 3711.611
388.6039, 3676.532
389.0860, 3633.658
389.5681, 3588.887
390.0503, 3552.460
390.5324, 3529.743
391.0145, 3513.039
391.4966, 3490.629
391.9787, 3462.381
392.4608, 3429.860
392.9430, 3387.510
393.4251, 3346.710
393.9072, 3320.266
394.3893, 3307.993
394.8714, 3294.506
395.3535, 3269.595
395.8357, 3239.609
396.3178, 3216.350
396.7999, 3201.325
397.2820, 3184.232
397.7641, 3154.571
398.2462, 3116.907
398.7284, 3093.794
399.2105, 3104.667
399.6926, 3108.295
400.1747, 3080.521
400.6568, 3036.945
401.1389, 3003.992
401.6211, 2990.234
402.1032, 2985.477
402.5853, 2974.333
403.0674, 2953.083
403.5495, 2936.995
404.0316, 2926.539
404.5138, 2919.855
404.9959, 2919.988
405.4780, 2923.141
405.9601, 2920.804
406.4422, 2907.094
406.9243, 2885.096
407.4065, 2864.951
407.8886, 2843.601
408.3707, 2830.872
408.8528, 2839.132
409.3349, 2849.083
409.8170, 2844.466
410.2992, 2823.217
410.7813, 2796.961
411.2634, 2775.454
411.7455, 2757.466
412.2276, 2736.972
412.7097, 2712.678
413.1919, 2688.249
413.6740, 2667.465
414.1561, 2648.275
414.6382, 2626.822
415.1203, 2599.709
415.6024, 2573.255
416.0846, 2553.177
416.5667, 2537.635
417.0488, 2521.045
417.5309, 2501.522
418.0130, 2480.351
418.4951, 2458.748
418.9773, 2435.265
419.4594, 2417.155
419.9415, 2412.460
420.4236, 2406.960
420.9057, 2387.838
421.3878, 2358.679
421.8700, 2332.746
422.3521, 2318.591
422.8342, 2314.074
423.3163, 2310.315
423.7984, 2311.095
424.2805, 2306.368
424.7627, 2289.836
425.2448, 2271.445
425.7269, 2260.143
426.2090, 2256.667
426.6911, 2254.406
427.1732, 2247.839
427.6554, 2237.029
428.1375, 2221.890
428.6196, 2196.981
429.1017, 2178.386
429.5838, 2179.212
430.0659, 2190.066
430.5481, 2197.873
431.0302, 2200.078
431.5123, 2197.542
431.9944, 2187.320
432.4765, 2172.319
432.9586, 2164.886
433.4408, 2170.434
433.9229, 2176.473
434.4050, 2166.156
434.8871, 2137.268
435.3692, 2116.153
435.8513, 2110.350
436.3335, 2107.218
436.8156, 2097.706
437.2977, 2084.405
437.7798, 2075.516
438.2619, 2075.542
438.7440, 2080.535
439.2262, 2080.436
439.7083, 2072.318
440.1904, 2064.096
440.6725, 2055.839
441.1546, 2047.582
441.6367, 2038.825
442.1189, 2029.962
442.6010, 2022.225
443.0831, 2016.805
443.5652, 2013.182
444.0473, 2009.546
444.5294, 2006.207
445.0116, 2001.982
445.4937, 1996.293
445.9758, 1989.464
446.4579, 1981.275
446.9400, 1971.484
447.4221, 1962.315
447.9043, 1955.564
448.3864, 1950.308
448.8685, 1944.166
449.3506, 1936.632
449.8327, 1930.681
450.3148, 1929.238
450.7970, 1931.758
451.2791, 1932.223
451.7612, 1930.635
452.2433, 1927.188
452.7254, 1920.021
453.2076, 1911.720
453.6897, 1906.239
454.1718, 1904.598
454.6539, 1904.442
455.1360, 1903.264
455.6181, 1901.699
456.1003, 1895.538
456.5824, 1871.563
457.0645, 1856.788
457.5466, 1867.482
458.0287, 1890.986
458.5108, 1906.548
458.9930, 1904.843
459.4751, 1895.114
459.9572, 1889.491
460.4393, 1888.029
460.9214, 1888.832
461.4035, 1893.784
461.8857, 1897.815
462.3678, 1894.660
462.8499, 1885.941
463.3320, 1880.351
463.8141, 1880.032
464.2962, 1883.970
464.7784, 1892.450
465.2605, 1904.683
465.7426, 1918.647
466.2247, 1934.117
466.7068, 1948.514
467.1889, 1956.457
467.6711, 1954.581
468.1532, 1952.860
468.6353, 1947.039
469.1174, 1945.011
469.5995, 1953.401
470.0816, 1970.098
470.5638, 1988.784
471.0459, 2006.052
471.5280, 2021.278
472.0101, 2032.476
472.4922, 2037.974
472.9743, 2043.813
473.4565, 2052.060
473.9386, 2060.437
474.4207, 2065.419
474.9028, 2067.852
475.3849, 2075.344
475.8670, 2099.381
476.3492, 2128.409
476.8313, 2140.858
477.3134, 2136.090
477.7955, 2130.080
478.2776, 2131.353
478.7597, 2135.934
479.2419, 2133.407
479.7240, 2120.310
480.2061, 2109.998
480.6882, 2110.724
481.1703, 2111.480
481.6524, 2100.124
482.1346, 2077.594
482.6167, 2055.150
483.0988, 2041.615
483.5809, 2034.621
484.0630, 2020.474
484.5451, 1995.133
485.0273, 1968.888
485.5094, 1941.747
485.9915, 1915.439
486.4736, 1889.390
486.9557, 1864.522
487.4378, 1846.554
487.9200, 1845.777
488.4021, 1855.049
488.8842, 1852.245
489.3663, 1836.048
489.8484, 1813.726
490.3305, 1782.838
490.8127, 1751.430
491.2948, 1736.661
491.7769, 1745.102
492.2590, 1750.777
492.7411, 1742.693
493.2232, 1728.563
493.7054, 1715.952
494.1875, 1706.124
494.6696, 1698.917
495.1517, 1695.011
495.6338, 1693.106
496.1159, 1684.339
496.5981, 1660.022
497.0802, 1641.080
497.5623, 1629.615
498.0444, 1623.921
498.5265, 1624.837
499.0086, 1631.100
499.4908, 1637.062
499.9729, 1638.802
500.4550, 1636.499
500.9371, 1629.015
501.4192, 1614.064
501.9013, 1603.907
502.3835, 1607.757
502.8656, 1617.269
503.3477, 1619.137
503.8298, 1611.772
504.3119, 1602.488
504.7940, 1595.042
505.2762, 1586.531
505.7583, 1569.300
506.2404, 1545.350
506.7225, 1530.704
507.2046, 1537.279
507.6867, 1559.850
508.1689, 1575.648
508.6510, 1583.552
509.1331, 1585.691
509.6152, 1574.094
510.0973, 1563.287
510.5794, 1567.060
511.0616, 1583.251
511.5437, 1596.854
512.0258, 1594.977
512.5079, 1584.124
512.9901, 1583.898
513.4722, 1596.798
513.9543, 1604.996
514.4364, 1600.397
514.9185, 1589.564
515.4006, 1580.153
515.8828, 1571.922
516.3649, 1567.557
516.8470, 1567.001
517.3291, 1571.250
517.8112, 1586.163
518.2933, 1607.878
518.7755, 1621.452
519.2576, 1618.270
519.7397, 1605.077
520.2218, 1597.632
520.7039, 1596.631
521.1860, 1600.415
521.6682, 1614.029
522.1503, 1627.106
522.6324, 1633.981
523.1145, 1635.705
523.5966, 1635.258
524.0787, 1632.824
524.5609, 1632.112
525.0430, 1642.133
525.5251, 1662.778
526.0072, 1676.119
526.4893, 1675.628
526.9714, 1670.279
527.4536, 1669.647
527.9357, 1673.037
528.4178, 1674.280
528.8999, 1667.833
529.3820, 1663.648
529.8641, 1668.932
530.3463, 1680.479
530.8284, 1692.725
531.3105, 1703.692
531.7926, 1712.613
532.2747, 1718.541
532.7568, 1721.524
533.2390, 1721.209
533.7211, 1712.212
534.2032, 1706.138
534.6853, 1710.108
535.1674, 1717.651
535.6495, 1719.113
536.1317, 1711.197
536.6138, 1702.205
537.0959, 1698.165
537.5780, 1699.197
538.0601, 1708.983
538.5422, 1729.758
539.0244, 1744.697
539.5065, 1739.129
539.9886, 1717.890
540.4707, 1705.566
540.9528, 1708.797
541.4349, 1710.619
541.9171, 1707.046
542.3992, 1700.920
542.8813, 1694.741
543.3634, 1688.826
543.8455, 1682.112
544.3276, 1673.336
544.8098, 1663.469
545.2919, 1656.976
545.7740, 1654.834
546.2561, 1653.431
546.7382, 1653.253
547.2203, 1652.442
547.7024, 1647.792
548.1845, 1639.958
548.6666, 1636.264
549.1487, 1647.026
549.6309, 1658.525
550.1130, 1651.584
550.5951, 1630.687
551.0772, 1617.000
551.5593, 1619.500
552.0414, 1629.739
552.5236, 1634.137
553.0057, 1630.785
553.4878, 1627.958
553.9699, 1626.178
554.4520, 1624.274
554.9341, 1619.050
555.4163, 1614.232
555.8984, 1617.872
556.3805, 1633.277
556.8626, 1647.845
557.3447, 1642.236
557.8268, 1619.782
558.3090, 1608.906
558.7911, 1614.951
559.2732, 1623.933
559.7553, 1627.639
560.2374, 1627.099
560.7195, 1625.888
561.2017, 1621.194
561.6838, 1620.798
562.1659, 1632.095
562.6480, 1645.871
563.1301, 1651.534
563.6122, 1648.969
564.0944, 1645.506
564.5765, 1646.634
565.0586, 1650.759
565.5407, 1651.538
566.0228, 1647.978
566.5049, 1643.555
566.9871, 1633.788
567.4692, 1627.569
567.9513, 1633.505
568.4334, 1649.058
568.9155, 1661.907
569.3976, 1668.002
569.8798, 1668.165
570.3619, 1659.054
570.8440, 1644.251
571.3261, 1636.020
571.8082, 1638.239
572.2903, 1647.110
572.7725, 1659.667
573.2546, 1677.443
573.7367, 1684.500
574.2188, 1669.594
574.7009, 1658.040
575.1830, 1655.963
575.6652, 1660.602
576.1473, 1670.777
576.6294, 1685.368
577.1115, 1698.222
577.5936, 1703.447
578.0757, 1702.493
578.5579, 1698.923
579.0400, 1692.180
579.5221, 1688.644
580.0042, 1692.942
580.4863, 1700.648
580.9684, 1702.780
581.4506, 1698.091
581.9327, 1694.363
582.4148, 1689.691
582.8969, 1688.987
583.3790, 1699.366
583.8611, 1715.832
584.3433, 1727.273
584.8254, 1728.496
585.3075, 1725.225
585.7896, 1725.495
586.2717, 1729.203
586.7538, 1738.599
587.2360, 1758.295
587.7181, 1776.401
588.2002, 1785.354
588.6823, 1788.527
589.1644, 1790.553
589.6465, 1790.927
590.1287, 1793.198
590.6108, 1802.976
591.0929, 1813.507
591.5750, 1813.709
592.0571, 1804.618
592.5392, 1797.541
593.0214, 1799.926
593.5035, 1809.811
593.9856, 1821.833
594.4677, 1838.130
594.9498, 1851.335
595.4319, 1859.428
595.9141, 1865.414
596.3962, 1867.914
596.8783, 1869.501
597.3604, 1876.792
597.8425, 1895.059
598.3246, 1914.162
598.8068, 1922.188
599.2889, 1924.179
599.7710, 1935.677
600.2531, 1959.766
600.7352, 1981.018
601.2173, 1984.654
601.6995, 1973.919
602.1816, 1975.392
602.6637, 1999.662
603.1458, 2022.143
603.6279, 2042.786
604.1100, 2059.617
604.5922, 2067.698
605.0743, 2069.899
605.5564, 2077.513
606.0385, 2101.313
606.5206, 2128.259
607.0027, 2135.480
607.4849, 2125.847
607.9670, 2121.975
608.4491, 2129.539
608.9312, 2144.245
609.4133, 2164.182
609.8954, 2189.373
610.3776, 2204.793
610.8597, 2204.011
611.3418, 2202.568
611.8239, 2199.716
612.3060, 2200.625
612.7881, 2213.398
613.2703, 2236.640
613.7524, 2258.568
614.2345, 2270.188
614.7166, 2274.281
615.1987, 2276.425
615.6808, 2276.442
616.1630, 2278.535
616.6451, 2283.984
617.1272, 2291.677
617.6093, 2298.876
618.0914, 2305.600
618.5735, 2321.790
619.0557, 2361.139
619.5378, 2394.597
620.0199, 2407.142
620.5020, 2409.363
620.9841, 2412.867
621.4662, 2420.951
621.9484, 2433.429
622.4305, 2450.801
622.9126, 2472.160
623.3947, 2494.643
623.8768, 2519.033
624.3589, 2539.425
624.8411, 2551.008
625.3232, 2561.303
625.8053, 2579.104
626.2874, 2603.956
626.7695, 2631.419
627.2516, 2659.167
627.7338, 2691.145
628.2159, 2729.535
628.6980, 2773.133
629.1801, 2823.414
629.6622, 2878.743
630.1443, 2928.101
630.6265, 2957.048
631.1086, 2971.234
631.5907, 3004.152
632.0728, 3060.467
632.5549, 3117.440
633.0370, 3164.769
633.5192, 3213.724
634.0013, 3280.457
634.4834, 3363.624
634.9655, 3439.456
635.4476, 3491.182
635.9297, 3546.370
636.4119, 3621.913
636.8940, 3710.470
637.3761, 3800.072
637.8582, 3887.900
638.3403, 3978.440
638.8224, 4073.550
639.3046, 4175.484
639.7867, 4299.560
640.2688, 4454.895
640.7509, 4600.234
641.2330, 4711.732
641.7151, 4819.333
642.1973, 4954.112
642.6794, 5114.669
643.1615, 5283.546
643.6436, 5454.209
644.1257, 5635.518
644.6078, 5829.093
645.0900, 6037.940
645.5721, 6267.996
646.0542, 6518.883
646.5363, 6779.263
647.0184, 7035.160
647.5005, 7291.618
647.9827, 7575.339
648.4648, 7887.918
648.9469, 8213.909
649.4290, 8545.893
649.9111, 8893.435
650.3932, 9266.648
650.8754, 9664.241
651.3575, 10092.26
651.8396, 10569.87
652.3217, 11059.32
652.8038, 11536.01
653.2859, 12020.31
653.7681, 12543.93
654.2502, 13107.26
654.7323, 13675.88
655.2144, 14216.09
655.6965, 14747.97
656.1786, 15338.35
656.6608, 15998.51
657.1429, 16648.10
657.6250, 17261.91
658.1071, 17867.71
658.5892, 18489.94
659.0714, 19124.32
659.5535, 19741.08
660.0356, 20335.52
660.5177, 20917.35
660.9998, 21499.46
661.4819, 22064.08
661.9641, 22592.45
662.4462, 23085.14
662.9283, 23569.11
663.4104, 24069.61
