##NAMES=Scolecite
##RRUFFID=R040111
##IDEAL CHEMISTRY=Ca(Si_3_Al_2_)O_10_&#183;3H_2_O
##LOCALITY=Bombay-Poona area, Mahahashtra Province, India
##OWNER=RRUFF
##SOURCE=National Museums of Canada
##DESCRIPTION=Pale pink prismatic crystals in parallel or near parallel aggregates
##STATUS=The identification of this mineral has been confirmed by X-ray diffraction and chemical analysis
##URL=rruff.info/R040111
##MEASURED CHEMISTRY=Ca_0.98_(Si_3.05_Al_1.95_)O_10_Â·3H_2_O
147.2512, 4216.079
147.7334, 4296.931
148.2155, 4402.602
148.6976, 4512.752
149.1797, 4619.398
149.6618, 4733.211
150.1439, 4867.043
150.6261, 5022.545
151.1082, 5195.052
151.5903, 5383.367
152.0724, 5589.782
152.5545, 5805.580
153.0366, 6021.606
153.5188, 6245.971
154.0009, 6493.539
154.4830, 6789.090
154.9651, 7093.976
155.4472, 7397.203
155.9293, 7722.589
156.4115, 8007.235
156.8936, 8250.607
157.3757, 8447.256
157.8578, 8583.468
158.3399, 8645.813
158.8221, 8651.533
159.3042, 8612.597
159.7863, 8510.882
160.2684, 8385.303
160.7505, 8238.822
161.2326, 8073.179
161.7148, 7912.138
162.1969, 7758.160
162.6790, 7615.659
163.1611, 7490.694
163.6432, 7402.276
164.1253, 7316.862
164.6075, 7214.865
165.0896, 7095.519
165.5717, 6976.748
166.0538, 6867.502
166.5359, 6765.251
167.0180, 6666.089
167.5002, 6547.392
167.9823, 6443.277
168.4644, 6384.405
168.9465, 6376.944
169.4286, 6387.394
169.9107, 6397.503
170.3929, 6407.744
170.8750, 6419.379
171.3571, 6429.714
171.8392, 6443.077
172.3213, 6460.699
172.8034, 6478.653
173.2856, 6513.739
173.7677, 6588.603
174.2498, 6696.325
174.7319, 6811.495
175.2140, 6910.585
175.6961, 7009.246
176.1783, 7130.222
176.6604, 7274.996
177.1425, 7445.377
177.6246, 7644.730
178.1067, 7870.904
178.5888, 8123.973
179.0710, 8417.904
179.5531, 8735.029
180.0352, 9035.588
180.5173, 9318.658
180.9994, 9568.593
181.4815, 9762.324
181.9637, 9901.046
182.4458, 9969.563
182.9279, 9951.322
183.4100, 9851.530
183.8921, 9687.854
184.3742, 9445.344
184.8564, 9150.574
185.3385, 8867.713
185.8206, 8594.578
186.3027, 8330.345
186.7848, 8064.585
187.2669, 7800.822
187.7491, 7556.612
188.2312, 7339.870
188.7133, 7148.320
189.1954, 6967.806
189.6775, 6798.073
190.1596, 6645.911
190.6418, 6518.468
191.1239, 6416.227
191.6060, 6331.791
192.0881, 6266.515
192.5702, 6218.727
193.0524, 6172.352
193.5345, 6125.550
194.0166, 6085.144
194.4987, 6063.804
194.9808, 6062.268
195.4629, 6068.739
195.9451, 6074.078
196.4272, 6078.698
196.9093, 6107.031
197.3914, 6166.026
197.8735, 6239.022
198.3556, 6292.304
198.8378, 6322.288
199.3199, 6354.178
199.8020, 6399.389
200.2841, 6457.537
200.7662, 6531.967
201.2483, 6630.763
201.7305, 6738.737
202.2126, 6817.879
202.6947, 6864.598
203.1768, 6895.885
203.6589, 6926.400
204.1410, 6960.243
204.6232, 6960.901
205.1053, 6919.567
205.5874, 6845.402
206.0695, 6767.871
206.5516, 6687.704
207.0337, 6602.254
207.5159, 6503.193
207.9980, 6384.975
208.4801, 6288.005
208.9622, 6217.713
209.4443, 6172.506
209.9264, 6148.615
210.4086, 6154.487
210.8907, 6164.709
211.3728, 6153.164
211.8549, 6104.326
212.3370, 6088.131
212.8191, 6123.345
213.3013, 6202.885
213.7834, 6268.121
214.2655, 6310.517
214.7476, 6352.579
215.2297, 6409.879
215.7118, 6478.734
216.1940, 6575.789
216.6761, 6708.277
217.1582, 6875.267
217.6403, 7044.332
218.1224, 7207.522
218.6045, 7380.689
219.0867, 7580.546
219.5688, 7811.993
220.0509, 8057.514
220.5330, 8320.873
221.0151, 8606.989
221.4972, 8843.179
221.9794, 9037.974
222.4615, 9175.854
222.9436, 9241.117
223.4257, 9224.655
223.9078, 9151.447
224.3899, 9018.651
224.8721, 8820.015
225.3542, 8619.879
225.8363, 8411.503
226.3184, 8206.366
226.8005, 8012.539
227.2827, 7825.574
227.7648, 7660.961
228.2469, 7521.646
228.7290, 7407.713
229.2111, 7323.075
229.6932, 7279.515
230.1754, 7256.672
230.6575, 7229.292
231.1396, 7200.648
231.6217, 7161.782
232.1038, 7109.079
232.5859, 7040.537
233.0681, 6969.578
233.5502, 6900.474
234.0323, 6826.270
234.5144, 6732.600
234.9965, 6602.628
235.4786, 6482.857
235.9608, 6389.171
236.4429, 6329.130
236.9250, 6263.885
237.4071, 6184.328
237.8892, 6105.738
238.3713, 6053.465
238.8535, 6038.037
239.3356, 6031.478
239.8177, 6026.498
240.2998, 6024.272
240.7819, 6017.695
241.2640, 5998.577
241.7462, 5979.750
242.2283, 5985.066
242.7104, 6028.402
243.1925, 6073.014
243.6746, 6105.444
244.1567, 6119.498
244.6389, 6142.233
245.1210, 6170.729
245.6031, 6209.430
246.0852, 6268.191
246.5673, 6357.979
247.0494, 6449.034
247.5316, 6528.494
248.0137, 6587.840
248.4958, 6665.540
248.9779, 6766.537
249.4600, 6882.813
249.9421, 6994.710
250.4243, 7090.777
250.9064, 7204.372
251.3885, 7353.223
251.8706, 7554.829
252.3527, 7735.911
252.8348, 7894.330
253.3170, 8033.314
253.7991, 8162.287
254.2812, 8296.157
254.7633, 8389.181
255.2454, 8424.462
255.7275, 8398.986
256.2097, 8321.573
256.6918, 8174.708
257.1739, 7988.896
257.6560, 7818.104
258.1381, 7667.491
258.6202, 7520.455
259.1024, 7365.737
259.5845, 7197.578
260.0666, 7050.830
260.5487, 6923.173
261.0308, 6819.115
261.5129, 6744.461
261.9951, 6706.713
262.4772, 6682.091
262.9593, 6663.537
263.4414, 6652.063
263.9235, 6640.341
264.4056, 6625.559
264.8878, 6613.060
265.3699, 6610.221
265.8520, 6615.058
266.3341, 6635.264
266.8162, 6677.780
267.2983, 6746.364
267.7805, 6809.491
268.2626, 6862.303
268.7447, 6914.539
269.2268, 6989.608
269.7089, 7098.633
270.1910, 7190.131
270.6732, 7237.981
271.1553, 7235.889
271.6374, 7252.814
272.1195, 7298.006
272.6016, 7348.690
273.0837, 7365.490
273.5659, 7344.216
274.0480, 7311.235
274.5301, 7270.037
275.0122, 7219.924
275.4943, 7188.013
275.9764, 7174.218
276.4586, 7178.794
276.9407, 7204.440
277.4228, 7251.832
277.9049, 7310.797
278.3870, 7379.103
278.8691, 7456.462
279.3513, 7537.686
279.8334, 7624.355
280.3155, 7710.820
280.7976, 7794.507
281.2798, 7875.396
281.7619, 7938.080
282.2440, 7982.027
282.7261, 8004.824
283.2082, 7980.790
283.6903, 7902.859
284.1725, 7804.087
284.6546, 7723.917
285.1367, 7662.290
285.6188, 7599.225
286.1009, 7523.313
286.5830, 7439.910
287.0652, 7373.664
287.5473, 7326.805
288.0294, 7287.361
288.5115, 7247.206
288.9936, 7205.118
289.4757, 7152.533
289.9579, 7077.815
290.4400, 6992.471
290.9221, 6929.651
291.4042, 6890.829
291.8863, 6856.161
292.3684, 6800.191
292.8506, 6729.432
293.3327, 6671.470
293.8148, 6638.209
294.2969, 6620.816
294.7790, 6600.466
295.2611, 6577.086
295.7433, 6559.511
296.2254, 6562.840
296.7075, 6578.758
297.1896, 6583.247
297.6717, 6563.734
298.1538, 6534.286
298.6360, 6512.028
299.1181, 6497.130
299.6002, 6493.957
300.0823, 6513.898
300.5644, 6546.990
301.0465, 6574.561
301.5287, 6590.830
302.0108, 6600.717
302.4929, 6605.555
302.9750, 6606.822
303.4571, 6612.689
303.9392, 6628.755
304.4214, 6652.721
304.9035, 6682.494
305.3856, 6718.745
305.8677, 6757.755
306.3498, 6795.576
306.8319, 6832.733
307.3141, 6871.997
307.7962, 6919.896
308.2783, 6967.827
308.7604, 7005.261
309.2425, 7021.483
309.7246, 7044.226
310.2068, 7099.053
310.6889, 7175.383
311.1710, 7246.263
311.6531, 7292.195
312.1352, 7331.763
312.6173, 7379.717
313.0995, 7442.151
313.5816, 7500.468
314.0637, 7543.706
314.5458, 7577.143
315.0279, 7611.113
315.5100, 7650.675
315.9922, 7690.981
316.4743, 7730.533
316.9564, 7770.261
317.4385, 7804.614
317.9206, 7827.055
318.4027, 7844.084
318.8849, 7864.787
319.3670, 7897.652
319.8491, 7929.280
320.3312, 7954.817
320.8133, 7973.527
321.2954, 7988.817
321.7776, 7993.423
322.2597, 7998.074
322.7418, 8014.207
323.2239, 8050.965
323.7060, 8091.865
324.1881, 8136.414
324.6703, 8185.497
325.1524, 8225.835
325.6345, 8247.751
326.1166, 8264.748
326.5987, 8287.916
327.0808, 8324.037
327.5630, 8358.567
328.0451, 8395.144
328.5272, 8432.782
329.0093, 8449.644
329.4914, 8437.690
329.9735, 8412.056
330.4557, 8382.479
330.9378, 8351.972
331.4199, 8311.897
331.9020, 8259.521
332.3841, 8196.580
332.8662, 8128.508
333.3484, 8043.800
333.8305, 7972.420
334.3126, 7932.264
334.7947, 7932.439
335.2768, 7936.976
335.7589, 7943.915
336.2411, 7954.361
336.7232, 7973.171
337.2053, 8003.662
337.6874, 8032.433
338.1695, 8052.179
338.6516, 8061.373
339.1338, 8072.985
339.6159, 8086.557
340.0980, 8103.517
340.5801, 8128.770
341.0622, 8164.080
341.5443, 8194.148
342.0265, 8215.555
342.5086, 8227.605
342.9907, 8221.775
343.4728, 8194.940
343.9549, 8162.664
344.4370, 8145.606
344.9192, 8142.253
345.4013, 8137.314
345.8834, 8124.087
346.3655, 8105.922
346.8476, 8091.036
347.3297, 8079.420
347.8119, 8072.229
348.2940, 8072.666
348.7761, 8078.803
349.2582, 8086.780
349.7403, 8105.564
350.2225, 8115.568
350.7046, 8073.479
351.1867, 7986.495
351.6688, 7913.120
352.1509, 7916.128
352.6331, 7954.223
353.1152, 7961.969
353.5973, 7911.071
354.0794, 7852.458
354.5615, 7828.757
355.0436, 7834.139
355.5258, 7850.854
356.0079, 7867.784
356.4900, 7892.539
356.9721, 7935.321
357.4542, 8003.758
357.9363, 8069.670
358.4185, 8115.974
358.9006, 8149.198
359.3827, 8180.639
359.8648, 8214.159
360.3469, 8247.455
360.8290, 8283.017
361.3112, 8323.388
361.7933, 8348.886
362.2754, 8351.614
362.7575, 8337.209
363.2396, 8311.683
363.7217, 8252.076
364.2039, 8206.087
364.6860, 8187.528
365.1681, 8196.882
365.6502, 8216.797
366.1323, 8264.409
366.6144, 8310.513
367.0966, 8334.720
367.5787, 8292.739
368.0608, 8282.666
368.5429, 8329.599
369.0250, 8419.497
369.5071, 8479.127
369.9893, 8494.972
370.4714, 8496.267
370.9535, 8494.646
371.4356, 8483.071
371.9177, 8485.729
372.3998, 8509.611
372.8820, 8544.568
373.3641, 8568.301
373.8462, 8579.415
374.3283, 8582.862
374.8104, 8579.869
375.2925, 8570.177
375.7747, 8557.157
376.2568, 8541.677
376.7389, 8520.951
377.2210, 8487.090
377.7031, 8438.602
378.1852, 8399.086
378.6674, 8378.711
379.1495, 8372.850
379.6316, 8361.320
380.1137, 8343.986
380.5958, 8323.098
381.0779, 8302.853
381.5601, 8281.512
382.0422, 8250.686
382.5243, 8202.638
383.0064, 8150.907
383.4885, 8123.071
383.9706, 8115.468
384.4528, 8103.079
384.9349, 8052.829
385.4170, 7990.551
385.8991, 7962.052
386.3812, 7981.314
386.8633, 8010.525
387.3455, 8020.640
387.8276, 8014.010
388.3097, 7995.945
388.7918, 7953.935
389.2739, 7911.362
389.7560, 7887.632
390.2382, 7885.092
390.7203, 7890.961
391.2024, 7904.633
391.6845, 7920.759
392.1666, 7933.350
392.6487, 7934.460
393.1309, 7937.153
393.6130, 7943.168
394.0951, 7953.341
394.5772, 7975.754
395.0593, 8026.383
395.5414, 8081.129
396.0236, 8124.442
396.5057, 8142.373
396.9878, 8162.963
397.4699, 8183.150
397.9520, 8207.018
398.4341, 8247.032
398.9163, 8313.036
399.3984, 8385.111
399.8805, 8459.209
400.3626, 8542.988
400.8447, 8603.696
401.3268, 8624.657
401.8090, 8634.811
402.2911, 8678.691
402.7732, 8769.895
403.2553, 8859.162
403.7374, 8939.247
404.2195, 9008.970
404.7017, 9044.354
405.1838, 9040.672
405.6659, 9015.196
406.1480, 8982.641
406.6301, 8942.978
407.1122, 8891.721
407.5944, 8826.590
408.0765, 8750.617
408.5586, 8667.330
409.0407, 8576.640
409.5228, 8493.159
410.0049, 8430.342
410.4871, 8383.055
410.9692, 8337.248
411.4513, 8292.141
411.9334, 8245.421
412.4155, 8184.393
412.8976, 8117.145
413.3798, 8068.933
413.8619, 8056.176
414.3440, 8064.166
414.8261, 8084.624
415.3082, 8117.072
415.7903, 8141.193
416.2725, 8134.607
416.7546, 8115.969
417.2367, 8105.821
417.7188, 8104.583
418.2009, 8120.076
418.6830, 8166.267
419.1652, 8235.206
419.6473, 8295.935
420.1294, 8329.184
420.6115, 8358.574
421.0937, 8395.811
421.5758, 8437.285
422.0579, 8496.389
422.5400, 8586.086
423.0221, 8692.158
423.5042, 8793.285
423.9864, 8883.781
424.4685, 8973.411
424.9506, 9060.199
425.4327, 9140.809
425.9148, 9248.884
426.3969, 9395.769
426.8791, 9557.065
427.3612, 9710.390
427.8433, 9852.135
428.3254, 9995.988
428.8075, 10143.53
429.2896, 10294.16
429.7718, 10440.09
430.2539, 10579.06
430.7360, 10726.15
431.2181, 10901.03
431.7002, 11099.64
432.1823, 11259.04
432.6645, 11371.22
433.1466, 11460.88
433.6287, 11565.67
434.1108, 11679.12
434.5929, 11768.38
435.0750, 11805.77
435.5572, 11815.62
436.0393, 11844.58
436.5214, 11891.30
437.0035, 11927.29
437.4856, 11924.36
437.9677, 11898.34
438.4499, 11872.02
438.9320, 11856.53
439.4141, 11832.93
439.8962, 11773.89
440.3783, 11695.09
440.8604, 11635.28
441.3426, 11627.39
441.8247, 11632.15
442.3068, 11628.77
442.7889, 11614.02
443.2710, 11595.49
443.7531, 11578.21
444.2353, 11557.03
444.7174, 11525.92
445.1995, 11476.33
445.6816, 11425.60
446.1637, 11375.65
446.6458, 11326.93
447.1280, 11280.31
447.6101, 11245.28
448.0922, 11201.60
448.5743, 11138.25
449.0564, 11050.07
449.5385, 10954.06
450.0207, 10851.12
450.5028, 10740.59
450.9849, 10617.96
451.4670, 10480.76
451.9491, 10349.71
452.4312, 10233.86
452.9134, 10131.90
453.3955, 10029.27
453.8776, 9925.972
454.3597, 9824.509
454.8418, 9733.993
455.3239, 9649.521
455.8061, 9551.730
456.2882, 9426.291
456.7703, 9299.187
457.2524, 9206.620
457.7345, 9144.650
458.2166, 9095.372
458.6988, 9062.679
459.1809, 9030.447
459.6630, 8976.063
460.1451, 8892.606
460.6272, 8817.634
461.1093, 8787.888
461.5915, 8776.718
462.0736, 8751.609
462.5557, 8679.670
463.0378, 8613.609
463.5199, 8582.676
464.0020, 8580.982
464.4842, 8561.605
464.9663, 8485.290
465.4484, 8410.918
465.9305, 8370.307
466.4126, 8386.354
466.8947, 8397.561
467.3769, 8407.286
467.8590, 8410.746
468.3411, 8397.656
468.8232, 8356.022
469.3053, 8322.033
469.7874, 8307.085
470.2696, 8309.993
470.7517, 8309.019
471.2338, 8303.591
471.7159, 8296.078
472.1980, 8289.278
472.6801, 8283.035
473.1623, 8269.815
473.6444, 8243.214
474.1265, 8219.442
474.6086, 8237.523
475.0907, 8290.076
475.5728, 8329.346
476.0550, 8320.014
476.5371, 8284.749
477.0192, 8255.673
477.5013, 8233.604
477.9834, 8224.154
478.4655, 8247.998
478.9477, 8282.033
479.4298, 8294.521
479.9119, 8256.004
480.3940, 8219.337
480.8761, 8216.077
481.3582, 8237.024
481.8404, 8255.939
482.3225, 8259.883
482.8046, 8263.479
483.2867, 8276.102
483.7688, 8304.971
484.2509, 8320.447
484.7331, 8302.919
485.2152, 8279.719
485.6973, 8277.619
486.1794, 8316.966
486.6615, 8341.999
487.1436, 8339.656
487.6258, 8316.908
488.1079, 8306.960
488.5900, 8312.494
489.0721, 8323.685
489.5542, 8337.241
490.0363, 8353.288
490.5185, 8363.838
491.0006, 8367.735
491.4827, 8369.017
491.9648, 8369.571
492.4470, 8370.736
492.9291, 8380.476
493.4112, 8404.079
493.8933, 8435.281
494.3754, 8467.280
494.8575, 8499.416
495.3397, 8525.626
495.8218, 8544.100
496.3039, 8553.893
496.7860, 8551.153
497.2681, 8531.447
497.7502, 8514.835
498.2324, 8510.382
498.7145, 8515.785
499.1966, 8527.849
499.6787, 8545.019
500.1608, 8569.340
500.6429, 8610.478
501.1251, 8666.022
501.6072, 8698.937
502.0893, 8684.360
502.5714, 8666.818
503.0535, 8665.804
503.5356, 8681.311
504.0178, 8715.122
504.4999, 8776.537
504.9820, 8847.540
505.4641, 8899.905
505.9462, 8929.380
506.4283, 8961.962
506.9105, 9007.308
507.3926, 9060.654
507.8747, 9101.123
508.3568, 9128.194
508.8389, 9154.482
509.3210, 9182.107
509.8032, 9216.688
510.2853, 9279.827
510.7674, 9380.331
511.2495, 9483.112
511.7316, 9545.101
512.2137, 9583.378
512.6959, 9631.679
513.1780, 9711.502
513.6601, 9800.467
514.1422, 9882.192
514.6243, 9958.688
515.1064, 10044.73
515.5886, 10157.88
516.0707, 10274.53
516.5528, 10375.16
517.0349, 10433.20
517.5170, 10527.47
517.9991, 10685.06
518.4813, 10874.63
518.9634, 11055.85
519.4455, 11212.21
519.9276, 11388.06
520.4097, 11591.67
520.8918, 11819.95
521.3740, 12079.22
521.8561, 12372.59
522.3382, 12686.64
522.8203, 13017.02
523.3024, 13360.60
523.7845, 13707.80
524.2667, 14057.06
524.7488, 14422.53
525.2309, 14825.29
525.7130, 15268.38
526.1951, 15751.87
526.6772, 16276.50
527.1594, 16848.51
527.6415, 17482.14
528.1236, 18166.62
528.6057, 18871.95
529.0878, 19564.34
529.5699, 20275.19
530.0521, 21018.92
530.5342, 21807.38
531.0163, 22614.21
531.4984, 23474.72
531.9805, 24338.75
532.4626, 25156.82
532.9448, 26005.22
533.4269, 26707.33
533.9090, 27277.80
534.3911, 27691.47
534.8732, 27832.46
535.3553, 27686.50
535.8375, 27291.14
536.3196, 26645.95
536.8017, 25736.54
537.2838, 24698.54
537.7659, 23498.54
538.2480, 22247.16
538.7302, 21027.56
539.2123, 19838.61
539.6944, 18747.29
540.1765, 17765.61
540.6586, 16890.52
541.1407, 16099.79
541.6229, 15392.76
542.1050, 14753.71
542.5871, 14169.98
543.0692, 13652.16
543.5513, 13231.67
544.0334, 12912.75
544.5156, 12618.21
544.9977, 12308.87
545.4798, 12010.97
545.9619, 11749.03
546.4440, 11540.97
546.9261, 11348.83
547.4083, 11164.74
547.8904, 10993.61
548.3725, 10848.51
548.8546, 10744.99
549.3367, 10639.82
549.8188, 10518.24
550.3010, 10383.24
550.7831, 10269.34
551.2652, 10177.39
551.7473, 10103.40
552.2294, 10048.56
552.7115, 10011.41
553.1937, 9984.913
553.6758, 9972.748
554.1579, 9953.668
554.6400, 9888.943
555.1221, 9794.366
555.6042, 9716.491
556.0864, 9676.554
556.5685, 9654.577
557.0506, 9638.176
557.5327, 9625.397
558.0148, 9609.208
558.4969, 9590.515
558.9791, 9563.958
559.4612, 9518.364
559.9433, 9443.623
560.4254, 9398.084
560.9075, 9418.697
561.3896, 9458.559
561.8718, 9476.575
562.3539, 9463.782
562.8360, 9443.586
563.3181, 9414.680
563.8002, 9381.036
564.2823, 9350.124
564.7645, 9320.908
565.2466, 9300.548
565.7287, 9295.404
566.2108, 9301.820
566.6929, 9302.588
567.1750, 9297.629
567.6572, 9288.585
568.1393, 9274.720
568.6214, 9258.202
569.1035, 9243.435
569.5856, 9230.700
570.0677, 9220.864
570.5499, 9211.898
571.0320, 9206.746
571.5141, 9209.942
571.9962, 9238.832
572.4783, 9260.779
572.9604, 9262.582
573.4426, 9245.970
573.9247, 9220.650
574.4068, 9169.517
574.8889, 9127.329
575.3710, 9108.954
575.8531, 9118.893
576.3353, 9130.460
576.8174, 9145.201
577.2995, 9159.114
577.7816, 9167.671
578.2637, 9170.186
578.7458, 9174.099
579.2280, 9180.405
579.7101, 9188.706
580.1922, 9202.638
580.6743, 9219.869
581.1564, 9227.247
581.6385, 9210.183
582.1207, 9184.369
582.6028, 9166.983
583.0849, 9158.479
583.5670, 9161.032
584.0491, 9192.700
584.5313, 9225.270
585.0134, 9232.391
585.4955, 9198.305
585.9776, 9177.650
586.4597, 9193.146
586.9418, 9225.653
587.4240, 9254.030
587.9061, 9284.545
588.3882, 9299.742
588.8703, 9292.226
589.3524, 9269.698
589.8345, 9253.548
590.3167, 9243.482
590.7988, 9241.331
591.2809, 9252.794
591.7630, 9273.541
592.2451, 9278.742
592.7272, 9267.890
593.2094, 9253.862
593.6915, 9239.873
594.1736, 9231.853
594.6557, 9246.723
595.1378, 9293.405
595.6199, 9335.094
596.1021, 9340.861
596.5842, 9324.956
597.0663, 9307.625
597.5485, 9286.097
598.0306, 9274.524
598.5127, 9283.998
598.9948, 9309.018
599.4769, 9325.721
599.9590, 9329.450
600.4412, 9329.046
600.9233, 9328.651
601.4054, 9329.023
601.8875, 9315.240
602.3696, 9281.890
602.8517, 9247.879
603.3339, 9230.585
603.8160, 9228.751
604.2981, 9228.503
604.7802, 9227.892
605.2623, 9230.087
605.7444, 9245.990
606.2266, 9268.521
606.7087, 9277.877
607.1908, 9260.207
607.6729, 9233.771
608.1550, 9204.843
608.6371, 9177.689
609.1193, 9165.191
609.6014, 9194.467
610.0835, 9220.946
610.5656, 9216.989
611.0477, 9174.574
611.5298, 9153.254
612.0120, 9166.506
612.4941, 9189.793
612.9762, 9208.435
613.4583, 9223.143
613.9404, 9230.902
614.4225, 9232.134
614.9047, 9225.191
615.3868, 9200.669
615.8689, 9160.609
616.3510, 9136.045
616.8331, 9141.962
617.3152, 9160.171
617.7974, 9162.863
618.2795, 9153.334
618.7616, 9144.605
619.2437, 9143.940
619.7258, 9146.737
620.2079, 9146.486
620.6901, 9143.126
621.1722, 9151.739
621.6543, 9192.196
622.1364, 9236.180
622.6185, 9265.572
623.1006, 9279.438
623.5828, 9277.464
624.0649, 9246.047
624.5470, 9211.276
625.0291, 9209.254
625.5112, 9248.514
625.9933, 9272.677
626.4755, 9265.497
626.9576, 9245.789
627.4397, 9259.370
627.9218, 9301.009
628.4039, 9330.774
628.8860, 9318.445
629.3682, 9288.421
629.8503, 9272.229
630.3324, 9268.787
630.8145, 9269.309
631.2966, 9269.011
631.7787, 9270.621
632.2609, 9276.630
632.7430, 9288.481
633.2251, 9300.289
633.7072, 9312.723
634.1893, 9323.396
634.6714, 9330.362
635.1536, 9332.705
635.6357, 9332.251
636.1178, 9325.328
636.5999, 9319.636
637.0820, 9331.376
637.5641, 9361.161
638.0463, 9393.869
638.5284, 9430.729
639.0105, 9462.430
639.4926, 9463.286
639.9747, 9438.654
640.4568, 9419.607
640.9390, 9428.039
641.4211, 9448.611
641.9032, 9472.169
