##NAMES=Scorodite
##RRUFFID=R050465
##IDEAL CHEMISTRY=Fe^3+^As^5+^O_4_&#183;2H_2_O
##LOCALITY=Minas Gerais, Brazil
##OWNER=RRUFF
##SOURCE=University of Arizona Mineral Museum
##DESCRIPTION=Group of blue prismatic to tabular crystals displaying many modifying forms
##STATUS=The identification of this mineral has been confirmed by X-ray diffraction and chemical analysis
##URL=rruff.info/R050465
##MEASURED CHEMISTRY=Fe^3+^_1.00_As_1.00_O_4_Â·2H_2_O
93.78320, 281.2452
94.26532, 271.8044
94.74744, 275.8871
95.22955, 292.8744
95.71167, 310.8632
96.19379, 308.1888
96.67590, 281.2978
97.15802, 252.0366
97.64014, 219.8909
98.12225, 187.8680
98.60437, 161.0999
99.08649, 141.4408
99.56860, 127.8625
100.0507, 117.8769
100.5328, 111.3350
101.0150, 106.7532
101.4971, 103.4795
101.9792, 101.5015
102.4613, 100.0398
102.9434, 98.64482
103.4255, 97.69599
103.9077, 97.56998
104.3898, 98.40486
104.8719, 99.99669
105.3540, 102.1039
105.8361, 105.4908
106.3182, 108.0300
106.8004, 109.4082
107.2825, 109.8064
107.7646, 109.3429
108.2467, 108.0215
108.7288, 105.9143
109.2109, 104.0187
109.6931, 102.1543
110.1752, 100.6461
110.6573, 99.46685
111.1394, 98.69604
111.6215, 98.50717
112.1036, 99.07035
112.5858, 100.4960
113.0679, 102.2883
113.5500, 104.4216
114.0321, 106.8767
114.5142, 109.5855
114.9964, 112.5377
115.4785, 115.9076
115.9606, 120.0870
116.4427, 125.0167
116.9248, 129.9018
117.4069, 135.5603
117.8891, 140.9774
118.3712, 144.1039
118.8533, 144.3714
119.3354, 142.1891
119.8175, 137.7762
120.2996, 131.3101
120.7818, 124.7040
121.2639, 119.2540
121.7460, 114.9840
122.2281, 111.1816
122.7102, 107.5441
123.1923, 104.5394
123.6745, 102.5994
124.1566, 101.7635
124.6387, 101.6098
125.1208, 101.5289
125.6029, 101.3826
126.0850, 101.6517
126.5672, 102.4656
127.0493, 103.5623
127.5314, 104.7063
128.0135, 105.8122
128.4956, 106.9724
128.9777, 108.4840
129.4599, 110.8382
129.9420, 113.0061
130.4241, 115.1412
130.9062, 117.0169
131.3883, 118.2975
131.8705, 118.7811
132.3526, 118.5443
132.8347, 118.0433
133.3168, 117.0238
133.7989, 116.0563
134.2810, 115.2924
134.7632, 114.7505
135.2453, 114.5183
135.7274, 114.7706
136.2095, 115.3849
136.6916, 115.8513
137.1737, 116.4172
137.6559, 116.6624
138.1380, 115.9431
138.6201, 114.0414
139.1022, 112.1963
139.5843, 111.1950
140.0664, 110.7582
140.5486, 110.6102
141.0307, 110.7335
141.5128, 111.0510
141.9949, 111.3604
142.4770, 111.7615
142.9591, 111.9838
143.4413, 112.0391
143.9234, 111.8662
144.4055, 111.3409
144.8876, 110.3050
145.3697, 108.7574
145.8518, 107.2850
146.3340, 105.4359
146.8161, 104.0943
147.2982, 103.6298
147.7803, 103.9589
148.2624, 104.7738
148.7445, 105.8136
149.2267, 107.1286
149.7088, 108.4451
150.1909, 109.5578
150.6730, 110.8229
151.1551, 112.3978
151.6372, 114.3253
152.1194, 116.6023
152.6015, 119.2927
153.0836, 122.6464
153.5657, 125.7046
154.0478, 127.9384
154.5299, 130.1297
155.0121, 133.0519
155.4942, 136.9038
155.9763, 141.3665
156.4584, 146.0122
156.9405, 150.7620
157.4227, 155.9594
157.9048, 161.6130
158.3869, 167.7828
158.8690, 174.6454
159.3511, 182.4287
159.8332, 190.7441
160.3154, 199.2119
160.7975, 207.8443
161.2796, 216.3059
161.7617, 224.4454
162.2438, 232.3011
162.7259, 239.6653
163.2081, 245.8912
163.6902, 252.1462
164.1723, 259.0999
164.6544, 266.8861
165.1365, 275.4139
165.6186, 284.6650
166.1008, 294.5942
166.5829, 305.3281
167.0650, 317.0758
167.5471, 329.4742
168.0292, 342.3017
168.5113, 355.5006
168.9935, 369.0478
169.4756, 382.8750
169.9577, 396.9962
170.4398, 411.5464
170.9219, 425.5286
171.4040, 440.3143
171.8862, 456.8552
172.3683, 475.5358
172.8504, 496.2981
173.3325, 519.2555
173.8146, 544.9826
174.2967, 572.3818
174.7789, 600.6551
175.2610, 630.8359
175.7431, 664.4508
176.2252, 702.6055
176.7073, 743.8093
177.1894, 783.0165
177.6716, 823.4639
178.1537, 858.6011
178.6358, 890.7960
179.1179, 916.8271
179.6000, 931.2532
180.0821, 931.5173
180.5643, 917.3157
181.0464, 889.0103
181.5285, 842.7658
182.0106, 790.8851
182.4927, 736.4993
182.9749, 680.3558
183.4570, 625.5157
183.9391, 572.3635
184.4212, 522.6383
184.9033, 478.6477
185.3854, 441.2580
185.8676, 408.2324
186.3497, 378.2132
186.8318, 351.2169
187.3139, 326.5919
187.7960, 304.3389
188.2781, 284.3926
188.7603, 267.0742
189.2424, 252.6801
189.7245, 240.2693
190.2066, 228.6307
190.6887, 217.5910
191.1708, 207.9709
191.6530, 200.3869
192.1351, 194.1190
192.6172, 188.8068
193.0993, 184.4213
193.5814, 180.6581
194.0635, 176.9790
194.5457, 173.3740
195.0278, 169.8991
195.5099, 166.4906
195.9920, 163.2262
196.4741, 160.1681
196.9562, 157.3416
197.4384, 154.7619
197.9205, 152.4421
198.4026, 150.3224
198.8847, 148.6314
199.3668, 147.5285
199.8489, 146.7865
200.3311, 146.2141
200.8132, 145.7221
201.2953, 145.2504
201.7774, 144.5672
202.2595, 143.2627
202.7416, 142.1946
203.2238, 141.7860
203.7059, 141.5907
204.1880, 140.9429
204.6701, 139.4708
205.1522, 137.3611
205.6344, 135.4436
206.1165, 133.5049
206.5986, 131.9417
207.0807, 130.8844
207.5628, 130.2595
208.0449, 129.8959
208.5271, 129.6721
209.0092, 129.6978
209.4913, 130.4530
209.9734, 132.0999
210.4555, 134.0823
210.9376, 136.2324
211.4198, 138.5646
211.9019, 141.2401
212.3840, 144.5099
212.8661, 147.9753
213.3482, 150.6080
213.8303, 152.3358
214.3125, 153.4552
214.7946, 154.3949
215.2767, 154.9897
215.7588, 154.2320
216.2409, 151.2535
216.7230, 146.8276
217.2052, 142.5469
217.6873, 138.4028
218.1694, 134.5117
218.6515, 130.9053
219.1336, 127.5762
219.6157, 124.7018
220.0979, 122.3001
220.5800, 120.4768
221.0621, 119.3705
221.5442, 119.0865
222.0263, 119.1660
222.5084, 119.1015
222.9906, 118.8428
223.4727, 118.9832
223.9548, 119.5412
224.4369, 120.7249
224.9190, 122.9358
225.4011, 126.3036
225.8833, 129.9852
226.3654, 132.8301
226.8475, 134.5055
227.3296, 136.9055
227.8117, 140.7258
228.2938, 145.2081
228.7760, 149.8373
229.2581, 154.5436
229.7402, 159.6914
230.2223, 165.9373
230.7044, 173.7491
231.1866, 181.2319
231.6687, 188.2730
232.1508, 194.8855
232.6329, 201.0401
233.1150, 206.7613
233.5971, 212.0583
234.0793, 217.1501
234.5614, 222.7059
235.0435, 226.2244
235.5256, 227.0523
236.0077, 226.6463
236.4898, 225.5652
236.9720, 224.0603
237.4541, 222.3741
237.9362, 220.8170
238.4183, 219.3963
238.9004, 218.1318
239.3825, 216.6350
239.8647, 215.5413
240.3468, 215.3121
240.8289, 215.9791
241.3110, 217.2087
241.7931, 218.5901
242.2752, 219.9858
242.7574, 222.0272
243.2395, 224.6557
243.7216, 227.8483
244.2037, 231.6460
244.6858, 236.0213
245.1679, 240.8835
245.6501, 246.1695
246.1322, 251.9981
246.6143, 257.8211
247.0964, 263.4185
247.5785, 269.1941
248.0606, 275.9731
248.5428, 283.5410
249.0249, 290.4746
249.5070, 295.4812
249.9891, 298.3361
250.4712, 299.3688
250.9533, 298.8707
251.4355, 296.4950
251.9176, 291.7884
252.3997, 284.8275
252.8818, 276.2772
253.3639, 266.6001
253.8460, 255.6375
254.3282, 244.0116
254.8103, 230.9874
255.2924, 217.8923
255.7745, 205.4399
256.2566, 193.7305
256.7387, 183.0979
257.2209, 173.7593
257.7030, 165.9041
258.1851, 159.1760
258.6672, 153.7991
259.1493, 149.3858
259.6314, 145.9136
260.1136, 143.3106
260.5957, 140.9838
261.0778, 138.5292
261.5599, 136.1491
262.0420, 134.2631
262.5241, 132.8579
263.0063, 131.9659
263.4884, 131.7390
263.9705, 132.1256
264.4526, 132.6542
264.9347, 132.9869
265.4168, 133.4480
265.8990, 134.5513
266.3811, 136.4708
266.8632, 138.6908
267.3453, 140.8302
267.8275, 142.9217
268.3096, 145.3008
268.7917, 148.2435
269.2738, 151.3939
269.7559, 154.1312
270.2380, 156.3217
270.7202, 158.7846
271.2023, 162.2675
271.6844, 166.6153
272.1665, 170.8216
272.6486, 174.5415
273.1307, 178.1120
273.6129, 181.9266
274.0950, 186.0057
274.5771, 190.0177
275.0592, 193.9214
275.5413, 197.6609
276.0234, 200.7903
276.5056, 202.8987
276.9877, 204.8310
277.4698, 207.2970
277.9519, 210.2000
278.4340, 213.0758
278.9161, 215.4167
279.3983, 217.4343
279.8804, 220.1422
280.3625, 223.6860
280.8446, 227.8377
281.3267, 232.5665
281.8088, 237.6908
282.2910, 242.8111
282.7731, 247.3132
283.2552, 251.6450
283.7373, 257.4237
284.2194, 265.2822
284.7015, 273.4556
285.1837, 281.0864
285.6658, 288.5069
286.1479, 296.2880
286.6300, 304.7489
287.1121, 313.6078
287.5942, 322.1642
288.0764, 330.2526
288.5585, 338.4394
289.0406, 347.6724
289.5227, 356.8087
290.0048, 364.5699
290.4869, 370.5772
290.9691, 375.0931
291.4512, 378.8011
291.9333, 382.1142
292.4154, 383.2173
292.8975, 381.5501
293.3796, 377.6374
293.8618, 371.5215
294.3439, 363.2183
294.8260, 353.2240
295.3081, 341.8490
295.7902, 328.8030
296.2723, 315.8397
296.7545, 302.9694
297.2366, 290.4711
297.7187, 278.5830
298.2008, 267.3207
298.6829, 256.5322
299.1650, 246.0783
299.6472, 235.8647
300.1293, 226.6114
300.6114, 218.4429
301.0935, 211.3520
301.5756, 205.5606
302.0577, 200.9354
302.5399, 196.9856
303.0220, 193.3956
303.5041, 190.1729
303.9862, 187.3551
304.4683, 185.0483
304.9504, 183.0824
305.4326, 181.2568
305.9147, 179.7131
306.3968, 178.7391
306.8789, 178.5844
307.3610, 179.0891
307.8431, 179.5639
308.3253, 179.8939
308.8074, 180.3924
309.2895, 181.2617
309.7716, 182.2836
310.2537, 183.1921
310.7358, 183.8732
311.2180, 184.3938
311.7001, 184.9411
312.1822, 185.7056
312.6643, 186.0507
313.1464, 185.6417
313.6285, 184.9490
314.1107, 184.3024
314.5928, 183.7979
315.0749, 183.3896
315.5570, 183.0410
316.0392, 182.7896
316.5213, 182.4580
317.0034, 181.4208
317.4855, 180.7605
317.9676, 181.3141
318.4497, 183.0173
318.9319, 184.9911
319.4140, 186.3129
319.8961, 186.8892
320.3782, 187.7187
320.8603, 188.7007
321.3424, 190.0793
321.8246, 191.8827
322.3067, 194.1515
322.7888, 196.9869
323.2709, 200.4710
323.7530, 204.5799
324.2351, 209.0509
324.7173, 214.1430
325.1994, 219.2750
325.6815, 224.0161
326.1636, 228.7604
326.6457, 234.1514
327.1278, 240.5348
327.6100, 247.5809
328.0921, 254.5326
328.5742, 261.2713
329.0563, 268.2072
329.5384, 275.4010
330.0205, 282.8298
330.5027, 290.4996
330.9848, 298.4443
331.4669, 306.5585
331.9490, 314.8934
332.4311, 323.6734
332.9132, 331.6804
333.3954, 338.5672
333.8775, 344.7413
334.3596, 350.5286
334.8417, 355.8521
335.3238, 360.0728
335.8059, 362.2490
336.2881, 362.3587
336.7702, 362.6062
337.2523, 363.7827
337.7344, 364.1859
338.2165, 363.0931
338.6986, 360.6891
339.1808, 357.4770
339.6629, 353.8391
340.1450, 349.6026
340.6271, 343.9224
341.1092, 336.0428
341.5913, 328.1693
342.0735, 321.4697
342.5556, 315.1451
343.0377, 308.1093
343.5198, 299.8258
344.0019, 291.0700
344.4840, 283.1342
344.9662, 276.0822
345.4483, 269.3343
345.9304, 262.9261
346.4125, 256.6304
346.8946, 250.2338
347.3767, 243.6653
347.8589, 237.3735
348.3410, 231.9521
348.8231, 227.3563
349.3052, 222.5941
349.7873, 217.0235
350.2694, 211.8438
350.7516, 207.9597
351.2337, 205.1710
351.7158, 202.6669
352.1979, 200.0026
352.6800, 197.2359
353.1621, 194.5414
353.6443, 191.8450
354.1264, 189.4075
354.6085, 187.4957
355.0906, 185.9030
355.5727, 184.3364
356.0548, 182.6408
356.5370, 181.0007
357.0191, 179.5937
357.5012, 178.4111
357.9833, 177.6456
358.4654, 177.5519
358.9475, 177.8548
359.4297, 178.3141
359.9118, 178.9904
360.3939, 179.4471
360.8760, 179.0984
361.3581, 178.1538
361.8402, 177.6955
362.3224, 178.0557
362.8045, 178.8579
363.2866, 179.7077
363.7687, 180.6062
364.2508, 181.6741
364.7329, 182.8689
365.2151, 184.2937
365.6972, 186.2707
366.1793, 188.9383
366.6614, 191.5161
367.1436, 193.2019
367.6257, 194.3236
368.1078, 195.8957
368.5899, 198.4217
369.0720, 201.1465
369.5541, 203.3856
370.0363, 205.2244
370.5184, 207.1708
371.0005, 209.3911
371.4826, 211.9468
371.9647, 214.9976
372.4468, 218.7359
372.9290, 222.3896
373.4111, 225.5200
373.8932, 228.3878
374.3753, 231.4227
374.8574, 234.7442
375.3395, 238.1878
375.8217, 241.5759
376.3038, 244.9237
376.7859, 248.0067
377.2680, 250.4406
377.7501, 252.8482
378.2322, 256.0097
378.7144, 259.8425
379.1965, 263.3996
379.6786, 266.0814
380.1607, 267.8450
380.6428, 268.6601
381.1249, 268.0111
381.6071, 267.1362
382.0892, 266.5318
382.5713, 265.9992
383.0534, 265.1653
383.5355, 263.8687
384.0176, 262.1684
384.4998, 260.1736
384.9819, 257.8891
385.4640, 255.2405
385.9461, 251.6760
386.4282, 248.0937
386.9103, 245.3851
387.3925, 243.6248
387.8746, 242.1736
388.3567, 240.4159
388.8388, 238.3517
389.3209, 235.9554
389.8030, 232.6579
390.2852, 229.6445
390.7673, 227.2162
391.2494, 225.4280
391.7315, 224.3282
392.2136, 223.9631
392.6957, 224.2330
393.1779, 224.7822
393.6600, 225.9190
394.1421, 226.9062
394.6242, 227.3228
395.1063, 227.7741
395.5884, 228.7904
396.0706, 230.5078
396.5527, 232.6936
397.0348, 235.1347
397.5169, 237.9151
397.9990, 240.5588
398.4811, 242.4538
398.9633, 244.7535
399.4454, 248.1377
399.9275, 252.3392
400.4096, 256.6635
400.8917, 260.6172
401.3738, 264.3103
401.8560, 268.1631
402.3381, 271.9869
402.8202, 276.3623
403.3023, 281.4077
403.7844, 287.0608
404.2665, 293.4361
404.7487, 300.6094
405.2308, 308.0192
405.7129, 314.7181
406.1950, 320.6666
406.6771, 327.4844
407.1592, 336.2641
407.6414, 345.1307
408.1235, 352.4754
408.6056, 358.5547
409.0877, 364.9179
409.5698, 372.6802
410.0519, 381.2831
410.5341, 389.3255
411.0162, 396.4901
411.4983, 404.0825
411.9804, 413.3831
412.4625, 423.5053
412.9446, 432.9156
413.4268, 441.3121
413.9089, 449.0446
414.3910, 456.0280
414.8731, 462.4363
415.3553, 469.1086
415.8374, 476.3219
416.3195, 483.8936
416.8016, 491.7635
417.2837, 499.9985
417.7658, 507.7067
418.2480, 514.9302
418.7301, 521.3529
419.2122, 526.2338
419.6943, 529.5861
420.1764, 533.0438
420.6585, 538.0630
421.1407, 544.4235
421.6228, 549.4227
422.1049, 552.1034
422.5870, 554.6727
423.0691, 558.5752
423.5512, 562.8757
424.0334, 565.9401
424.5155, 567.1074
424.9976, 566.7168
425.4797, 565.3835
425.9618, 563.1263
426.4439, 559.6641
426.9261, 554.4117
427.4082, 548.4531
427.8903, 542.7354
428.3724, 537.1315
428.8545, 530.7462
429.3366, 522.7691
429.8188, 513.2186
430.3009, 503.5709
430.7830, 493.3085
431.2651, 483.4767
431.7472, 474.9864
432.2293, 466.7328
432.7115, 457.2934
433.1936, 446.1813
433.6757, 434.4825
434.1578, 424.1420
434.6399, 415.6272
435.1220, 406.8912
435.6042, 397.2451
436.0863, 387.8670
436.5684, 379.2565
437.0505, 371.4287
437.5326, 364.1944
438.0147, 357.6478
438.4969, 351.5729
438.9790, 345.0914
439.4611, 337.8475
439.9432, 331.1209
440.4253, 325.5269
440.9074, 320.6424
441.3896, 316.1309
441.8717, 311.9182
442.3538, 308.0157
442.8359, 304.6159
443.3180, 301.6018
443.8001, 298.4020
444.2823, 294.7815
444.7644, 291.1542
445.2465, 287.8654
445.7286, 284.8633
446.2107, 282.1726
446.6928, 279.8292
447.1750, 277.7731
447.6571, 276.1517
448.1392, 274.8936
448.6213, 273.3504
449.1034, 271.1174
449.5855, 268.4371
450.0677, 265.9591
450.5498, 263.6251
451.0319, 261.5559
451.5140, 259.9251
451.9961, 258.5157
452.4782, 257.0677
452.9604, 255.5303
453.4425, 254.0219
453.9246, 252.6411
454.4067, 251.3757
454.8888, 250.4126
455.3709, 250.1100
455.8531, 249.6734
456.3352, 248.7488
456.8173, 247.5102
457.2994, 246.1971
457.7815, 244.9223
458.2636, 243.7872
458.7458, 243.0485
459.2279, 243.0367
459.7100, 242.7269
460.1921, 241.7553
460.6742, 240.7983
461.1563, 240.3375
461.6385, 240.2861
462.1206, 240.2032
462.6027, 239.7572
463.0848, 238.9952
463.5669, 238.1122
464.0491, 236.9278
464.5312, 236.0039
465.0133, 235.9832
465.4954, 236.0722
465.9775, 235.3311
466.4597, 233.4885
466.9418, 231.5263
467.4239, 230.3509
467.9060, 229.8762
468.3881, 229.5825
468.8702, 229.5907
469.3524, 229.3830
469.8345, 228.4607
470.3166, 226.9770
470.7987, 225.2902
471.2808, 222.9991
471.7629, 220.9261
472.2451, 220.0537
472.7272, 220.1625
473.2093, 220.1203
473.6914, 219.4409
474.1735, 218.3956
474.6556, 217.4524
475.1378, 216.5617
475.6199, 215.9050
476.1020, 215.4950
476.5841, 215.3355
477.0662, 215.4917
477.5483, 215.9286
478.0305, 216.4797
478.5126, 217.0211
478.9947, 217.5600
479.4768, 218.1490
479.9589, 218.9809
480.4410, 219.6289
480.9232, 219.9857
481.4053, 220.1581
481.8874, 220.3061
482.3695, 220.4449
482.8516, 220.3785
483.3337, 219.8021
483.8159, 218.6357
484.2980, 217.6457
484.7801, 216.9775
485.2622, 216.3318
485.7443, 215.9544
486.2264, 215.4530
486.7086, 214.1868
487.1907, 211.8284
487.6728, 208.8193
488.1549, 205.5185
488.6370, 201.8730
489.1191, 198.9479
489.6013, 197.6441
490.0834, 196.3639
490.5655, 193.5374
491.0476, 189.3722
491.5297, 185.3256
492.0118, 182.0014
492.4940, 179.0960
492.9761, 176.3608
493.4582, 173.7617
493.9403, 171.0666
494.4224, 168.1519
494.9045, 165.0660
495.3867, 161.9531
495.8688, 158.7824
496.3509, 155.6346
496.8330, 152.4046
497.3151, 149.2686
497.7972, 146.4455
498.2794, 143.9469
498.7615, 141.6671
499.2436, 139.5833
499.7257, 137.6712
500.2078, 135.3317
500.6899, 132.1710
501.1721, 129.0520
501.6542, 125.9588
502.1363, 123.0531
502.6184, 120.5450
503.1005, 118.4623
503.5826, 116.5455
504.0648, 114.4825
504.5469, 112.2524
505.0290, 110.0983
505.5111, 108.0677
505.9932, 106.0466
506.4753, 103.8890
506.9575, 101.7432
507.4396, 99.88128
507.9217, 98.46317
508.4038, 97.16282
508.8859, 95.57288
509.3680, 93.70718
509.8502, 91.85423
510.3323, 89.98500
510.8144, 88.28557
511.2965, 87.10082
511.7786, 86.31816
512.2607, 85.24345
512.7429, 83.29360
513.2250, 81.31319
513.7071, 80.15225
514.1892, 79.63598
514.6713, 78.91812
515.1534, 77.58089
515.6356, 75.95583
516.1177, 74.69165
516.5998, 73.90170
517.0819, 73.22592
517.5640, 72.91581
518.0461, 72.50467
518.5283, 71.51998
519.0104, 70.11698
519.4925, 68.85641
519.9746, 68.11330
520.4567, 67.76878
520.9388, 67.39995
521.4210, 67.06977
521.9031, 66.58741
522.3852, 65.89443
522.8673, 65.08871
523.3494, 64.14541
523.8315, 63.12446
524.3137, 62.24342
524.7958, 61.68051
525.2779, 61.39326
525.7600, 61.33897
526.2421, 61.65291
526.7242, 61.68298
527.2064, 60.87463
527.6885, 59.76302
528.1706, 59.05407
528.6527, 58.87043
529.1348, 58.68364
529.6169, 58.16133
530.0991, 57.48365
530.5812, 56.93774
531.0633, 56.55878
531.5454, 56.26240
532.0275, 55.99398
532.5096, 55.75481
532.9918, 55.56046
533.4739, 55.61803
533.9560, 55.45340
534.4381, 54.72204
534.9202, 53.85202
535.4023, 53.32501
535.8845, 53.21794
536.3666, 53.27502
536.8487, 53.26189
537.3308, 53.17857
537.8129, 52.99208
538.2951, 52.62501
538.7772, 52.24971
539.2593, 51.82270
539.7415, 51.44991
540.2236, 51.29016
540.7057, 51.37659
541.1878, 51.48231
541.6699, 51.40516
542.1520, 51.15293
542.6342, 50.71302
543.1163, 49.94457
543.5984, 49.33519
544.0805, 49.40617
544.5626, 49.81763
545.0447, 49.91119
545.5269, 49.41199
546.0090, 48.94819
546.4911, 49.03017
546.9732, 49.36917
547.4553, 49.35410
547.9374, 48.85105
548.4196, 48.27218
548.9017, 48.03340
549.3838, 48.14506
549.8659, 48.06021
550.3480, 47.71075
550.8301, 47.28417
551.3123, 46.66698
551.7944, 46.07579
552.2765, 45.81455
552.7586, 45.94170
553.2407, 46.20398
553.7228, 46.28120
554.2050, 46.15483
554.6871, 46.21591
555.1692, 46.81397
555.6513, 47.08735
556.1334, 46.36572
556.6155, 45.32522
557.0977, 44.91190
557.5798, 45.44011
558.0619, 46.10757
558.5440, 46.16236
559.0261, 45.75136
559.5082, 45.42528
559.9904, 45.27462
560.4725, 45.13298
560.9546, 44.82239
561.4367, 44.41113
561.9188, 44.21979
562.4009, 44.45729
562.8831, 44.65709
563.3652, 44.61998
563.8473, 44.45299
564.3294, 44.27771
564.8115, 44.12994
565.2936, 44.03600
565.7758, 44.03447
566.2579, 44.12596
566.7400, 44.14172
567.2221, 43.86412
567.7042, 43.78069
568.1863, 44.24591
568.6685, 44.79161
569.1506, 44.90373
569.6327, 44.49113
570.1148, 43.90978
570.5969, 43.39771
571.0790, 42.98470
571.5612, 42.92073
572.0433, 43.32351
572.5254, 43.74838
573.0075, 44.04359
573.4896, 44.18530
573.9717, 44.12027
574.4539, 43.79889
574.9360, 43.43038
575.4181, 42.95638
575.9002, 42.56637
576.3823, 42.65414
576.8644, 43.20967
577.3466, 43.67937
577.8287, 43.65881
578.3108, 43.24045
578.7929, 42.87801
579.2750, 42.44633
579.7571, 42.24559
580.2393, 42.42549
580.7214, 42.74336
581.2035, 43.07587
581.6856, 43.36980
582.1677, 43.57427
582.6498, 43.66172
583.1320, 43.61721
583.6141, 43.33151
584.0962, 42.68576
584.5783, 42.20031
585.0604, 42.01339
585.5425, 42.05739
586.0247, 42.39500
586.5068, 42.98507
586.9889, 43.38420
587.4710, 43.25434
587.9531, 42.93032
588.4352, 42.78860
588.9174, 42.81417
