##NAMES=Scorodite
##RRUFFID=R050465
##IDEAL CHEMISTRY=Fe^3+^As^5+^O_4_&#183;2H_2_O
##LOCALITY=Minas Gerais, Brazil
##OWNER=RRUFF
##SOURCE=University of Arizona Mineral Museum
##DESCRIPTION=Group of blue prismatic to tabular crystals displaying many modifying forms
##STATUS=The identification of this mineral has been confirmed by X-ray diffraction and chemical analysis
##URL=rruff.info/R050465
##MEASURED CHEMISTRY=Fe^3+^_1.00_As_1.00_O_4_Â·2H_2_O
91.00781, 23.19701
91.48993, 23.67372
91.97205, 23.86505
92.45416, 23.50501
92.93628, 22.87130
93.41840, 22.53803
93.90051, 22.55637
94.38263, 22.97158
94.86475, 23.94083
95.34686, 25.46120
95.82898, 27.25785
96.31110, 29.04095
96.79321, 30.84777
97.27533, 33.05462
97.75745, 35.80599
98.23956, 38.98457
98.72168, 41.96165
99.20380, 44.62135
99.68591, 47.34846
100.1680, 50.52932
100.6501, 54.14703
101.1323, 58.17039
101.6144, 62.59708
102.0965, 67.44196
102.5786, 72.40201
103.0607, 77.23230
103.5428, 82.42716
104.0250, 88.87515
104.5071, 96.44789
104.9892, 105.4093
105.4713, 116.0215
105.9534, 129.3936
106.4355, 142.0223
106.9177, 154.7588
107.3998, 166.7983
107.8819, 175.9814
108.3640, 180.8206
108.8461, 183.8948
109.3282, 186.4121
109.8104, 186.7204
110.2925, 188.2999
110.7746, 190.9792
111.2567, 194.8534
111.7388, 200.8376
112.2209, 209.2205
112.7031, 219.5774
113.1852, 231.7277
113.6673, 247.1637
114.1494, 262.8536
114.6315, 277.1826
115.1136, 290.1189
115.5958, 305.7435
116.0779, 326.9506
116.5600, 351.0560
117.0421, 374.9463
117.5242, 400.0835
118.0063, 423.1314
118.4885, 442.8745
118.9706, 459.2710
119.4527, 471.8982
119.9348, 478.1373
120.4169, 480.4661
120.8990, 483.5195
121.3812, 488.8044
121.8633, 496.2388
122.3454, 505.8627
122.8275, 518.0751
123.3096, 531.5981
123.7917, 545.0839
124.2739, 558.8466
124.7560, 574.0392
125.2381, 590.6307
125.7202, 609.3434
126.2023, 631.0959
126.6844, 656.2728
127.1666, 684.5675
127.6487, 715.9119
128.1308, 750.4025
128.6129, 786.8788
129.0950, 825.3617
129.5771, 865.5408
130.0593, 907.1771
130.5414, 953.9246
131.0235, 1000.274
131.5056, 1030.590
131.9877, 1040.368
132.4698, 1034.395
132.9520, 1020.115
133.4341, 998.0316
133.9162, 975.6247
134.3983, 953.1740
134.8804, 931.6735
135.3625, 921.3260
135.8447, 925.1028
136.3268, 932.1759
136.8089, 927.6898
137.2910, 910.6940
137.7731, 888.6964
138.2552, 861.6437
138.7374, 827.9100
139.2195, 803.4994
139.7016, 789.3686
140.1837, 782.9088
140.6658, 779.6453
141.1479, 780.4794
141.6301, 782.1718
142.1122, 784.4030
142.5943, 790.3895
143.0764, 787.9843
143.5585, 775.4282
144.0406, 754.6168
144.5228, 730.9131
145.0049, 701.7891
145.4870, 673.1664
145.9691, 648.4138
146.4512, 626.6172
146.9333, 609.5479
147.4155, 597.0239
147.8976, 588.9662
148.3797, 585.9467
148.8618, 587.8140
149.3439, 594.6940
149.8260, 606.5874
150.3082, 628.5723
150.7903, 650.0063
151.2724, 669.2714
151.7545, 686.1569
152.2366, 705.9876
152.7188, 735.2693
153.2009, 764.5043
153.6830, 785.7250
154.1651, 793.5166
154.6472, 797.9521
155.1293, 800.1412
155.6115, 799.8503
156.0936, 800.3557
156.5757, 798.1526
157.0578, 798.3253
157.5399, 806.5071
158.0220, 825.7769
158.5042, 851.6971
158.9863, 882.9235
159.4684, 919.6246
159.9505, 960.0543
160.4326, 1004.049
160.9147, 1051.145
161.3969, 1100.646
161.8790, 1152.912
162.3611, 1207.113
162.8432, 1263.040
163.3253, 1320.104
163.8074, 1378.851
164.2896, 1437.786
164.7717, 1498.465
165.2538, 1564.009
165.7359, 1636.036
166.2180, 1713.255
166.7001, 1796.642
167.1823, 1889.399
167.6644, 1979.224
168.1465, 2062.320
168.6286, 2136.986
169.1107, 2198.379
169.5928, 2237.005
170.0750, 2263.775
170.5571, 2289.718
171.0392, 2314.784
171.5213, 2343.159
172.0034, 2376.446
172.4855, 2415.449
172.9677, 2462.612
173.4498, 2517.481
173.9319, 2582.275
174.4140, 2660.236
174.8961, 2753.596
175.3782, 2858.982
175.8604, 2977.606
176.3425, 3109.268
176.8246, 3246.728
177.3067, 3398.243
177.7888, 3552.978
178.2709, 3688.180
178.7531, 3809.393
179.2352, 3900.206
179.7173, 3936.979
180.1994, 3920.700
180.6815, 3860.732
181.1636, 3754.977
181.6458, 3610.193
182.1279, 3448.870
182.6100, 3264.709
183.0921, 3073.590
183.5742, 2902.452
184.0563, 2754.518
184.5385, 2619.830
185.0206, 2497.277
185.5027, 2383.425
185.9848, 2267.972
186.4669, 2145.416
186.9490, 2018.401
187.4312, 1888.029
187.9133, 1755.666
188.3954, 1626.115
188.8775, 1504.951
189.3596, 1392.977
189.8417, 1292.997
190.3239, 1208.676
190.8060, 1137.981
191.2881, 1074.770
191.7702, 1019.605
192.2523, 972.1520
192.7344, 932.7868
193.2166, 901.6931
193.6987, 875.0526
194.1808, 851.7853
194.6629, 831.8519
195.1450, 813.7537
195.6271, 797.7438
196.1093, 782.9048
196.5914, 767.8790
197.0735, 752.6024
197.5556, 737.8502
198.0377, 724.0275
198.5198, 711.0128
199.0020, 698.3546
199.4841, 685.8251
199.9662, 673.9944
200.4483, 663.7389
200.9304, 655.2264
201.4125, 647.2323
201.8947, 639.3752
202.3768, 631.6877
202.8589, 623.6207
203.3410, 614.9457
203.8231, 606.1604
204.3052, 598.2084
204.7874, 591.0095
205.2695, 584.7825
205.7516, 579.7615
206.2337, 576.0760
206.7158, 572.6675
207.1979, 569.3800
207.6801, 566.4984
208.1622, 564.2606
208.6443, 562.0807
209.1264, 562.2534
209.6085, 566.2303
210.0906, 574.7603
210.5728, 583.7898
211.0549, 593.3859
211.5370, 603.3126
212.0191, 612.9117
212.5012, 622.4591
212.9833, 631.2104
213.4655, 639.1456
213.9476, 647.0377
214.4297, 651.4032
214.9118, 651.6951
215.3939, 648.6793
215.8760, 644.1040
216.3581, 637.9105
216.8403, 630.3501
217.3224, 621.0624
217.8045, 608.5753
218.2866, 598.6761
218.7687, 591.8043
219.2508, 587.4920
219.7330, 584.6859
220.2151, 583.3021
220.6972, 583.5391
221.1793, 585.6556
221.6614, 590.2427
222.1435, 595.0084
222.6257, 599.3311
223.1078, 603.9785
223.5899, 611.3516
224.0720, 622.3726
224.5541, 634.7048
225.0362, 647.8464
225.5184, 662.7570
226.0005, 675.8240
226.4826, 686.6920
226.9647, 695.8154
227.4468, 704.5692
227.9289, 712.1358
228.4111, 720.5330
228.8932, 730.7174
229.3753, 743.0386
229.8574, 756.2687
230.3395, 770.3040
230.8216, 785.1348
231.3038, 801.1431
231.7859, 818.8030
232.2680, 836.7791
232.7501, 854.8998
233.2322, 874.9717
233.7143, 891.1191
234.1965, 903.5751
234.6786, 912.1093
235.1607, 915.8883
235.6428, 912.6914
236.1249, 907.9395
236.6070, 903.9274
237.0892, 901.0282
237.5713, 897.9277
238.0534, 894.0438
238.5355, 890.0978
239.0176, 887.8981
239.4997, 887.4095
239.9819, 888.7045
240.4640, 892.1298
240.9461, 899.2112
241.4282, 904.7484
241.9103, 907.8151
242.3924, 909.6385
242.8746, 913.3168
243.3567, 920.1984
243.8388, 926.8873
244.3209, 931.3960
244.8030, 930.9546
245.2851, 935.8143
245.7673, 947.7728
246.2494, 964.3065
246.7315, 979.9850
247.2136, 994.0175
247.6957, 1008.498
248.1778, 1025.061
248.6600, 1046.061
249.1421, 1061.548
249.6242, 1070.454
250.1063, 1074.552
250.5884, 1077.622
251.0705, 1081.784
251.5527, 1081.220
252.0348, 1072.900
252.5169, 1054.107
252.9990, 1037.624
253.4811, 1026.272
253.9632, 1015.196
254.4454, 994.8192
254.9275, 958.6866
255.4096, 925.3002
255.8917, 900.9061
256.3738, 887.0555
256.8560, 875.8455
257.3381, 866.9926
257.8202, 860.9202
258.3023, 858.2130
258.7844, 859.2228
259.2665, 862.8776
259.7487, 868.9535
260.2308, 877.4603
260.7129, 888.3068
261.1950, 901.7765
261.6771, 917.1887
262.1592, 933.6722
262.6414, 951.0414
263.1235, 969.5747
263.6056, 989.0256
264.0877, 1009.512
264.5698, 1031.850
265.0519, 1056.306
265.5341, 1082.139
266.0162, 1108.596
266.4983, 1134.993
266.9804, 1163.696
267.4625, 1196.404
267.9446, 1232.756
268.4268, 1267.271
268.9089, 1298.920
269.3910, 1329.352
269.8731, 1360.495
270.3552, 1392.387
270.8373, 1424.116
271.3195, 1456.252
271.8016, 1488.405
272.2837, 1517.922
272.7658, 1545.043
273.2479, 1569.761
273.7300, 1593.543
274.2122, 1617.229
274.6943, 1634.416
275.1764, 1643.403
275.6585, 1644.795
276.1406, 1641.622
276.6227, 1633.951
277.1049, 1621.577
277.5870, 1602.786
278.0691, 1576.910
278.5512, 1552.288
279.0333, 1529.959
279.5154, 1509.931
279.9976, 1491.994
280.4797, 1475.897
280.9618, 1462.964
281.4439, 1453.880
281.9260, 1448.701
282.4081, 1446.565
282.8903, 1447.274
283.3724, 1451.043
283.8545, 1459.137
284.3366, 1471.833
284.8187, 1485.940
285.3008, 1499.251
285.7830, 1512.010
286.2651, 1525.530
286.7472, 1539.872
287.2293, 1555.303
287.7114, 1573.660
288.1935, 1594.893
288.6757, 1613.969
289.1578, 1627.337
289.6399, 1635.858
290.1220, 1643.590
290.6041, 1651.205
291.0862, 1656.790
291.5684, 1658.074
292.0505, 1655.030
292.5326, 1647.651
293.0147, 1636.444
293.4968, 1620.962
293.9789, 1598.572
294.4611, 1568.922
294.9432, 1535.512
295.4253, 1501.691
295.9074, 1467.309
296.3895, 1432.589
296.8716, 1395.310
297.3538, 1357.972
297.8359, 1325.346
298.3180, 1297.192
298.8001, 1272.809
299.2822, 1251.540
299.7643, 1233.174
300.2465, 1217.460
300.7286, 1204.362
301.2107, 1193.828
301.6928, 1185.773
302.1749, 1180.241
302.6570, 1176.826
303.1392, 1175.527
303.6213, 1176.134
304.1034, 1178.255
304.5855, 1181.465
305.0676, 1186.535
305.5497, 1195.810
306.0319, 1208.376
306.5140, 1219.972
306.9961, 1225.546
307.4782, 1229.243
307.9603, 1236.342
308.4424, 1249.199
308.9246, 1263.420
309.4067, 1276.371
309.8888, 1288.005
310.3709, 1298.441
310.8530, 1306.556
311.3351, 1314.013
311.8173, 1322.704
312.2994, 1333.988
312.7815, 1343.509
313.2636, 1347.343
313.7457, 1347.677
314.2278, 1348.446
314.7100, 1353.915
315.1921, 1358.445
315.6742, 1357.988
316.1563, 1351.434
316.6384, 1344.539
317.1205, 1338.946
317.6027, 1334.745
318.0848, 1332.093
318.5669, 1330.960
319.0490, 1331.444
319.5311, 1333.149
320.0132, 1335.995
320.4954, 1341.904
320.9775, 1351.835
321.4596, 1364.791
321.9417, 1379.808
322.4238, 1396.483
322.9059, 1415.404
323.3881, 1436.638
323.8702, 1460.054
324.3523, 1486.170
324.8344, 1514.910
325.3165, 1546.436
325.7986, 1581.092
326.2808, 1620.178
326.7629, 1660.913
327.2450, 1703.702
327.7271, 1748.159
328.2092, 1792.849
328.6913, 1837.140
329.1735, 1882.138
329.6556, 1928.936
330.1377, 1977.760
330.6198, 2028.074
331.1019, 2081.956
331.5840, 2136.525
332.0662, 2187.661
332.5483, 2236.400
333.0304, 2280.457
333.5125, 2318.036
333.9946, 2348.966
334.4767, 2376.768
334.9589, 2402.412
335.4410, 2423.641
335.9231, 2437.693
336.4052, 2444.553
336.8873, 2444.001
337.3694, 2435.866
337.8516, 2420.300
338.3336, 2397.159
338.8158, 2364.779
339.2979, 2328.322
339.7800, 2292.784
340.2621, 2259.526
340.7442, 2219.493
341.2263, 2170.567
341.7085, 2114.704
342.1906, 2060.484
342.6727, 2007.563
343.1548, 1955.525
343.6369, 1903.418
344.1190, 1851.662
344.6012, 1799.708
345.0833, 1747.495
345.5654, 1695.746
346.0475, 1645.042
346.5296, 1595.677
347.0117, 1549.034
347.4939, 1506.809
347.9760, 1468.461
348.4581, 1431.294
348.9402, 1395.084
349.4223, 1361.334
349.9044, 1331.514
350.3866, 1305.044
350.8687, 1279.549
351.3508, 1252.684
351.8329, 1226.584
352.3150, 1204.717
352.7971, 1186.940
353.2793, 1171.216
353.7614, 1155.674
354.2435, 1140.832
354.7256, 1127.335
355.2077, 1114.919
355.6898, 1104.514
356.1720, 1097.956
356.6541, 1094.444
357.1362, 1090.574
357.6183, 1081.843
358.1004, 1073.158
358.5826, 1069.399
359.0647, 1072.980
359.5468, 1077.645
360.0289, 1079.515
360.5110, 1080.127
360.9931, 1082.419
361.4753, 1088.046
361.9574, 1095.203
362.4395, 1102.953
362.9216, 1111.115
363.4037, 1120.470
363.8858, 1130.947
364.3680, 1142.857
364.8501, 1156.584
365.3322, 1173.690
365.8143, 1190.949
366.2964, 1206.972
366.7785, 1221.905
367.2607, 1238.885
367.7428, 1259.175
368.2249, 1281.099
368.7070, 1303.763
369.1891, 1327.314
369.6712, 1351.065
370.1534, 1374.240
370.6355, 1397.659
371.1176, 1424.082
371.5997, 1455.717
372.0818, 1487.484
372.5639, 1517.301
373.0461, 1544.178
373.5282, 1572.857
374.0103, 1604.041
374.4924, 1636.878
374.9745, 1669.789
375.4566, 1703.077
375.9388, 1736.160
376.4209, 1768.547
376.9030, 1800.674
377.3851, 1833.231
377.8672, 1867.702
378.3493, 1899.445
378.8315, 1923.317
379.3136, 1939.473
379.7957, 1952.769
380.2778, 1964.947
380.7599, 1974.218
381.2420, 1975.735
381.7242, 1969.484
382.2063, 1959.633
382.6884, 1948.581
383.1705, 1936.039
383.6526, 1921.141
384.1347, 1903.556
384.6169, 1884.547
385.0990, 1866.309
385.5811, 1848.264
386.0632, 1829.408
386.5453, 1808.234
387.0274, 1786.361
387.5096, 1765.593
387.9917, 1746.077
388.4738, 1729.061
388.9559, 1718.389
389.4380, 1710.431
389.9201, 1700.037
390.4023, 1682.249
390.8844, 1665.617
391.3665, 1656.645
391.8486, 1653.807
392.3307, 1651.817
392.8128, 1646.483
393.2950, 1642.182
393.7771, 1642.117
394.2592, 1647.950
394.7413, 1654.809
395.2234, 1660.153
395.7055, 1665.687
396.1877, 1674.058
396.6698, 1686.924
397.1519, 1701.669
397.6340, 1717.650
398.1161, 1734.816
398.5982, 1753.429
399.0804, 1772.538
399.5625, 1793.752
400.0446, 1818.312
400.5267, 1848.428
401.0088, 1878.867
401.4909, 1908.577
401.9731, 1938.169
402.4552, 1969.493
402.9373, 2002.565
403.4194, 2037.396
403.9015, 2074.276
404.3836, 2113.756
404.8658, 2153.186
405.3479, 2192.145
405.8300, 2231.034
406.3121, 2270.747
406.7942, 2311.231
407.2763, 2352.768
407.7585, 2396.040
408.2406, 2440.637
408.7227, 2482.678
409.2048, 2521.644
409.6869, 2560.636
410.1690, 2605.083
410.6512, 2652.532
411.1333, 2692.385
411.6154, 2721.067
412.0975, 2744.281
412.5796, 2771.768
413.0617, 2802.294
413.5439, 2830.167
414.0260, 2851.164
414.5081, 2868.266
414.9902, 2886.639
415.4723, 2907.319
415.9544, 2923.603
416.4366, 2926.291
416.9187, 2921.750
417.4008, 2919.514
417.8829, 2927.950
418.3650, 2935.613
418.8471, 2935.137
419.3293, 2927.532
419.8114, 2919.008
420.2935, 2913.331
420.7756, 2906.921
421.2577, 2897.648
421.7398, 2885.044
422.2220, 2869.606
422.7041, 2849.615
423.1862, 2827.038
423.6683, 2805.357
424.1504, 2789.073
424.6325, 2769.258
425.1147, 2742.094
425.5968, 2705.872
426.0789, 2675.041
426.5610, 2655.081
427.0431, 2635.527
427.5252, 2607.375
428.0074, 2565.566
428.4895, 2526.988
428.9716, 2494.448
429.4537, 2466.475
429.9358, 2439.513
430.4179, 2414.200
430.9001, 2387.869
431.3822, 2357.967
431.8643, 2324.367
432.3464, 2296.285
432.8285, 2274.460
433.3106, 2255.831
433.7928, 2236.300
434.2749, 2216.228
434.7570, 2198.787
435.2391, 2185.903
435.7212, 2175.509
436.2033, 2162.887
436.6855, 2148.503
437.1676, 2135.824
437.6497, 2127.941
438.1318, 2123.223
438.6139, 2119.612
439.0960, 2117.239
439.5782, 2114.264
440.0603, 2107.058
440.5424, 2098.315
441.0245, 2093.167
441.5066, 2096.238
441.9887, 2101.434
442.4709, 2104.559
442.9530, 2105.656
443.4351, 2109.423
443.9172, 2120.776
444.3993, 2133.575
444.8814, 2143.171
445.3636, 2146.395
445.8457, 2149.677
446.3278, 2152.861
446.8099, 2156.679
447.2920, 2163.129
447.7741, 2175.836
448.2563, 2187.271
448.7384, 2195.396
449.2205, 2200.320
449.7026, 2201.854
450.1847, 2198.787
450.6668, 2193.908
451.1490, 2190.083
451.6311, 2188.164
452.1132, 2183.993
452.5953, 2176.740
453.0774, 2167.030
453.5595, 2155.565
454.0417, 2142.073
454.5238, 2128.858
455.0059, 2118.354
455.4880, 2109.540
455.9701, 2095.971
456.4522, 2077.077
456.9344, 2056.276
457.4165, 2036.220
457.8986, 2017.031
458.3807, 1999.757
458.8628, 1985.078
459.3449, 1971.816
459.8271, 1959.485
460.3092, 1947.596
460.7913, 1933.846
461.2734, 1915.118
461.7555, 1895.096
462.2376, 1876.986
462.7198, 1861.929
463.2019, 1846.255
463.6840, 1828.321
464.1661, 1808.918
464.6482, 1789.005
465.1303, 1766.606
465.6125, 1746.001
466.0946, 1729.179
466.5767, 1715.584
467.0588, 1701.409
467.5409, 1685.379
468.0230, 1669.582
468.5052, 1655.003
468.9873, 1642.255
469.4694, 1629.266
469.9515, 1616.064
470.4336, 1602.684
470.9157, 1588.343
471.3979, 1571.926
471.8800, 1558.929
472.3621, 1551.677
472.8442, 1548.912
473.3263, 1543.885
473.8084, 1536.215
474.2906, 1529.227
474.7727, 1525.960
475.2548, 1525.625
475.7369, 1524.020
476.2190, 1520.226
476.7011, 1517.045
477.1833, 1519.593
477.6654, 1525.657
478.1475, 1529.141
478.6296, 1524.524
479.1117, 1518.188
479.5938, 1517.165
480.0760, 1520.749
480.5581, 1524.204
481.0402, 1525.947
481.5223, 1525.786
482.0044, 1523.275
482.4865, 1517.616
482.9687, 1511.663
483.4508, 1508.662
483.9329, 1505.333
484.4150, 1497.073
484.8971, 1477.763
485.3792, 1458.977
485.8614, 1444.749
486.3435, 1434.504
486.8256, 1419.300
487.3077, 1396.820
487.7898, 1372.340
488.2719, 1348.539
488.7541, 1326.503
489.2362, 1302.967
489.7183, 1277.271
490.2004, 1250.891
490.6825, 1225.562
491.1646, 1201.236
491.6468, 1177.528
492.1289, 1154.159
492.6110, 1131.283
493.0931, 1107.892
493.5752, 1083.898
494.0573, 1060.195
494.5395, 1037.112
495.0216, 1014.672
495.5037, 992.3047
495.9858, 970.3749
496.4679, 948.4426
496.9500, 925.7175
497.4322, 903.0265
497.9143, 882.1511
498.3964, 864.9105
498.8785, 848.6292
499.3606, 832.0928
499.8427, 815.2448
500.3249, 798.9996
500.8070, 784.6204
501.2891, 769.9799
501.7712, 753.8755
502.2533, 735.4187
502.7354, 717.8144
503.2176, 701.5362
503.6997, 686.1990
504.1818, 671.3182
504.6639, 656.0510
505.1460, 642.9520
505.6281, 633.4020
506.1103, 626.0987
506.5924, 615.8656
507.0745, 601.6986
507.5566, 588.1244
508.0387, 577.7689
508.5208, 570.4640
509.0030, 563.0372
509.4851, 555.5566
509.9672, 547.5684
510.4493, 537.8888
510.9314, 527.1912
511.4135, 517.8422
511.8957, 510.9927
512.3778, 504.9695
512.8599, 497.6915
513.3420, 489.6397
513.8242, 482.2383
514.3063, 476.7626
514.7884, 471.7361
515.2705, 465.9484
515.7526, 459.3351
516.2347, 452.9316
516.7169, 447.2333
517.1990, 441.8585
517.6811, 436.4982
518.1632, 430.5011
518.6453, 425.3188
519.1274, 421.5484
519.6096, 418.5772
520.0917, 415.3344
520.5738, 411.4666
521.0559, 407.9356
521.5380, 405.0983
522.0201, 402.9041
522.5023, 400.5482
522.9844, 398.1465
523.4665, 395.2224
523.9486, 390.9509
524.4307, 385.4354
524.9128, 381.3042
525.3950, 378.9454
525.8771, 377.4879
526.3592, 376.1668
526.8413, 374.8712
527.3234, 373.1099
527.8055, 370.2960
528.2877, 367.3441
528.7698, 365.4329
529.2519, 364.3590
529.7340, 363.1855
530.2161, 361.5371
530.6982, 359.4922
531.1804, 356.7859
531.6625, 353.1999
532.1446, 350.4501
532.6267, 349.9998
533.1088, 350.2337
533.5909, 349.6707
534.0731, 346.8029
534.5552, 344.7910
535.0373, 344.4899
535.5194, 345.1008
536.0015, 344.4945
536.4836, 342.0969
536.9658, 339.6301
537.4479, 337.5223
537.9300, 335.7967
538.4121, 335.2609
538.8942, 336.2389
539.3763, 337.0352
539.8585, 335.7564
540.3406, 332.8513
540.8227, 331.1071
541.3048, 331.1117
541.7869, 331.4133
542.2690, 330.0573
542.7512, 327.5651
543.2333, 325.2397
543.7154, 323.3952
544.1975, 322.1273
544.6796, 321.9152
545.1617, 322.4875
545.6439, 322.6552
546.1260, 321.2911
546.6081, 319.8083
547.0902, 319.3791
547.5723, 320.7529
548.0544, 320.5429
548.5366, 316.5056
549.0187, 311.6856
549.5008, 308.7549
549.9829, 308.6061
550.4650, 308.8017
550.9471, 309.5021
551.4293, 310.2398
551.9114, 309.7160
552.3935, 307.6255
552.8756, 305.7656
553.3577, 304.9546
553.8398, 304.9288
554.3220, 304.4235
554.8041, 303.4213
555.2862, 302.3924
555.7683, 301.9518
556.2504, 301.6954
556.7325, 300.5932
557.2147, 298.3258
557.6968, 296.2324
558.1789, 295.5284
558.6610, 295.6974
559.1431, 295.9835
559.6252, 296.3011
560.1074, 296.4878
560.5895, 296.2668
561.0716, 295.8223
561.5537, 295.7737
562.0358, 297.2607
562.5179, 298.1663
563.0001, 297.4050
563.4822, 294.7214
563.9643, 293.2734
564.4464, 293.7197
564.9285, 294.4767
565.4106, 294.2015
565.8928, 292.6223
566.3749, 291.9789
566.8570, 292.7462
567.3391, 293.8166
567.8212, 293.1825
568.3033, 291.1087
568.7855, 289.6119
569.2676, 289.5788
569.7497, 290.2702
570.2318, 290.8096
570.7139, 291.1578
571.1960, 291.1890
571.6782, 290.2392
572.1603, 289.3336
572.6424, 289.4527
573.1245, 290.7408
573.6066, 292.0103
574.0887, 293.2618
574.5709, 294.0494
575.0530, 294.0306
575.5351, 292.4324
576.0172, 291.0493
576.4993, 289.6744
576.9814, 288.6566
577.4636, 288.7262
577.9457, 290.4146
578.4278, 291.7557
578.9099, 292.1392
579.3920, 291.8563
579.8741, 291.9507
580.3563, 292.4276
580.8384, 293.2167
581.3205, 294.5775
581.8026, 296.2115
582.2847, 297.1957
582.7668, 297.5042
583.2490, 297.4105
583.7311, 296.8362
584.2132, 296.1142
584.6953, 295.6234
585.1774, 295.3559
585.6595, 295.5754
586.1416, 297.0209
