##NAMES=Scotlandite
##RRUFFID=R100043
##IDEAL CHEMISTRY=Pb^2+^S^4+^O_3_
##LOCALITY=Grand Reef mine, Klondyke, Aravaipa District, Graham County, Arizona, USA
##OWNER=RRUFF
##SOURCE=William W. Pinch
##DESCRIPTION=Colorless, elongated tabular crystals associated with aravaipaite R100032 and laurelite R100011
##STATUS=The identification of this mineral has been confirmed by single-crystal X-ray diffraction.
##URL=rruff.info/R100043
124.8696, 419.8969
125.3517, 419.7628
125.8338, 415.9855
126.3159, 413.9524
126.7980, 417.3898
127.2802, 425.6640
127.7623, 435.6757
128.2444, 444.6812
128.7265, 452.3110
129.2086, 462.4601
129.6907, 476.8061
130.1729, 492.9432
130.6550, 509.8521
131.1371, 527.4259
131.6192, 546.2306
132.1013, 566.7919
132.5834, 588.7097
133.0656, 614.1813
133.5477, 641.4036
134.0298, 672.3897
134.5119, 708.6616
134.9940, 750.6364
135.4761, 797.9503
135.9583, 849.5731
136.4404, 905.2255
136.9225, 965.7671
137.4046, 1028.861
137.8867, 1097.593
138.3688, 1175.906
138.8510, 1266.423
139.3331, 1367.284
139.8152, 1471.788
140.2973, 1579.542
140.7794, 1690.585
141.2615, 1812.627
141.7437, 1940.853
142.2258, 2057.776
142.7079, 2160.645
143.1900, 2238.403
143.6721, 2280.860
144.1542, 2287.712
144.6364, 2258.507
145.1185, 2186.106
145.6006, 2065.917
146.0827, 1930.487
146.5648, 1781.275
147.0469, 1629.685
147.5291, 1486.720
148.0112, 1355.043
148.4933, 1235.443
148.9754, 1130.321
149.4575, 1041.591
149.9396, 965.4202
150.4218, 899.0215
150.9039, 841.4845
151.3860, 792.3640
151.8681, 751.6254
152.3502, 718.6185
152.8323, 689.8377
153.3145, 668.4248
153.7966, 648.6644
154.2787, 629.7351
154.7608, 611.5278
155.2429, 593.8446
155.7250, 576.2384
156.2072, 558.5357
156.6893, 544.5061
157.1714, 535.8316
157.6535, 528.3880
158.1356, 520.3134
158.6177, 511.7293
159.0999, 503.9497
159.5820, 498.3315
160.0641, 495.2989
160.5462, 491.7823
161.0283, 487.7951
161.5104, 483.3759
161.9926, 478.4415
162.4747, 473.0023
162.9568, 467.3095
163.4389, 461.2023
163.9210, 454.7519
164.4031, 450.1419
164.8853, 448.7676
165.3674, 449.1658
165.8495, 449.4134
166.3316, 449.3596
166.8137, 448.7969
167.2958, 447.0251
167.7780, 444.4045
168.2601, 442.4424
168.7422, 442.0202
169.2243, 442.8821
169.7064, 444.0032
170.1885, 445.1781
170.6707, 446.7991
171.1528, 449.4142
171.6349, 452.7656
172.1170, 455.8244
172.5991, 456.8980
173.0812, 455.7597
173.5634, 457.5033
174.0455, 465.1659
174.5276, 473.8117
175.0097, 481.1943
175.4918, 487.4479
175.9739, 494.1575
176.4561, 503.0000
176.9382, 514.4435
177.4203, 526.8008
177.9024, 540.8205
178.3845, 555.0330
178.8666, 567.9125
179.3488, 579.6007
179.8309, 592.1141
180.3130, 608.3361
180.7951, 631.2357
181.2772, 651.0409
181.7593, 664.8651
182.2415, 677.8246
182.7236, 694.4012
183.2057, 715.3923
183.6878, 737.3019
184.1699, 754.8167
184.6520, 765.6830
185.1342, 775.8923
185.6163, 786.8835
186.0984, 796.6571
186.5805, 803.4146
187.0626, 806.6801
187.5447, 806.2740
188.0269, 801.0656
188.5090, 790.7280
188.9911, 778.4698
189.4732, 764.9862
189.9553, 750.0121
190.4374, 732.8480
190.9196, 712.5226
191.4017, 691.2040
191.8838, 671.2605
192.3659, 652.4882
192.8480, 635.8668
193.3301, 622.9657
193.8123, 612.8770
194.2944, 601.9698
194.7765, 588.4664
195.2586, 575.0289
195.7407, 564.4034
196.2228, 556.6507
196.7050, 549.6871
197.1871, 542.4640
197.6692, 534.9560
198.1513, 526.5031
198.6334, 516.2808
199.1155, 505.5991
199.5977, 495.2560
200.0798, 485.3025
200.5619, 475.6213
201.0440, 465.7383
201.5261, 455.3382
202.0082, 446.5209
202.4904, 442.4203
202.9725, 437.8946
203.4546, 429.7024
203.9367, 417.7460
204.4188, 404.7671
204.9009, 394.2659
205.3831, 387.1471
205.8652, 379.8304
206.3473, 372.4887
206.8294, 364.7328
207.3115, 355.7661
207.7936, 345.7709
208.2758, 336.0856
208.7579, 328.8259
209.2400, 325.5487
209.7221, 321.3943
210.2042, 315.7914
210.6863, 309.8937
211.1685, 304.3461
211.6506, 299.3242
212.1327, 294.7410
212.6148, 290.5088
213.0969, 287.2511
213.5790, 282.9924
214.0612, 276.8452
214.5433, 270.3400
215.0254, 264.3623
215.5075, 259.2308
215.9896, 255.0511
216.4717, 252.1147
216.9539, 251.0855
217.4360, 249.8153
217.9181, 248.6327
218.4002, 247.0135
218.8823, 244.2357
219.3644, 240.1243
219.8466, 235.4456
220.3287, 231.0078
220.8108, 226.6099
221.2929, 223.4689
221.7750, 222.7596
222.2571, 223.0151
222.7393, 222.4507
223.2214, 220.6749
223.7035, 218.2295
224.1856, 215.5886
224.6677, 212.7767
225.1498, 210.0455
225.6320, 207.2634
226.1141, 204.6500
226.5962, 202.7123
227.0783, 201.7269
227.5604, 200.8398
228.0425, 198.9874
228.5247, 196.4201
229.0068, 194.1016
229.4889, 192.6395
229.9710, 191.6805
230.4531, 190.3778
230.9352, 188.4998
231.4174, 186.6072
231.8995, 185.0704
232.3816, 183.8430
232.8637, 182.8534
233.3458, 182.5058
233.8279, 182.4142
234.3101, 181.0568
234.7922, 177.3755
235.2743, 174.2136
235.7564, 173.6667
236.2385, 174.7397
236.7206, 175.4166
237.2028, 174.3435
237.6849, 171.9542
238.1670, 170.0949
238.6491, 169.0120
239.1312, 168.1421
239.6133, 167.0418
240.0955, 165.9722
240.5776, 165.4765
241.0597, 166.2141
241.5418, 167.6963
242.0239, 167.3957
242.5060, 163.5755
242.9882, 160.2962
243.4703, 159.0411
243.9524, 158.9645
244.4345, 158.7868
244.9166, 157.7380
245.3987, 156.0660
245.8809, 154.9846
246.3630, 155.0674
246.8451, 155.0358
247.3272, 154.6149
247.8093, 153.9368
248.2914, 153.2727
248.7736, 152.8042
249.2557, 152.3162
249.7378, 150.8711
250.2199, 146.3988
250.7020, 143.6042
251.1841, 144.3704
251.6663, 146.6861
252.1484, 148.3075
252.6305, 148.1631
253.1126, 146.5399
253.5947, 144.2686
254.0768, 139.4093
254.5590, 136.3642
255.0411, 136.5162
255.5232, 138.1524
256.0053, 139.5210
256.4874, 139.8743
256.9695, 139.4424
257.4517, 138.7798
257.9338, 137.3749
258.4159, 136.3563
258.8980, 136.2992
259.3801, 136.3846
259.8622, 135.5490
260.3444, 133.4493
260.8265, 130.8914
261.3086, 129.4018
261.7907, 129.7600
262.2728, 130.0534
262.7549, 130.1747
263.2371, 130.2614
263.7192, 130.6674
264.2013, 131.4554
264.6834, 131.9552
265.1655, 131.0141
265.6476, 127.4851
266.1298, 125.3775
266.6119, 125.9140
267.0940, 127.2634
267.5761, 127.7655
268.0582, 127.0937
268.5403, 125.8962
269.0225, 124.8952
269.5046, 124.1591
269.9867, 123.3196
270.4688, 122.2397
270.9509, 121.1376
271.4330, 120.1464
271.9152, 119.2946
272.3973, 118.6379
272.8794, 118.2142
273.3615, 118.0592
273.8436, 118.2388
274.3257, 119.1053
274.8079, 120.0598
275.2900, 120.7915
275.7721, 121.2467
276.2542, 121.1184
276.7363, 119.9240
277.2184, 117.8342
277.7006, 116.4476
278.1827, 116.4487
278.6648, 116.6216
279.1469, 116.0648
279.6290, 114.8484
280.1111, 113.5749
280.5933, 112.3963
281.0754, 111.5473
281.5575, 111.5291
282.0396, 112.6629
282.5217, 114.2155
283.0038, 116.1422
283.4860, 118.2717
283.9681, 119.7736
284.4502, 120.4069
284.9323, 119.9713
285.4144, 118.0657
285.8965, 113.8126
286.3787, 110.2545
286.8608, 109.7536
287.3429, 111.4909
287.8250, 112.3504
288.3071, 110.9078
288.7892, 108.7246
289.2714, 108.2624
289.7535, 109.7361
290.2356, 110.9214
290.7177, 110.2859
291.1998, 108.5581
291.6819, 107.7763
292.1641, 108.6716
292.6462, 110.0579
293.1283, 110.6897
293.6104, 110.6507
294.0925, 110.3549
294.5746, 109.7932
295.0568, 109.1122
295.5389, 108.4285
296.0210, 107.5352
296.5031, 107.3064
296.9852, 109.5083
297.4673, 113.1630
297.9495, 115.4545
298.4316, 114.6246
298.9137, 112.2340
299.3958, 110.6170
299.8779, 109.9799
300.3600, 109.3601
300.8422, 107.7574
301.3243, 105.7939
301.8064, 104.6338
302.2885, 104.9511
302.7706, 105.7528
303.2527, 105.7146
303.7349, 104.7433
304.2170, 104.3159
304.6991, 105.8876
305.1812, 108.0349
305.6633, 108.6963
306.1454, 107.1659
306.6276, 105.2616
307.1097, 104.5645
307.5918, 105.0164
308.0739, 105.6239
308.5560, 106.2129
309.0381, 106.6862
309.5203, 106.8856
310.0024, 106.7739
310.4845, 106.7448
310.9666, 107.3461
311.4487, 108.3578
311.9308, 108.6048
312.4130, 107.5273
312.8951, 106.0875
313.3772, 105.0697
313.8593, 104.4487
314.3414, 104.1747
314.8235, 104.6088
315.3057, 105.3563
315.7878, 105.1748
316.2699, 103.4640
316.7520, 102.0383
317.2341, 102.6722
317.7162, 104.5922
318.1984, 106.1789
318.6805, 106.8234
319.1626, 106.8140
319.6447, 106.5691
320.1268, 106.0890
320.6089, 105.3639
321.0911, 103.8127
321.5732, 102.1744
322.0553, 101.6008
322.5374, 102.6696
323.0195, 104.2860
323.5016, 105.6370
323.9838, 106.7378
324.4659, 106.8067
324.9480, 104.5610
325.4301, 101.8205
325.9122, 100.9611
326.3943, 102.3995
326.8765, 104.1266
327.3586, 104.7120
327.8407, 104.3277
328.3228, 103.9269
328.8049, 103.8028
329.2870, 103.6024
329.7692, 102.8057
330.2513, 101.4827
330.7334, 100.4753
331.2155, 100.5450
331.6976, 101.1920
332.1797, 101.2104
332.6619, 100.3526
333.1440, 99.20975
333.6261, 97.70359
334.1082, 96.21358
334.5903, 95.87114
335.0724, 98.33754
335.5546, 101.4787
336.0367, 102.2702
336.5188, 100.4986
337.0009, 98.50912
337.4830, 97.57048
337.9651, 97.32439
338.4473, 97.08040
338.9294, 96.72560
339.4115, 96.42680
339.8936, 96.25783
340.3757, 96.23369
340.8578, 96.54939
341.3400, 97.57417
341.8221, 98.65874
342.3042, 98.66360
342.7863, 97.33018
343.2684, 96.39692
343.7505, 97.32942
344.2327, 99.26982
344.7148, 99.95113
345.1969, 98.56657
345.6790, 96.73146
346.1611, 96.52650
346.6432, 97.67260
347.1254, 98.48407
347.6075, 98.22261
348.0896, 97.53954
348.5717, 97.17200
349.0538, 97.18053
349.5359, 97.50687
350.0181, 98.43178
350.5002, 99.65780
350.9823, 99.95737
351.4644, 98.21194
351.9465, 96.42190
352.4286, 96.05052
352.9108, 96.86613
353.3929, 97.80881
353.8750, 98.49709
354.3571, 98.85735
354.8392, 98.64206
355.3214, 97.46263
355.8035, 96.65031
356.2856, 96.89430
356.7677, 97.78807
357.2498, 98.75134
357.7319, 99.69011
358.2141, 100.2668
358.6962, 99.78777
359.1783, 97.98480
359.6604, 96.85222
360.1425, 97.58022
360.6246, 98.47581
361.1068, 97.40693
361.5889, 94.36260
362.0710, 91.88875
362.5531, 92.35429
363.0352, 95.72328
363.5173, 97.74128
363.9995, 97.63670
364.4816, 97.10197
364.9637, 96.86000
365.4458, 96.82485
365.9279, 96.60747
366.4100, 95.94365
366.8922, 95.10586
367.3743, 95.02795
367.8564, 96.45660
368.3385, 97.53265
368.8206, 98.13699
369.3027, 98.21811
369.7849, 97.32720
370.2670, 95.42369
370.7491, 93.64226
371.2312, 93.70670
371.7133, 96.68095
372.1954, 98.24260
372.6776, 97.48978
373.1597, 96.20010
373.6418, 95.16446
374.1239, 94.56355
374.6060, 94.49099
375.0881, 95.08891
375.5703, 96.32871
376.0524, 97.25771
376.5345, 98.08253
377.0166, 98.38399
377.4987, 97.76170
377.9808, 96.63217
378.4630, 95.36934
378.9451, 94.13768
379.4272, 93.33404
379.9093, 94.04128
380.3914, 97.98113
380.8735, 100.5478
381.3557, 101.3425
381.8378, 101.0461
382.3199, 99.69923
382.8020, 97.57092
383.2841, 95.56216
383.7662, 94.76201
384.2484, 95.37077
384.7305, 95.76241
385.2126, 95.56981
385.6947, 95.51060
386.1768, 95.72887
386.6589, 96.26311
387.1411, 97.30828
387.6232, 99.19551
388.1053, 101.3540
388.5874, 101.4574
389.0695, 97.79183
389.5516, 95.32635
390.0338, 96.08009
390.5159, 97.88049
390.9980, 98.74512
391.4801, 98.12667
391.9622, 96.92949
392.4443, 96.28007
392.9265, 96.25957
393.4086, 95.97647
393.8907, 94.59470
394.3728, 93.65659
394.8549, 94.34644
395.3370, 96.33681
395.8192, 98.29189
396.3013, 99.51482
396.7834, 100.0493
397.2655, 99.91194
397.7476, 98.85365
398.2297, 97.77155
398.7119, 96.76769
399.1940, 96.12904
399.6761, 96.49474
400.1582, 98.47554
400.6403, 100.4896
401.1224, 100.4826
401.6046, 98.61463
402.0867, 97.73283
402.5688, 99.27850
403.0509, 101.5146
403.5330, 102.3133
404.0151, 101.6600
404.4973, 100.8676
404.9794, 100.3172
405.4615, 100.0530
405.9436, 100.1864
406.4257, 100.7461
406.9078, 101.5795
407.3900, 102.7809
407.8721, 104.1921
408.3542, 105.0567
408.8363, 105.0632
409.3184, 104.7394
409.8005, 104.1386
410.2827, 103.4281
410.7648, 103.2989
411.2469, 104.2145
411.7290, 105.5635
412.2111, 105.8440
412.6932, 104.5518
413.1754, 103.6303
413.6575, 103.3268
414.1396, 103.5954
414.6217, 104.6609
415.1038, 106.4646
415.5859, 108.2241
416.0681, 109.1278
416.5502, 109.0742
417.0323, 109.2212
417.5144, 109.1567
417.9965, 109.6715
418.4786, 111.6153
418.9608, 114.3141
419.4429, 116.6158
419.9250, 117.9457
420.4071, 118.3283
420.8892, 117.7433
421.3713, 114.7919
421.8535, 113.0250
422.3356, 113.2692
422.8177, 114.1326
423.2998, 114.5592
423.7819, 114.4166
424.2640, 114.2501
424.7462, 114.7329
425.2283, 115.9603
425.7104, 116.4260
426.1925, 115.1617
426.6746, 114.1582
427.1567, 114.1328
427.6389, 114.7026
428.1210, 115.2355
428.6031, 115.4175
429.0852, 115.4621
429.5673, 115.8724
430.0494, 116.8298
430.5316, 117.5019
431.0137, 117.5218
431.4958, 117.2944
431.9779, 116.9695
432.4600, 116.5909
432.9421, 116.3024
433.4243, 116.1323
433.9064, 116.1265
434.3885, 116.5576
434.8706, 117.6350
435.3527, 118.6940
435.8348, 119.6215
436.3170, 120.2017
436.7991, 119.8636
437.2812, 117.8106
437.7633, 115.7220
438.2454, 115.3522
438.7275, 116.4760
439.2097, 117.5932
439.6918, 118.2899
440.1739, 118.6052
440.6560, 118.4892
441.1381, 117.9154
441.6202, 117.4147
442.1024, 116.7471
442.5845, 116.4397
443.0666, 117.4658
443.5487, 119.7973
444.0308, 121.9397
444.5129, 122.7382
444.9951, 122.3178
445.4772, 122.0269
445.9593, 121.8461
446.4414, 121.7958
446.9235, 121.9148
447.4056, 122.1596
447.8878, 122.4690
448.3699, 122.8221
448.8520, 123.2294
449.3341, 123.7096
449.8162, 124.2632
450.2983, 124.8968
450.7805, 125.3473
451.2626, 126.0993
451.7447, 127.4065
452.2268, 129.2350
452.7089, 131.4880
453.1910, 134.1339
453.6732, 137.0596
454.1553, 139.6089
454.6374, 140.4552
455.1195, 143.3277
455.6016, 149.4806
456.0837, 157.1437
456.5659, 165.0365
457.0480, 172.8898
457.5301, 180.6651
458.0122, 187.8730
458.4943, 194.5851
458.9764, 203.1160
459.4586, 213.7347
459.9407, 226.0133
460.4228, 238.8383
460.9049, 253.0268
461.3870, 270.1062
461.8691, 290.6234
462.3513, 314.1859
462.8334, 339.6595
463.3155, 367.1397
463.7976, 399.0395
464.2797, 435.7606
464.7618, 477.9409
465.2440, 525.5940
465.7261, 578.4835
466.2082, 637.6149
466.6903, 701.8173
467.1724, 773.4487
467.6545, 854.7132
468.1367, 945.6309
468.6188, 1047.694
469.1009, 1160.376
469.5830, 1284.724
470.0651, 1429.168
470.5472, 1601.356
471.0294, 1779.426
471.5115, 1987.079
471.9936, 2185.247
472.4757, 2339.655
472.9578, 2436.851
473.4399, 2452.659
473.9221, 2351.461
474.4042, 2115.384
474.8863, 1862.093
475.3684, 1553.236
475.8505, 1267.391
476.3326, 1029.849
476.8148, 836.7295
477.2969, 680.7562
477.7790, 559.7812
478.2611, 467.0833
478.7432, 391.8078
479.2253, 336.9882
479.7075, 292.1460
480.1896, 259.9934
480.6717, 234.6534
481.1538, 214.8925
481.6359, 199.7245
482.1180, 186.6855
482.6002, 174.0361
483.0823, 162.3694
483.5644, 153.5086
484.0465, 148.0703
484.5286, 143.3608
485.0107, 138.2681
485.4929, 133.2846
485.9750, 128.9904
486.4571, 125.5335
486.9392, 122.4634
487.4213, 119.3574
487.9034, 116.4631
488.3856, 114.5731
488.8677, 113.9176
489.3498, 113.3045
489.8319, 111.6548
490.3140, 109.0300
490.7961, 106.7523
491.2783, 104.6968
491.7604, 103.0943
492.2425, 102.4553
492.7246, 102.2614
493.2067, 101.5304
493.6888, 99.92269
494.1710, 97.79845
494.6531, 95.60164
495.1352, 92.85271
495.6173, 91.68189
496.0994, 93.25783
496.5815, 95.03566
497.0637, 95.99108
497.5458, 96.16019
498.0279, 95.85714
498.5100, 95.23795
498.9921, 94.35844
499.4742, 93.25305
499.9564, 91.63026
500.4385, 90.53987
500.9206, 90.26999
501.4027, 90.45404
501.8848, 91.16496
502.3669, 92.23655
502.8491, 93.03215
503.3312, 92.93555
503.8133, 92.28933
504.2954, 92.05666
504.7775, 92.32844
505.2596, 92.58778
505.7418, 92.56810
506.2239, 92.41460
506.7060, 92.29834
507.1881, 92.19096
507.6702, 92.28166
508.1523, 92.81074
508.6345, 93.55227
509.1166, 94.20684
509.5987, 94.73250
510.0808, 94.91039
510.5629, 94.35574
511.0450, 93.21597
511.5272, 93.12949
512.0093, 95.23773
512.4914, 96.89592
512.9735, 97.14056
513.4556, 96.57672
513.9377, 96.06260
514.4199, 95.81412
514.9020, 95.32714
515.3841, 93.81675
515.8662, 90.96990
516.3483, 89.27297
516.8304, 89.55357
517.3126, 90.15553
517.7947, 90.77842
518.2768, 91.39624
518.7589, 92.15148
519.2410, 93.12822
519.7231, 93.83478
520.2053, 93.25998
520.6874, 91.26407
521.1695, 90.10802
521.6516, 90.58427
522.1337, 91.34177
522.6158, 91.50026
523.0980, 91.18952
523.5801, 90.76829
524.0622, 90.28767
524.5443, 89.82516
525.0264, 89.35393
525.5085, 88.92699
525.9907, 89.02173
526.4728, 90.03632
526.9549, 91.12234
527.4370, 90.83083
527.9191, 88.86708
528.4012, 87.49706
528.8834, 87.33955
529.3655, 87.50398
529.8476, 87.58466
530.3297, 87.46970
530.8118, 86.90540
531.2939, 85.71037
531.7761, 84.27085
532.2582, 83.62923
532.7403, 84.56779
533.2224, 84.85878
533.7045, 84.13527
534.1866, 83.13335
534.6688, 81.90517
535.1509, 80.75240
535.6330, 80.36195
536.1151, 81.33138
536.5972, 83.16965
537.0793, 84.76810
537.5615, 86.30752
538.0436, 86.79167
538.5257, 84.78366
539.0078, 82.47605
539.4899, 82.02319
539.9720, 83.38505
540.4542, 84.50501
540.9363, 83.99968
541.4184, 82.85578
541.9005, 82.51027
542.3826, 82.98440
542.8647, 83.61134
543.3469, 84.15724
543.8290, 84.52064
544.3111, 84.35123
544.7932, 83.30216
545.2753, 82.61436
545.7574, 82.90977
546.2396, 83.31119
546.7217, 83.05003
547.2038, 82.13709
547.6859, 80.95095
548.1680, 79.68940
548.6501, 78.49062
549.1323, 78.01875
549.6144, 78.83631
550.0965, 79.42161
550.5786, 79.52638
551.0607, 79.43584
551.5428, 79.31593
552.0250, 79.19771
552.5071, 79.06415
552.9892, 78.84115
553.4713, 78.61372
553.9534, 78.67708
554.4355, 79.09761
554.9177, 79.47088
555.3998, 79.59213
555.8819, 79.61543
556.3640, 79.76189
556.8461, 80.05085
557.3282, 80.32451
557.8104, 80.70818
558.2925, 80.93710
558.7746, 80.55790
559.2567, 79.62534
559.7388, 78.73228
560.2209, 78.22014
560.7031, 78.01425
561.1852, 77.87315
561.6673, 77.72454
562.1494, 77.75450
562.6315, 78.18414
563.1136, 78.62240
563.5958, 78.75056
564.0779, 78.60750
564.5600, 78.44437
565.0421, 78.44344
565.5242, 78.54470
566.0063, 78.44450
566.4885, 77.85848
566.9706, 77.90498
567.4527, 79.78834
567.9348, 81.69062
568.4169, 82.25327
568.8990, 81.54586
569.3812, 80.66145
569.8633, 80.08830
570.3454, 79.71458
570.8275, 79.24707
571.3096, 78.72774
571.7917, 78.85255
572.2739, 80.16503
572.7560, 81.88049
573.2381, 82.52636
573.7202, 81.82198
574.2023, 81.25502
574.6844, 80.95604
575.1666, 80.84003
575.6487, 81.14168
576.1308, 81.57535
576.6129, 81.26037
577.0950, 79.67888
577.5771, 77.76063
578.0593, 77.87990
578.5414, 81.49827
579.0235, 83.14830
579.5056, 80.55555
579.9877, 77.79772
580.4698, 76.83266
580.9520, 77.13113
581.4341, 77.11600
581.9162, 75.81621
582.3983, 74.46703
582.8804, 75.07983
583.3625, 77.43460
583.8447, 79.15876
584.3268, 79.67705
584.8089, 79.48048
585.2910, 78.81441
585.7731, 77.74555
586.2552, 76.98462
586.7374, 76.60655
587.2195, 76.53644
587.7016, 76.96834
588.1837, 77.62389
588.6658, 78.02339
589.1479, 78.02592
589.6301, 77.82751
590.1122, 77.62680
590.5943, 77.39349
591.0764, 77.46379
591.5585, 78.22944
592.0406, 78.84531
592.5228, 79.40674
593.0049, 79.57323
593.4870, 78.56772
593.9691, 76.25046
594.4512, 74.32590
594.9333, 74.83134
595.4155, 77.16844
595.8976, 78.70324
596.3797, 79.19187
596.8618, 79.33331
597.3439, 79.57440
597.8260, 79.69896
598.3082, 79.15117
598.7903, 77.47337
599.2724, 76.28248
599.7545, 76.22991
600.2366, 76.83792
600.7188, 77.97090
601.2009, 79.38114
601.6830, 80.07512
602.1651, 79.23177
602.6472, 77.53668
603.1293, 77.67315
603.6115, 81.37200
604.0936, 83.70476
604.5757, 83.78157
605.0578, 83.04549
605.5399, 81.93385
606.0220, 80.75218
606.5042, 80.01984
606.9863, 79.99675
607.4684, 80.62821
607.9505, 82.09630
608.4326, 84.37442
608.9147, 86.23939
609.3969, 87.25234
609.8790, 87.97036
610.3611, 88.70058
610.8432, 89.50130
611.3253, 91.35409
611.8074, 95.38856
612.2896, 99.42895
612.7717, 102.1672
613.2538, 104.1820
613.7359, 106.3261
614.2180, 108.9069
614.7001, 112.0898
615.1823, 116.1379
615.6644, 121.0836
616.1465, 126.1753
616.6286, 130.5528
617.1107, 136.3219
617.5928, 145.3712
618.0750, 155.1615
618.5571, 162.8534
619.0392, 167.9570
619.5213, 172.7267
620.0034, 179.3109
620.4855, 186.6608
