##NAMES=Scotlandite
##RRUFFID=R060764
##IDEAL CHEMISTRY=Pb^2+^S^4+^O_3_
##LOCALITY=Lady Anne Hopetoun shaft. Leadhills, Lanarkshire, Scotland
##OWNER=RRUFF
##SOURCE=Michael Scott
##DESCRIPTION=Radiating group of colorless spear-head shaped prismatic crystals
##STATUS=The identification of this mineral is confirmed by single-crystal X-ray diffraction and chemical analysis.
##URL=rruff.info/R060764
##MEASURED CHEMISTRY=Pb_1.00_S^4+^_1.00_O_3_; trace amounts of Fe
119.594, 8016.579
120.076, 8240.924
120.559, 8465.390
121.041, 8675.028
121.523, 8856.449
122.005, 9014.624
122.487, 9167.348
122.969, 9329.399
123.451, 9492.744
123.933, 9647.516
124.415, 9793.625
124.898, 9927.934
125.380, 10037.170
125.862, 10122.600
126.344, 10216.230
126.826, 10348.830
127.308, 10511.510
127.790, 10680.360
128.272, 10838.740
128.755, 10996.400
129.237, 11169.270
129.719, 11356.180
130.201, 11564.800
130.683, 11807.870
131.165, 12082.280
131.647, 12379.840
132.129, 12683.350
132.611, 12999.440
133.094, 13364.850
133.576, 13789.740
134.058, 14258.430
134.540, 14730.160
135.022, 15208.240
135.504, 15692.320
135.986, 16194.300
136.468, 16711.311
136.951, 17219.000
137.433, 17711.590
137.915, 18188.490
138.397, 18680.820
138.879, 19205.619
139.361, 19716.779
139.843, 20193.131
140.325, 20653.199
140.807, 21023.920
141.290, 21284.939
141.772, 21428.391
142.254, 21517.260
142.736, 21564.199
143.218, 21546.449
143.700, 21421.039
144.182, 21166.199
144.664, 20837.660
145.146, 20448.711
145.629, 19946.930
146.111, 19483.420
146.593, 19072.721
147.075, 18696.990
147.557, 18318.279
148.039, 17903.051
148.521, 17508.330
149.003, 17157.980
149.486, 16862.881
149.968, 16603.971
150.450, 16381.150
150.932, 16194.940
151.414, 16038.630
151.896, 15931.470
152.378, 15842.510
152.860, 15749.720
153.342, 15644.270
153.824, 15543.370
154.307, 15447.520
154.789, 15354.590
155.271, 15281.030
155.753, 15233.990
156.235, 15206.950
156.717, 15192.810
157.199, 15185.870
157.682, 15194.450
158.164, 15224.240
158.646, 15281.880
159.128, 15340.390
159.610, 15396.330
160.092, 15446.670
160.574, 15484.650
161.056, 15499.420
161.538, 15505.010
162.020, 15508.190
162.503, 15505.800
162.985, 15507.080
163.467, 15512.520
163.949, 15523.640
164.431, 15546.040
164.913, 15601.940
165.395, 15661.570
165.877, 15698.910
166.360, 15684.970
166.842, 15668.740
167.324, 15678.810
167.806, 15714.000
168.288, 15759.950
168.770, 15804.650
169.252, 15856.550
169.734, 15926.610
170.217, 16024.210
170.699, 16138.170
171.181, 16264.160
171.663, 16401.689
172.145, 16538.760
172.627, 16649.631
173.109, 16752.480
173.591, 16885.461
174.073, 17088.859
174.555, 17323.730
175.038, 17537.721
175.520, 17724.631
176.002, 17909.641
176.484, 18114.631
176.966, 18337.830
177.448, 18580.199
177.930, 18866.000
178.413, 19165.840
178.895, 19430.539
179.377, 19646.461
179.859, 19841.449
180.341, 20061.131
180.823, 20302.330
181.305, 20534.520
181.787, 20727.420
182.269, 20895.141
182.751, 21086.650
183.234, 21327.039
183.716, 21577.359
184.198, 21761.000
184.680, 21878.340
185.162, 21965.480
185.644, 22054.971
186.126, 22140.881
186.608, 22201.301
187.091, 22230.000
187.573, 22228.311
188.055, 22193.510
188.537, 22123.570
189.019, 22038.359
189.501, 21953.061
189.983, 21867.740
190.465, 21790.580
190.947, 21731.711
191.430, 21684.641
191.912, 21622.650
192.394, 21548.301
192.876, 21454.051
193.358, 21315.449
193.840, 21132.881
194.322, 20971.490
194.804, 20873.500
195.286, 20834.400
195.769, 20775.650
196.251, 20697.881
196.733, 20597.920
197.215, 20460.391
197.697, 20281.520
198.179, 20100.580
198.661, 19938.250
199.143, 19793.881
199.626, 19650.230
200.108, 19506.721
200.590, 19363.020
201.072, 19214.551
201.554, 19060.359
202.036, 18903.949
202.518, 18746.631
203.000, 18587.789
203.482, 18429.480
203.965, 18273.961
204.447, 18116.311
204.929, 17938.439
205.411, 17729.279
205.893, 17528.240
206.375, 17372.770
206.857, 17276.510
207.339, 17153.740
207.822, 16984.619
208.304, 16778.439
208.786, 16595.631
209.268, 16442.500
209.750, 16298.640
210.232, 16143.880
210.714, 15973.300
211.196, 15818.780
211.678, 15689.850
212.161, 15584.760
212.643, 15478.730
213.125, 15368.870
213.607, 15261.720
214.089, 15164.830
214.571, 15084.830
215.053, 14994.260
215.535, 14880.140
216.018, 14739.780
216.500, 14630.420
216.982, 14565.820
217.464, 14517.340
217.946, 14450.840
218.428, 14358.700
218.910, 14266.440
219.392, 14179.580
219.874, 14098.890
220.357, 14023.050
220.839, 13951.650
221.321, 13886.840
221.803, 13833.910
222.285, 13804.750
222.767, 13765.570
223.249, 13702.420
223.731, 13605.560
224.214, 13525.910
224.696, 13467.360
225.178, 13423.670
225.660, 13381.540
226.142, 13340.430
226.624, 13302.420
227.106, 13269.940
227.588, 13246.630
228.070, 13215.730
228.553, 13174.010
229.035, 13125.290
229.517, 13075.360
229.999, 13016.900
230.481, 12967.280
230.963, 12936.790
231.445, 12941.940
231.927, 12926.610
232.410, 12881.220
232.892, 12817.670
233.374, 12767.180
233.856, 12731.050
234.338, 12706.470
234.820, 12696.330
235.302, 12721.800
235.784, 12714.940
236.266, 12658.290
236.749, 12568.420
237.231, 12508.430
237.713, 12492.880
238.195, 12486.880
238.677, 12471.550
239.159, 12438.300
239.641, 12414.490
240.123, 12405.260
240.605, 12407.100
241.088, 12403.410
241.570, 12393.950
242.052, 12379.220
242.534, 12358.140
243.016, 12324.020
243.498, 12297.080
243.980, 12282.460
244.462, 12276.700
244.945, 12259.180
245.427, 12216.720
245.909, 12178.300
246.391, 12166.560
246.873, 12205.500
247.355, 12219.420
247.837, 12190.920
248.319, 12126.930
248.801, 12082.010
249.284, 12065.640
249.766, 12057.730
250.248, 12045.420
250.730, 12028.600
251.212, 12008.720
251.694, 11983.790
252.176, 11955.700
252.658, 11937.710
253.141, 11937.150
253.623, 11938.550
254.105, 11928.930
254.587, 11900.910
255.069, 11880.570
255.551, 11875.900
256.033, 11884.680
256.515, 11878.140
256.997, 11845.790
257.480, 11811.380
257.962, 11793.840
258.444, 11798.990
258.926, 11806.030
259.408, 11812.850
259.890, 11818.920
260.372, 11820.670
260.854, 11819.000
261.336, 11810.950
261.819, 11789.600
262.301, 11742.840
262.783, 11715.590
263.265, 11720.090
263.747, 11753.430
264.229, 11782.600
264.711, 11810.750
265.193, 11829.200
265.676, 11825.400
266.158, 11790.070
266.640, 11763.310
267.122, 11747.260
267.604, 11729.928
268.086, 11746.319
268.568, 11754.524
269.050, 11754.983
269.532, 11724.496
270.015, 11733.970
270.497, 11727.429
270.979, 11720.230
271.461, 11735.329
271.943, 11709.343
272.425, 11721.900
272.907, 11754.410
273.389, 11757.430
273.871, 11724.430
274.354, 11700.130
274.836, 11695.640
275.318, 11707.760
275.800, 11712.470
276.282, 11706.420
276.764, 11701.680
277.246, 11714.500
277.728, 11748.200
278.211, 11766.940
278.693, 11757.450
279.175, 11726.710
279.657, 11713.560
280.139, 11722.160
280.621, 11731.870
281.103, 11717.600
281.585, 11678.300
282.068, 11655.310
282.550, 11664.730
283.032, 11695.770
283.514, 11701.380
283.996, 11676.990
284.478, 11652.950
284.960, 11664.050
285.442, 11709.160
285.924, 11738.660
286.406, 11739.760
286.889, 11720.580
287.371, 11700.960
287.853, 11680.440
288.335, 11665.440
288.817, 11664.200
289.299, 11675.120
289.781, 11686.100
290.263, 11697.840
290.746, 11705.060
291.228, 11689.830
291.710, 11651.630
292.192, 11614.870
292.674, 11598.640
293.156, 11600.630
293.638, 11614.650
294.120, 11646.890
294.603, 11682.020
295.085, 11689.890
295.567, 11671.920
296.049, 11648.470
296.531, 11635.940
297.013, 11630.670
297.495, 11620.490
297.977, 11597.690
298.459, 11577.750
298.942, 11589.590
299.424, 11629.210
299.906, 11668.560
300.388, 11683.180
300.870, 11683.480
301.352, 11689.690
301.834, 11707.390
302.316, 11727.700
302.798, 11738.390
303.281, 11741.430
303.763, 11747.280
304.245, 11762.940
304.727, 11784.770
305.209, 11809.470
305.691, 11839.800
306.173, 11864.530
306.655, 11868.720
307.138, 11857.970
307.620, 11850.030
308.102, 11860.130
308.584, 11876.140
309.066, 11885.350
309.548, 11884.730
310.030, 11881.280
310.512, 11879.540
310.994, 11878.840
311.477, 11877.440
311.959, 11878.800
312.441, 11876.570
312.923, 11862.820
313.405, 11832.020
313.887, 11806.570
314.369, 11800.110
314.851, 11806.520
315.333, 11814.860
315.816, 11825.990
316.298, 11833.930
316.780, 11833.250
317.262, 11820.730
317.744, 11812.500
318.226, 11815.480
318.708, 11802.609
319.190, 11829.071
319.672, 11845.985
320.155, 11853.866
320.637, 11825.650
321.119, 11844.044
321.601, 11843.759
322.083, 11842.707
322.565, 11867.661
323.047, 11844.696
323.530, 11869.238
324.012, 11874.815
324.494, 11889.072
324.976, 11884.534
325.458, 11885.802
325.940, 11905.870
326.422, 11915.528
326.904, 11908.827
327.386, 11923.636
327.868, 11900.014
328.351, 11910.114
328.833, 11934.767
329.315, 11929.011
329.797, 11944.163
330.279, 11951.353
330.761, 11922.353
331.243, 11956.289
331.725, 11963.008
332.208, 11941.780
332.690, 11973.560
333.172, 11956.185
333.654, 11956.354
334.136, 11969.729
334.618, 11969.339
335.100, 11990.650
335.582, 11991.054
336.065, 11989.591
336.547, 11996.278
337.029, 11997.030
337.511, 12033.680
337.993, 12066.790
338.475, 12072.440
338.957, 12043.200
339.439, 12025.610
339.921, 12023.410
340.404, 12032.380
340.886, 12045.000
341.368, 12061.900
341.850, 12078.980
342.332, 12095.480
342.814, 12111.670
343.296, 12123.030
343.778, 12129.470
344.260, 12132.510
344.743, 12131.650
345.225, 12127.340
345.707, 12129.370
346.189, 12146.790
346.671, 12175.140
347.153, 12195.320
347.635, 12206.280
348.117, 12212.990
348.599, 12219.020
349.082, 12224.570
349.564, 12232.120
350.046, 12246.520
350.528, 12261.140
351.010, 12259.570
351.492, 12241.700
351.974, 12226.380
352.457, 12234.060
352.939, 12256.040
353.421, 12275.350
353.903, 12287.660
354.385, 12294.470
354.867, 12298.130
355.349, 12298.520
355.831, 12293.360
356.313, 12269.120
356.796, 12243.560
357.278, 12239.330
357.760, 12275.130
358.242, 12313.380
358.724, 12329.420
359.206, 12328.100
359.688, 12324.200
360.170, 12319.310
360.652, 12317.580
361.135, 12323.610
361.617, 12343.330
362.099, 12357.450
362.581, 12348.960
363.063, 12330.620
363.545, 12325.860
364.027, 12359.650
364.509, 12392.930
364.991, 12406.420
365.474, 12391.220
365.956, 12384.780
366.438, 12403.570
366.920, 12431.190
367.402, 12448.050
367.884, 12434.710
368.366, 12428.790
368.848, 12445.950
369.331, 12491.290
369.813, 12510.960
370.295, 12480.520
370.777, 12442.520
371.259, 12433.130
371.741, 12470.910
372.223, 12505.710
372.705, 12529.830
373.188, 12544.600
373.670, 12561.900
374.152, 12583.300
374.634, 12603.770
375.116, 12619.660
375.598, 12630.260
376.080, 12638.640
376.562, 12644.960
377.044, 12649.190
377.526, 12650.840
378.009, 12649.820
378.491, 12647.740
378.973, 12646.620
379.455, 12646.580
379.937, 12640.100
380.419, 12624.080
380.901, 12609.870
381.384, 12618.800
381.866, 12649.560
382.348, 12677.250
382.830, 12687.710
383.312, 12687.200
383.794, 12693.520
384.276, 12706.800
384.758, 12723.400
385.240, 12739.450
385.723, 12755.420
386.205, 12772.840
386.687, 12791.350
387.169, 12811.430
387.651, 12837.550
388.133, 12867.640
388.615, 12889.210
389.097, 12887.770
389.579, 12874.350
390.062, 12861.410
390.544, 12848.850
391.026, 12842.850
391.508, 12850.400
391.990, 12868.510
392.472, 12888.870
392.954, 12917.540
393.436, 12941.150
393.918, 12948.160
394.401, 12930.680
394.883, 12918.370
395.365, 12925.650
395.847, 12943.050
396.329, 12956.500
396.811, 12953.500
397.293, 12954.630
397.775, 12966.780
398.258, 12991.080
398.740, 13017.810
399.222, 13056.800
399.704, 13091.710
400.186, 13108.580
400.668, 13089.340
401.150, 13077.050
401.632, 13076.770
402.114, 13087.880
402.597, 13106.790
403.079, 13140.810
403.561, 13172.320
404.043, 13190.520
404.525, 13192.680
405.007, 13190.610
405.489, 13182.420
405.971, 13172.610
406.453, 13169.310
406.936, 13172.110
407.418, 13183.470
407.900, 13207.920
408.382, 13244.290
408.864, 13276.660
409.346, 13304.910
409.828, 13329.700
410.310, 13351.840
410.793, 13371.380
411.275, 13389.590
411.757, 13406.260
412.239, 13422.230
412.721, 13438.330
413.203, 13454.780
413.685, 13474.250
414.167, 13500.160
414.650, 13530.570
415.132, 13561.180
415.614, 13589.080
416.096, 13620.310
416.578, 13669.790
417.060, 13729.430
417.542, 13772.670
418.024, 13771.810
418.506, 13759.170
418.988, 13757.740
419.471, 13771.040
419.953, 13793.880
420.435, 13833.470
420.917, 13879.220
421.399, 13916.030
421.881, 13936.680
422.363, 13951.410
422.845, 13959.170
423.328, 13959.780
423.810, 13971.580
424.292, 14008.150
424.774, 14050.050
425.256, 14083.480
425.738, 14097.190
426.220, 14118.710
426.702, 14155.960
427.185, 14202.540
427.667, 14231.950
428.149, 14233.150
428.631, 14234.870
429.113, 14249.890
429.595, 14279.340
430.077, 14317.210
430.559, 14368.390
431.041, 14420.190
431.524, 14451.500
432.006, 14460.880
432.488, 14463.250
432.970, 14456.990
433.452, 14447.970
433.934, 14466.470
434.416, 14514.650
434.898, 14567.090
435.380, 14600.290
435.863, 14618.850
436.345, 14639.290
436.827, 14669.650
437.309, 14696.210
437.791, 14687.960
438.273, 14655.940
438.755, 14644.060
439.237, 14703.380
439.720, 14783.450
440.202, 14825.240
440.684, 14815.040
441.166, 14805.840
441.648, 14831.320
442.130, 14878.370
442.612, 14928.930
443.094, 14987.170
443.576, 15037.700
444.059, 15071.590
444.541, 15089.630
445.023, 15107.970
445.505, 15144.040
445.987, 15173.180
446.469, 15179.640
446.951, 15129.080
447.433, 15098.160
447.915, 15096.480
448.398, 15115.220
448.880, 15131.940
449.362, 15144.610
449.844, 15157.990
450.326, 15169.230
450.808, 15174.210
451.290, 15209.690
451.772, 15285.110
452.254, 15374.390
452.737, 15442.400
453.219, 15483.500
453.701, 15545.240
454.183, 15636.790
454.665, 15757.350
455.147, 15908.160
455.629, 16087.950
456.112, 16297.950
456.594, 16520.100
457.076, 16772.721
457.558, 17094.641
458.040, 17492.850
458.522, 17968.090
459.004, 18539.010
459.486, 19190.949
459.968, 19903.551
460.451, 20666.980
460.933, 21484.500
461.415, 22338.330
461.897, 23228.260
462.379, 24172.961
462.861, 25161.000
463.343, 26212.170
463.825, 27334.840
464.307, 28563.631
464.790, 29828.029
465.272, 31078.471
465.754, 32334.750
466.236, 33632.309
466.718, 34953.578
467.200, 36353.371
467.682, 37858.430
468.164, 39470.691
468.647, 41151.840
469.129, 42882.441
469.611, 44682.328
470.093, 46615.379
470.575, 48741.930
471.057, 50859.281
471.539, 53052.031
472.021, 55185.359
472.503, 56766.359
472.986, 57905.738
473.468, 58008.301
473.950, 56517.289
474.432, 53533.172
474.914, 49920.898
475.396, 45611.961
475.878, 41147.379
476.360, 37102.309
476.842, 33475.609
477.325, 30349.801
477.807, 27801.189
478.289, 25712.170
478.771, 23982.779
479.253, 22602.279
479.735, 21451.480
480.217, 20502.270
480.699, 19713.070
481.181, 19057.990
481.664, 18553.539
482.146, 18121.471
482.628, 17739.971
483.110, 17406.131
483.592, 17118.600
484.074, 16891.520
484.556, 16694.721
485.039, 16525.109
485.521, 16382.410
486.003, 16249.910
486.485, 16128.470
486.967, 16014.990
487.449, 15909.180
487.931, 15814.660
488.413, 15719.870
488.895, 15622.650
489.378, 15526.920
489.860, 15440.100
490.342, 15362.520
490.824, 15297.780
491.306, 15252.370
491.788, 15225.620
492.270, 15193.590
492.752, 15156.370
493.234, 15114.360
493.717, 15062.750
494.199, 15005.080
494.681, 14956.970
495.163, 14926.360
495.645, 14902.840
496.127, 14870.880
496.609, 14833.280
497.091, 14802.390
497.573, 14791.000
498.056, 14786.480
498.538, 14776.630
499.020, 14758.550
499.502, 14744.400
499.984, 14741.100
500.466, 14744.740
500.948, 14750.590
501.430, 14763.360
501.913, 14772.300
502.395, 14775.320
502.877, 14772.480
503.359, 14763.900
503.841, 14735.680
504.323, 14715.670
504.805, 14717.090
505.287, 14745.350
505.770, 14776.300
506.252, 14811.920
506.734, 14847.620
507.216, 14878.290
507.698, 14904.150
508.180, 14923.150
508.662, 14933.870
509.144, 14938.150
509.626, 14940.370
510.108, 14940.700
510.591, 14941.350
511.073, 14942.930
511.555, 14946.380
512.037, 14956.080
512.519, 14974.430
513.001, 14988.970
513.483, 14979.060
513.966, 14958.670
514.448, 14951.570
514.930, 14982.960
515.412, 15016.090
515.894, 15026.610
516.376, 15018.020
516.858, 15014.420
517.340, 15024.840
517.822, 15041.340
518.305, 15061.670
518.787, 15095.010
519.269, 15111.100
519.751, 15094.870
520.233, 15067.490
520.715, 15056.790
521.197, 15072.400
521.679, 15084.460
522.161, 15085.200
522.644, 15077.660
523.126, 15083.650
523.608, 15109.230
524.090, 15123.550
524.572, 15095.760
525.054, 15033.080
525.536, 14993.120
526.018, 14980.090
526.500, 14985.440
526.983, 15010.860
527.465, 15047.560
527.947, 15068.950
528.429, 15047.070
528.911, 15022.040
529.393, 15050.450
529.875, 15117.170
530.357, 15157.330
530.839, 15116.340
531.322, 15049.140
531.804, 14991.070
532.286, 14945.910
532.768, 14914.670
533.250, 14900.000
533.732, 14898.510
534.214, 14906.610
534.696, 14944.960
535.179, 14965.850
535.661, 14951.670
536.143, 14915.120
536.625, 14911.960
537.107, 14957.000
537.589, 15003.530
538.071, 15029.620
538.553, 15034.680
539.036, 15036.310
539.518, 15033.620
540.000, 15030.190
540.482, 15030.770
540.964, 15034.160
541.446, 15034.400
541.928, 15026.280
542.410, 15019.570
542.892, 15028.210
543.375, 15049.660
543.857, 15074.920
544.339, 15104.560
544.821, 15132.110
545.303, 15154.810
545.785, 15172.490
546.267, 15178.560
546.749, 15157.210
547.231, 15130.510
547.714, 15116.480
548.196, 15129.960
548.678, 15142.470
549.160, 15153.890
549.642, 15162.820
550.124, 15166.560
550.606, 15166.610
551.088, 15158.310
551.570, 15135.110
552.053, 15099.030
552.535, 15082.860
553.017, 15088.530
553.499, 15106.330
553.981, 15131.620
554.463, 15163.400
554.945, 15197.640
555.427, 15237.220
555.909, 15268.100
556.392, 15265.640
556.874, 15241.220
557.356, 15223.860
557.838, 15233.920
558.320, 15250.140
558.802, 15250.070
559.284, 15238.380
559.766, 15239.190
560.249, 15270.900
560.731, 15312.630
561.213, 15357.190
561.695, 15413.490
562.177, 15440.300
562.659, 15395.750
563.141, 15337.180
563.623, 15324.650
564.106, 15390.130
564.588, 15437.410
565.070, 15449.890
565.552, 15436.800
566.034, 15423.850
566.516, 15409.720
566.998, 15403.410
567.480, 15410.810
567.963, 15430.170
568.445, 15456.470
568.927, 15490.220
569.409, 15519.570
569.891, 15528.930
570.373, 15526.870
570.855, 15529.070
571.337, 15539.730
571.819, 15553.380
572.302, 15572.360
572.784, 15590.640
573.266, 15597.730
573.748, 15566.790
574.230, 15545.690
574.712, 15566.480
575.194, 15626.120
575.676, 15655.320
576.158, 15611.030
576.641, 15570.540
577.123, 15574.260
577.605, 15648.210
578.087, 15677.930
578.569, 15647.190
579.051, 15597.290
579.533, 15578.430
580.015, 15591.160
580.497, 15614.550
580.980, 15647.550
581.462, 15683.820
581.944, 15709.270
582.426, 15725.860
582.908, 15743.740
583.390, 15774.220
583.872, 15805.680
584.354, 15823.560
584.836, 15827.400
585.319, 15827.400
585.801, 15822.070
586.283, 15819.310
586.765, 15827.260
587.247, 15858.710
587.729, 15879.790
588.211, 15876.890
588.693, 15862.270
589.176, 15854.080
589.658, 15850.770
590.140, 15857.160
590.622, 15877.100
591.104, 15907.530
591.586, 15935.500
592.068, 15961.740
592.550, 15982.820
593.032, 15996.130
593.515, 16002.480
593.997, 16004.520
594.479, 16001.810
594.961, 16000.540
595.443, 16005.070
595.925, 16015.450
596.407, 16033.360
596.890, 16064.570
597.372, 16092.270
597.854, 16098.070
598.336, 16093.330
598.818, 16099.380
599.300, 16134.290
599.782, 16169.870
600.264, 16192.110
600.746, 16202.120
601.229, 16229.280
601.711, 16286.250
602.193, 16345.790
602.675, 16393.369
603.157, 16426.840
603.639, 16462.660
604.121, 16499.529
604.603, 16540.869
605.085, 16591.891
605.568, 16651.340
606.050, 16710.721
606.532, 16764.199
607.014, 16824.471
607.496, 16920.301
607.978, 17039.160
608.460, 17142.330
608.942, 17190.680
609.424, 17233.600
609.907, 17306.301
610.389, 17406.980
610.871, 17521.699
611.353, 17659.109
611.835, 17797.119
612.317, 17923.801
612.799, 18030.311
613.281, 18145.221
613.763, 18268.770
614.246, 18400.320
614.728, 18536.510
