##NAMES=Scotlandite
##RRUFFID=R060764
##IDEAL CHEMISTRY=Pb^2+^S^4+^O_3_
##LOCALITY=Lady Anne Hopetoun shaft. Leadhills, Lanarkshire, Scotland
##OWNER=RRUFF
##SOURCE=Michael Scott
##DESCRIPTION=Radiating group of colorless spear-head shaped prismatic crystals
##STATUS=The identification of this mineral is confirmed by single-crystal X-ray diffraction and chemical analysis.
##URL=rruff.info/R060764
##MEASURED CHEMISTRY=Pb_1.00_S^4+^_1.00_O_3_; trace amounts of Fe
88.744, 0.000
89.226, 0.000
89.708, 122.940
90.190, 115.259
90.672, 110.459
91.154, 110.268
91.636, 110.567
92.119, 111.608
92.601, 112.443
93.083, 111.864
93.565, 109.078
94.047, 104.488
94.529, 100.746
95.011, 97.263
95.493, 95.358
95.976, 96.496
96.458, 99.429
96.940, 101.729
97.422, 101.472
97.904, 98.466
98.386, 97.712
98.868, 101.972
99.350, 105.460
99.832, 104.822
100.315, 100.679
100.797, 96.359
101.279, 94.864
101.761, 96.713
102.243, 99.281
102.725, 103.893
103.207, 108.297
103.689, 110.465
104.172, 110.171
104.654, 109.369
105.136, 110.656
105.618, 114.592
106.100, 116.274
106.582, 112.128
107.064, 106.537
107.546, 105.110
108.028, 109.284
108.511, 116.674
108.993, 125.131
109.475, 134.693
109.957, 143.381
110.439, 149.983
110.921, 155.172
111.403, 160.802
111.885, 167.614
112.368, 174.532
112.850, 179.911
113.332, 183.627
113.814, 187.908
114.296, 195.497
114.778, 205.776
115.260, 213.042
115.742, 215.176
116.224, 213.812
116.706, 210.085
117.189, 203.760
117.671, 197.327
118.153, 192.968
118.635, 190.747
119.117, 189.867
119.599, 188.622
120.081, 189.633
120.563, 194.865
121.046, 204.799
121.528, 218.942
122.010, 237.284
122.492, 260.867
122.974, 285.653
123.456, 308.846
123.938, 333.476
124.420, 362.724
124.902, 397.818
125.385, 437.141
125.867, 477.590
126.349, 522.404
126.831, 562.379
127.313, 593.593
127.795, 621.041
128.277, 650.204
128.760, 683.622
129.242, 720.313
129.724, 756.384
130.206, 794.306
130.688, 828.279
131.170, 859.296
131.652, 885.777
132.134, 904.865
132.616, 914.297
133.098, 915.829
133.581, 921.582
134.063, 932.100
134.545, 946.727
135.027, 963.074
135.509, 983.691
135.991, 1012.828
136.473, 1053.385
136.955, 1105.139
137.438, 1162.750
137.920, 1222.038
138.402, 1290.257
138.884, 1369.469
139.366, 1459.189
139.848, 1559.934
140.330, 1672.728
140.812, 1798.189
141.294, 1917.959
141.777, 2033.660
142.259, 2143.188
142.741, 2249.345
143.223, 2349.382
143.705, 2434.291
144.187, 2496.444
144.669, 2533.852
145.151, 2562.382
145.633, 2588.030
146.116, 2601.421
146.598, 2594.138
147.080, 2567.273
147.562, 2531.390
148.044, 2494.286
148.526, 2455.837
149.008, 2416.093
149.490, 2371.896
149.973, 2328.563
150.455, 2291.591
150.937, 2261.047
151.419, 2229.679
151.901, 2188.839
152.383, 2138.408
152.865, 2096.299
153.347, 2069.285
153.829, 2048.050
154.312, 2023.112
154.794, 1993.350
155.276, 1964.416
155.758, 1941.703
156.240, 1924.844
156.722, 1911.454
157.204, 1899.052
157.686, 1890.838
158.169, 1892.450
158.651, 1905.597
159.133, 1921.957
159.615, 1933.220
160.097, 1940.615
160.579, 1949.983
161.061, 1964.296
161.543, 1980.976
162.025, 1995.904
162.508, 2008.067
162.990, 2020.125
163.472, 2033.224
163.954, 2047.564
164.436, 2065.789
164.918, 2094.038
165.400, 2125.741
165.882, 2146.107
166.365, 2149.103
166.847, 2152.236
167.329, 2172.558
167.811, 2205.465
168.293, 2237.105
168.775, 2261.526
169.257, 2280.612
169.739, 2298.436
170.221, 2315.302
170.704, 2330.850
171.186, 2342.395
171.668, 2351.910
172.150, 2366.180
172.632, 2392.429
173.114, 2426.202
173.596, 2452.963
174.078, 2467.129
174.561, 2483.067
175.043, 2508.801
175.525, 2543.423
176.007, 2584.961
176.489, 2635.364
176.971, 2692.474
177.453, 2749.414
177.935, 2805.169
178.417, 2861.710
178.900, 2918.333
179.382, 2976.424
179.864, 3039.583
180.346, 3112.270
180.828, 3192.560
181.310, 3271.372
181.792, 3351.522
182.274, 3424.819
182.757, 3484.350
183.239, 3534.228
183.721, 3584.541
184.203, 3644.075
184.685, 3709.722
185.167, 3766.235
185.649, 3810.982
186.131, 3849.236
186.613, 3890.453
187.096, 3928.475
187.578, 3950.234
188.060, 3940.983
188.542, 3907.670
189.024, 3884.854
189.506, 3881.796
189.988, 3875.941
190.470, 3855.179
190.952, 3824.936
191.435, 3795.641
191.917, 3774.470
192.399, 3759.298
192.881, 3740.574
193.363, 3716.721
193.845, 3691.364
194.327, 3665.856
194.809, 3640.121
195.292, 3613.824
195.774, 3586.478
196.256, 3558.534
196.738, 3532.477
197.220, 3512.691
197.702, 3487.440
198.184, 3449.303
198.666, 3404.433
199.148, 3362.528
199.631, 3330.058
200.113, 3303.407
200.595, 3269.967
201.077, 3228.113
201.559, 3181.746
202.041, 3131.268
202.523, 3078.421
203.005, 3025.596
203.488, 2973.556
203.970, 2922.781
204.452, 2875.016
204.934, 2831.361
205.416, 2789.163
205.898, 2748.557
206.380, 2708.336
206.862, 2667.129
207.344, 2624.342
207.827, 2580.408
208.309, 2535.153
208.791, 2486.241
209.273, 2441.336
209.755, 2402.739
210.237, 2368.535
210.719, 2338.736
211.201, 2314.233
211.684, 2289.851
212.166, 2253.911
212.648, 2199.667
213.130, 2150.635
213.612, 2110.146
214.094, 2077.918
214.576, 2056.161
215.058, 2046.600
215.540, 2040.830
216.023, 2024.481
216.505, 1993.367
216.987, 1965.180
217.469, 1943.127
217.951, 1925.561
218.433, 1913.543
218.915, 1907.364
219.397, 1901.430
219.880, 1887.103
220.362, 1861.677
220.844, 1839.561
221.326, 1827.542
221.808, 1817.135
222.290, 1802.327
222.772, 1782.236
223.254, 1762.558
223.736, 1749.589
224.219, 1743.973
224.701, 1739.931
225.183, 1740.541
225.665, 1739.455
226.147, 1732.423
226.629, 1719.414
227.111, 1704.244
227.593, 1690.139
228.076, 1677.183
228.558, 1663.476
229.040, 1650.568
229.522, 1634.836
230.004, 1610.540
230.486, 1580.104
230.968, 1554.428
231.450, 1545.044
231.932, 1550.221
232.415, 1550.281
232.897, 1540.286
233.379, 1530.309
233.861, 1527.497
234.343, 1529.523
234.825, 1529.350
235.307, 1519.489
235.789, 1503.336
236.271, 1495.752
236.754, 1501.189
237.236, 1507.813
237.718, 1511.993
238.200, 1512.670
238.682, 1507.113
239.164, 1490.111
239.646, 1467.546
240.128, 1453.517
240.611, 1451.162
241.093, 1449.261
241.575, 1442.151
242.057, 1431.872
242.539, 1420.516
243.021, 1407.066
243.503, 1394.762
243.985, 1389.403
244.467, 1392.237
244.950, 1395.119
245.432, 1395.089
245.914, 1392.659
246.396, 1387.709
246.878, 1379.051
247.360, 1370.269
247.842, 1365.275
248.324, 1364.113
248.807, 1363.354
249.289, 1361.328
249.771, 1359.456
250.253, 1360.774
250.735, 1367.407
251.217, 1370.088
251.699, 1358.912
252.181, 1336.460
252.663, 1317.160
253.146, 1304.268
253.628, 1297.574
254.110, 1297.680
254.592, 1305.309
255.074, 1311.549
255.556, 1310.607
256.038, 1305.023
256.520, 1301.254
257.003, 1300.984
257.485, 1301.874
257.967, 1302.206
258.449, 1302.078
258.931, 1298.941
259.413, 1288.352
259.895, 1275.723
260.377, 1269.160
260.859, 1270.119
261.341, 1273.424
261.824, 1274.515
262.306, 1273.641
262.788, 1273.809
263.270, 1277.470
263.752, 1280.892
264.234, 1280.889
264.716, 1277.368
265.198, 1271.431
265.681, 1262.784
266.163, 1252.138
266.645, 1245.110
267.127, 1244.718
267.609, 1244.918
268.091, 1241.044
268.573, 1234.788
269.055, 1232.760
269.538, 1240.173
270.020, 1253.005
270.502, 1254.036
270.984, 1230.619
271.466, 1213.356
271.948, 1214.161
272.430, 1225.300
272.912, 1234.909
273.394, 1238.413
273.877, 1237.729
274.359, 1236.753
274.841, 1236.662
275.323, 1234.186
275.805, 1225.248
276.287, 1215.866
276.769, 1212.887
277.251, 1217.602
277.733, 1224.781
278.216, 1227.371
278.698, 1222.841
279.180, 1220.875
279.662, 1224.157
280.144, 1227.507
280.626, 1226.898
281.108, 1222.829
281.590, 1219.398
282.073, 1221.072
282.555, 1228.825
283.037, 1229.302
283.519, 1213.926
284.001, 1200.381
284.483, 1194.289
284.965, 1194.354
285.447, 1198.171
285.930, 1205.013
286.412, 1213.218
286.894, 1213.446
287.376, 1197.641
287.858, 1184.206
288.340, 1175.207
288.822, 1170.656
289.304, 1172.362
289.786, 1181.325
290.268, 1191.693
290.751, 1189.487
291.233, 1164.891
291.715, 1152.426
292.197, 1168.677
292.679, 1190.318
293.161, 1201.250
293.643, 1198.505
294.125, 1190.083
294.608, 1184.335
295.090, 1181.560
295.572, 1177.343
296.054, 1168.010
296.536, 1160.354
297.018, 1158.313
297.500, 1161.375
297.982, 1166.577
298.465, 1173.009
298.947, 1180.162
299.429, 1185.736
299.911, 1189.157
300.393, 1191.977
300.875, 1194.858
301.357, 1197.830
301.839, 1201.116
302.321, 1206.088
302.804, 1210.393
303.286, 1209.637
303.768, 1203.287
304.250, 1198.679
304.732, 1201.090
305.214, 1206.794
305.696, 1208.589
306.178, 1203.607
306.660, 1199.401
307.143, 1203.785
307.625, 1213.734
308.107, 1217.197
308.589, 1208.153
309.071, 1194.538
309.553, 1190.371
310.035, 1196.664
310.517, 1203.001
311.000, 1207.587
311.482, 1210.286
311.964, 1210.991
312.446, 1209.696
312.928, 1205.625
313.410, 1196.233
313.892, 1179.672
314.374, 1173.938
314.857, 1190.433
315.339, 1207.964
315.821, 1212.697
316.303, 1206.194
316.785, 1197.563
317.267, 1192.685
317.749, 1191.282
318.231, 1190.564
318.713, 1192.652
319.195, 1192.938
319.678, 1189.139
320.160, 1183.332
320.642, 1178.575
321.124, 1176.130
321.606, 1174.709
322.088, 1170.830
322.570, 1157.780
323.052, 1154.707
323.535, 1170.539
324.017, 1189.281
324.499, 1200.035
324.981, 1201.261
325.463, 1197.541
325.945, 1192.638
326.427, 1185.951
326.909, 1183.136
327.392, 1186.940
327.874, 1192.190
328.356, 1198.828
328.838, 1205.399
329.320, 1208.946
329.802, 1206.668
330.284, 1200.752
330.766, 1197.269
331.248, 1196.054
331.731, 1197.898
332.213, 1208.217
332.695, 1219.595
333.177, 1223.179
333.659, 1215.197
334.141, 1203.994
334.623, 1197.015
335.105, 1194.218
335.587, 1195.728
336.070, 1205.608
336.552, 1215.275
337.034, 1213.307
337.516, 1199.227
337.998, 1187.397
338.480, 1186.719
338.962, 1191.446
339.444, 1190.864
339.927, 1182.949
340.409, 1174.869
340.891, 1172.666
341.373, 1176.405
341.855, 1181.306
342.337, 1188.686
342.819, 1195.863
343.301, 1202.226
343.784, 1207.156
344.266, 1208.188
344.748, 1202.959
345.230, 1194.343
345.712, 1192.950
346.194, 1208.081
346.676, 1218.175
347.158, 1216.490
347.640, 1210.490
348.122, 1209.399
348.605, 1215.301
349.087, 1222.020
349.569, 1220.263
350.051, 1205.386
350.533, 1196.537
351.015, 1196.321
351.497, 1198.865
351.979, 1203.811
352.462, 1209.349
352.944, 1211.387
353.426, 1205.583
353.908, 1194.217
354.390, 1191.798
354.872, 1205.239
355.354, 1216.681
355.836, 1220.641
356.319, 1220.489
356.801, 1219.577
357.283, 1218.872
357.765, 1218.551
358.247, 1218.840
358.729, 1219.752
359.211, 1221.444
359.693, 1226.653
360.175, 1229.778
360.658, 1224.242
361.140, 1210.630
361.622, 1199.637
362.104, 1199.581
362.586, 1205.025
363.068, 1204.603
363.550, 1196.554
364.032, 1188.440
364.514, 1185.012
364.997, 1186.301
365.479, 1190.859
365.961, 1202.259
366.443, 1213.492
366.925, 1220.529
367.407, 1224.189
367.889, 1226.399
368.371, 1227.785
368.853, 1228.782
369.336, 1230.512
369.818, 1235.427
370.300, 1236.478
370.782, 1230.359
371.264, 1222.121
371.746, 1214.331
372.228, 1208.249
372.711, 1206.462
373.193, 1212.431
373.675, 1226.946
374.157, 1237.098
374.639, 1239.440
375.121, 1240.900
375.603, 1245.421
376.085, 1249.698
376.567, 1247.354
377.049, 1234.622
377.532, 1217.687
378.014, 1210.432
378.496, 1216.416
378.978, 1220.363
379.460, 1215.188
379.942, 1209.620
380.424, 1209.698
380.906, 1215.775
381.389, 1223.374
381.871, 1231.288
382.353, 1238.340
382.835, 1238.622
383.317, 1229.005
383.799, 1220.334
384.281, 1222.459
384.763, 1231.625
385.246, 1239.022
385.728, 1243.718
386.210, 1245.604
386.692, 1242.476
387.174, 1235.879
387.656, 1232.421
388.138, 1235.543
388.620, 1241.491
389.102, 1241.960
389.585, 1232.648
390.067, 1228.500
390.549, 1234.798
391.031, 1244.610
391.513, 1252.828
391.995, 1258.355
392.477, 1261.468
392.959, 1262.356
393.441, 1261.023
393.924, 1257.574
394.406, 1244.787
394.888, 1237.972
395.370, 1244.653
395.852, 1257.953
396.334, 1269.202
396.816, 1274.788
397.298, 1276.382
397.780, 1275.476
398.263, 1270.386
398.745, 1270.234
399.227, 1284.384
399.709, 1297.058
400.191, 1297.508
400.673, 1287.083
401.155, 1275.879
401.638, 1270.194
402.120, 1267.996
402.602, 1263.852
403.084, 1256.845
403.566, 1252.727
404.048, 1255.921
404.530, 1264.103
405.012, 1271.996
405.494, 1282.269
405.977, 1287.358
406.459, 1277.737
406.941, 1261.101
407.423, 1253.750
407.905, 1260.521
408.387, 1273.044
408.869, 1280.899
409.351, 1282.429
409.833, 1285.903
410.316, 1294.441
410.798, 1301.929
411.280, 1302.528
411.762, 1299.295
412.244, 1301.163
412.726, 1314.293
413.208, 1333.303
413.690, 1338.739
414.172, 1319.436
414.655, 1306.620
415.137, 1302.598
415.619, 1306.364
416.101, 1321.693
416.583, 1346.942
417.065, 1369.061
417.547, 1374.340
418.029, 1365.020
418.512, 1357.811
418.994, 1352.817
419.476, 1350.702
419.958, 1352.836
420.440, 1357.937
420.922, 1364.264
421.404, 1372.140
421.886, 1380.141
422.368, 1387.042
422.851, 1393.103
423.333, 1399.598
423.815, 1407.219
424.297, 1414.360
424.779, 1418.572
425.261, 1419.248
425.743, 1419.241
426.225, 1415.187
426.708, 1413.347
427.190, 1420.312
427.672, 1433.876
428.154, 1446.246
428.636, 1452.603
429.118, 1453.731
429.600, 1452.755
430.082, 1443.722
430.565, 1442.124
431.047, 1453.391
431.529, 1469.448
432.011, 1485.544
432.493, 1500.001
432.975, 1510.782
433.457, 1513.323
433.939, 1508.735
434.421, 1510.502
434.904, 1523.302
435.386, 1533.717
435.868, 1531.743
436.350, 1523.103
436.832, 1516.306
437.314, 1511.892
437.796, 1512.282
438.278, 1522.406
438.760, 1539.445
439.243, 1553.757
439.725, 1562.597
440.207, 1567.922
440.689, 1571.357
441.171, 1572.067
441.653, 1575.591
442.135, 1582.104
442.617, 1591.446
443.099, 1607.864
443.582, 1627.197
444.064, 1638.030
444.546, 1633.252
445.028, 1619.427
445.510, 1616.046
445.992, 1629.480
446.474, 1641.365
446.957, 1654.794
447.439, 1662.880
447.921, 1657.483
448.403, 1640.631
448.885, 1624.565
449.367, 1619.041
449.849, 1621.782
450.331, 1625.242
450.813, 1630.379
451.296, 1632.830
451.778, 1628.024
452.260, 1620.261
452.742, 1615.068
453.224, 1611.430
453.706, 1614.607
454.188, 1629.123
454.670, 1651.886
455.152, 1678.328
455.635, 1707.579
456.117, 1738.086
456.599, 1767.757
457.081, 1796.340
457.563, 1831.707
458.045, 1871.344
458.527, 1919.353
459.009, 1974.653
459.491, 2039.772
459.974, 2115.034
460.456, 2200.755
460.938, 2304.316
461.420, 2436.389
461.902, 2599.052
462.384, 2780.080
462.866, 2959.064
463.348, 3180.712
463.831, 3461.229
464.313, 3797.082
464.795, 4183.766
465.277, 4629.697
465.759, 5108.561
466.241, 5594.156
466.723, 6086.729
467.205, 6582.835
467.687, 7079.050
468.170, 7590.546
468.652, 8140.564
469.134, 8727.536
469.616, 9348.344
470.098, 10024.090
470.580, 10716.320
471.062, 11466.240
471.544, 12215.170
472.026, 12837.820
472.509, 13271.550
472.991, 13474.570
473.473, 13303.450
473.955, 12648.290
474.437, 11786.050
474.919, 10593.250
475.401, 9346.572
475.883, 8180.187
476.366, 7127.485
476.848, 6199.466
477.330, 5410.471
477.812, 4748.554
478.294, 4197.746
478.776, 3765.458
479.258, 3408.707
479.740, 3130.119
480.223, 2908.825
480.705, 2709.893
481.187, 2531.041
481.669, 2379.646
482.151, 2268.252
482.633, 2181.422
483.115, 2102.979
483.597, 2031.059
484.079, 1967.833
484.561, 1915.384
485.044, 1873.378
485.526, 1838.461
486.008, 1817.097
486.490, 1795.509
486.972, 1772.552
487.454, 1748.806
487.936, 1723.621
488.418, 1697.548
488.901, 1673.341
489.383, 1653.551
489.865, 1637.937
490.347, 1625.675
490.829, 1619.157
491.311, 1610.094
491.793, 1590.728
492.275, 1567.974
492.758, 1550.988
493.240, 1542.279
493.722, 1534.219
494.204, 1522.355
494.686, 1508.361
495.168, 1493.726
495.650, 1478.947
496.132, 1467.795
496.614, 1464.819
497.097, 1469.153
497.579, 1466.386
498.061, 1446.851
498.543, 1432.707
499.025, 1433.074
499.507, 1437.974
499.989, 1436.115
500.471, 1425.585
500.953, 1413.792
501.436, 1408.058
501.918, 1408.196
502.400, 1410.628
502.882, 1416.324
503.364, 1422.346
503.846, 1429.827
504.328, 1435.925
504.810, 1435.232
505.293, 1424.035
505.775, 1415.467
506.257, 1421.310
506.739, 1433.945
507.221, 1438.791
507.703, 1433.593
508.185, 1425.990
508.667, 1421.652
509.150, 1420.594
509.632, 1423.362
510.114, 1433.763
510.596, 1443.035
511.078, 1450.580
511.560, 1455.800
512.042, 1457.751
512.524, 1456.450
513.006, 1453.212
513.489, 1448.547
513.971, 1442.772
514.453, 1438.984
514.935, 1437.436
515.417, 1437.297
515.899, 1439.893
516.381, 1442.966
516.863, 1442.525
517.346, 1436.183
517.828, 1433.549
518.310, 1444.699
518.792, 1460.356
519.274, 1464.785
519.756, 1457.030
520.238, 1450.401
520.720, 1456.179
521.202, 1471.232
521.685, 1475.111
522.167, 1454.439
522.649, 1439.287
523.131, 1435.712
523.613, 1435.796
524.095, 1432.544
524.577, 1425.516
525.059, 1419.091
525.541, 1416.603
526.024, 1417.532
526.506, 1420.872
526.988, 1427.425
527.470, 1432.689
527.952, 1436.302
528.434, 1436.391
528.916, 1429.230
529.398, 1412.856
529.880, 1399.935
530.363, 1394.424
530.845, 1394.034
531.327, 1400.211
531.809, 1410.323
532.291, 1414.653
532.773, 1406.800
533.255, 1391.326
533.737, 1381.525
534.219, 1379.781
534.702, 1379.038
535.184, 1379.014
535.666, 1379.678
536.148, 1380.498
536.630, 1381.920
537.112, 1385.608
537.594, 1394.456
538.076, 1403.681
538.559, 1404.369
539.041, 1397.268
539.523, 1393.161
540.005, 1395.684
540.487, 1401.562
540.969, 1407.533
541.451, 1413.884
541.933, 1417.351
542.416, 1417.888
542.898, 1415.473
543.380, 1406.820
543.862, 1396.035
544.344, 1390.409
544.826, 1392.706
545.308, 1398.870
545.790, 1404.447
546.273, 1410.287
546.755, 1408.140
547.237, 1391.189
547.719, 1375.796
548.201, 1369.598
548.683, 1370.220
549.165, 1375.005
549.647, 1386.012
550.129, 1394.198
550.612, 1390.303
551.094, 1380.057
551.576, 1374.179
552.058, 1374.481
552.540, 1377.866
553.022, 1381.993
553.504, 1386.876
553.986, 1392.892
554.468, 1403.437
554.951, 1410.744
555.433, 1413.257
555.915, 1412.849
556.397, 1408.680
556.879, 1402.261
557.361, 1400.132
557.843, 1410.457
558.325, 1427.449
558.807, 1435.367
559.290, 1433.609
559.772, 1429.090
560.254, 1422.793
560.736, 1416.781
561.218, 1414.943
561.700, 1417.733
562.182, 1420.200
562.664, 1423.003
563.146, 1423.966
563.629, 1418.907
564.111, 1410.981
564.593, 1408.355
565.075, 1414.849
565.557, 1424.413
566.039, 1424.946
566.521, 1413.432
567.003, 1410.094
567.486, 1424.491
567.968, 1435.709
568.450, 1428.534
568.932, 1411.701
569.414, 1402.160
569.896, 1406.165
570.378, 1413.272
570.860, 1417.771
571.343, 1420.060
571.825, 1419.933
572.307, 1417.591
572.789, 1415.997
573.271, 1417.605
573.753, 1422.165
574.235, 1427.642
574.717, 1435.820
575.200, 1442.312
575.682, 1447.513
576.164, 1450.411
576.646, 1449.160
577.128, 1444.431
577.610, 1439.706
578.092, 1435.985
578.574, 1434.517
579.056, 1439.911
579.539, 1451.625
580.021, 1457.743
580.503, 1452.343
580.985, 1443.784
581.467, 1444.187
581.949, 1456.412
582.431, 1463.757
582.913, 1463.995
583.395, 1461.703
583.878, 1456.798
584.360, 1451.413
584.842, 1448.343
585.324, 1448.525
585.806, 1450.906
586.288, 1453.859
586.770, 1457.574
587.252, 1466.120
587.734, 1482.720
588.217, 1495.037
588.699, 1494.750
589.181, 1486.760
589.663, 1480.997
590.145, 1478.636
590.627, 1475.490
591.109, 1468.682
591.591, 1461.670
592.073, 1457.620
592.556, 1456.463
593.038, 1456.836
593.520, 1458.044
594.002, 1459.781
594.484, 1461.009
594.966, 1461.065
595.448, 1463.312
595.930, 1468.833
596.413, 1475.783
596.895, 1484.123
597.377, 1492.899
597.859, 1499.782
598.341, 1503.688
598.823, 1506.480
599.305, 1509.437
599.787, 1512.088
600.269, 1513.394
600.752, 1513.267
601.234, 1512.363
601.716, 1510.452
602.198, 1508.655
602.680, 1515.631
603.162, 1542.048
603.644, 1558.177
604.127, 1554.311
604.609, 1544.390
605.091, 1535.074
605.573, 1528.134
606.055, 1526.878
606.537, 1535.466
607.019, 1548.175
607.501, 1558.632
607.983, 1567.531
608.466, 1578.314
608.948, 1592.367
609.430, 1604.356
609.912, 1607.152
610.394, 1599.869
610.876, 1598.771
611.358, 1602.830
611.840, 1614.618
612.322, 1638.728
612.805, 1668.355
613.287, 1697.672
613.769, 1725.557
614.251, 1752.445
614.733, 1777.726
