##NAMES=Scottyite
##RRUFFID=R160006
##IDEAL CHEMISTRY=BaCu^2+^_2_Si_2_O_7_
##LOCALITY=Graulay Quarry, Eifel, Germany
##OWNER=RRUFF
##SOURCE=Bill Pinch
##DESCRIPTION=Aggregates of granular crystals, associated with calcite and grey elongated tabular hedenbergite
##STATUS=The identification of this mineral has been confirmed by single-crystal X-ray diffraction.
##URL=rruff.info/R160006
8.806445e+001, 1.227454e+003
8.854657e+001, 1.217750e+003
8.902869e+001, 1.214438e+003
8.951080e+001, 1.220036e+003
8.999292e+001, 1.230862e+003
9.047504e+001, 1.244379e+003
9.095715e+001, 1.260676e+003
9.143927e+001, 1.276641e+003
9.192139e+001, 1.287047e+003
9.240350e+001, 1.291986e+003
9.288562e+001, 1.297254e+003
9.336774e+001, 1.297664e+003
9.384985e+001, 1.284566e+003
9.433197e+001, 1.255175e+003
9.481409e+001, 1.225689e+003
9.529620e+001, 1.194430e+003
9.577832e+001, 1.166847e+003
9.626044e+001, 1.143692e+003
9.674255e+001, 1.123940e+003
9.722467e+001, 1.106315e+003
9.770679e+001, 1.090651e+003
9.818890e+001, 1.076495e+003
9.867102e+001, 1.064343e+003
9.915314e+001, 1.052716e+003
9.963525e+001, 1.040195e+003
1.001174e+002, 1.026058e+003
1.005995e+002, 1.010791e+003
1.010816e+002, 9.961393e+002
1.015637e+002, 9.792731e+002
1.020458e+002, 9.659257e+002
1.025280e+002, 9.583587e+002
1.030101e+002, 9.543580e+002
1.034922e+002, 9.503112e+002
1.039743e+002, 9.435851e+002
1.044564e+002, 9.341271e+002
1.049385e+002, 9.272855e+002
1.054207e+002, 9.239230e+002
1.059028e+002, 9.215707e+002
1.063849e+002, 9.202416e+002
1.068670e+002, 9.194987e+002
1.073491e+002, 9.165000e+002
1.078312e+002, 9.071874e+002
1.083134e+002, 8.919653e+002
1.087955e+002, 8.793383e+002
1.092776e+002, 8.710748e+002
1.097597e+002, 8.657457e+002
1.102418e+002, 8.617188e+002
1.107239e+002, 8.593165e+002
1.112061e+002, 8.569306e+002
1.116882e+002, 8.525706e+002
1.121703e+002, 8.467080e+002
1.126524e+002, 8.416736e+002
1.131345e+002, 8.395005e+002
1.136166e+002, 8.399640e+002
1.140988e+002, 8.393001e+002
1.145809e+002, 8.358769e+002
1.150630e+002, 8.321091e+002
1.155451e+002, 8.291687e+002
1.160272e+002, 8.271570e+002
1.165093e+002, 8.257171e+002
1.169915e+002, 8.244750e+002
1.174736e+002, 8.235143e+002
1.179557e+002, 8.225084e+002
1.184378e+002, 8.198939e+002
1.189199e+002, 8.181024e+002
1.194020e+002, 8.194486e+002
1.198842e+002, 8.245399e+002
1.203663e+002, 8.315594e+002
1.208484e+002, 8.364313e+002
1.213305e+002, 8.395150e+002
1.218126e+002, 8.393936e+002
1.222947e+002, 8.351929e+002
1.227769e+002, 8.279686e+002
1.232590e+002, 8.184506e+002
1.237411e+002, 8.066032e+002
1.242232e+002, 7.934316e+002
1.247053e+002, 7.834572e+002
1.251874e+002, 7.775497e+002
1.256696e+002, 7.729827e+002
1.261517e+002, 7.689670e+002
1.266338e+002, 7.655222e+002
1.271159e+002, 7.626735e+002
1.275980e+002, 7.606643e+002
1.280801e+002, 7.592908e+002
1.285623e+002, 7.576836e+002
1.290444e+002, 7.556353e+002
1.295265e+002, 7.534745e+002
1.300086e+002, 7.516593e+002
1.304907e+002, 7.503358e+002
1.309728e+002, 7.486407e+002
1.314550e+002, 7.457597e+002
1.319371e+002, 7.421973e+002
1.324192e+002, 7.385202e+002
1.329013e+002, 7.345197e+002
1.333834e+002, 7.306303e+002
1.338655e+002, 7.282441e+002
1.343477e+002, 7.281191e+002
1.348298e+002, 7.285411e+002
1.353119e+002, 7.290016e+002
1.357940e+002, 7.294089e+002
1.362761e+002, 7.295891e+002
1.367582e+002, 7.292382e+002
1.372404e+002, 7.283199e+002
1.377225e+002, 7.283176e+002
1.382046e+002, 7.303397e+002
1.386867e+002, 7.323480e+002
1.391688e+002, 7.339269e+002
1.396509e+002, 7.349472e+002
1.401331e+002, 7.353814e+002
1.406152e+002, 7.352034e+002
1.410973e+002, 7.343925e+002
1.415794e+002, 7.328873e+002
1.420615e+002, 7.303669e+002
1.425436e+002, 7.275493e+002
1.430258e+002, 7.245793e+002
1.435079e+002, 7.215934e+002
1.439900e+002, 7.190350e+002
1.444721e+002, 7.176139e+002
1.449542e+002, 7.180452e+002
1.454363e+002, 7.177905e+002
1.459185e+002, 7.159778e+002
1.464006e+002, 7.137256e+002
1.468827e+002, 7.121891e+002
1.473648e+002, 7.116534e+002
1.478469e+002, 7.120828e+002
1.483290e+002, 7.136308e+002
1.488112e+002, 7.161747e+002
1.492933e+002, 7.194008e+002
1.497754e+002, 7.235976e+002
1.502575e+002, 7.284402e+002
1.507396e+002, 7.330618e+002
1.512217e+002, 7.372100e+002
1.517039e+002, 7.409550e+002
1.521860e+002, 7.443369e+002
1.526681e+002, 7.473189e+002
1.531502e+002, 7.503394e+002
1.536323e+002, 7.537201e+002
1.541144e+002, 7.574529e+002
1.545966e+002, 7.614971e+002
1.550787e+002, 7.668740e+002
1.555608e+002, 7.718866e+002
1.560429e+002, 7.748355e+002
1.565250e+002, 7.753264e+002
1.570071e+002, 7.753380e+002
1.574893e+002, 7.783347e+002
1.579714e+002, 7.865975e+002
1.584535e+002, 7.915240e+002
1.589356e+002, 7.912511e+002
1.594177e+002, 7.877943e+002
1.598998e+002, 7.821125e+002
1.603820e+002, 7.746191e+002
1.608641e+002, 7.658356e+002
1.613462e+002, 7.569987e+002
1.618283e+002, 7.480890e+002
1.623104e+002, 7.391413e+002
1.627925e+002, 7.294257e+002
1.632747e+002, 7.199435e+002
1.637568e+002, 7.117102e+002
1.642389e+002, 7.052895e+002
1.647210e+002, 7.004049e+002
1.652031e+002, 6.960305e+002
1.656852e+002, 6.922681e+002
1.661674e+002, 6.888926e+002
1.666495e+002, 6.855015e+002
1.671316e+002, 6.824992e+002
1.676137e+002, 6.808146e+002
1.680958e+002, 6.811764e+002
1.685779e+002, 6.831243e+002
1.690601e+002, 6.836857e+002
1.695422e+002, 6.827128e+002
1.700243e+002, 6.808810e+002
1.705064e+002, 6.782713e+002
1.709885e+002, 6.749645e+002
1.714706e+002, 6.711576e+002
1.719528e+002, 6.667422e+002
1.724349e+002, 6.619612e+002
1.729170e+002, 6.578231e+002
1.733991e+002, 6.547864e+002
1.738812e+002, 6.519993e+002
1.743633e+002, 6.485403e+002
1.748455e+002, 6.443737e+002
1.753276e+002, 6.407997e+002
1.758097e+002, 6.392067e+002
1.762918e+002, 6.386480e+002
1.767739e+002, 6.373958e+002
1.772560e+002, 6.344981e+002
1.777382e+002, 6.311854e+002
1.782203e+002, 6.294202e+002
1.787024e+002, 6.297181e+002
1.791845e+002, 6.298787e+002
1.796666e+002, 6.286218e+002
1.801487e+002, 6.265771e+002
1.806309e+002, 6.243712e+002
1.811130e+002, 6.218920e+002
1.815951e+002, 6.196355e+002
1.820772e+002, 6.192267e+002
1.825593e+002, 6.223712e+002
1.830414e+002, 6.245215e+002
1.835236e+002, 6.236698e+002
1.840057e+002, 6.210790e+002
1.844878e+002, 6.184947e+002
1.849699e+002, 6.169266e+002
1.854520e+002, 6.162202e+002
1.859341e+002, 6.153780e+002
1.864163e+002, 6.139026e+002
1.868984e+002, 6.128767e+002
1.873805e+002, 6.128710e+002
1.878626e+002, 6.134491e+002
1.883447e+002, 6.138083e+002
1.888268e+002, 6.133027e+002
1.893090e+002, 6.119854e+002
1.897911e+002, 6.116431e+002
1.902732e+002, 6.141071e+002
1.907553e+002, 6.157011e+002
1.912374e+002, 6.150815e+002
1.917195e+002, 6.127499e+002
1.922017e+002, 6.099186e+002
1.926838e+002, 6.074581e+002
1.931659e+002, 6.053473e+002
1.936480e+002, 6.037639e+002
1.941301e+002, 6.027805e+002
1.946122e+002, 6.021067e+002
1.950944e+002, 6.019669e+002
1.955765e+002, 6.021319e+002
1.960586e+002, 6.018122e+002
1.965407e+002, 6.001479e+002
1.970228e+002, 5.970951e+002
1.975049e+002, 5.956718e+002
1.979871e+002, 5.971204e+002
1.984692e+002, 5.989808e+002
1.989513e+002, 5.996473e+002
1.994334e+002, 5.991282e+002
1.999155e+002, 5.985424e+002
2.003976e+002, 5.987578e+002
2.008798e+002, 5.997813e+002
2.013619e+002, 6.008786e+002
2.018440e+002, 6.023478e+002
2.023261e+002, 6.036810e+002
2.028082e+002, 6.045266e+002
2.032903e+002, 6.048741e+002
2.037725e+002, 6.045516e+002
2.042546e+002, 6.029404e+002
2.047367e+002, 6.005015e+002
2.052188e+002, 5.985623e+002
2.057009e+002, 5.970031e+002
2.061830e+002, 5.962248e+002
2.066652e+002, 5.973895e+002
2.071473e+002, 6.011950e+002
2.076294e+002, 6.042307e+002
2.081115e+002, 6.027331e+002
2.085936e+002, 5.990602e+002
2.090757e+002, 5.968982e+002
2.095579e+002, 5.984760e+002
2.100400e+002, 6.020361e+002
2.105221e+002, 6.039180e+002
2.110042e+002, 6.034015e+002
2.114863e+002, 6.028015e+002
2.119685e+002, 6.034587e+002
2.124506e+002, 6.047469e+002
2.129327e+002, 6.057596e+002
2.134148e+002, 6.059879e+002
2.138969e+002, 6.056849e+002
2.143790e+002, 6.055982e+002
2.148612e+002, 6.056733e+002
2.153433e+002, 6.061042e+002
2.158254e+002, 6.072922e+002
2.163075e+002, 6.087385e+002
2.167896e+002, 6.097800e+002
2.172717e+002, 6.100459e+002
2.177539e+002, 6.096240e+002
2.182360e+002, 6.088488e+002
2.187181e+002, 6.072272e+002
2.192002e+002, 6.059125e+002
2.196823e+002, 6.053243e+002
2.201644e+002, 6.051639e+002
2.206466e+002, 6.050079e+002
2.211287e+002, 6.045942e+002
2.216108e+002, 6.039963e+002
2.220929e+002, 6.036490e+002
2.225750e+002, 6.040546e+002
2.230571e+002, 6.041533e+002
2.235393e+002, 6.034203e+002
2.240214e+002, 6.023392e+002
2.245035e+002, 6.016252e+002
2.249856e+002, 6.017267e+002
2.254677e+002, 6.025068e+002
2.259498e+002, 6.031087e+002
2.264320e+002, 6.032722e+002
2.269141e+002, 6.035405e+002
2.273962e+002, 6.040820e+002
2.278783e+002, 6.047755e+002
2.283604e+002, 6.054240e+002
2.288425e+002, 6.059089e+002
2.293247e+002, 6.062687e+002
2.298068e+002, 6.067335e+002
2.302889e+002, 6.077748e+002
2.307710e+002, 6.083834e+002
2.312531e+002, 6.079221e+002
2.317352e+002, 6.069213e+002
2.322174e+002, 6.062460e+002
2.326995e+002, 6.063312e+002
2.331816e+002, 6.071356e+002
2.336637e+002, 6.085682e+002
2.341458e+002, 6.115879e+002
2.346279e+002, 6.140207e+002
2.351101e+002, 6.148976e+002
2.355922e+002, 6.148176e+002
2.360743e+002, 6.149807e+002
2.365564e+002, 6.159934e+002
2.370385e+002, 6.175772e+002
2.375206e+002, 6.187870e+002
2.380028e+002, 6.193349e+002
2.384849e+002, 6.200483e+002
2.389670e+002, 6.212776e+002
2.394491e+002, 6.228726e+002
2.399312e+002, 6.246035e+002
2.404133e+002, 6.264940e+002
2.408955e+002, 6.282477e+002
2.413776e+002, 6.291369e+002
2.418597e+002, 6.288267e+002
2.423418e+002, 6.286502e+002
2.428239e+002, 6.293595e+002
2.433060e+002, 6.306531e+002
2.437882e+002, 6.316641e+002
2.442703e+002, 6.319776e+002
2.447524e+002, 6.320262e+002
2.452345e+002, 6.326524e+002
2.457166e+002, 6.340463e+002
2.461987e+002, 6.350274e+002
2.466809e+002, 6.344426e+002
2.471630e+002, 6.328694e+002
2.476451e+002, 6.323759e+002
2.481272e+002, 6.340021e+002
2.486093e+002, 6.362645e+002
2.490914e+002, 6.372374e+002
2.495736e+002, 6.368912e+002
2.500557e+002, 6.366796e+002
2.505378e+002, 6.377143e+002
2.510199e+002, 6.396310e+002
2.515020e+002, 6.408821e+002
2.519841e+002, 6.408868e+002
2.524663e+002, 6.405322e+002
2.529484e+002, 6.404980e+002
2.534305e+002, 6.407862e+002
2.539126e+002, 6.414703e+002
2.543947e+002, 6.428201e+002
2.548768e+002, 6.446779e+002
2.553590e+002, 6.462081e+002
2.558411e+002, 6.469933e+002
2.563232e+002, 6.479257e+002
2.568053e+002, 6.498962e+002
2.572874e+002, 6.525959e+002
2.577695e+002, 6.549113e+002
2.582516e+002, 6.560090e+002
2.587338e+002, 6.560925e+002
2.592159e+002, 6.561295e+002
2.596980e+002, 6.557532e+002
2.601801e+002, 6.559634e+002
2.606622e+002, 6.576022e+002
2.611443e+002, 6.601455e+002
2.616265e+002, 6.624135e+002
2.621086e+002, 6.634513e+002
2.625907e+002, 6.636155e+002
2.630728e+002, 6.646373e+002
2.635549e+002, 6.673459e+002
2.640370e+002, 6.696310e+002
2.645192e+002, 6.701975e+002
2.650013e+002, 6.698914e+002
2.654834e+002, 6.701262e+002
2.659655e+002, 6.718116e+002
2.664476e+002, 6.744992e+002
2.669297e+002, 6.765858e+002
2.674119e+002, 6.776047e+002
2.678940e+002, 6.787556e+002
2.683761e+002, 6.806747e+002
2.688582e+002, 6.828356e+002
2.693403e+002, 6.846259e+002
2.698224e+002, 6.857542e+002
2.703046e+002, 6.863082e+002
2.707867e+002, 6.863857e+002
2.712688e+002, 6.852802e+002
2.717509e+002, 6.850203e+002
2.722330e+002, 6.861516e+002
2.727151e+002, 6.881155e+002
2.731973e+002, 6.905311e+002
2.736794e+002, 6.932693e+002
2.741615e+002, 6.960175e+002
2.746436e+002, 6.981791e+002
2.751257e+002, 6.997831e+002
2.756078e+002, 7.006346e+002
2.760900e+002, 7.002414e+002
2.765721e+002, 6.995099e+002
2.770542e+002, 6.991251e+002
2.775363e+002, 6.992995e+002
2.780184e+002, 6.998702e+002
2.785005e+002, 7.006568e+002
2.789827e+002, 7.019899e+002
2.794648e+002, 7.027640e+002
2.799469e+002, 7.027794e+002
2.804290e+002, 7.024304e+002
2.809111e+002, 7.017330e+002
2.813932e+002, 7.008105e+002
2.818754e+002, 7.001004e+002
2.823575e+002, 7.002265e+002
2.828396e+002, 7.014905e+002
2.833217e+002, 7.027556e+002
2.838038e+002, 7.046011e+002
2.842859e+002, 7.059894e+002
2.847681e+002, 7.059705e+002
2.852502e+002, 7.047617e+002
2.857323e+002, 7.035344e+002
2.862144e+002, 7.036035e+002
2.866965e+002, 7.053362e+002
2.871786e+002, 7.062363e+002
2.876608e+002, 7.054696e+002
2.881429e+002, 7.047333e+002
2.886250e+002, 7.046437e+002
2.891071e+002, 7.051832e+002
2.895892e+002, 7.060550e+002
2.900714e+002, 7.070234e+002
2.905535e+002, 7.080824e+002
2.910356e+002, 7.094766e+002
2.915177e+002, 7.116414e+002
2.919998e+002, 7.136810e+002
2.924819e+002, 7.151264e+002
2.929641e+002, 7.162872e+002
2.934462e+002, 7.177891e+002
2.939283e+002, 7.200755e+002
2.944104e+002, 7.230023e+002
2.948925e+002, 7.256673e+002
2.953746e+002, 7.277871e+002
2.958568e+002, 7.299417e+002
2.963389e+002, 7.317474e+002
2.968210e+002, 7.337668e+002
2.973031e+002, 7.368266e+002
2.977852e+002, 7.413467e+002
2.982673e+002, 7.469047e+002
2.987495e+002, 7.522103e+002
2.992316e+002, 7.578149e+002
2.997137e+002, 7.624156e+002
3.001958e+002, 7.655563e+002
3.006779e+002, 7.678908e+002
3.011600e+002, 7.700373e+002
3.016422e+002, 7.722137e+002
3.021243e+002, 7.742754e+002
3.026064e+002, 7.759024e+002
3.030885e+002, 7.764310e+002
3.035706e+002, 7.777326e+002
3.040527e+002, 7.808793e+002
3.045349e+002, 7.840166e+002
3.050170e+002, 7.853675e+002
3.054991e+002, 7.848217e+002
3.059812e+002, 7.839655e+002
3.064633e+002, 7.848049e+002
3.069454e+002, 7.879841e+002
3.074276e+002, 7.906887e+002
3.079097e+002, 7.923062e+002
3.083918e+002, 7.940377e+002
3.088739e+002, 7.965856e+002
3.093560e+002, 7.999127e+002
3.098381e+002, 8.035635e+002
3.103203e+002, 8.072592e+002
3.108024e+002, 8.110241e+002
3.112845e+002, 8.140926e+002
3.117666e+002, 8.160366e+002
3.122487e+002, 8.178419e+002
3.127308e+002, 8.202347e+002
3.132130e+002, 8.227689e+002
3.136951e+002, 8.244873e+002
3.141772e+002, 8.247764e+002
3.146593e+002, 8.237312e+002
3.151414e+002, 8.219802e+002
3.156235e+002, 8.182941e+002
3.161057e+002, 8.152972e+002
3.165878e+002, 8.137047e+002
3.170699e+002, 8.129648e+002
3.175520e+002, 8.123659e+002
3.180341e+002, 8.115892e+002
3.185162e+002, 8.107036e+002
3.189984e+002, 8.098963e+002
3.194805e+002, 8.092334e+002
3.199626e+002, 8.085725e+002
3.204447e+002, 8.080272e+002
3.209268e+002, 8.074258e+002
3.214089e+002, 8.064647e+002
3.218911e+002, 8.051161e+002
3.223732e+002, 8.038293e+002
3.228553e+002, 8.032941e+002
3.233374e+002, 8.039435e+002
3.238195e+002, 8.043260e+002
3.243016e+002, 8.037593e+002
3.247838e+002, 8.034884e+002
3.252659e+002, 8.046902e+002
3.257480e+002, 8.071696e+002
3.262301e+002, 8.095273e+002
3.267122e+002, 8.103047e+002
3.271943e+002, 8.092087e+002
3.276765e+002, 8.089319e+002
3.281586e+002, 8.103232e+002
3.286407e+002, 8.115606e+002
3.291228e+002, 8.116638e+002
3.296049e+002, 8.110535e+002
3.300870e+002, 8.108376e+002
3.305692e+002, 8.118290e+002
3.310513e+002, 8.137996e+002
3.315334e+002, 8.149780e+002
3.320155e+002, 8.148377e+002
3.324976e+002, 8.144524e+002
3.329797e+002, 8.134351e+002
3.334619e+002, 8.124301e+002
3.339440e+002, 8.122999e+002
3.344261e+002, 8.134355e+002
3.349082e+002, 8.154099e+002
3.353904e+002, 8.172692e+002
3.358725e+002, 8.194086e+002
3.363546e+002, 8.207345e+002
3.368367e+002, 8.205051e+002
3.373188e+002, 8.199764e+002
3.378009e+002, 8.202351e+002
3.382831e+002, 8.214753e+002
3.387652e+002, 8.230603e+002
3.392473e+002, 8.241006e+002
3.397294e+002, 8.243158e+002
3.402115e+002, 8.248795e+002
3.406936e+002, 8.256916e+002
3.411758e+002, 8.268764e+002
3.416579e+002, 8.288223e+002
3.421400e+002, 8.312753e+002
3.426221e+002, 8.334606e+002
3.431042e+002, 8.346522e+002
3.435863e+002, 8.348494e+002
3.440685e+002, 8.353976e+002
3.445506e+002, 8.360110e+002
3.450327e+002, 8.373282e+002
3.455148e+002, 8.400667e+002
3.459969e+002, 8.435107e+002
3.464790e+002, 8.465496e+002
3.469612e+002, 8.485828e+002
3.474433e+002, 8.498653e+002
3.479254e+002, 8.512951e+002
3.484075e+002, 8.533107e+002
3.488896e+002, 8.546888e+002
3.493717e+002, 8.538266e+002
3.498539e+002, 8.531075e+002
3.503360e+002, 8.551571e+002
3.508181e+002, 8.606164e+002
3.513002e+002, 8.671857e+002
3.517823e+002, 8.714850e+002
3.522644e+002, 8.729990e+002
3.527466e+002, 8.738828e+002
3.532287e+002, 8.734146e+002
3.537108e+002, 8.730614e+002
3.541929e+002, 8.735167e+002
3.546750e+002, 8.748223e+002
3.551571e+002, 8.767274e+002
3.556393e+002, 8.793278e+002
3.561214e+002, 8.826230e+002
3.566035e+002, 8.847487e+002
3.570856e+002, 8.852360e+002
3.575677e+002, 8.849757e+002
3.580498e+002, 8.837958e+002
3.585320e+002, 8.822128e+002
3.590141e+002, 8.810983e+002
3.594962e+002, 8.810215e+002
3.599783e+002, 8.815668e+002
3.604604e+002, 8.817052e+002
3.609425e+002, 8.815135e+002
3.614247e+002, 8.806898e+002
3.619068e+002, 8.785569e+002
3.623889e+002, 8.761103e+002
3.628710e+002, 8.743358e+002
3.633531e+002, 8.735153e+002
3.638352e+002, 8.729357e+002
3.643174e+002, 8.717220e+002
3.647995e+002, 8.698079e+002
3.652816e+002, 8.678883e+002
3.657637e+002, 8.661840e+002
3.662458e+002, 8.644009e+002
3.667279e+002, 8.623439e+002
3.672101e+002, 8.600265e+002
3.676922e+002, 8.575927e+002
3.681743e+002, 8.547966e+002
3.686564e+002, 8.518771e+002
3.691385e+002, 8.502004e+002
3.696206e+002, 8.506553e+002
3.701028e+002, 8.506879e+002
3.705849e+002, 8.483005e+002
3.710670e+002, 8.445331e+002
3.715491e+002, 8.411917e+002
3.720312e+002, 8.388463e+002
3.725133e+002, 8.372630e+002
3.729955e+002, 8.365161e+002
3.734776e+002, 8.367877e+002
3.739597e+002, 8.360885e+002
3.744418e+002, 8.329872e+002
3.749239e+002, 8.287472e+002
3.754060e+002, 8.247776e+002
3.758882e+002, 8.210386e+002
3.763703e+002, 8.182111e+002
3.768524e+002, 8.173226e+002
3.773345e+002, 8.178810e+002
3.778166e+002, 8.178562e+002
3.782987e+002, 8.167585e+002
3.787809e+002, 8.150056e+002
3.792630e+002, 8.127826e+002
3.797451e+002, 8.101600e+002
3.802272e+002, 8.079262e+002
3.807093e+002, 8.066835e+002
3.811914e+002, 8.058207e+002
3.816736e+002, 8.043615e+002
3.821557e+002, 8.022072e+002
3.826378e+002, 8.003664e+002
3.831199e+002, 7.996742e+002
3.836020e+002, 7.999515e+002
3.840841e+002, 8.001210e+002
3.845663e+002, 8.003278e+002
3.850484e+002, 8.002507e+002
3.855305e+002, 7.995533e+002
3.860126e+002, 7.983917e+002
3.864947e+002, 7.972369e+002
3.869768e+002, 7.962621e+002
3.874590e+002, 7.954373e+002
3.879411e+002, 7.947277e+002
3.884232e+002, 7.941506e+002
3.889053e+002, 7.936034e+002
3.893874e+002, 7.930020e+002
3.898695e+002, 7.924495e+002
3.903517e+002, 7.920528e+002
3.908338e+002, 7.918320e+002
3.913159e+002, 7.917823e+002
3.917980e+002, 7.919187e+002
3.922801e+002, 7.922694e+002
3.927622e+002, 7.926002e+002
3.932444e+002, 7.928129e+002
3.937265e+002, 7.931000e+002
3.942086e+002, 7.937016e+002
3.946907e+002, 7.944695e+002
3.951728e+002, 7.950453e+002
3.956549e+002, 7.952226e+002
3.961371e+002, 7.950418e+002
3.966192e+002, 7.946543e+002
3.971013e+002, 7.936044e+002
3.975834e+002, 7.929166e+002
3.980655e+002, 7.926161e+002
3.985476e+002, 7.927375e+002
3.990298e+002, 7.935432e+002
3.995119e+002, 7.950114e+002
3.999940e+002, 7.965054e+002
4.004761e+002, 7.970403e+002
4.009582e+002, 7.960135e+002
4.014403e+002, 7.961800e+002
4.019225e+002, 7.984852e+002
4.024046e+002, 8.009225e+002
4.028867e+002, 8.029569e+002
4.033688e+002, 8.043610e+002
4.038509e+002, 8.047535e+002
4.043330e+002, 8.036567e+002
4.048152e+002, 8.015281e+002
4.052973e+002, 8.010361e+002
4.057794e+002, 8.032899e+002
4.062615e+002, 8.056060e+002
4.067436e+002, 8.079045e+002
4.072257e+002, 8.098027e+002
4.077079e+002, 8.106995e+002
4.081900e+002, 8.104519e+002
4.086721e+002, 8.099099e+002
4.091542e+002, 8.102233e+002
4.096363e+002, 8.114997e+002
4.101184e+002, 8.130533e+002
4.106006e+002, 8.152311e+002
4.110827e+002, 8.173094e+002
4.115648e+002, 8.190416e+002
4.120469e+002, 8.203829e+002
4.125290e+002, 8.212299e+002
4.130111e+002, 8.211543e+002
4.134933e+002, 8.205992e+002
