##NAMES=Searlesite
##RRUFFID=R060076
##IDEAL CHEMISTRY=NaBSi_2_O_5_(OH)_2_
##LOCALITY=near Cave Spring, Esperalda County, Nevada, USA
##OWNER=RRUFF
##SOURCE=Dave Bunk Minerals
##DESCRIPTION=Colorless prismatic single crystals
##STATUS=The identification of this mineral has been confirmed by single-crystal X-ray diffraction.
##URL=rruff.info/R060076
93.88477, 81.60315
94.36688, 77.52991
94.84900, 78.84445
95.33112, 84.92651
95.81323, 92.84312
96.29535, 101.3317
96.77747, 110.4739
97.25958, 120.6447
97.74170, 131.9079
98.22382, 144.3098
98.70593, 157.7005
99.18805, 172.1251
99.67017, 187.7475
100.1523, 204.8217
100.6344, 223.3132
101.1165, 242.1839
101.5986, 261.2268
102.0807, 280.5136
102.5629, 299.5358
103.0450, 318.4622
103.5271, 337.1048
104.0092, 355.0812
104.4913, 372.5954
104.9734, 389.4349
105.4556, 405.8239
105.9377, 421.6200
106.4198, 436.8990
106.9019, 450.8266
107.3840, 464.7469
107.8661, 479.9788
108.3483, 496.7191
108.8304, 514.7924
109.3125, 534.1541
109.7946, 554.8713
110.2767, 577.1526
110.7588, 601.8404
111.2410, 628.1171
111.7231, 654.6716
112.2052, 682.0209
112.6873, 709.4891
113.1694, 737.0276
113.6515, 765.3826
114.1337, 793.1110
114.6158, 820.2648
115.0979, 846.5951
115.5800, 871.9217
116.0621, 896.1146
116.5442, 919.2044
117.0264, 940.8590
117.5085, 961.4700
117.9906, 980.7304
118.4727, 998.7446
118.9548, 1015.443
119.4369, 1030.297
119.9191, 1041.865
120.4012, 1052.091
120.8833, 1062.849
121.3654, 1075.361
121.8475, 1088.298
122.3296, 1100.781
122.8118, 1112.790
123.2939, 1124.931
123.7760, 1137.157
124.2581, 1149.773
124.7402, 1163.546
125.2223, 1179.145
125.7045, 1195.677
126.1866, 1211.888
126.6687, 1227.547
127.1508, 1243.825
127.6329, 1262.588
128.1150, 1283.045
128.5972, 1303.284
129.0793, 1321.822
129.5614, 1339.273
130.0435, 1356.568
130.5256, 1373.657
131.0077, 1390.985
131.4899, 1409.410
131.9720, 1428.864
132.4541, 1447.855
132.9362, 1460.546
133.4183, 1465.607
133.9004, 1469.635
134.3826, 1472.510
134.8647, 1474.503
135.3468, 1475.806
135.8289, 1476.336
136.3110, 1477.229
136.7931, 1479.441
137.2753, 1482.971
137.7574, 1486.986
138.2395, 1491.490
138.7216, 1496.313
139.2037, 1500.911
139.6858, 1505.322
140.1680, 1509.326
140.6501, 1512.441
141.1322, 1514.199
141.6143, 1516.850
142.0964, 1521.266
142.5785, 1527.540
143.0607, 1532.626
143.5428, 1536.129
144.0249, 1538.966
144.5070, 1542.418
144.9891, 1546.844
145.4712, 1551.182
145.9534, 1555.006
146.4355, 1558.206
146.9176, 1561.732
147.3997, 1566.079
147.8818, 1570.575
148.3639, 1574.084
148.8461, 1575.708
149.3282, 1577.370
149.8103, 1579.641
150.2924, 1582.663
150.7745, 1585.953
151.2566, 1589.428
151.7388, 1593.135
152.2209, 1597.126
152.7030, 1602.375
153.1851, 1607.109
153.6672, 1610.603
154.1493, 1611.658
154.6315, 1612.992
155.1136, 1614.851
155.5957, 1617.126
156.0778, 1619.437
156.5599, 1622.833
157.0420, 1625.570
157.5242, 1626.733
158.0063, 1623.315
158.4884, 1621.383
158.9705, 1622.487
159.4526, 1626.226
159.9347, 1630.141
160.4169, 1633.797
160.8990, 1637.254
161.3811, 1640.553
161.8632, 1645.476
162.3453, 1648.559
162.8274, 1648.206
163.3096, 1644.576
163.7917, 1639.926
164.2738, 1635.281
164.7559, 1630.027
165.2380, 1623.561
165.7201, 1614.147
166.2023, 1604.733
166.6844, 1596.430
167.1665, 1589.278
167.6486, 1583.608
168.1307, 1580.317
168.6128, 1578.451
169.0950, 1576.760
169.5771, 1573.820
170.0592, 1571.481
170.5413, 1571.328
171.0234, 1573.530
171.5055, 1576.508
171.9877, 1579.829
172.4698, 1583.134
172.9519, 1585.781
173.4340, 1587.541
173.9161, 1588.463
174.3982, 1588.789
174.8804, 1588.650
175.3625, 1587.264
175.8446, 1583.506
176.3267, 1577.926
176.8088, 1571.877
177.2909, 1565.255
177.7731, 1558.821
178.2552, 1553.687
178.7373, 1550.000
179.2194, 1547.213
179.7015, 1544.916
180.1836, 1543.030
180.6658, 1541.320
181.1479, 1539.219
181.6300, 1537.214
182.1121, 1536.560
182.5942, 1537.756
183.0763, 1539.375
183.5585, 1539.343
184.0406, 1537.892
184.5227, 1536.587
185.0048, 1536.365
185.4869, 1537.052
185.9690, 1538.285
186.4511, 1540.248
186.9333, 1542.310
187.4154, 1543.033
187.8975, 1542.516
188.3796, 1542.422
188.8617, 1544.539
189.3438, 1548.296
189.8260, 1550.831
190.3081, 1551.402
190.7902, 1550.944
191.2723, 1551.307
191.7544, 1552.509
192.2365, 1554.228
192.7187, 1556.117
193.2008, 1558.245
193.6829, 1561.414
194.1650, 1566.195
194.6471, 1571.855
195.1292, 1575.984
195.6114, 1578.410
196.0935, 1581.028
196.5756, 1585.578
197.0577, 1592.022
197.5398, 1598.226
198.0219, 1603.514
198.5041, 1608.385
198.9862, 1614.661
199.4683, 1622.609
199.9504, 1630.627
200.4325, 1637.208
200.9146, 1642.222
201.3968, 1647.268
201.8789, 1652.684
202.3610, 1658.332
202.8431, 1663.439
203.3252, 1667.778
203.8073, 1672.221
204.2895, 1678.047
204.7716, 1685.695
205.2537, 1691.674
205.7358, 1694.726
206.2179, 1695.449
206.7000, 1698.106
207.1822, 1703.324
207.6643, 1708.980
208.1464, 1712.695
208.6285, 1713.810
209.1106, 1716.228
209.5927, 1721.019
210.0749, 1727.974
210.5570, 1734.693
211.0391, 1740.977
211.5212, 1747.216
212.0033, 1754.041
212.4854, 1761.826
212.9676, 1768.801
213.4497, 1774.957
213.9318, 1780.210
214.4139, 1782.559
214.8960, 1781.738
215.3781, 1778.443
215.8603, 1773.322
216.3424, 1766.515
216.8245, 1757.557
217.3066, 1745.960
217.7887, 1731.695
218.2708, 1717.233
218.7530, 1701.945
219.2351, 1687.062
219.7172, 1674.516
220.1993, 1665.289
220.6814, 1655.348
221.1635, 1643.180
221.6457, 1628.621
222.1278, 1617.761
222.6099, 1611.778
223.0920, 1607.901
223.5741, 1603.242
224.0562, 1596.644
224.5384, 1591.819
225.0205, 1590.164
225.5026, 1591.800
225.9847, 1591.472
226.4668, 1588.171
226.9489, 1583.996
227.4311, 1581.228
227.9132, 1580.399
228.3953, 1579.771
228.8774, 1578.987
229.3595, 1578.036
229.8416, 1577.415
230.3238, 1577.162
230.8059, 1577.222
231.2880, 1577.598
231.7701, 1578.555
232.2522, 1579.298
232.7343, 1579.428
233.2165, 1578.889
233.6986, 1579.514
234.1807, 1581.895
234.6628, 1584.809
235.1449, 1587.024
235.6270, 1588.194
236.1092, 1589.236
236.5913, 1590.191
237.0734, 1591.032
237.5555, 1592.360
238.0376, 1594.295
238.5197, 1596.571
239.0019, 1598.950
239.4840, 1601.563
239.9661, 1604.016
240.4482, 1606.156
240.9303, 1607.991
241.4124, 1610.248
241.8946, 1613.412
242.3767, 1616.497
242.8588, 1618.529
243.3409, 1618.966
243.8230, 1619.395
244.3051, 1619.984
244.7873, 1620.735
245.2694, 1621.845
245.7515, 1623.349
246.2336, 1625.163
246.7157, 1627.203
247.1978, 1629.384
247.6800, 1632.075
248.1621, 1635.934
248.6442, 1640.764
249.1263, 1643.043
249.6084, 1641.353
250.0905, 1638.939
250.5726, 1638.298
251.0548, 1640.084
251.5369, 1642.323
252.0190, 1644.978
252.5011, 1647.973
252.9832, 1650.247
253.4653, 1651.010
253.9475, 1652.129
254.4296, 1655.135
254.9117, 1661.209
255.3938, 1666.323
255.8759, 1669.404
256.3581, 1671.014
256.8402, 1674.514
257.3223, 1680.649
257.8044, 1687.492
258.2865, 1693.848
258.7686, 1699.470
259.2508, 1705.111
259.7329, 1710.958
260.2150, 1716.851
260.6971, 1722.475
261.1792, 1727.548
261.6613, 1732.830
262.1435, 1738.857
262.6256, 1745.855
263.1077, 1752.901
263.5898, 1760.032
264.0719, 1767.143
264.5540, 1773.620
265.0362, 1778.981
265.5183, 1784.871
266.0004, 1792.193
266.4825, 1800.930
266.9646, 1810.875
267.4467, 1822.071
267.9289, 1834.387
268.4110, 1847.138
268.8931, 1860.787
269.3752, 1874.060
269.8573, 1886.142
270.3394, 1896.810
270.8216, 1907.853
271.3037, 1919.468
271.7858, 1931.340
272.2679, 1942.614
272.7500, 1953.541
273.2321, 1963.135
273.7143, 1970.995
274.1964, 1977.158
274.6785, 1981.444
275.1606, 1983.972
275.6427, 1984.482
276.1248, 1982.719
276.6070, 1978.852
277.0891, 1972.009
277.5712, 1961.702
278.0533, 1947.926
278.5354, 1931.413
279.0175, 1911.599
279.4996, 1890.332
279.9818, 1870.048
280.4639, 1850.867
280.9460, 1833.074
281.4281, 1816.793
281.9102, 1801.999
282.3923, 1788.447
282.8745, 1776.036
283.3566, 1765.163
283.8387, 1756.583
284.3208, 1750.304
284.8029, 1744.844
285.2850, 1739.730
285.7672, 1735.056
286.2493, 1731.258
286.7314, 1728.386
287.2135, 1726.168
287.6956, 1724.638
288.1777, 1723.733
288.6599, 1722.424
289.1420, 1720.108
289.6241, 1717.414
290.1062, 1716.172
290.5883, 1716.436
291.0704, 1717.395
291.5526, 1718.588
292.0347, 1719.962
292.5168, 1721.149
292.9989, 1721.936
293.4810, 1722.639
293.9631, 1723.866
294.4453, 1725.589
294.9274, 1727.627
295.4095, 1729.890
295.8916, 1732.328
296.3737, 1734.907
296.8558, 1737.749
297.3380, 1740.361
297.8201, 1741.886
298.3022, 1742.460
298.7843, 1742.926
299.2664, 1743.993
299.7485, 1745.343
300.2307, 1746.212
300.7128, 1746.497
301.1949, 1746.594
301.6770, 1746.646
302.1591, 1746.851
302.6412, 1747.778
303.1234, 1750.405
303.6055, 1753.739
304.0876, 1756.148
304.5697, 1757.343
305.0518, 1758.853
305.5339, 1762.403
306.0161, 1767.283
306.4982, 1771.946
306.9803, 1775.631
307.4624, 1778.777
307.9445, 1781.672
308.4266, 1784.301
308.9088, 1786.832
309.3909, 1788.784
309.8730, 1790.834
310.3551, 1793.963
310.8372, 1799.818
311.3193, 1805.945
311.8015, 1810.519
312.2836, 1813.708
312.7657, 1816.462
313.2478, 1818.658
313.7299, 1821.038
314.2120, 1824.505
314.6942, 1831.111
315.1763, 1836.704
315.6584, 1838.656
316.1405, 1837.641
316.6226, 1836.111
317.1047, 1834.633
317.5869, 1833.363
318.0690, 1832.602
318.5511, 1833.357
319.0332, 1832.861
319.5153, 1828.804
319.9974, 1822.678
320.4796, 1817.969
320.9617, 1817.177
321.4438, 1816.880
321.9259, 1815.318
322.4080, 1811.765
322.8901, 1808.517
323.3723, 1805.580
323.8544, 1803.384
324.3365, 1802.536
324.8186, 1804.652
325.3007, 1806.786
325.7828, 1807.869
326.2650, 1807.560
326.7471, 1808.045
327.2292, 1810.054
327.7113, 1812.749
328.1934, 1815.340
328.6755, 1818.035
329.1577, 1820.335
329.6398, 1822.135
330.1219, 1823.431
330.6040, 1824.316
331.0861, 1824.035
331.5682, 1823.872
332.0504, 1824.755
332.5325, 1828.035
333.0146, 1830.101
333.4967, 1830.458
333.9788, 1829.333
334.4609, 1827.789
334.9431, 1825.414
335.4252, 1823.168
335.9073, 1821.576
336.3894, 1820.797
336.8715, 1820.270
337.3536, 1819.941
337.8358, 1819.945
338.3179, 1820.699
338.8000, 1822.578
339.2821, 1824.285
339.7642, 1825.088
340.2463, 1824.818
340.7285, 1825.689
341.2106, 1827.791
341.6927, 1830.865
342.1748, 1834.656
342.6569, 1839.230
343.1390, 1843.974
343.6212, 1848.529
344.1033, 1853.016
344.5854, 1858.198
345.0675, 1864.055
345.5496, 1870.059
346.0317, 1875.475
346.5139, 1880.387
346.9960, 1885.528
347.4781, 1891.138
347.9602, 1897.038
348.4423, 1902.979
348.9244, 1908.964
349.4066, 1914.877
349.8887, 1920.730
350.3708, 1926.529
350.8529, 1931.917
351.3350, 1936.674
351.8171, 1941.642
352.2993, 1948.122
352.7814, 1955.775
353.2635, 1963.430
353.7456, 1970.319
354.2277, 1976.957
354.7098, 1984.015
355.1920, 1991.474
355.6741, 1999.518
356.1562, 2008.123
356.6383, 2017.291
357.1204, 2027.202
357.6025, 2038.460
358.0847, 2050.035
358.5668, 2061.320
359.0489, 2072.342
359.5310, 2082.589
360.0131, 2091.166
360.4952, 2099.125
360.9774, 2107.462
361.4595, 2117.104
361.9416, 2126.473
362.4237, 2135.384
362.9058, 2143.571
363.3879, 2150.162
363.8701, 2155.599
364.3522, 2158.866
364.8343, 2159.146
365.3164, 2155.584
365.7985, 2150.963
366.2806, 2146.614
366.7628, 2141.479
367.2449, 2133.947
367.7270, 2122.490
368.2091, 2109.809
368.6912, 2096.337
369.1733, 2082.025
369.6555, 2068.111
370.1376, 2054.727
370.6197, 2041.717
371.1018, 2028.728
371.5839, 2014.615
372.0660, 2002.022
372.5482, 1991.510
373.0303, 1982.935
373.5124, 1975.184
373.9945, 1968.819
374.4766, 1962.440
374.9587, 1954.851
375.4409, 1944.845
375.9230, 1937.160
376.4051, 1932.681
376.8872, 1930.075
377.3693, 1926.318
377.8514, 1921.089
378.3336, 1915.914
378.8157, 1911.277
379.2978, 1907.157
379.7799, 1904.459
380.2620, 1903.375
380.7441, 1903.200
381.2263, 1903.347
381.7084, 1903.795
382.1905, 1903.826
382.6726, 1903.154
383.1547, 1901.920
383.6368, 1900.182
384.1190, 1897.885
384.6011, 1896.258
385.0832, 1896.784
385.5653, 1898.751
386.0474, 1900.089
386.5295, 1900.088
387.0117, 1900.006
387.4938, 1901.930
387.9759, 1905.300
388.4580, 1908.085
388.9401, 1908.620
389.4222, 1908.220
389.9044, 1908.079
390.3865, 1908.208
390.8686, 1909.584
391.3507, 1914.001
391.8328, 1919.912
392.3149, 1925.013
392.7971, 1927.878
393.2792, 1930.087
393.7613, 1932.079
394.2434, 1933.998
394.7255, 1936.681
395.2076, 1940.892
395.6898, 1945.755
396.1719, 1950.623
396.6540, 1955.114
397.1361, 1959.980
397.6182, 1965.463
398.1003, 1971.435
398.5825, 1977.611
399.0646, 1984.163
399.5467, 1990.691
400.0288, 1996.973
400.5109, 2002.813
400.9930, 2009.084
401.4752, 2016.332
401.9573, 2023.729
402.4394, 2030.343
402.9215, 2035.133
403.4036, 2040.904
403.8857, 2048.247
404.3678, 2057.093
404.8499, 2066.250
405.3321, 2075.724
405.8142, 2085.716
406.2963, 2096.242
406.7784, 2107.361
407.2605, 2119.046
407.7426, 2131.319
408.2248, 2144.124
408.7069, 2157.770
409.1890, 2172.120
409.6711, 2185.891
410.1532, 2198.334
410.6353, 2209.609
411.1175, 2221.192
411.5996, 2233.178
412.0817, 2243.769
412.5638, 2250.409
413.0459, 2253.820
413.5280, 2257.230
414.0102, 2261.960
414.4923, 2266.502
414.9744, 2268.501
415.4565, 2268.306
415.9386, 2267.661
416.4207, 2267.062
416.9029, 2266.949
417.3850, 2267.759
417.8671, 2269.506
418.3492, 2272.511
418.8313, 2277.458
419.3134, 2283.750
419.7956, 2290.500
420.2777, 2297.168
420.7598, 2304.325
421.2419, 2312.271
421.7240, 2320.980
422.2061, 2330.629
422.6883, 2341.224
423.1704, 2352.787
423.6525, 2365.602
424.1346, 2382.593
424.6167, 2396.819
425.0988, 2406.765
425.5810, 2413.049
426.0631, 2417.195
426.5452, 2419.858
427.0273, 2419.797
427.5094, 2416.822
427.9915, 2411.151
428.4737, 2401.546
428.9558, 2387.021
429.4379, 2369.692
429.9200, 2351.570
430.4021, 2332.813
430.8842, 2313.042
431.3664, 2291.869
431.8485, 2269.884
432.3306, 2249.447
432.8127, 2230.746
433.2948, 2212.694
433.7769, 2194.134
434.2591, 2175.214
434.7412, 2158.546
435.2233, 2144.366
435.7054, 2132.027
436.1875, 2120.709
436.6696, 2110.363
437.1518, 2100.882
437.6339, 2092.349
438.1160, 2084.436
438.5981, 2076.454
439.0802, 2068.459
439.5623, 2061.119
440.0445, 2055.229
440.5266, 2050.232
441.0087, 2045.308
441.4908, 2040.281
441.9729, 2035.427
442.4550, 2031.025
442.9372, 2026.959
443.4193, 2022.967
443.9014, 2019.012
444.3835, 2015.092
444.8656, 2011.075
445.3477, 2006.900
445.8299, 2003.411
446.3120, 2001.531
446.7941, 2000.015
447.2762, 1997.912
447.7583, 1993.404
448.2404, 1990.265
448.7226, 1989.112
449.2047, 1989.568
449.6868, 1990.709
450.1689, 1993.376
450.6510, 1995.621
451.1331, 1996.550
451.6153, 1995.832
452.0974, 1996.039
452.5795, 1997.684
453.0616, 1999.544
453.5437, 1999.963
454.0258, 1998.534
454.5080, 1998.530
454.9901, 2001.020
455.4722, 2005.039
455.9543, 2007.938
456.4364, 2009.657
456.9185, 2010.961
457.4007, 2011.584
457.8828, 2012.097
458.3649, 2014.480
458.8470, 2018.891
459.3291, 2024.756
459.8112, 2032.708
460.2934, 2041.601
460.7755, 2048.736
461.2576, 2051.486
461.7397, 2053.659
462.2218, 2059.556
462.7039, 2068.410
463.1861, 2076.254
463.6682, 2079.367
464.1503, 2081.757
464.6324, 2086.696
465.1145, 2095.495
465.5966, 2104.461
466.0788, 2112.572
466.5609, 2120.094
467.0430, 2127.241
467.5251, 2132.083
468.0072, 2138.609
468.4893, 2148.552
468.9715, 2161.668
469.4536, 2173.553
469.9357, 2182.797
470.4178, 2192.272
470.8999, 2203.413
471.3820, 2216.639
471.8642, 2230.469
472.3463, 2245.061
472.8284, 2260.017
473.3105, 2275.476
473.7926, 2291.606
474.2747, 2306.871
474.7569, 2321.090
475.2390, 2334.027
475.7211, 2344.994
476.2032, 2354.060
476.6853, 2360.337
477.1674, 2363.948
477.6496, 2364.344
478.1317, 2359.582
478.6138, 2349.063
479.0959, 2334.706
479.5780, 2317.676
480.0602, 2298.340
480.5423, 2277.898
481.0244, 2255.649
481.5065, 2233.239
481.9886, 2211.372
482.4707, 2190.164
482.9529, 2171.095
483.4350, 2155.934
483.9171, 2142.250
484.3992, 2128.214
484.8813, 2112.228
485.3634, 2098.406
485.8456, 2088.750
486.3277, 2081.633
486.8098, 2074.703
487.2919, 2067.036
487.7740, 2060.268
488.2561, 2054.711
488.7383, 2050.302
489.2204, 2047.299
489.7025, 2046.480
490.1846, 2045.864
490.6667, 2044.180
491.1488, 2041.199
491.6310, 2038.375
492.1131, 2035.666
492.5952, 2033.297
493.0773, 2031.737
493.5594, 2030.980
494.0415, 2029.969
494.5237, 2028.130
495.0058, 2025.938
495.4879, 2024.458
495.9700, 2023.678
496.4521, 2023.199
496.9342, 2022.958
497.4164, 2022.773
497.8985, 2022.345
498.3806, 2021.600
498.8627, 2020.777
499.3448, 2019.646
499.8269, 2018.633
500.3091, 2018.363
500.7912, 2019.632
501.2733, 2021.126
501.7554, 2022.359
502.2375, 2023.342
502.7196, 2024.248
503.2018, 2025.084
503.6839, 2025.866
504.1660, 2026.479
504.6481, 2026.542
505.1302, 2027.515
505.6123, 2030.196
506.0945, 2033.183
506.5766, 2034.876
507.0587, 2034.935
507.5408, 2034.512
508.0229, 2033.480
508.5050, 2032.236
508.9872, 2032.259
509.4693, 2033.723
509.9514, 2035.387
510.4335, 2036.878
510.9156, 2038.111
511.3977, 2038.090
511.8799, 2036.651
512.3619, 2035.387
512.8441, 2036.003
513.3262, 2037.986
513.8083, 2040.202
514.2904, 2042.454
514.7725, 2044.633
515.2546, 2046.339
515.7368, 2047.835
516.2189, 2049.859
516.7010, 2052.890
517.1831, 2056.395
517.6652, 2060.274
518.1473, 2064.522
518.6295, 2068.308
519.1116, 2070.709
519.5937, 2072.975
520.0758, 2075.973
520.5579, 2080.786
521.0400, 2085.033
521.5222, 2088.524
522.0043, 2091.579
522.4864, 2094.683
522.9685, 2097.632
523.4506, 2101.265
523.9327, 2105.943
524.4149, 2111.554
524.8970, 2116.753
525.3791, 2121.423
525.8612, 2126.476
526.3433, 2132.950
526.8254, 2140.554
527.3076, 2147.326
527.7897, 2152.723
528.2718, 2158.652
528.7539, 2167.971
529.2360, 2179.531
529.7181, 2190.845
530.2003, 2200.989
530.6824, 2210.459
531.1645, 2219.669
531.6466, 2228.538
532.1287, 2237.431
532.6108, 2247.573
533.0930, 2256.952
533.5751, 2264.687
534.0572, 2270.688
534.5393, 2274.707
535.0214, 2276.507
535.5035, 2276.384
535.9857, 2274.612
536.4678, 2271.571
536.9499, 2266.308
537.4320, 2258.248
537.9141, 2248.113
538.3962, 2237.730
538.8784, 2226.877
539.3605, 2216.011
539.8426, 2205.157
540.3247, 2194.344
540.8068, 2184.679
541.2889, 2176.156
541.7711, 2169.055
542.2532, 2164.329
542.7353, 2161.325
543.2174, 2158.056
543.6995, 2154.190
544.1816, 2150.450
544.6638, 2147.866
545.1459, 2145.893
545.6280, 2143.572
546.1101, 2139.016
546.5922, 2135.361
547.0743, 2135.086
547.5565, 2137.399
548.0386, 2139.331
548.5207, 2139.528
549.0028, 2139.389
549.4849, 2139.510
549.9670, 2139.952
550.4492, 2140.491
550.9313, 2140.881
551.4134, 2141.551
551.8955, 2142.849
552.3776, 2144.803
552.8597, 2147.510
553.3419, 2151.505
553.8240, 2155.765
554.3061, 2158.013
554.7882, 2158.157
555.2703, 2158.024
555.7524, 2158.208
556.2346, 2158.673
556.7167, 2159.442
557.1988, 2160.488
557.6809, 2161.402
558.1630, 2161.540
558.6451, 2161.479
559.1273, 2162.287
559.6094, 2164.294
560.0915, 2165.741
560.5736, 2165.177
561.0557, 2163.537
561.5378, 2161.903
562.0200, 2161.147
562.5021, 2159.789
562.9842, 2157.092
563.4663, 2153.478
563.9484, 2150.122
564.4305, 2147.462
564.9127, 2144.661
565.3948, 2141.610
565.8769, 2138.349
566.3590, 2133.921
566.8411, 2127.392
567.3232, 2121.793
567.8054, 2120.170
568.2875, 2122.500
568.7696, 2121.881
569.2517, 2117.397
569.7338, 2111.522
570.2159, 2106.804
570.6981, 2103.263
571.1802, 2100.711
571.6623, 2099.498
572.1444, 2098.763
572.6265, 2097.486
573.1086, 2095.896
573.5908, 2094.694
574.0729, 2094.805
574.5550, 2094.914
575.0371, 2093.776
575.5192, 2091.237
576.0013, 2089.984
576.4835, 2092.276
576.9656, 2094.887
577.4477, 2095.652
577.9298, 2092.858
578.4119, 2091.445
578.8940, 2091.951
579.3762, 2093.349
579.8583, 2094.252
580.3404, 2094.569
580.8225, 2094.817
581.3046, 2095.085
581.7867, 2095.354
582.2689, 2095.534
582.7510, 2095.632
583.2331, 2095.837
583.7152, 2096.637
584.1973, 2097.471
584.6794, 2097.561
585.1616, 2096.877
585.6437, 2095.160
586.1258, 2090.712
586.6079, 2085.985
587.0900, 2083.476
587.5721, 2084.413
588.0543, 2085.438
588.5364, 2084.956
589.0185, 2084.119
589.5006, 2084.378
589.9827, 2087.913
590.4648, 2090.042
590.9470, 2089.885
591.4291, 2088.018
591.9112, 2086.102
