##NAMES=Seeligerite
##RRUFFID=R060714
##IDEAL CHEMISTRY=Pb^2+^_3_(I^5+^O_4_)Cl_3_
##LOCALITY=San Francisco mine, Sierra Gorda, Chile
##OWNER=RRUFF
##SOURCE=Bob Jenkins
##DESCRIPTION=A mass of bright yellow platelets associated with colorless quartz
##STATUS=The identification of this mineral has been confirmed by single-crystal X-ray diffraction.
##URL=rruff.info/R060714
120.081, 889.187
120.563, 920.917
121.045, 959.927
121.527, 1008.803
122.009, 1067.553
122.492, 1137.144
122.974, 1219.751
123.456, 1313.449
123.938, 1418.017
124.420, 1534.535
124.902, 1655.310
125.384, 1773.059
125.867, 1887.085
126.349, 1999.287
126.831, 2105.659
127.313, 2213.065
127.795, 2329.117
128.277, 2458.249
128.759, 2587.755
129.241, 2703.051
129.723, 2811.332
130.206, 2884.339
130.688, 2908.988
131.170, 2902.915
131.652, 2877.816
132.134, 2837.086
132.616, 2784.205
133.098, 2727.636
133.580, 2669.343
134.062, 2602.837
134.545, 2518.587
135.027, 2429.152
135.509, 2347.532
135.991, 2279.319
136.473, 2225.784
136.955, 2191.099
137.437, 2179.266
137.919, 2184.955
138.402, 2204.438
138.884, 2240.054
139.366, 2295.318
139.848, 2373.171
140.330, 2472.159
140.812, 2584.982
141.294, 2715.922
141.776, 2857.144
142.258, 3017.587
142.741, 3187.467
143.223, 3352.088
143.705, 3503.167
144.187, 3640.085
144.669, 3753.110
145.151, 3820.012
145.633, 3885.899
146.115, 3969.380
146.598, 4064.268
147.080, 4153.806
147.562, 4224.582
148.044, 4276.449
148.526, 4313.061
149.008, 4325.969
149.490, 4335.174
149.972, 4353.220
150.454, 4376.821
150.936, 4392.734
151.419, 4389.365
151.901, 4364.913
152.383, 4328.629
152.865, 4278.447
153.347, 4220.605
153.829, 4156.842
154.311, 4087.996
154.794, 4016.003
155.276, 3943.159
155.758, 3870.002
156.240, 3791.785
156.722, 3699.050
157.204, 3608.741
157.686, 3531.167
158.168, 3467.704
158.650, 3415.714
159.133, 3373.023
159.615, 3341.185
160.097, 3316.060
160.579, 3300.970
161.061, 3290.290
161.543, 3278.195
162.025, 3264.165
162.507, 3253.987
162.990, 3253.322
163.472, 3263.168
163.954, 3284.087
164.436, 3323.151
164.918, 3369.458
165.400, 3408.574
165.882, 3437.952
166.364, 3475.223
166.846, 3542.357
167.329, 3642.879
167.811, 3752.276
168.293, 3871.893
168.775, 3997.237
169.257, 4125.221
169.739, 4255.095
170.221, 4385.215
170.703, 4512.891
171.185, 4637.063
171.668, 4769.261
172.150, 4915.452
172.632, 5068.596
173.114, 5225.560
173.596, 5388.892
174.078, 5540.297
174.560, 5654.650
175.042, 5733.780
175.525, 5794.399
176.007, 5856.904
176.489, 5897.206
176.971, 5880.938
177.453, 5800.136
177.935, 5669.316
178.417, 5490.697
178.899, 5265.988
179.381, 5032.599
179.863, 4793.236
180.346, 4552.702
180.828, 4311.090
181.310, 4065.015
181.792, 3834.380
182.274, 3652.879
182.756, 3514.541
183.238, 3387.881
183.721, 3261.254
184.203, 3141.685
184.685, 3040.708
185.167, 2962.550
185.649, 2898.583
186.131, 2841.896
186.613, 2791.503
187.095, 2748.226
187.577, 2712.955
188.059, 2684.781
188.542, 2662.817
189.024, 2647.299
189.506, 2636.596
189.988, 2629.693
190.470, 2626.087
190.952, 2625.672
191.434, 2629.417
191.917, 2636.126
192.399, 2644.271
192.881, 2654.231
193.363, 2663.984
193.845, 2668.536
194.327, 2669.374
194.809, 2677.148
195.291, 2699.023
195.773, 2729.154
196.255, 2758.217
196.738, 2785.620
197.220, 2810.568
197.702, 2829.059
198.184, 2843.100
198.666, 2862.064
199.148, 2889.498
199.630, 2923.542
200.112, 2963.312
200.595, 3010.960
201.077, 3056.492
201.559, 3083.866
202.041, 3098.993
202.523, 3124.897
203.005, 3175.179
203.487, 3237.508
203.969, 3293.378
204.452, 3339.969
204.934, 3385.264
205.416, 3433.849
205.898, 3486.120
206.380, 3544.579
206.862, 3613.996
207.344, 3688.629
207.826, 3760.081
208.308, 3827.318
208.790, 3894.806
209.273, 3958.144
209.755, 4023.009
210.237, 4110.251
210.719, 4238.421
211.201, 4383.770
211.683, 4516.857
212.165, 4634.716
212.648, 4753.485
213.130, 4881.574
213.612, 5019.245
214.094, 5166.393
214.576, 5331.663
215.058, 5501.190
215.540, 5660.409
216.022, 5808.349
216.504, 5958.670
216.986, 6127.303
217.469, 6304.657
217.951, 6464.865
218.433, 6591.066
218.915, 6709.261
219.397, 6841.045
219.879, 6986.569
220.361, 7135.495
220.844, 7286.241
221.326, 7434.762
221.808, 7573.405
222.290, 7711.796
222.772, 7831.477
223.254, 7911.908
223.736, 7957.208
224.218, 7996.876
224.700, 8047.571
225.182, 8100.769
225.665, 8135.481
226.147, 8153.280
226.629, 8151.425
227.111, 8127.235
227.593, 8081.697
228.075, 8016.739
228.557, 7928.718
229.040, 7825.369
229.522, 7728.611
230.004, 7648.442
230.486, 7556.630
230.968, 7437.883
231.450, 7297.966
231.932, 7152.223
232.414, 7007.199
232.896, 6858.083
233.378, 6690.079
233.861, 6494.376
234.343, 6307.438
234.825, 6151.479
235.307, 6009.554
235.789, 5848.863
236.271, 5654.683
236.753, 5449.243
237.235, 5273.320
237.718, 5132.383
238.200, 4992.299
238.682, 4843.929
239.164, 4692.630
239.646, 4543.463
240.128, 4396.796
240.610, 4255.386
241.092, 4122.290
241.574, 3996.131
242.057, 3883.019
242.539, 3791.246
243.021, 3708.448
243.503, 3622.103
243.985, 3530.623
244.467, 3441.531
244.949, 3364.135
245.431, 3301.927
245.913, 3237.026
246.396, 3168.400
246.878, 3097.842
247.360, 3022.425
247.842, 2944.122
248.324, 2875.712
248.806, 2830.313
249.288, 2810.934
249.770, 2777.653
250.253, 2719.188
250.735, 2659.310
251.217, 2608.821
251.699, 2566.843
252.181, 2528.430
252.663, 2490.601
253.145, 2453.323
253.627, 2414.734
254.109, 2366.304
254.592, 2325.824
255.074, 2304.152
255.556, 2293.825
256.038, 2281.466
256.520, 2259.567
257.002, 2229.811
257.484, 2199.323
257.966, 2165.861
258.449, 2134.629
258.931, 2107.828
259.413, 2083.055
259.895, 2057.517
260.377, 2029.969
260.859, 2001.087
261.341, 1971.935
261.823, 1940.016
262.306, 1911.970
262.788, 1889.483
263.270, 1869.721
263.752, 1850.578
264.234, 1831.427
264.716, 1812.600
265.198, 1795.183
265.680, 1780.834
266.162, 1763.614
266.645, 1742.143
267.127, 1719.136
267.609, 1695.007
268.091, 1670.371
268.573, 1647.264
269.055, 1628.346
269.537, 1614.421
270.019, 1599.727
270.501, 1579.260
270.984, 1562.500
271.466, 1556.098
271.948, 1557.234
272.430, 1557.304
272.912, 1550.098
273.394, 1536.038
273.876, 1518.172
274.358, 1491.812
274.841, 1468.188
275.323, 1449.662
275.805, 1436.871
276.287, 1431.400
276.769, 1437.061
277.251, 1448.369
277.733, 1450.670
278.215, 1440.384
278.698, 1430.037
279.180, 1426.714
279.662, 1425.404
280.144, 1419.620
280.626, 1405.673
281.108, 1390.578
281.590, 1385.435
282.072, 1391.632
282.554, 1392.178
283.036, 1373.999
283.519, 1351.933
284.001, 1343.365
284.483, 1352.450
284.965, 1362.187
285.447, 1359.088
285.929, 1345.220
286.411, 1331.568
286.893, 1320.397
287.376, 1310.876
287.858, 1301.990
288.340, 1293.730
288.822, 1286.111
289.304, 1279.340
289.786, 1273.205
290.268, 1266.803
290.750, 1259.718
291.233, 1254.131
291.715, 1254.266
292.197, 1259.553
292.679, 1259.223
293.161, 1246.777
293.643, 1231.449
294.125, 1221.589
294.607, 1217.370
295.089, 1214.055
295.572, 1207.908
296.054, 1199.469
296.536, 1194.614
297.018, 1195.119
297.500, 1196.962
297.982, 1199.480
298.464, 1201.961
298.946, 1203.094
299.428, 1202.266
299.911, 1199.439
300.393, 1194.297
300.875, 1182.895
301.357, 1174.168
301.839, 1171.495
302.321, 1171.031
302.803, 1167.581
303.285, 1159.587
303.767, 1150.890
304.250, 1148.173
304.732, 1156.808
305.214, 1160.408
305.696, 1153.793
306.178, 1146.786
306.660, 1147.240
307.142, 1154.805
307.625, 1162.628
308.107, 1163.690
308.589, 1157.268
309.071, 1150.759
309.553, 1143.238
310.035, 1136.569
310.517, 1132.782
310.999, 1130.280
311.481, 1125.954
311.964, 1117.765
312.446, 1106.339
312.928, 1093.076
313.410, 1073.422
313.892, 1060.645
314.374, 1063.560
314.856, 1072.341
315.338, 1075.675
315.820, 1069.075
316.303, 1059.001
316.785, 1054.456
317.267, 1056.156
317.749, 1057.708
318.231, 1048.732
318.713, 1046.251
319.195, 1036.145
319.677, 1042.123
320.159, 1044.197
320.642, 1042.576
321.124, 1026.196
321.606, 1028.874
322.088, 1023.915
322.570, 1018.643
323.052, 1024.004
323.534, 1016.859
324.016, 1007.944
324.499, 1016.469
324.981, 1030.853
325.463, 1036.214
325.945, 1031.825
326.427, 1028.725
326.909, 1036.604
327.391, 1052.179
327.873, 1056.635
328.355, 1039.629
328.838, 1022.474
329.320, 1014.973
329.802, 1014.839
330.284, 1017.370
330.766, 1021.057
331.248, 1024.420
331.730, 1023.710
332.212, 1013.804
332.694, 1007.937
333.177, 1011.787
333.659, 1017.387
334.141, 1015.617
334.623, 1005.327
335.105, 994.063
335.587, 990.866
336.069, 997.758
336.552, 1004.840
337.034, 1017.935
337.516, 1025.768
337.998, 1018.969
338.480, 1002.451
338.962, 988.851
339.444, 987.414
339.926, 996.086
340.408, 1002.862
340.891, 1008.412
341.373, 1010.756
341.855, 1006.553
342.337, 1000.524
342.819, 997.475
343.301, 999.023
343.783, 1004.726
344.265, 1017.340
344.747, 1039.233
345.230, 1050.074
345.712, 1034.407
346.194, 1015.203
346.676, 1009.900
347.158, 1019.022
347.640, 1032.580
348.122, 1046.317
348.604, 1059.731
349.086, 1071.424
349.569, 1081.202
350.051, 1089.553
350.533, 1094.932
351.015, 1098.842
351.497, 1106.667
351.979, 1118.893
352.461, 1135.731
352.944, 1161.044
353.426, 1192.726
353.908, 1219.361
354.390, 1233.818
354.872, 1240.065
355.354, 1250.418
355.836, 1265.881
356.318, 1282.745
356.800, 1300.328
357.283, 1318.741
357.765, 1337.787
358.247, 1357.544
358.729, 1378.512
359.211, 1401.771
359.693, 1428.368
360.175, 1453.444
360.657, 1479.383
361.139, 1501.829
361.622, 1521.383
362.104, 1535.845
362.586, 1539.995
363.068, 1529.055
363.550, 1505.336
364.032, 1483.654
364.514, 1469.666
364.996, 1448.674
365.478, 1411.460
365.961, 1369.237
366.443, 1334.081
366.925, 1310.029
367.407, 1291.103
367.889, 1269.965
368.371, 1246.318
368.853, 1222.719
369.335, 1195.927
369.818, 1173.210
370.300, 1163.357
370.782, 1164.332
371.264, 1160.808
371.746, 1138.418
372.228, 1108.108
372.710, 1091.646
373.192, 1091.933
373.674, 1094.634
374.157, 1091.067
374.639, 1082.360
375.121, 1073.552
375.603, 1063.665
376.085, 1054.991
376.567, 1048.416
377.049, 1043.940
377.531, 1042.794
378.013, 1046.128
378.496, 1049.560
378.978, 1044.609
379.460, 1023.394
379.942, 1009.698
380.424, 1008.277
380.906, 1011.202
381.388, 1014.262
381.871, 1016.153
382.353, 1015.727
382.835, 1011.843
383.317, 1004.542
383.799, 996.370
384.281, 981.858
384.763, 972.930
385.245, 975.498
385.727, 983.846
386.210, 990.596
386.692, 992.720
387.174, 992.852
387.656, 995.674
388.138, 1002.051
388.620, 1006.315
389.102, 1005.766
389.584, 1004.156
390.066, 1003.418
390.549, 1003.770
391.031, 1005.803
391.513, 1012.062
391.995, 1019.795
392.477, 1021.432
392.959, 1015.194
393.441, 1011.701
393.923, 1020.245
394.405, 1036.959
394.888, 1048.114
395.370, 1049.931
395.852, 1049.853
396.334, 1050.722
396.816, 1052.535
397.298, 1055.749
397.780, 1060.693
398.263, 1065.707
398.745, 1067.891
399.227, 1064.638
399.709, 1064.925
400.191, 1072.855
400.673, 1080.779
401.155, 1082.299
401.637, 1078.884
402.119, 1077.337
402.602, 1083.151
403.084, 1094.973
403.566, 1103.044
404.048, 1102.791
404.530, 1105.773
405.012, 1117.271
405.494, 1131.250
405.976, 1141.988
406.458, 1147.990
406.941, 1150.678
407.423, 1148.843
407.905, 1142.796
408.387, 1145.917
408.869, 1165.458
409.351, 1186.480
409.833, 1196.443
410.315, 1198.125
410.797, 1201.453
411.280, 1210.866
411.762, 1222.826
412.244, 1233.998
412.726, 1244.324
413.208, 1253.600
413.690, 1261.093
414.172, 1267.995
414.654, 1277.616
415.137, 1290.293
415.619, 1304.320
416.101, 1322.980
416.583, 1340.871
417.065, 1349.429
417.547, 1348.822
418.029, 1350.579
418.511, 1367.300
418.993, 1400.244
419.476, 1426.126
419.958, 1435.180
420.440, 1447.851
420.922, 1469.730
421.404, 1498.095
421.886, 1529.816
422.368, 1564.033
422.850, 1597.929
423.332, 1625.507
423.815, 1645.042
424.297, 1669.511
424.779, 1701.087
425.261, 1738.628
425.743, 1780.272
426.225, 1826.412
426.707, 1878.942
427.190, 1939.687
427.672, 2007.071
428.154, 2077.862
428.636, 2152.243
429.118, 2230.574
429.600, 2312.686
430.082, 2399.147
430.564, 2491.587
431.046, 2584.912
431.529, 2691.695
432.011, 2808.003
432.493, 2943.059
432.975, 3114.418
433.457, 3322.136
433.939, 3541.008
434.421, 3741.035
434.903, 3916.475
435.385, 4129.680
435.868, 4415.479
436.350, 4699.482
436.832, 4949.763
437.314, 5188.258
437.796, 5457.217
438.278, 5774.219
438.760, 6107.378
439.242, 6400.546
439.724, 6648.062
440.207, 6902.083
440.689, 7203.104
441.171, 7477.238
441.653, 7676.292
442.135, 7804.613
442.617, 7885.437
443.099, 7931.078
443.581, 7933.538
444.064, 7884.798
444.546, 7784.338
445.028, 7627.547
445.510, 7409.917
445.992, 7137.628
446.474, 6824.215
446.956, 6446.522
447.438, 6078.192
447.921, 5727.343
448.403, 5391.325
448.885, 5069.699
449.367, 4762.067
449.849, 4474.144
450.331, 4208.204
450.813, 3965.429
451.295, 3751.333
451.777, 3582.948
452.259, 3423.135
452.742, 3256.816
453.224, 3098.271
453.706, 2962.191
454.188, 2854.018
454.670, 2764.710
455.152, 2686.612
455.634, 2619.440
456.116, 2559.810
456.599, 2505.813
457.081, 2461.574
457.563, 2435.392
458.045, 2421.958
458.527, 2406.605
459.009, 2381.550
459.491, 2357.962
459.973, 2346.132
460.456, 2342.291
460.938, 2335.027
461.420, 2319.703
461.902, 2301.960
462.384, 2292.319
462.866, 2298.368
463.348, 2292.534
463.830, 2273.226
464.312, 2244.571
464.795, 2205.420
465.277, 2158.907
465.759, 2111.065
466.241, 2065.095
466.723, 2020.580
467.205, 1975.461
467.687, 1928.140
468.169, 1885.354
468.651, 1850.859
469.134, 1820.083
469.616, 1789.371
470.098, 1758.866
470.580, 1731.370
471.062, 1708.181
471.544, 1689.090
472.026, 1674.392
472.508, 1664.056
472.991, 1654.726
473.473, 1643.864
473.955, 1633.022
474.437, 1628.188
474.919, 1634.082
475.401, 1636.987
475.883, 1632.098
476.365, 1624.585
476.848, 1618.419
477.330, 1614.694
477.812, 1613.989
478.294, 1617.323
478.776, 1624.340
479.258, 1629.151
479.740, 1625.685
480.222, 1629.604
480.704, 1652.306
481.186, 1679.326
481.669, 1694.574
482.151, 1694.229
482.633, 1690.958
483.115, 1694.856
483.597, 1704.826
484.079, 1719.386
484.561, 1740.874
485.043, 1755.479
485.526, 1747.309
486.008, 1722.741
486.490, 1714.350
486.972, 1736.227
487.454, 1758.583
487.936, 1772.509
488.418, 1778.956
488.900, 1778.176
489.383, 1770.577
489.865, 1759.023
490.347, 1746.468
490.829, 1732.816
491.311, 1719.147
491.793, 1702.886
492.275, 1689.624
492.757, 1686.831
493.239, 1685.629
493.722, 1672.487
494.204, 1641.935
494.686, 1607.060
495.168, 1583.344
495.650, 1569.186
496.132, 1550.831
496.614, 1524.439
497.096, 1498.417
497.578, 1481.961
498.061, 1472.571
498.543, 1458.491
499.025, 1433.304
499.507, 1408.713
499.989, 1390.078
500.471, 1376.358
500.953, 1367.399
501.435, 1362.914
501.918, 1357.850
502.400, 1344.443
502.882, 1319.739
503.364, 1302.973
503.846, 1300.977
504.328, 1300.043
504.810, 1297.929
505.292, 1293.751
505.775, 1286.183
506.257, 1274.396
506.739, 1261.150
507.221, 1248.761
507.703, 1237.455
508.185, 1229.294
508.667, 1225.587
509.149, 1222.864
509.631, 1219.420
510.114, 1214.728
510.596, 1205.650
511.078, 1186.506
511.560, 1168.500
512.042, 1156.516
512.524, 1149.680
513.006, 1148.828
513.488, 1153.701
513.971, 1156.452
514.453, 1144.433
514.935, 1112.840
515.417, 1097.211
515.899, 1113.512
516.381, 1128.766
516.863, 1135.264
517.345, 1134.036
517.827, 1125.261
518.310, 1107.768
518.792, 1091.121
519.274, 1086.475
519.756, 1091.798
520.238, 1098.440
520.720, 1106.052
521.202, 1111.205
521.684, 1111.340
522.166, 1106.182
522.649, 1097.090
523.131, 1078.461
523.613, 1062.360
524.095, 1053.974
524.577, 1050.246
525.059, 1047.948
525.541, 1045.938
526.023, 1043.227
526.505, 1038.387
526.988, 1031.393
527.470, 1025.885
527.952, 1022.626
528.434, 1019.811
528.916, 1016.709
529.398, 1013.744
529.880, 1011.513
530.362, 1010.207
530.844, 1009.005
531.327, 1009.018
531.809, 1008.357
532.291, 1000.881
532.773, 985.743
533.255, 973.137
533.737, 970.998
534.219, 977.028
534.701, 978.893
535.184, 972.326
535.666, 967.618
536.148, 967.397
536.630, 968.555
537.112, 969.416
537.594, 969.101
538.076, 965.669
538.558, 955.677
539.041, 942.318
539.523, 940.349
540.005, 954.147
540.487, 964.227
540.969, 963.689
541.451, 956.763
541.933, 947.084
542.415, 934.542
542.898, 923.383
543.380, 915.370
543.862, 909.365
544.344, 904.351
544.826, 900.287
545.308, 897.558
545.790, 896.541
546.272, 896.120
546.754, 893.379
547.237, 884.609
547.719, 881.329
548.201, 887.530
548.683, 894.864
549.165, 900.611
549.647, 904.124
550.129, 904.506
550.611, 900.458
551.093, 895.166
551.576, 892.568
552.058, 892.535
552.540, 894.758
553.022, 900.450
553.504, 904.572
553.986, 900.376
554.468, 887.703
554.950, 882.312
555.432, 890.361
555.915, 898.862
556.397, 903.937
556.879, 905.980
557.361, 904.935
557.843, 901.163
558.325, 897.130
558.807, 896.182
559.289, 898.159
559.771, 896.689
560.254, 889.431
560.736, 883.354
561.218, 880.481
561.700, 880.851
562.182, 886.089
562.664, 897.621
563.146, 906.734
563.628, 910.022
564.111, 907.948
564.593, 897.678
565.075, 880.954
565.557, 868.558
566.039, 867.305
566.521, 874.282
567.003, 880.836
567.485, 889.001
567.968, 892.888
568.450, 887.971
568.932, 883.149
569.414, 883.665
569.896, 888.670
570.378, 894.669
570.860, 900.037
571.342, 905.335
571.825, 912.101
572.307, 919.812
572.789, 924.644
573.271, 924.902
573.753, 924.210
574.235, 923.644
574.717, 922.869
575.199, 939.398
575.681, 930.089
576.164, 927.635
576.646, 944.371
577.128, 956.447
577.610, 964.119
578.092, 954.180
578.574, 966.979
579.056, 972.768
579.538, 986.187
580.020, 988.910
580.503, 977.889
580.985, 966.330
581.467, 957.194
581.949, 952.532
582.431, 956.130
582.913, 970.097
583.395, 981.572
583.877, 983.987
584.360, 984.776
584.842, 990.803
585.324, 1000.935
585.806, 1010.466
586.288, 1016.985
586.770, 1021.587
587.252, 1026.579
587.734, 1032.571
588.216, 1036.226
588.699, 1034.544
589.181, 1033.907
589.663, 1036.854
590.145, 1043.098
590.627, 1052.529
591.109, 1066.615
591.591, 1080.411
592.073, 1091.270
592.555, 1099.266
593.038, 1104.237
593.520, 1106.294
594.002, 1106.335
594.484, 1104.494
594.966, 1101.640
595.448, 1102.898
595.930, 1109.728
596.412, 1118.540
596.895, 1131.726
597.377, 1144.355
597.859, 1153.134
598.341, 1158.167
598.823, 1160.901
599.305, 1160.555
599.787, 1159.949
600.269, 1160.071
600.752, 1162.362
601.234, 1177.994
601.716, 1212.955
602.198, 1246.296
602.680, 1251.767
603.162, 1226.175
603.644, 1216.181
604.126, 1235.088
604.609, 1252.016
605.091, 1257.040
605.573, 1257.594
606.055, 1260.384
606.537, 1267.330
607.019, 1279.309
607.501, 1301.416
607.983, 1328.335
608.465, 1343.426
608.948, 1346.050
609.430, 1352.383
609.912, 1370.216
610.394, 1392.953
610.876, 1409.323
611.358, 1415.740
611.840, 1429.847
612.322, 1462.416
612.804, 1491.953
613.287, 1504.782
613.769, 1508.692
614.251, 1516.407
614.733, 1532.384
615.215, 1553.243
615.697, 1575.866
616.179, 1600.144
616.661, 1625.711
617.143, 1652.962
617.626, 1679.131
618.108, 1701.301
618.590, 1722.242
619.072, 1747.215
619.554, 1775.253
620.036, 1809.576
620.518, 1855.419
621.000, 1903.598
621.482, 1946.312
621.965, 1985.702
622.447, 2028.202
622.929, 2076.899
623.411, 2128.610
623.893, 2176.904
624.375, 2221.745
624.857, 2277.788
625.339, 2351.075
625.822, 2423.327
626.304, 2479.399
626.786, 2526.997
627.268, 2586.622
627.750, 2660.633
628.232, 2741.655
628.714, 2823.059
629.196, 2914.566
629.679, 3031.816
630.161, 3168.479
630.643, 3301.792
631.125, 3418.314
631.607, 3530.642
632.089, 3662.530
632.571, 3814.717
633.053, 3975.608
633.536, 4140.704
634.018, 4321.361
634.500, 4526.892
634.982, 4754.147
635.464, 4993.283
635.946, 5230.993
636.428, 5499.580
636.910, 5814.500
637.392, 6160.813
637.875, 6523.191
638.357, 6900.932
638.839, 7303.894
639.321, 7736.837
639.803, 8203.451
640.285, 8710.187
640.767, 9260.272
641.249, 9834.047
641.731, 10425.490
642.214, 11055.230
642.696, 11755.300
643.178, 12507.830
643.660, 13259.890
644.142, 13988.580
644.624, 14745.720
645.106, 15560.510
645.588, 16405.410
646.070, 17272.660
646.553, 18147.881
647.035, 18984.070
647.517, 19746.080
647.999, 20451.061
