##NAMES=Segelerite
##RRUFFID=R080127
##IDEAL CHEMISTRY=CaMgFe^3+^(PO_4_)_2_(OH)&#183;4H_2_O
##LOCALITY=Tip Top mine, Custer County, South Dakota, USA
##OWNER=RRUFF
##SOURCE=Thomas A. Loomis
##DESCRIPTION=Light yellow radiating acicular crystals, on a matrix of rockbridgeite and associated with leucophosphite (R080126)
##STATUS=The identification of this mineral has been confirmed by single-crystal X-ray diffraction.
##URL=rruff.info/R080127
92.35352, 30.75736
92.83563, 29.31222
93.31775, 28.69728
93.79987, 29.25101
94.28198, 30.68003
94.76410, 32.16085
95.24622, 33.53532
95.72833, 34.86788
96.21045, 36.09318
96.69257, 37.18380
97.17468, 38.66704
97.65680, 41.27619
98.13892, 44.99374
98.62103, 48.36119
99.10315, 50.64754
99.58527, 52.15224
100.0674, 54.80907
100.5495, 58.68572
101.0316, 63.51976
101.5137, 69.03793
101.9958, 75.40588
102.4780, 81.94149
102.9601, 87.76966
103.4422, 92.21675
103.9243, 100.6773
104.4064, 114.8308
104.8885, 131.9667
105.3707, 147.4482
105.8528, 159.8137
106.3349, 172.3999
106.8170, 186.7722
107.2991, 206.2901
107.7813, 221.0780
108.2634, 227.5087
108.7455, 228.7362
109.2276, 235.0773
109.7097, 254.0101
110.1918, 272.7010
110.6740, 285.8564
111.1561, 285.4029
111.6382, 288.3290
112.1203, 296.5455
112.6024, 309.5676
113.0845, 324.0100
113.5667, 341.4741
114.0488, 358.9433
114.5309, 374.5771
115.0130, 384.1871
115.4951, 395.3250
115.9772, 410.4694
116.4594, 429.7214
116.9415, 450.3458
117.4236, 473.7157
117.9057, 497.1855
118.3878, 517.8364
118.8699, 533.2628
119.3521, 546.8149
119.8342, 560.4135
120.3163, 574.1900
120.7984, 587.8502
121.2805, 600.9092
121.7626, 613.7492
122.2448, 627.0235
122.7269, 644.3116
123.2090, 660.5997
123.6911, 670.0245
124.1732, 670.8552
124.6553, 669.4857
125.1375, 671.0413
125.6196, 675.0894
126.1017, 680.2598
126.5838, 685.8575
127.0659, 692.0298
127.5480, 698.9186
128.0302, 706.3791
128.5123, 714.9965
128.9944, 726.4477
129.4765, 740.4271
129.9586, 754.0787
130.4407, 765.2382
130.9229, 774.3119
131.4050, 782.8743
131.8871, 790.6833
132.3692, 798.4171
132.8513, 807.5093
133.3334, 816.7339
133.8156, 822.9912
134.2977, 826.5524
134.7798, 830.2966
135.2619, 834.6979
135.7440, 839.8176
136.2261, 845.6343
136.7083, 852.7157
137.1904, 861.3229
137.6725, 870.4787
138.1546, 879.3055
138.6367, 887.7837
139.1188, 896.4203
139.6010, 905.8456
140.0831, 916.0458
140.5652, 924.0139
141.0473, 928.8923
141.5294, 932.8896
142.0115, 938.8564
142.4937, 947.4847
142.9758, 956.4760
143.4579, 965.3015
143.9400, 973.8790
144.4221, 982.3755
144.9042, 990.8549
145.3864, 999.1911
145.8685, 1007.015
146.3506, 1014.512
146.8327, 1021.326
147.3148, 1027.559
147.7969, 1033.816
148.2791, 1038.025
148.7612, 1038.988
149.2433, 1038.047
149.7254, 1038.271
150.2075, 1039.076
150.6896, 1041.552
151.1718, 1046.202
151.6539, 1055.302
152.1360, 1063.261
152.6181, 1068.762
153.1002, 1072.873
153.5823, 1078.747
154.0645, 1087.924
154.5466, 1097.990
155.0287, 1107.795
155.5108, 1116.935
155.9929, 1126.307
156.4750, 1135.836
156.9572, 1145.600
157.4393, 1155.759
157.9214, 1167.662
158.4035, 1179.272
158.8856, 1189.356
159.3677, 1197.163
159.8499, 1203.961
160.3320, 1210.781
160.8141, 1217.260
161.2962, 1220.984
161.7783, 1221.068
162.2604, 1218.040
162.7426, 1212.339
163.2247, 1204.524
163.7068, 1193.736
164.1889, 1178.868
164.6710, 1160.225
165.1531, 1140.229
165.6353, 1119.059
166.1174, 1097.510
166.5995, 1076.433
167.0816, 1055.412
167.5637, 1035.464
168.0458, 1017.154
168.5280, 1000.636
169.0101, 985.4193
169.4922, 970.8262
169.9743, 957.5496
170.4564, 946.6707
170.9385, 939.6617
171.4207, 934.6061
171.9028, 929.8450
172.3849, 925.3231
172.8670, 921.6009
173.3491, 918.9357
173.8312, 917.3483
174.3134, 916.8824
174.7955, 918.2152
175.2776, 920.3936
175.7597, 921.8354
176.2418, 922.2604
176.7239, 923.8364
177.2061, 929.5153
177.6882, 938.1585
178.1703, 946.5392
178.6524, 952.0018
179.1345, 956.5713
179.6166, 963.5870
180.0988, 973.4312
180.5809, 985.0080
181.0630, 997.9362
181.5451, 1011.920
182.0272, 1025.218
182.5093, 1036.346
182.9915, 1046.302
183.4736, 1057.589
183.9557, 1070.806
184.4378, 1084.139
184.9199, 1095.719
185.4020, 1105.403
185.8842, 1113.730
186.3663, 1121.372
186.8484, 1127.930
187.3305, 1131.531
187.8126, 1131.884
188.2947, 1129.797
188.7769, 1125.872
189.2590, 1120.194
189.7411, 1114.507
190.2232, 1109.903
190.7053, 1106.213
191.1874, 1102.326
191.6696, 1098.276
192.1517, 1093.698
192.6338, 1087.852
193.1159, 1080.727
193.5980, 1072.773
194.0801, 1063.424
194.5623, 1052.931
195.0444, 1044.509
195.5265, 1038.739
196.0086, 1034.835
196.4907, 1031.186
196.9728, 1027.732
197.4550, 1024.968
197.9371, 1023.145
198.4192, 1022.258
198.9013, 1022.263
199.3834, 1023.057
199.8655, 1024.818
200.3477, 1028.331
200.8298, 1033.893
201.3119, 1039.854
201.7940, 1044.879
202.2761, 1048.730
202.7582, 1054.388
203.2404, 1062.275
203.7225, 1072.016
204.2046, 1082.642
204.6867, 1094.168
205.1688, 1106.605
205.6509, 1119.783
206.1331, 1133.721
206.6152, 1148.777
207.0973, 1165.255
207.5794, 1182.735
208.0615, 1199.813
208.5436, 1216.208
209.0258, 1233.030
209.5079, 1250.978
209.9900, 1270.234
210.4721, 1289.507
210.9542, 1309.077
211.4363, 1328.448
211.9185, 1346.098
212.4006, 1362.206
212.8827, 1376.291
213.3648, 1388.214
213.8469, 1398.871
214.3290, 1404.709
214.8112, 1405.396
215.2933, 1401.074
215.7754, 1391.710
216.2575, 1375.825
216.7396, 1357.601
217.2217, 1339.175
217.7038, 1320.036
218.1860, 1302.339
218.6681, 1286.213
219.1502, 1271.730
219.6323, 1259.415
220.1144, 1249.497
220.5965, 1241.555
221.0787, 1235.411
221.5608, 1230.937
222.0429, 1228.684
222.5250, 1228.937
223.0071, 1231.439
223.4892, 1235.276
223.9714, 1240.761
224.4535, 1247.162
224.9356, 1254.142
225.4177, 1261.499
225.8998, 1269.878
226.3819, 1279.371
226.8641, 1289.933
227.3462, 1301.078
227.8283, 1312.653
228.3104, 1324.995
228.7925, 1338.413
229.2746, 1354.445
229.7568, 1368.372
230.2389, 1379.606
230.7210, 1388.806
231.2031, 1397.635
231.6852, 1405.811
232.1673, 1413.999
232.6495, 1422.186
233.1316, 1429.177
233.6137, 1438.930
234.0958, 1452.242
234.5779, 1468.115
235.0600, 1483.550
235.5422, 1498.311
236.0243, 1513.244
236.5064, 1528.781
236.9885, 1545.114
237.4706, 1561.715
237.9527, 1578.990
238.4349, 1596.224
238.9170, 1611.619
239.3991, 1625.860
239.8812, 1637.240
240.3633, 1644.901
240.8454, 1648.014
241.3276, 1649.404
241.8097, 1648.849
242.2918, 1646.634
242.7739, 1643.376
243.2560, 1639.244
243.7381, 1633.797
244.2203, 1626.332
244.7024, 1615.031
245.1845, 1606.841
245.6666, 1602.033
246.1487, 1600.226
246.6308, 1600.736
247.1130, 1604.101
247.5951, 1608.937
248.0772, 1614.938
248.5593, 1622.542
249.0414, 1630.012
249.5235, 1638.435
250.0057, 1646.006
250.4878, 1649.997
250.9699, 1650.372
251.4520, 1647.183
251.9341, 1640.506
252.4162, 1630.351
252.8984, 1616.500
253.3805, 1598.570
253.8626, 1577.048
254.3447, 1552.981
254.8268, 1525.083
255.3089, 1496.533
255.7911, 1468.207
256.2732, 1439.840
256.7553, 1412.783
257.2374, 1387.001
257.7195, 1362.475
258.2017, 1338.794
258.6838, 1314.630
259.1659, 1293.931
259.6480, 1277.924
260.1301, 1266.883
260.6122, 1256.576
261.0944, 1246.422
261.5765, 1237.696
262.0586, 1231.776
262.5407, 1229.077
263.0228, 1228.109
263.5049, 1228.826
263.9871, 1231.191
264.4692, 1233.846
264.9513, 1236.297
265.4334, 1239.866
265.9155, 1246.063
266.3976, 1255.343
266.8798, 1265.417
267.3619, 1276.154
267.8440, 1287.449
268.3261, 1297.406
268.8082, 1305.354
269.2903, 1313.329
269.7725, 1323.490
270.2546, 1336.652
270.7367, 1347.535
271.2188, 1354.802
271.7009, 1359.233
272.1830, 1364.519
272.6652, 1371.223
273.1473, 1377.114
273.6294, 1380.219
274.1115, 1379.908
274.5936, 1380.596
275.0757, 1382.743
275.5579, 1386.137
276.0400, 1390.564
276.5221, 1396.456
277.0042, 1401.587
277.4863, 1404.213
277.9684, 1404.097
278.4506, 1404.614
278.9327, 1405.944
279.4148, 1408.078
279.8969, 1411.719
280.3790, 1417.304
280.8611, 1421.398
281.3433, 1421.521
281.8254, 1417.713
282.3075, 1415.218
282.7896, 1414.774
283.2717, 1414.399
283.7538, 1410.553
284.2360, 1403.123
284.7181, 1395.275
285.2002, 1387.985
285.6823, 1381.317
286.1644, 1376.136
286.6465, 1372.782
287.1287, 1369.833
287.6108, 1364.786
288.0929, 1357.824
288.5750, 1352.556
289.0571, 1350.881
289.5392, 1351.970
290.0214, 1352.383
290.5035, 1351.965
290.9856, 1352.107
291.4677, 1354.428
291.9498, 1358.724
292.4319, 1363.580
292.9141, 1368.587
293.3962, 1373.917
293.8783, 1380.181
294.3604, 1387.374
294.8425, 1394.704
295.3246, 1401.886
295.8068, 1408.807
296.2889, 1414.937
296.7710, 1420.271
297.2531, 1424.744
297.7352, 1428.645
298.2173, 1431.822
298.6995, 1433.016
299.1816, 1430.511
299.6637, 1425.385
300.1458, 1420.159
300.6279, 1415.656
301.1100, 1410.215
301.5922, 1401.059
302.0743, 1388.906
302.5564, 1376.763
303.0385, 1366.179
303.5206, 1356.683
304.0027, 1347.323
304.4849, 1337.965
304.9670, 1329.117
305.4491, 1321.247
305.9312, 1314.357
306.4133, 1308.452
306.8954, 1303.504
307.3776, 1299.575
307.8597, 1297.066
308.3418, 1296.078
308.8239, 1295.505
309.3060, 1295.041
309.7881, 1294.393
310.2703, 1293.110
310.7524, 1291.531
311.2345, 1288.891
311.7166, 1284.790
312.1987, 1279.209
312.6808, 1271.985
313.1630, 1262.866
313.6451, 1252.028
314.1272, 1239.578
314.6093, 1226.022
315.0914, 1210.559
315.5735, 1192.354
316.0557, 1171.748
316.5378, 1150.591
317.0199, 1128.480
317.5020, 1106.896
317.9841, 1086.635
318.4662, 1068.730
318.9484, 1051.554
319.4305, 1034.790
319.9126, 1018.396
320.3947, 1002.264
320.8768, 985.8391
321.3589, 970.0671
321.8411, 955.1956
322.3232, 940.9928
322.8053, 928.7435
323.2874, 919.6479
323.7695, 912.4876
324.2516, 905.3336
324.7338, 897.8350
325.2159, 890.3441
325.6980, 882.5682
326.1801, 873.9655
326.6622, 867.4007
327.1443, 863.7803
327.6265, 861.9222
328.1086, 860.6597
328.5907, 861.6234
329.0728, 861.3271
329.5549, 858.5827
330.0370, 853.3445
330.5192, 849.5712
331.0013, 848.1052
331.4834, 847.3647
331.9655, 846.2621
332.4476, 844.5824
332.9297, 842.8422
333.4119, 840.6323
333.8940, 838.3400
334.3761, 837.9204
334.8582, 840.3754
335.3403, 843.0999
335.8224, 844.6022
336.3046, 844.0975
336.7867, 844.9037
337.2688, 847.9698
337.7509, 851.7013
338.2330, 852.6501
338.7151, 850.0319
339.1973, 847.0602
339.6794, 844.8190
340.1615, 843.3392
340.6436, 842.6176
341.1257, 842.9807
341.6078, 843.4481
342.0899, 842.6170
342.5721, 840.4196
343.0542, 838.2454
343.5363, 836.5765
344.0184, 835.2849
344.5005, 833.8676
344.9826, 832.3867
345.4648, 830.4484
345.9469, 827.5328
346.4290, 823.7108
346.9111, 819.8610
347.3932, 816.0156
347.8753, 812.3323
348.3575, 809.3116
348.8396, 806.9067
349.3217, 804.5695
349.8038, 801.9241
350.2859, 799.0762
350.7680, 796.1846
351.2502, 793.1554
351.7323, 790.4835
352.2144, 789.2804
352.6965, 789.0104
353.1786, 788.0889
353.6607, 785.2728
354.1429, 781.5900
354.6250, 778.2296
355.1071, 775.2570
355.5892, 772.5403
356.0713, 769.8658
356.5534, 767.4216
357.0356, 765.4887
357.5177, 764.7807
357.9998, 764.1101
358.4819, 762.2377
358.9640, 759.4520
359.4461, 757.4175
359.9283, 757.6572
360.4104, 758.6642
360.8925, 759.1823
361.3746, 758.7665
361.8567, 758.0897
362.3388, 757.1417
362.8210, 756.1198
363.3031, 755.4560
363.7852, 755.3234
364.2673, 755.5414
364.7494, 756.2469
365.2315, 757.8097
365.7137, 758.5347
366.1958, 756.8046
366.6779, 754.5067
367.1600, 753.8451
367.6421, 756.6289
368.1242, 759.4544
368.6064, 762.2000
369.0885, 764.9315
369.5706, 765.4642
370.0527, 761.9594
370.5348, 757.6969
371.0169, 754.8085
371.4991, 754.4496
371.9812, 753.5150
372.4633, 751.2327
372.9454, 748.2526
373.4275, 747.0570
373.9096, 748.6642
374.3918, 750.2731
374.8739, 750.4745
375.3560, 748.8622
375.8381, 747.7155
376.3202, 747.1528
376.8023, 746.9107
377.2845, 746.6161
377.7666, 746.2601
378.2487, 745.8905
378.7308, 745.5684
379.2129, 745.2514
379.6950, 744.5880
380.1772, 743.4730
380.6593, 742.4996
381.1414, 742.2623
381.6235, 742.7045
382.1056, 743.3611
382.5877, 744.2998
383.0699, 745.1780
383.5520, 745.0986
384.0341, 744.1667
384.5162, 743.4467
384.9983, 743.7110
385.4804, 744.6593
385.9626, 745.8797
386.4447, 747.4849
386.9268, 748.5259
387.4089, 747.2284
387.8910, 744.5939
388.3731, 742.9086
388.8553, 743.6508
389.3374, 745.5081
389.8195, 747.5215
390.3016, 749.6166
390.7837, 751.4252
391.2658, 752.7504
391.7480, 753.6337
392.2301, 754.0854
392.7122, 753.7997
393.1943, 753.5280
393.6764, 753.6385
394.1585, 754.0576
394.6407, 754.5562
395.1228, 754.7121
395.6049, 755.2126
396.0870, 756.5194
396.5691, 758.9608
397.0512, 761.3016
397.5334, 763.1879
398.0155, 764.8942
398.4976, 766.7377
398.9797, 768.6953
399.4618, 770.8536
399.9439, 773.3621
400.4261, 776.2079
400.9082, 778.6832
401.3903, 780.4630
401.8724, 782.1576
402.3545, 784.1419
402.8366, 786.4012
403.3188, 788.9250
403.8009, 791.7417
404.2830, 794.8082
404.7651, 798.0667
405.2472, 801.5590
405.7293, 805.0325
406.2115, 808.1891
406.6936, 810.9674
407.1757, 815.0467
407.6578, 820.8944
408.1399, 826.8197
408.6220, 830.3806
409.1042, 831.6545
409.5863, 834.1874
410.0684, 839.3533
410.5505, 846.0233
411.0326, 851.6735
411.5147, 856.3636
411.9969, 861.1652
412.4790, 867.1915
412.9611, 873.9520
413.4432, 879.9633
413.9253, 884.8540
414.4074, 889.9393
414.8896, 897.1455
415.3717, 905.6898
415.8538, 913.6862
416.3359, 919.7142
416.8180, 925.0648
417.3001, 930.5690
417.7823, 936.3359
418.2644, 942.5643
418.7465, 949.5941
419.2286, 957.1744
419.7107, 965.0016
420.1928, 973.3929
420.6750, 981.5969
421.1571, 989.2876
421.6392, 996.6043
422.1213, 1003.717
422.6034, 1010.348
423.0855, 1017.039
423.5677, 1024.002
424.0498, 1031.119
424.5319, 1038.862
425.0140, 1048.232
425.4961, 1057.884
425.9782, 1066.451
426.4604, 1072.937
426.9425, 1079.834
427.4246, 1087.472
427.9067, 1095.865
428.3888, 1104.781
428.8709, 1114.912
429.3531, 1124.324
429.8352, 1131.650
430.3173, 1136.114
430.7994, 1142.083
431.2815, 1150.112
431.7636, 1158.913
432.2458, 1166.048
432.7279, 1171.383
433.2100, 1177.071
433.6921, 1184.048
434.1742, 1191.941
434.6563, 1199.142
435.1385, 1205.713
435.6206, 1212.298
436.1027, 1219.083
436.5848, 1226.321
437.0669, 1234.992
437.5490, 1245.834
438.0312, 1256.849
438.5133, 1265.290
438.9954, 1272.097
439.4775, 1279.856
439.9596, 1290.620
440.4417, 1302.502
440.9239, 1313.601
441.4060, 1323.818
441.8881, 1334.878
442.3702, 1348.333
442.8523, 1362.716
443.3344, 1376.732
443.8166, 1390.088
444.2987, 1402.935
444.7808, 1414.438
445.2629, 1425.330
445.7450, 1437.891
446.2271, 1455.135
446.7093, 1471.564
447.1914, 1484.521
447.6735, 1492.284
448.1556, 1502.064
448.6377, 1514.905
449.1198, 1528.949
449.6020, 1542.337
450.0841, 1554.150
450.5662, 1566.766
451.0483, 1581.091
451.5304, 1596.520
452.0125, 1609.835
452.4947, 1620.732
452.9768, 1630.803
453.4589, 1641.081
453.9410, 1651.660
454.4231, 1661.488
454.9052, 1670.788
455.3874, 1678.939
455.8695, 1685.232
456.3516, 1689.751
456.8337, 1692.961
457.3158, 1694.777
457.7979, 1695.621
458.2801, 1696.756
458.7622, 1697.946
459.2443, 1697.456
459.7264, 1693.223
460.2085, 1686.968
460.6906, 1681.202
461.1728, 1676.626
461.6549, 1671.117
462.1370, 1662.446
462.6191, 1652.125
463.1012, 1642.547
463.5833, 1635.636
464.0655, 1628.668
464.5476, 1620.583
465.0297, 1611.439
465.5118, 1601.624
465.9939, 1590.258
466.4760, 1579.122
466.9582, 1569.376
467.4403, 1562.458
467.9224, 1554.255
468.4045, 1543.770
468.8866, 1532.389
469.3687, 1522.037
469.8509, 1514.047
470.3330, 1504.948
470.8151, 1493.527
471.2972, 1480.114
471.7793, 1468.259
472.2614, 1458.319
472.7436, 1448.688
473.2257, 1438.491
473.7078, 1427.691
474.1899, 1415.525
474.6720, 1401.544
475.1541, 1387.049
475.6363, 1374.342
476.1184, 1363.070
476.6005, 1350.992
477.0826, 1336.907
477.5647, 1321.674
478.0468, 1306.411
478.5290, 1291.090
479.0111, 1275.444
479.4932, 1259.073
479.9753, 1242.366
480.4574, 1225.793
480.9395, 1209.476
481.4217, 1193.034
481.9038, 1176.639
482.3859, 1160.144
482.8680, 1143.530
483.3501, 1126.407
483.8322, 1109.520
484.3144, 1092.984
484.7965, 1076.945
485.2786, 1061.353
485.7607, 1046.009
486.2428, 1031.456
486.7249, 1018.017
487.2071, 1006.647
487.6892, 994.6248
488.1713, 981.5059
488.6534, 968.0800
489.1355, 955.2218
489.6176, 942.8273
490.0998, 931.2113
490.5819, 920.4378
491.0640, 910.3354
491.5461, 900.1821
492.0282, 889.8624
492.5103, 880.0240
492.9925, 871.1990
493.4746, 863.2338
493.9567, 856.1712
494.4388, 850.0194
494.9209, 844.1132
495.4030, 837.3400
495.8852, 830.1393
496.3673, 823.4575
496.8494, 817.9720
497.3315, 812.8927
497.8136, 807.5472
498.2957, 801.9344
498.7779, 796.3094
499.2600, 790.5530
499.7421, 784.9243
500.2242, 779.5236
500.7063, 774.2272
501.1884, 769.5610
501.6706, 766.2872
502.1527, 763.4966
502.6348, 760.3290
503.1169, 755.8050
503.5990, 751.9880
504.0811, 749.6253
504.5633, 748.2201
505.0454, 745.7565
505.5275, 741.6215
506.0096, 737.5660
506.4917, 734.4374
506.9738, 732.3322
507.4560, 729.4984
507.9381, 725.7182
508.4202, 721.7845
508.9023, 718.3568
509.3844, 715.4432
509.8665, 713.3304
510.3487, 712.3123
510.8308, 711.6783
511.3129, 710.0808
511.7950, 707.7423
512.2772, 705.6896
512.7593, 704.4041
513.2414, 703.7406
513.7235, 703.8427
514.2056, 704.6461
514.6877, 705.0145
515.1699, 703.8674
515.6520, 702.1285
516.1341, 700.6566
516.6162, 699.7755
517.0983, 698.8809
517.5804, 697.5573
518.0626, 696.1182
518.5447, 695.0816
519.0268, 695.2620
519.5089, 695.0446
519.9910, 693.7540
520.4731, 691.5012
520.9553, 690.1613
521.4374, 690.0349
521.9195, 690.3972
522.4016, 691.0153
522.8837, 692.0564
523.3658, 692.4780
523.8480, 692.2357
524.3301, 691.4731
524.8122, 690.0782
525.2943, 688.1321
525.7764, 686.8033
526.2585, 686.5442
526.7407, 686.9370
527.2228, 687.2106
527.7049, 687.4240
528.1870, 687.8943
528.6691, 688.9474
529.1512, 690.2957
529.6334, 691.9191
530.1155, 693.8574
530.5976, 694.8541
531.0797, 692.9058
531.5618, 690.2328
532.0439, 689.1191
532.5261, 691.5383
533.0082, 693.4960
533.4903, 693.5530
533.9724, 692.4999
534.4545, 692.0378
534.9366, 692.8414
535.4188, 693.6554
535.9009, 694.2173
536.3830, 694.5374
536.8651, 694.7959
537.3472, 694.9537
537.8293, 695.1558
538.3115, 695.2507
538.7936, 695.1437
539.2757, 696.6271
539.7578, 700.2171
540.2399, 704.1749
540.7220, 705.8310
541.2042, 705.5955
541.6863, 705.9560
542.1684, 707.8106
542.6505, 710.4855
543.1326, 713.3514
543.6147, 716.2792
544.0969, 718.8616
544.5790, 719.8550
545.0611, 720.9986
545.5432, 723.9287
546.0253, 728.8304
546.5074, 733.9562
546.9896, 738.9435
547.4717, 743.5934
547.9538, 747.7359
548.4359, 750.9150
548.9180, 754.1779
549.4001, 757.5995
549.8823, 761.1868
550.3644, 764.9501
550.8465, 768.9876
551.3286, 773.1282
551.8107, 777.4669
552.2928, 781.9309
552.7750, 785.7990
553.2571, 789.0519
553.7392, 791.9263
554.2213, 794.5367
554.7034, 796.8723
555.1855, 799.0361
555.6677, 801.0413
556.1498, 802.7828
556.6319, 803.9843
557.1140, 804.8392
557.5961, 805.7899
558.0782, 807.2092
558.5604, 808.3370
559.0425, 808.1923
559.5246, 807.2808
560.0067, 806.7309
560.4888, 807.4672
560.9709, 808.2506
561.4531, 808.4379
561.9352, 808.0101
562.4173, 807.7568
562.8994, 808.8401
563.3815, 809.2541
563.8636, 807.8477
564.3458, 803.7531
564.8279, 800.2025
565.3100, 797.2403
565.7921, 794.7274
566.2742, 792.7217
566.7563, 791.3239
567.2385, 789.4075
567.7206, 786.7589
568.2027, 783.4405
568.6848, 779.3705
569.1669, 774.6376
569.6490, 770.3231
570.1312, 767.2740
570.6133, 764.8085
571.0954, 762.1387
571.5775, 759.1948
572.0596, 755.8330
572.5417, 751.6559
573.0239, 747.1466
573.5060, 742.6842
573.9881, 738.0679
574.4702, 734.1303
574.9523, 731.2235
575.4344, 729.0514
575.9166, 727.2856
576.3987, 726.6046
576.8808, 725.3083
577.3629, 722.8705
577.8450, 719.7152
578.3271, 717.2024
578.8093, 715.4249
579.2914, 714.0006
579.7735, 712.7402
580.2556, 711.6902
580.7377, 711.3456
581.2198, 711.7721
581.7020, 712.0921
582.1841, 711.3434
582.6662, 709.9510
583.1483, 709.0020
583.6304, 708.7321
584.1125, 708.4597
584.5947, 707.2898
585.0768, 705.8212
585.5589, 704.9447
586.0410, 705.7695
586.5231, 706.3718
587.0052, 705.6314
587.4873, 704.0543
587.9694, 702.9925
