##NAMES=Segelerite
##RRUFFID=R080127
##IDEAL CHEMISTRY=CaMgFe^3+^(PO_4_)_2_(OH)&#183;4H_2_O
##LOCALITY=Tip Top mine, Custer County, South Dakota, USA
##OWNER=RRUFF
##SOURCE=Thomas A. Loomis
##DESCRIPTION=Light yellow radiating acicular crystals, on a matrix of rockbridgeite and associated with leucophosphite (R080126)
##STATUS=The identification of this mineral has been confirmed by single-crystal X-ray diffraction.
##URL=rruff.info/R080127
93.00555, 387.8499
93.48767, 387.8061
93.96979, 388.6362
94.45190, 391.1188
94.93402, 395.3637
95.41614, 394.6871
95.89825, 389.4533
96.38037, 382.3096
96.86249, 374.0080
97.34460, 367.1942
97.82672, 363.5346
98.30884, 359.7314
98.79095, 355.3365
99.27307, 349.9877
99.75519, 343.6606
100.2373, 337.3109
100.7194, 331.3024
101.2015, 326.0000
101.6837, 320.8988
102.1658, 316.5560
102.6479, 313.5430
103.1300, 311.8876
103.6121, 310.7331
104.0942, 309.7049
104.5764, 308.6808
105.0585, 307.4830
105.5406, 305.9577
106.0227, 304.1764
106.5048, 302.4215
106.9869, 300.8402
107.4691, 298.8464
107.9512, 296.1255
108.4333, 292.8065
108.9154, 289.2309
109.3975, 285.4780
109.8796, 281.3807
110.3618, 278.1269
110.8439, 276.2959
111.3260, 274.7757
111.8081, 273.0583
112.2902, 271.1136
112.7723, 269.2571
113.2544, 267.9305
113.7366, 267.2621
114.2187, 267.0167
114.7008, 267.6617
115.1829, 268.4579
115.6650, 268.6243
116.1471, 267.8748
116.6293, 266.6916
117.1114, 266.2459
117.5935, 266.8606
118.0756, 267.4621
118.5577, 267.9055
119.0398, 268.1596
119.5220, 268.0887
120.0041, 267.4518
120.4862, 266.6073
120.9683, 266.3018
121.4504, 266.6321
121.9325, 267.3030
122.4147, 268.2630
122.8968, 269.5561
123.3789, 270.5832
123.8610, 271.0378
124.3431, 271.0455
124.8252, 270.6654
125.3074, 269.9456
125.7895, 268.8085
126.2716, 266.9379
126.7537, 263.6732
127.2358, 260.8902
127.7179, 259.3317
128.2001, 258.4806
128.6822, 257.6223
129.1643, 256.2874
129.6464, 254.5378
130.1285, 253.2383
130.6107, 253.0119
131.0928, 252.6651
131.5749, 251.8382
132.0570, 250.6506
132.5391, 249.4407
133.0212, 248.5409
133.5033, 248.0469
133.9855, 247.1414
134.4676, 245.3764
134.9497, 243.6484
135.4318, 242.4252
135.9139, 241.7627
136.3960, 241.4614
136.8782, 241.3187
137.3603, 241.3401
137.8424, 241.6314
138.3245, 242.4577
138.8066, 243.4576
139.2887, 244.3146
139.7709, 245.0280
140.2530, 245.3131
140.7351, 244.4404
141.2172, 242.5296
141.6993, 240.9787
142.1814, 240.5524
142.6636, 241.0134
143.1457, 241.5077
143.6278, 241.9228
144.1099, 242.2421
144.5920, 242.3843
145.0741, 242.3597
145.5563, 242.4505
146.0384, 243.0178
146.5205, 244.1446
147.0026, 245.0313
147.4847, 245.4016
147.9668, 245.5733
148.4490, 245.6226
148.9311, 245.5874
149.4132, 245.5890
149.8953, 245.7958
150.3774, 246.1987
150.8595, 246.8742
151.3417, 247.9389
151.8238, 249.1505
152.3059, 250.2625
152.7880, 251.1847
153.2701, 252.0936
153.7522, 253.4246
154.2344, 255.6532
154.7165, 257.7970
155.1986, 259.8460
155.6807, 261.7897
156.1628, 263.6082
156.6449, 265.2794
157.1271, 266.8355
157.6092, 268.3982
158.0913, 269.7900
158.5734, 271.3853
159.0555, 273.5782
159.5376, 276.1008
160.0198, 278.2089
160.5019, 279.3824
160.9840, 279.8702
161.4661, 280.7069
161.9482, 282.2480
162.4303, 283.7548
162.9125, 284.9106
163.3946, 285.7077
163.8767, 285.8221
164.3588, 284.6522
164.8409, 282.7470
165.3230, 281.0608
165.8052, 279.9800
166.2873, 278.9737
166.7694, 277.2852
167.2515, 274.7109
167.7336, 272.1234
168.2157, 269.9731
168.6979, 268.0433
169.1800, 266.0591
169.6621, 263.8412
170.1442, 261.5415
170.6263, 259.6224
171.1084, 258.4253
171.5906, 257.0739
172.0727, 254.9697
172.5548, 252.6114
173.0369, 250.7012
173.5190, 249.7051
174.0011, 249.5253
174.4833, 249.3423
174.9654, 249.1648
175.4475, 248.9705
175.9296, 248.5024
176.4117, 248.0180
176.8938, 248.0222
177.3760, 248.9758
177.8581, 250.9212
178.3402, 252.1396
178.8223, 251.9333
179.3044, 251.7707
179.7865, 252.0625
180.2687, 252.8320
180.7508, 254.0166
181.2329, 255.6351
181.7150, 257.7592
182.1971, 259.3643
182.6792, 260.1536
183.1614, 260.7563
183.6435, 261.5170
184.1256, 262.4521
184.6077, 263.4069
185.0898, 264.2901
185.5719, 265.0771
186.0541, 265.5829
186.5362, 265.5402
187.0183, 265.3617
187.5004, 265.5547
187.9825, 266.2029
188.4646, 266.6743
188.9468, 266.2532
189.4289, 265.1214
189.9110, 263.9413
190.3931, 262.7684
190.8752, 261.6605
191.3573, 260.7234
191.8395, 260.0086
192.3216, 259.3451
192.8037, 258.6380
193.2858, 257.8893
193.7679, 257.0828
194.2500, 256.1743
194.7322, 255.2017
195.2143, 254.2384
195.6964, 253.1638
196.1785, 252.3256
196.6606, 251.9542
197.1427, 251.9183
197.6249, 251.9389
198.1070, 251.8490
198.5891, 251.6578
199.0712, 251.4535
199.5533, 251.1454
200.0354, 250.9310
200.5176, 250.9239
200.9997, 251.0682
201.4818, 251.2197
201.9639, 251.1933
202.4460, 250.9704
202.9281, 251.2440
203.4103, 252.5188
203.8924, 253.8647
204.3745, 254.9090
204.8566, 255.7784
205.3387, 256.8336
205.8208, 258.4209
206.3030, 260.6201
206.7851, 262.6841
207.2672, 264.6013
207.7493, 266.4191
208.2314, 267.9682
208.7135, 269.3749
209.1957, 270.9838
209.6778, 273.1209
210.1599, 275.8491
210.6420, 278.6453
211.1241, 281.5167
211.6062, 284.4206
212.0884, 287.4342
212.5705, 290.4918
213.0526, 293.4370
213.5347, 296.2315
214.0168, 298.8795
214.4989, 300.4931
214.9811, 300.5426
215.4632, 300.0791
215.9453, 299.8714
216.4274, 299.9275
216.9095, 299.6090
217.3916, 298.2358
217.8737, 295.7679
218.3559, 293.6985
218.8380, 292.3279
219.3201, 291.1716
219.8022, 289.7658
220.2843, 288.0772
220.7664, 286.4691
221.2486, 285.3102
221.7307, 284.4931
222.2128, 283.5875
222.6949, 282.2183
223.1770, 280.8937
223.6591, 280.2759
224.1413, 280.4554
224.6234, 280.8106
225.1055, 280.8021
225.5876, 280.6607
226.0697, 280.8451
226.5518, 281.6618
227.0340, 282.7695
227.5161, 283.6177
227.9982, 284.0980
228.4803, 284.6960
228.9624, 285.7968
229.4445, 287.1554
229.9267, 288.4942
230.4088, 289.7194
230.8909, 290.8524
231.3730, 291.9478
231.8551, 293.0677
232.3372, 293.9766
232.8194, 294.4945
233.3015, 294.8040
233.7836, 295.1295
234.2657, 295.6010
234.7478, 296.0826
235.2299, 296.1761
235.7121, 295.4953
236.1942, 295.2314
236.6763, 296.1974
237.1584, 297.5109
237.6405, 298.1415
238.1227, 297.5697
238.6048, 296.3708
239.0869, 296.0993
239.5690, 297.5871
240.0511, 298.5416
240.5332, 298.3848
241.0154, 297.6397
241.4975, 296.7600
241.9796, 295.9375
242.4617, 295.1678
242.9438, 294.4779
243.4259, 294.0879
243.9081, 293.4000
244.3902, 292.1656
244.8723, 290.7296
245.3544, 289.3591
245.8365, 288.1598
246.3186, 287.1675
246.8008, 286.4513
247.2829, 286.0634
247.7650, 285.9343
248.2471, 286.4436
248.7292, 286.9959
249.2113, 286.8557
249.6935, 285.8167
250.1756, 284.5146
250.6577, 284.2450
251.1398, 286.5694
251.6219, 287.6363
252.1040, 286.9232
252.5862, 285.2936
253.0683, 283.4088
253.5504, 281.4926
254.0325, 279.4793
254.5146, 277.2633
254.9967, 274.8063
255.4789, 272.1874
255.9610, 269.0795
256.4431, 266.0141
256.9252, 263.5110
257.4073, 261.6723
257.8894, 260.1251
258.3716, 258.3485
258.8537, 256.1445
259.3358, 254.2837
259.8179, 252.8533
260.3000, 251.7057
260.7821, 250.7378
261.2643, 249.9242
261.7464, 249.2468
262.2285, 248.6629
262.7106, 248.1608
263.1927, 247.9489
263.6748, 248.0548
264.1570, 248.4360
264.6391, 249.1499
265.1212, 250.1790
265.6033, 251.2797
266.0854, 252.2671
266.5675, 253.1168
267.0497, 253.7225
267.5318, 253.6971
268.0139, 253.6891
268.4960, 254.2100
268.9781, 255.2825
269.4602, 256.6964
269.9424, 258.5478
270.4245, 260.6467
270.9066, 261.9160
271.3887, 261.8048
271.8708, 261.2569
272.3529, 260.7815
272.8351, 260.4161
273.3172, 260.4628
273.7993, 261.3421
274.2814, 262.7298
274.7635, 263.5585
275.2456, 263.5243
275.7278, 263.2433
276.2099, 263.1251
276.6920, 263.1460
277.1741, 263.1285
277.6562, 263.0672
278.1383, 262.8417
278.6205, 262.2608
279.1026, 261.1588
279.5847, 260.0462
280.0668, 259.4535
280.5489, 259.2391
281.0310, 258.4993
281.5132, 256.5714
281.9953, 254.3199
282.4774, 253.0635
282.9595, 252.9705
283.4416, 252.8536
283.9237, 252.0026
284.4059, 250.5361
284.8880, 248.9057
285.3701, 247.1324
285.8522, 245.3496
286.3343, 243.6602
286.8164, 242.0623
287.2986, 240.5968
287.7807, 239.2727
288.2628, 238.0944
288.7449, 237.1834
289.2270, 236.8133
289.7091, 236.2226
290.1913, 234.3571
290.6734, 231.6329
291.1555, 229.5644
291.6376, 229.4060
292.1197, 230.3609
292.6018, 230.4918
293.0840, 229.4869
293.5661, 228.1855
294.0482, 226.7892
294.5303, 225.5180
295.0124, 224.8618
295.4945, 225.3986
295.9767, 226.4649
296.4588, 226.8283
296.9409, 226.3181
297.4230, 225.6879
297.9051, 225.3821
298.3872, 225.1642
298.8694, 224.7361
299.3515, 223.9645
299.8336, 223.0358
300.3157, 222.2217
300.7978, 221.5585
301.2799, 220.7563
301.7621, 219.5454
302.2442, 218.2168
302.7263, 217.0503
303.2084, 216.1219
303.6905, 215.1868
304.1726, 213.9663
304.6548, 212.4519
305.1369, 210.9153
305.6190, 209.4348
306.1011, 207.9296
306.5832, 206.2112
307.0653, 204.2917
307.5475, 202.6489
308.0296, 201.8665
308.5117, 201.8571
308.9938, 201.5022
309.4759, 200.3733
309.9580, 199.2124
310.4402, 198.6418
310.9223, 198.5095
311.4044, 198.2148
311.8865, 197.2756
312.3686, 195.8395
312.8507, 194.5009
313.3329, 193.1774
313.8150, 192.1315
314.2971, 191.7663
314.7792, 191.7122
315.2613, 191.2715
315.7434, 190.0320
316.2256, 188.2684
316.7077, 186.5064
317.1898, 184.6534
317.6719, 183.0247
318.1540, 181.7948
318.6361, 180.8360
319.1183, 180.0879
319.6004, 179.5905
320.0825, 179.1239
320.5646, 178.4428
321.0467, 177.5632
321.5288, 176.3521
322.0110, 174.0719
322.4931, 171.8782
322.9752, 170.9378
323.4573, 171.4639
323.9394, 172.0843
324.4215, 171.4371
324.9037, 169.5534
325.3858, 167.6974
325.8679, 165.8430
326.3500, 164.3634
326.8321, 163.6909
327.3142, 163.6978
327.7964, 163.6229
328.2785, 162.8322
328.7606, 161.4940
329.2427, 160.4363
329.7248, 159.8141
330.2069, 159.2910
330.6891, 158.4999
331.1712, 157.6429
331.6533, 157.1914
332.1354, 157.6888
332.6175, 158.5574
333.0996, 158.5486
333.5818, 157.4360
334.0639, 156.1723
334.5460, 155.1450
335.0281, 154.2669
335.5102, 153.4578
335.9923, 152.6806
336.4745, 151.9926
336.9566, 151.4646
337.4387, 151.1036
337.9208, 150.8112
338.4029, 150.5072
338.8850, 150.3074
339.3671, 150.4094
339.8492, 150.8576
340.3314, 151.1968
340.8135, 150.9800
341.2956, 150.3039
341.7777, 149.7993
342.2598, 149.6558
342.7419, 149.5990
343.2241, 149.3821
343.7062, 149.0331
344.1883, 148.6924
344.6704, 148.4836
345.1525, 148.3203
345.6346, 148.0112
346.1168, 147.5305
346.5989, 146.9575
347.0810, 146.1214
347.5631, 145.2497
348.0452, 144.8222
348.5273, 145.3837
349.0095, 146.0607
349.4916, 145.6399
349.9737, 144.0919
350.4558, 142.8741
350.9379, 142.7685
351.4200, 143.3652
351.9022, 144.0578
352.3843, 145.0226
352.8664, 145.5117
353.3485, 144.5850
353.8306, 142.6518
354.3127, 141.3984
354.7949, 141.4747
355.2770, 142.0785
355.7591, 142.2305
356.2412, 141.9518
356.7233, 141.5575
357.2054, 141.0654
357.6876, 140.5568
358.1697, 140.1645
358.6518, 139.9106
359.1339, 139.7379
359.6160, 139.6542
360.0981, 139.6268
360.5803, 139.4846
361.0624, 139.1251
361.5445, 138.7056
362.0266, 138.3215
362.5087, 137.9807
362.9908, 137.7283
363.4730, 137.6071
363.9551, 137.5862
364.4372, 137.5561
364.9193, 137.4997
365.4014, 137.4622
365.8835, 137.5215
366.3657, 137.6069
366.8478, 137.5286
367.3299, 137.1892
367.8120, 136.8109
368.2941, 136.7854
368.7762, 137.2096
369.2584, 137.5274
369.7405, 137.6235
370.2226, 137.6027
370.7047, 137.4913
371.1868, 137.3148
371.6689, 137.2691
372.1511, 137.5819
372.6332, 138.2740
373.1153, 138.6743
373.5974, 138.6819
374.0795, 138.5359
374.5616, 138.3266
375.0438, 138.0569
375.5259, 137.6418
376.0080, 136.9858
376.4901, 136.2717
376.9722, 136.1743
377.4543, 137.3227
377.9365, 138.2632
378.4186, 138.7677
378.9007, 139.0289
379.3828, 139.2555
379.8649, 139.5046
380.3470, 139.6757
380.8292, 139.5753
381.3113, 138.9120
381.7934, 138.9051
382.2755, 140.2436
382.7576, 141.5530
383.2397, 141.8913
383.7219, 141.4385
384.2040, 141.0264
384.6861, 141.3340
385.1682, 142.3030
385.6503, 142.9859
386.1324, 143.1600
386.6146, 143.2759
387.0967, 143.2508
387.5788, 143.2608
388.0609, 143.5733
388.5430, 144.2989
389.0251, 145.2081
389.5073, 145.8461
389.9894, 146.1364
390.4715, 146.2935
390.9536, 146.0692
391.4357, 145.9321
391.9178, 146.2965
392.4000, 147.1197
392.8821, 147.9540
393.3642, 148.3395
393.8463, 148.2599
394.3284, 148.2800
394.8105, 148.6250
395.2927, 148.7988
395.7748, 148.5801
396.2569, 148.0952
396.7390, 147.5039
397.2211, 146.8168
397.7032, 146.2187
398.1854, 146.2681
398.6675, 147.3179
399.1496, 147.9418
399.6317, 147.2642
400.1138, 146.2998
400.5959, 145.7924
401.0781, 145.8695
401.5602, 146.1884
402.0423, 146.5144
402.5244, 146.8389
403.0065, 147.0543
403.4886, 147.0629
403.9708, 147.0838
404.4529, 147.3662
404.9350, 147.7938
405.4171, 148.0255
405.8992, 147.6617
406.3813, 147.1464
406.8635, 147.2748
407.3456, 148.1214
407.8277, 148.9335
408.3098, 149.3952
408.7919, 149.5613
409.2740, 149.5139
409.7562, 149.1577
410.2383, 148.8531
410.7204, 148.8149
411.2025, 149.0000
411.6846, 149.2739
412.1667, 149.5954
412.6489, 150.0239
413.1310, 150.6514
413.6131, 151.4695
414.0952, 152.3952
414.5773, 153.8037
415.0594, 155.0531
415.5416, 155.3151
416.0237, 154.6769
416.5058, 154.1527
416.9879, 154.4239
417.4700, 155.3539
417.9521, 156.1818
418.4343, 156.8174
418.9164, 157.4758
419.3985, 158.2352
419.8806, 159.0476
420.3627, 159.8044
420.8448, 160.4746
421.3270, 161.1837
421.8091, 162.1222
422.2912, 163.3513
422.7733, 164.6557
423.2554, 166.5013
423.7375, 168.0143
424.2197, 168.2702
424.7018, 167.6407
425.1839, 167.3949
425.6660, 168.5096
426.1481, 170.7297
426.6302, 172.3392
427.1124, 172.7239
427.5945, 173.1999
428.0766, 173.7984
428.5587, 174.6225
429.0408, 175.9237
429.5229, 177.7250
430.0051, 179.5612
430.4872, 180.7657
430.9693, 181.2219
431.4514, 181.5211
431.9335, 181.1953
432.4156, 181.1531
432.8978, 181.9287
433.3799, 183.3040
433.8620, 184.7052
434.3441, 185.7821
434.8262, 186.6270
435.3083, 187.4745
435.7905, 188.2893
436.2726, 189.1971
436.7547, 190.3074
437.2368, 191.5034
437.7189, 192.7201
438.2010, 193.9539
438.6832, 195.0932
439.1653, 195.9492
439.6474, 196.5916
440.1295, 197.4361
440.6116, 198.6159
441.0938, 199.8675
441.5759, 200.8741
442.0580, 201.7423
442.5401, 202.8375
443.0222, 204.4122
443.5043, 206.1490
443.9865, 207.8155
444.4686, 209.3924
444.9507, 210.7259
445.4328, 211.5847
445.9149, 212.3210
446.3970, 213.7919
446.8792, 216.2111
447.3613, 218.5786
447.8434, 220.6662
448.3255, 222.5373
448.8076, 224.1615
449.2897, 225.5696
449.7719, 227.0846
450.2540, 229.0409
450.7361, 231.4745
451.2182, 233.7722
451.7003, 236.0804
452.1824, 238.1215
452.6646, 239.6223
453.1467, 240.8355
453.6288, 242.1649
454.1109, 243.7913
454.5930, 245.5826
455.0751, 247.2903
455.5573, 248.8537
456.0394, 250.4481
456.5215, 252.0151
457.0036, 253.6528
457.4857, 255.5467
457.9678, 257.5901
458.4500, 259.4654
458.9321, 260.8983
459.4142, 261.9672
459.8963, 263.1833
460.3784, 264.7723
460.8605, 266.0887
461.3427, 266.8029
461.8248, 267.2978
462.3069, 268.0049
462.7890, 269.0313
463.2711, 269.9928
463.7532, 270.4362
464.2354, 270.3994
464.7175, 270.3648
465.1996, 270.3665
465.6817, 270.4101
466.1638, 270.5829
466.6459, 270.8028
467.1281, 270.8488
467.6102, 270.6105
468.0923, 270.1988
468.5744, 269.8292
469.0565, 269.4584
469.5386, 268.6642
470.0208, 267.2150
470.5029, 265.3342
470.9850, 263.4145
471.4671, 261.4745
471.9492, 259.4001
472.4313, 257.2063
472.9135, 254.8283
473.3956, 252.1470
473.8777, 249.1800
474.3598, 246.1118
474.8419, 243.1345
475.3240, 240.1938
475.8062, 236.7929
476.2883, 232.4411
476.7704, 228.2861
477.2525, 224.5172
477.7346, 221.0941
478.2167, 218.1473
478.6989, 215.6322
479.1810, 213.1099
479.6631, 209.9619
480.1452, 206.1051
480.6273, 202.1332
481.1094, 197.6196
481.5916, 193.4487
482.0737, 190.0975
482.5558, 187.2596
483.0379, 184.3587
483.5200, 181.0815
484.0021, 177.7156
484.4843, 174.8385
484.9664, 172.5393
485.4485, 170.2619
485.9306, 167.8421
486.4127, 165.4692
486.8948, 163.2992
487.3770, 161.3021
487.8591, 159.3263
488.3412, 157.2354
488.8233, 155.1299
489.3054, 153.2702
489.7875, 151.7025
490.2697, 150.0283
490.7518, 147.9149
491.2339, 145.6590
491.7160, 143.8128
492.1981, 142.4656
492.6802, 141.2920
493.1624, 140.2354
493.6445, 139.2516
494.1266, 138.3031
494.6087, 137.3764
495.0908, 136.3983
495.5729, 135.2711
496.0551, 134.0013
496.5372, 132.8842
497.0193, 132.0546
497.5014, 131.1993
497.9835, 130.1218
498.4656, 128.9924
498.9478, 128.0641
499.4299, 127.4151
499.9120, 126.9105
500.3941, 126.3843
500.8762, 125.8687
501.3583, 125.1836
501.8405, 124.1647
502.3226, 123.1445
502.8047, 122.2074
503.2868, 121.3604
503.7689, 120.6166
504.2510, 119.9795
504.7331, 119.4343
505.2152, 118.9782
505.6974, 118.6326
506.1795, 118.2239
506.6616, 117.5378
507.1437, 116.9611
507.6258, 116.9476
508.1079, 117.3666
508.5901, 117.4995
509.0722, 116.7700
509.5543, 115.6676
510.0364, 114.8914
510.5185, 114.4446
511.0006, 114.0957
511.4828, 113.7897
511.9649, 113.4720
512.4470, 112.9689
512.9291, 112.1343
513.4113, 111.6170
513.8934, 111.8680
514.3755, 112.3473
514.8576, 112.4898
515.3397, 112.2610
515.8218, 111.9639
516.3040, 111.8483
516.7861, 111.8481
517.2682, 111.4891
517.7503, 110.0543
518.2324, 109.1641
518.7145, 109.3522
519.1967, 109.9114
519.6788, 110.2023
520.1609, 110.1052
520.6430, 109.8648
521.1251, 109.6953
521.6072, 109.5970
522.0894, 109.6146
522.5715, 109.7872
523.0536, 110.0199
523.5357, 110.4517
524.0178, 110.8414
524.4999, 110.8370
524.9821, 110.3171
525.4642, 109.7487
525.9463, 109.5760
526.4284, 109.7253
526.9105, 109.8600
527.3926, 109.9260
527.8748, 110.0057
528.3569, 110.2479
528.8390, 110.5619
529.3211, 110.6301
529.8032, 110.2074
530.2853, 109.7762
530.7675, 109.4828
531.2496, 109.3866
531.7317, 109.7249
532.2138, 110.5750
532.6959, 111.4514
533.1780, 111.7093
533.6602, 111.1917
534.1423, 111.0377
534.6244, 111.4910
535.1065, 111.9788
535.5886, 112.3170
536.0707, 112.5391
536.5529, 112.7026
537.0350, 112.8317
537.5171, 112.9563
537.9992, 113.1194
538.4813, 113.3219
538.9634, 113.5535
539.4456, 113.7391
539.9277, 114.0453
540.4098, 114.6532
540.8919, 115.4168
541.3740, 116.0165
541.8561, 116.2388
542.3383, 116.4368
542.8204, 117.1940
543.3025, 118.4218
543.7846, 119.1861
544.2667, 119.0569
544.7488, 118.7932
545.2310, 119.3102
545.7131, 120.5154
546.1952, 121.6521
546.6773, 122.6358
547.1594, 123.4857
547.6415, 124.0458
548.1237, 124.4862
548.6058, 125.2851
549.0879, 126.6432
549.5700, 128.2215
550.0521, 129.4537
550.5342, 130.1949
551.0164, 131.0112
551.4985, 131.9810
551.9806, 132.9280
552.4627, 133.8082
552.9448, 134.6082
553.4269, 135.3038
553.9091, 135.8764
554.3912, 136.4102
554.8733, 137.0948
555.3554, 137.9813
555.8375, 138.6753
556.3196, 139.0508
556.8018, 139.2988
557.2839, 139.3586
557.7660, 139.3877
558.2481, 139.8687
558.7302, 141.3864
559.2123, 142.9293
559.6945, 143.3187
560.1766, 142.7856
560.6587, 142.3670
561.1408, 142.3992
561.6229, 142.5753
562.1050, 142.5358
562.5872, 142.2529
563.0693, 141.8685
563.5514, 141.2162
564.0335, 140.6334
564.5156, 140.5163
564.9977, 140.5469
565.4799, 140.0713
565.9620, 138.8406
566.4441, 137.3082
566.9262, 136.2086
567.4083, 135.6696
567.8904, 135.0437
568.3726, 134.4477
568.8547, 133.6263
569.3368, 132.3792
569.8189, 130.8732
570.3010, 129.3777
570.7831, 127.9725
571.2653, 126.6292
571.7474, 125.2337
572.2295, 123.8266
572.7116, 122.7409
573.1937, 122.1352
573.6758, 121.6042
574.1580, 120.7005
574.6401, 119.5755
575.1222, 118.8306
575.6043, 118.9497
576.0864, 118.9745
576.5685, 118.4134
577.0507, 117.4546
577.5328, 116.3204
578.0149, 115.0882
578.4970, 113.9458
578.9791, 113.1129
579.4612, 112.6044
579.9434, 112.0387
580.4255, 111.2008
580.9076, 110.5641
581.3897, 110.3853
581.8718, 110.3582
582.3539, 110.0971
582.8361, 109.5387
583.3182, 109.0161
583.8003, 108.9478
584.2824, 109.2507
584.7645, 109.2969
585.2466, 109.0252
585.7288, 108.6573
586.2108, 108.1775
586.6929, 107.7236
587.1750, 107.5376
587.6572, 107.7047
588.1393, 107.8365
588.6214, 107.7627
