##NAMES=Seidozerite
##RRUFFID=R130032
##IDEAL CHEMISTRY=Na_2_Zr^4+^_2_Na_2_Mn^2+^Ti^4+^(Si_2_O_7_)_2_O_2_F_2_
##LOCALITY=Suoluaiv Mountain, Lovozero alkaline massif, Kola Peninsula, Murmanskaja Oblast', Northern Region, Russia
##OWNER=RRUFF
##SOURCE=Don Doell
##DESCRIPTION=Radiating reddish-brown bladed crystals
##STATUS=The identification of this mineral has been confirmed by single-crystal X-ray diffraction.
##URL=rruff.info/R130032
8.936163e+001, 0.000000e+000
8.984375e+001, 3.126051e+002
9.032587e+001, 3.145760e+002
9.080798e+001, 3.150377e+002
9.129010e+001, 3.136606e+002
9.177222e+001, 3.111473e+002
9.225433e+001, 3.081293e+002
9.273645e+001, 3.046252e+002
9.321857e+001, 3.009501e+002
9.370068e+001, 2.974013e+002
9.418280e+001, 2.939200e+002
9.466492e+001, 2.903344e+002
9.514703e+001, 2.862639e+002
9.562915e+001, 2.821195e+002
9.611127e+001, 2.791102e+002
9.659338e+001, 2.773954e+002
9.707550e+001, 2.761176e+002
9.755762e+001, 2.742866e+002
9.803973e+001, 2.718854e+002
9.852185e+001, 2.693190e+002
9.900397e+001, 2.665301e+002
9.948608e+001, 2.634907e+002
9.996820e+001, 2.612951e+002
1.004503e+002, 2.603595e+002
1.009324e+002, 2.597606e+002
1.014146e+002, 2.573131e+002
1.018967e+002, 2.523473e+002
1.023788e+002, 2.473845e+002
1.028609e+002, 2.437869e+002
1.033430e+002, 2.420486e+002
1.038251e+002, 2.401968e+002
1.043073e+002, 2.381153e+002
1.047894e+002, 2.358294e+002
1.052715e+002, 2.334742e+002
1.057536e+002, 2.310078e+002
1.062357e+002, 2.284957e+002
1.067178e+002, 2.259174e+002
1.072000e+002, 2.230120e+002
1.076821e+002, 2.204615e+002
1.081642e+002, 2.185674e+002
1.086463e+002, 2.174111e+002
1.091284e+002, 2.157840e+002
1.096105e+002, 2.134869e+002
1.100927e+002, 2.107987e+002
1.105748e+002, 2.080044e+002
1.110569e+002, 2.041311e+002
1.115390e+002, 2.010702e+002
1.120211e+002, 1.996568e+002
1.125032e+002, 2.006098e+002
1.129854e+002, 2.006184e+002
1.134675e+002, 1.987792e+002
1.139496e+002, 1.958288e+002
1.144317e+002, 1.928010e+002
1.149138e+002, 1.892551e+002
1.153959e+002, 1.862085e+002
1.158781e+002, 1.842696e+002
1.163602e+002, 1.840713e+002
1.168423e+002, 1.837900e+002
1.173244e+002, 1.828270e+002
1.178065e+002, 1.812990e+002
1.182886e+002, 1.795038e+002
1.187708e+002, 1.771289e+002
1.192529e+002, 1.747534e+002
1.197350e+002, 1.728743e+002
1.202171e+002, 1.718493e+002
1.206992e+002, 1.710645e+002
1.211813e+002, 1.701786e+002
1.216635e+002, 1.692097e+002
1.221456e+002, 1.682791e+002
1.226277e+002, 1.678965e+002
1.231098e+002, 1.674986e+002
1.235919e+002, 1.663247e+002
1.240740e+002, 1.633654e+002
1.245562e+002, 1.599482e+002
1.250383e+002, 1.575211e+002
1.255204e+002, 1.560666e+002
1.260025e+002, 1.549647e+002
1.264846e+002, 1.538846e+002
1.269667e+002, 1.527664e+002
1.274489e+002, 1.514610e+002
1.279310e+002, 1.494023e+002
1.284131e+002, 1.471933e+002
1.288952e+002, 1.462566e+002
1.293773e+002, 1.468253e+002
1.298594e+002, 1.477090e+002
1.303416e+002, 1.475294e+002
1.308237e+002, 1.463601e+002
1.313058e+002, 1.447254e+002
1.317879e+002, 1.425270e+002
1.322700e+002, 1.399694e+002
1.327521e+002, 1.380815e+002
1.332343e+002, 1.370023e+002
1.337164e+002, 1.365077e+002
1.341985e+002, 1.363321e+002
1.346806e+002, 1.365145e+002
1.351627e+002, 1.365016e+002
1.356448e+002, 1.358764e+002
1.361270e+002, 1.346298e+002
1.366091e+002, 1.332870e+002
1.370912e+002, 1.318109e+002
1.375733e+002, 1.303342e+002
1.380554e+002, 1.292802e+002
1.385375e+002, 1.287658e+002
1.390197e+002, 1.283269e+002
1.395018e+002, 1.275656e+002
1.399839e+002, 1.264037e+002
1.404660e+002, 1.252928e+002
1.409481e+002, 1.243091e+002
1.414302e+002, 1.234488e+002
1.419124e+002, 1.225780e+002
1.423945e+002, 1.216169e+002
1.428766e+002, 1.207585e+002
1.433587e+002, 1.202817e+002
1.438408e+002, 1.205571e+002
1.443229e+002, 1.204509e+002
1.448051e+002, 1.195979e+002
1.452872e+002, 1.178383e+002
1.457693e+002, 1.164626e+002
1.462514e+002, 1.156001e+002
1.467335e+002, 1.150206e+002
1.472156e+002, 1.144025e+002
1.476978e+002, 1.135196e+002
1.481799e+002, 1.128932e+002
1.486620e+002, 1.128402e+002
1.491441e+002, 1.139828e+002
1.496262e+002, 1.139829e+002
1.501083e+002, 1.116025e+002
1.505905e+002, 1.082801e+002
1.510726e+002, 1.065398e+002
1.515547e+002, 1.084709e+002
1.520368e+002, 1.101924e+002
1.525189e+002, 1.104842e+002
1.530010e+002, 1.083912e+002
1.534832e+002, 1.064690e+002
1.539653e+002, 1.047179e+002
1.544474e+002, 1.032363e+002
1.549295e+002, 1.022602e+002
1.554116e+002, 1.025430e+002
1.558937e+002, 1.028130e+002
1.563759e+002, 1.024537e+002
1.568580e+002, 1.005882e+002
1.573401e+002, 9.915833e+001
1.578222e+002, 9.869475e+001
1.583043e+002, 9.900457e+001
1.587864e+002, 9.937598e+001
1.592686e+002, 9.970248e+001
1.597507e+002, 9.998013e+001
1.602328e+002, 1.002101e+002
1.607149e+002, 1.007205e+002
1.611970e+002, 1.008533e+002
1.616791e+002, 9.998852e+001
1.621613e+002, 9.834194e+001
1.626434e+002, 9.726091e+001
1.631255e+002, 9.721966e+001
1.636076e+002, 9.802943e+001
1.640897e+002, 9.952210e+001
1.645718e+002, 1.027920e+002
1.650540e+002, 1.057838e+002
1.655361e+002, 1.070033e+002
1.660182e+002, 1.065390e+002
1.665003e+002, 1.065906e+002
1.669824e+002, 1.086209e+002
1.674645e+002, 1.117856e+002
1.679467e+002, 1.150069e+002
1.684288e+002, 1.173731e+002
1.689109e+002, 1.200201e+002
1.693930e+002, 1.237918e+002
1.698751e+002, 1.287569e+002
1.703572e+002, 1.343241e+002
1.708394e+002, 1.400334e+002
1.713215e+002, 1.461443e+002
1.718036e+002, 1.529937e+002
1.722857e+002, 1.611065e+002
1.727678e+002, 1.698950e+002
1.732499e+002, 1.785870e+002
1.737321e+002, 1.871043e+002
1.742142e+002, 1.963141e+002
1.746963e+002, 2.070182e+002
1.751784e+002, 2.191337e+002
1.756605e+002, 2.325233e+002
1.761426e+002, 2.474935e+002
1.766248e+002, 2.634471e+002
1.771069e+002, 2.797560e+002
1.775890e+002, 2.966133e+002
1.780711e+002, 3.130454e+002
1.785532e+002, 3.281337e+002
1.790353e+002, 3.420754e+002
1.795175e+002, 3.549914e+002
1.799996e+002, 3.673466e+002
1.804817e+002, 3.787478e+002
1.809638e+002, 3.886259e+002
1.814459e+002, 3.968393e+002
1.819280e+002, 4.037560e+002
1.824102e+002, 4.098050e+002
1.828923e+002, 4.149427e+002
1.833744e+002, 4.196179e+002
1.838565e+002, 4.236442e+002
1.843386e+002, 4.273522e+002
1.848207e+002, 4.315654e+002
1.853029e+002, 4.364776e+002
1.857850e+002, 4.418601e+002
1.862671e+002, 4.473197e+002
1.867492e+002, 4.528620e+002
1.872313e+002, 4.590348e+002
1.877134e+002, 4.659597e+002
1.881956e+002, 4.737907e+002
1.886777e+002, 4.830241e+002
1.891598e+002, 4.941088e+002
1.896419e+002, 5.063546e+002
1.901240e+002, 5.180844e+002
1.906061e+002, 5.293924e+002
1.910883e+002, 5.415082e+002
1.915704e+002, 5.565175e+002
1.920525e+002, 5.740925e+002
1.925346e+002, 5.893792e+002
1.930167e+002, 6.006959e+002
1.934988e+002, 6.093537e+002
1.939810e+002, 6.180624e+002
1.944631e+002, 6.264133e+002
1.949452e+002, 6.352899e+002
1.954273e+002, 6.432502e+002
1.959094e+002, 6.503147e+002
1.963915e+002, 6.562883e+002
1.968737e+002, 6.608804e+002
1.973558e+002, 6.644889e+002
1.978379e+002, 6.688613e+002
1.983200e+002, 6.742815e+002
1.988021e+002, 6.791886e+002
1.992842e+002, 6.817158e+002
1.997664e+002, 6.817557e+002
2.002485e+002, 6.824992e+002
2.007306e+002, 6.848613e+002
2.012127e+002, 6.884802e+002
2.016948e+002, 6.914294e+002
2.021769e+002, 6.937397e+002
2.026591e+002, 6.954271e+002
2.031412e+002, 6.964977e+002
2.036233e+002, 6.969830e+002
2.041054e+002, 6.967893e+002
2.045875e+002, 6.956244e+002
2.050696e+002, 6.936583e+002
2.055518e+002, 6.925245e+002
2.060339e+002, 6.923738e+002
2.065160e+002, 6.926531e+002
2.069981e+002, 6.926514e+002
2.074802e+002, 6.921335e+002
2.079623e+002, 6.923812e+002
2.084445e+002, 6.939024e+002
2.089266e+002, 6.966286e+002
2.094087e+002, 6.989197e+002
2.098908e+002, 7.007819e+002
2.103729e+002, 7.022322e+002
2.108550e+002, 7.032199e+002
2.113372e+002, 7.036198e+002
2.118193e+002, 7.039693e+002
2.123014e+002, 7.043910e+002
2.127835e+002, 7.048803e+002
2.132656e+002, 7.055024e+002
2.137477e+002, 7.066589e+002
2.142299e+002, 7.073895e+002
2.147120e+002, 7.063555e+002
2.151941e+002, 7.028915e+002
2.156762e+002, 6.995292e+002
2.161583e+002, 6.970863e+002
2.166404e+002, 6.956859e+002
2.171226e+002, 6.930352e+002
2.176047e+002, 6.884951e+002
2.180868e+002, 6.834588e+002
2.185689e+002, 6.796074e+002
2.190510e+002, 6.773600e+002
2.195331e+002, 6.752711e+002
2.200153e+002, 6.729378e+002
2.204974e+002, 6.703163e+002
2.209795e+002, 6.679681e+002
2.214616e+002, 6.660997e+002
2.219437e+002, 6.642910e+002
2.224258e+002, 6.618171e+002
2.229080e+002, 6.580568e+002
2.233901e+002, 6.550197e+002
2.238722e+002, 6.533724e+002
2.243543e+002, 6.532188e+002
2.248364e+002, 6.533234e+002
2.253185e+002, 6.538525e+002
2.258007e+002, 6.544633e+002
2.262828e+002, 6.545853e+002
2.267649e+002, 6.535517e+002
2.272470e+002, 6.533041e+002
2.277291e+002, 6.544755e+002
2.282112e+002, 6.572565e+002
2.286934e+002, 6.599906e+002
2.291755e+002, 6.625912e+002
2.296576e+002, 6.652097e+002
2.301397e+002, 6.680387e+002
2.306218e+002, 6.713572e+002
2.311039e+002, 6.744349e+002
2.315861e+002, 6.768526e+002
2.320682e+002, 6.784164e+002
2.325503e+002, 6.809990e+002
2.330324e+002, 6.847618e+002
2.335145e+002, 6.894066e+002
2.339966e+002, 6.946990e+002
2.344788e+002, 7.009252e+002
2.349609e+002, 7.072684e+002
2.354430e+002, 7.135850e+002
2.359251e+002, 7.199122e+002
2.364072e+002, 7.259291e+002
2.368893e+002, 7.312283e+002
2.373715e+002, 7.365449e+002
2.378536e+002, 7.426673e+002
2.383357e+002, 7.493461e+002
2.388178e+002, 7.574084e+002
2.392999e+002, 7.676325e+002
2.397820e+002, 7.804193e+002
2.402642e+002, 7.914590e+002
2.407463e+002, 8.000198e+002
2.412284e+002, 8.074209e+002
2.417105e+002, 8.152207e+002
2.421926e+002, 8.234830e+002
2.426747e+002, 8.319547e+002
2.431569e+002, 8.405058e+002
2.436390e+002, 8.491483e+002
2.441211e+002, 8.579866e+002
2.446032e+002, 8.671556e+002
2.450853e+002, 8.764607e+002
2.455674e+002, 8.856068e+002
2.460496e+002, 8.942347e+002
2.465317e+002, 9.034626e+002
2.470138e+002, 9.140270e+002
2.474959e+002, 9.262465e+002
2.479780e+002, 9.366156e+002
2.484601e+002, 9.443909e+002
2.489423e+002, 9.511925e+002
2.494244e+002, 9.587731e+002
2.499065e+002, 9.674103e+002
2.503886e+002, 9.763899e+002
2.508707e+002, 9.860705e+002
2.513528e+002, 9.965045e+002
2.518350e+002, 1.004860e+003
2.523171e+002, 1.010639e+003
2.527992e+002, 1.014795e+003
2.532813e+002, 1.018343e+003
2.537634e+002, 1.021712e+003
2.542455e+002, 1.023469e+003
2.547277e+002, 1.023368e+003
2.552098e+002, 1.021386e+003
2.556919e+002, 1.017468e+003
2.561740e+002, 1.011493e+003
2.566561e+002, 1.003718e+003
2.571382e+002, 9.943342e+002
2.576204e+002, 9.828048e+002
2.581025e+002, 9.707914e+002
2.585846e+002, 9.588196e+002
2.590667e+002, 9.467979e+002
2.595488e+002, 9.335391e+002
2.600309e+002, 9.188590e+002
2.605131e+002, 9.036187e+002
2.609952e+002, 8.888049e+002
2.614773e+002, 8.743875e+002
2.619594e+002, 8.602093e+002
2.624415e+002, 8.463526e+002
2.629236e+002, 8.327225e+002
2.634058e+002, 8.195827e+002
2.638879e+002, 8.067132e+002
2.643700e+002, 7.944926e+002
2.648521e+002, 7.828495e+002
2.653342e+002, 7.718141e+002
2.658163e+002, 7.616086e+002
2.662985e+002, 7.524523e+002
2.667806e+002, 7.442520e+002
2.672627e+002, 7.361525e+002
2.677448e+002, 7.279843e+002
2.682269e+002, 7.203665e+002
2.687090e+002, 7.138995e+002
2.691912e+002, 7.087701e+002
2.696733e+002, 7.037109e+002
2.701554e+002, 6.986115e+002
2.706375e+002, 6.934301e+002
2.711196e+002, 6.881287e+002
2.716017e+002, 6.825916e+002
2.720839e+002, 6.772529e+002
2.725660e+002, 6.725812e+002
2.730481e+002, 6.686467e+002
2.735302e+002, 6.647737e+002
2.740123e+002, 6.608406e+002
2.744944e+002, 6.569338e+002
2.749766e+002, 6.533399e+002
2.754587e+002, 6.501934e+002
2.759408e+002, 6.468932e+002
2.764229e+002, 6.431252e+002
2.769050e+002, 6.388506e+002
2.773871e+002, 6.343545e+002
2.778693e+002, 6.294371e+002
2.783514e+002, 6.245662e+002
2.788335e+002, 6.209909e+002
2.793156e+002, 6.188811e+002
2.797977e+002, 6.168694e+002
2.802798e+002, 6.143983e+002
2.807620e+002, 6.114911e+002
2.812441e+002, 6.073270e+002
2.817262e+002, 6.012551e+002
2.822083e+002, 5.949988e+002
2.826904e+002, 5.922614e+002
2.831725e+002, 5.933093e+002
2.836547e+002, 5.939765e+002
2.841368e+002, 5.918185e+002
2.846189e+002, 5.871267e+002
2.851010e+002, 5.830832e+002
2.855831e+002, 5.797203e+002
2.860652e+002, 5.771072e+002
2.865474e+002, 5.757060e+002
2.870295e+002, 5.754880e+002
2.875116e+002, 5.750550e+002
2.879937e+002, 5.735416e+002
2.884758e+002, 5.711845e+002
2.889579e+002, 5.694907e+002
2.894401e+002, 5.685023e+002
2.899222e+002, 5.678563e+002
2.904043e+002, 5.672393e+002
2.908864e+002, 5.666328e+002
2.913685e+002, 5.658690e+002
2.918506e+002, 5.648417e+002
2.923328e+002, 5.636168e+002
2.928149e+002, 5.623571e+002
2.932970e+002, 5.610422e+002
2.937791e+002, 5.598431e+002
2.942612e+002, 5.588492e+002
2.947433e+002, 5.580974e+002
2.952255e+002, 5.577798e+002
2.957076e+002, 5.581164e+002
2.961897e+002, 5.588422e+002
2.966718e+002, 5.595079e+002
2.971539e+002, 5.601098e+002
2.976360e+002, 5.605878e+002
2.981182e+002, 5.607089e+002
2.986003e+002, 5.606539e+002
2.990824e+002, 5.609237e+002
2.995645e+002, 5.618703e+002
3.000466e+002, 5.629688e+002
3.005287e+002, 5.634866e+002
3.010109e+002, 5.634661e+002
3.014930e+002, 5.632059e+002
3.019751e+002, 5.627032e+002
3.024572e+002, 5.621471e+002
3.029393e+002, 5.619979e+002
3.034214e+002, 5.627203e+002
3.039036e+002, 5.632077e+002
3.043857e+002, 5.620883e+002
3.048678e+002, 5.596672e+002
3.053499e+002, 5.570114e+002
3.058320e+002, 5.544850e+002
3.063141e+002, 5.522205e+002
3.067963e+002, 5.505483e+002
3.072784e+002, 5.497159e+002
3.077605e+002, 5.488441e+002
3.082426e+002, 5.470809e+002
3.087247e+002, 5.446926e+002
3.092068e+002, 5.423219e+002
3.096890e+002, 5.406752e+002
3.101711e+002, 5.389528e+002
3.106532e+002, 5.362963e+002
3.111353e+002, 5.324227e+002
3.116174e+002, 5.286275e+002
3.120995e+002, 5.259460e+002
3.125817e+002, 5.238953e+002
3.130638e+002, 5.216597e+002
3.135459e+002, 5.184153e+002
3.140280e+002, 5.152268e+002
3.145101e+002, 5.128641e+002
3.149922e+002, 5.114392e+002
3.154744e+002, 5.100036e+002
3.159565e+002, 5.082714e+002
3.164386e+002, 5.062540e+002
3.169207e+002, 5.039893e+002
3.174028e+002, 5.011836e+002
3.178849e+002, 4.984122e+002
3.183671e+002, 4.958636e+002
3.188492e+002, 4.935290e+002
3.193313e+002, 4.914689e+002
3.198134e+002, 4.898108e+002
3.202955e+002, 4.883686e+002
3.207776e+002, 4.870110e+002
3.212598e+002, 4.860062e+002
3.217419e+002, 4.847396e+002
3.222240e+002, 4.829318e+002
3.227061e+002, 4.806763e+002
3.231882e+002, 4.784874e+002
3.236703e+002, 4.762736e+002
3.241525e+002, 4.742655e+002
3.246346e+002, 4.726162e+002
3.251167e+002, 4.714991e+002
3.255988e+002, 4.705009e+002
3.260809e+002, 4.699463e+002
3.265630e+002, 4.695236e+002
3.270452e+002, 4.683687e+002
3.275273e+002, 4.654850e+002
3.280094e+002, 4.627011e+002
3.284915e+002, 4.607095e+002
3.289736e+002, 4.600562e+002
3.294557e+002, 4.590222e+002
3.299379e+002, 4.571483e+002
3.304200e+002, 4.550323e+002
3.309021e+002, 4.536916e+002
3.313842e+002, 4.538316e+002
3.318663e+002, 4.537787e+002
3.323484e+002, 4.529365e+002
3.328306e+002, 4.511066e+002
3.333127e+002, 4.499032e+002
3.337948e+002, 4.497510e+002
3.342769e+002, 4.498366e+002
3.347590e+002, 4.491552e+002
3.352411e+002, 4.471032e+002
3.357233e+002, 4.456505e+002
3.362054e+002, 4.453609e+002
3.366875e+002, 4.461564e+002
3.371696e+002, 4.467655e+002
3.376517e+002, 4.472230e+002
3.381339e+002, 4.474456e+002
3.386160e+002, 4.473046e+002
3.390981e+002, 4.467249e+002
3.395802e+002, 4.461252e+002
3.400623e+002, 4.454389e+002
3.405444e+002, 4.448299e+002
3.410266e+002, 4.450540e+002
3.415087e+002, 4.462974e+002
3.419908e+002, 4.474562e+002
3.424729e+002, 4.477545e+002
3.429550e+002, 4.471890e+002
3.434371e+002, 4.466649e+002
3.439193e+002, 4.462401e+002
3.444014e+002, 4.459036e+002
3.448835e+002, 4.456515e+002
3.453656e+002, 4.454844e+002
3.458477e+002, 4.453942e+002
3.463298e+002, 4.456174e+002
3.468120e+002, 4.459768e+002
3.472941e+002, 4.454863e+002
3.477762e+002, 4.439841e+002
3.482583e+002, 4.424020e+002
3.487404e+002, 4.421620e+002
3.492225e+002, 4.429136e+002
3.497047e+002, 4.431315e+002
3.501868e+002, 4.417010e+002
3.506689e+002, 4.396149e+002
3.511510e+002, 4.386228e+002
3.516331e+002, 4.387169e+002
3.521152e+002, 4.392717e+002
3.525974e+002, 4.400681e+002
3.530795e+002, 4.409170e+002
3.535616e+002, 4.414715e+002
3.540437e+002, 4.416232e+002
3.545258e+002, 4.414576e+002
3.550079e+002, 4.408260e+002
3.554901e+002, 4.398621e+002
3.559722e+002, 4.391473e+002
3.564543e+002, 4.393383e+002
3.569364e+002, 4.398245e+002
3.574185e+002, 4.399507e+002
3.579006e+002, 4.394947e+002
3.583828e+002, 4.389654e+002
3.588649e+002, 4.386535e+002
3.593470e+002, 4.384985e+002
3.598291e+002, 4.383723e+002
3.603112e+002, 4.377805e+002
3.607933e+002, 4.375288e+002
3.612755e+002, 4.383507e+002
3.617576e+002, 4.405072e+002
3.622397e+002, 4.422542e+002
3.627218e+002, 4.426497e+002
3.632039e+002, 4.423804e+002
3.636860e+002, 4.422139e+002
3.641682e+002, 4.423585e+002
3.646503e+002, 4.426238e+002
3.651324e+002, 4.429506e+002
3.656145e+002, 4.433399e+002
3.660966e+002, 4.438239e+002
3.665787e+002, 4.444289e+002
3.670609e+002, 4.451197e+002
3.675430e+002, 4.458737e+002
3.680251e+002, 4.467472e+002
3.685072e+002, 4.476281e+002
3.689893e+002, 4.486714e+002
3.694714e+002, 4.497412e+002
3.699536e+002, 4.503236e+002
3.704357e+002, 4.498698e+002
3.709178e+002, 4.495096e+002
3.713999e+002, 4.496692e+002
3.718820e+002, 4.504021e+002
3.723641e+002, 4.515853e+002
3.728463e+002, 4.536381e+002
3.733284e+002, 4.558497e+002
3.738105e+002, 4.569968e+002
3.742926e+002, 4.564536e+002
3.747747e+002, 4.562605e+002
3.752568e+002, 4.571142e+002
3.757390e+002, 4.590302e+002
3.762211e+002, 4.607031e+002
3.767032e+002, 4.622148e+002
3.771853e+002, 4.633340e+002
3.776674e+002, 4.636910e+002
3.781495e+002, 4.631686e+002
3.786317e+002, 4.629602e+002
3.791138e+002, 4.634301e+002
3.795959e+002, 4.642816e+002
3.800780e+002, 4.644422e+002
3.805601e+002, 4.638329e+002
3.810422e+002, 4.634391e+002
3.815244e+002, 4.644103e+002
3.820065e+002, 4.663770e+002
3.824886e+002, 4.670787e+002
3.829707e+002, 4.660874e+002
3.834528e+002, 4.644136e+002
3.839349e+002, 4.633493e+002
3.844171e+002, 4.628363e+002
3.848992e+002, 4.625315e+002
3.853813e+002, 4.624295e+002
3.858634e+002, 4.623701e+002
3.863455e+002, 4.619777e+002
3.868276e+002, 4.612241e+002
3.873098e+002, 4.605483e+002
3.877919e+002, 4.605884e+002
3.882740e+002, 4.609233e+002
3.887561e+002, 4.607977e+002
3.892382e+002, 4.597125e+002
3.897203e+002, 4.583018e+002
3.902025e+002, 4.569548e+002
3.906846e+002, 4.556981e+002
3.911667e+002, 4.546411e+002
3.916488e+002, 4.540854e+002
3.921309e+002, 4.536338e+002
3.926130e+002, 4.529384e+002
3.930952e+002, 4.518655e+002
3.935773e+002, 4.507162e+002
3.940594e+002, 4.493747e+002
3.945415e+002, 4.480779e+002
3.950236e+002, 4.472644e+002
3.955057e+002, 4.473203e+002
3.959879e+002, 4.476711e+002
3.964700e+002, 4.482397e+002
3.969521e+002, 4.491181e+002
3.974342e+002, 4.495756e+002
3.979163e+002, 4.490064e+002
3.983984e+002, 4.482074e+002
3.988806e+002, 4.479048e+002
3.993627e+002, 4.482816e+002
3.998448e+002, 4.490137e+002
4.003269e+002, 4.502737e+002
4.008090e+002, 4.519621e+002
4.012911e+002, 4.532631e+002
4.017733e+002, 4.538171e+002
4.022554e+002, 4.544178e+002
4.027375e+002, 4.554975e+002
4.032196e+002, 4.572575e+002
4.037017e+002, 4.589995e+002
4.041838e+002, 4.606695e+002
4.046660e+002, 4.623453e+002
4.051481e+002, 4.641450e+002
4.056302e+002, 4.661078e+002
4.061123e+002, 4.680928e+002
4.065944e+002, 4.700738e+002
4.070765e+002, 4.720546e+002
4.075587e+002, 4.739579e+002
4.080408e+002, 4.758144e+002
4.085229e+002, 4.775076e+002
4.090050e+002, 4.787656e+002
4.094871e+002, 4.796270e+002
4.099692e+002, 4.808043e+002
4.104514e+002, 4.825806e+002
4.109335e+002, 4.846170e+002
4.114156e+002, 4.863205e+002
4.118977e+002, 4.876729e+002
4.123798e+002, 4.886645e+002
4.128619e+002, 4.891313e+002
4.133441e+002, 4.892494e+002
4.138262e+002, 4.892649e+002
