##NAMES=Sekaninaite
##RRUFFID=R061053
##IDEAL CHEMISTRY=Fe^2+^_2_Al_3_(AlSi_5_)O_18_
##LOCALITY=Dolni Borg, Czechoslovakia
##OWNER=RRUFF
##SOURCE=Royal Ontario Museum
##DESCRIPTION=Grayish blue massive showing well-developed parting
##STATUS=The identification of this mineral has been confirmed by X-ray diffraction and chemical analysis
##URL=rruff.info/R061053
##MEASURED CHEMISTRY=(Fe^2+^_1.67_Mg_0.15_Mn_0.10_[box]_0.07_Ca_0.01_)_Σ=2_Al_4.00_(Si_4.89_Al_0.11_)_Σ=5_(O_17.89_(OH)_0.11_)_Σ=18_ ·Na_0.14_
109.4692, 234.3654
109.9513, 244.1130
110.4335, 245.7321
110.9156, 254.2756
111.3977, 274.5945
111.8798, 301.8586
112.3619, 327.3722
112.8440, 345.5532
113.3262, 365.1267
113.8083, 389.4135
114.2904, 419.1856
114.7725, 453.4226
115.2546, 494.7126
115.7367, 541.4982
116.2189, 587.1229
116.7010, 632.6899
117.1831, 674.6295
117.6652, 709.9793
118.1473, 731.1389
118.6294, 750.7801
119.1115, 775.0282
119.5937, 804.1578
120.0758, 834.5958
120.5579, 858.3591
121.0400, 882.9674
121.5221, 920.2808
122.0042, 993.1360
122.4864, 1072.653
122.9685, 1130.349
123.4506, 1158.824
123.9327, 1178.671
124.4148, 1204.835
124.8969, 1236.882
125.3791, 1273.394
125.8612, 1314.173
126.3433, 1358.472
126.8254, 1406.384
127.3075, 1463.860
127.7896, 1518.472
128.2718, 1549.990
128.7539, 1558.690
129.2360, 1557.166
129.7181, 1556.242
130.2002, 1554.621
130.6823, 1546.529
131.1645, 1526.092
131.6466, 1497.599
132.1287, 1475.223
132.6108, 1459.414
133.0929, 1448.633
133.5750, 1441.845
134.0572, 1439.071
134.5393, 1438.186
135.0214, 1434.559
135.5035, 1428.494
135.9856, 1438.774
136.4677, 1469.844
136.9499, 1513.341
137.4320, 1550.337
137.9141, 1579.337
138.3962, 1606.482
138.8783, 1636.380
139.3604, 1669.779
139.8426, 1700.833
140.3247, 1728.608
140.8068, 1753.306
141.2889, 1777.087
141.7710, 1797.628
142.2531, 1820.368
142.7353, 1850.869
143.2174, 1891.339
143.6995, 1934.094
144.1816, 1976.890
144.6637, 2019.640
145.1458, 2065.749
145.6280, 2117.604
146.1101, 2171.707
146.5922, 2223.341
147.0743, 2269.350
147.5564, 2316.570
148.0385, 2367.547
148.5207, 2427.323
149.0028, 2479.864
149.4849, 2524.692
149.9670, 2562.454
150.4491, 2593.018
150.9312, 2618.033
151.4134, 2635.230
151.8955, 2643.586
152.3776, 2640.623
152.8597, 2632.140
153.3418, 2624.091
153.8239, 2613.852
154.3060, 2583.544
154.7882, 2518.598
155.2703, 2440.071
155.7524, 2361.742
156.2345, 2273.317
156.7166, 2197.113
157.1987, 2143.663
157.6809, 2113.874
158.1630, 2082.096
158.6451, 2033.623
159.1272, 1982.992
159.6093, 1944.994
160.0914, 1934.861
160.5736, 1929.666
161.0557, 1919.722
161.5378, 1902.960
162.0199, 1886.629
162.5020, 1874.548
162.9841, 1864.723
163.4663, 1853.508
163.9484, 1833.194
164.4305, 1815.056
164.9126, 1807.838
165.3947, 1818.069
165.8768, 1828.386
166.3590, 1827.183
166.8411, 1818.092
167.3232, 1811.839
167.8053, 1818.125
168.2874, 1828.200
168.7695, 1833.775
169.2517, 1831.957
169.7338, 1825.997
170.2159, 1816.078
170.6980, 1803.069
171.1801, 1791.686
171.6622, 1784.541
172.1444, 1781.044
172.6265, 1780.358
173.1086, 1781.137
173.5907, 1785.172
174.0728, 1796.864
174.5549, 1816.433
175.0371, 1834.313
175.5192, 1839.503
176.0013, 1836.918
176.4834, 1837.059
176.9655, 1847.607
177.4476, 1862.673
177.9298, 1873.450
178.4119, 1879.100
178.8940, 1883.347
179.3761, 1889.729
179.8582, 1897.996
180.3403, 1907.468
180.8224, 1922.901
181.3046, 1938.826
181.7867, 1941.784
182.2688, 1927.363
182.7509, 1907.204
183.2330, 1896.364
183.7151, 1894.499
184.1973, 1896.999
184.6794, 1903.429
185.1615, 1912.329
185.6436, 1918.014
186.1257, 1918.442
186.6078, 1916.634
187.0900, 1918.180
187.5721, 1923.087
188.0542, 1930.120
188.5363, 1938.496
189.0184, 1948.189
189.5005, 1959.855
189.9827, 1974.840
190.4648, 1991.265
190.9469, 2004.649
191.4290, 2014.947
191.9111, 2021.252
192.3932, 2018.472
192.8754, 2007.211
193.3575, 2004.420
193.8396, 2019.686
194.3217, 2048.758
194.8038, 2066.714
195.2859, 2072.812
195.7681, 2070.484
196.2502, 2061.948
196.7323, 2046.875
197.2144, 2031.597
197.6965, 2021.226
198.1786, 2015.369
198.6608, 1996.021
199.1429, 1958.770
199.6250, 1915.930
200.1071, 1887.698
200.5892, 1876.129
201.0714, 1866.352
201.5535, 1850.390
202.0356, 1827.294
202.5177, 1809.904
202.9998, 1799.421
203.4819, 1793.676
203.9641, 1788.673
204.4462, 1784.377
204.9283, 1780.626
205.4104, 1776.477
205.8925, 1771.096
206.3746, 1771.052
206.8568, 1779.281
207.3389, 1791.933
207.8210, 1795.403
208.3031, 1786.429
208.7852, 1777.234
209.2673, 1777.461
209.7494, 1790.818
210.2316, 1797.801
210.7137, 1793.584
211.1958, 1781.311
211.6779, 1777.499
212.1600, 1784.751
212.6421, 1795.336
213.1243, 1802.625
213.6064, 1804.266
214.0885, 1810.243
214.5706, 1824.039
215.0527, 1844.742
215.5348, 1858.226
216.0170, 1860.126
216.4991, 1861.079
216.9812, 1872.295
217.4633, 1898.984
217.9454, 1921.995
218.4275, 1937.471
218.9097, 1945.201
219.3918, 1947.753
219.8739, 1938.576
220.3560, 1931.605
220.8381, 1944.388
221.3202, 1985.878
221.8024, 2027.362
222.2845, 2061.019
222.7666, 2085.927
223.2487, 2112.807
223.7308, 2140.519
224.2129, 2171.086
224.6951, 2207.522
225.1772, 2252.647
225.6593, 2298.970
226.1414, 2345.430
226.6235, 2392.394
227.1056, 2435.082
227.5878, 2466.920
228.0699, 2498.726
228.5520, 2552.353
229.0341, 2641.977
229.5162, 2728.527
229.9983, 2799.802
230.4805, 2852.530
230.9626, 2897.696
231.4447, 2931.944
231.9268, 2959.877
232.4089, 2991.127
232.8910, 3031.566
233.3732, 3067.098
233.8553, 3090.715
234.3374, 3094.829
234.8195, 3106.810
235.3016, 3131.416
235.7837, 3162.678
236.2658, 3186.242
236.7480, 3203.815
237.2301, 3211.336
237.7122, 3206.479
238.1943, 3185.969
238.6764, 3160.010
239.1585, 3126.356
239.6407, 3087.281
240.1228, 3049.858
240.6049, 3011.305
241.0870, 2977.783
241.5691, 2952.050
242.0512, 2933.437
242.5334, 2923.303
243.0155, 2917.695
243.4976, 2920.287
243.9797, 2947.287
244.4618, 3004.966
244.9439, 3077.927
245.4261, 3157.397
245.9082, 3241.086
246.3903, 3335.605
246.8724, 3440.435
247.3545, 3556.110
247.8366, 3687.343
248.3188, 3838.435
248.8009, 3997.170
249.2830, 4156.934
249.7651, 4317.262
250.2472, 4476.432
250.7293, 4635.244
251.2115, 4793.275
251.6936, 4950.674
252.1757, 5126.650
252.6578, 5277.956
253.1399, 5381.494
253.6220, 5442.069
254.1042, 5443.356
254.5863, 5375.000
255.0684, 5242.466
255.5505, 5088.922
256.0326, 4908.957
256.5147, 4714.095
256.9969, 4504.616
257.4790, 4266.306
257.9611, 4045.781
258.4432, 3849.452
258.9253, 3675.070
259.4074, 3508.745
259.8896, 3346.194
260.3717, 3195.434
260.8538, 3059.015
261.3359, 2936.475
261.8180, 2829.382
262.3001, 2739.899
262.7823, 2667.318
263.2644, 2594.431
263.7465, 2518.709
264.2286, 2447.498
264.7107, 2390.291
265.1928, 2350.244
265.6750, 2311.618
266.1571, 2271.154
266.6392, 2229.657
267.1213, 2191.418
267.6034, 2157.464
268.0855, 2125.528
268.5677, 2091.995
269.0498, 2054.149
269.5319, 2026.117
270.0140, 2013.281
270.4961, 2013.574
270.9782, 2006.749
271.4604, 1989.972
271.9425, 1971.984
272.4246, 1960.501
272.9067, 1956.060
273.3888, 1955.482
273.8709, 1958.353
274.3531, 1964.547
274.8352, 1973.944
275.3173, 1987.063
275.7994, 2001.859
276.2815, 2017.069
276.7636, 2032.707
277.2457, 2046.858
277.7278, 2058.696
278.2100, 2068.539
278.6921, 2078.025
279.1742, 2086.885
279.6563, 2096.176
280.1384, 2107.728
280.6205, 2121.584
281.1027, 2133.450
281.5848, 2142.017
282.0669, 2147.805
282.5490, 2150.160
283.0311, 2147.001
283.5132, 2150.363
283.9954, 2176.134
284.4775, 2224.243
284.9596, 2267.667
285.4417, 2301.220
285.9238, 2325.728
286.4059, 2339.872
286.8881, 2341.877
287.3702, 2346.987
287.8523, 2371.408
288.3344, 2413.524
288.8165, 2455.560
289.2986, 2495.156
289.7808, 2531.254
290.2629, 2558.875
290.7450, 2577.339
291.2271, 2595.997
291.7092, 2626.704
292.1913, 2666.082
292.6735, 2698.025
293.1556, 2719.992
293.6377, 2730.694
294.1198, 2723.025
294.6019, 2697.191
295.0840, 2667.365
295.5662, 2644.284
296.0483, 2626.153
296.5304, 2607.341
297.0125, 2585.877
297.4946, 2563.979
297.9767, 2546.242
298.4589, 2532.234
298.9410, 2518.335
299.4231, 2499.233
299.9052, 2478.265
300.3873, 2463.551
300.8694, 2458.700
301.3516, 2457.957
301.8337, 2454.725
302.3158, 2449.196
302.7979, 2443.126
303.2800, 2436.778
303.7621, 2430.735
304.2443, 2426.665
304.7264, 2427.554
305.2085, 2425.998
305.6906, 2410.863
306.1727, 2385.729
306.6548, 2364.118
307.1370, 2363.117
307.6191, 2367.185
308.1012, 2357.757
308.5833, 2328.616
309.0654, 2291.374
309.5475, 2252.335
310.0297, 2212.257
310.5118, 2172.418
310.9939, 2132.316
311.4760, 2093.980
311.9581, 2058.755
312.4402, 2027.270
312.9224, 1998.514
313.4045, 1971.564
313.8866, 1946.518
314.3687, 1924.237
314.8508, 1908.081
315.3329, 1892.794
315.8151, 1872.852
316.2972, 1842.456
316.7793, 1821.523
317.2614, 1825.059
317.7435, 1842.845
318.2256, 1856.629
318.7078, 1856.267
319.1899, 1853.618
319.6720, 1853.499
320.1541, 1855.871
320.6362, 1862.902
321.1183, 1876.651
321.6005, 1894.990
322.0826, 1914.889
322.5647, 1940.649
323.0468, 1963.392
323.5289, 1976.884
324.0110, 1976.182
324.4932, 1986.661
324.9753, 2020.398
325.4574, 2063.960
325.9395, 2102.099
326.4216, 2129.463
326.9037, 2155.267
327.3859, 2183.338
327.8680, 2215.750
328.3501, 2238.253
328.8322, 2248.348
329.3143, 2249.681
329.7964, 2245.578
330.2786, 2236.949
330.7607, 2221.646
331.2428, 2197.167
331.7249, 2163.575
332.2070, 2133.005
332.6891, 2112.342
333.1712, 2088.088
333.6534, 2047.664
334.1355, 1979.186
334.6176, 1918.726
335.0997, 1872.559
335.5818, 1839.463
336.0639, 1806.501
336.5461, 1772.389
337.0282, 1740.283
337.5103, 1710.809
337.9924, 1683.156
338.4745, 1662.717
338.9566, 1651.839
339.4388, 1648.044
339.9209, 1643.026
340.4030, 1637.167
340.8851, 1628.886
341.3672, 1616.012
341.8493, 1598.056
342.3315, 1584.111
342.8136, 1576.718
343.2957, 1571.315
343.7778, 1554.575
344.2599, 1525.629
344.7420, 1502.542
345.2242, 1500.285
345.7063, 1515.241
346.1884, 1523.757
346.6705, 1523.154
347.1526, 1519.315
347.6347, 1522.264
348.1169, 1530.773
348.5990, 1536.207
349.0811, 1528.655
349.5632, 1515.287
350.0453, 1514.383
350.5274, 1527.837
351.0096, 1544.999
351.4917, 1558.256
351.9738, 1566.817
352.4559, 1568.743
352.9380, 1557.301
353.4201, 1541.570
353.9023, 1531.683
354.3844, 1527.801
354.8665, 1530.857
355.3486, 1547.360
355.8307, 1570.078
356.3128, 1588.605
356.7950, 1598.830
357.2771, 1603.336
357.7592, 1600.501
358.2413, 1591.574
358.7234, 1586.224
359.2055, 1590.843
359.6877, 1601.072
360.1698, 1613.139
360.6519, 1629.575
361.1340, 1643.213
361.6161, 1648.447
362.0982, 1647.739
362.5804, 1649.938
363.0625, 1665.131
363.5446, 1679.394
364.0267, 1684.278
364.5088, 1674.959
364.9909, 1662.229
365.4731, 1645.607
365.9552, 1627.146
366.4373, 1611.304
366.9194, 1603.271
367.4015, 1594.124
367.8836, 1580.065
368.3658, 1557.842
368.8479, 1538.148
369.3300, 1522.630
369.8121, 1509.282
370.2942, 1495.442
370.7763, 1478.352
371.2585, 1464.249
371.7406, 1455.581
372.2227, 1453.338
372.7048, 1448.294
373.1869, 1438.411
373.6690, 1427.828
374.1512, 1420.740
374.6333, 1418.089
375.1154, 1416.463
375.5975, 1415.731
376.0796, 1415.606
376.5617, 1413.115
377.0439, 1407.034
377.5260, 1402.086
378.0081, 1403.344
378.4902, 1411.467
378.9723, 1417.081
379.4544, 1419.286
379.9366, 1417.986
380.4187, 1409.627
380.9008, 1393.611
381.3829, 1383.111
381.8650, 1392.815
382.3471, 1417.129
382.8293, 1427.639
383.3114, 1419.193
383.7935, 1404.388
384.2756, 1400.181
384.7577, 1405.017
385.2398, 1410.965
385.7219, 1415.079
386.2040, 1417.443
386.6862, 1416.828
387.1683, 1412.726
387.6504, 1410.808
388.1325, 1419.803
388.6146, 1434.201
389.0967, 1443.662
389.5789, 1441.360
390.0610, 1434.631
390.5431, 1427.847
391.0252, 1421.229
391.5073, 1416.567
391.9894, 1413.872
392.4716, 1414.090
392.9537, 1418.453
393.4358, 1433.952
393.9179, 1445.584
394.4000, 1445.844
394.8821, 1437.220
395.3643, 1428.705
395.8464, 1423.236
396.3285, 1418.334
396.8106, 1411.840
397.2927, 1397.678
397.7748, 1392.778
398.2570, 1405.326
398.7391, 1427.656
399.2212, 1445.283
399.7033, 1456.678
400.1854, 1464.399
400.6675, 1467.691
401.1497, 1464.661
401.6318, 1466.885
402.1139, 1477.775
402.5960, 1491.104
403.0781, 1499.532
403.5602, 1499.849
404.0424, 1502.884
404.5245, 1511.362
405.0066, 1524.575
405.4887, 1537.695
405.9708, 1551.277
406.4529, 1563.374
406.9351, 1570.608
407.4172, 1572.319
407.8993, 1580.839
408.3814, 1599.365
408.8635, 1623.752
409.3456, 1644.724
409.8278, 1662.399
410.3099, 1681.069
410.7920, 1707.663
411.2741, 1737.650
411.7562, 1750.650
412.2383, 1741.215
412.7205, 1734.199
413.2026, 1762.944
413.6847, 1818.277
414.1668, 1872.031
414.6489, 1908.433
415.1310, 1938.784
415.6132, 1979.599
416.0953, 2030.986
416.5774, 2076.514
417.0595, 2105.995
417.5416, 2123.779
418.0237, 2135.100
418.5059, 2135.987
418.9880, 2136.940
419.4701, 2149.574
419.9522, 2168.629
420.4343, 2174.204
420.9164, 2153.844
421.3986, 2121.580
421.8807, 2083.778
422.3628, 2037.839
422.8449, 1994.844
423.3270, 1956.923
423.8091, 1923.587
424.2913, 1893.334
424.7734, 1864.555
425.2555, 1841.222
425.7376, 1827.198
426.2197, 1824.917
426.7018, 1813.505
427.1840, 1785.344
427.6661, 1754.755
428.1482, 1735.084
428.6303, 1729.547
429.1124, 1726.708
429.5945, 1725.516
430.0767, 1725.591
430.5588, 1724.712
431.0409, 1722.074
431.5230, 1721.271
432.0051, 1724.764
432.4872, 1732.578
432.9694, 1742.785
433.4515, 1756.127
433.9336, 1770.156
434.4157, 1779.921
434.8978, 1786.047
435.3799, 1794.170
435.8621, 1808.870
436.3442, 1827.156
436.8263, 1841.935
437.3084, 1853.126
437.7905, 1863.529
438.2726, 1872.716
438.7548, 1883.237
439.2369, 1899.607
439.7190, 1924.733
440.2011, 1954.641
440.6832, 1989.592
441.1653, 2027.571
441.6474, 2060.110
442.1295, 2077.683
442.6117, 2091.524
443.0938, 2110.532
443.5759, 2139.519
444.0580, 2165.410
444.5401, 2177.615
445.0222, 2185.031
445.5044, 2201.267
445.9865, 2240.097
446.4686, 2277.314
446.9507, 2307.158
447.4328, 2329.773
447.9149, 2343.477
448.3971, 2346.075
448.8792, 2341.457
449.3613, 2332.408
449.8434, 2318.597
450.3255, 2300.184
450.8076, 2273.834
451.2898, 2243.689
451.7719, 2226.705
452.2540, 2227.698
452.7361, 2227.158
453.2182, 2211.015
453.7003, 2179.035
454.1825, 2159.863
454.6646, 2155.219
455.1467, 2160.680
455.6288, 2176.963
456.1109, 2201.663
456.5930, 2215.038
457.0752, 2202.180
457.5573, 2177.346
458.0394, 2168.121
458.5215, 2173.741
459.0036, 2183.687
459.4857, 2189.334
459.9679, 2194.454
460.4500, 2205.290
460.9321, 2226.563
461.4142, 2246.853
461.8963, 2259.354
462.3784, 2264.839
462.8606, 2265.286
463.3427, 2260.291
463.8248, 2251.438
464.3069, 2237.598
464.7890, 2217.250
465.2711, 2202.003
465.7533, 2197.099
466.2354, 2197.434
466.7175, 2198.384
467.1996, 2202.919
467.6817, 2203.777
468.1638, 2195.476
468.6460, 2181.431
469.1281, 2180.347
469.6102, 2202.890
470.0923, 2223.141
470.5744, 2226.650
471.0565, 2206.356
471.5387, 2195.348
472.0208, 2194.869
472.5029, 2201.880
472.9850, 2213.891
473.4671, 2231.416
473.9492, 2246.826
474.4314, 2256.740
474.9135, 2263.036
475.3956, 2271.129
475.8777, 2281.133
476.3598, 2293.767
476.8419, 2313.113
477.3241, 2335.337
477.8062, 2350.571
478.2883, 2354.962
478.7704, 2356.810
479.2525, 2366.188
479.7346, 2379.659
480.2168, 2388.575
480.6989, 2392.615
481.1810, 2387.769
481.6631, 2370.244
482.1452, 2339.526
482.6273, 2301.242
483.1095, 2248.193
483.5916, 2193.432
484.0737, 2148.967
484.5558, 2130.302
485.0379, 2106.247
485.5201, 2070.461
486.0022, 2025.406
486.4843, 1980.240
486.9664, 1927.684
487.4485, 1883.803
487.9306, 1855.922
488.4128, 1848.402
488.8949, 1837.381
489.3770, 1822.717
489.8591, 1804.782
490.3412, 1781.440
490.8233, 1750.688
491.3055, 1730.242
491.7876, 1728.239
492.2697, 1736.571
492.7518, 1730.576
493.2339, 1710.290
493.7160, 1689.612
494.1982, 1679.049
494.6803, 1675.162
495.1624, 1669.731
495.6445, 1661.546
496.1266, 1653.586
496.6087, 1648.491
497.0908, 1645.571
497.5729, 1643.428
498.0551, 1642.235
498.5372, 1641.095
499.0193, 1639.019
499.5014, 1636.273
499.9835, 1634.548
500.4656, 1637.297
500.9478, 1639.410
501.4299, 1636.955
501.9120, 1624.284
502.3941, 1616.976
502.8762, 1619.518
503.3583, 1627.999
503.8405, 1636.901
504.3226, 1651.692
504.8047, 1658.226
505.2868, 1648.438
505.7689, 1623.995
506.2510, 1618.432
506.7332, 1639.484
507.2153, 1662.266
507.6974, 1666.007
508.1795, 1650.005
508.6616, 1641.670
509.1437, 1645.019
509.6259, 1653.728
510.1080, 1657.868
510.5901, 1658.147
511.0722, 1659.096
511.5543, 1663.625
512.0364, 1669.690
512.5186, 1672.170
513.0007, 1671.606
513.4828, 1675.465
513.9649, 1695.061
514.4470, 1719.349
514.9291, 1736.107
515.4113, 1741.502
515.8934, 1741.230
516.3755, 1729.364
516.8576, 1714.757
517.3397, 1713.435
517.8218, 1745.340
518.3040, 1775.869
518.7861, 1793.348
519.2682, 1796.282
519.7503, 1798.552
520.2324, 1798.323
520.7145, 1799.354
521.1967, 1803.941
521.6788, 1812.196
522.1609, 1823.958
522.6430, 1839.785
523.1251, 1858.670
523.6072, 1880.575
524.0894, 1906.296
524.5715, 1925.262
525.0536, 1927.392
525.5357, 1920.128
526.0178, 1932.287
526.4999, 1964.278
526.9821, 2000.199
527.4642, 2025.465
527.9463, 2045.705
528.4284, 2071.341
528.9105, 2106.022
529.3926, 2142.279
529.8748, 2170.980
530.3569, 2196.895
530.8390, 2228.627
531.3211, 2269.983
531.8032, 2317.637
532.2853, 2374.760
532.7675, 2441.122
533.2496, 2498.758
533.7317, 2531.225
534.2138, 2563.414
534.6959, 2610.895
535.1780, 2679.106
535.6602, 2752.670
536.1423, 2830.051
536.6244, 2914.613
537.1065, 3016.194
537.5886, 3139.677
538.0707, 3261.129
538.5529, 3370.689
539.0350, 3473.205
539.5171, 3598.082
539.9992, 3746.402
540.4813, 3904.360
540.9634, 4058.943
541.4456, 4215.321
541.9277, 4385.599
542.4098, 4571.647
542.8919, 4767.799
543.3740, 4964.107
543.8561, 5162.823
544.3383, 5366.757
544.8204, 5579.871
545.3025, 5796.125
545.7846, 6014.080
546.2667, 6231.890
546.7488, 6440.615
547.2310, 6640.858
547.7131, 6825.231
548.1952, 6995.628
548.6773, 7165.480
549.1594, 7281.798
549.6415, 7327.513
550.1237, 7330.592
550.6058, 7320.444
551.0879, 7298.480
551.5700, 7260.824
552.0521, 7209.250
552.5342, 7140.541
553.0164, 7036.361
553.4985, 6892.621
553.9806, 6748.969
554.4627, 6629.756
554.9448, 6528.758
555.4269, 6422.938
555.9091, 6310.762
556.3912, 6200.211
556.8733, 6087.860
557.3554, 5985.497
557.8375, 5916.234
558.3196, 5898.467
558.8018, 5895.975
559.2839, 5883.097
559.7660, 5866.512
560.2481, 5861.376
560.7302, 5871.259
561.2123, 5895.315
561.6945, 5936.085
562.1766, 5994.471
562.6587, 6055.356
563.1408, 6106.514
563.6229, 6168.553
564.1050, 6257.987
564.5872, 6392.800
565.0693, 6507.214
565.5514, 6590.113
566.0335, 6662.390
566.5156, 6763.860
566.9977, 6896.153
567.4799, 7025.030
567.9620, 7141.362
568.4441, 7243.989
568.9262, 7331.214
569.4083, 7402.737
569.8904, 7444.707
570.3726, 7444.451
570.8547, 7410.693
571.3368, 7356.434
571.8189, 7285.119
572.3010, 7184.246
572.7831, 7038.840
573.2653, 6862.363
573.7474, 6673.532
574.2295, 6468.967
574.7116, 6259.460
575.1937, 6045.252
575.6758, 5825.878
576.1580, 5606.817
576.6401, 5381.645
577.1222, 5162.043
577.6042, 4949.880
578.0864, 4741.622
578.5685, 4555.952
579.0506, 4393.911
579.5327, 4249.259
580.0148, 4115.745
580.4969, 3993.913
580.9791, 3883.800
581.4612, 3786.588
581.9433, 3697.988
582.4254, 3614.081
582.9075, 3535.598
583.3896, 3466.162
583.8718, 3415.062
584.3539, 3368.343
584.8360, 3308.032
585.3181, 3237.860
585.8002, 3179.361
586.2823, 3152.016
586.7645, 3133.614
587.2466, 3111.443
587.7287, 3083.575
588.2108, 3053.223
588.6929, 3009.590
589.1750, 2970.146
589.6572, 2952.877
590.1393, 2971.834
590.6214, 2982.303
591.1035, 2977.672
591.5856, 2962.532
592.0677, 2948.433
592.5499, 2935.579
593.0320, 2921.914
593.5141, 2905.948
593.9962, 2888.434
594.4783, 2870.629
594.9604, 2852.490
595.4426, 2839.072
595.9247, 2842.712
596.4068, 2850.104
596.8889, 2840.872
597.3710, 2806.277
597.8531, 2772.644
598.3353, 2756.224
598.8174, 2748.629
599.2995, 2738.789
599.7816, 2725.489
600.2637, 2707.969
600.7458, 2684.027
601.2280, 2655.061
601.7101, 2627.721
602.1922, 2603.301
602.6743, 2578.431
603.1564, 2551.896
