##NAMES=Sekaninaite
##RRUFFID=R061053
##IDEAL CHEMISTRY=Fe^2+^_2_Al_3_(AlSi_5_)O_18_
##LOCALITY=Dolni Borg, Czechoslovakia
##OWNER=RRUFF
##SOURCE=Royal Ontario Museum
##DESCRIPTION=Grayish blue massive showing well-developed parting
##STATUS=The identification of this mineral has been confirmed by X-ray diffraction and chemical analysis
##URL=rruff.info/R061053
##MEASURED CHEMISTRY=(Fe^2+^_1.67_Mg_0.15_Mn_0.10_[box]_0.07_Ca_0.01_)_Σ=2_Al_4.00_(Si_4.89_Al_0.11_)_Σ=5_(O_17.89_(OH)_0.11_)_Σ=18_ ·Na_0.14_
117.1891, 245.1733
117.6712, 244.3498
118.1533, 240.5603
118.6354, 233.2073
119.1175, 217.7799
119.5997, 207.1357
120.0818, 207.8372
120.5639, 215.2280
121.0460, 222.4494
121.5281, 225.3776
122.0102, 224.7570
122.4924, 225.1066
122.9745, 225.2233
123.4566, 228.0747
123.9387, 234.4726
124.4208, 244.1162
124.9029, 256.3732
125.3851, 270.9275
125.8672, 287.8348
126.3493, 306.1967
126.8314, 322.3185
127.3135, 343.5447
127.7956, 374.8772
128.2778, 414.1422
128.7599, 455.5002
129.2420, 493.1864
129.7241, 526.1852
130.2062, 560.8504
130.6884, 612.8097
131.1705, 653.5225
131.6526, 668.6428
132.1347, 658.3037
132.6168, 631.4370
133.0989, 596.4224
133.5811, 547.5137
134.0632, 507.6210
134.5453, 478.6802
135.0274, 455.4332
135.5095, 434.6947
135.9916, 415.9093
136.4738, 400.0438
136.9559, 388.2792
137.4380, 379.6824
137.9201, 379.1584
138.4022, 392.3969
138.8843, 409.7211
139.3665, 422.2654
139.8486, 427.9519
140.3307, 432.5550
140.8128, 445.3289
141.2949, 472.4099
141.7770, 497.8871
142.2592, 517.9321
142.7413, 537.5856
143.2234, 562.2446
143.7055, 593.5946
144.1876, 629.8549
144.6697, 668.4675
145.1519, 710.5408
145.6340, 752.5264
146.1161, 795.9298
146.5982, 838.5056
147.0803, 876.4567
147.5624, 908.2105
148.0446, 936.3752
148.5267, 967.1222
149.0088, 1002.894
149.4909, 1035.610
149.9730, 1065.785
150.4551, 1091.521
150.9372, 1108.702
151.4194, 1115.278
151.9015, 1113.322
152.3836, 1107.743
152.8657, 1100.723
153.3478, 1087.392
153.8299, 1063.366
154.3121, 1031.309
154.7942, 997.9626
155.2763, 965.9673
155.7584, 934.4807
156.2405, 901.3723
156.7226, 864.0082
157.2048, 829.9868
157.6869, 804.5409
158.1690, 786.1979
158.6511, 767.7951
159.1332, 744.9990
159.6153, 721.8859
160.0975, 705.9125
160.5796, 697.7291
161.0617, 694.9376
161.5438, 699.2729
162.0259, 709.5077
162.5080, 716.1524
162.9902, 713.4237
163.4723, 705.3243
163.9544, 699.9283
164.4365, 698.6735
164.9186, 698.1498
165.4007, 695.7729
165.8829, 691.6179
166.3650, 687.1040
166.8471, 681.7990
167.3292, 677.1940
167.8113, 675.4614
168.2934, 677.7635
168.7756, 681.3455
169.2577, 684.2430
169.7398, 686.4792
170.2219, 687.4708
170.7040, 686.1754
171.1861, 683.8077
171.6683, 682.0601
172.1504, 681.6315
172.6325, 681.0645
173.1146, 678.8823
173.5967, 675.0130
174.0788, 670.2411
174.5610, 662.9653
175.0431, 655.7714
175.5252, 652.0060
176.0073, 653.3264
176.4894, 656.1880
176.9715, 654.0496
177.4537, 645.1099
177.9358, 644.4469
178.4179, 673.1848
178.9000, 707.3781
179.3821, 721.2794
179.8642, 704.3798
180.3464, 675.5482
180.8285, 656.7192
181.3106, 648.8688
181.7927, 645.4696
182.2748, 647.4904
182.7569, 651.4048
183.2391, 654.4386
183.7212, 656.1182
184.2033, 656.1168
184.6854, 653.1495
185.1675, 646.3784
185.6496, 640.8482
186.1318, 639.3917
186.6139, 639.7563
187.0960, 639.6805
187.5781, 637.9226
188.0602, 637.4765
188.5423, 643.9423
189.0245, 659.4557
189.5066, 671.9100
189.9887, 673.6973
190.4708, 671.9469
190.9529, 672.4006
191.4350, 676.9238
191.9172, 682.7076
192.3993, 685.8295
192.8814, 685.6006
193.3635, 685.8746
193.8456, 689.1100
194.3277, 692.7935
194.8099, 694.6070
195.2920, 693.6876
195.7741, 692.2098
196.2562, 694.1870
196.7383, 701.1999
197.2204, 703.9999
197.7026, 695.3857
198.1847, 683.6046
198.6668, 674.5868
199.1489, 669.8424
199.6310, 666.7156
200.1131, 661.0989
200.5953, 652.0049
201.0774, 646.0884
201.5595, 651.4943
202.0416, 657.2943
202.5237, 654.3494
203.0058, 640.2501
203.4880, 623.9618
203.9701, 616.7189
204.4522, 620.0437
204.9343, 621.4982
205.4164, 616.2601
205.8985, 609.1090
206.3807, 602.8491
206.8628, 597.9352
207.3449, 593.9409
207.8270, 590.1500
208.3091, 586.4174
208.7912, 584.4404
209.2734, 586.5214
209.7555, 589.1703
210.2376, 590.7901
210.7197, 591.1197
211.2018, 588.9612
211.6839, 579.8909
212.1661, 563.3159
212.6482, 556.2163
213.1303, 571.5202
213.6124, 589.3444
214.0945, 595.3669
214.5766, 589.1186
215.0588, 581.2608
215.5409, 580.8347
216.0230, 587.6556
216.5051, 595.1956
216.9872, 603.4020
217.4693, 611.3043
217.9515, 618.2235
218.4336, 624.2032
218.9157, 629.9412
219.3978, 635.1202
219.8799, 640.0335
220.3620, 647.9079
220.8442, 662.3259
221.3263, 675.8842
221.8084, 682.8671
222.2905, 684.3316
222.7726, 685.8151
223.2547, 690.7586
223.7369, 698.7048
224.2190, 707.1061
224.7011, 715.1130
225.1832, 724.8176
225.6653, 737.3017
226.1474, 752.3113
226.6296, 769.2476
227.1117, 787.8336
227.5938, 808.0205
228.0759, 830.7287
228.5580, 858.1272
229.0401, 883.4223
229.5223, 901.1939
230.0044, 913.7040
230.4865, 925.4742
230.9686, 939.9831
231.4507, 954.7157
231.9328, 963.1149
232.4150, 962.3232
232.8971, 963.4520
233.3792, 976.7908
233.8613, 996.5052
234.3434, 1012.999
234.8255, 1020.492
235.3077, 1024.793
235.7898, 1036.479
236.2719, 1057.765
236.7540, 1073.668
237.2361, 1071.039
237.7182, 1058.414
238.2004, 1049.606
238.6825, 1051.922
239.1646, 1054.003
239.6467, 1041.391
240.1288, 1013.696
240.6109, 988.2254
241.0931, 971.3116
241.5752, 963.1387
242.0573, 962.5244
242.5394, 969.8424
243.0215, 984.0250
243.5036, 1005.004
243.9858, 1032.531
244.4679, 1064.664
244.9500, 1100.405
245.4321, 1141.149
245.9142, 1187.904
246.3963, 1241.219
246.8785, 1298.191
247.3606, 1353.059
247.8427, 1409.398
248.3248, 1481.231
248.8069, 1576.328
249.2890, 1683.702
249.7712, 1788.711
250.2533, 1892.232
250.7354, 1988.929
251.2175, 2074.923
251.6996, 2152.241
252.1817, 2228.985
252.6639, 2309.929
253.1460, 2378.400
253.6281, 2409.460
254.1102, 2403.229
254.5923, 2376.697
255.0744, 2332.769
255.5566, 2269.936
256.0387, 2181.414
256.5208, 2066.260
257.0029, 1941.165
257.4850, 1820.848
257.9671, 1705.626
258.4492, 1600.822
258.9314, 1511.907
259.4135, 1430.284
259.8956, 1346.701
260.3777, 1261.515
260.8598, 1184.940
261.3419, 1125.238
261.8241, 1083.709
262.3062, 1044.217
262.7883, 1005.796
263.2704, 970.3134
263.7525, 938.9895
264.2346, 911.3290
264.7168, 885.2731
265.1989, 859.4468
265.6810, 834.0452
266.1631, 811.9678
266.6452, 795.8478
267.1273, 779.3963
267.6095, 758.1388
268.0916, 735.9300
268.5737, 720.2056
269.0558, 714.9929
269.5379, 716.1531
270.0201, 710.9531
270.5022, 688.2872
270.9843, 672.2129
271.4664, 666.0022
271.9485, 665.8013
272.4306, 668.9903
272.9128, 674.3746
273.3949, 679.8694
273.8770, 681.5327
274.3591, 676.3971
274.8412, 672.6329
275.3233, 669.7357
275.8055, 668.3435
276.2876, 669.9114
276.7697, 674.0972
277.2518, 678.1536
277.7339, 677.9294
278.2160, 670.9384
278.6982, 670.2682
279.1803, 683.2109
279.6624, 695.8065
280.1445, 701.7134
280.6266, 701.8112
281.1087, 700.5859
281.5909, 700.6701
282.0730, 702.2427
282.5551, 709.4284
283.0372, 727.4069
283.5193, 745.2115
284.0014, 760.8069
284.4836, 773.5134
284.9657, 781.6226
285.4478, 782.3235
285.9299, 779.7587
286.4120, 786.2421
286.8941, 805.0094
287.3763, 825.7951
287.8584, 846.3514
288.3405, 866.3911
288.8226, 885.6041
289.3047, 903.8675
289.7868, 921.1863
290.2690, 937.8328
290.7511, 953.9320
291.2332, 968.0335
291.7153, 977.8549
292.1974, 986.6338
292.6795, 998.1312
293.1617, 1013.065
293.6438, 1026.288
294.1259, 1035.428
294.6080, 1039.984
295.0901, 1036.413
295.5722, 1020.447
296.0544, 1001.428
296.5365, 988.7094
297.0186, 981.7485
297.5007, 975.2692
297.9828, 967.8751
298.4649, 959.4176
298.9471, 948.3948
299.4292, 933.8296
299.9113, 921.6235
300.3934, 918.8923
300.8755, 923.9630
301.3576, 924.5485
301.8398, 915.8074
302.3219, 904.8142
302.8040, 896.8272
303.2861, 891.7397
303.7682, 887.3476
304.2503, 882.1309
304.7325, 876.6459
305.2146, 873.4659
305.6967, 875.7867
306.1788, 876.5113
306.6609, 873.5748
307.1430, 867.4298
307.6252, 858.7780
308.1073, 847.9065
308.5894, 834.9521
309.0715, 820.3764
309.5536, 804.5016
310.0357, 785.9910
310.5179, 763.1030
311.0000, 738.4681
311.4821, 713.9436
311.9642, 690.0589
312.4463, 666.9948
312.9284, 644.7551
313.4106, 622.3533
313.8927, 604.9332
314.3748, 593.9568
314.8569, 585.6244
315.3390, 578.8042
315.8211, 573.1544
316.3033, 568.6497
316.7854, 565.4767
317.2675, 563.4406
317.7496, 560.1537
318.2317, 552.9825
318.7138, 547.9121
319.1960, 547.2457
319.6781, 549.1539
320.1602, 550.5365
320.6423, 549.5389
321.1244, 549.3649
321.6065, 558.4074
322.0887, 581.4641
322.5708, 598.6213
323.0529, 599.2194
323.5350, 595.6316
324.0171, 595.9192
324.4992, 601.5756
324.9814, 610.9091
325.4635, 623.5352
325.9456, 639.2478
326.4277, 654.1352
326.9098, 667.2270
327.3919, 679.9063
327.8741, 695.1488
328.3562, 711.8765
328.8383, 723.8900
329.3204, 728.7581
329.8025, 727.1844
330.2846, 718.5973
330.7668, 702.2407
331.2489, 685.4355
331.7310, 674.4057
332.2131, 667.0524
332.6952, 655.5768
333.1773, 636.0260
333.6595, 615.3606
334.1416, 597.8122
334.6237, 582.8336
335.1058, 569.1633
335.5879, 556.6813
336.0700, 544.4173
336.5522, 529.2927
337.0343, 506.2343
337.5164, 489.9877
337.9985, 488.5319
338.4806, 492.6340
338.9627, 491.7984
339.4449, 483.6615
339.9270, 472.8906
340.4091, 465.1861
340.8912, 461.5556
341.3733, 457.2987
341.8554, 452.4726
342.3376, 447.0733
342.8197, 440.2791
343.3018, 432.8241
343.7839, 426.3545
344.2660, 422.0132
344.7481, 419.7169
345.2303, 418.9488
345.7124, 421.4247
346.1945, 423.1981
346.6766, 423.2120
347.1587, 422.3106
347.6408, 421.5219
348.1230, 421.2327
348.6051, 420.9339
349.0872, 419.3280
349.5693, 415.7026
350.0514, 414.2110
350.5335, 418.7905
351.0157, 423.2272
351.4978, 422.0984
351.9799, 415.8987
352.4620, 411.6740
352.9441, 417.1953
353.4262, 429.0099
353.9084, 433.5969
354.3905, 427.5632
354.8726, 420.9252
355.3547, 421.7597
355.8368, 427.4579
356.3189, 432.8772
356.8011, 436.3841
357.2832, 439.5709
357.7653, 444.3875
358.2474, 450.4742
358.7295, 455.1300
359.2116, 456.4458
359.6938, 456.2646
360.1759, 459.4503
360.6580, 467.3875
361.1401, 475.0705
361.6222, 482.0985
362.1043, 487.7805
362.5865, 490.9591
363.0686, 491.4351
363.5507, 490.4167
364.0328, 489.4524
364.5149, 489.0385
364.9970, 486.1001
365.4792, 479.9070
365.9613, 472.2557
366.4434, 463.3210
366.9255, 453.6294
367.4076, 444.1196
367.8897, 435.2958
368.3719, 427.1901
368.8540, 419.9653
369.3361, 413.9351
369.8182, 408.4347
370.3003, 404.8197
370.7824, 400.8614
371.2646, 393.1733
371.7467, 381.0840
372.2288, 369.8023
372.7109, 367.6448
373.1930, 375.4655
373.6751, 377.2008
374.1573, 366.0798
374.6394, 354.1039
375.1215, 348.2979
375.6036, 348.0416
376.0857, 350.5206
376.5678, 357.2419
377.0500, 364.8445
377.5321, 366.0091
378.0142, 359.9189
378.4963, 355.6725
378.9784, 360.0705
379.4605, 369.2334
379.9427, 372.9827
380.4248, 369.0237
380.9069, 363.2773
381.3890, 355.8805
381.8711, 349.0320
382.3532, 348.5628
382.8354, 356.7393
383.3175, 366.6842
383.7996, 368.4646
384.2817, 357.7244
384.7638, 352.2135
385.2459, 357.5988
385.7281, 363.3436
386.2102, 362.2280
386.6923, 355.2732
387.1744, 347.3931
387.6565, 341.6651
388.1386, 338.3527
388.6208, 339.4077
389.1029, 349.6481
389.5850, 357.8585
390.0671, 361.8705
390.5492, 363.4001
391.0313, 364.2925
391.5135, 365.0612
391.9956, 364.7901
392.4777, 361.0124
392.9598, 353.0595
393.4419, 349.8015
393.9240, 355.8266
394.4062, 362.5045
394.8883, 364.2854
395.3704, 362.2090
395.8525, 360.0593
396.3346, 360.4985
396.8167, 361.4738
397.2989, 358.3878
397.7810, 350.9193
398.2631, 346.8018
398.7452, 351.7568
399.2273, 361.5231
399.7094, 365.8200
400.1916, 361.4343
400.6737, 358.5509
401.1558, 362.5964
401.6379, 370.0844
402.1200, 375.7897
402.6021, 378.5538
403.0843, 380.0286
403.5664, 382.2010
404.0485, 385.5492
404.5306, 386.6429
405.0127, 382.2321
405.4948, 379.1474
405.9770, 380.9048
406.4591, 386.2549
406.9412, 392.4385
407.4233, 397.9829
407.9054, 403.2313
408.3875, 409.0872
408.8697, 416.1873
409.3518, 422.5248
409.8339, 425.5971
410.3160, 429.5006
410.7981, 438.0122
411.2802, 451.0353
411.7624, 464.1647
412.2445, 471.2557
412.7266, 474.6118
413.2087, 487.6268
413.6908, 515.1111
414.1729, 541.6232
414.6551, 554.1042
415.1372, 559.4962
415.6193, 570.4694
416.1014, 594.4123
416.5835, 617.3470
417.0656, 626.5927
417.5478, 626.1199
418.0299, 629.3140
418.5120, 641.6334
418.9941, 655.2452
419.4762, 658.3358
419.9583, 647.7301
420.4405, 636.2908
420.9226, 622.8897
421.4047, 609.9741
421.8868, 600.7524
422.3689, 593.8432
422.8510, 584.0924
423.3332, 567.6602
423.8153, 546.3058
424.2974, 529.1782
424.7795, 519.0064
425.2616, 509.2801
425.7437, 498.7791
426.2259, 488.5262
426.7080, 479.8401
427.1901, 472.8340
427.6722, 465.7086
428.1543, 454.3519
428.6364, 439.6707
429.1186, 434.1465
429.6007, 443.2910
430.0828, 452.8473
430.5649, 453.3200
431.0470, 447.9661
431.5291, 442.6296
432.0113, 437.0855
432.4934, 434.1336
432.9755, 438.5747
433.4576, 448.2323
433.9397, 454.0193
434.4218, 452.1026
434.9040, 447.2539
435.3861, 446.9225
435.8682, 452.5844
436.3503, 457.7152
436.8324, 464.1412
437.3145, 468.1929
437.7967, 463.0913
438.2788, 452.4699
438.7609, 448.7830
439.2430, 461.1315
439.7251, 485.2879
440.2072, 502.0945
440.6894, 505.9246
441.1715, 511.3845
441.6536, 521.4313
442.1357, 533.0001
442.6178, 544.5291
443.0999, 555.3638
443.5821, 563.8863
444.0642, 566.1739
444.5463, 563.9305
445.0284, 568.9350
445.5105, 584.8258
445.9926, 600.1113
446.4748, 606.5903
446.9569, 607.7887
447.4390, 609.8243
447.9211, 615.1850
448.4032, 619.1973
448.8853, 619.2512
449.3675, 615.6896
449.8496, 607.7274
450.3317, 594.6210
450.8138, 582.2576
451.2959, 579.0464
451.7780, 588.3571
452.2602, 591.0635
452.7423, 581.2042
453.2244, 571.0444
453.7065, 566.0143
454.1886, 565.2703
454.6707, 566.7044
455.1529, 569.4006
455.6350, 572.2382
456.1171, 572.1260
456.5992, 567.1512
457.0813, 564.7119
457.5634, 566.5420
458.0455, 570.6401
458.5276, 576.8571
459.0098, 584.6751
459.4919, 592.2327
459.9740, 599.3792
460.4561, 605.2229
460.9382, 607.3603
461.4203, 605.5861
461.9025, 603.4333
462.3846, 602.1777
462.8667, 601.8725
463.3488, 603.0966
463.8309, 607.7660
464.3130, 609.0065
464.7952, 599.4755
465.2773, 588.5521
465.7594, 588.8420
466.2415, 600.4908
466.7236, 612.1149
467.2057, 614.0098
467.6879, 606.8005
468.1700, 600.1504
468.6521, 590.7426
469.1342, 586.3085
469.6163, 593.6853
470.0984, 603.4380
470.5806, 604.3077
471.0627, 594.0397
471.5448, 583.0591
472.0269, 583.4766
472.5090, 594.2248
472.9911, 602.8351
473.4733, 607.8433
473.9554, 612.5146
474.4375, 619.3189
474.9196, 627.2589
475.4017, 634.5793
475.8839, 642.0804
476.3660, 647.3557
476.8481, 647.7088
477.3302, 644.8370
477.8123, 641.6339
478.2944, 638.7610
478.7766, 638.4753
479.2587, 644.7299
479.7408, 660.2427
480.2229, 666.0590
480.7050, 658.3330
481.1871, 646.5992
481.6693, 630.6586
482.1514, 614.1979
482.6335, 604.1915
483.1156, 603.8293
483.5977, 604.7874
484.0798, 591.2971
484.5620, 560.3032
485.0441, 536.2960
485.5262, 524.0721
486.0083, 517.1451
486.4904, 513.3981
486.9725, 511.4316
487.4547, 506.8333
487.9368, 495.6763
488.4189, 483.3550
488.9010, 475.4402
489.3831, 471.2274
489.8652, 468.1401
490.3474, 465.7807
490.8295, 462.3058
491.3116, 453.9754
491.7937, 436.8535
492.2758, 427.5582
492.7579, 433.6662
493.2401, 440.4399
493.7222, 438.7171
494.2043, 431.1395
494.6864, 425.5597
495.1685, 426.4509
495.6506, 429.7138
496.1328, 424.7952
496.6149, 407.6160
497.0970, 397.5452
497.5791, 403.2495
498.0612, 411.5446
498.5433, 414.6505
499.0255, 413.0418
499.5076, 410.1753
499.9897, 405.9573
500.4718, 402.3535
500.9539, 402.2124
501.4360, 405.1139
501.9182, 408.3717
502.4003, 410.9827
502.8824, 413.2630
503.3645, 415.8444
503.8466, 419.1878
504.3287, 421.4781
504.8109, 423.5229
505.2930, 423.7466
505.7751, 418.7429
506.2572, 411.1504
506.7393, 407.5785
507.2214, 412.1876
507.7036, 421.1959
508.1857, 425.3327
508.6678, 423.0387
509.1499, 421.7260
509.6320, 424.1626
510.1141, 426.3942
510.5963, 423.7125
511.0784, 417.8019
511.5605, 416.6960
512.0426, 427.8954
512.5247, 442.8588
513.0068, 452.7229
513.4890, 457.8061
513.9711, 459.5034
514.4532, 457.8114
514.9353, 454.5785
515.4174, 452.8505
515.8995, 453.0230
516.3817, 453.8339
516.8638, 454.6598
517.3459, 456.6852
517.8280, 462.0327
518.3101, 468.9588
518.7922, 473.2484
519.2744, 472.4707
519.7565, 470.0450
520.2386, 472.8986
520.7207, 481.8471
521.2028, 491.1336
521.6849, 502.6395
522.1671, 510.9223
522.6492, 508.8775
523.1313, 499.8795
523.6134, 496.9989
524.0955, 510.0640
524.5776, 525.8634
525.0598, 532.6332
525.5419, 533.1456
526.0240, 535.7209
526.5061, 543.2189
526.9882, 553.0439
527.4703, 561.4452
527.9525, 567.6539
528.4346, 576.1094
528.9167, 587.6998
529.3988, 600.2338
529.8809, 612.9620
530.3630, 626.0807
530.8452, 640.3232
531.3273, 655.9726
531.8094, 671.9036
532.2915, 685.8893
532.7736, 698.1922
533.2557, 713.5197
533.7379, 732.2797
534.2200, 754.3254
534.7021, 779.2624
535.1842, 807.5203
535.6663, 840.3878
536.1484, 879.9525
536.6306, 921.7739
537.1127, 963.0026
537.5948, 1005.338
538.0769, 1049.897
538.5590, 1097.399
539.0411, 1149.925
539.5233, 1209.885
540.0054, 1276.898
540.4875, 1350.748
540.9696, 1435.553
541.4517, 1521.004
541.9338, 1602.148
542.4160, 1683.627
542.8981, 1770.746
543.3802, 1864.160
543.8623, 1962.311
544.3444, 2067.545
544.8265, 2175.956
545.3087, 2277.785
545.7908, 2372.690
546.2729, 2466.698
546.7550, 2564.897
547.2371, 2663.485
547.7192, 2751.505
548.2014, 2835.898
548.6835, 2899.428
549.1656, 2932.502
549.6477, 2949.657
550.1298, 2963.389
550.6119, 2971.922
551.0941, 2964.816
551.5762, 2934.718
552.0583, 2886.021
552.5404, 2826.979
553.0225, 2753.873
553.5046, 2689.497
553.9868, 2644.902
554.4689, 2604.944
554.9510, 2556.850
555.4331, 2501.771
555.9152, 2445.826
556.3973, 2384.442
556.8795, 2328.796
557.3616, 2288.923
557.8437, 2261.882
558.3258, 2240.441
558.8079, 2222.005
559.2900, 2206.928
559.7722, 2194.703
560.2543, 2183.748
560.7364, 2184.631
561.2185, 2205.213
561.7006, 2229.644
562.1827, 2252.711
562.6649, 2277.530
563.1470, 2307.566
563.6291, 2343.971
564.1112, 2387.564
564.5933, 2442.763
565.0754, 2505.888
565.5576, 2564.635
566.0397, 2617.503
566.5218, 2668.844
567.0039, 2721.935
567.4860, 2775.481
567.9681, 2824.748
568.4503, 2875.838
568.9324, 2914.302
569.4145, 2933.799
569.8966, 2942.975
570.3787, 2953.184
570.8608, 2960.817
571.3430, 2950.330
571.8251, 2910.187
572.3072, 2846.813
572.7893, 2774.825
573.2714, 2693.832
573.7535, 2609.259
574.2357, 2524.036
574.7178, 2434.321
575.1999, 2334.110
575.6820, 2225.595
576.1641, 2121.188
576.6462, 2025.961
577.1284, 1934.389
577.6105, 1841.401
578.0926, 1749.750
578.5747, 1663.562
579.0568, 1584.050
579.5389, 1514.640
580.0211, 1461.177
580.5032, 1424.864
580.9853, 1383.805
581.4674, 1332.818
581.9495, 1284.302
582.4316, 1242.193
582.9138, 1204.176
583.3959, 1166.032
583.8780, 1126.705
584.3601, 1094.344
584.8422, 1078.306
585.3243, 1070.500
585.8065, 1056.607
586.2886, 1036.864
586.7707, 1023.652
587.2528, 1025.421
587.7349, 1033.849
588.2170, 1028.331
588.6992, 999.0304
589.1813, 975.2332
589.6634, 955.1099
590.1455, 941.7457
590.6276, 942.5161
591.1097, 950.3959
591.5919, 950.1163
592.0740, 932.9328
592.5561, 913.7363
593.0382, 915.8413
593.5203, 933.4201
594.0024, 934.1213
594.4846, 909.7405
594.9667, 884.0363
595.4488, 876.5512
595.9309, 884.4311
596.4130, 885.4531
596.8951, 875.9788
597.3773, 865.4088
597.8594, 853.0474
598.3415, 841.9096
598.8236, 836.5039
599.3057, 835.5588
599.7878, 832.3523
600.2700, 821.6603
600.7521, 806.0262
601.2342, 791.8947
601.7163, 779.5810
602.1984, 764.7587
602.6805, 744.4515
603.1627, 724.0511
603.6448, 709.5884
604.1269, 700.6674
604.6090, 693.3332
605.0911, 689.9739
605.5732, 685.0729
606.0554, 675.5027
606.5375, 662.9997
607.0196, 649.1156
607.5017, 634.6830
607.9838, 622.0809
608.4659, 614.9090
608.9481, 612.0434
609.4302, 602.5056
609.9123, 582.9705
610.3944, 566.4136
610.8765, 558.6822
