##NAMES=Selenium
##RRUFFID=R050656
##IDEAL CHEMISTRY=Se
##LOCALITY=Poison Creek, Valencia County, New Mexico, USA
##OWNER=RRUFF
##SOURCE=University of Arizona Mineral Museum
##DESCRIPTION=Gray metallic acicular crystals
##STATUS=The identification of this mineral is confirmed by single-crystal X-ray diffraction and chemical analysis.
##URL=rruff.info/R050656
##MEASURED CHEMISTRY=Se
92.02539, 10040.30
92.50751, 9846.776
92.98962, 9827.969
93.47174, 9959.014
93.95386, 10179.24
94.43597, 10357.41
94.91809, 10451.75
95.40021, 10491.07
95.88232, 10531.14
96.36444, 10589.78
96.84656, 10624.44
97.32867, 10631.11
97.81078, 10616.46
98.29290, 10587.09
98.77502, 10537.25
99.25713, 10444.57
99.73925, 10386.97
100.2214, 10372.22
100.7035, 10378.33
101.1856, 10410.04
101.6677, 10459.18
102.1498, 10499.12
102.6320, 10497.53
103.1141, 10438.44
103.5962, 10365.60
104.0783, 10255.02
104.5604, 10138.38
105.0425, 10057.08
105.5247, 10027.22
106.0068, 10017.71
106.4889, 9976.088
106.9710, 9904.934
107.4531, 9811.882
107.9352, 9689.225
108.4173, 9542.083
108.8995, 9396.320
109.3816, 9245.233
109.8637, 9113.129
110.3458, 9027.461
110.8279, 8996.992
111.3100, 8988.938
111.7922, 8961.988
112.2743, 8906.607
112.7564, 8863.716
113.2385, 8855.185
113.7206, 8858.563
114.2027, 8851.089
114.6849, 8820.248
115.1670, 8778.899
115.6491, 8773.667
116.1312, 8839.791
116.6133, 8904.712
117.0954, 8948.820
117.5776, 8984.487
118.0597, 9028.605
118.5418, 9091.319
119.0239, 9172.556
119.5060, 9295.846
119.9881, 9437.548
120.4703, 9631.274
120.9524, 9911.989
121.4345, 10266.96
121.9166, 10645.18
122.3987, 11000.57
122.8808, 11328.24
123.3630, 11653.31
123.8451, 12000.39
124.3272, 12333.22
124.8093, 12615.57
125.2914, 12842.85
125.7735, 13020.08
126.2557, 13107.82
126.7378, 13127.45
127.2199, 13192.68
127.7020, 13376.90
128.1841, 13645.14
128.6662, 13875.71
129.1483, 14008.24
129.6305, 14154.04
130.1126, 14400.20
130.5947, 14741.32
131.0768, 15113.15
131.5589, 15463.21
132.0410, 15787.84
132.5232, 16120.31
133.0053, 16454.99
133.4874, 16808.24
133.9695, 17186.30
134.4516, 17592.33
134.9337, 18026.37
135.4159, 18480.63
135.8980, 18904.30
136.3801, 19467.24
136.8622, 20181.59
137.3443, 21009.07
137.8264, 21919.14
138.3086, 22899.71
138.7907, 23955.76
139.2728, 25080.08
139.7549, 26389.12
140.2370, 27641.46
140.7191, 28982.40
141.2013, 30234.40
141.6834, 31172.30
142.1655, 31696.25
142.6476, 31772.37
143.1297, 31247.12
143.6118, 29963.96
144.0939, 28405.71
144.5761, 26651.73
145.0582, 24741.58
145.5403, 22828.40
146.0224, 20948.64
146.5045, 19167.64
146.9866, 17587.55
147.4688, 16242.20
147.9509, 15081.95
148.4330, 14079.90
148.9151, 13243.39
149.3972, 12513.05
149.8793, 11878.51
150.3615, 11318.11
150.8436, 10817.16
151.3257, 10369.51
151.8078, 9980.101
152.2899, 9673.484
152.7720, 9478.040
153.2542, 9318.393
153.7363, 9173.775
154.2184, 9035.192
154.7005, 8883.863
155.1826, 8698.988
155.6647, 8488.010
156.1469, 8333.029
156.6290, 8275.623
157.1111, 8241.570
157.5932, 8216.299
158.0753, 8199.077
158.5574, 8194.010
159.0396, 8205.655
159.5217, 8235.942
160.0038, 8265.743
160.4859, 8289.826
160.9680, 8318.036
161.4501, 8348.453
161.9323, 8384.714
162.4144, 8437.380
162.8965, 8517.865
163.3786, 8633.839
163.8607, 8753.706
164.3428, 8902.985
164.8250, 9038.664
165.3071, 9114.169
165.7892, 9125.767
166.2713, 9127.896
166.7534, 9186.049
167.2355, 9307.206
167.7177, 9439.366
168.1998, 9575.299
168.6819, 9720.776
169.1640, 9897.002
169.6461, 10120.20
170.1282, 10328.90
170.6104, 10419.66
171.0925, 10407.45
171.5746, 10417.06
172.0567, 10502.06
172.5388, 10646.59
173.0209, 10810.52
173.5031, 11006.49
173.9852, 11191.22
174.4673, 11328.84
174.9494, 11422.50
175.4315, 11503.85
175.9136, 11579.83
176.3958, 11651.95
176.8779, 11766.24
177.3600, 11984.83
177.8421, 12201.55
178.3242, 12341.75
178.8063, 12409.07
179.2885, 12469.05
179.7706, 12603.78
180.2527, 12842.55
180.7348, 13028.32
181.2169, 13118.21
181.6990, 13178.26
182.1812, 13235.47
182.6633, 13296.75
183.1454, 13357.38
183.6275, 13408.67
184.1096, 13438.36
184.5917, 13485.87
185.0738, 13570.85
185.5560, 13657.49
186.0381, 13716.67
186.5202, 13742.57
187.0023, 13754.17
187.4844, 13782.38
187.9665, 13823.96
188.4487, 13892.98
188.9308, 13991.70
189.4129, 14114.46
189.8950, 14271.13
190.3771, 14463.10
190.8592, 14656.33
191.3414, 14777.39
191.8235, 14760.51
192.3056, 14795.75
192.7877, 14933.42
193.2698, 15125.48
193.7519, 15307.94
194.2341, 15457.13
194.7162, 15593.82
195.1983, 15763.39
195.6804, 15968.83
196.1625, 16181.64
196.6446, 16382.17
197.1268, 16584.19
197.6089, 16819.82
198.0910, 17100.89
198.5731, 17420.89
199.0552, 17766.04
199.5373, 18137.50
200.0195, 18527.18
200.5016, 18941.89
200.9837, 19377.44
201.4658, 19804.41
201.9479, 20203.67
202.4300, 20605.59
202.9122, 21035.35
203.3943, 21496.43
203.8764, 21974.50
204.3585, 22441.61
204.8406, 22899.00
205.3227, 23423.44
205.8048, 24045.15
206.2870, 24738.77
206.7691, 25456.84
207.2512, 26195.39
207.7333, 27040.76
208.2154, 28038.40
208.6975, 29162.59
209.1797, 30597.57
209.6618, 32283.12
210.1439, 34371.63
210.6260, 36911.17
211.1081, 39932.32
211.5902, 43540.26
212.0724, 47912.17
212.5545, 53118.70
213.0366, 58845.55
213.5187, 65450.45
214.0008, 72222.88
214.4829, 78928.17
214.9651, 85424.59
215.4472, 91586.30
215.9293, 97170.88
216.4114, 101925.2
216.8935, 106583.3
217.3756, 111250.9
217.8578, 115790.9
218.3399, 120107.3
218.8220, 124172.8
219.3041, 128110.6
219.7862, 132068.1
220.2683, 136028.0
220.7505, 140042.7
221.2326, 143838.1
221.7147, 147858.5
222.1968, 152490.9
222.6789, 157812.3
223.1610, 163565.3
223.6432, 169328.0
224.1253, 174663.1
224.6074, 181110.2
225.0895, 188782.4
225.5716, 197480.6
226.0537, 206870.6
226.5358, 216913.6
227.0180, 227969.8
227.5001, 240597.5
227.9822, 254946.5
228.4643, 270640.7
228.9464, 286436.6
229.4285, 304130.7
229.9107, 326182.3
230.3928, 353203.2
230.8749, 382321.2
231.3570, 410922.2
231.8391, 439534.6
232.3212, 462674.8
232.8034, 481030.6
233.2855, 492736.3
233.7676, 494593.4
234.2497, 485522.3
234.7318, 469643.6
235.2139, 449263.5
235.6961, 424984.8
236.1782, 400247.0
236.6603, 377437.6
237.1424, 354246.9
237.6245, 326387.1
238.1066, 292274.4
238.5888, 256455.0
239.0709, 221035.3
239.5530, 186627.4
240.0351, 155994.6
240.5172, 130292.1
240.9993, 108907.9
241.4815, 91097.30
241.9636, 77103.41
242.4457, 65879.14
242.9278, 57277.91
243.4099, 50672.32
243.8920, 45115.31
244.3742, 40462.57
244.8563, 36573.89
245.3384, 33161.50
245.8205, 30277.31
246.3026, 27796.21
246.7847, 25702.65
247.2668, 23919.12
247.7490, 22357.22
248.2311, 21005.96
248.7132, 19840.25
249.1953, 18774.32
249.6774, 17805.26
250.1595, 16961.50
250.6417, 16269.45
251.1238, 15687.50
251.6059, 15172.44
252.0880, 14707.96
252.5701, 14294.26
253.0522, 13935.25
253.5344, 13668.00
254.0165, 13386.90
254.4986, 13035.53
254.9807, 12664.95
255.4628, 12323.23
255.9449, 12030.45
256.4271, 11786.05
256.9092, 11597.12
257.3913, 11511.58
257.8734, 11390.94
258.3555, 11171.73
258.8376, 10928.16
259.3198, 10730.96
259.8019, 10608.71
260.2840, 10531.07
260.7661, 10432.47
261.2482, 10286.29
261.7303, 10171.60
262.2125, 10104.72
262.6946, 10061.60
263.1767, 10025.26
263.6588, 9989.401
264.1409, 9954.870
264.6230, 9922.923
265.1052, 9894.084
265.5873, 9866.979
266.0694, 9829.674
266.5515, 9801.127
267.0336, 9802.182
267.5157, 9834.456
267.9979, 9875.894
268.4800, 9891.742
268.9621, 9861.471
269.4442, 9850.341
269.9263, 9876.588
270.4084, 9904.821
270.8906, 9907.123
271.3727, 9882.739
271.8548, 9857.372
272.3369, 9870.632
272.8190, 9961.924
273.3011, 9953.366
273.7833, 9793.679
274.2654, 9598.598
274.7475, 9429.055
275.2296, 9288.858
275.7117, 9150.739
276.1938, 8987.128
276.6760, 8792.950
277.1581, 8602.113
277.6402, 8424.103
278.1223, 8239.618
278.6044, 8022.421
279.0865, 7785.500
279.5686, 7573.857
280.0508, 7428.350
280.5329, 7351.355
281.0150, 7236.010
281.4971, 7056.813
281.9792, 6873.131
282.4613, 6690.317
282.9435, 6519.459
283.4256, 6385.438
283.9077, 6309.313
284.3898, 6281.326
284.8719, 6217.942
285.3540, 6095.012
285.8362, 5969.641
286.3183, 5863.417
286.8004, 5764.340
287.2825, 5645.005
287.7646, 5488.073
288.2467, 5310.565
288.7289, 5171.030
289.2110, 5094.205
289.6931, 5021.657
290.1752, 4947.452
290.6573, 4872.195
291.1394, 4796.448
291.6216, 4720.197
292.1037, 4645.620
292.5858, 4575.894
293.0679, 4508.216
293.5500, 4451.644
294.0321, 4428.639
294.5143, 4407.944
294.9964, 4344.789
295.4785, 4227.176
295.9606, 4098.454
296.4427, 4022.910
296.9248, 4027.111
297.4070, 4005.400
297.8891, 3934.281
298.3712, 3847.730
298.8533, 3778.009
299.3354, 3729.409
299.8175, 3679.948
300.2997, 3603.387
300.7818, 3492.698
301.2639, 3412.057
301.7460, 3383.408
302.2281, 3367.402
302.7102, 3331.848
303.1924, 3279.097
303.6745, 3240.087
304.1566, 3242.997
304.6387, 3285.114
305.1208, 3303.397
305.6029, 3279.575
306.0851, 3252.258
306.5672, 3246.799
307.0493, 3255.379
307.5314, 3249.778
308.0135, 3211.277
308.4956, 3148.567
308.9778, 3100.870
309.4599, 3079.819
309.9420, 3056.345
310.4241, 3015.989
310.9062, 2967.181
311.3883, 2928.177
311.8705, 2907.870
312.3526, 2897.090
312.8347, 2875.205
313.3168, 2837.449
313.7989, 2801.802
314.2810, 2765.578
314.7632, 2735.577
315.2453, 2724.332
315.7274, 2736.056
316.2095, 2755.313
316.6916, 2761.671
317.1737, 2752.868
317.6559, 2739.991
318.1380, 2717.139
318.6201, 2694.560
319.1022, 2686.243
319.5843, 2692.764
320.0664, 2695.433
320.5485, 2673.814
321.0306, 2625.506
321.5128, 2593.569
321.9949, 2584.687
322.4770, 2585.713
322.9591, 2592.810
323.4412, 2603.709
323.9233, 2612.290
324.4055, 2615.642
324.8876, 2612.707
325.3697, 2598.175
325.8518, 2554.703
326.3339, 2520.051
326.8160, 2515.882
327.2982, 2530.761
327.7803, 2537.448
328.2624, 2521.361
328.7445, 2494.596
329.2266, 2492.013
329.7087, 2534.743
330.1909, 2560.308
330.6730, 2538.450
331.1551, 2499.588
331.6372, 2487.006
332.1193, 2513.608
332.6014, 2553.840
333.0836, 2571.860
333.5657, 2560.833
334.0478, 2543.960
334.5299, 2521.850
335.0120, 2494.300
335.4941, 2456.880
335.9763, 2411.001
336.4584, 2367.472
336.9405, 2336.330
337.4226, 2318.534
337.9047, 2307.608
338.3868, 2309.905
338.8690, 2312.169
339.3511, 2303.073
339.8332, 2287.270
340.3153, 2283.307
340.7974, 2307.094
341.2795, 2349.403
341.7617, 2348.021
342.2438, 2247.576
342.7259, 2175.383
343.2080, 2181.232
343.6901, 2227.839
344.1722, 2259.653
344.6544, 2253.642
345.1365, 2224.426
345.6186, 2202.025
346.1007, 2193.713
346.5828, 2181.446
347.0649, 2151.955
347.5471, 2126.268
348.0292, 2127.956
348.5113, 2159.128
348.9934, 2198.588
349.4755, 2220.781
349.9576, 2221.379
350.4398, 2221.318
350.9219, 2218.587
351.4040, 2217.063
351.8861, 2227.558
352.3682, 2242.701
352.8503, 2239.846
353.3325, 2199.154
353.8146, 2124.075
354.2967, 2068.142
354.7788, 2025.556
355.2609, 2008.511
355.7430, 2042.091
356.2252, 2097.140
356.7073, 2132.609
357.1894, 2128.754
357.6715, 2099.632
358.1536, 2080.854
358.6357, 2086.082
359.1179, 2080.764
359.5999, 2060.272
360.0821, 2031.884
360.5642, 1995.447
361.0463, 1953.849
361.5284, 1919.959
362.0105, 1911.345
362.4926, 1935.189
362.9748, 1957.090
363.4569, 1986.281
363.9390, 2005.216
364.4211, 2007.316
364.9032, 1992.536
365.3853, 1959.282
365.8675, 1900.008
366.3496, 1821.406
366.8317, 1790.013
367.3138, 1855.130
367.7959, 1906.750
368.2780, 1912.152
368.7602, 1894.218
369.2423, 1888.250
369.7244, 1910.793
370.2065, 1933.287
370.6886, 1884.901
371.1707, 1711.894
371.6529, 1606.157
372.1350, 1646.956
372.6171, 1721.123
373.0992, 1756.428
373.5813, 1743.005
374.0634, 1717.363
374.5456, 1725.819
375.0277, 1771.844
375.5098, 1774.024
375.9919, 1684.299
376.4740, 1600.197
376.9561, 1567.876
377.4383, 1575.459
377.9204, 1593.844
378.4025, 1610.188
378.8846, 1623.785
379.3667, 1633.018
379.8488, 1638.241
380.3310, 1637.965
380.8131, 1632.420
381.2952, 1620.903
381.7773, 1599.654
382.2594, 1565.666
382.7415, 1531.377
383.2237, 1508.285
383.7058, 1496.315
384.1879, 1497.936
384.6700, 1524.217
385.1521, 1553.903
385.6342, 1569.208
386.1164, 1570.348
386.5985, 1564.405
387.0806, 1549.739
387.5627, 1531.304
388.0448, 1520.445
388.5269, 1518.110
389.0091, 1523.491
389.4912, 1548.187
389.9733, 1580.169
390.4554, 1590.198
390.9375, 1554.060
391.4196, 1510.659
391.9018, 1499.318
392.3839, 1516.413
392.8660, 1527.950
393.3481, 1514.910
393.8302, 1491.853
394.3123, 1490.295
394.7945, 1519.542
395.2766, 1538.434
395.7587, 1523.338
396.2408, 1489.252
396.7229, 1457.185
397.2050, 1430.233
397.6872, 1417.579
398.1693, 1432.533
398.6514, 1478.011
399.1335, 1522.866
399.6156, 1572.415
400.0977, 1616.035
400.5798, 1648.970
401.0620, 1669.957
401.5441, 1674.405
402.0262, 1656.892
402.5083, 1622.626
402.9904, 1598.248
403.4725, 1579.166
403.9547, 1573.738
404.4368, 1588.085
404.9189, 1615.268
405.4010, 1654.201
405.8831, 1702.936
406.3652, 1742.046
406.8474, 1737.961
407.3295, 1659.581
407.8116, 1630.526
408.2937, 1688.839
408.7758, 1756.536
409.2579, 1788.197
409.7401, 1788.869
410.2222, 1790.203
410.7043, 1816.787
411.1864, 1864.402
411.6685, 1896.572
412.1506, 1900.992
412.6328, 1903.854
413.1149, 1901.118
413.5970, 1902.320
414.0791, 1919.566
414.5612, 1956.537
415.0433, 2003.154
415.5255, 2043.762
416.0076, 2076.287
416.4897, 2110.646
416.9718, 2128.549
417.4539, 2164.828
417.9360, 2252.316
418.4182, 2377.527
418.9003, 2491.732
419.3824, 2555.664
419.8645, 2581.203
420.3466, 2621.102
420.8287, 2673.828
421.3109, 2744.644
421.7930, 2853.047
422.2751, 2971.734
422.7572, 3066.261
423.2393, 3123.408
423.7214, 3172.756
424.2036, 3240.306
424.6857, 3326.138
425.1678, 3438.564
425.6499, 3599.236
426.1320, 3762.048
426.6141, 3877.466
427.0963, 3951.959
427.5784, 4038.445
428.0605, 4157.346
428.5426, 4302.598
429.0247, 4466.344
429.5068, 4649.614
429.9890, 4845.798
430.4711, 5057.954
430.9532, 5277.886
431.4353, 5476.248
431.9174, 5622.636
432.3995, 5792.948
432.8817, 6051.302
433.3638, 6357.518
433.8459, 6626.552
434.3280, 6829.092
434.8101, 6999.002
435.2922, 7182.445
435.7744, 7385.973
436.2565, 7573.017
436.7386, 7757.933
437.2207, 7913.575
437.7028, 8017.672
438.1849, 8073.030
438.6671, 8092.945
439.1492, 8082.833
439.6313, 8048.505
440.1134, 8024.252
440.5955, 8041.867
441.0776, 8029.858
441.5598, 7957.648
442.0418, 7863.818
442.5240, 7783.417
443.0061, 7727.673
443.4882, 7692.478
443.9703, 7675.432
444.4524, 7680.987
444.9345, 7683.822
445.4167, 7671.463
445.8988, 7668.847
446.3809, 7689.215
446.8630, 7725.612
447.3451, 7765.245
447.8272, 7801.484
448.3094, 7834.199
448.7915, 7864.632
449.2736, 7896.496
449.7557, 7915.042
450.2378, 7890.829
450.7199, 7869.245
451.2021, 7890.306
451.6842, 7956.010
452.1663, 8024.487
452.6484, 8059.684
453.1305, 8069.207
453.6126, 8087.145
454.0948, 8120.304
454.5769, 8150.409
455.0590, 8169.872
455.5411, 8177.250
456.0232, 8166.848
456.5053, 8136.339
456.9875, 8089.308
457.4696, 8021.414
457.9517, 7937.316
458.4338, 7861.517
458.9159, 7809.967
459.3980, 7754.386
459.8802, 7648.645
460.3623, 7493.116
460.8444, 7317.406
461.3265, 7103.272
461.8086, 6887.537
462.2907, 6715.019
462.7729, 6579.778
463.2550, 6430.412
463.7371, 6228.439
464.2192, 5984.531
464.7013, 5753.224
465.1834, 5519.180
465.6656, 5316.014
466.1477, 5179.611
466.6298, 5059.092
467.1119, 4896.496
467.5940, 4679.635
468.0761, 4442.415
468.5583, 4221.801
469.0404, 4013.850
469.5225, 3837.700
470.0046, 3717.167
470.4867, 3604.357
470.9688, 3492.647
471.4510, 3377.731
471.9331, 3251.615
472.4152, 3108.376
472.8973, 2965.373
473.3794, 2861.486
473.8615, 2809.154
474.3437, 2743.354
474.8258, 2639.656
475.3079, 2529.186
475.7900, 2423.210
476.2721, 2326.045
476.7542, 2247.896
477.2364, 2209.177
477.7185, 2191.665
478.2006, 2151.720
478.6827, 2086.261
479.1648, 2016.117
479.6469, 1943.263
480.1291, 1876.928
480.6112, 1835.720
481.0933, 1831.220
481.5754, 1821.744
482.0575, 1780.431
482.5396, 1721.178
483.0217, 1667.903
483.5038, 1625.176
483.9860, 1591.157
484.4681, 1565.357
484.9502, 1548.293
485.4323, 1530.092
485.9144, 1511.172
486.3965, 1490.800
486.8787, 1466.127
487.3608, 1440.128
487.8429, 1421.153
488.3250, 1412.440
488.8071, 1402.699
489.2892, 1368.174
489.7714, 1280.212
490.2535, 1239.056
490.7356, 1290.082
491.2177, 1337.734
491.6998, 1324.696
492.1819, 1267.345
492.6641, 1214.444
493.1462, 1196.613
493.6283, 1204.462
494.1104, 1214.987
494.5925, 1237.395
495.0746, 1237.310
495.5568, 1171.572
496.0389, 1104.973
496.5210, 1088.419
497.0031, 1123.019
497.4852, 1165.493
497.9673, 1193.127
498.4495, 1204.985
498.9316, 1193.252
499.4137, 1152.488
499.8958, 1111.898
500.3779, 1083.003
500.8600, 1067.590
501.3422, 1071.549
501.8243, 1111.051
502.3064, 1135.108
502.7885, 1094.844
503.2706, 1027.939
503.7527, 1007.767
504.2349, 1050.724
504.7170, 1110.880
505.1991, 1145.458
505.6812, 1153.188
506.1633, 1153.378
506.6454, 1154.428
507.1276, 1139.796
507.6097, 1083.578
508.0918, 1013.381
508.5739, 972.7764
509.0560, 977.5377
509.5381, 1008.698
510.0203, 1043.456
510.5024, 1099.188
510.9845, 1098.693
511.4666, 959.8516
511.9487, 846.1912
512.4308, 837.6346
512.9130, 899.7328
513.3951, 960.2591
513.8772, 984.4012
514.3593, 984.1548
514.8414, 977.6443
515.3235, 963.3345
515.8057, 954.8226
516.2878, 961.2903
516.7699, 968.3487
517.2520, 968.9567
517.7341, 961.6170
518.2162, 937.3842
518.6984, 862.3121
519.1805, 785.3867
519.6626, 786.9170
520.1447, 860.9825
520.6268, 911.1961
521.1089, 883.6534
521.5911, 814.2560
522.0732, 786.5754
522.5553, 810.8109
523.0374, 836.5837
523.5195, 859.6721
524.0016, 878.0299
524.4838, 890.0486
524.9659, 895.4271
525.4480, 893.4230
525.9301, 882.6284
526.4122, 865.2020
526.8943, 852.3484
527.3765, 853.6393
527.8586, 845.5496
528.3407, 812.8736
528.8228, 779.6616
529.3049, 769.3008
529.7870, 781.5815
530.2692, 795.0724
530.7513, 788.1597
531.2334, 765.8950
531.7155, 761.3111
532.1976, 785.4254
532.6797, 801.4935
533.1619, 776.2249
533.6440, 743.7780
534.1261, 746.9365
534.6082, 797.7892
535.0903, 836.7314
535.5724, 805.8352
536.0546, 739.3115
536.5367, 716.0423
537.0188, 748.3698
537.5009, 784.3401
537.9830, 782.3203
538.4651, 751.7789
538.9473, 746.6741
539.4294, 792.6289
539.9115, 829.3144
540.3936, 835.6991
540.8757, 825.7235
541.3578, 813.2145
541.8400, 802.4107
542.3221, 796.4559
542.8042, 800.6573
543.2863, 815.4368
543.7684, 813.7423
544.2505, 760.0640
544.7326, 733.4075
545.2147, 775.8515
545.6968, 839.0634
546.1790, 867.8862
546.6611, 849.3021
547.1432, 815.1146
547.6253, 795.8785
548.1074, 790.8983
548.5895, 794.5300
549.0717, 810.7914
549.5538, 826.4688
550.0359, 833.9451
550.5180, 835.6720
551.0001, 834.1702
551.4822, 828.3734
551.9644, 822.9628
552.4465, 822.2558
552.9286, 823.7396
553.4107, 822.0117
553.8928, 815.9862
554.3749, 808.6625
554.8571, 803.5684
555.3392, 800.3918
555.8213, 789.4382
556.3034, 746.8813
556.7855, 726.4929
557.2676, 764.2415
557.7498, 820.9700
558.2319, 852.1115
558.7140, 846.6758
559.1961, 817.5726
559.6782, 770.0652
560.1603, 703.5905
560.6425, 686.5138
561.1246, 756.4341
561.6067, 822.1138
562.0888, 872.4491
562.5709, 896.0518
563.0530, 864.5778
563.5352, 768.8204
564.0173, 685.3516
564.4994, 696.2659
564.9815, 772.6960
565.4636, 817.1829
565.9457, 815.8264
566.4279, 808.8567
566.9100, 828.2319
567.3921, 861.7631
567.8742, 866.5159
568.3563, 822.1385
568.8384, 783.1691
569.3206, 766.7041
569.8027, 766.4073
570.2848, 779.4524
570.7669, 802.7640
571.2490, 826.0381
571.7311, 841.3732
572.2133, 848.2136
572.6954, 839.4139
573.1775, 797.5321
573.6596, 763.6195
574.1417, 740.8553
574.6238, 729.0034
575.1060, 732.6887
575.5881, 749.4407
576.0702, 764.6841
576.5523, 766.2646
577.0344, 756.6769
577.5165, 744.3746
577.9987, 728.8403
578.4808, 712.0583
578.9629, 685.4943
579.4450, 665.2725
579.9271, 675.4104
580.4092, 720.2992
580.8914, 766.6940
581.3735, 812.9946
581.8556, 847.6467
582.3377, 855.0745
582.8198, 836.9850
583.3019, 806.4203
583.7841, 768.7327
584.2662, 728.7645
584.7483, 698.8064
585.2304, 665.3917
585.7125, 666.8108
586.1946, 740.1909
586.6768, 813.4138
587.1589, 843.0822
587.6410, 834.0329
588.1231, 808.1680
588.6052, 774.6117
589.0873, 742.4399
