##NAMES=Selenium
##RRUFFID=R050656
##IDEAL CHEMISTRY=Se
##LOCALITY=Poison Creek, Valencia County, New Mexico, USA
##OWNER=RRUFF
##SOURCE=University of Arizona Mineral Museum
##DESCRIPTION=Gray metallic acicular crystals
##STATUS=The identification of this mineral is confirmed by single-crystal X-ray diffraction and chemical analysis.
##URL=rruff.info/R050656
##MEASURED CHEMISTRY=Se
89.78156, 0.0000000E+00
90.26367, 3.302471
90.74579, 4.737924
91.22791, 4.152919
91.71002, 1.765488
92.19214, -0.5157239
92.67426, -1.226123
93.15638, -0.6302175
93.63850, 0.6235285
94.12061, 2.720195
94.60273, 5.234561
95.08485, 7.399512
95.56696, 9.261672
96.04908, 10.32789
96.53120, 9.294703
97.01331, 6.313066
97.49543, 4.074254
97.97755, 4.146527
98.45966, 6.383615
98.94178, 8.155992
99.42390, 9.548905
99.90602, 10.31736
100.3881, 9.710271
100.8703, 7.301396
101.3524, 5.012702
101.8345, 3.764646
102.3166, 3.679304
102.7987, 4.232685
103.2808, 5.663552
103.7630, 7.706107
104.2451, 9.245223
104.7272, 10.66116
105.2093, 11.08800
105.6914, 9.698557
106.1735, 4.624494
106.6557, 0.9881419
107.1378, -7.0105322E-02
107.6199, 1.540736
108.1020, 2.331719
108.5841, 1.047492
109.0662, -0.3913042
109.5484, -0.2800899
110.0305, 4.396085
110.5126, 7.632382
110.9947, 7.763024
111.4768, 3.829897
111.9590, 1.191314
112.4411, 1.027714
112.9232, 2.238764
113.4053, 3.412702
113.8874, 4.595590
114.3695, 5.467228
114.8517, 5.715022
115.3338, 4.825577
115.8159, 4.543076
116.2980, 6.199764
116.7801, 8.864104
117.2622, 10.49803
117.7444, 9.209109
118.2265, 7.322766
118.7086, 6.523514
119.1907, 8.150781
119.6728, 9.412082
120.1549, 7.924032
120.6371, 4.431989
121.1192, 1.948694
121.6013, 3.243231
122.0834, 6.152060
122.5655, 8.252026
123.0476, 8.298867
123.5298, 7.693777
124.0119, 7.646933
124.4940, 8.128357
124.9761, 8.716784
125.4582, 9.009236
125.9404, 9.166465
126.4225, 9.503772
126.9046, 10.55154
127.3867, 11.72996
127.8688, 11.72388
128.3509, 10.38460
128.8331, 9.311131
129.3152, 10.73457
129.7973, 14.19814
130.2794, 17.36863
130.7615, 18.81086
131.2436, 19.05896
131.7258, 19.94546
132.2079, 21.62605
132.6900, 23.68917
133.1721, 25.82842
133.6542, 28.04140
134.1364, 29.49276
134.6185, 29.08029
135.1006, 26.92308
135.5827, 26.33257
136.0648, 27.87346
136.5469, 30.72913
137.0291, 32.98806
137.5112, 34.54161
137.9933, 35.88564
138.4754, 37.66885
138.9575, 40.18358
139.4396, 41.00973
139.9218, 39.10619
140.4039, 35.32635
140.8860, 34.09955
141.3681, 36.32977
141.8502, 39.53587
142.3323, 41.92205
142.8145, 43.67014
143.2966, 44.17859
143.7787, 42.97819
144.2608, 40.09468
144.7429, 37.72227
145.2250, 35.38188
145.7072, 33.96136
146.1893, 34.52699
146.6714, 39.27946
147.1535, 42.71272
147.6356, 43.38171
148.1178, 40.79040
148.5999, 38.77622
149.0820, 36.59784
149.5641, 35.32420
150.0462, 36.29065
150.5283, 43.81187
151.0105, 49.26107
151.4926, 49.57875
151.9747, 43.11009
152.4568, 38.68071
152.9389, 37.45401
153.4210, 38.11399
153.9032, 38.82556
154.3853, 39.66023
154.8674, 40.30970
155.3495, 40.69874
155.8316, 40.88029
156.3137, 40.70123
156.7959, 39.55984
157.2780, 38.08100
157.7601, 37.44953
158.2422, 38.59909
158.7243, 40.13051
159.2065, 41.39915
159.6886, 42.28845
160.1707, 42.94871
160.6528, 43.46158
161.1349, 43.78880
161.6170, 43.82307
162.0992, 43.07100
162.5813, 42.28923
163.0634, 42.01823
163.5455, 42.84761
164.0276, 43.55919
164.5097, 43.54968
164.9919, 42.94938
165.4740, 42.25602
165.9561, 41.74720
166.4382, 41.24278
166.9203, 40.55898
167.4024, 39.37005
167.8846, 38.27012
168.3667, 37.63549
168.8488, 37.42418
169.3309, 37.37774
169.8130, 37.36221
170.2952, 37.41370
170.7773, 37.57461
171.2594, 37.81605
171.7415, 38.20200
172.2236, 39.05772
172.7057, 40.32697
173.1879, 41.14987
173.6700, 40.45111
174.1521, 38.92224
174.6342, 37.73327
175.1163, 37.86328
175.5984, 38.28438
176.0806, 37.27950
176.5627, 34.82059
177.0448, 33.07117
177.5269, 34.96064
178.0090, 39.10255
178.4911, 42.25370
178.9733, 42.14021
179.4554, 40.44578
179.9375, 39.92006
180.4196, 40.69120
180.9017, 41.72884
181.3838, 42.12933
181.8660, 41.94197
182.3481, 41.34391
182.8302, 40.05971
183.3123, 38.45711
183.7944, 37.49115
184.2766, 37.26604
184.7587, 37.20132
185.2408, 36.37218
185.7229, 34.94508
186.2050, 33.89346
186.6871, 34.00916
187.1693, 34.94515
187.6514, 35.28984
188.1335, 34.83330
188.6156, 34.31055
189.0977, 34.94676
189.5798, 36.68269
190.0620, 38.41863
190.5441, 39.69076
191.0262, 40.51091
191.5083, 40.86948
191.9904, 40.63934
192.4725, 40.25874
192.9547, 40.65596
193.4368, 41.86650
193.9189, 42.82703
194.4010, 42.62850
194.8831, 41.38508
195.3652, 41.07320
195.8474, 42.12703
196.3295, 43.67688
196.8116, 43.90088
197.2937, 42.69175
197.7758, 41.20756
198.2579, 40.02272
198.7401, 39.13679
199.2222, 38.53028
199.7043, 38.23653
200.1864, 38.18746
200.6685, 38.29202
201.1507, 38.59077
201.6328, 38.84785
202.1149, 38.80249
202.5970, 38.38357
203.0791, 38.43958
203.5612, 39.17884
204.0434, 40.32600
204.5255, 41.06738
205.0076, 41.27149
205.4897, 41.52308
205.9718, 42.56620
206.4539, 44.80939
206.9361, 45.25181
207.4182, 43.07178
207.9003, 39.18033
208.3824, 36.30885
208.8645, 34.46386
209.3466, 33.60358
209.8288, 33.90168
210.3109, 35.66068
210.7930, 37.26402
211.2751, 38.59263
211.7572, 39.65752
212.2393, 40.53970
212.7215, 41.22586
213.2036, 41.74139
213.6857, 41.99689
214.1678, 41.78757
214.6499, 41.99713
215.1320, 42.64555
215.6142, 43.77716
216.0963, 45.70794
216.5784, 48.85875
217.0605, 51.99164
217.5426, 54.22247
218.0247, 55.13548
218.5069, 56.36761
218.9890, 58.35899
219.4711, 60.79303
219.9532, 62.02504
220.4353, 61.29990
220.9175, 60.63111
221.3996, 61.44090
221.8817, 64.48978
222.3638, 67.02473
222.8459, 68.78289
223.3280, 69.83542
223.8102, 70.32444
224.2923, 69.84870
224.7744, 69.43574
225.2565, 69.69097
225.7386, 70.61912
226.2207, 72.16745
226.7029, 74.21436
227.1850, 76.86343
227.6671, 80.72095
228.1492, 86.61935
228.6313, 92.54204
229.1134, 97.12710
229.5956, 99.57096
230.0777, 102.6478
230.5598, 107.1686
231.0419, 112.5820
231.5240, 116.0644
232.0062, 116.3108
232.4883, 116.4065
232.9704, 118.7051
233.4525, 125.9849
233.9346, 129.1813
234.4167, 126.0712
234.8989, 118.1619
235.3810, 112.6236
235.8631, 110.6869
236.3452, 109.4143
236.8273, 107.1965
237.3094, 104.0166
237.7916, 99.93907
238.2737, 94.85253
238.7558, 88.84633
239.2379, 82.04647
239.7200, 73.51938
240.2021, 65.45054
240.6843, 58.91909
241.1664, 54.16505
241.6485, 50.44127
242.1306, 47.85695
242.6127, 46.26180
243.0948, 45.25636
243.5770, 45.21436
244.0591, 45.24324
244.5412, 45.08353
245.0233, 45.50101
245.5054, 43.80751
245.9876, 38.27626
246.4697, 30.81045
246.9518, 27.62558
247.4339, 31.15705
247.9160, 35.33385
248.3981, 36.94964
248.8803, 34.02322
249.3624, 33.48250
249.8445, 36.80642
250.3266, 42.24098
250.8087, 44.84633
251.2908, 43.31361
251.7730, 41.02450
252.2551, 39.52395
252.7372, 39.28409
253.2193, 38.48944
253.7014, 36.58409
254.1835, 34.37276
254.6657, 33.85959
255.1478, 35.87736
255.6299, 38.13736
256.1120, 39.84818
256.5941, 41.12333
257.0763, 41.35189
257.5584, 40.09550
258.0405, 38.07141
258.5226, 36.71395
259.0047, 36.16205
259.4868, 35.96577
259.9690, 35.99356
260.4511, 36.27413
260.9332, 36.68538
261.4153, 37.37002
261.8974, 38.06576
262.3795, 38.23869
262.8617, 37.60297
263.3438, 37.14555
263.8259, 37.33564
264.3080, 38.34639
264.7901, 38.70095
265.2722, 38.18513
265.7544, 37.26902
266.2365, 36.60088
266.7186, 36.19946
267.2007, 35.98607
267.6828, 35.91692
268.1649, 35.98399
268.6471, 36.40880
269.1292, 37.32325
269.6113, 38.39940
270.0934, 39.26310
270.5755, 39.92165
271.0576, 40.38174
271.5398, 40.71202
272.0219, 40.90372
272.5040, 40.42797
272.9861, 39.06551
273.4682, 37.52613
273.9503, 36.50503
274.4325, 36.03930
274.9146, 35.94662
275.3967, 36.29306
275.8788, 37.00959
276.3610, 37.56366
276.8431, 37.97853
277.3252, 38.14754
277.8073, 37.70625
278.2894, 36.53838
278.7715, 36.20827
279.2537, 37.45235
279.7358, 39.67420
280.2179, 40.19470
280.7000, 38.73345
281.1821, 36.83352
281.6642, 35.55811
282.1464, 34.90687
282.6285, 34.97096
283.1106, 36.14862
283.5927, 37.73400
284.0748, 37.38395
284.5569, 34.85485
285.0391, 32.58004
285.5212, 32.65545
286.0033, 34.84736
286.4854, 36.27771
286.9675, 36.33593
287.4496, 35.85108
287.9318, 36.93492
288.4139, 39.62671
288.8960, 41.52518
289.3781, 40.68448
289.8602, 37.65759
290.3423, 35.20265
290.8245, 33.56385
291.3066, 32.52890
291.7887, 31.87154
292.2708, 31.57361
292.7529, 31.50626
293.2350, 31.82072
293.7172, 32.32866
294.1993, 32.30955
294.6814, 31.62367
295.1635, 30.92052
295.6456, 31.09623
296.1277, 31.99592
296.6099, 32.97042
297.0920, 33.76796
297.5741, 34.41403
298.0562, 35.04875
298.5383, 35.69640
299.0204, 35.96959
299.5026, 35.59813
299.9847, 34.56051
300.4668, 32.73113
300.9489, 28.70425
301.4311, 24.58334
301.9132, 24.15194
302.3953, 27.26124
302.8774, 30.31390
303.3595, 29.37073
303.8416, 26.53164
304.3238, 25.60227
304.8059, 29.27321
305.2880, 33.92681
305.7701, 35.60376
306.2522, 34.71538
306.7343, 33.66592
307.2165, 34.20476
307.6986, 35.45074
308.1807, 36.29414
308.6628, 36.36375
309.1449, 36.14043
309.6270, 35.88779
310.1092, 35.62618
310.5913, 35.42993
311.0734, 35.40902
311.5555, 35.43285
312.0376, 35.41596
312.5197, 35.38917
313.0019, 35.19320
313.4840, 34.45396
313.9661, 33.48333
314.4482, 32.91045
314.9303, 33.51634
315.4124, 34.23692
315.8946, 34.24156
316.3767, 33.20666
316.8588, 32.62481
317.3409, 33.66211
317.8230, 35.36499
318.3051, 36.47240
318.7873, 36.08405
319.2694, 35.48817
319.7515, 35.31320
320.2336, 35.64530
320.7157, 35.62048
321.1978, 33.96473
321.6800, 32.31432
322.1621, 32.15533
322.6442, 35.66609
323.1263, 38.75370
323.6084, 40.61094
324.0905, 41.23365
324.5727, 40.91683
325.0548, 38.39614
325.5369, 35.78622
326.0190, 34.37097
326.5012, 35.66307
326.9833, 36.50310
327.4654, 36.10113
327.9475, 34.91633
328.4296, 34.81820
328.9117, 37.33435
329.3939, 39.58886
329.8760, 40.40245
330.3581, 39.00611
330.8402, 37.52240
331.3223, 35.40648
331.8044, 33.34129
332.2866, 32.81063
332.7687, 34.79729
333.2508, 36.90895
333.7329, 38.67290
334.2150, 40.38120
334.6971, 40.04707
335.1793, 36.32951
335.6614, 31.85864
336.1435, 30.38037
336.6256, 33.20504
337.1077, 35.48271
337.5898, 35.67477
338.0720, 33.94378
338.5541, 33.71865
339.0362, 35.61789
339.5183, 37.63965
340.0004, 37.68457
340.4825, 35.40375
340.9647, 33.59318
341.4468, 32.68937
341.9289, 32.59431
342.4110, 33.17537
342.8931, 34.52456
343.3752, 35.91240
343.8574, 36.99015
344.3395, 37.74333
344.8216, 37.70990
345.3037, 36.67200
345.7858, 35.17378
346.2679, 33.97435
346.7501, 33.07687
347.2322, 32.69936
347.7143, 33.30556
348.1964, 34.54467
348.6785, 35.27425
349.1607, 35.42553
349.6428, 35.26771
350.1249, 34.85031
350.6070, 34.32989
351.0891, 34.20453
351.5713, 34.97144
352.0534, 36.10871
352.5355, 36.91551
353.0176, 37.38369
353.4997, 37.60073
353.9818, 37.71175
354.4640, 37.59956
354.9461, 37.05077
355.4282, 35.82096
355.9103, 34.37497
356.3924, 32.67255
356.8745, 30.95138
357.3567, 30.17872
357.8388, 31.74256
358.3209, 34.00489
358.8030, 35.54865
359.2851, 35.94926
359.7672, 36.04151
360.2494, 36.05599
360.7315, 36.09069
361.2136, 36.32424
361.6957, 37.81119
362.1778, 38.71410
362.6599, 37.62114
363.1421, 34.07204
363.6242, 31.40496
364.1063, 30.88974
364.5884, 31.63555
365.0705, 32.73469
365.5526, 35.04097
366.0348, 36.59472
366.5169, 36.49871
366.9990, 34.87474
367.4811, 33.88545
367.9632, 34.44652
368.4453, 35.20621
368.9275, 35.38186
369.4096, 34.15893
369.8917, 33.47164
370.3738, 33.66892
370.8559, 34.41231
371.3380, 34.73959
371.8202, 34.35571
372.3023, 33.96668
372.7844, 33.97134
373.2665, 34.68546
373.7487, 34.35109
374.2308, 32.17466
374.7129, 29.74932
375.1950, 29.49927
375.6771, 32.28499
376.1592, 34.50958
376.6414, 35.18139
377.1235, 34.42762
377.6056, 33.39281
378.0877, 31.87433
378.5698, 30.70746
379.0519, 30.85847
379.5341, 32.33546
380.0162, 33.49730
380.4983, 34.00521
380.9804, 34.11533
381.4625, 34.45874
381.9446, 35.03041
382.4268, 35.34884
382.9089, 35.13639
383.3910, 34.44078
383.8731, 33.12384
384.3552, 30.97991
384.8373, 29.20292
385.3195, 29.54139
385.8016, 31.44988
386.2837, 33.33479
386.7658, 34.51059
387.2479, 35.24597
387.7300, 36.05161
388.2122, 36.89338
388.6943, 37.11044
389.1764, 35.33002
389.6585, 32.92488
390.1406, 31.75642
390.6227, 33.11152
391.1049, 34.72116
391.5870, 34.92667
392.0691, 34.14189
392.5512, 33.61345
393.0333, 34.50478
393.5154, 35.42406
393.9976, 35.38580
394.4797, 33.98165
394.9618, 32.57327
395.4439, 31.05569
395.9260, 29.93225
396.4081, 29.87203
396.8903, 32.96801
397.3724, 35.20576
397.8545, 34.88267
398.3366, 31.83463
398.8188, 29.99254
399.3009, 30.59733
399.7830, 31.84421
400.2651, 32.60470
400.7472, 32.56495
401.2293, 32.49848
401.7115, 32.36640
402.1936, 32.23895
402.6757, 32.35743
403.1578, 32.87832
403.6399, 33.37817
404.1220, 33.68488
404.6042, 33.78665
405.0863, 33.80508
405.5684, 33.80992
406.0505, 30.73562
406.5326, 34.33546
407.0147, 36.36396
407.4969, 36.90556
407.9790, 31.50684
408.4611, 33.77882
408.9432, 32.97672
409.4253, 32.04858
409.9074, 35.40017
410.3896, 30.86546
410.8717, 34.14918
411.3538, 34.31192
411.8359, 35.90306
412.3180, 34.40115
412.8001, 33.85458
413.2823, 36.40206
413.7644, 37.23634
414.2465, 35.37836
414.7286, 37.06030
415.2107, 32.41754
415.6928, 33.32479
416.1750, 36.62662
416.6571, 34.92416
417.1392, 36.66265
417.6213, 37.09064
418.1034, 31.56295
418.5855, 36.39278
419.0677, 36.74332
419.5498, 32.49461
420.0319, 36.96955
420.5140, 33.35490
420.9961, 32.62774
421.4782, 34.07359
421.9604, 33.25415
422.4425, 36.00622
422.9246, 35.31760
423.4067, 34.32157
423.8889, 34.66709
424.3710, 33.77540
424.8531, 34.80767
425.3352, 33.58673
425.8173, 34.76048
426.2994, 36.47702
426.7816, 34.03745
427.2637, 35.99788
427.7458, 31.13494
428.2279, 31.98136
428.7100, 32.21299
429.1921, 36.09391
429.6743, 31.26423
430.1564, 31.95202
430.6385, 34.44677
431.1206, 34.44419
431.6027, 34.01825
432.0848, 33.18832
432.5670, 29.69951
433.0491, 33.29565
433.5312, 35.32047
434.0133, 35.85838
434.4954, 30.45597
434.9775, 32.72425
435.4597, 31.91847
435.9418, 30.98664
436.4239, 34.33454
436.9060, 29.79614
437.3881, 33.07617
437.8702, 33.23522
438.3524, 34.82267
438.8345, 33.31707
439.3166, 32.76681
439.7987, 35.31060
440.2808, 36.14118
440.7629, 34.27952
441.2451, 35.95777
441.7272, 31.31132
442.2093, 32.21488
442.6914, 35.51301
443.1735, 33.80687
443.6556, 35.54167
444.1378, 35.96596
444.6199, 30.43459
445.1020, 35.26072
445.5841, 35.60757
446.0662, 31.35518
446.5483, 35.82642
447.0305, 32.20808
447.5126, 31.47723
447.9947, 32.91940
448.4768, 32.09627
448.9590, 34.84465
449.4411, 34.15233
449.9232, 33.15261
450.4053, 33.49444
450.8874, 32.59906
451.3695, 33.62764
451.8517, 32.40302
452.3338, 33.57308
452.8159, 35.28593
453.2980, 32.84267
453.7801, 34.79940
454.2622, 29.93278
454.7444, 30.77551
455.2265, 31.00344
455.7086, 34.88067
456.1907, 30.04731
456.6728, 30.73141
457.1549, 33.76476
457.6371, 33.51096
458.1192, 34.63154
458.6013, 31.68340
459.0834, 32.55751
459.5655, 32.37807
460.0476, 35.83926
460.5298, 36.42633
461.0119, 33.54723
461.4940, 30.68281
461.9761, 34.40601
462.4582, 31.88539
462.9403, 32.73325
463.4225, 30.10218
463.9046, 30.47490
464.3867, 30.79999
464.8688, 32.66489
465.3509, 32.35893
465.8330, 33.11303
466.3152, 32.86485
466.7973, 33.64782
467.2794, 34.31608
467.7615, 34.73961
468.2436, 34.04172
468.7257, 35.44017
469.2079, 32.36872
469.6900, 30.99330
470.1721, 30.82355
470.6542, 30.44924
471.1363, 30.25692
471.6184, 30.38274
472.1006, 30.75771
472.5827, 30.80721
473.0648, 31.56196
473.5469, 31.92450
474.0291, 31.85639
474.5112, 31.84999
474.9933, 32.48702
475.4754, 33.48623
475.9575, 33.45813
476.4396, 32.25380
476.9218, 30.79951
477.4039, 29.96255
477.8860, 29.63873
478.3681, 29.60910
478.8502, 29.85161
479.3323, 30.30065
479.8145, 31.17844
480.2966, 32.29208
480.7787, 32.90561
481.2608, 32.08445
481.7429, 31.03511
482.2250, 30.62152
482.7072, 31.02701
483.1893, 31.56662
483.6714, 32.41016
484.1535, 33.09246
484.6356, 33.15014
485.1177, 31.67386
485.5999, 30.53021
486.0820, 30.02691
486.5641, 30.07586
487.0462, 30.44403
487.5283, 31.82421
488.0104, 32.57804
488.4926, 31.74025
488.9747, 28.84963
489.4568, 27.51509
489.9389, 28.21509
490.4210, 29.63030
490.9031, 30.18579
491.3853, 29.80418
491.8674, 30.03702
492.3495, 31.54727
492.8316, 33.42663
493.3137, 33.48392
493.7958, 31.85619
494.2780, 30.04928
494.7601, 28.61703
495.2422, 27.69536
495.7243, 27.79368
496.2064, 28.97131
496.6885, 30.24242
497.1707, 30.97175
497.6528, 31.27478
498.1349, 31.27732
498.6170, 30.73604
499.0992, 30.31650
499.5813, 30.60578
500.0634, 31.30028
500.5455, 31.65744
501.0276, 31.11464
501.5097, 30.47373
501.9919, 30.13975
502.4740, 30.23561
502.9561, 29.94342
503.4382, 28.26047
503.9203, 26.83873
504.4024, 26.94923
504.8846, 29.86700
505.3667, 31.64652
505.8488, 31.71581
506.3309, 30.72758
506.8130, 29.96875
507.2951, 29.38753
507.7773, 29.31144
508.2594, 30.26293
508.7415, 31.88040
509.2236, 31.83890
509.7057, 30.01839
510.1878, 28.07142
510.6700, 27.62558
511.1521, 28.15015
511.6342, 27.79498
512.1163, 25.93388
512.5984, 24.40404
513.0806, 25.77561
513.5627, 28.90017
514.0448, 31.37746
514.5269, 31.94121
515.0090, 31.67826
515.4911, 30.77777
515.9733, 29.44787
516.4554, 28.97266
516.9375, 30.93377
517.4196, 33.09639
517.9017, 34.14639
518.3839, 33.67009
518.8660, 32.71251
519.3481, 30.85890
519.8302, 28.81759
520.3123, 27.32315
520.7944, 26.19316
521.2766, 26.00287
521.7587, 27.37264
522.2408, 29.67635
522.7229, 30.28336
523.2050, 28.73611
523.6871, 27.18979
524.1693, 27.02726
524.6514, 28.08526
525.1335, 27.93493
525.6156, 26.37605
526.0977, 24.91394
526.5798, 25.51475
527.0620, 27.47790
527.5441, 28.66201
528.0262, 28.36515
528.5083, 27.52868
528.9904, 26.82582
529.4725, 26.35120
529.9547, 26.34986
530.4368, 27.57486
530.9189, 28.81217
531.4010, 29.10802
531.8831, 28.45665
532.3652, 28.02858
532.8474, 28.12299
533.3295, 28.61561
533.8116, 29.53823
534.2937, 32.08553
534.7758, 32.93283
535.2579, 30.55688
535.7401, 27.16443
536.2222, 26.11161
536.7043, 28.45446
537.1864, 30.68814
537.6685, 32.30533
538.1506, 33.22186
538.6328, 32.61432
539.1149, 30.19715
539.5970, 28.00710
540.0791, 27.39884
540.5612, 28.09723
541.0433, 29.13493
541.5255, 30.55720
542.0076, 31.51277
542.4897, 30.50628
542.9718, 28.50225
543.4539, 27.52912
543.9360, 28.68619
544.4182, 30.08591
544.9003, 30.13451
545.3824, 29.30429
545.8645, 28.64550
546.3466, 28.51198
546.8287, 28.70687
547.3109, 29.35924
547.7930, 30.47178
548.2751, 31.12775
548.7572, 30.78134
549.2393, 30.25697
549.7214, 30.04926
550.2036, 30.60560
550.6857, 30.36960
551.1678, 28.80602
551.6499, 26.99465
552.1320, 26.61770
552.6141, 27.92754
553.0963, 28.97311
553.5784, 29.19008
554.0605, 28.95152
554.5426, 29.40380
555.0247, 30.49325
555.5068, 31.24390
555.9890, 30.83722
556.4711, 29.77849
556.9532, 28.74367
557.4353, 27.76546
557.9174, 27.35684
558.3995, 28.61648
558.8817, 30.33651
559.3638, 31.15993
559.8459, 30.46647
560.3281, 29.44697
560.8102, 28.14314
561.2923, 26.91417
561.7744, 26.33733
562.2565, 27.31080
562.7386, 28.07447
563.2208, 28.23478
563.7029, 27.86193
564.1850, 27.38223
564.6671, 26.54957
565.1492, 26.05916
565.6313, 26.43870
566.1135, 27.79411
566.5956, 28.40993
567.0777, 28.09809
567.5598, 27.69552
568.0419, 28.25520
568.5240, 29.55876
569.0062, 30.56927
569.4883, 31.15782
569.9704, 31.17309
570.4525, 29.91270
570.9346, 27.87283
571.4167, 26.38975
571.8989, 26.23597
572.3810, 26.68222
572.8631, 27.49990
573.3452, 28.57995
573.8273, 29.33472
574.3094, 29.10364
574.7916, 28.82472
575.2737, 29.15992
575.7558, 30.65878
576.2379, 31.14338
576.7200, 29.90468
577.2021, 28.18838
577.6843, 26.97944
578.1664, 26.18549
578.6485, 26.41413
579.1306, 28.36201
579.6127, 30.65417
580.0948, 29.99288
580.5770, 26.37629
581.0591, 23.51974
581.5412, 23.22465
582.0233, 24.48824
582.5054, 25.27297
582.9875, 25.61021
583.4697, 25.81194
583.9518, 26.02584
584.4339, 26.24048
584.9160, 26.32174
585.3981, 26.19863
585.8802, 26.51132
586.3624, 28.58116
