##NAMES=Seligmannite
##RRUFFID=R090037
##IDEAL CHEMISTRY=Cu^1+^Pb^2+^As^3+^S^2-^_3_
##LOCALITY=Quiruvilca, La Libertad Department, Peru
##OWNER=RRUFF
##SOURCE=Marcus Origlieri
##DESCRIPTION=Striated silver-grey short prismatic crystals on matrix
##STATUS=The identification of this mineral has been confirmed by single-crystal X-ray diffraction.
##URL=rruff.info/R090037
91.11523, 5.796310
91.59735, 5.998906
92.07947, 5.841383
92.56158, 5.425866
93.04370, 5.073274
93.52582, 5.043050
94.00793, 5.199755
94.49006, 5.218137
94.97218, 5.011253
95.45429, 4.782516
95.93641, 4.946393
96.41853, 5.491595
96.90064, 5.955914
97.38276, 5.893743
97.86488, 5.365566
98.34699, 5.070601
98.82911, 5.202740
99.31123, 5.599195
99.79334, 5.701668
100.2755, 5.458419
100.7576, 5.097166
101.2397, 4.767881
101.7218, 4.432645
102.2039, 4.315642
102.6861, 4.556464
103.1682, 5.150807
103.6503, 5.426666
104.1324, 5.254004
104.6145, 4.909701
105.0966, 4.719995
105.5788, 4.742081
106.0609, 4.825594
106.5430, 4.953871
107.0251, 5.166873
107.5072, 5.282548
107.9893, 5.243273
108.4715, 5.121374
108.9536, 5.045852
109.4357, 4.992750
109.9178, 5.007406
110.3999, 5.130708
110.8820, 5.598167
111.3642, 5.785774
111.8463, 5.397093
112.3284, 4.678829
112.8105, 4.310409
113.2926, 4.792067
113.7747, 5.360524
114.2569, 5.616469
114.7390, 4.945022
115.2211, 4.593016
115.7032, 5.049615
116.1853, 6.157892
116.6674, 7.117171
117.1496, 7.644157
117.6317, 7.927956
118.1138, 8.123233
118.5959, 8.155094
119.0780, 8.214784
119.5602, 8.389331
120.0423, 8.678450
120.5244, 9.032880
121.0065, 9.346248
121.4886, 9.725302
121.9707, 10.31368
122.4529, 11.32711
122.9350, 12.47406
123.4171, 13.53256
123.8992, 14.49281
124.3813, 15.36836
124.8634, 16.17367
125.3456, 16.90296
125.8277, 17.54572
126.3098, 18.08402
126.7919, 18.53088
127.2740, 18.82673
127.7561, 18.90674
128.2383, 19.08032
128.7204, 19.88609
129.2025, 21.20073
129.6846, 22.37688
130.1667, 22.82582
130.6488, 22.80047
131.1310, 23.15575
131.6131, 24.09023
132.0952, 25.26455
132.5773, 25.99599
133.0594, 26.27818
133.5416, 26.63079
134.0237, 27.49484
134.5058, 28.84039
134.9879, 30.11417
135.4700, 31.21902
135.9521, 32.21047
136.4343, 33.28193
136.9164, 34.43697
137.3985, 35.67413
137.8806, 37.17229
138.3627, 39.05978
138.8448, 40.33772
139.3270, 40.70336
139.8091, 40.25946
140.2912, 39.91424
140.7733, 39.57862
141.2554, 39.49239
141.7375, 40.02705
142.2197, 41.53747
142.7018, 42.71410
143.1839, 43.11051
143.6660, 42.63924
144.1481, 42.71188
144.6303, 43.48809
145.1124, 44.67501
145.5945, 45.93262
146.0766, 47.45303
146.5587, 48.77026
147.0408, 49.73425
147.5230, 50.25188
148.0051, 50.74265
148.4872, 50.88177
148.9693, 50.73077
149.4514, 50.80896
149.9335, 51.15140
150.4157, 51.67419
150.8978, 52.36655
151.3799, 53.35921
151.8620, 54.26744
152.3441, 55.06322
152.8262, 55.78767
153.3084, 56.49843
153.7905, 57.39980
154.2726, 58.12558
154.7547, 58.55169
155.2368, 58.57872
155.7189, 58.45338
156.2011, 57.99461
156.6832, 57.38529
157.1653, 57.09422
157.6474, 57.47338
158.1295, 57.99744
158.6117, 58.41431
159.0938, 58.75832
159.5759, 58.89003
160.0580, 58.60337
160.5401, 58.03395
161.0222, 57.64736
161.5044, 57.82845
161.9865, 58.10717
162.4686, 58.16221
162.9507, 57.78371
163.4328, 57.32102
163.9149, 56.92355
164.3971, 56.56421
164.8792, 56.12498
165.3613, 55.42400
165.8434, 54.67303
166.3255, 54.06437
166.8076, 53.80577
167.2898, 53.58348
167.7719, 53.20568
168.2540, 52.68912
168.7361, 52.17595
169.2182, 51.74912
169.7004, 51.37264
170.1825, 51.00344
170.6646, 50.68159
171.1467, 50.32392
171.6288, 49.76291
172.1109, 49.01522
172.5931, 48.42160
173.0752, 48.40379
173.5573, 48.68134
174.0394, 48.80081
174.5215, 48.49194
175.0036, 47.97780
175.4858, 47.42121
175.9679, 46.81392
176.4500, 46.37112
176.9321, 46.42078
177.4142, 46.77796
177.8963, 47.01924
178.3785, 46.99266
178.8606, 46.73309
179.3427, 46.15462
179.8248, 45.20953
180.3069, 44.41272
180.7891, 44.41734
181.2712, 45.04115
181.7533, 45.71241
182.2354, 46.27958
182.7175, 46.69371
183.1996, 46.72886
183.6818, 46.31391
184.1639, 45.88686
184.6460, 45.99732
185.1281, 46.56804
185.6102, 47.20311
186.0923, 47.83264
186.5745, 48.38797
187.0566, 48.53518
187.5387, 48.17647
188.0208, 47.72767
188.5029, 47.82177
188.9850, 48.41507
189.4672, 48.97620
189.9493, 49.16453
190.4314, 49.06684
190.9135, 49.18266
191.3956, 49.59180
191.8778, 50.07604
192.3599, 50.24937
192.8420, 50.10903
193.3241, 50.03087
193.8062, 50.24776
194.2883, 50.73428
194.7705, 51.20482
195.2526, 51.66633
195.7347, 52.06404
196.2168, 52.21162
196.6989, 52.07697
197.1810, 52.06758
197.6632, 52.51731
198.1453, 53.42736
198.6274, 54.03780
199.1095, 54.24232
199.5916, 54.22442
200.0737, 54.35698
200.5559, 54.65952
201.0380, 54.99149
201.5201, 55.33776
202.0022, 55.72069
202.4843, 55.82341
202.9665, 55.53938
203.4486, 55.06083
203.9307, 54.82198
204.4128, 54.85069
204.8949, 55.01405
205.3770, 55.33792
205.8592, 55.89145
206.3413, 56.06976
206.8234, 55.72614
207.3055, 55.07428
207.7876, 54.66385
208.2697, 54.54665
208.7519, 54.51964
209.2340, 54.52607
209.7161, 54.61425
210.1982, 54.46935
210.6803, 54.00646
211.1624, 53.33933
211.6446, 52.80249
212.1267, 52.47791
212.6088, 52.09480
213.0909, 51.40861
213.5730, 50.21828
214.0551, 49.54863
214.5373, 49.64143
215.0194, 50.20648
215.5015, 50.43521
215.9836, 50.29926
216.4657, 49.88369
216.9479, 49.10522
217.4300, 47.68316
217.9121, 46.84936
218.3942, 46.90644
218.8763, 47.49927
219.3584, 47.54822
219.8406, 46.79052
220.3227, 45.96767
220.8048, 45.45636
221.2869, 45.35122
221.7690, 45.27929
222.2511, 45.25151
222.7333, 45.24312
223.2154, 45.18917
223.6975, 45.10292
224.1796, 44.94913
224.6617, 44.67967
225.1438, 44.18625
225.6260, 43.86743
226.1081, 43.74831
226.5902, 43.80791
227.0723, 44.01006
227.5544, 44.45174
228.0366, 44.88791
228.5187, 45.22290
229.0008, 45.49416
229.4829, 45.55512
229.9650, 45.29641
230.4471, 44.85563
230.9293, 44.58820
231.4114, 44.50486
231.8935, 44.57271
232.3756, 44.81607
232.8577, 45.41612
233.3398, 45.77356
233.8220, 45.88943
234.3041, 45.76268
234.7862, 45.31904
235.2683, 44.19835
235.7504, 43.32050
236.2325, 43.14245
236.7147, 44.08933
237.1968, 44.63285
237.6789, 44.59873
238.1610, 44.23376
238.6431, 44.08598
239.1253, 44.28089
239.6074, 44.50044
240.0895, 44.63026
240.5716, 44.65741
241.0537, 44.63091
241.5358, 44.54889
242.0180, 44.41399
242.5001, 44.21411
242.9822, 43.86260
243.4643, 43.58514
243.9464, 43.47840
244.4285, 43.60778
244.9107, 43.68178
245.3928, 43.65296
245.8749, 43.59535
246.3570, 43.65833
246.8391, 43.95842
247.3212, 44.17701
247.8034, 44.20330
248.2855, 44.00152
248.7676, 43.73256
249.2497, 43.28318
249.7318, 42.84772
250.2140, 42.78114
250.6961, 43.41242
251.1782, 43.80285
251.6603, 43.55873
252.1424, 42.48478
252.6245, 41.98362
253.1067, 42.33464
253.5888, 43.00283
254.0709, 43.28251
254.5530, 43.00459
255.0351, 42.67936
255.5172, 42.42378
255.9994, 42.23648
256.4815, 42.10921
256.9636, 42.02660
257.4457, 42.02123
257.9278, 42.16367
258.4099, 42.56953
258.8921, 42.86139
259.3742, 42.96523
259.8563, 42.88050
260.3384, 42.57967
260.8205, 41.89658
261.3026, 41.22302
261.7848, 40.96531
262.2669, 41.24529
262.7490, 41.62511
263.2311, 42.09113
263.7132, 42.62428
264.1953, 42.83310
264.6775, 42.57214
265.1596, 42.21901
265.6417, 42.12732
266.1238, 42.39076
266.6059, 42.58252
267.0880, 42.59051
267.5702, 42.45705
268.0523, 42.50169
268.5344, 42.81561
269.0165, 43.12124
269.4987, 43.14450
269.9808, 42.76715
270.4629, 42.67095
270.9450, 43.07691
271.4271, 43.79733
271.9092, 44.01237
272.3914, 43.58309
272.8735, 43.04249
273.3556, 42.72927
273.8377, 42.66400
274.3198, 42.69208
274.8019, 42.82266
275.2841, 43.02085
275.7662, 43.20690
276.2483, 43.38964
276.7304, 43.52192
277.2125, 43.60471
277.6946, 43.64877
278.1768, 43.45181
278.6589, 42.89671
279.1410, 42.23487
279.6231, 42.00805
280.1052, 42.26108
280.5873, 42.63603
281.0695, 42.92328
281.5516, 43.12717
282.0337, 43.60232
282.5158, 44.48823
282.9979, 45.36724
283.4800, 45.43261
283.9622, 44.64260
284.4443, 43.92185
284.9264, 43.68045
285.4085, 43.87905
285.8906, 44.19576
286.3727, 44.65971
286.8549, 45.13465
287.3370, 45.50432
287.8191, 45.76281
288.3012, 45.77440
288.7833, 45.30602
289.2654, 44.55692
289.7476, 44.33381
290.2297, 44.68991
290.7118, 45.15863
291.1939, 45.20167
291.6761, 44.89257
292.1582, 44.67898
292.6403, 44.71662
293.1224, 44.92658
293.6045, 45.09600
294.0866, 45.22233
294.5688, 45.46832
295.0509, 46.17222
295.5330, 47.15376
296.0151, 47.72840
296.4972, 47.56152
296.9793, 47.12885
297.4615, 47.31314
297.9436, 48.04647
298.4257, 48.77155
298.9078, 48.99401
299.3899, 48.91794
299.8720, 48.98328
300.3542, 49.29839
300.8363, 49.71400
301.3184, 50.00256
301.8005, 50.21580
302.2826, 50.55332
302.7647, 51.27192
303.2469, 52.14759
303.7290, 52.90129
304.2111, 53.51194
304.6932, 53.91239
305.1753, 53.85679
305.6574, 53.51609
306.1396, 53.29657
306.6217, 53.50581
307.1038, 53.88134
307.5859, 54.12400
308.0680, 54.19960
308.5501, 54.31887
309.0323, 54.70739
309.5144, 55.23523
309.9965, 55.69399
310.4786, 55.88160
310.9607, 56.05689
311.4428, 56.41932
311.9250, 56.96700
312.4071, 57.58149
312.8892, 58.20897
313.3713, 58.84763
313.8534, 59.50209
314.3355, 60.28907
314.8177, 60.97929
315.2998, 61.42738
315.7819, 61.66158
316.2640, 61.84327
316.7462, 62.02385
317.2283, 62.18700
317.7104, 62.33967
318.1925, 62.62805
318.6746, 62.68878
319.1567, 62.27454
319.6389, 61.52297
320.1210, 60.81157
320.6031, 60.14886
321.0852, 59.63715
321.5673, 59.34948
322.0494, 59.39785
322.5316, 59.43112
323.0137, 59.35140
323.4958, 59.21709
323.9779, 59.12273
324.4600, 59.06419
324.9421, 59.06770
325.4243, 59.11001
325.9064, 59.14907
326.3885, 59.41304
326.8706, 60.00724
327.3527, 60.79937
327.8348, 61.65635
328.3170, 62.77123
328.7991, 63.74268
329.2812, 64.50638
329.7633, 65.06470
330.2454, 65.45680
330.7275, 65.60095
331.2097, 65.63837
331.6918, 65.67024
332.1739, 65.76484
332.6560, 65.73922
333.1381, 65.58423
333.6202, 65.29699
334.1024, 64.86768
334.5845, 64.31152
335.0666, 63.59840
335.5487, 62.68630
336.0308, 61.51092
336.5129, 60.34738
336.9951, 59.17749
337.4772, 58.04558
337.9593, 56.99733
338.4414, 56.04506
338.9236, 55.13782
339.4057, 54.22253
339.8878, 53.29595
340.3699, 52.52436
340.8520, 51.91003
341.3341, 51.44366
341.8163, 51.08618
342.2984, 50.83553
342.7805, 50.74704
343.2626, 50.87831
343.7447, 51.18909
344.2268, 51.48983
344.7090, 51.79145
345.1911, 52.02663
345.6732, 52.05321
346.1553, 51.90998
346.6374, 51.92604
347.1195, 52.20019
347.6017, 52.63197
348.0838, 53.00349
348.5659, 53.32563
349.0480, 53.72405
349.5301, 54.32355
350.0122, 55.06571
350.4944, 55.77039
350.9765, 56.39894
351.4586, 57.04120
351.9407, 57.77219
352.4228, 58.59553
352.9049, 59.52164
353.3871, 60.52310
353.8692, 61.64501
354.3513, 63.05133
354.8334, 64.76834
355.3155, 66.35844
355.7976, 67.39072
356.2798, 68.08811
356.7619, 68.82166
357.2440, 69.88467
357.7261, 70.90514
358.2082, 71.73634
358.6903, 72.34258
359.1725, 72.48369
359.6546, 71.86170
360.1367, 70.79935
360.6188, 69.57168
361.1009, 68.24000
361.5831, 66.78422
362.0652, 65.09550
362.5473, 63.27159
363.0294, 61.55258
363.5115, 60.23895
363.9937, 58.87634
364.4758, 57.18281
364.9579, 54.93785
365.4400, 52.93957
365.9221, 51.42730
366.4042, 50.21181
366.8864, 49.05318
367.3685, 48.07508
367.8506, 46.99441
368.3327, 45.63741
368.8148, 43.96541
369.2969, 42.60337
369.7791, 41.63345
370.2612, 40.90826
370.7433, 40.34890
371.2254, 40.23775
371.7075, 39.84097
372.1896, 38.91099
372.6718, 37.63003
373.1539, 36.79964
373.6360, 36.63168
374.1181, 36.56928
374.6002, 36.36222
375.0823, 35.98074
375.5645, 35.54560
376.0466, 35.03249
376.5287, 34.49856
377.0108, 34.02732
377.4929, 33.62273
377.9750, 33.30669
378.4572, 33.13216
378.9393, 33.07475
379.4214, 32.89293
379.9035, 32.57038
380.3856, 32.19943
380.8677, 31.81701
381.3499, 31.43595
381.8320, 31.26734
382.3141, 31.47321
382.7962, 31.78320
383.2783, 31.51566
383.7604, 30.70763
384.2426, 29.96952
384.7247, 29.79154
385.2068, 29.97307
385.6889, 30.02755
386.1711, 29.87747
386.6532, 29.69444
387.1353, 29.67092
387.6174, 29.76129
388.0995, 29.84574
388.5816, 29.93727
389.0638, 29.95609
389.5459, 29.78306
390.0280, 29.42049
390.5101, 29.04901
390.9922, 28.75383
391.4743, 28.52877
391.9565, 28.36366
392.4386, 28.25252
392.9207, 28.20755
393.4028, 28.31919
393.8849, 28.51723
394.3670, 28.58968
394.8492, 28.26895
395.3313, 27.93541
395.8134, 27.83632
396.2955, 28.12563
396.7776, 28.30317
397.2597, 28.18212
397.7419, 27.91199
398.2240, 27.68637
398.7061, 27.53167
399.1882, 27.42344
399.6703, 27.38675
400.1524, 27.42724
400.6346, 27.39823
401.1167, 27.31447
401.5988, 27.14969
402.0809, 26.86105
402.5630, 26.27444
403.0451, 25.90738
403.5273, 25.83879
404.0094, 25.99959
404.4915, 26.24038
404.9736, 26.65167
405.4557, 26.92075
405.9378, 26.84836
406.4200, 26.38928
406.9021, 26.15165
407.3842, 26.21039
407.8663, 26.32175
408.3484, 26.10946
408.8306, 25.56434
409.3127, 25.18317
409.7948, 25.14965
410.2769, 25.34680
410.7590, 25.48098
411.2411, 25.55288
411.7233, 25.57088
412.2054, 25.50615
412.6875, 25.39177
413.1696, 25.32940
413.6517, 25.34457
414.1339, 25.37414
414.6160, 25.34507
415.0981, 25.27068
415.5802, 25.18734
416.0623, 25.11616
416.5444, 25.04264
417.0266, 24.93169
417.5087, 24.78232
417.9908, 24.68564
418.4729, 24.75071
418.9550, 24.87849
419.4371, 24.96194
419.9193, 24.93703
420.4014, 24.90418
420.8835, 24.92519
421.3656, 24.97498
421.8477, 24.97800
422.3298, 24.82479
422.8120, 24.69070
423.2941, 24.67791
423.7762, 24.86344
424.2583, 24.96285
424.7404, 24.93472
425.2225, 24.80793
425.7047, 24.61098
426.1868, 24.21284
426.6689, 23.92054
427.1510, 23.78976
427.6331, 23.81305
428.1152, 23.90420
428.5974, 24.10916
429.0795, 24.31509
429.5616, 24.47241
430.0437, 24.59741
430.5258, 24.58272
431.0079, 24.36607
431.4901, 24.07961
431.9722, 23.97983
432.4543, 24.08545
432.9364, 24.18239
433.4185, 24.14152
433.9007, 24.02098
434.3828, 24.16297
434.8649, 24.59392
435.3470, 24.96325
435.8291, 24.86067
436.3112, 24.42393
436.7934, 24.10749
437.2755, 24.02831
437.7576, 24.04032
438.2397, 23.96306
438.7218, 23.82292
439.2039, 23.70744
439.6861, 23.69861
440.1682, 23.71907
440.6503, 23.70887
441.1324, 23.66565
441.6145, 23.54383
442.0966, 23.08327
442.5788, 22.62104
443.0609, 22.52404
443.5430, 23.39342
444.0251, 24.12480
444.5072, 24.23587
444.9893, 23.87214
445.4715, 23.56761
445.9536, 23.41361
446.4357, 23.36572
446.9178, 23.42804
447.3999, 23.66861
447.8820, 23.83662
448.3642, 23.97251
448.8463, 24.01130
449.3284, 23.85737
449.8105, 23.32010
450.2926, 22.94404
450.7747, 22.84662
451.2569, 22.99154
451.7390, 23.16730
452.2211, 23.39245
452.7032, 23.60488
453.1853, 23.79624
453.6674, 23.97494
454.1496, 23.99486
454.6317, 23.83994
455.1138, 23.55170
455.5959, 23.08870
456.0781, 22.47862
456.5602, 22.08675
457.0423, 22.12559
457.5244, 22.40814
458.0065, 22.60485
458.4886, 22.71427
458.9708, 22.73570
459.4529, 22.53644
459.9350, 22.28824
460.4171, 22.31168
460.8992, 22.74355
461.3813, 23.12711
461.8635, 23.00760
462.3456, 22.61547
462.8277, 22.34200
463.3098, 22.50101
463.7919, 22.67838
464.2740, 22.58359
464.7562, 22.24111
465.2383, 22.08212
465.7204, 22.48479
466.2025, 22.94104
466.6846, 23.11764
467.1667, 22.68354
467.6489, 22.44479
468.1310, 22.67517
468.6131, 23.06109
469.0952, 23.08049
469.5773, 22.42691
470.0594, 21.89888
470.5416, 21.71513
471.0237, 21.86443
471.5058, 21.98040
471.9879, 22.04604
472.4700, 22.11720
472.9521, 22.27168
473.4343, 22.52162
473.9164, 22.62121
474.3985, 22.53059
474.8806, 22.31972
475.3627, 22.02499
475.8448, 21.66800
476.3270, 21.47531
476.8091, 21.60854
477.2912, 21.94530
477.7733, 22.33458
478.2554, 22.76260
478.7375, 23.01861
479.2197, 22.80433
479.7018, 22.36713
480.1839, 22.04753
480.6660, 21.93245
481.1482, 21.88980
481.6303, 21.87805
482.1124, 21.87445
482.5945, 21.84044
483.0766, 21.74897
483.5587, 21.63558
484.0409, 21.45604
484.5230, 21.21967
485.0051, 21.15990
485.4872, 21.48946
485.9693, 21.88800
486.4514, 22.16869
486.9336, 22.31314
487.4157, 22.37149
487.8978, 22.33608
488.3799, 22.21888
488.8620, 21.99800
489.3441, 21.55398
489.8263, 21.31800
490.3084, 21.48294
490.7905, 21.97101
491.2726, 22.17710
491.7547, 22.06235
492.2368, 21.86502
492.7190, 21.72336
493.2011, 21.64085
493.6832, 21.69650
494.1653, 21.93526
494.6474, 22.16454
495.1295, 22.06234
495.6117, 21.73764
496.0938, 21.53230
496.5759, 21.69046
497.0580, 21.94057
497.5401, 21.97875
498.0222, 21.83891
498.5044, 21.69225
498.9865, 21.68182
499.4686, 21.67469
499.9507, 21.53526
500.4328, 21.18936
500.9149, 20.92653
501.3971, 20.88775
501.8792, 20.96589
502.3613, 21.03583
502.8434, 21.03437
503.3256, 21.07320
503.8077, 21.20148
504.2898, 21.39291
504.7719, 21.53284
505.2540, 21.65211
505.7361, 21.67172
506.2183, 21.50817
506.7004, 21.10132
507.1825, 20.95134
507.6646, 21.15627
508.1467, 21.40842
508.6288, 21.31664
509.1110, 20.88284
509.5931, 20.53834
510.0752, 20.35524
510.5573, 20.32692
511.0394, 20.51935
511.5215, 20.89544
512.0037, 21.22000
512.4858, 21.28908
512.9679, 21.26056
513.4500, 21.43213
513.9321, 21.80770
514.4142, 22.02568
514.8964, 21.63583
515.3785, 21.04252
515.8606, 20.68941
516.3427, 20.77723
516.8248, 20.94137
517.3069, 21.09183
517.7891, 21.21591
518.2712, 21.29043
518.7533, 21.31004
519.2354, 21.27844
519.7175, 21.16373
520.1996, 20.96862
520.6818, 20.84830
521.1639, 20.82929
521.6460, 20.85256
522.1281, 20.90144
522.6102, 21.00720
523.0923, 20.99745
523.5745, 20.81420
524.0566, 20.60422
524.5387, 20.61481
525.0208, 20.84549
525.5029, 21.02187
525.9850, 21.04547
526.4672, 20.98181
526.9493, 20.98040
527.4314, 21.03243
527.9135, 21.06069
528.3956, 21.00980
528.8777, 20.90961
529.3599, 20.78662
529.8420, 20.63880
530.3241, 20.51990
530.8062, 20.50412
531.2883, 20.51963
531.7704, 20.48194
532.2526, 20.25429
532.7347, 20.11915
533.2168, 20.23592
533.6989, 20.50548
534.1810, 20.69850
534.6631, 20.75706
535.1453, 20.75820
535.6274, 20.73478
536.1095, 20.68892
536.5916, 20.50166
537.0737, 20.02204
537.5558, 19.63162
538.0380, 19.62885
538.5201, 20.07778
539.0023, 20.51460
539.4844, 20.95720
539.9665, 21.26796
540.4486, 21.11309
540.9307, 20.55787
541.4128, 20.14968
541.8950, 20.13106
542.3771, 20.30254
542.8592, 20.30285
543.3413, 20.17944
543.8234, 20.18120
544.3055, 20.70700
544.7877, 21.28464
545.2698, 21.39214
545.7519, 20.94735
546.2340, 20.49125
546.7161, 20.27982
547.1982, 20.18317
547.6804, 20.08084
548.1625, 19.88590
548.6446, 19.76562
549.1267, 19.78939
549.6088, 19.89674
550.0909, 19.96293
550.5731, 19.94036
551.0552, 19.96169
551.5373, 20.11227
552.0194, 20.36118
552.5015, 20.35193
552.9836, 20.02514
553.4658, 19.65026
553.9479, 19.34389
554.4300, 19.11975
554.9121, 19.17756
555.3942, 19.56568
555.8763, 20.02722
556.3585, 20.31541
556.8406, 20.44732
557.3227, 20.46251
557.8048, 20.35326
558.2869, 20.15926
558.7690, 19.84538
559.2512, 19.47114
559.7333, 19.19099
560.2154, 19.05433
560.6975, 19.04797
561.1796, 19.22212
561.6617, 19.58136
562.1439, 19.85952
562.6260, 20.04527
563.1081, 20.10013
563.5902, 19.98615
564.0723, 19.50940
564.5544, 19.28637
565.0366, 19.40015
565.5187, 19.68379
566.0008, 19.92585
566.4829, 20.12808
566.9650, 20.28439
567.4471, 20.37791
567.9293, 20.43954
568.4114, 20.60958
568.8935, 20.87043
569.3756, 20.96122
569.8577, 20.58365
570.3398, 19.98745
570.8220, 19.59889
571.3041, 19.41984
571.7862, 19.38998
572.2683, 19.59791
572.7504, 19.86373
573.2325, 20.00841
573.7147, 19.97126
574.1968, 19.87552
574.6789, 19.66535
575.1610, 19.45732
575.6431, 19.40016
576.1252, 19.60976
576.6074, 19.87161
577.0895, 20.27114
577.5716, 20.70909
578.0537, 20.78416
578.5358, 20.36938
579.0179, 19.87909
579.5001, 19.39855
579.9822, 18.94413
580.4643, 18.93400
580.9464, 19.42603
581.4285, 19.96149
581.9106, 20.17614
582.3928, 20.11890
582.8749, 19.91079
583.3570, 19.52967
583.8391, 19.18612
584.3212, 19.13455
584.8033, 19.25257
585.2855, 19.32804
585.7676, 19.16896
586.2498, 19.07280
586.7319, 19.33541
587.2140, 19.79199
587.6961, 19.97095
588.1782, 19.34986
588.6603, 18.82497
