##NAMES=Seligmannite
##RRUFFID=R100189
##IDEAL CHEMISTRY=Cu^1+^Pb^2+^As^3+^S^2-^_3_
##LOCALITY=Palomo mine, Huancavelica Department, Peru
##OWNER=RRUFF
##SOURCE=William W. Pinch
##DESCRIPTION=Black short prismatic crystals on galena associated with quartz and sphalerite
##STATUS=The identification of this mineral has been confirmed by single-crystal X-ray diffraction.
##URL=rruff.info/R100189
127.7284, 59.65804
128.2105, 60.12208
128.6927, 59.95690
129.1748, 58.92260
129.6569, 57.61731
130.1390, 56.56401
130.6211, 55.77851
131.1032, 55.15643
131.5854, 54.79929
132.0675, 54.52508
132.5496, 54.15273
133.0317, 53.58001
133.5138, 52.91923
133.9959, 52.41344
134.4781, 52.01524
134.9602, 51.89036
135.4423, 52.25789
135.9244, 52.84413
136.4065, 53.26907
136.8886, 53.26838
137.3708, 52.88855
137.8529, 52.77972
138.3350, 53.46795
138.8171, 53.91874
139.2992, 53.81964
139.7813, 53.27348
140.2635, 52.52901
140.7456, 51.76653
141.2277, 50.95610
141.7098, 50.44883
142.1919, 50.32015
142.6740, 50.35828
143.1561, 50.58826
143.6383, 50.95558
144.1204, 51.16996
144.6025, 50.82569
145.0846, 49.78379
145.5667, 49.30629
146.0488, 49.99276
146.5310, 51.01790
147.0131, 51.47320
147.4952, 51.15260
147.9773, 50.51731
148.4594, 50.00463
148.9415, 49.59612
149.4237, 49.27671
149.9058, 48.95903
150.3879, 48.71956
150.8700, 48.83227
151.3521, 49.57672
151.8342, 50.36370
152.3164, 50.70028
152.7985, 50.62560
153.2806, 50.44601
153.7627, 50.44516
154.2448, 50.63166
154.7269, 50.55872
155.2091, 49.78527
155.6912, 49.01784
156.1733, 48.61883
156.6554, 48.61277
157.1375, 48.80029
157.6196, 48.94887
158.1018, 49.02547
158.5839, 49.16251
159.0660, 49.25883
159.5481, 49.47748
160.0302, 49.99689
160.5123, 50.83310
160.9945, 51.79021
161.4766, 52.52664
161.9587, 53.01308
162.4408, 53.28114
162.9229, 53.25756
163.4050, 53.07276
163.8871, 52.77862
164.3693, 52.39922
164.8514, 52.04147
165.3335, 51.98076
165.8156, 52.51717
166.2977, 52.93097
166.7798, 53.04832
167.2620, 53.01675
167.7441, 53.00582
168.2262, 53.04923
168.7083, 53.24983
169.1904, 53.97052
169.6725, 55.55825
170.1547, 56.93351
170.6368, 57.52996
171.1189, 57.52959
171.6010, 57.54522
172.0831, 57.83210
172.5652, 58.32212
173.0474, 58.84325
173.5295, 59.42281
174.0116, 59.97931
174.4937, 60.37329
174.9758, 60.60607
175.4579, 61.00046
175.9401, 61.72112
176.4222, 62.68591
176.9043, 63.85582
177.3864, 65.30455
177.8685, 66.77847
178.3506, 67.88683
178.8328, 68.47749
179.3149, 69.26180
179.7970, 70.78966
180.2791, 72.47726
180.7612, 73.81680
181.2433, 74.62288
181.7255, 75.03457
182.2076, 75.30496
182.6897, 75.25926
183.1718, 75.40501
183.6539, 75.79949
184.1360, 76.41434
184.6181, 77.28364
185.1003, 78.44198
185.5824, 79.76011
186.0645, 80.77036
186.5466, 81.31827
187.0287, 81.70381
187.5108, 81.99593
187.9930, 82.14626
188.4751, 81.99364
188.9572, 81.41987
189.4393, 80.58366
189.9214, 80.40125
190.4035, 81.50780
190.8857, 82.56089
191.3678, 83.51882
191.8499, 84.23957
192.3320, 84.46425
192.8141, 83.98483
193.2962, 82.91373
193.7784, 82.11147
194.2605, 81.88992
194.7426, 81.54136
195.2247, 80.62373
195.7068, 79.34395
196.1889, 78.34713
196.6711, 78.13474
197.1532, 78.48045
197.6353, 78.21424
198.1174, 76.71638
198.5995, 75.23647
199.0816, 74.69266
199.5638, 74.92110
200.0459, 74.80173
200.5280, 73.51844
201.0101, 71.41734
201.4922, 69.67967
201.9743, 68.44397
202.4565, 67.47189
202.9386, 66.60005
203.4207, 65.82754
203.9028, 65.12730
204.3849, 64.56992
204.8670, 64.05029
205.3492, 63.44263
205.8313, 62.78167
206.3134, 61.94991
206.7955, 60.74536
207.2776, 59.09442
207.7597, 57.41230
208.2419, 55.35395
208.7240, 53.55739
209.2061, 52.89784
209.6882, 53.92996
210.1703, 55.64662
210.6524, 56.23389
211.1346, 55.22671
211.6167, 54.26116
212.0988, 53.93144
212.5809, 53.85846
213.0630, 53.70957
213.5451, 53.36179
214.0273, 52.84187
214.5094, 52.16871
214.9915, 51.14144
215.4736, 50.33881
215.9557, 49.90466
216.4378, 49.68987
216.9200, 49.56247
217.4021, 49.46748
217.8842, 49.40131
218.3663, 49.36630
218.8484, 49.48212
219.3305, 49.44264
219.8127, 49.32679
220.2948, 49.01139
220.7769, 48.18882
221.2590, 46.71749
221.7411, 45.01361
222.2232, 44.32365
222.7054, 45.99682
223.1875, 47.12782
223.6696, 47.38441
224.1517, 47.07654
224.6338, 46.42200
225.1159, 45.51001
225.5980, 44.56989
226.0802, 44.28058
226.5623, 45.76024
227.0444, 46.56526
227.5265, 45.99822
228.0086, 44.80550
228.4907, 43.92910
228.9729, 43.76704
229.4550, 44.09840
229.9371, 44.37728
230.4192, 44.56572
230.9013, 44.76504
231.3834, 45.15555
231.8656, 45.52901
232.3477, 45.50193
232.8298, 44.88165
233.3119, 43.98426
233.7940, 43.51739
234.2761, 43.59492
234.7583, 43.70028
235.2404, 43.79300
235.7225, 43.81778
236.2046, 43.63160
236.6867, 43.13338
237.1688, 42.54018
237.6510, 42.27923
238.1331, 42.40748
238.6152, 42.43910
239.0973, 42.06498
239.5794, 41.48739
240.0615, 41.15907
240.5437, 41.24382
241.0258, 41.52285
241.5079, 41.72026
241.9900, 41.83965
242.4721, 41.95015
242.9542, 42.17673
243.4364, 42.41841
243.9185, 42.37645
244.4006, 41.89431
244.8827, 41.29544
245.3648, 40.94281
245.8469, 40.80015
246.3290, 40.59454
246.8112, 40.05053
247.2933, 39.32872
247.7754, 38.94774
248.2575, 39.11863
248.7396, 39.40301
249.2217, 39.41841
249.7039, 39.24260
250.1860, 39.14140
250.6681, 39.40571
251.1502, 39.88456
251.6323, 39.98101
252.1144, 39.47416
252.5966, 38.89068
253.0787, 38.56487
253.5608, 38.40979
254.0429, 38.22163
254.5250, 37.80902
255.0071, 37.27089
255.4893, 37.00122
255.9714, 37.10028
256.4535, 37.33310
256.9356, 37.66068
257.4177, 38.01676
257.8998, 38.30102
258.3820, 38.47207
258.8641, 38.52408
259.3462, 38.41998
259.8283, 38.06872
260.3104, 37.70230
260.7925, 37.40789
261.2747, 37.14227
261.7568, 36.82314
262.2389, 36.37682
262.7210, 35.90803
263.2031, 35.73191
263.6852, 35.99143
264.1674, 36.32344
264.6495, 36.83574
265.1316, 37.28698
265.6137, 37.31117
266.0958, 36.72144
266.5779, 35.89593
267.0601, 35.80759
267.5422, 37.08857
268.0243, 37.97544
268.5064, 38.12646
268.9885, 37.88787
269.4706, 37.47440
269.9528, 36.97560
270.4349, 36.50806
270.9170, 36.32386
271.3991, 36.64157
271.8812, 36.81798
272.3633, 36.58495
272.8455, 36.35664
273.3276, 36.56487
273.8097, 37.26539
274.2918, 38.04641
274.7739, 38.25985
275.2560, 37.61074
275.7382, 36.98893
276.2202, 36.05539
276.7024, 35.38519
277.1845, 35.54424
277.6666, 36.49167
278.1487, 37.56528
278.6308, 37.92466
279.1129, 37.26886
279.5951, 36.93200
280.0772, 37.07177
280.5593, 37.32944
281.0414, 37.62037
281.5235, 37.87743
282.0056, 37.97300
282.4878, 37.74874
282.9699, 37.12391
283.4520, 36.76497
283.9341, 36.69662
284.4162, 36.82032
284.8983, 37.11748
285.3805, 37.57741
285.8626, 38.25867
286.3447, 39.28478
286.8268, 40.63405
287.3089, 41.11082
287.7910, 39.87983
288.2732, 38.75002
288.7553, 38.31199
289.2374, 38.34812
289.7195, 38.36338
290.2016, 38.04265
290.6837, 37.49277
291.1659, 37.31880
291.6480, 37.89109
292.1301, 38.40387
292.6122, 38.67671
293.0943, 38.82483
293.5764, 39.01628
294.0586, 39.32961
294.5407, 39.72369
295.0228, 40.08893
295.5049, 40.42235
295.9870, 40.72779
296.4691, 41.01348
296.9513, 41.26784
297.4334, 41.43397
297.9155, 41.50000
298.3976, 41.58950
298.8797, 41.92168
299.3618, 42.72625
299.8440, 43.34850
300.3261, 43.60923
300.8082, 43.79940
301.2903, 44.09226
301.7724, 44.54381
302.2545, 45.23335
302.7367, 46.32124
303.2188, 48.02257
303.7009, 49.21803
304.1830, 49.54907
304.6651, 49.72256
305.1472, 50.08393
305.6294, 50.69136
306.1115, 51.53299
306.5936, 52.61805
307.0757, 53.96550
307.5578, 55.31811
308.0399, 56.88949
308.5221, 58.26214
309.0042, 59.10175
309.4863, 59.57547
309.9684, 60.07795
310.4505, 60.83474
310.9326, 61.85210
311.4148, 63.17787
311.8969, 65.24184
312.3790, 67.07765
312.8611, 68.38818
313.3432, 69.33015
313.8253, 70.10974
314.3075, 70.79617
314.7896, 71.50417
315.2717, 72.55226
315.7538, 74.40134
316.2359, 75.92887
316.7180, 76.93649
317.2001, 77.62884
317.6823, 78.22581
318.1644, 78.79385
318.6465, 79.24490
319.1286, 79.41707
319.6107, 79.05727
320.0928, 79.04514
320.5750, 79.82848
321.0571, 80.64079
321.5392, 80.75664
322.0213, 80.16963
322.5034, 79.57566
322.9855, 79.75786
323.4677, 80.93169
323.9498, 81.17941
324.4319, 79.89156
324.9140, 78.39816
325.3961, 77.35107
325.8782, 76.68043
326.3604, 75.95271
326.8425, 74.82614
327.3246, 73.37277
327.8067, 72.40390
328.2888, 72.63345
328.7709, 72.47118
329.2531, 71.15273
329.7352, 69.24048
330.2173, 67.68069
330.6994, 66.93223
331.1815, 66.71244
331.6636, 66.25336
332.1458, 65.22450
332.6279, 64.35920
333.1100, 63.75414
333.5921, 63.28932
334.0742, 62.81062
334.5563, 62.28902
335.0385, 61.86165
335.5206, 61.75024
336.0027, 62.13250
336.4848, 62.38704
336.9669, 62.38736
337.4490, 62.37503
337.9312, 62.49202
338.4133, 62.75237
338.8954, 63.09115
339.3775, 63.42946
339.8596, 63.74427
340.3417, 64.37116
340.8239, 65.58498
341.3060, 66.77800
341.7881, 67.70820
342.2702, 68.45564
342.7523, 69.21638
343.2344, 70.11430
343.7166, 71.10410
344.1987, 71.95603
344.6808, 72.68357
345.1629, 73.23479
345.6450, 73.59824
346.1271, 73.77962
346.6093, 73.68153
347.0914, 73.28977
347.5735, 72.85808
348.0556, 72.89091
348.5377, 73.70205
349.0198, 74.43784
349.5020, 75.56468
349.9841, 76.29523
350.4662, 75.88406
350.9483, 74.38352
351.4304, 72.53383
351.9125, 71.09332
352.3947, 70.08290
352.8768, 69.36552
353.3589, 69.62854
353.8410, 69.50388
354.3231, 68.18468
354.8052, 66.10197
355.2874, 64.20333
355.7695, 63.16583
356.2516, 62.81524
356.7337, 62.13234
357.2158, 60.92829
357.6979, 59.61535
358.1800, 58.21216
358.6621, 56.77079
359.1443, 55.39022
359.6264, 54.09991
360.1085, 52.77405
360.5906, 51.11212
361.0727, 48.87978
361.5548, 46.92800
362.0370, 45.65303
362.5191, 44.43480
363.0012, 42.85215
363.4833, 40.88387
363.9654, 38.86071
364.4475, 37.00542
364.9297, 35.29784
365.4118, 34.11832
365.8939, 33.94837
366.3760, 33.80843
366.8581, 33.31629
367.3402, 32.56102
367.8224, 31.75765
368.3045, 31.03132
368.7866, 30.34966
369.2687, 29.57220
369.7508, 28.55475
370.2329, 27.77780
370.7151, 27.52825
371.1972, 27.51574
371.6793, 27.50685
372.1614, 27.45088
372.6435, 27.27573
373.1256, 26.82029
373.6078, 26.05703
374.0899, 25.43015
374.5720, 25.14642
375.0541, 24.93061
375.5362, 24.57858
376.0183, 24.09257
376.5005, 23.58853
376.9826, 23.02046
377.4647, 22.47654
377.9468, 22.37085
378.4289, 22.97002
378.9110, 23.46790
379.3932, 23.11033
379.8753, 22.28518
380.3574, 21.74800
380.8395, 22.01204
381.3216, 22.40908
381.8037, 21.92756
382.2859, 20.54154
382.7680, 19.50996
383.2501, 19.51154
383.7322, 20.12914
384.2143, 20.65854
384.6964, 21.08646
385.1786, 21.41912
385.6607, 21.61096
386.1428, 21.70566
386.6249, 21.87107
387.1070, 22.21199
387.5891, 22.44077
388.0713, 22.07462
388.5534, 21.17715
389.0355, 20.46216
389.5176, 20.08509
389.9997, 19.94845
390.4818, 19.99819
390.9640, 20.22102
391.4461, 20.56619
391.9282, 21.13671
392.4103, 21.77383
392.8924, 21.73291
393.3745, 20.09711
393.8567, 18.84341
394.3388, 19.10640
394.8209, 20.25828
395.3030, 21.10434
395.7851, 21.20609
396.2672, 20.82015
396.7494, 20.35667
397.2315, 19.69025
397.7136, 19.26802
398.1957, 19.17870
398.6778, 19.29059
399.1599, 19.59459
399.6420, 20.03434
400.1241, 20.39212
400.6063, 20.45711
401.0884, 20.21809
401.5705, 20.07656
402.0526, 20.17818
402.5347, 20.20294
403.0168, 19.98135
403.4990, 19.63254
403.9811, 19.32410
404.4632, 19.13488
404.9453, 19.08861
405.4274, 19.29173
405.9095, 20.23365
406.3917, 20.56339
406.8738, 19.59281
407.3559, 18.53205
407.8380, 18.39242
408.3201, 19.18554
408.8022, 20.07715
409.2844, 20.21384
409.7665, 19.54171
410.2486, 18.94369
410.7307, 18.35972
411.2128, 17.93171
411.6949, 17.69347
412.1771, 17.63884
412.6592, 17.80390
413.1413, 18.24948
413.6234, 18.77719
414.1055, 18.92374
414.5876, 18.55433
415.0698, 18.21442
415.5519, 17.83495
416.0340, 17.66589
416.5161, 18.08947
416.9982, 19.09133
417.4803, 19.93979
417.9625, 19.91146
418.4446, 19.13247
418.9267, 18.45215
419.4088, 17.90983
419.8909, 17.51126
420.3730, 17.39746
420.8552, 17.41512
421.3373, 17.22702
421.8194, 16.54472
422.3015, 15.79064
422.7836, 15.40710
423.2657, 15.39561
423.7479, 15.82472
424.2300, 17.06614
424.7121, 18.45355
425.1942, 18.89731
425.6763, 18.21729
426.1584, 17.56051
426.6406, 17.50918
427.1227, 17.77330
427.6048, 17.84525
428.0869, 17.63018
428.5690, 17.37046
429.0511, 17.26497
429.5333, 17.32724
430.0154, 17.48116
430.4975, 17.87302
430.9796, 18.21889
431.4617, 18.36585
431.9438, 18.33869
432.4260, 18.20267
432.9081, 17.98163
433.3902, 17.69720
433.8723, 17.39439
434.3544, 16.98217
434.8365, 16.71116
435.3187, 16.64444
435.8008, 16.68520
436.2829, 16.85799
436.7650, 17.10242
437.2471, 17.15727
437.7292, 16.71101
438.2114, 15.73556
438.6935, 15.32353
439.1756, 16.07254
439.6577, 16.72878
440.1398, 17.05122
440.6219, 17.09957
441.1040, 16.86823
441.5862, 16.35903
442.0683, 15.86768
442.5504, 16.07571
443.0325, 17.42395
443.5146, 18.11330
443.9967, 17.27210
444.4789, 16.33515
444.9610, 16.05479
445.4431, 16.37279
445.9252, 16.80062
446.4073, 16.97180
446.8894, 16.97891
447.3716, 17.22313
447.8537, 17.84519
448.3358, 18.35099
448.8179, 18.56541
449.3000, 18.53238
449.7821, 18.23619
450.2643, 17.63823
450.7464, 16.94464
451.2285, 16.19507
451.7106, 15.45693
452.1927, 15.14908
452.6748, 15.48099
453.1570, 16.00091
453.6391, 16.24499
454.1212, 16.27538
454.6033, 16.36643
455.0854, 16.57496
455.5675, 16.87408
456.0497, 17.36881
456.5318, 17.98951
457.0139, 18.35659
457.4960, 18.26534
457.9781, 17.80839
458.4602, 17.17211
458.9424, 16.12321
459.4245, 15.39970
459.9066, 15.24106
460.3887, 15.41057
460.8708, 15.81938
461.3529, 16.38235
461.8351, 16.76686
462.3172, 16.63125
462.7993, 15.95676
463.2814, 15.36431
463.7635, 14.52240
464.2456, 14.13198
464.7278, 14.58723
465.2099, 15.52811
465.6920, 16.60260
466.1741, 17.65680
466.6562, 18.42719
467.1383, 18.34847
467.6205, 17.00738
468.1026, 16.10227
468.5847, 15.97988
469.0668, 16.04676
469.5489, 16.13599
470.0310, 16.20276
470.5132, 16.19607
470.9953, 16.04716
471.4774, 15.83994
471.9595, 15.79132
472.4416, 15.92153
472.9237, 16.14056
473.4059, 16.68357
473.8880, 17.13169
474.3701, 16.92459
474.8522, 15.97078
475.3343, 15.24109
475.8164, 15.73064
476.2986, 16.87819
476.7807, 17.15832
477.2628, 16.25240
477.7449, 15.28656
478.2270, 15.09994
478.7091, 15.57055
479.1913, 16.08648
479.6734, 17.01187
480.1555, 17.53865
480.6376, 16.79581
481.1197, 15.39854
481.6018, 14.72069
482.0839, 15.23640
482.5660, 16.24461
483.0482, 16.80796
483.5303, 16.83592
484.0124, 16.64553
484.4945, 15.85333
484.9766, 15.21556
485.4587, 15.27767
485.9409, 15.82535
486.4230, 16.28286
486.9051, 16.32130
487.3872, 16.10011
487.8693, 16.08738
488.3514, 16.43086
488.8336, 16.70957
489.3157, 16.98539
489.7978, 17.12636
490.2799, 16.89583
490.7620, 16.39241
491.2441, 16.06732
491.7263, 16.45758
492.2084, 17.31650
492.6905, 17.34822
493.1726, 16.17523
493.6547, 15.08451
494.1368, 14.54533
494.6190, 14.38959
495.1011, 14.59574
495.5832, 15.22025
496.0653, 15.72425
496.5474, 15.52000
497.0295, 14.86335
497.5117, 14.62237
497.9938, 15.03677
498.4759, 15.37889
498.9580, 14.87286
499.4401, 13.72944
499.9222, 13.10728
500.4044, 13.47057
500.8865, 13.95967
501.3686, 14.03720
501.8507, 13.93184
502.3328, 14.23115
502.8149, 15.15280
503.2971, 16.14300
503.7792, 16.37052
504.2613, 15.50992
504.7434, 15.05151
505.2255, 15.28435
505.7076, 15.58747
506.1898, 15.76134
506.6719, 15.76702
507.1540, 15.51430
507.6361, 14.93699
508.1182, 14.27859
508.6003, 14.18175
509.0825, 14.98767
509.5646, 15.43796
510.0467, 15.01424
510.5288, 14.54457
511.0109, 14.52349
511.4930, 14.87611
511.9752, 15.20247
512.4573, 15.24116
512.9394, 15.09500
513.4215, 15.05195
513.9036, 15.16459
514.3857, 15.01375
514.8679, 14.10484
515.3500, 13.10254
515.8321, 12.93264
516.3142, 13.70805
516.7963, 14.43581
517.2784, 14.71820
517.7606, 14.69076
518.2427, 14.44936
518.7248, 14.02412
519.2069, 13.66319
519.6890, 13.51244
520.1711, 13.56624
520.6533, 13.81403
521.1354, 14.39309
521.6175, 14.95161
522.0996, 15.60526
522.5817, 16.11169
523.0638, 16.10658
523.5460, 15.60284
524.0281, 15.03493
524.5102, 14.83487
524.9923, 14.98947
525.4744, 15.00450
525.9565, 14.69110
526.4387, 14.48564
526.9208, 14.58733
527.4029, 14.77632
527.8850, 14.81347
528.3671, 14.64151
528.8492, 14.39804
529.3314, 14.19020
529.8135, 14.02362
530.2956, 13.97360
530.7777, 14.11001
531.2598, 14.22716
531.7419, 14.08223
532.2241, 13.85774
532.7062, 13.88338
533.1883, 14.33969
533.6704, 14.80791
534.1525, 15.09410
534.6346, 15.17155
535.1168, 14.85045
535.5989, 14.04314
536.0810, 13.32366
536.5631, 13.32352
537.0452, 14.08536
537.5273, 14.63224
538.0095, 14.80543
538.4916, 14.96343
538.9737, 15.34985
539.4558, 15.76885
539.9379, 15.92268
540.4200, 15.71765
540.9022, 15.27228
541.3843, 14.65826
541.8664, 13.73847
542.3485, 13.43258
542.8306, 14.29662
543.3127, 15.20193
543.7948, 16.05779
544.2769, 16.65049
544.7590, 16.56359
545.2411, 15.56944
545.7233, 14.41066
546.2054, 14.07631
546.6875, 14.50830
547.1696, 14.85562
547.6517, 14.94478
548.1339, 15.01259
548.6160, 15.21307
549.0981, 15.54333
549.5802, 16.04645
550.0623, 17.02579
550.5444, 17.86329
551.0266, 18.17570
551.5087, 18.04657
551.9908, 17.58156
552.4729, 16.79790
552.9550, 15.96945
553.4371, 15.43763
553.9193, 15.24620
554.4014, 15.09572
554.8835, 14.92073
555.3656, 14.85152
555.8477, 14.98364
556.3298, 15.23538
556.8120, 15.53823
557.2941, 15.85783
557.7762, 16.06685
558.2583, 15.90875
558.7404, 15.31359
559.2225, 14.95495
559.7047, 15.01945
560.1868, 15.10919
560.6689, 15.04638
561.1510, 14.87897
561.6331, 14.64581
562.1152, 14.28062
562.5974, 14.07669
563.0795, 14.59693
563.5616, 15.54574
564.0437, 15.75053
564.5258, 14.87430
565.0079, 13.70340
565.4901, 12.82749
565.9722, 12.28413
566.4543, 12.16217
566.9364, 12.84259
567.4185, 13.50458
567.9006, 13.85275
568.3828, 13.98613
568.8649, 13.98586
569.3470, 13.90099
569.8291, 13.89497
570.3112, 14.18362
570.7933, 14.79206
571.2755, 15.27022
571.7576, 15.77392
572.2397, 15.92585
572.7218, 15.27541
573.2039, 14.42044
573.6860, 14.13661
574.1682, 14.59816
574.6503, 15.07278
575.1324, 14.71550
575.6145, 13.75214
576.0966, 13.19446
576.5787, 13.14557
577.0609, 13.35607
577.5430, 13.87272
578.0251, 14.48339
578.5072, 14.65744
578.9893, 14.12736
579.4714, 13.74097
579.9536, 13.96464
580.4357, 14.43414
580.9178, 14.81739
581.3999, 15.01953
581.8820, 14.84763
582.3641, 14.08691
582.8463, 12.88295
583.3284, 12.07576
583.8105, 11.80546
584.2926, 11.75885
584.7747, 12.08369
585.2568, 12.47973
585.7390, 12.64593
586.2211, 12.63124
586.7032, 12.79517
587.1853, 13.53615
587.6674, 14.53634
588.1495, 14.83201
588.6317, 14.29664
589.1138, 13.84898
589.5959, 13.86269
590.0780, 14.01615
590.5601, 13.88793
591.0422, 13.48391
591.5244, 13.20259
592.0065, 13.09245
592.4886, 13.21365
592.9707, 13.82462
593.4528, 14.74441
593.9349, 15.40686
594.4171, 15.56422
594.8992, 15.30533
595.3813, 14.71691
595.8634, 13.48450
596.3455, 12.87405
596.8276, 13.44386
597.3098, 13.95858
597.7919, 13.72829
598.2740, 13.13155
598.7561, 12.91425
599.2382, 13.39603
599.7203, 14.03626
600.2025, 14.01024
600.6846, 13.34334
601.1667, 13.01714
601.6488, 13.25110
602.1309, 13.58923
602.6130, 13.72831
603.0952, 13.74873
603.5773, 13.81914
604.0594, 14.05906
604.5415, 14.16600
605.0236, 13.79336
605.5057, 13.26382
605.9879, 13.14513
606.4700, 13.49568
606.9521, 13.87943
607.4342, 13.93711
607.9163, 13.70824
608.3984, 13.49018
608.8806, 13.28582
609.3627, 13.09012
609.8448, 12.88637
610.3269, 12.70283
610.8090, 12.42252
611.2911, 12.14498
611.7733, 12.28905
612.2554, 13.41374
612.7375, 14.91339
613.2196, 15.23434
613.7017, 14.25451
614.1838, 13.39107
614.6660, 13.06099
615.1481, 13.02512
615.6302, 13.06776
616.1123, 13.18153
616.5944, 13.22309
617.0765, 13.19049
617.5587, 13.05183
618.0408, 12.67278
618.5229, 12.18512
619.0050, 11.78843
619.4871, 11.56094
619.9692, 11.70648
620.4514, 12.63206
620.9335, 14.55851
621.4156, 15.59497
621.8977, 14.84141
622.3798, 14.23538
622.8619, 14.43622
623.3441, 14.96079
623.8262, 15.31251
624.3083, 15.36348
