##NAMES=Semseyite
##RRUFFID=R080087
##IDEAL CHEMISTRY=Pb^2+^_9_Sb^3+^_8_S^2-^_21_
##LOCALITY=Herja Mine (Kisbánya), Baia Mare (Nagybánya), Maramures County, Romania
##OWNER=RRUFF
##SOURCE=Michael Scott
##DESCRIPTION=Metallic grey tabular crystals, associated with fizelyite
##STATUS=The identification of this mineral is confirmed by single-crystal X-ray diffraction and chemical analysis.
##URL=rruff.info/R080087
##MEASURED CHEMISTRY=Pb_9.11_Ag_0.02_Sb_8.27_S_21_
92.52344, 17310.22
93.00555, 17018.33
93.48767, 17054.22
93.96979, 17880.17
94.45190, 18750.71
94.93402, 19573.32
95.41614, 20106.18
95.89825, 20458.91
96.38037, 20799.83
96.86249, 21115.14
97.34460, 21374.68
97.82672, 21599.13
98.30884, 21802.41
98.79095, 21999.60
99.27307, 22154.55
99.75519, 22243.44
100.2373, 22332.99
100.7194, 22422.29
101.2015, 22441.71
101.6837, 22382.90
102.1658, 22263.59
102.6479, 22080.88
103.1300, 21829.65
103.6121, 21563.94
104.0942, 21288.70
104.5764, 21022.41
105.0585, 20814.61
105.5406, 20678.37
106.0227, 20608.89
106.5048, 20595.59
106.9869, 20632.36
107.4691, 20730.74
107.9512, 20888.49
108.4333, 21101.32
108.9154, 21359.13
109.3975, 21659.57
109.8796, 22006.86
110.3618, 22365.89
110.8439, 22741.24
111.3260, 23123.77
111.8081, 23511.13
112.2902, 23900.46
112.7723, 24291.03
113.2544, 24680.69
113.7366, 25067.90
114.2187, 25457.85
114.7008, 25881.46
115.1829, 26293.64
115.6650, 26659.50
116.1471, 26968.40
116.6293, 27216.66
117.1114, 27390.86
117.5935, 27532.88
118.0756, 27548.59
118.5577, 27401.53
119.0398, 27110.03
119.5220, 26709.32
120.0041, 26201.89
120.4862, 25594.25
120.9683, 24931.82
121.4504, 24187.86
121.9325, 23436.20
122.4147, 22725.89
122.8968, 22055.75
123.3789, 21439.50
123.8610, 20885.88
124.3431, 20393.00
124.8252, 19971.32
125.3074, 19625.56
125.7895, 19350.86
126.2716, 19140.52
126.7537, 19009.32
127.2358, 18927.96
127.7179, 18888.69
128.2001, 18881.79
128.6822, 18893.40
129.1643, 18913.73
129.6464, 18944.62
130.1285, 19008.75
130.6107, 19136.37
131.0928, 19271.91
131.5749, 19402.18
132.0570, 19529.37
132.5391, 19662.87
133.0212, 19809.78
133.5034, 19971.93
133.9855, 20143.65
134.4676, 20324.23
134.9497, 20512.63
135.4318, 20710.77
135.9139, 20917.50
136.3960, 21128.14
136.8782, 21336.09
137.3603, 21540.76
137.8424, 21747.86
138.3245, 21954.06
138.8066, 22163.75
139.2887, 22381.59
139.7709, 22608.53
140.2530, 22839.93
140.7351, 23067.09
141.2172, 23288.67
141.6993, 23521.96
142.1814, 23780.16
142.6636, 24055.83
143.1457, 24323.98
143.6278, 24574.54
144.1099, 24818.46
144.5920, 25067.12
145.0741, 25319.81
145.5563, 25575.36
146.0384, 25845.98
146.5205, 26138.53
147.0026, 26383.84
147.4847, 26553.87
147.9668, 26681.48
148.4490, 26782.73
148.9311, 26860.07
149.4132, 26903.64
149.8953, 26896.52
150.3774, 26826.24
150.8595, 26722.63
151.3417, 26595.86
151.8238, 26441.29
152.3059, 26253.44
152.7880, 26031.89
153.2701, 25779.21
153.7522, 25504.88
154.2344, 25174.81
154.7165, 24862.28
155.1986, 24576.92
155.6807, 24307.81
156.1628, 24036.62
156.6449, 23753.34
157.1271, 23468.30
157.6092, 23228.11
158.0913, 23042.85
158.5734, 22878.45
159.0555, 22722.95
159.5376, 22581.21
160.0198, 22468.10
160.5019, 22396.87
160.9840, 22360.04
161.4661, 22320.85
161.9482, 22267.91
162.4303, 22223.99
162.9125, 22207.24
163.3946, 22216.80
163.8767, 22234.94
164.3588, 22262.45
164.8409, 22288.19
165.3230, 22293.29
165.8052, 22268.34
166.2873, 22227.02
166.7694, 22189.01
167.2515, 22158.36
167.7336, 22116.19
168.2157, 22049.64
168.6979, 21968.04
169.1800, 21879.96
169.6621, 21788.39
170.1442, 21693.12
170.6263, 21591.54
171.1084, 21475.53
171.5906, 21367.00
172.0727, 21279.97
172.5548, 21202.07
173.0369, 21115.56
173.5190, 21008.70
174.0011, 20883.85
174.4833, 20761.25
174.9654, 20637.59
175.4475, 20519.28
175.9296, 20408.85
176.4117, 20305.00
176.8938, 20203.38
177.3760, 20099.97
177.8581, 19994.33
178.3402, 19905.61
178.8223, 19833.86
179.3044, 19776.57
179.7865, 19736.14
180.2687, 19710.52
180.7508, 19694.51
181.2329, 19683.20
181.7150, 19676.48
182.1971, 19688.18
182.6792, 19714.52
183.1614, 19758.75
183.6435, 19824.21
184.1256, 19910.42
184.6077, 20013.11
185.0898, 20129.17
185.5719, 20260.53
186.0541, 20404.56
186.5362, 20554.17
187.0183, 20720.39
187.5004, 20914.27
187.9825, 21137.85
188.4646, 21379.14
188.9468, 21631.88
189.4289, 21894.54
189.9110, 22170.39
190.3931, 22459.73
190.8752, 22762.46
191.3573, 23079.14
191.8395, 23407.65
192.3216, 23758.14
192.8037, 24149.66
193.2858, 24567.24
193.7679, 24981.19
194.2500, 25371.81
194.7322, 25746.95
195.2143, 26139.78
195.6964, 26559.69
196.1785, 26982.60
196.6606, 27397.50
197.1427, 27806.23
197.6249, 28208.57
198.1070, 28603.09
198.5891, 28990.54
199.0712, 29378.43
199.5533, 29762.46
200.0354, 30152.56
200.5176, 30553.18
200.9997, 30960.40
201.4818, 31363.42
201.9639, 31745.75
202.4460, 32105.91
202.9281, 32502.24
203.4103, 32960.01
203.8924, 33431.31
204.3745, 33898.91
204.8566, 34368.92
205.3387, 34849.52
205.8208, 35348.71
206.3030, 35869.71
206.7851, 36400.92
207.2672, 36952.18
207.7493, 37504.36
208.2314, 38045.85
208.7135, 38577.62
209.1957, 39108.02
209.6778, 39647.66
210.1599, 40201.06
210.6420, 40711.57
211.1241, 41187.12
211.6062, 41621.15
212.0884, 42016.18
212.5705, 42367.56
213.0526, 42666.96
213.5347, 42910.57
214.0168, 43092.22
214.4989, 43189.36
214.9811, 43198.51
215.4632, 43135.85
215.9453, 43015.94
216.4274, 42837.75
216.9095, 42582.07
217.3916, 42220.67
217.8737, 41744.27
218.3559, 41261.62
218.8380, 40761.57
219.3201, 40260.30
219.8022, 39768.82
220.2843, 39288.08
220.7664, 38815.48
221.2486, 38345.38
221.7307, 37879.70
222.2128, 37443.80
222.6949, 37042.86
223.1770, 36671.66
223.6591, 36324.45
224.1413, 35999.38
224.6234, 35706.33
225.1055, 35463.34
225.5876, 35258.79
226.0697, 35078.91
226.5518, 34932.63
227.0340, 34803.37
227.5161, 34666.84
227.9982, 34520.12
228.4803, 34375.54
228.9624, 34252.05
229.4445, 34133.41
229.9267, 33995.78
230.4088, 33832.30
230.8909, 33645.04
231.3730, 33438.80
231.8551, 33212.85
232.3372, 32969.51
232.8194, 32709.13
233.3015, 32432.49
233.7836, 32138.93
234.2657, 31830.03
234.7478, 31501.35
235.2299, 31143.12
235.7121, 30750.90
236.1942, 30331.11
236.6763, 29881.49
237.1584, 29412.54
237.6405, 28929.23
238.1227, 28429.79
238.6048, 27922.80
239.0869, 27432.99
239.5690, 26970.16
240.0511, 26504.66
240.5332, 26020.32
241.0154, 25535.72
241.4975, 25075.25
241.9796, 24649.42
242.4617, 24248.71
242.9438, 23855.06
243.4259, 23463.06
243.9081, 23086.23
244.3902, 22739.89
244.8723, 22402.22
245.3544, 22051.50
245.8365, 21677.89
246.3186, 21293.76
246.8008, 20923.89
247.2829, 20594.59
247.7650, 20242.07
248.2471, 19853.13
248.7292, 19447.07
249.2113, 19037.83
249.6935, 18630.99
250.1756, 18228.88
250.6577, 17835.35
251.1398, 17456.21
251.6219, 17081.38
252.1040, 16709.23
252.5862, 16344.65
253.0683, 15990.15
253.5504, 15648.53
254.0325, 15321.37
254.5146, 15011.58
254.9967, 14720.94
255.4789, 14452.97
255.9610, 14210.81
256.4431, 13990.45
256.9252, 13790.39
257.4073, 13609.41
257.8894, 13442.17
258.3716, 13280.54
258.8537, 13122.37
259.3358, 12981.35
259.8179, 12865.48
260.3000, 12761.45
260.7821, 12657.72
261.2643, 12552.11
261.7464, 12449.62
262.2285, 12354.57
262.7106, 12267.24
263.1927, 12189.82
263.6748, 12132.46
264.1570, 12078.70
264.6391, 12014.11
265.1212, 11937.44
265.6033, 11858.12
266.0854, 11785.15
266.5675, 11719.15
267.0497, 11654.03
267.5318, 11595.66
268.0139, 11534.25
268.4960, 11461.62
268.9781, 11377.63
269.4602, 11287.44
269.9424, 11195.26
270.4245, 11099.80
270.9066, 10996.47
271.3887, 10884.84
271.8708, 10765.22
272.3529, 10637.05
272.8351, 10500.50
273.3172, 10360.35
273.7993, 10221.02
274.2814, 10078.22
274.7635, 9921.831
275.2456, 9751.534
275.7278, 9568.816
276.2099, 9371.717
276.6920, 9161.381
277.1741, 8946.364
277.6562, 8729.971
278.1383, 8512.294
278.6205, 8296.150
279.1026, 8078.096
279.5847, 7864.398
280.0668, 7659.155
280.5489, 7461.075
281.0310, 7267.358
281.5132, 7075.560
281.9953, 6889.932
282.4774, 6712.977
282.9595, 6543.223
283.4416, 6389.641
283.9237, 6264.118
284.4059, 6161.374
284.8880, 6056.838
285.3701, 5940.712
285.8522, 5827.870
286.3343, 5732.195
286.8164, 5652.977
287.2986, 5583.488
287.7807, 5522.449
288.2628, 5468.532
288.7449, 5417.254
289.2270, 5365.700
289.7091, 5321.162
290.1913, 5289.808
290.6734, 5269.592
291.1555, 5253.654
291.6376, 5235.235
292.1197, 5219.252
292.6018, 5218.073
293.0840, 5234.728
293.5661, 5260.963
294.0482, 5291.397
294.5303, 5326.692
295.0124, 5369.762
295.4945, 5421.160
295.9767, 5481.003
296.4588, 5548.890
296.9409, 5624.165
297.4230, 5710.188
297.9051, 5820.240
298.3872, 5939.428
298.8694, 6051.268
299.3515, 6151.468
299.8336, 6242.063
300.3157, 6324.250
300.7978, 6397.165
301.2799, 6469.830
301.7621, 6552.722
302.2442, 6633.247
302.7263, 6699.279
303.2084, 6747.690
303.6905, 6787.495
304.1726, 6823.120
304.6548, 6853.803
305.1369, 6897.116
305.6190, 6958.923
306.1011, 7035.495
306.5832, 7122.603
307.0653, 7220.120
307.5475, 7330.486
308.0296, 7451.124
308.5117, 7583.086
308.9938, 7744.162
309.4759, 7942.869
309.9580, 8167.044
310.4402, 8402.602
310.9223, 8651.116
311.4044, 8920.532
311.8865, 9217.162
312.3686, 9537.748
312.8507, 9876.973
313.3329, 10247.60
313.8150, 10614.47
314.2971, 10977.28
314.7792, 11324.92
315.2613, 11638.81
315.7434, 11916.57
316.2256, 12153.02
316.7077, 12340.92
317.1898, 12486.34
317.6719, 12567.41
318.1540, 12558.70
318.6361, 12489.55
319.1183, 12380.39
319.6004, 12230.32
320.0825, 12060.22
320.5646, 11887.58
321.0467, 11706.81
321.5288, 11559.23
322.0110, 11458.42
322.4931, 11399.22
322.9752, 11382.21
323.4573, 11407.86
323.9394, 11469.67
324.4215, 11562.55
324.9037, 11685.83
325.3858, 11842.38
325.8679, 12040.10
326.3500, 12267.71
326.8321, 12523.16
327.3142, 12802.39
327.7964, 13082.04
328.2785, 13365.17
328.7606, 13640.98
329.2427, 13864.11
329.7248, 14044.81
330.2069, 14143.84
330.6891, 14145.76
331.1712, 14060.32
331.6533, 13900.61
332.1354, 13658.95
332.6175, 13353.67
333.0996, 13011.46
333.5818, 12617.17
334.0639, 12229.52
334.5460, 11867.92
335.0281, 11533.87
335.5102, 11232.63
335.9923, 10959.92
336.4745, 10728.95
336.9566, 10555.34
337.4387, 10440.94
337.9208, 10363.51
338.4029, 10324.96
338.8850, 10317.76
339.3671, 10339.34
339.8492, 10391.38
340.3314, 10448.01
340.8135, 10506.59
341.2956, 10560.44
341.7777, 10568.47
342.2598, 10535.81
342.7419, 10431.32
343.2241, 10241.72
343.7062, 9970.486
344.1883, 9624.263
344.6704, 9185.188
345.1525, 8676.552
345.6346, 8140.026
346.1168, 7569.815
346.5989, 7000.005
347.0810, 6438.622
347.5631, 5898.701
348.0452, 5406.583
348.5273, 4970.534
349.0095, 4583.986
349.4916, 4242.458
349.9737, 3947.444
350.4558, 3687.833
350.9379, 3465.348
351.4200, 3276.915
351.9022, 3113.513
352.3843, 2978.562
352.8664, 2860.240
353.3485, 2754.447
353.8306, 2660.135
354.3127, 2573.678
354.7949, 2494.390
355.2770, 2421.823
355.7591, 2354.404
356.2412, 2291.825
356.7233, 2234.932
357.2054, 2185.684
357.6876, 2141.779
358.1697, 2099.678
358.6518, 2058.882
359.1339, 2020.192
359.6160, 1984.933
360.0981, 1952.645
360.5803, 1921.930
361.0624, 1891.935
361.5445, 1864.093
362.0266, 1840.165
362.5087, 1819.872
362.9908, 1801.577
363.4730, 1785.082
363.9551, 1769.590
364.4372, 1752.249
364.9193, 1731.723
365.4014, 1711.843
365.8835, 1694.909
366.3657, 1679.752
366.8478, 1663.476
367.3299, 1644.864
367.8120, 1626.211
368.2941, 1611.497
368.7762, 1601.712
369.2584, 1591.167
369.7405, 1578.850
370.2226, 1565.626
370.7047, 1551.853
371.1868, 1537.654
371.6689, 1524.251
372.1511, 1512.546
372.6332, 1502.655
373.1153, 1494.479
373.5974, 1490.750
374.0795, 1485.844
374.5616, 1475.341
375.0438, 1461.359
375.5259, 1449.687
376.0080, 1443.903
376.4901, 1441.858
376.9722, 1435.946
377.4543, 1422.403
377.9365, 1409.937
378.4186, 1398.820
378.9007, 1389.462
379.3828, 1383.328
379.8649, 1380.546
380.3470, 1378.251
380.8292, 1372.109
381.3113, 1359.479
381.7934, 1350.982
382.2755, 1351.227
382.7576, 1351.049
383.2397, 1344.112
383.7219, 1331.660
384.2040, 1319.560
384.6861, 1312.704
385.1682, 1310.612
385.6503, 1305.739
386.1324, 1293.850
386.6146, 1283.838
387.0967, 1277.709
387.5788, 1274.237
388.0609, 1272.358
388.5430, 1271.601
389.0251, 1270.740
389.5073, 1267.204
389.9894, 1260.003
390.4715, 1251.981
390.9536, 1240.655
391.4357, 1230.672
391.9178, 1225.895
392.4000, 1226.033
392.8821, 1227.188
393.3642, 1225.697
393.8463, 1221.479
394.3284, 1216.892
394.8105, 1211.099
395.2927, 1205.877
395.7748, 1202.368
396.2569, 1199.721
396.7390, 1196.343
397.2211, 1191.202
397.7032, 1185.393
398.1854, 1181.766
398.6675, 1181.410
399.1496, 1179.898
399.6317, 1173.491
400.1138, 1166.971
400.5959, 1164.797
401.0781, 1167.631
401.5602, 1170.838
402.0423, 1170.625
402.5244, 1167.109
403.0065, 1160.902
403.4886, 1149.484
403.9708, 1139.243
404.4529, 1135.039
404.9350, 1135.426
405.4171, 1136.498
405.8992, 1137.961
406.3813, 1138.458
406.8635, 1134.776
407.3456, 1126.310
407.8277, 1119.272
408.3098, 1117.799
408.7919, 1119.125
409.2740, 1118.570
409.7562, 1115.581
410.2383, 1111.470
410.7204, 1106.195
411.2025, 1100.349
411.6846, 1095.593
412.1667, 1092.339
412.6489, 1090.231
413.1310, 1089.223
413.6131, 1089.273
414.0952, 1089.064
414.5773, 1088.857
415.0594, 1087.969
415.5416, 1085.691
416.0237, 1082.049
416.5058, 1077.415
416.9879, 1071.590
417.4700, 1065.108
417.9521, 1060.882
418.4343, 1060.782
418.9164, 1060.279
419.3985, 1057.395
419.8806, 1053.574
420.3627, 1051.426
420.8448, 1051.752
421.3270, 1052.315
421.8091, 1049.463
422.2912, 1040.761
422.7733, 1035.848
423.2554, 1037.329
423.7375, 1040.006
424.2197, 1041.403
424.7018, 1041.286
425.1839, 1040.084
425.6660, 1037.992
426.1481, 1035.198
426.6302, 1032.924
427.1124, 1032.219
427.5945, 1030.756
428.0766, 1027.592
428.5587, 1023.898
429.0408, 1020.805
429.5229, 1018.666
430.0051, 1017.066
430.4872, 1015.416
430.9693, 1013.635
431.4514, 1012.181
431.9335, 1010.528
432.4156, 1009.742
432.8978, 1011.475
433.3799, 1014.512
433.8620, 1015.704
434.3441, 1012.231
434.8262, 1006.265
435.3083, 1004.991
435.7905, 1011.073
436.2726, 1014.443
436.7547, 1007.971
437.2368, 999.0067
437.7189, 994.2357
438.2010, 995.0712
438.6832, 997.3397
439.1653, 997.3636
439.6474, 995.6656
440.1295, 995.3652
440.6116, 997.7370
441.0938, 1000.015
441.5759, 999.2666
442.0580, 996.4054
442.5401, 994.1326
443.0222, 993.6613
443.5043, 993.7946
443.9865, 993.8555
444.4686, 993.6998
444.9507, 991.7512
445.4328, 986.2516
445.9149, 979.5530
446.3970, 977.6245
446.8792, 982.5013
447.3613, 985.4357
447.8434, 983.1120
448.3255, 977.9974
448.8076, 972.0721
449.2897, 965.9163
449.7719, 961.8539
450.2540, 962.7081
450.7361, 968.8599
451.2182, 971.3799
451.7003, 966.6740
452.1824, 962.8478
452.6646, 963.7871
453.1467, 967.3939
453.6288, 970.1769
454.1109, 970.6100
454.5930, 969.2479
455.0751, 967.0735
455.5573, 963.3635
456.0394, 960.2480
456.5215, 957.2251
457.0036, 955.1006
457.4857, 955.0313
457.9678, 956.4252
458.4500, 957.3892
458.9321, 956.4246
459.4142, 953.8256
459.8963, 951.1465
460.3784, 947.4830
460.8605, 945.4593
461.3427, 948.0198
461.8248, 951.1234
462.3069, 950.0096
462.7890, 943.5095
463.2711, 936.5187
463.7532, 935.1442
464.2354, 938.8275
464.7175, 939.4119
465.1996, 934.3125
465.6817, 928.6462
466.1638, 926.0174
466.6459, 925.6332
467.1281, 925.6967
467.6102, 926.5673
468.0923, 926.7697
468.5744, 923.4381
469.0565, 917.0803
469.5386, 913.4396
470.0208, 915.6416
470.5029, 920.6008
470.9850, 923.1447
471.4671, 923.3661
471.9492, 921.9125
472.4313, 917.9293
472.9135, 912.9374
473.3956, 907.9564
473.8777, 903.3326
474.3598, 900.3541
474.8419, 900.4598
475.3240, 903.1512
475.8062, 903.4117
476.2883, 899.4017
476.7704, 895.5980
477.2525, 893.1400
477.7346, 891.2658
478.2167, 888.7980
478.6989, 885.5091
479.1810, 882.5802
479.6631, 881.8187
480.1452, 884.0776
480.6273, 884.1100
481.1094, 880.0250
481.5916, 875.6156
482.0737, 871.6802
482.5558, 868.3395
483.0379, 865.6525
483.5200, 863.6725
484.0021, 862.1419
484.4843, 860.7053
484.9664, 859.4928
485.4485, 857.6639
485.9306, 853.1605
486.4127, 849.6881
486.8948, 851.0355
487.3770, 856.2791
487.8591, 859.9277
488.3412, 858.0562
488.8233, 852.7521
489.3054, 847.6045
489.7875, 842.5969
490.2697, 838.5031
490.7518, 835.8390
491.2339, 834.3954
491.7160, 833.4711
492.1981, 833.0657
492.6802, 833.1916
493.1624, 834.9191
493.6445, 836.7936
494.1266, 835.9950
494.6087, 832.1281
495.0908, 828.4300
495.5729, 828.0343
496.0551, 830.8840
496.5372, 831.7700
497.0193, 829.9222
497.5014, 827.3470
497.9835, 824.1826
498.4656, 820.8190
498.9478, 817.7568
499.4299, 815.1533
499.9120, 812.7567
500.3941, 810.1683
500.8762, 807.1689
501.3583, 804.7829
501.8405, 802.9695
502.3226, 801.8189
502.8047, 802.0648
503.2868, 802.9005
503.7689, 802.9128
504.2510, 801.3640
504.7331, 798.8648
505.2152, 796.5135
505.6974, 794.3698
506.1795, 791.9020
506.6616, 787.9633
507.1437, 784.7361
507.6258, 784.3530
508.1079, 786.3226
508.5901, 787.8763
509.0722, 787.4049
509.5543, 785.8815
510.0364, 785.1449
510.5185, 785.1720
511.0006, 783.2943
511.4828, 776.9229
511.9649, 769.1215
512.4470, 767.0939
512.9291, 772.8873
513.4113, 776.3981
513.8934, 772.7433
514.3755, 766.9460
514.8576, 764.4849
515.3397, 765.5719
515.8218, 766.9959
516.3040, 766.4301
516.7861, 764.0804
517.2682, 761.4633
517.7503, 757.3145
518.2324, 754.5187
518.7145, 754.3944
519.1967, 755.0847
519.6788, 755.0705
520.1609, 753.9736
520.6430, 752.0054
521.1251, 749.2369
521.6072, 745.6777
522.0894, 742.1205
522.5715, 737.6285
523.0536, 734.7045
523.5357, 735.8863
524.0178, 738.1201
524.4999, 737.4508
524.9821, 732.6522
525.4642, 727.3563
525.9463, 724.9634
526.4284, 724.9444
526.9105, 725.1986
527.3926, 725.9424
527.8748, 725.4105
528.3569, 720.8837
528.8390, 713.8270
529.3211, 709.3326
529.8032, 710.5386
530.2853, 711.4179
530.7675, 707.4990
531.2496, 701.1444
531.7317, 697.2326
532.2138, 697.1918
532.6959, 698.6028
533.1780, 698.5125
533.6602, 696.6115
534.1423, 695.0919
534.6244, 694.9274
535.1065, 694.0160
535.5886, 690.9308
536.0707, 686.7740
536.5529, 683.0295
537.0350, 680.3347
537.5171, 678.7559
537.9992, 679.4024
538.4813, 683.5794
538.9634, 683.1049
539.4456, 673.0538
539.9277, 663.2796
540.4098, 657.8646
540.8919, 656.0956
541.3740, 656.7291
541.8561, 660.4200
542.3383, 663.8873
542.8204, 662.5280
543.3025, 656.8199
543.7846, 651.2082
544.2667, 646.4930
544.7488, 642.7553
545.2310, 640.5301
545.7131, 639.6279
546.1952, 638.3588
546.6773, 636.0140
547.1594, 633.6643
547.6415, 632.4325
548.1237, 631.7436
548.6058, 629.7941
549.0879, 625.8043
549.5700, 621.3954
550.0521, 619.4209
550.5342, 621.2369
551.0164, 621.3610
551.4985, 617.5579
551.9806, 614.6055
552.4627, 616.1537
552.9448, 619.8127
553.4269, 620.7211
553.9091, 616.4467
554.3912, 609.7352
554.8733, 605.2463
555.3554, 603.1978
555.8375, 601.7860
556.3196, 601.1080
556.8018, 600.6777
557.2839, 600.2174
557.7660, 599.7316
558.2481, 599.2694
558.7302, 599.0428
559.2123, 598.6158
559.6945, 597.5463
560.1766, 595.8912
560.6587, 593.8025
561.1408, 591.2133
561.6229, 588.5917
562.1050, 586.5790
562.5872, 585.3245
563.0693, 583.6522
563.5514, 580.9045
564.0335, 578.3945
564.5156, 576.7208
564.9977, 575.7855
565.4799, 575.3567
565.9620, 575.3426
566.4441, 575.7635
566.9262, 577.0033
567.4083, 579.8627
567.8904, 580.2646
568.3726, 575.9353
568.8547, 571.3782
569.3368, 567.8287
569.8189, 565.1407
570.3010, 562.9147
570.7831, 560.9432
571.2653, 559.5821
571.7474, 559.7594
572.2295, 561.1876
572.7116, 561.3915
573.1937, 559.6620
573.6758, 557.4561
574.1580, 556.1354
574.6401, 555.3682
575.1222, 553.8246
575.6043, 550.6022
576.0864, 547.4662
576.5685, 545.5843
577.0507, 544.2975
577.5328, 542.3199
578.0149, 539.3834
578.4970, 536.5487
578.9791, 534.9808
579.4612, 534.7283
579.9434, 534.5477
580.4255, 535.5074
580.9076, 535.2476
581.3897, 532.3583
581.8718, 528.5303
582.3539, 525.6571
582.8361, 524.1219
583.3182, 522.8947
583.8003, 521.2027
584.2824, 518.9883
584.7645, 515.5396
585.2466, 510.0966
585.7288, 505.5626
586.2108, 504.0512
586.6929, 503.9981
587.1750, 503.2970
587.6572, 501.7846
