##NAMES=Senarmontite
##RRUFFID=R060075
##IDEAL CHEMISTRY=Sb^3+^_2_O_3_
##LOCALITY=Djebel Haminate mine, Constantine, Algeria
##OWNER=RRUFF
##SOURCE=University of Arizona Mineral Museum
##DESCRIPTION=Brown octahedra
##STATUS=The identification of this mineral has been confirmed by X-ray diffraction and chemical analysis
##URL=rruff.info/R060075
##MEASURED CHEMISTRY=Sb_2.00_O_3_
93.08527, 0.0000000E+00
93.56738, 1435.002
94.04950, 1449.990
94.53162, 1467.499
95.01373, 1467.470
95.49585, 1458.836
95.97797, 1451.302
96.46008, 1451.210
96.94220, 1460.359
97.42432, 1479.835
97.90643, 1511.121
98.38855, 1549.203
98.87067, 1595.720
99.35278, 1650.268
99.83490, 1706.112
100.3170, 1748.536
100.7991, 1775.370
101.2813, 1785.805
101.7634, 1771.556
102.2455, 1745.303
102.7276, 1720.408
103.2097, 1703.475
103.6918, 1694.007
104.1740, 1691.617
104.6561, 1696.392
105.1382, 1705.284
105.6203, 1716.782
106.1024, 1731.037
106.5845, 1749.533
107.0667, 1774.790
107.5488, 1805.779
108.0309, 1836.020
108.5130, 1863.469
108.9951, 1890.630
109.4772, 1920.090
109.9594, 1951.983
110.4415, 1986.443
110.9236, 2022.475
111.4057, 2060.713
111.8878, 2103.360
112.3699, 2151.641
112.8521, 2205.621
113.3342, 2262.954
113.8163, 2320.129
114.2984, 2385.881
114.7805, 2458.817
115.2626, 2541.900
115.7448, 2640.025
116.2269, 2751.890
116.7090, 2862.557
117.1911, 3044.130
117.6732, 3308.216
118.1553, 3621.505
118.6375, 4019.344
119.1196, 4484.160
119.6017, 4919.144
120.0838, 5164.839
120.5659, 5155.747
121.0480, 5010.996
121.5302, 4649.334
122.0123, 4185.640
122.4944, 3727.989
122.9765, 3315.042
123.4586, 2949.742
123.9407, 2658.179
124.4228, 2443.222
124.9050, 2265.145
125.3871, 2117.650
125.8692, 1998.747
126.3513, 1899.527
126.8334, 1820.350
127.3155, 1759.094
127.7977, 1704.975
128.2798, 1658.387
128.7619, 1618.076
129.2440, 1583.570
129.7261, 1555.382
130.2083, 1530.698
130.6904, 1508.205
131.1725, 1488.732
131.6546, 1473.582
132.1367, 1463.818
132.6188, 1458.262
133.1010, 1454.375
133.5831, 1453.145
134.0652, 1452.120
134.5473, 1450.303
135.0294, 1448.232
135.5115, 1446.750
135.9937, 1446.550
136.4758, 1447.485
136.9579, 1447.244
137.4400, 1443.380
137.9221, 1440.668
138.4042, 1442.084
138.8864, 1445.930
139.3685, 1448.208
139.8506, 1445.309
140.3327, 1436.444
140.8148, 1427.434
141.2969, 1421.102
141.7791, 1412.550
142.2612, 1398.652
142.7433, 1379.309
143.2254, 1356.962
143.7075, 1333.708
144.1896, 1309.354
144.6718, 1285.613
145.1539, 1262.396
145.6360, 1239.845
146.1181, 1218.150
146.6002, 1197.138
147.0823, 1177.802
147.5645, 1161.777
148.0466, 1148.605
148.5287, 1136.827
149.0108, 1124.761
149.4929, 1113.472
149.9750, 1106.883
150.4572, 1107.899
150.9393, 1111.447
151.4214, 1112.885
151.9035, 1112.340
152.3856, 1111.861
152.8677, 1113.010
153.3499, 1115.839
153.8320, 1119.427
154.3141, 1124.136
154.7962, 1129.318
155.2783, 1134.325
155.7604, 1139.211
156.2425, 1144.915
156.7247, 1152.844
157.2068, 1164.012
157.6889, 1175.255
158.1710, 1185.171
158.6531, 1195.793
159.1352, 1208.188
159.6174, 1222.755
160.0995, 1239.755
160.5816, 1259.550
161.0637, 1282.301
161.5458, 1308.332
162.0279, 1336.890
162.5101, 1368.806
162.9922, 1403.871
163.4743, 1442.015
163.9564, 1484.758
164.4385, 1537.779
164.9206, 1598.585
165.4028, 1671.547
165.8849, 1753.073
166.3670, 1847.435
166.8491, 1960.743
167.3312, 2092.076
167.8133, 2250.166
168.2955, 2456.067
168.7776, 2705.586
169.2597, 2995.640
169.7418, 3343.130
170.2239, 3738.067
170.7060, 4131.062
171.1882, 4521.593
171.6703, 4881.033
172.1524, 5171.991
172.6345, 5383.168
173.1166, 5539.331
173.5987, 5648.063
174.0809, 5704.801
174.5630, 5761.029
175.0451, 5825.968
175.5272, 5909.483
176.0093, 6025.204
176.4914, 6178.671
176.9736, 6362.667
177.4557, 6567.448
177.9378, 6793.679
178.4199, 7041.763
178.9020, 7319.418
179.3841, 7614.335
179.8663, 7916.402
180.3484, 8218.107
180.8305, 8526.506
181.3126, 8857.271
181.7947, 9209.719
182.2768, 9592.998
182.7590, 9999.007
183.2411, 10436.32
183.7232, 10912.01
184.2053, 11427.13
184.6874, 11988.46
185.1695, 12624.88
185.6517, 13294.44
186.1338, 14098.04
186.6159, 15022.92
187.0980, 16099.08
187.5801, 17369.88
188.0622, 18873.45
188.5444, 20594.05
189.0265, 22421.00
189.5086, 24860.80
189.9907, 26880.41
190.4728, 28379.94
190.9549, 29228.03
191.4371, 29116.42
191.9192, 27744.78
192.4013, 25158.02
192.8834, 22445.01
193.3655, 19332.10
193.8476, 16353.50
194.3298, 13732.26
194.8119, 11467.03
195.2940, 9547.610
195.7761, 7982.364
196.2582, 6803.913
196.7403, 5824.293
197.2225, 5097.048
197.7046, 4530.368
198.1867, 4074.313
198.6688, 3726.395
199.1509, 3453.692
199.6330, 3256.231
200.1152, 3119.824
200.5973, 3012.767
201.0794, 2936.699
201.5615, 2883.634
202.0436, 2844.729
202.5257, 2820.244
203.0079, 2809.669
203.4900, 2816.844
203.9721, 2836.840
204.4542, 2865.676
204.9363, 2901.644
205.4184, 2945.752
205.9006, 2999.966
206.3827, 3063.475
206.8648, 3139.580
207.3469, 3226.951
207.8290, 3326.497
208.3111, 3440.898
208.7933, 3572.132
209.2754, 3718.004
209.7575, 3872.842
210.2396, 4031.887
210.7217, 4209.478
211.2038, 4411.930
211.6860, 4630.750
212.1681, 4860.768
212.6502, 5101.593
213.1323, 5346.294
213.6144, 5563.888
214.0965, 5792.028
214.5787, 5936.119
215.0608, 5988.517
215.5429, 5949.375
216.0250, 5813.737
216.5071, 5574.717
216.9892, 5245.098
217.4714, 4892.135
217.9535, 4463.373
218.4356, 4065.333
218.9177, 3711.631
219.3998, 3400.232
219.8819, 3127.971
220.3641, 2892.871
220.8462, 2692.368
221.3283, 2514.752
221.8104, 2364.285
222.2925, 2230.004
222.7746, 2110.403
223.2568, 2005.364
223.7389, 1916.677
224.2210, 1845.685
224.7031, 1790.980
225.1852, 1747.197
225.6673, 1712.035
226.1495, 1687.200
226.6316, 1674.291
227.1137, 1672.300
227.5958, 1678.843
228.0779, 1692.491
228.5600, 1714.302
229.0422, 1746.919
229.5243, 1782.668
230.0064, 1835.505
230.4885, 1904.009
230.9706, 1992.518
231.4527, 2111.187
231.9349, 2258.581
232.4170, 2450.156
232.8991, 2710.572
233.3812, 3030.591
233.8633, 3421.049
234.3454, 3911.615
234.8276, 4485.002
235.3097, 5079.544
235.7918, 5706.217
236.2739, 6300.749
236.7560, 6778.784
237.2381, 7131.151
237.7203, 7398.654
238.2024, 7573.560
238.6845, 7669.068
239.1666, 7768.769
239.6487, 7884.642
240.1308, 8034.860
240.6130, 8230.568
241.0951, 8474.269
241.5772, 8753.337
242.0593, 9060.697
242.5414, 9396.417
243.0235, 9763.302
243.5057, 10166.18
243.9878, 10599.71
244.4699, 11053.74
244.9520, 11531.45
245.4341, 12032.25
245.9162, 12546.64
246.3984, 13074.82
246.8805, 13659.86
247.3626, 14291.65
247.8447, 15008.76
248.3268, 15805.52
248.8089, 16690.60
249.2911, 17709.85
249.7732, 18858.48
250.2553, 20128.97
250.7374, 21687.52
251.2195, 23537.96
251.7016, 25729.48
252.1838, 28378.85
252.6659, 31412.22
253.1480, 34651.88
253.6301, 38213.59
254.1122, 42213.63
254.5943, 44964.63
255.0765, 46382.06
255.5586, 46439.14
256.0407, 44671.90
256.5228, 41436.98
257.0049, 37592.57
257.4870, 33691.26
257.9691, 29721.71
258.4513, 26231.67
258.9334, 23405.48
259.4155, 20934.43
259.8976, 18822.99
260.3797, 17013.75
260.8618, 15423.59
261.3440, 14005.80
261.8261, 12752.32
262.3082, 11592.40
262.7903, 10558.70
263.2724, 9603.211
263.7545, 8720.753
264.2367, 7911.089
264.7188, 7174.567
265.2009, 6515.535
265.6830, 5930.519
266.1651, 5415.201
266.6472, 4993.788
267.1294, 4620.900
267.6115, 4299.019
268.0936, 4020.222
268.5757, 3774.526
269.0578, 3557.111
269.5399, 3366.973
270.0221, 3202.221
270.5042, 3076.321
270.9863, 2963.710
271.4684, 2862.295
271.9505, 2772.767
272.4326, 2697.340
272.9148, 2636.747
273.3969, 2588.631
273.8790, 2546.561
274.3611, 2506.595
274.8432, 2478.466
275.3253, 2463.400
275.8075, 2459.900
276.2896, 2466.400
276.7717, 2482.369
277.2538, 2507.732
277.7359, 2542.906
278.2180, 2598.496
278.7002, 2648.256
279.1823, 2689.573
279.6644, 2726.075
280.1465, 2758.127
280.6286, 2786.394
281.1107, 2818.109
281.5929, 2863.147
282.0750, 2926.114
282.5571, 2994.986
283.0392, 3066.371
283.5213, 3145.896
284.0034, 3236.145
284.4856, 3338.230
284.9677, 3455.336
285.4498, 3590.190
285.9319, 3744.421
286.4140, 3921.792
286.8961, 4113.061
287.3783, 4333.278
287.8604, 4589.128
288.3425, 4881.757
288.8246, 5216.013
289.3067, 5597.376
289.7888, 6029.848
290.2710, 6464.542
290.7531, 6944.305
291.2352, 7389.987
291.7173, 7778.723
292.1994, 8100.041
292.6815, 8326.346
293.1637, 8434.545
293.6458, 8428.711
294.1279, 8363.477
294.6100, 8225.661
295.0921, 8052.008
295.5742, 7871.677
296.0564, 7669.313
296.5385, 7405.608
297.0206, 7060.802
297.5027, 6638.526
297.9848, 6138.931
298.4669, 5522.933
298.9491, 4915.613
299.4312, 4324.538
299.9133, 3767.921
300.3954, 3282.944
300.8775, 2881.876
301.3596, 2552.846
301.8418, 2289.704
302.3239, 2091.669
302.8060, 1925.345
303.2881, 1789.960
303.7702, 1679.185
304.2523, 1587.639
304.7345, 1514.961
305.2166, 1454.880
305.6987, 1402.209
306.1808, 1356.892
306.6629, 1317.475
307.1451, 1283.968
307.6272, 1256.166
308.1093, 1234.728
308.5914, 1219.698
309.0735, 1208.939
309.5556, 1200.832
310.0378, 1195.715
310.5199, 1193.825
311.0020, 1196.155
311.4841, 1201.040
311.9662, 1207.606
312.4483, 1215.752
312.9305, 1224.863
313.4126, 1234.301
313.8947, 1244.666
314.3768, 1258.031
314.8589, 1276.221
315.3410, 1295.266
315.8232, 1314.787
316.3053, 1333.893
316.7874, 1349.459
317.2695, 1360.311
317.7516, 1366.270
318.2337, 1367.467
318.7159, 1365.166
319.1980, 1356.806
319.6801, 1338.882
320.1622, 1314.495
320.6443, 1289.690
321.1264, 1266.382
321.6086, 1243.039
322.0907, 1216.752
322.5728, 1186.738
323.0549, 1159.447
323.5370, 1136.717
324.0191, 1117.223
324.5013, 1099.843
324.9834, 1084.326
325.4655, 1070.343
325.9476, 1057.459
326.4297, 1045.825
326.9118, 1035.883
327.3940, 1028.281
327.8761, 1022.068
328.3582, 1016.752
328.8403, 1012.252
329.3224, 1008.153
329.8045, 1004.038
330.2867, 1000.142
330.7688, 997.4232
331.2509, 996.9609
331.7330, 996.5575
332.2151, 994.9919
332.6972, 992.5364
333.1794, 989.7049
333.6615, 986.1740
334.1436, 983.1929
334.6257, 984.6315
335.1078, 992.3678
335.5899, 999.6890
336.0721, 1004.036
336.5542, 1006.833
337.0363, 1010.180
337.5184, 1014.681
338.0005, 1020.329
338.4826, 1027.538
338.9648, 1036.810
339.4469, 1045.240
339.9290, 1051.549
340.4111, 1057.410
340.8932, 1064.246
341.3753, 1072.300
341.8575, 1081.718
342.3396, 1092.901
342.8217, 1106.130
343.3038, 1118.411
343.7859, 1128.992
344.2680, 1139.326
344.7502, 1150.220
345.2323, 1161.628
345.7144, 1173.085
346.1965, 1184.183
346.6786, 1195.146
347.1607, 1207.425
347.6429, 1221.735
348.1250, 1236.192
348.6071, 1249.854
349.0892, 1263.434
349.5713, 1277.663
350.0534, 1292.813
350.5356, 1309.523
351.0177, 1329.552
351.4998, 1353.986
351.9819, 1379.713
352.4640, 1404.877
352.9461, 1432.290
353.4283, 1464.799
353.9104, 1502.959
354.3925, 1545.345
354.8746, 1590.802
355.3567, 1640.038
355.8388, 1688.883
356.3210, 1739.493
356.8031, 1788.066
357.2852, 1833.375
357.7673, 1874.993
358.2494, 1912.689
358.7315, 1946.232
359.2137, 1975.595
359.6958, 1998.055
360.1779, 2010.960
360.6600, 2020.537
361.1421, 2025.445
361.6242, 2028.527
362.1064, 2032.835
362.5885, 2039.669
363.0706, 2049.671
363.5527, 2064.318
364.0348, 2087.431
364.5169, 2109.885
364.9991, 2126.007
365.4812, 2145.171
365.9633, 2173.758
366.4454, 2213.135
366.9275, 2261.785
367.4096, 2318.608
367.8918, 2383.934
368.3739, 2455.656
368.8560, 2527.236
369.3381, 2610.854
369.8202, 2712.092
370.3023, 2829.816
370.7845, 2960.687
371.2666, 3103.748
371.7487, 3257.623
372.2308, 3415.370
372.7129, 3590.818
373.1950, 3750.693
373.6772, 3903.603
374.1593, 4032.808
374.6414, 4123.098
375.1235, 4169.109
375.6056, 4168.749
376.0877, 4114.784
376.5699, 3995.633
377.0520, 3853.090
377.5341, 3677.292
378.0162, 3490.746
378.4983, 3298.909
378.9804, 3106.193
379.4626, 2920.665
379.9447, 2748.146
380.4268, 2588.973
380.9089, 2444.734
381.3910, 2317.623
381.8731, 2205.323
382.3553, 2108.732
382.8374, 2024.937
383.3195, 1949.443
383.8016, 1880.650
384.2837, 1818.730
384.7658, 1763.604
385.2480, 1716.137
385.7301, 1673.569
386.2122, 1638.078
386.6943, 1605.830
387.1764, 1573.815
387.6585, 1541.358
388.1407, 1511.576
388.6228, 1488.566
389.1049, 1471.784
389.5870, 1454.544
390.0691, 1433.806
390.5512, 1415.536
391.0334, 1403.944
391.5155, 1398.116
391.9976, 1394.693
392.4797, 1392.144
392.9618, 1390.995
393.4439, 1392.111
393.9261, 1395.488
394.4082, 1401.369
394.8903, 1412.297
395.3724, 1425.107
395.8545, 1434.771
396.3366, 1441.135
396.8188, 1443.525
397.3009, 1438.665
397.7830, 1428.550
398.2651, 1422.814
398.7472, 1426.379
399.2293, 1432.278
399.7115, 1430.094
400.1936, 1419.936
400.6757, 1408.562
401.1578, 1398.380
401.6399, 1387.839
402.1220, 1374.659
402.6042, 1358.588
403.0863, 1341.885
403.5684, 1326.456
404.0505, 1312.143
404.5326, 1296.588
405.0147, 1280.399
405.4969, 1262.501
405.9790, 1241.705
406.4611, 1218.744
406.9432, 1195.424
407.4253, 1172.258
407.9074, 1149.369
408.3896, 1127.120
408.8717, 1105.315
409.3538, 1084.389
409.8359, 1064.491
410.3180, 1045.378
410.8001, 1026.498
411.2823, 1008.010
411.7644, 991.0114
412.2465, 976.7609
412.7286, 965.3377
413.2107, 955.3542
413.6928, 947.9009
414.1750, 940.4245
414.6571, 930.5640
415.1392, 920.3030
415.6213, 913.3869
416.1034, 911.7959
416.5855, 913.8112
417.0677, 914.9348
417.5498, 914.8280
418.0319, 914.3312
418.5140, 912.8264
418.9961, 911.4836
419.4782, 910.6505
419.9604, 910.6678
420.4425, 912.3922
420.9246, 917.1136
421.4067, 925.0094
421.8888, 932.2131
422.3709, 938.1368
422.8531, 944.0584
423.3352, 949.7496
423.8173, 955.9043
424.2994, 963.6792
424.7815, 973.7133
425.2636, 985.3032
425.7458, 996.6069
426.2279, 1006.990
426.7100, 1020.055
427.1921, 1036.056
427.6742, 1055.900
428.1563, 1079.553
428.6385, 1107.283
429.1206, 1141.226
429.6027, 1182.609
430.0848, 1231.327
430.5669, 1287.139
431.0490, 1349.037
431.5312, 1420.519
432.0133, 1507.186
432.4954, 1605.316
432.9775, 1709.572
433.4596, 1823.621
433.9417, 1938.676
434.4239, 2049.411
434.9060, 2155.317
435.3881, 2249.865
435.8702, 2329.082
436.3523, 2397.738
436.8344, 2462.117
437.3166, 2521.196
437.7987, 2582.187
438.2808, 2640.416
438.7629, 2704.997
439.2450, 2786.126
439.7271, 2884.895
440.2093, 2996.301
440.6914, 3116.541
441.1735, 3245.709
441.6556, 3386.633
442.1377, 3535.547
442.6198, 3697.782
443.1020, 3869.820
443.5841, 4058.500
444.0662, 4271.978
444.5483, 4515.495
445.0304, 4786.113
445.5125, 5081.064
445.9947, 5392.721
446.4768, 5748.570
446.9589, 6156.895
447.4410, 6598.591
447.9231, 7079.772
448.4052, 7588.207
448.8874, 8099.237
449.3695, 8604.968
449.8516, 9090.994
450.3337, 9464.461
450.8158, 9765.478
451.2979, 9870.450
451.7801, 9747.048
452.2622, 9450.869
452.7443, 9004.457
453.2264, 8419.887
453.7085, 7769.686
454.1906, 7109.192
454.6728, 6436.323
455.1549, 5821.042
455.6370, 5267.215
456.1191, 4778.905
456.6012, 4358.261
457.0833, 3997.135
457.5655, 3680.011
458.0476, 3405.441
458.5297, 3168.028
459.0118, 2965.436
459.4939, 2798.278
459.9760, 2654.887
460.4582, 2535.497
460.9403, 2435.870
461.4224, 2346.251
461.9045, 2266.192
462.3866, 2198.982
462.8687, 2149.466
463.3508, 2112.009
463.8329, 2079.618
464.3151, 2051.439
464.7972, 2024.308
465.2793, 1995.142
465.7614, 1964.871
466.2435, 1940.880
466.7256, 1927.161
467.2078, 1914.837
467.6899, 1899.939
468.1720, 1884.545
468.6541, 1870.838
469.1362, 1859.648
469.6183, 1853.656
470.1005, 1857.093
470.5826, 1872.342
471.0647, 1889.982
471.5468, 1907.745
472.0289, 1929.676
472.5110, 1957.268
472.9932, 1990.689
473.4753, 2029.233
473.9574, 2072.432
474.4395, 2121.592
474.9216, 2180.926
475.4037, 2250.899
475.8859, 2330.825
476.3680, 2420.857
476.8501, 2519.851
477.3322, 2627.704
477.8143, 2744.068
478.2964, 2867.230
478.7786, 3001.076
479.2607, 3142.578
479.7428, 3269.638
480.2249, 3393.696
480.7070, 3478.439
481.1891, 3509.221
481.6713, 3490.862
482.1534, 3421.157
482.6355, 3294.923
483.1176, 3132.573
483.5997, 2938.598
484.0818, 2720.612
484.5640, 2502.741
485.0461, 2286.146
485.5282, 2083.528
486.0103, 1908.550
486.4924, 1760.061
486.9745, 1632.058
487.4567, 1529.235
487.9388, 1442.671
488.4209, 1368.477
488.9030, 1305.859
489.3851, 1252.270
489.8672, 1207.133
490.3494, 1169.344
490.8315, 1136.372
491.3136, 1109.492
491.7957, 1085.857
492.2778, 1066.750
492.7599, 1049.856
493.2421, 1033.798
493.7242, 1018.390
494.2063, 1004.061
494.6884, 991.0078
495.1705, 979.2532
495.6526, 968.7702
496.1348, 959.4407
496.6169, 951.6891
497.0990, 945.6707
497.5811, 940.9379
498.0632, 937.4094
498.5453, 934.9191
499.0275, 932.7842
499.5096, 930.1362
499.9917, 927.1013
500.4738, 925.1250
500.9559, 924.3314
501.4380, 924.3939
501.9202, 925.0895
502.4023, 926.5206
502.8844, 928.7252
503.3665, 931.3636
503.8486, 935.7809
504.3307, 944.4772
504.8129, 956.0471
505.2950, 965.6649
505.7771, 972.3234
506.2592, 976.6794
506.7413, 979.4894
507.2234, 980.6105
507.7056, 978.8576
508.1877, 973.6700
508.6698, 966.0225
509.1519, 955.9204
509.6340, 943.8273
510.1161, 930.0328
510.5983, 914.4098
511.0804, 899.1281
511.5625, 887.9678
512.0446, 882.9470
512.5267, 877.1066
513.0089, 868.9916
513.4910, 861.5166
513.9731, 856.3773
514.4552, 853.1539
514.9373, 850.6237
515.4194, 848.1567
515.9016, 845.6587
516.3837, 842.6724
516.8658, 838.5424
517.3479, 835.7581
517.8300, 835.7910
518.3121, 836.4611
518.7943, 837.1833
519.2764, 837.5511
519.7585, 836.3449
520.2406, 831.7410
520.7227, 825.4181
521.2048, 820.9938
521.6870, 818.6193
522.1691, 817.0839
522.6512, 816.2719
523.1333, 815.7356
523.6154, 814.7455
524.0975, 813.2704
524.5797, 811.5228
525.0618, 809.0075
525.5439, 806.5521
526.0260, 805.9445
526.5081, 807.0605
526.9902, 806.6928
527.4724, 801.9537
527.9545, 794.0145
528.4366, 790.1750
528.9187, 795.3054
529.4008, 797.8915
529.8829, 795.1453
530.3651, 789.9927
530.8472, 784.5070
531.3293, 779.4210
531.8114, 775.4467
532.2935, 773.4164
532.7756, 773.2336
533.2578, 773.0217
533.7399, 773.7693
534.2220, 772.8674
534.7041, 767.7836
535.1862, 761.9161
535.6683, 759.4324
536.1505, 761.2156
536.6326, 762.9789
537.1147, 759.9301
537.5968, 753.2858
538.0789, 748.8996
538.5610, 747.5751
539.0432, 747.3655
539.5253, 747.7064
540.0074, 748.1223
540.4895, 747.4175
540.9716, 744.6828
541.4537, 742.2601
541.9359, 741.8960
542.4180, 742.5292
542.9001, 742.4628
543.3822, 741.3208
543.8643, 739.2347
544.3464, 736.1929
544.8286, 732.1625
545.3107, 728.3397
545.7928, 723.2274
546.2749, 720.0391
546.7570, 722.0695
547.2391, 725.3320
547.7213, 724.4305
548.2034, 718.1698
548.6855, 710.4948
549.1676, 706.1083
549.6497, 705.2090
550.1318, 704.2937
550.6140, 703.6774
551.0961, 702.5468
551.5782, 699.8307
552.0603, 696.7740
552.5424, 695.3485
553.0245, 696.3442
553.5067, 697.4020
553.9888, 696.0585
554.4709, 692.9447
554.9530, 690.6019
555.4351, 689.6534
555.9172, 688.4468
556.3994, 685.1483
556.8815, 680.3686
557.3636, 677.3736
557.8457, 677.8326
558.3278, 678.2448
558.8099, 677.2045
559.2921, 675.2646
559.7742, 672.8702
560.2563, 670.2432
560.7384, 668.2852
561.2205, 668.2247
561.7026, 670.2115
562.1848, 670.2781
562.6669, 665.4731
563.1490, 662.1301
563.6311, 663.4918
564.1132, 665.8945
564.5953, 664.7521
565.0775, 659.1426
565.5596, 652.7316
566.0417, 649.3654
566.5238, 648.7985
567.0059, 648.6039
567.4880, 649.1561
567.9702, 649.1078
568.4523, 646.4838
568.9344, 643.2432
569.4165, 642.5118
569.8986, 645.5330
570.3807, 648.1014
570.8629, 647.1992
571.3450, 644.4752
571.8271, 642.8339
572.3092, 642.6469
572.7913, 642.4030
573.2734, 640.8262
573.7556, 638.1927
574.2377, 636.4716
574.7198, 636.2308
575.2019, 636.0729
575.6840, 636.0458
576.1661, 635.8795
576.6483, 634.8673
577.1304, 633.2693
577.6125, 632.6241
578.0946, 634.6445
578.5767, 638.5457
579.0588, 639.6434
579.5410, 636.6505
580.0231, 633.7991
580.5052, 631.9694
580.9873, 630.9598
581.4694, 630.9156
581.9515, 631.7750
582.4337, 632.7152
582.9158, 633.3522
583.3979, 633.7485
583.8800, 634.3670
584.3621, 635.1447
584.8442, 634.2292
585.3264, 630.0328
585.8085, 624.6913
586.2906, 622.8766
586.7727, 626.2322
587.2548, 627.8665
587.7369, 626.3023
588.2191, 623.5779
588.7012, 620.0609
589.1833, 616.5735
589.6654, 615.0173
590.1475, 616.5122
