##NAMES=Senarmontite
##RRUFFID=R060002
##IDEAL CHEMISTRY=Sb^3+^_2_O_3_
##LOCALITY=Chenlong, Xin Yi County, Guizhou Province, China
##OWNER=RRUFF
##SOURCE=Ken Roberts
##DESCRIPTION=Glassy coating over an altered stibnite crystal, mixed with cervantite
##STATUS=The identification of this mineral has been confirmed by X-ray diffraction and chemical analysis
##URL=rruff.info/R060002
##MEASURED CHEMISTRY=core and light rim: (Sb_1.99_As_0.01_)_Î£=2_O_3_
121.0265, 3466.277
121.5086, 3461.413
121.9907, 3457.074
122.4728, 3455.409
122.9550, 3455.456
123.4371, 3454.717
123.9192, 3452.104
124.4013, 3449.018
124.8834, 3447.007
125.3655, 3446.083
125.8476, 3445.622
126.3298, 3444.939
126.8119, 3443.941
127.2940, 3443.832
127.7761, 3446.207
128.2582, 3448.883
128.7404, 3450.738
129.2225, 3451.478
129.7046, 3451.190
130.1867, 3449.674
130.6688, 3445.298
131.1509, 3442.944
131.6331, 3443.996
132.1152, 3446.656
132.5973, 3449.465
133.0794, 3451.717
133.5615, 3453.431
134.0436, 3454.628
134.5258, 3454.802
135.0079, 3454.960
135.4900, 3455.190
135.9721, 3455.493
136.4542, 3455.679
136.9363, 3455.478
137.4185, 3455.056
137.9006, 3456.707
138.3827, 3463.220
138.8648, 3468.830
139.3469, 3470.075
139.8290, 3467.409
140.3112, 3464.413
140.7933, 3464.088
141.2754, 3466.133
141.7575, 3466.989
142.2396, 3465.499
142.7217, 3463.234
143.2039, 3462.122
143.6860, 3462.593
144.1681, 3462.782
144.6502, 3460.792
145.1323, 3457.328
145.6144, 3453.734
146.0966, 3450.399
146.5787, 3447.331
147.0608, 3444.325
147.5429, 3440.375
148.0250, 3438.105
148.5071, 3439.816
148.9893, 3444.347
149.4714, 3448.476
149.9535, 3449.302
150.4356, 3446.515
150.9177, 3444.428
151.3998, 3443.983
151.8820, 3443.542
152.3641, 3441.829
152.8462, 3439.215
153.3283, 3437.435
153.8104, 3438.927
154.2925, 3445.781
154.7747, 3450.006
155.2568, 3449.247
155.7389, 3448.143
156.2210, 3449.932
156.7031, 3455.099
157.1852, 3461.523
157.6673, 3465.848
158.1495, 3465.835
158.6316, 3467.407
159.1137, 3470.927
159.5958, 3475.798
160.0779, 3481.568
160.5600, 3488.122
161.0422, 3495.246
161.5243, 3502.462
162.0064, 3509.167
162.4885, 3517.201
162.9706, 3527.788
163.4527, 3539.950
163.9349, 3551.771
164.4170, 3562.483
164.8991, 3572.564
165.3812, 3582.710
165.8633, 3592.379
166.3454, 3603.608
166.8276, 3618.689
167.3097, 3637.034
167.7918, 3654.490
168.2739, 3668.372
168.7560, 3681.309
169.2381, 3696.277
169.7203, 3713.665
170.2024, 3732.617
170.6845, 3752.221
171.1666, 3772.202
171.6487, 3794.060
172.1308, 3820.110
172.6130, 3847.340
173.0951, 3873.058
173.5772, 3896.154
174.0593, 3918.948
174.5414, 3946.271
175.0235, 3980.975
175.5057, 4014.084
175.9878, 4042.255
176.4699, 4068.762
176.9520, 4096.770
177.4341, 4127.614
177.9162, 4160.806
178.3984, 4195.547
178.8805, 4235.769
179.3626, 4272.206
179.8447, 4301.201
180.3268, 4326.795
180.8089, 4354.351
181.2911, 4386.813
181.7732, 4423.229
182.2553, 4458.626
182.7374, 4491.495
183.2195, 4525.193
183.7016, 4561.942
184.1838, 4599.942
184.6659, 4635.780
185.1480, 4667.313
185.6301, 4695.026
186.1122, 4723.403
186.5943, 4751.640
187.0765, 4780.949
187.5586, 4812.641
188.0407, 4845.943
188.5228, 4878.914
189.0049, 4910.622
189.4870, 4940.405
189.9692, 4967.096
190.4513, 4989.593
190.9334, 5010.082
191.4155, 5030.200
191.8976, 5049.781
192.3797, 5067.604
192.8619, 5083.520
193.3440, 5096.538
193.8261, 5104.718
194.3082, 5107.620
194.7903, 5105.709
195.2724, 5098.434
195.7546, 5085.281
196.2367, 5070.499
196.7188, 5059.394
197.2009, 5047.853
197.6830, 5029.396
198.1651, 5000.530
198.6473, 4964.836
199.1294, 4927.854
199.6115, 4889.601
200.0936, 4850.029
200.5757, 4809.784
201.0578, 4768.126
201.5400, 4723.412
202.0221, 4674.344
202.5042, 4622.320
202.9863, 4570.679
203.4684, 4520.058
203.9505, 4469.242
204.4327, 4416.448
204.9148, 4363.391
205.3969, 4312.316
205.8790, 4264.412
206.3611, 4219.298
206.8432, 4173.950
207.3254, 4127.117
207.8075, 4081.571
208.2896, 4036.849
208.7717, 3994.013
209.2538, 3954.473
209.7359, 3919.604
210.2181, 3888.800
210.7002, 3857.747
211.1823, 3823.255
211.6644, 3791.918
212.1465, 3767.236
212.6286, 3746.500
213.1108, 3724.962
213.5929, 3699.337
214.0750, 3669.973
214.5571, 3642.796
215.0392, 3617.176
215.5213, 3593.917
216.0035, 3574.598
216.4856, 3558.007
216.9677, 3541.861
217.4498, 3524.515
217.9319, 3506.232
218.4140, 3489.015
218.8962, 3472.626
219.3783, 3457.397
219.8604, 3444.141
220.3425, 3432.270
220.8246, 3419.983
221.3067, 3405.933
221.7889, 3390.436
222.2710, 3375.723
222.7531, 3361.173
223.2352, 3347.857
223.7173, 3336.585
224.1994, 3327.124
224.6816, 3318.288
225.1637, 3309.468
225.6458, 3300.735
226.1279, 3292.306
226.6100, 3285.415
227.0921, 3277.633
227.5743, 3266.013
228.0564, 3251.089
228.5385, 3237.997
229.0206, 3230.251
229.5027, 3226.126
229.9848, 3221.623
230.4670, 3216.719
230.9491, 3211.091
231.4312, 3204.052
231.9133, 3195.578
232.3954, 3187.388
232.8775, 3179.943
233.3597, 3173.526
233.8418, 3168.868
234.3239, 3166.883
234.8060, 3164.853
235.2881, 3159.052
235.7702, 3148.920
236.2524, 3140.333
236.7345, 3136.893
237.2166, 3135.495
237.6987, 3133.630
238.1808, 3130.748
238.6629, 3127.579
239.1451, 3125.324
239.6272, 3124.359
240.1093, 3122.321
240.5914, 3116.766
241.0735, 3110.849
241.5556, 3106.790
242.0378, 3105.104
242.5199, 3104.847
243.0020, 3105.335
243.4841, 3107.249
243.9662, 3107.211
244.4483, 3102.632
244.9305, 3097.189
245.4126, 3093.029
245.8947, 3090.667
246.3768, 3089.435
246.8589, 3088.904
247.3410, 3089.933
247.8232, 3088.861
248.3053, 3082.827
248.7874, 3076.538
249.2695, 3073.384
249.7516, 3073.715
250.2337, 3074.898
250.7159, 3073.087
251.1980, 3066.451
251.6801, 3061.901
252.1622, 3061.792
252.6443, 3061.866
253.1264, 3059.234
253.6086, 3053.812
254.0907, 3047.878
254.5728, 3044.425
255.0549, 3044.624
255.5370, 3043.724
256.0191, 3040.739
256.5013, 3037.636
256.9834, 3035.652
257.4655, 3034.760
257.9476, 3034.023
258.4297, 3032.413
258.9118, 3029.703
259.3940, 3026.910
259.8761, 3024.515
260.3582, 3021.633
260.8403, 3017.185
261.3224, 3011.578
261.8045, 3006.517
262.2867, 3003.861
262.7688, 3004.323
263.2509, 3002.211
263.7330, 2996.014
264.2151, 2989.286
264.6972, 2983.127
265.1794, 2977.845
265.6615, 2973.708
266.1436, 2971.221
266.6257, 2970.527
267.1078, 2967.898
267.5899, 2962.180
268.0721, 2956.130
268.5542, 2950.610
269.0363, 2945.732
269.5184, 2941.559
270.0005, 2938.323
270.4826, 2935.884
270.9648, 2932.303
271.4469, 2926.499
271.9290, 2920.937
272.4111, 2916.315
272.8932, 2912.630
273.3753, 2910.017
273.8575, 2908.886
274.3396, 2908.623
274.8217, 2905.917
275.3038, 2898.981
275.7859, 2892.202
276.2680, 2886.766
276.7502, 2882.459
277.2323, 2878.891
277.7144, 2876.012
278.1965, 2873.544
278.6786, 2870.608
279.1607, 2866.819
279.6429, 2863.395
280.1250, 2861.428
280.6071, 2859.956
281.0892, 2856.867
281.5713, 2851.045
282.0534, 2844.320
282.5356, 2840.717
283.0177, 2841.205
283.4998, 2840.747
283.9819, 2836.784
284.4640, 2831.464
284.9461, 2828.557
285.4283, 2829.403
285.9104, 2831.153
286.3925, 2829.345
286.8746, 2823.685
287.3567, 2818.677
287.8388, 2815.519
288.3210, 2813.366
288.8031, 2811.203
289.2852, 2808.838
289.7673, 2806.498
290.2494, 2804.591
290.7315, 2803.074
291.2137, 2801.107
291.6958, 2797.802
292.1779, 2794.390
292.6600, 2792.659
293.1421, 2792.832
293.6242, 2792.638
294.1064, 2789.699
294.5885, 2784.622
295.0706, 2780.886
295.5527, 2779.548
296.0348, 2779.160
296.5169, 2778.985
296.9991, 2778.939
297.4812, 2777.752
297.9633, 2773.675
298.4454, 2768.054
298.9275, 2765.007
299.4096, 2765.906
299.8918, 2767.983
300.3739, 2770.120
300.8560, 2772.114
301.3381, 2772.385
301.8202, 2769.571
302.3023, 2765.030
302.7845, 2761.650
303.2666, 2759.862
303.7487, 2758.257
304.2308, 2756.057
304.7129, 2753.414
305.1950, 2750.853
305.6772, 2748.605
306.1593, 2746.426
306.6414, 2743.644
307.1235, 2740.041
307.6056, 2737.516
308.0877, 2738.007
308.5699, 2740.112
309.0520, 2740.375
309.5341, 2737.663
310.0162, 2734.047
310.4983, 2731.780
310.9804, 2730.638
311.4626, 2729.749
311.9447, 2728.763
312.4268, 2727.868
312.9089, 2727.575
313.3910, 2728.102
313.8731, 2728.278
314.3553, 2726.735
314.8374, 2723.957
315.3195, 2721.462
315.8016, 2719.721
316.2837, 2718.274
316.7658, 2716.488
317.2480, 2714.326
317.7301, 2712.681
318.2122, 2712.863
318.6943, 2713.719
319.1764, 2712.423
319.6585, 2707.009
320.1407, 2701.646
320.6228, 2700.057
321.1049, 2701.755
321.5870, 2703.110
322.0691, 2702.752
322.5512, 2701.019
323.0334, 2698.585
323.5155, 2695.168
323.9976, 2692.062
324.4797, 2690.264
324.9618, 2689.374
325.4439, 2688.098
325.9261, 2685.878
326.4082, 2683.532
326.8903, 2682.292
327.3724, 2682.142
327.8545, 2681.696
328.3366, 2680.175
328.8188, 2678.108
329.3009, 2676.329
329.7830, 2674.950
330.2651, 2673.845
330.7472, 2673.053
331.2293, 2672.488
331.7115, 2671.698
332.1936, 2670.180
332.6757, 2668.643
333.1578, 2668.083
333.6399, 2668.546
334.1220, 2668.692
334.6042, 2667.334
335.0863, 2664.993
335.5684, 2663.693
336.0505, 2664.166
336.5326, 2665.026
337.0147, 2665.453
337.4969, 2665.522
337.9790, 2665.599
338.4611, 2665.969
338.9432, 2666.307
339.4253, 2665.887
339.9074, 2664.546
340.3896, 2663.014
340.8717, 2661.253
341.3538, 2659.530
341.8359, 2658.411
342.3180, 2658.090
342.8001, 2658.270
343.2823, 2658.742
343.7644, 2659.593
344.2465, 2659.922
344.7286, 2659.374
345.2107, 2658.315
345.6928, 2657.063
346.1750, 2655.662
346.6571, 2654.187
347.1392, 2652.479
347.6213, 2650.605
348.1034, 2650.050
348.5855, 2652.527
349.0677, 2654.882
349.5498, 2654.814
350.0319, 2652.643
350.5140, 2650.173
350.9961, 2648.376
351.4782, 2647.172
351.9604, 2646.139
352.4425, 2644.320
352.9246, 2643.749
353.4067, 2646.940
353.8888, 2651.536
354.3709, 2652.875
354.8531, 2648.971
355.3352, 2642.387
355.8173, 2637.825
356.2994, 2635.418
356.7815, 2634.762
357.2636, 2637.133
357.7458, 2640.536
358.2279, 2643.070
358.7100, 2644.399
359.1921, 2645.416
359.6742, 2647.295
360.1563, 2650.512
360.6385, 2651.127
361.1206, 2646.432
361.6027, 2641.856
362.0848, 2640.437
362.5669, 2641.761
363.0490, 2643.752
363.5312, 2644.958
364.0133, 2645.597
364.4954, 2647.528
364.9775, 2652.030
365.4596, 2656.200
365.9417, 2660.027
366.4239, 2663.000
366.9060, 2664.113
367.3881, 2662.976
367.8702, 2660.745
368.3523, 2659.782
368.8344, 2660.625
369.3166, 2662.021
369.7987, 2663.915
370.2808, 2666.344
370.7629, 2669.415
371.2450, 2673.096
371.7271, 2677.224
372.2093, 2681.684
372.6914, 2686.637
373.1735, 2691.047
373.6556, 2695.050
374.1377, 2698.417
374.6198, 2700.283
375.1020, 2701.469
375.5841, 2703.658
376.0662, 2708.059
376.5483, 2714.073
377.0304, 2718.617
377.5125, 2719.517
377.9947, 2722.129
378.4768, 2727.829
378.9589, 2735.201
379.4410, 2743.049
379.9231, 2750.936
380.4052, 2758.719
380.8874, 2766.496
381.3695, 2774.804
381.8516, 2781.186
382.3337, 2782.507
382.8158, 2784.274
383.2979, 2789.880
383.7801, 2798.919
384.2622, 2808.388
384.7443, 2815.567
385.2264, 2820.702
385.7085, 2827.268
386.1906, 2836.355
386.6728, 2845.391
387.1549, 2852.757
387.6370, 2859.543
388.1191, 2867.555
388.6012, 2878.029
389.0833, 2889.243
389.5655, 2897.670
390.0476, 2902.543
390.5297, 2908.123
391.0118, 2915.886
391.4939, 2924.926
391.9760, 2935.261
392.4582, 2946.930
392.9403, 2957.457
393.4224, 2964.298
393.9045, 2967.976
394.3866, 2971.931
394.8687, 2977.247
395.3509, 2981.802
395.8330, 2983.392
396.3151, 2982.788
396.7972, 2982.442
397.2793, 2984.015
397.7614, 2986.042
398.2436, 2986.678
398.7257, 2985.926
399.2078, 2983.552
399.6899, 2978.723
400.1720, 2972.398
400.6541, 2966.721
401.1363, 2961.948
401.6184, 2957.569
402.1005, 2954.446
402.5826, 2951.597
403.0647, 2945.609
403.5468, 2934.684
404.0290, 2922.427
404.5111, 2914.315
404.9932, 2910.619
405.4753, 2906.394
405.9574, 2901.460
406.4395, 2895.173
406.9217, 2885.963
407.4038, 2874.027
407.8859, 2862.695
408.3680, 2854.778
408.8501, 2849.946
409.3322, 2843.952
409.8144, 2835.421
410.2965, 2827.390
410.7786, 2821.421
411.2607, 2816.590
411.7428, 2811.235
412.2249, 2804.715
412.7071, 2797.363
413.1892, 2789.732
413.6713, 2780.769
414.1534, 2773.683
414.6355, 2769.941
415.1176, 2766.926
415.5998, 2762.691
416.0819, 2757.191
416.5640, 2751.698
417.0461, 2747.473
417.5282, 2744.553
418.0103, 2740.486
418.4925, 2733.070
418.9746, 2726.894
419.4567, 2724.102
419.9388, 2722.801
420.4209, 2720.234
420.9030, 2715.166
421.3852, 2708.750
421.8673, 2703.228
422.3494, 2698.417
422.8315, 2694.989
423.3136, 2694.705
423.7957, 2694.378
424.2779, 2691.485
424.7600, 2686.312
425.2421, 2681.530
425.7242, 2679.821
426.2063, 2680.783
426.6884, 2680.512
427.1706, 2678.457
427.6527, 2676.059
428.1348, 2674.072
428.6169, 2672.149
429.0990, 2669.645
429.5811, 2666.096
430.0633, 2662.522
430.5454, 2660.466
431.0275, 2659.969
431.5096, 2659.038
431.9917, 2656.507
432.4738, 2653.972
432.9560, 2653.203
433.4381, 2654.178
433.9202, 2655.280
434.4023, 2656.001
434.8844, 2656.269
435.3665, 2655.473
435.8487, 2653.352
436.3308, 2652.177
436.8129, 2654.443
437.2950, 2659.064
437.7771, 2661.330
438.2592, 2658.987
438.7414, 2656.550
439.2235, 2656.726
439.7056, 2658.660
440.1877, 2660.380
440.6698, 2661.207
441.1519, 2661.372
441.6341, 2661.262
442.1162, 2661.000
442.5983, 2660.025
443.0804, 2656.988
443.5625, 2654.237
444.0446, 2653.531
444.5268, 2654.873
445.0089, 2657.551
445.4910, 2661.379
445.9731, 2665.977
446.4552, 2667.650
446.9373, 2663.162
447.4195, 2659.597
447.9016, 2658.206
448.3837, 2658.140
448.8658, 2658.660
449.3479, 2659.458
449.8300, 2660.254
450.3122, 2660.753
450.7943, 2661.140
451.2764, 2660.516
451.7585, 2657.493
452.2406, 2654.735
452.7227, 2653.215
453.2049, 2652.792
453.6870, 2653.159
454.1691, 2654.545
454.6512, 2656.021
455.1333, 2654.874
455.6154, 2650.170
456.0976, 2645.634
456.5797, 2643.453
457.0618, 2641.264
457.5439, 2636.673
458.0260, 2629.402
458.5081, 2622.343
458.9903, 2618.384
459.4724, 2616.537
459.9545, 2613.145
460.4366, 2607.576
460.9187, 2601.138
461.4008, 2594.158
461.8830, 2587.054
462.3651, 2581.012
462.8472, 2577.492
463.3293, 2573.742
463.8114, 2567.168
464.2935, 2558.504
464.7756, 2550.396
465.2578, 2543.842
465.7399, 2538.208
466.2220, 2532.754
466.7041, 2527.757
467.1862, 2521.739
467.6683, 2513.315
468.1505, 2504.660
468.6326, 2497.532
469.1147, 2491.936
469.5968, 2487.095
470.0789, 2482.451
470.5610, 2478.037
471.0432, 2474.208
471.5253, 2472.289
472.0074, 2469.263
472.4895, 2463.876
472.9716, 2457.729
473.4537, 2452.457
473.9359, 2448.433
474.4180, 2444.893
474.9001, 2440.883
475.3822, 2436.302
475.8643, 2432.354
476.3464, 2430.266
476.8286, 2427.509
477.3107, 2422.395
477.7928, 2416.281
478.2749, 2411.427
478.7570, 2408.934
479.2391, 2407.731
479.7213, 2406.340
480.2034, 2404.811
480.6855, 2402.504
481.1676, 2398.484
481.6497, 2394.338
482.1318, 2391.284
482.6140, 2389.259
483.0961, 2387.710
483.5782, 2386.801
484.0603, 2386.015
484.5424, 2384.660
485.0245, 2382.720
485.5067, 2379.781
485.9888, 2374.849
486.4709, 2369.204
486.9530, 2366.277
487.4351, 2367.367
487.9172, 2368.120
488.3994, 2366.590
488.8815, 2364.061
489.3636, 2362.367
489.8457, 2361.825
490.3278, 2361.394
490.8099, 2360.019
491.2921, 2357.656
491.7742, 2355.726
492.2563, 2355.223
492.7384, 2353.960
493.2205, 2350.728
493.7026, 2346.517
494.1848, 2342.513
494.6669, 2339.212
495.1490, 2336.752
495.6311, 2335.430
496.1132, 2335.513
496.5953, 2335.889
497.0775, 2337.579
497.5596, 2338.574
498.0417, 2337.711
498.5238, 2335.527
499.0059, 2333.353
499.4880, 2332.056
499.9702, 2330.804
500.4523, 2327.280
500.9344, 2320.787
501.4165, 2316.496
501.8986, 2317.758
502.3807, 2320.160
502.8629, 2319.411
503.3450, 2315.551
503.8271, 2311.814
504.3092, 2309.638
504.7913, 2308.569
505.2734, 2308.508
505.7556, 2309.431
506.2377, 2309.132
506.7198, 2305.925
507.2019, 2300.802
507.6840, 2296.849
508.1661, 2294.176
508.6483, 2292.286
509.1304, 2291.599
509.6125, 2291.352
510.0946, 2290.633
510.5767, 2289.325
511.0588, 2287.917
511.5410, 2286.805
512.0231, 2285.988
512.5052, 2285.657
512.9873, 2287.197
513.4694, 2287.547
513.9515, 2285.050
514.4337, 2281.543
514.9158, 2279.225
515.3979, 2278.677
515.8800, 2278.649
516.3621, 2277.336
516.8442, 2274.513
517.3264, 2272.963
517.8085, 2274.494
518.2906, 2274.918
518.7727, 2271.500
519.2548, 2266.055
519.7369, 2261.671
520.2191, 2259.551
520.7012, 2258.346
521.1833, 2256.403
521.6654, 2253.908
522.1475, 2252.452
522.6296, 2252.778
523.1118, 2253.494
523.5939, 2252.959
524.0760, 2251.360
524.5581, 2249.984
525.0402, 2248.744
525.5223, 2248.052
526.0045, 2249.115
526.4866, 2251.040
526.9687, 2251.167
527.4508, 2248.265
527.9329, 2243.530
528.4150, 2238.970
528.8972, 2233.607
529.3793, 2231.031
529.8614, 2233.613
530.3435, 2236.613
530.8256, 2237.438
531.3077, 2236.450
531.7899, 2235.302
532.2720, 2235.035
532.7541, 2234.920
533.2362, 2232.875
533.7183, 2228.109
534.2004, 2223.620
534.6826, 2218.912
535.1647, 2215.427
535.6468, 2215.150
536.1289, 2217.317
536.6110, 2218.385
537.0931, 2215.429
537.5753, 2210.465
538.0574, 2207.053
538.5395, 2205.206
539.0216, 2204.578
539.5037, 2205.599
539.9858, 2207.270
540.4680, 2208.160
540.9501, 2208.458
541.4322, 2207.328
541.9143, 2202.315
542.3964, 2197.246
542.8785, 2196.660
543.3607, 2200.137
543.8428, 2203.832
544.3249, 2205.439
544.8070, 2205.165
545.2891, 2203.743
545.7712, 2200.090
546.2534, 2196.719
546.7355, 2192.820
547.2176, 2189.891
547.6997, 2189.860
548.1818, 2192.135
548.6639, 2194.007
549.1461, 2193.275
549.6282, 2190.511
550.1103, 2187.870
550.5924, 2184.765
551.0745, 2183.232
551.5566, 2185.721
552.0388, 2188.881
552.5209, 2190.080
553.0030, 2189.106
553.4851, 2187.460
553.9672, 2185.228
554.4493, 2183.167
554.9315, 2183.100
555.4136, 2185.136
555.8957, 2186.808
556.3778, 2187.028
556.8599, 2185.817
557.3420, 2182.829
557.8242, 2176.760
558.3063, 2172.323
558.7884, 2171.364
559.2705, 2171.785
559.7526, 2171.692
560.2347, 2171.034
560.7169, 2171.022
561.1990, 2172.709
561.6811, 2175.374
562.1632, 2175.561
562.6453, 2170.844
563.1274, 2167.738
563.6096, 2168.115
564.0917, 2169.204
564.5738, 2168.945
565.0559, 2167.354
565.5380, 2165.846
566.0201, 2165.687
566.5023, 2166.216
566.9844, 2165.664
567.4665, 2163.927
567.9486, 2161.753
568.4307, 2158.706
568.9128, 2156.050
569.3950, 2155.921
569.8771, 2158.645
570.3592, 2160.211
570.8413, 2158.225
571.3234, 2155.207
571.8055, 2153.984
572.2877, 2154.328
572.7698, 2154.080
573.2519, 2151.919
573.7340, 2148.825
574.2161, 2147.324
574.6982, 2148.152
575.1804, 2149.366
575.6625, 2152.280
576.1446, 2154.364
576.6267, 2153.616
577.1088, 2150.689
577.5909, 2147.310
578.0731, 2144.286
578.5552, 2142.103
579.0373, 2142.333
579.5194, 2145.585
580.0015, 2147.815
580.4836, 2147.910
580.9658, 2147.035
581.4479, 2146.318
581.9300, 2145.552
582.4121, 2143.784
582.8942, 2139.323
583.3763, 2134.823
583.8585, 2133.069
584.3406, 2133.556
584.8227, 2134.645
585.3048, 2135.962
585.7869, 2136.798
586.2690, 2135.996
586.7512, 2133.025
587.2333, 2131.078
587.7154, 2130.658
588.1975, 2130.647
588.6796, 2131.023
589.1617, 2131.356
589.6439, 2130.727
590.1260, 2128.871
590.6081, 2127.076
591.0902, 2127.740
591.5723, 2131.335
592.0544, 2132.475
592.5366, 2129.244
593.0187, 2126.200
593.5008, 2125.865
593.9829, 2126.889
594.4650, 2127.331
594.9471, 2126.725
595.4293, 2125.480
595.9114, 2123.299
596.3935, 2120.791
596.8756, 2119.605
597.3577, 2120.027
597.8398, 2120.846
598.3220, 2121.395
598.8041, 2121.564
599.2862, 2120.490
599.7683, 2116.557
600.2504, 2113.768
600.7325, 2113.990
601.2147, 2114.828
601.6968, 2113.808
602.1789, 2110.935
602.6610, 2107.987
603.1431, 2106.331
603.6252, 2105.808
604.1074, 2105.952
604.5895, 2107.231
605.0716, 2107.928
605.5537, 2107.297
606.0358, 2106.131
606.5179, 2104.836
607.0001, 2103.471
607.4822, 2102.179
607.9643, 2100.683
608.4464, 2099.513
608.9285, 2099.987
609.4106, 2101.672
609.8928, 2101.737
610.3749, 2098.774
610.8570, 2094.864
611.3391, 2093.188
611.8212, 2094.564
612.3033, 2095.086
612.7855, 2094.206
613.2676, 2093.108
613.7497, 2092.361
614.2318, 2091.742
614.7139, 2090.726
615.1960, 2089.143
615.6782, 2087.529
616.1603, 2086.797
