##NAMES=Senarmontite
##RRUFFID=R060075
##IDEAL CHEMISTRY=Sb^3+^_2_O_3_
##LOCALITY=Djebel Haminate mine, Constantine, Algeria
##OWNER=RRUFF
##SOURCE=University of Arizona Mineral Museum
##DESCRIPTION=Brown octahedra
##STATUS=The identification of this mineral has been confirmed by X-ray diffraction and chemical analysis
##URL=rruff.info/R060075
##MEASURED CHEMISTRY=Sb_2.00_O_3_
93.88477, 131.0625
94.36688, 128.1104
94.84900, 128.2508
95.33112, 131.4856
95.81323, 137.8244
96.29535, 148.6861
96.77747, 162.9907
97.25958, 175.8921
97.74170, 185.9700
98.22382, 196.8937
98.70593, 214.3589
99.18805, 238.3761
99.67017, 269.4632
100.1523, 307.2964
100.6344, 351.5825
101.1165, 405.9913
101.5986, 474.0566
102.0807, 551.9901
102.5629, 620.7417
103.0450, 680.5076
103.5271, 731.9423
104.0092, 773.6992
104.4913, 803.1909
104.9734, 831.2408
105.4556, 860.1041
105.9377, 889.5675
106.4198, 918.8431
106.9019, 946.2563
107.3840, 974.5192
107.8661, 1006.388
108.3483, 1043.360
108.8304, 1082.604
109.3125, 1123.128
109.7946, 1163.929
110.2767, 1209.652
110.7588, 1261.251
111.2410, 1317.935
111.7231, 1378.540
112.2052, 1445.096
112.6873, 1514.553
113.1694, 1585.266
113.6515, 1650.706
114.1337, 1728.906
114.6158, 1818.879
115.0979, 1922.253
115.5800, 2046.201
116.0621, 2179.081
116.5442, 2341.046
117.0264, 2540.843
117.5085, 2760.870
117.9906, 3043.717
118.4727, 3413.790
118.9548, 3865.206
119.4369, 4356.521
119.9191, 5018.118
120.4012, 5664.063
120.8833, 6102.546
121.3654, 6276.144
121.8475, 6222.911
122.3296, 5895.959
122.8118, 5293.470
123.2939, 4652.735
123.7760, 4078.232
124.2581, 3579.710
124.7402, 3163.900
125.2223, 2867.847
125.7045, 2650.363
126.1866, 2474.730
126.6687, 2340.958
127.1508, 2235.570
127.6329, 2151.424
128.1150, 2086.748
128.5972, 2032.664
129.0793, 1985.553
129.5614, 1946.037
130.0435, 1916.641
130.5256, 1898.621
131.0077, 1888.349
131.4899, 1882.028
131.9720, 1879.506
132.4541, 1877.903
132.9362, 1869.443
133.4183, 1852.498
133.9004, 1836.071
134.3826, 1819.441
134.8647, 1803.653
135.3468, 1791.439
135.8289, 1782.732
136.3110, 1776.833
136.7931, 1774.146
137.2753, 1774.779
137.7574, 1774.445
138.2395, 1771.831
138.7216, 1767.537
139.2037, 1765.871
139.6858, 1768.430
140.1680, 1769.498
140.6501, 1762.000
141.1322, 1743.100
141.6143, 1726.888
142.0964, 1719.543
142.5785, 1721.784
143.0607, 1708.499
143.5428, 1675.801
144.0249, 1632.332
144.5070, 1587.456
144.9891, 1540.039
145.4712, 1493.967
145.9534, 1451.124
146.4355, 1410.968
146.9176, 1373.510
147.3997, 1338.102
147.8818, 1305.423
148.3639, 1275.727
148.8461, 1247.258
149.3282, 1223.883
149.8103, 1207.590
150.2924, 1201.211
150.7745, 1195.867
151.2566, 1191.486
151.7388, 1188.096
152.2209, 1185.924
152.7030, 1186.367
153.1851, 1186.856
153.6672, 1186.377
154.1493, 1183.320
154.6315, 1181.417
155.1136, 1180.928
155.5957, 1181.745
156.0778, 1183.434
156.5599, 1185.504
157.0420, 1188.731
157.5242, 1193.549
158.0063, 1198.144
158.4884, 1206.211
158.9705, 1219.914
159.4526, 1238.388
159.9347, 1256.600
160.4169, 1269.270
160.8990, 1283.258
161.3811, 1303.501
161.8632, 1335.182
162.3453, 1369.492
162.8274, 1402.580
163.3096, 1434.761
163.7917, 1470.984
164.2738, 1513.000
164.7559, 1560.064
165.2380, 1611.445
165.7201, 1663.129
166.2023, 1722.024
166.6844, 1790.593
167.1665, 1868.876
167.6486, 1960.137
168.1307, 2056.339
168.6128, 2168.616
169.0950, 2311.556
169.5771, 2476.002
170.0592, 2683.640
170.5413, 2942.354
171.0234, 3251.604
171.5055, 3632.458
171.9877, 4117.530
172.4698, 4683.048
172.9519, 5286.843
173.4340, 5973.648
173.9161, 6658.732
174.3982, 7257.208
174.8804, 7763.548
175.3625, 8206.708
175.8446, 8581.220
176.3267, 8906.130
176.8088, 9223.308
177.2909, 9546.729
177.7731, 9878.465
178.2552, 10221.72
178.7373, 10579.95
179.2194, 10949.02
179.7015, 11319.62
180.1836, 11699.78
180.6658, 12110.54
181.1479, 12574.33
181.6300, 13081.24
182.1121, 13598.95
182.5942, 14114.86
183.0763, 14661.82
183.5585, 15270.03
184.0406, 15946.48
184.5227, 16712.44
185.0048, 17554.91
185.4869, 18495.20
185.9690, 19607.82
186.4511, 20867.99
186.9333, 22353.12
187.4154, 24151.64
187.8975, 26280.34
188.3796, 28762.08
188.8617, 31748.97
189.3438, 35159.45
189.8260, 38757.79
190.3081, 42783.96
190.7902, 46689.47
191.2723, 49714.47
191.7544, 51888.95
192.2365, 52401.87
192.7187, 50193.88
193.2008, 45474.09
193.6829, 40211.48
194.1650, 34405.72
194.6471, 28435.35
195.1292, 23337.74
195.6114, 19112.86
196.0935, 15591.47
196.5756, 12771.61
197.0577, 10647.53
197.5398, 8939.034
198.0219, 7647.541
198.5041, 6705.728
198.9862, 5964.343
199.4683, 5432.068
199.9504, 5032.703
200.4325, 4717.702
200.9146, 4489.861
201.3968, 4311.671
201.8789, 4182.679
202.3610, 4098.424
202.8431, 4039.892
203.3252, 4009.707
203.8073, 3998.360
204.2895, 3996.991
204.7716, 4004.524
205.2537, 4029.971
205.7358, 4075.054
206.2179, 4139.576
206.7000, 4222.850
207.1822, 4324.606
207.6643, 4443.649
208.1464, 4576.682
208.6285, 4721.406
209.1106, 4890.693
209.5927, 5085.669
210.0749, 5306.806
210.5570, 5561.535
211.0391, 5850.056
211.5212, 6167.516
212.0033, 6517.291
212.4854, 6907.862
212.9676, 7302.346
213.4497, 7704.264
213.9318, 8112.558
214.4139, 8474.987
214.8960, 8820.271
215.3781, 9079.829
215.8603, 9197.078
216.3424, 9177.206
216.8245, 8993.760
217.3066, 8614.580
217.7887, 8039.149
218.2708, 7431.731
218.7530, 6762.837
219.2351, 6090.294
219.7172, 5484.997
220.1993, 4938.957
220.6814, 4458.786
221.1635, 4056.124
221.6457, 3728.045
222.1278, 3438.502
222.6099, 3189.527
223.0920, 2971.738
223.5741, 2781.934
224.0562, 2619.907
224.5384, 2479.591
225.0205, 2359.421
225.5026, 2260.463
225.9847, 2176.542
226.4668, 2108.416
226.9489, 2055.124
227.4311, 2018.102
227.9132, 2000.254
228.3953, 1991.226
228.8774, 1989.543
229.3595, 1995.262
229.8416, 2006.000
230.3238, 2019.297
230.8059, 2040.371
231.2880, 2073.797
231.7701, 2117.983
232.2522, 2177.171
232.7343, 2248.026
233.2165, 2330.477
233.6986, 2443.833
234.1807, 2571.446
234.6628, 2746.604
235.1449, 2996.698
235.6270, 3304.075
236.1092, 3714.054
236.5913, 4251.192
237.0734, 4915.321
237.5555, 5632.279
238.0376, 6445.175
238.5197, 7266.493
239.0019, 8006.328
239.4840, 8657.471
239.9661, 9240.231
240.4482, 9743.428
240.9303, 10167.88
241.4124, 10612.09
241.8946, 11070.45
242.3767, 11554.24
242.8588, 12067.68
243.3409, 12613.59
243.8230, 13185.48
244.3051, 13781.26
244.7873, 14401.48
245.2694, 15066.87
245.7515, 15767.72
246.2336, 16524.22
246.7157, 17348.24
247.1978, 18221.49
247.6800, 19198.81
248.1621, 20251.00
248.6442, 21397.27
249.1263, 22739.02
249.6084, 24176.72
250.0905, 25941.88
250.5726, 28187.26
251.0548, 30849.71
251.5369, 34149.07
252.0190, 38124.69
252.5011, 42784.96
252.9832, 47883.96
253.4653, 53573.82
253.9475, 59543.83
254.4296, 65844.58
254.9117, 73485.30
255.3938, 79239.67
255.8759, 83013.48
256.3581, 84688.27
256.8402, 83165.62
257.3223, 77392.48
257.8044, 70056.61
258.2865, 62622.38
258.7686, 54780.83
259.2508, 47858.28
259.7329, 41998.66
260.2150, 37199.20
260.6971, 33028.34
261.1792, 29623.04
261.6613, 26676.88
262.1435, 24039.72
262.6256, 21775.57
263.1077, 19695.40
263.5898, 17809.24
264.0719, 16105.38
264.5540, 14556.60
265.0362, 13154.56
265.5183, 11895.31
266.0004, 10764.47
266.4825, 9777.878
266.9646, 8896.896
267.4467, 8134.860
267.9289, 7471.370
268.4110, 6894.355
268.8931, 6405.950
269.3752, 5973.187
269.8573, 5584.029
270.3394, 5237.461
270.8216, 4923.479
271.3037, 4646.129
271.7858, 4396.146
272.2679, 4164.341
272.7500, 3949.237
273.2321, 3754.984
273.7143, 3584.243
274.1964, 3437.193
274.6785, 3317.307
275.1606, 3227.234
275.6427, 3162.201
276.1248, 3114.754
276.6070, 3084.724
277.0891, 3073.200
277.5712, 3082.040
278.0533, 3111.328
278.5354, 3152.607
279.0175, 3205.573
279.4996, 3270.774
279.9818, 3350.426
280.4639, 3444.759
280.9460, 3544.535
281.4281, 3648.130
281.9102, 3755.016
282.3923, 3857.725
282.8745, 3953.835
283.3566, 4053.620
283.8387, 4167.928
284.3208, 4297.376
284.8029, 4437.260
285.2850, 4580.346
285.7672, 4733.647
286.2493, 4926.600
286.7314, 5159.011
287.2135, 5432.126
287.6956, 5742.312
288.1777, 6092.407
288.6599, 6496.644
289.1420, 6959.619
289.6241, 7481.568
290.1062, 8074.107
290.5883, 8742.625
291.0704, 9440.938
291.5526, 10173.08
292.0347, 10925.53
292.5168, 11608.61
292.9989, 12234.02
293.4810, 12754.15
293.9631, 13084.77
294.4453, 13227.96
294.9274, 13231.56
295.4095, 13097.25
295.8916, 12846.97
296.3737, 12555.24
296.8558, 12248.35
297.3380, 11878.45
297.8201, 11383.83
298.3022, 10762.18
298.7843, 10021.13
299.2664, 9087.934
299.7485, 8034.087
300.2307, 7025.946
300.7128, 6052.760
301.1949, 5175.559
301.6770, 4453.833
302.1591, 3872.872
302.6412, 3396.907
303.1234, 3026.797
303.6055, 2738.337
304.0876, 2494.230
304.5697, 2297.758
305.0518, 2134.893
305.5339, 2004.108
306.0161, 1899.600
306.4982, 1812.299
306.9803, 1742.776
307.4624, 1685.380
307.9445, 1635.561
308.4266, 1593.148
308.9088, 1559.421
309.3909, 1537.223
309.8730, 1523.589
310.3551, 1514.099
310.8372, 1508.125
311.3193, 1504.812
311.8015, 1502.528
312.2836, 1501.642
312.7657, 1505.571
313.2478, 1517.118
313.7299, 1534.008
314.2120, 1554.273
314.6942, 1577.737
315.1763, 1603.819
315.6584, 1634.986
316.1405, 1669.674
316.6226, 1700.039
317.1047, 1722.760
317.5869, 1740.220
318.0690, 1754.495
318.5511, 1768.170
319.0332, 1774.649
319.5153, 1770.838
319.9974, 1757.890
320.4796, 1738.631
320.9617, 1712.920
321.4438, 1681.818
321.9259, 1644.678
322.4080, 1599.012
322.8901, 1554.704
323.3723, 1511.662
323.8544, 1471.821
324.3365, 1437.801
324.8186, 1414.539
325.3007, 1393.475
325.7828, 1372.126
326.2650, 1350.059
326.7471, 1329.579
327.2292, 1309.251
327.7113, 1291.355
328.1934, 1278.004
328.6755, 1274.945
329.1577, 1270.518
329.6398, 1261.528
330.1219, 1247.966
330.6040, 1239.006
331.0861, 1237.059
331.5682, 1237.787
332.0504, 1238.450
332.5325, 1239.093
333.0146, 1239.544
333.4967, 1239.928
333.9788, 1240.114
334.4609, 1239.390
334.9431, 1236.711
335.4252, 1234.574
335.9073, 1233.862
336.3894, 1233.492
336.8715, 1237.875
337.3536, 1249.043
337.8358, 1263.770
338.3179, 1274.444
338.8000, 1278.026
339.2821, 1285.714
339.7642, 1303.709
340.2463, 1333.248
340.7285, 1357.294
341.2106, 1372.784
341.6927, 1387.652
342.1748, 1412.952
342.6569, 1449.928
343.1390, 1487.854
343.6212, 1523.427
344.1033, 1557.133
344.5854, 1589.664
345.0675, 1620.237
345.5496, 1651.443
346.0317, 1685.250
346.5139, 1721.743
346.9960, 1758.706
347.4781, 1796.147
347.9602, 1833.801
348.4423, 1871.230
348.9244, 1908.462
349.4066, 1946.346
349.8887, 1984.289
350.3708, 2023.487
350.8529, 2066.457
351.3350, 2113.676
351.8171, 2164.168
352.2993, 2213.104
352.7814, 2262.435
353.2635, 2320.956
353.7456, 2397.776
354.2277, 2485.489
354.7098, 2573.971
355.1920, 2662.005
355.6741, 2753.292
356.1562, 2850.002
356.6383, 2950.968
357.1204, 3055.961
357.6025, 3167.714
358.0847, 3281.162
358.5668, 3396.426
359.0489, 3513.270
359.5310, 3618.044
360.0131, 3702.556
360.4952, 3771.585
360.9774, 3828.881
361.4595, 3874.523
361.9416, 3910.876
362.4237, 3934.365
362.9058, 3948.533
363.3879, 3964.522
363.8701, 3985.409
364.3522, 4010.186
364.8343, 4036.265
365.3164, 4057.443
365.7985, 4094.285
366.2806, 4148.224
366.7628, 4221.620
367.2449, 4317.181
367.7270, 4434.417
368.2091, 4575.277
368.6912, 4736.965
369.1733, 4914.185
369.6555, 5134.146
370.1376, 5405.770
370.6197, 5715.868
371.1018, 6057.329
371.5839, 6437.069
372.0660, 6840.991
372.5482, 7273.713
373.0303, 7728.962
373.5124, 8180.889
373.9945, 8659.525
374.4766, 9094.850
374.9587, 9461.671
375.4409, 9786.110
375.9230, 9968.234
376.4051, 10002.99
376.8872, 9895.485
377.3693, 9645.396
377.8514, 9232.793
378.3336, 8746.277
378.8157, 8206.522
379.2978, 7607.881
379.7799, 7041.267
380.2620, 6498.656
380.7441, 5994.889
381.2263, 5546.133
381.7084, 5153.444
382.1905, 4801.650
382.6726, 4493.665
383.1547, 4222.622
383.6368, 3980.548
384.1190, 3765.379
384.6011, 3576.171
385.0832, 3416.649
385.5653, 3282.657
386.0474, 3160.835
386.5295, 3050.972
387.0117, 2950.334
387.4938, 2853.136
387.9759, 2761.055
388.4580, 2678.543
388.9401, 2609.641
389.4222, 2550.965
389.9044, 2499.999
390.3865, 2456.465
390.8686, 2416.602
391.3507, 2374.397
391.8328, 2334.506
392.3149, 2304.297
392.7971, 2289.617
393.2792, 2283.207
393.7613, 2282.733
394.2434, 2287.747
394.7255, 2295.404
395.2076, 2305.953
395.6898, 2317.801
396.1719, 2329.906
396.6540, 2342.892
397.1361, 2354.813
397.6182, 2364.967
398.1003, 2373.715
398.5825, 2381.881
399.0646, 2395.598
399.5467, 2403.352
400.0288, 2400.453
400.5109, 2384.055
400.9930, 2365.647
401.4752, 2345.704
401.9573, 2323.479
402.4394, 2298.012
402.9215, 2267.292
403.4036, 2236.882
403.8857, 2209.293
404.3678, 2183.437
404.8499, 2150.292
405.3321, 2107.985
405.8142, 2061.433
406.2963, 2013.780
406.7784, 1964.645
407.2605, 1915.180
407.7426, 1865.290
408.2248, 1815.281
408.7069, 1765.484
409.1890, 1716.779
409.6711, 1667.715
410.1532, 1616.137
410.6353, 1563.330
411.1175, 1516.644
411.5996, 1476.720
412.0817, 1441.028
412.5638, 1407.028
413.0459, 1375.553
413.5280, 1347.256
414.0102, 1322.115
414.4923, 1300.619
414.9744, 1284.171
415.4565, 1272.099
415.9386, 1261.212
416.4207, 1248.561
416.9029, 1236.181
417.3850, 1226.862
417.8671, 1221.309
418.3492, 1216.874
418.8313, 1209.804
419.3134, 1202.861
419.7956, 1200.336
420.2777, 1209.875
420.7598, 1219.231
421.2419, 1219.993
421.7240, 1212.542
422.2061, 1208.950
422.6883, 1215.359
423.1704, 1225.777
423.6525, 1236.130
424.1346, 1245.893
424.6167, 1255.187
425.0988, 1263.002
425.5810, 1270.178
426.0631, 1278.931
426.5452, 1289.490
427.0273, 1301.338
427.5094, 1314.464
427.9915, 1328.824
428.4737, 1344.096
428.9558, 1358.044
429.4379, 1375.205
429.9200, 1400.166
430.4021, 1433.534
430.8842, 1472.150
431.3664, 1513.598
431.8485, 1560.156
432.3306, 1620.547
432.8127, 1694.945
433.2948, 1782.393
433.7769, 1881.055
434.2591, 1991.325
434.7412, 2119.175
435.2233, 2265.125
435.7054, 2427.259
436.1875, 2613.292
436.6696, 2819.130
437.1518, 3019.164
437.6339, 3203.609
438.1160, 3378.200
438.5981, 3549.622
439.0802, 3718.376
439.5623, 3890.521
440.0445, 4064.684
440.5266, 4246.504
441.0087, 4445.259
441.4908, 4661.467
441.9729, 4898.093
442.4550, 5152.254
442.9372, 5428.622
443.4193, 5737.662
443.9014, 6060.167
444.3835, 6433.728
444.8656, 6871.167
445.3477, 7374.963
445.8299, 7942.272
446.3120, 8581.135
446.7941, 9281.119
447.2762, 10026.25
447.7583, 10825.17
448.2404, 11666.70
448.7226, 12570.86
449.2047, 13519.00
449.6868, 14433.96
450.1689, 15357.77
450.6510, 16208.09
451.1331, 16985.96
451.6153, 17738.54
452.0974, 18169.14
452.5795, 18278.29
453.0616, 18062.46
453.5437, 17472.11
454.0258, 16477.09
454.5080, 15337.24
454.9901, 14049.17
455.4722, 12690.13
455.9543, 11420.06
456.4364, 10243.91
456.9185, 9189.179
457.4007, 8270.047
457.8828, 7483.552
458.3649, 6794.899
458.8470, 6210.707
459.3291, 5706.298
459.8112, 5276.534
460.2934, 4912.935
460.7755, 4598.089
461.2576, 4331.163
461.7397, 4101.085
462.2218, 3902.080
462.7039, 3730.702
463.1861, 3580.158
463.6682, 3446.841
464.1503, 3330.106
464.6324, 3231.011
465.1145, 3148.637
465.5966, 3081.133
466.0788, 3034.310
466.5609, 2999.667
467.0430, 2967.041
467.5251, 2928.025
468.0072, 2897.530
468.4893, 2881.865
468.9715, 2880.161
469.4536, 2876.913
469.9357, 2865.743
470.4178, 2859.767
470.8999, 2866.495
471.3820, 2889.958
471.8642, 2914.639
472.3463, 2936.559
472.8284, 2963.721
473.3105, 3010.082
473.7926, 3077.009
474.2747, 3154.278
474.7569, 3237.626
475.2390, 3329.091
475.7211, 3435.663
476.2032, 3557.628
476.6853, 3698.019
477.1674, 3867.005
477.6496, 4057.729
478.1317, 4251.004
478.6138, 4445.175
479.0959, 4637.865
479.5780, 4831.944
480.0602, 5023.441
480.5423, 5199.771
481.0244, 5385.893
481.5065, 5534.377
481.9886, 5616.729
482.4707, 5631.148
482.9529, 5567.278
483.4350, 5406.604
483.9171, 5174.024
484.3992, 4882.850
484.8813, 4507.370
485.3634, 4130.135
485.8456, 3751.609
486.3277, 3389.233
486.8098, 3071.775
487.2919, 2813.295
487.7740, 2586.706
488.2561, 2395.020
488.7383, 2235.638
489.2204, 2094.815
489.7025, 1974.680
490.1846, 1871.970
490.6667, 1786.155
491.1488, 1719.545
491.6310, 1662.261
492.1131, 1614.739
492.5952, 1574.849
493.0773, 1538.500
493.5594, 1505.561
494.0415, 1475.679
494.5237, 1448.599
495.0058, 1424.303
495.4879, 1401.885
495.9700, 1381.496
496.4521, 1363.788
496.9342, 1350.175
497.4164, 1339.188
497.8985, 1328.940
498.3806, 1319.060
498.8627, 1309.971
499.3448, 1300.356
499.8269, 1291.998
500.3091, 1287.483
500.7912, 1291.362
501.2733, 1295.779
501.7554, 1295.968
502.2375, 1293.134
502.7196, 1294.213
503.2018, 1304.204
503.6839, 1315.812
504.1660, 1325.409
504.6481, 1332.298
505.1302, 1339.061
505.6123, 1345.367
506.0945, 1351.782
506.5766, 1359.219
507.0587, 1369.010
507.5408, 1376.537
508.0229, 1381.801
508.5050, 1384.021
508.9872, 1380.557
509.4693, 1371.218
509.9514, 1357.650
510.4335, 1339.379
510.9156, 1317.135
511.3977, 1294.800
511.8799, 1271.984
512.3619, 1252.589
512.8441, 1243.247
513.3262, 1239.916
513.8083, 1232.732
514.2904, 1216.176
514.7725, 1199.813
515.2546, 1193.721
515.7368, 1195.034
516.2189, 1196.187
516.7010, 1192.289
517.1831, 1188.252
517.6652, 1187.986
518.1473, 1191.929
518.6295, 1193.198
519.1116, 1186.280
519.5937, 1178.177
520.0758, 1173.951
520.5579, 1180.691
521.0400, 1182.300
521.5222, 1175.605
522.0043, 1165.066
522.4864, 1158.915
522.9685, 1158.659
523.4506, 1159.531
523.9327, 1160.894
524.4149, 1162.435
524.8970, 1161.440
525.3791, 1157.636
525.8612, 1152.691
526.3433, 1146.574
526.8254, 1139.928
527.3076, 1137.328
527.7897, 1140.076
528.2718, 1142.890
528.7539, 1138.646
529.2360, 1129.701
529.7181, 1121.626
530.2003, 1116.876
530.6824, 1113.367
531.1645, 1109.050
531.6466, 1104.361
532.1287, 1100.607
532.6108, 1099.356
533.0930, 1098.520
533.5751, 1096.724
534.0572, 1093.603
534.5393, 1090.903
535.0214, 1089.704
535.5035, 1088.713
535.9857, 1086.849
536.4678, 1083.929
536.9499, 1080.261
537.4320, 1074.982
537.9141, 1069.294
538.3962, 1066.567
538.8784, 1067.765
539.3605, 1068.807
539.8426, 1068.536
540.3247, 1066.913
540.8068, 1063.010
541.2889, 1056.586
541.7711, 1050.558
542.2532, 1047.888
542.7353, 1047.610
543.2174, 1047.019
543.6995, 1045.845
544.1816, 1043.970
544.6638, 1041.109
545.1459, 1037.480
545.6280, 1033.531
546.1101, 1029.780
546.5922, 1025.448
547.0743, 1018.744
547.5565, 1010.718
548.0386, 1005.350
548.5207, 1007.136
549.0028, 1009.169
549.4849, 1008.175
549.9670, 1003.269
550.4492, 997.8904
550.9313, 991.3405
551.4134, 985.0526
551.8955, 980.1364
552.3776, 977.1836
552.8597, 974.1030
553.3419, 970.7397
553.8240, 967.1639
554.3061, 963.3901
554.7882, 959.3947
555.2703, 955.6953
555.7524, 952.7379
556.2346, 950.1852
556.7167, 947.1356
557.1988, 943.6291
557.6809, 940.2250
558.1630, 937.5179
558.6451, 935.0661
559.1273, 932.1855
559.6094, 928.6655
560.0915, 925.3367
560.5736, 922.7390
561.0557, 920.5815
561.5378, 918.5302
562.0200, 917.0228
562.5021, 915.0032
562.9842, 910.8602
563.4663, 905.8887
563.9484, 903.9606
564.4305, 909.1056
564.9127, 912.5031
565.3948, 911.1673
565.8769, 905.0566
566.3590, 899.8109
566.8411, 895.1317
567.3232, 891.9788
567.8054, 892.0018
568.2875, 895.1793
568.7696, 895.4648
569.2517, 892.1515
569.7338, 886.9583
570.2159, 880.1412
570.6981, 873.0070
571.1802, 869.9073
571.6623, 875.2078
572.1444, 881.4048
572.6265, 879.1656
573.1086, 870.9456
573.5908, 864.4905
574.0729, 865.9485
574.5550, 868.3467
575.0371, 866.5218
575.5192, 859.9269
576.0013, 856.1522
576.4835, 860.5720
576.9656, 865.8519
577.4477, 867.1357
577.9298, 861.2023
578.4119, 857.2914
578.8940, 855.6688
579.3762, 855.8975
579.8583, 857.9111
580.3404, 862.2777
580.8225, 865.4585
581.3046, 866.4432
581.7867, 865.9395
582.2689, 865.6203
582.7510, 865.4709
583.2331, 865.2982
583.7152, 864.8766
584.1973, 864.4044
584.6794, 864.3740
585.1616, 864.7672
585.6437, 864.9090
586.1258, 864.3322
586.6079, 863.2850
587.0900, 861.6862
587.5721, 858.6911
588.0543, 857.3989
588.5364, 861.1080
589.0185, 866.2867
589.5006, 868.5135
589.9827, 865.4499
590.4648, 861.5532
590.9470, 856.4344
