##NAMES=Senegalite
##RRUFFID=R050239
##IDEAL CHEMISTRY=Al_2_PO_4_(OH)_3_&#183;H_2_O
##LOCALITY=Kourondicko iron ore (magnetite) deposit, Faleme River Basin, Senegal
##OWNER=RRUFF
##SOURCE=Marcus Origlieri
##DESCRIPTION=Colorless prismatic crystals
##STATUS=The identification of this mineral has been confirmed by X-ray diffraction and chemical analysis
##URL=rruff.info/R050239
##MEASURED CHEMISTRY=Al_2.00_P_1.00_O_4_(OH)_3_Â·H_2_O
92.29974, 0.0000000E+00
92.78186, 0.0000000E+00
93.26398, 0.0000000E+00
93.74609, 37.42969
94.22821, 36.33751
94.71033, 36.68324
95.19244, 38.31442
95.67456, 40.61595
96.15668, 43.34972
96.63879, 46.54412
97.12091, 50.39550
97.60303, 55.00212
98.08514, 60.06338
98.56726, 64.96671
99.04938, 69.71092
99.53149, 74.83581
100.0136, 80.55605
100.4957, 86.84301
100.9778, 93.66814
101.4600, 100.7972
101.9421, 108.5842
102.4242, 118.0122
102.9063, 129.5700
103.3884, 141.7016
103.8705, 153.2565
104.3527, 164.2149
104.8348, 175.0475
105.3169, 185.9883
105.7990, 196.9268
106.2811, 207.7674
106.7632, 218.3667
107.2454, 228.9163
107.7275, 239.4316
108.2096, 250.3181
108.6917, 260.7771
109.1738, 270.3539
109.6559, 278.8042
110.1381, 288.5258
110.6202, 299.7069
111.1023, 312.1772
111.5844, 325.7625
112.0665, 340.2112
112.5486, 356.1705
113.0308, 374.0098
113.5129, 394.3031
113.9950, 415.2067
114.4771, 437.0034
114.9592, 459.0955
115.4413, 480.9030
115.9235, 501.6033
116.4056, 522.3807
116.8877, 543.5947
117.3698, 566.1259
117.8519, 588.1783
118.3340, 609.4652
118.8162, 629.8681
119.2983, 649.0137
119.7804, 666.3267
120.2625, 682.8123
120.7446, 699.1816
121.2267, 716.2118
121.7089, 732.5239
122.1910, 747.1281
122.6731, 760.2133
123.1552, 772.6252
123.6373, 784.3993
124.1194, 795.8760
124.6016, 807.6635
125.0837, 819.4721
125.5658, 831.7863
126.0479, 844.8060
126.5300, 858.5638
127.0121, 873.6026
127.4943, 890.0589
127.9764, 908.0431
128.4585, 928.2657
128.9406, 949.9625
129.4227, 974.1750
129.9048, 1002.564
130.3869, 1035.150
130.8691, 1071.707
131.3512, 1114.538
131.8333, 1162.440
132.3154, 1208.444
132.7975, 1251.962
133.2796, 1291.733
133.7618, 1320.253
134.2439, 1334.511
134.7260, 1331.870
135.2081, 1314.874
135.6902, 1286.606
136.1723, 1256.599
136.6545, 1228.273
137.1366, 1201.710
137.6187, 1178.145
138.1008, 1157.187
138.5829, 1139.289
139.0650, 1125.380
139.5472, 1115.807
140.0293, 1108.368
140.5114, 1101.640
140.9935, 1095.230
141.4756, 1091.045
141.9577, 1088.961
142.4399, 1089.075
142.9220, 1092.051
143.4041, 1098.585
143.8862, 1106.631
144.3683, 1115.588
144.8504, 1127.138
145.3326, 1135.646
145.8147, 1141.145
146.2968, 1143.465
146.7789, 1139.714
147.2610, 1126.499
147.7431, 1110.661
148.2253, 1096.645
148.7074, 1083.806
149.1895, 1073.776
149.6716, 1067.512
150.1537, 1065.042
150.6358, 1062.730
151.1180, 1060.044
151.6001, 1057.801
152.0822, 1056.719
152.5643, 1057.731
153.0464, 1058.894
153.5285, 1059.923
154.0107, 1060.774
154.4928, 1061.789
154.9749, 1063.291
155.4570, 1064.865
155.9391, 1066.100
156.4212, 1065.992
156.9034, 1066.450
157.3855, 1068.368
157.8676, 1072.193
158.3497, 1075.185
158.8318, 1075.554
159.3139, 1075.150
159.7961, 1076.321
160.2782, 1080.050
160.7603, 1085.106
161.2424, 1091.051
161.7245, 1097.861
162.2066, 1105.383
162.6888, 1112.117
163.1709, 1119.663
163.6530, 1130.627
164.1351, 1146.940
164.6172, 1166.224
165.0993, 1188.581
165.5815, 1216.584
166.0636, 1240.028
166.5457, 1258.013
167.0278, 1268.212
167.5099, 1265.714
167.9920, 1238.657
168.4742, 1203.423
168.9563, 1172.244
169.4384, 1146.781
169.9205, 1126.638
170.4026, 1112.583
170.8847, 1103.692
171.3669, 1097.717
171.8490, 1094.351
172.3311, 1092.871
172.8132, 1092.536
173.2953, 1093.211
173.7774, 1094.975
174.2596, 1097.927
174.7417, 1102.022
175.2238, 1107.123
175.7059, 1114.570
176.1880, 1122.550
176.6701, 1128.325
177.1523, 1130.705
177.6344, 1131.463
178.1165, 1132.374
178.5986, 1133.396
179.0807, 1134.281
179.5628, 1134.421
180.0450, 1134.328
180.5271, 1135.064
181.0092, 1137.071
181.4913, 1139.824
181.9734, 1142.740
182.4555, 1145.800
182.9377, 1148.661
183.4198, 1150.139
183.9019, 1151.110
184.3840, 1154.413
184.8661, 1162.347
185.3482, 1171.766
185.8304, 1176.514
186.3125, 1176.548
186.7946, 1175.033
187.2767, 1174.085
187.7588, 1173.737
188.2409, 1174.088
188.7231, 1174.634
189.2052, 1176.150
189.6873, 1180.890
190.1694, 1189.001
190.6515, 1198.854
191.1336, 1209.563
191.6158, 1220.977
192.0979, 1231.849
192.5800, 1242.355
193.0621, 1252.035
193.5442, 1259.886
194.0263, 1266.205
194.5085, 1269.468
194.9906, 1266.544
195.4727, 1257.705
195.9548, 1249.973
196.4369, 1245.228
196.9190, 1243.224
197.4012, 1242.717
197.8833, 1243.642
198.3654, 1246.309
198.8475, 1250.604
199.3296, 1256.452
199.8117, 1265.487
200.2939, 1278.412
200.7760, 1294.921
201.2581, 1313.405
201.7402, 1333.712
202.2223, 1356.136
202.7044, 1383.051
203.1866, 1415.432
203.6687, 1443.412
204.1508, 1466.521
204.6329, 1484.128
205.1150, 1484.999
205.5971, 1466.866
206.0793, 1436.990
206.5614, 1401.200
207.0435, 1358.155
207.5256, 1317.369
208.0077, 1280.796
208.4898, 1248.446
208.9720, 1221.897
209.4541, 1201.833
209.9362, 1186.339
210.4183, 1173.166
210.9004, 1162.197
211.3825, 1154.396
211.8647, 1150.676
212.3468, 1151.112
212.8289, 1150.721
213.3110, 1149.064
213.7931, 1147.225
214.2752, 1146.556
214.7574, 1147.329
215.2395, 1148.484
215.7216, 1149.709
216.2037, 1150.982
216.6858, 1153.090
217.1679, 1156.450
217.6500, 1160.143
218.1322, 1162.726
218.6143, 1163.192
219.0964, 1165.223
219.5785, 1170.347
220.0606, 1178.846
220.5427, 1184.908
221.0249, 1187.310
221.5070, 1188.589
221.9891, 1191.473
222.4712, 1196.049
222.9533, 1202.140
223.4354, 1210.005
223.9176, 1219.894
224.3997, 1228.756
224.8818, 1236.102
225.3639, 1243.050
225.8460, 1251.009
226.3281, 1260.388
226.8103, 1269.772
227.2924, 1278.053
227.7745, 1285.124
228.2566, 1295.915
228.7387, 1312.381
229.2208, 1330.500
229.7030, 1345.713
230.1851, 1357.033
230.6672, 1367.692
231.1493, 1378.297
231.6314, 1388.857
232.1135, 1399.101
232.5957, 1409.588
233.0778, 1419.166
233.5599, 1426.936
234.0420, 1434.252
234.5241, 1437.071
235.0062, 1434.147
235.4884, 1425.508
235.9705, 1414.228
236.4526, 1398.868
236.9347, 1382.208
237.4168, 1366.345
237.8989, 1349.986
238.3811, 1337.004
238.8632, 1328.544
239.3453, 1324.546
239.8274, 1322.109
240.3095, 1322.060
240.7916, 1322.599
241.2738, 1322.438
241.7559, 1322.279
242.2380, 1319.997
242.7201, 1314.916
243.2022, 1307.146
243.6843, 1299.044
244.1665, 1290.713
244.6486, 1281.910
245.1307, 1272.292
245.6128, 1261.077
246.0949, 1250.680
246.5770, 1241.336
247.0592, 1233.053
247.5413, 1225.906
248.0234, 1220.326
248.5055, 1215.412
248.9876, 1210.601
249.4697, 1205.686
249.9519, 1201.121
250.4340, 1196.366
250.9161, 1191.820
251.3982, 1190.327
251.8803, 1193.680
252.3624, 1197.553
252.8446, 1199.031
253.3267, 1196.797
253.8088, 1195.285
254.2909, 1194.744
254.7730, 1195.179
255.2551, 1196.660
255.7373, 1199.490
256.2194, 1202.886
256.7015, 1206.521
257.1836, 1210.757
257.6657, 1214.345
258.1478, 1217.153
258.6299, 1219.303
259.1121, 1221.109
259.5942, 1222.181
260.0763, 1223.644
260.5584, 1226.208
261.0405, 1230.320
261.5226, 1234.082
262.0048, 1237.455
262.4869, 1240.454
262.9690, 1243.021
263.4511, 1244.649
263.9332, 1246.894
264.4153, 1250.564
264.8975, 1256.120
265.3796, 1261.305
265.8617, 1265.865
266.3438, 1270.305
266.8259, 1275.757
267.3080, 1282.413
267.7902, 1289.433
268.2723, 1295.886
268.7544, 1301.389
269.2365, 1309.774
269.7186, 1321.234
270.2007, 1335.306
270.6829, 1351.181
271.1650, 1368.831
271.6471, 1388.301
272.1292, 1409.615
272.6113, 1432.809
273.0934, 1456.566
273.5756, 1481.719
274.0577, 1505.567
274.5398, 1525.790
275.0219, 1542.735
275.5040, 1553.631
275.9861, 1557.630
276.4683, 1554.820
276.9504, 1545.630
277.4325, 1529.117
277.9146, 1508.679
278.3967, 1486.200
278.8788, 1461.106
279.3610, 1440.153
279.8431, 1425.453
280.3252, 1416.433
280.8073, 1409.365
281.2894, 1404.046
281.7715, 1401.518
282.2537, 1403.304
282.7358, 1409.471
283.2179, 1416.679
283.7000, 1424.329
284.1821, 1432.605
284.6642, 1441.622
285.1464, 1451.312
285.6285, 1462.594
286.1106, 1476.192
286.5927, 1492.057
287.0748, 1509.464
287.5569, 1528.108
288.0391, 1548.592
288.5212, 1571.732
289.0033, 1597.608
289.4854, 1626.187
289.9675, 1658.348
290.4496, 1693.710
290.9318, 1729.717
291.4139, 1767.302
291.8960, 1803.381
292.3781, 1833.797
292.8602, 1858.650
293.3423, 1875.969
293.8245, 1886.445
294.3066, 1888.915
294.7887, 1878.236
295.2708, 1853.180
295.7529, 1819.812
296.2350, 1782.440
296.7172, 1742.230
297.1993, 1704.142
297.6814, 1668.786
298.1635, 1636.995
298.6456, 1611.180
299.1277, 1591.284
299.6099, 1576.237
300.0920, 1566.574
300.5741, 1561.222
301.0562, 1557.922
301.5383, 1557.842
302.0204, 1558.154
302.5026, 1555.072
302.9847, 1548.597
303.4668, 1539.298
303.9489, 1525.906
304.4310, 1510.256
304.9131, 1494.901
305.3953, 1480.053
305.8774, 1466.636
306.3595, 1455.375
306.8416, 1446.432
307.3237, 1440.429
307.8058, 1439.229
308.2880, 1440.796
308.7701, 1442.612
309.2522, 1443.878
309.7343, 1445.828
310.2164, 1449.246
310.6985, 1454.134
311.1807, 1460.389
311.6628, 1469.710
312.1449, 1479.475
312.6270, 1487.119
313.1091, 1492.035
313.5912, 1495.815
314.0734, 1498.637
314.5555, 1501.020
315.0376, 1503.945
315.5197, 1507.987
316.0018, 1512.545
316.4839, 1517.183
316.9661, 1521.859
317.4482, 1526.699
317.9303, 1531.319
318.4124, 1536.240
318.8945, 1542.148
319.3766, 1549.033
319.8588, 1557.158
320.3409, 1567.144
320.8230, 1579.002
321.3051, 1590.364
321.7872, 1599.944
322.2693, 1609.121
322.7515, 1618.987
323.2336, 1628.327
323.7157, 1639.936
324.1978, 1654.910
324.6799, 1672.803
325.1620, 1691.748
325.6442, 1711.932
326.1263, 1732.718
326.6084, 1753.798
327.0905, 1775.595
327.5726, 1797.004
328.0547, 1820.293
328.5369, 1843.167
329.0190, 1860.276
329.5011, 1872.260
329.9832, 1877.754
330.4653, 1876.228
330.9474, 1867.290
331.4296, 1852.373
331.9117, 1830.335
332.3938, 1802.794
332.8759, 1771.671
333.3580, 1733.876
333.8401, 1696.677
334.3223, 1661.701
334.8044, 1628.647
335.2865, 1599.119
335.7686, 1573.661
336.2507, 1551.378
336.7328, 1531.776
337.2150, 1514.545
337.6971, 1500.441
338.1792, 1490.035
338.6613, 1482.908
339.1434, 1475.775
339.6255, 1468.128
340.1076, 1461.608
340.5898, 1457.625
341.0719, 1456.611
341.5540, 1455.575
342.0361, 1454.657
342.5182, 1453.139
343.0003, 1449.213
343.4825, 1442.775
343.9646, 1434.891
344.4467, 1425.366
344.9288, 1414.527
345.4109, 1405.256
345.8930, 1397.884
346.3752, 1391.599
346.8573, 1385.211
347.3394, 1378.770
347.8215, 1373.561
348.3036, 1370.322
348.7857, 1368.673
349.2679, 1367.865
349.7500, 1367.961
350.2321, 1367.918
350.7142, 1366.005
351.1963, 1363.075
351.6784, 1361.642
352.1606, 1362.862
352.6427, 1365.485
353.1248, 1368.163
353.6069, 1370.860
354.0890, 1373.190
354.5711, 1374.436
355.0533, 1375.293
355.5354, 1376.711
356.0175, 1378.827
356.4996, 1381.671
356.9817, 1385.631
357.4638, 1390.394
357.9460, 1395.202
358.4281, 1399.295
358.9102, 1403.531
359.3923, 1408.808
359.8744, 1415.346
360.3565, 1421.601
360.8387, 1425.076
361.3208, 1428.172
361.8029, 1433.845
362.2850, 1447.017
362.7671, 1459.407
363.2492, 1466.398
363.7314, 1468.387
364.2135, 1471.328
364.6956, 1478.412
365.1777, 1486.382
365.6598, 1493.007
366.1419, 1498.891
366.6241, 1502.170
367.1062, 1501.116
367.5883, 1497.027
368.0704, 1493.684
368.5525, 1492.660
369.0346, 1491.532
369.5168, 1489.332
369.9989, 1485.555
370.4810, 1481.846
370.9631, 1478.508
371.4452, 1475.107
371.9273, 1470.911
372.4095, 1464.523
372.8916, 1459.485
373.3737, 1456.913
373.8558, 1456.895
374.3379, 1456.049
374.8200, 1453.310
375.3022, 1451.166
375.7843, 1452.245
376.2664, 1458.058
376.7485, 1462.010
377.2306, 1462.928
377.7127, 1461.565
378.1949, 1460.410
378.6770, 1459.656
379.1591, 1458.344
379.6412, 1455.393
380.1233, 1450.747
380.6054, 1448.050
381.0876, 1448.002
381.5697, 1448.488
382.0518, 1446.091
382.5339, 1440.983
383.0160, 1435.719
383.4981, 1430.958
383.9803, 1426.870
384.4624, 1424.465
384.9445, 1423.797
385.4266, 1423.361
385.9087, 1421.788
386.3908, 1419.402
386.8730, 1417.037
387.3551, 1414.978
387.8372, 1412.909
388.3193, 1410.375
388.8014, 1407.469
389.2835, 1404.538
389.7657, 1401.773
390.2478, 1399.104
390.7299, 1396.501
391.2120, 1393.971
391.6941, 1391.458
392.1762, 1388.022
392.6584, 1384.748
393.1405, 1383.297
393.6226, 1386.385
394.1047, 1389.703
394.5868, 1390.627
395.0689, 1389.158
395.5511, 1388.117
396.0332, 1388.760
396.5153, 1390.091
396.9974, 1391.344
397.4795, 1391.287
397.9616, 1392.396
398.4438, 1396.354
398.9259, 1402.004
399.4080, 1405.715
399.8901, 1404.819
400.3722, 1403.967
400.8543, 1404.816
401.3365, 1407.738
401.8186, 1411.395
402.3007, 1417.308
402.7828, 1423.019
403.2649, 1425.181
403.7470, 1421.350
404.2292, 1418.617
404.7113, 1418.733
405.1934, 1421.427
405.6755, 1423.549
406.1576, 1424.822
406.6397, 1426.116
407.1219, 1428.181
407.6040, 1431.156
408.0861, 1433.746
408.5682, 1435.681
409.0503, 1437.444
409.5324, 1440.036
410.0146, 1443.481
410.4967, 1447.368
410.9788, 1451.550
411.4609, 1455.997
411.9430, 1460.827
412.4251, 1466.099
412.9073, 1471.399
413.3894, 1476.593
413.8715, 1481.596
414.3536, 1486.039
414.8357, 1489.460
415.3178, 1492.701
415.8000, 1496.955
416.2821, 1502.036
416.7642, 1506.948
417.2463, 1510.810
417.7284, 1514.326
418.2105, 1518.381
418.6927, 1523.445
419.1748, 1527.866
419.6569, 1530.327
420.1390, 1531.661
420.6211, 1533.073
421.1032, 1533.387
421.5854, 1535.441
422.0675, 1541.625
422.5496, 1551.806
423.0317, 1560.501
423.5138, 1564.817
423.9959, 1568.171
424.4781, 1572.861
424.9602, 1579.239
425.4423, 1586.739
425.9244, 1596.335
426.4065, 1607.002
426.8886, 1616.402
427.3708, 1622.882
427.8529, 1630.280
428.3350, 1639.928
428.8171, 1652.129
429.2992, 1664.550
429.7813, 1677.387
430.2635, 1690.154
430.7456, 1702.371
431.2277, 1713.707
431.7098, 1725.607
432.1919, 1738.285
432.6740, 1751.686
433.1562, 1765.636
433.6383, 1780.106
434.1204, 1795.192
434.6025, 1810.550
435.0846, 1826.394
435.5667, 1844.501
436.0489, 1865.453
436.5310, 1887.055
437.0131, 1906.020
437.4952, 1923.198
437.9773, 1941.305
438.4594, 1962.524
438.9415, 1984.301
439.4236, 2003.353
439.9058, 2019.929
440.3879, 2035.001
440.8700, 2050.522
441.3521, 2064.497
441.8342, 2074.552
442.3163, 2079.652
442.7985, 2082.726
443.2806, 2085.416
443.7627, 2087.182
444.2448, 2087.211
444.7269, 2086.406
445.2090, 2082.677
445.6912, 2074.655
446.1733, 2062.291
446.6554, 2048.437
447.1375, 2032.670
447.6196, 2016.336
448.1017, 2000.245
448.5839, 1983.948
449.0660, 1968.726
449.5481, 1954.940
450.0302, 1942.246
450.5123, 1930.074
450.9944, 1918.927
451.4766, 1907.626
451.9587, 1895.428
452.4408, 1882.118
452.9229, 1871.168
453.4050, 1862.836
453.8871, 1855.875
454.3693, 1848.992
454.8514, 1842.116
455.3335, 1836.180
455.8156, 1831.028
456.2977, 1827.210
456.7798, 1825.523
457.2620, 1825.981
457.7441, 1829.010
458.2262, 1836.038
458.7083, 1845.564
459.1904, 1854.340
459.6725, 1862.178
460.1547, 1870.562
460.6368, 1880.296
461.1189, 1891.580
461.6010, 1904.570
462.0831, 1919.289
462.5652, 1935.755
463.0474, 1954.030
463.5295, 1974.045
464.0116, 1995.196
464.4937, 2017.177
464.9758, 2040.033
465.4579, 2063.513
465.9401, 2087.454
466.4222, 2112.387
466.9043, 2138.617
467.3864, 2165.624
467.8685, 2192.919
468.3506, 2222.115
468.8328, 2249.576
469.3149, 2274.217
469.7970, 2296.674
470.2791, 2320.050
470.7612, 2345.457
471.2433, 2369.859
471.7255, 2391.536
472.2076, 2409.878
472.6897, 2430.120
473.1718, 2453.391
473.6539, 2476.992
474.1360, 2497.286
474.6182, 2514.061
475.1003, 2532.204
475.5824, 2553.097
476.0645, 2575.747
476.5466, 2598.460
477.0287, 2621.138
477.5109, 2641.451
477.9930, 2659.683
478.4751, 2674.134
478.9572, 2682.646
479.4393, 2685.371
479.9214, 2678.531
480.4036, 2658.923
480.8857, 2627.727
481.3678, 2586.511
481.8499, 2533.031
482.3320, 2472.737
482.8141, 2406.847
483.2963, 2336.730
483.7784, 2267.126
484.2605, 2197.126
484.7426, 2131.176
485.2247, 2071.714
485.7068, 2020.281
486.1890, 1972.248
486.6711, 1925.835
487.1532, 1883.344
487.6353, 1846.435
488.1174, 1817.194
488.5995, 1791.467
489.0817, 1768.931
489.5638, 1749.694
490.0459, 1733.628
490.5280, 1721.039
491.0101, 1710.711
491.4922, 1702.161
491.9744, 1695.321
492.4565, 1690.103
492.9386, 1686.705
493.4207, 1683.685
493.9028, 1679.361
494.3849, 1673.924
494.8671, 1669.008
495.3492, 1665.056
495.8313, 1661.513
496.3134, 1657.253
496.7955, 1652.607
497.2776, 1648.692
497.7598, 1647.581
498.2419, 1646.779
498.7240, 1643.282
499.2061, 1636.962
499.6882, 1630.776
500.1703, 1626.813
500.6525, 1623.667
501.1346, 1619.961
501.6167, 1614.304
502.0988, 1609.613
502.5809, 1607.575
503.0630, 1606.954
503.5452, 1605.241
504.0273, 1601.388
504.5094, 1597.047
504.9915, 1592.228
505.4736, 1586.857
505.9557, 1582.862
506.4379, 1580.798
506.9200, 1579.346
507.4021, 1577.639
507.8842, 1575.598
508.3663, 1573.667
508.8484, 1572.022
509.3306, 1570.297
509.8127, 1567.910
510.2948, 1564.910
510.7769, 1561.370
511.2590, 1556.787
511.7411, 1552.034
512.2233, 1549.451
512.7054, 1548.903
513.1875, 1548.928
513.6696, 1548.627
514.1517, 1548.194
514.6339, 1547.945
515.1160, 1547.969
515.5981, 1547.862
516.0802, 1546.765
516.5623, 1545.499
517.0444, 1545.166
517.5266, 1547.837
518.0087, 1549.714
518.4908, 1548.531
518.9729, 1545.091
519.4550, 1543.130
519.9371, 1544.936
520.4193, 1546.844
520.9014, 1547.324
521.3835, 1545.927
521.8656, 1545.032
522.3477, 1544.683
522.8298, 1544.795
523.3120, 1545.450
523.7941, 1546.859
524.2762, 1547.766
524.7583, 1547.801
525.2404, 1547.484
525.7225, 1548.301
526.2047, 1550.250
526.6868, 1551.637
527.1689, 1550.699
527.6510, 1548.777
528.1331, 1549.892
528.6152, 1553.978
529.0974, 1557.961
529.5795, 1558.681
530.0616, 1558.104
530.5437, 1559.289
531.0258, 1563.660
531.5079, 1567.489
531.9901, 1567.036
532.4722, 1564.906
532.9543, 1565.135
533.4364, 1571.862
533.9185, 1578.228
534.4006, 1581.266
534.8828, 1581.387
535.3649, 1583.323
535.8470, 1588.647
536.3291, 1594.674
536.8112, 1600.530
537.2933, 1606.530
537.7755, 1610.784
538.2576, 1612.346
538.7397, 1613.399
539.2218, 1616.553
539.7039, 1621.986
540.1860, 1627.232
540.6682, 1631.921
541.1503, 1635.986
541.6324, 1639.176
542.1145, 1641.546
542.5966, 1643.758
543.0787, 1646.460
543.5609, 1649.115
544.0430, 1650.648
544.5251, 1651.109
545.0072, 1651.509
545.4893, 1652.401
545.9714, 1653.692
546.4536, 1655.501
546.9357, 1658.418
547.4178, 1660.382
547.8999, 1659.373
548.3820, 1657.248
548.8641, 1656.569
549.3463, 1659.908
549.8284, 1662.381
550.3105, 1662.132
550.7926, 1659.928
551.2747, 1659.971
551.7568, 1663.408
552.2390, 1667.219
552.7211, 1670.423
553.2032, 1673.126
553.6853, 1673.518
554.1674, 1670.992
554.6495, 1668.047
555.1317, 1667.245
555.6138, 1668.391
556.0959, 1669.906
556.5780, 1671.570
557.0601, 1673.450
557.5422, 1676.034
558.0244, 1678.986
558.5065, 1681.299
558.9886, 1682.340
559.4707, 1682.653
559.9528, 1682.198
560.4349, 1681.186
560.9171, 1680.879
561.3992, 1682.312
561.8813, 1684.261
562.3634, 1685.977
562.8455, 1687.329
563.3276, 1688.497
563.8098, 1689.321
564.2919, 1690.000
564.7740, 1690.754
565.2561, 1691.834
565.7382, 1692.359
566.2203, 1692.070
566.7025, 1691.263
567.1846, 1690.671
567.6667, 1690.315
568.1488, 1690.138
568.6309, 1690.391
569.1130, 1690.814
569.5952, 1690.119
570.0773, 1688.346
570.5594, 1686.838
571.0415, 1686.935
571.5236, 1687.850
572.0057, 1688.242
572.4879, 1687.887
572.9700, 1687.479
573.4521, 1687.946
573.9342, 1688.487
574.4163, 1688.102
574.8984, 1684.221
575.3806, 1681.939
575.8627, 1684.019
576.3448, 1688.792
576.8269, 1691.637
577.3090, 1690.202
577.7911, 1689.102
578.2733, 1689.572
578.7554, 1691.573
579.2375, 1693.601
579.7196, 1695.681
580.2017, 1697.705
580.6838, 1699.228
581.1660, 1700.259
581.6481, 1703.036
582.1302, 1707.977
582.6123, 1713.269
583.0944, 1716.449
583.5765, 1718.176
584.0587, 1720.258
584.5408, 1723.002
585.0229, 1726.630
585.5050, 1732.225
585.9871, 1738.953
586.4692, 1744.672
586.9513, 1747.976
587.4334, 1750.557
587.9155, 1752.262
