##NAMES=Senegalite
##RRUFFID=R050239
##IDEAL CHEMISTRY=Al_2_PO_4_(OH)_3_&#183;H_2_O
##LOCALITY=Kourondicko iron ore (magnetite) deposit, Faleme River Basin, Senegal
##OWNER=RRUFF
##SOURCE=Marcus Origlieri
##DESCRIPTION=Colorless prismatic crystals
##STATUS=The identification of this mineral has been confirmed by X-ray diffraction and chemical analysis
##URL=rruff.info/R050239
##MEASURED CHEMISTRY=Al_2.00_P_1.00_O_4_(OH)_3_Â·H_2_O
92.35352, 316.0734
92.83563, 311.1288
93.31775, 309.7315
93.79987, 316.3479
94.28198, 323.0901
94.76410, 327.5663
95.24622, 330.1778
95.72833, 332.3676
96.21045, 335.0736
96.69257, 338.0087
97.17468, 342.3016
97.65680, 347.0856
98.13892, 353.8277
98.62103, 364.5038
99.10315, 379.7786
99.58527, 397.5644
100.0674, 412.7939
100.5495, 431.2314
101.0316, 440.1428
101.5137, 435.8715
101.9958, 421.6737
102.4780, 401.5927
102.9601, 377.8727
103.4422, 349.9947
103.9243, 327.2762
104.4064, 309.0278
104.8885, 294.3463
105.3707, 283.2566
105.8528, 275.4401
106.3349, 269.8194
106.8170, 265.4590
107.2991, 262.4854
107.7813, 260.4288
108.2634, 259.5441
108.7455, 259.4454
109.2276, 259.6766
109.7097, 260.1523
110.1918, 260.9296
110.6740, 262.1909
111.1561, 263.8797
111.6382, 265.5214
112.1203, 266.8724
112.6024, 267.9525
113.0845, 268.9075
113.5666, 269.8567
114.0488, 270.5789
114.5309, 270.9226
115.0130, 270.8716
115.4951, 270.5483
115.9772, 269.9887
116.4593, 268.9664
116.9415, 268.3749
117.4236, 268.3047
117.9057, 268.6461
118.3878, 269.3739
118.8699, 270.4704
119.3520, 271.8857
119.8342, 273.4761
120.3163, 275.4176
120.7984, 277.3605
121.2805, 279.1306
121.7626, 280.9164
122.2447, 282.9971
122.7269, 285.5629
123.2090, 288.5326
123.6911, 291.2189
124.1732, 293.3374
124.6553, 295.5316
125.1374, 298.0822
125.6196, 300.9390
126.1017, 303.8304
126.5838, 306.4326
127.0659, 308.8850
127.5480, 311.9766
128.0302, 315.2823
128.5123, 319.4633
128.9944, 325.3052
129.4765, 333.0241
129.9586, 341.5568
130.4407, 351.1147
130.9229, 361.0016
131.4050, 369.5866
131.8871, 377.2178
132.3692, 383.2082
132.8513, 385.0865
133.3334, 381.7656
133.8155, 375.1098
134.2977, 365.5694
134.7798, 353.8713
135.2619, 341.7567
135.7440, 330.2306
136.2261, 319.1447
136.7082, 309.6922
137.1904, 301.8182
137.6725, 295.6997
138.1546, 291.9626
138.6367, 290.3575
139.1188, 289.9879
139.6009, 289.7148
140.0831, 289.1067
140.5652, 289.8289
141.0473, 291.5487
141.5294, 294.5046
142.0115, 299.0707
142.4936, 305.2606
142.9758, 312.6182
143.4579, 320.5316
143.9400, 331.3989
144.4221, 338.2916
144.9042, 340.3808
145.3863, 338.3823
145.8685, 332.5896
146.3506, 322.7451
146.8327, 310.3875
147.3148, 298.4688
147.7969, 286.3056
148.2790, 275.9062
148.7612, 268.4701
149.2433, 263.5614
149.7254, 259.8174
150.2075, 256.9821
150.6896, 254.9007
151.1717, 253.0976
151.6539, 251.5234
152.1360, 250.3122
152.6181, 249.6500
153.1002, 249.5616
153.5823, 249.6869
154.0644, 250.0064
154.5466, 250.4291
155.0287, 250.9028
155.5108, 251.4178
155.9929, 251.9637
156.4750, 252.5055
156.9571, 252.9945
157.4393, 253.5959
157.9214, 254.3333
158.4035, 255.1911
158.8856, 256.1156
159.3677, 257.0626
159.8498, 258.1216
160.3320, 259.6074
160.8141, 261.4389
161.2962, 263.9205
161.7783, 266.9651
162.2604, 270.6875
162.7425, 275.2890
163.2247, 280.9419
163.7068, 287.5869
164.1889, 294.2147
164.6710, 303.1504
165.1531, 309.7000
165.6352, 312.5877
166.1174, 312.0198
166.5995, 308.4038
167.0816, 301.6377
167.5637, 291.7629
168.0458, 282.9335
168.5279, 274.4278
169.0101, 267.4015
169.4922, 262.8314
169.9743, 260.6007
170.4564, 259.4499
170.9385, 258.5095
171.4206, 257.8529
171.9028, 257.6935
172.3849, 258.1521
172.8670, 259.0576
173.3491, 260.3455
173.8312, 262.0501
174.3133, 263.8487
174.7955, 265.4828
175.2776, 267.0141
175.7597, 268.5826
176.2418, 270.3643
176.7239, 272.1833
177.2060, 273.7264
177.6882, 275.0384
178.1703, 275.9134
178.6524, 275.7958
179.1345, 275.1693
179.6166, 275.0593
180.0987, 276.1961
180.5809, 278.3955
181.0630, 280.5416
181.5451, 282.5536
182.0272, 284.6212
182.5093, 287.1483
182.9914, 289.8237
183.4736, 291.9752
183.9557, 293.0655
184.4378, 293.0767
184.9199, 292.5514
185.4020, 290.8056
185.8841, 289.0882
186.3663, 287.4720
186.8484, 286.1683
187.3305, 285.5586
187.8126, 286.0312
188.2947, 287.7106
188.7768, 289.8026
189.2590, 291.9357
189.7411, 294.7082
190.2232, 298.8908
190.7053, 304.1815
191.1874, 309.4892
191.6695, 313.7397
192.1517, 316.9030
192.6338, 318.6913
193.1159, 318.9945
193.5980, 318.2540
194.0801, 316.2756
194.5622, 313.2307
195.0444, 310.0571
195.5265, 307.7360
196.0086, 306.4368
196.4907, 305.8669
196.9728, 306.2611
197.4549, 307.2447
197.9371, 308.3459
198.4192, 309.4753
198.9013, 311.1931
199.3834, 314.2061
199.8655, 318.5190
200.3476, 323.6429
200.8298, 330.0508
201.3119, 337.0711
201.7940, 344.2419
202.2761, 351.8842
202.7582, 358.2184
203.2403, 361.4360
203.7225, 361.9565
204.2046, 359.5084
204.6867, 353.1423
205.1688, 343.7733
205.6509, 333.1285
206.1330, 320.5670
206.6152, 308.2416
207.0973, 297.4145
207.5794, 287.9501
208.0615, 280.0656
208.5436, 274.1384
209.0257, 269.9610
209.5079, 266.5674
209.9900, 264.0123
210.4721, 262.2293
210.9542, 261.2667
211.4363, 260.9648
211.9184, 260.8815
212.4006, 260.5906
212.8827, 260.1252
213.3648, 260.2906
213.8469, 261.6477
214.3290, 263.1146
214.8111, 264.2703
215.2933, 265.1707
215.7754, 266.0281
216.2575, 266.9803
216.7396, 268.0209
217.2217, 269.2620
217.7038, 270.8153
218.1859, 272.4945
218.6681, 274.2294
219.1502, 276.0510
219.6323, 278.0434
220.1144, 280.2462
220.5965, 282.6328
221.0786, 285.5499
221.5608, 289.7988
222.0429, 293.8372
222.5250, 296.6805
223.0071, 298.7314
223.4892, 301.2047
223.9713, 305.2328
224.4535, 311.0443
224.9356, 316.4278
225.4177, 320.5269
225.8998, 325.0821
226.3819, 331.0777
226.8640, 338.2724
227.3462, 345.7289
227.8283, 352.7310
228.3104, 359.2817
228.7925, 365.0506
229.2746, 370.4721
229.7567, 374.9108
230.2389, 377.9198
230.7210, 379.5782
231.2031, 380.1978
231.6852, 379.8901
232.1673, 378.6360
232.6494, 377.5105
233.1316, 377.7184
233.6137, 377.0475
234.0958, 374.0485
234.5779, 368.8525
235.0600, 362.5859
235.5421, 355.7691
236.0243, 348.4845
236.5064, 341.4741
236.9885, 333.9325
237.4706, 327.3444
237.9527, 322.7469
238.4348, 320.0988
238.9170, 318.6951
239.3991, 318.5000
239.8812, 319.2122
240.3633, 319.5832
240.8454, 319.7962
241.3275, 319.4650
241.8097, 318.3533
242.2918, 316.4546
242.7739, 313.7156
243.2560, 309.9282
243.7381, 305.2323
244.2202, 299.9924
244.7024, 293.9328
245.1845, 287.7690
245.6666, 281.9976
246.1487, 276.6392
246.6308, 271.7634
247.1129, 267.6584
247.5951, 263.9909
248.0772, 260.2336
248.5593, 256.1035
249.0414, 252.4327
249.5235, 250.2800
250.0056, 249.7526
250.4878, 249.2794
250.9699, 248.2103
251.4520, 247.0313
251.9341, 246.0716
252.4162, 245.3450
252.8983, 245.0916
253.3805, 245.7782
253.8626, 247.5305
254.3447, 249.0728
254.8268, 249.7325
255.3089, 250.2883
255.7910, 251.3609
256.2732, 253.0234
256.7553, 254.6776
257.2374, 255.5294
257.7195, 255.4055
258.2016, 255.6928
258.6837, 257.1327
259.1659, 258.6805
259.6480, 259.7785
260.1301, 260.3914
260.6122, 260.8859
261.0943, 261.6713
261.5764, 262.8073
262.0586, 263.8097
262.5407, 264.1355
263.0228, 264.7491
263.5049, 266.2457
263.9870, 268.5257
264.4691, 270.9583
264.9513, 272.8051
265.4334, 273.8979
265.9155, 275.8351
266.3976, 279.3626
266.8797, 283.1438
267.3618, 286.4129
267.8440, 289.4656
268.3261, 293.1738
268.8082, 298.2706
269.2903, 304.7808
269.7724, 312.0030
270.2545, 320.1437
270.7367, 328.8672
271.2188, 338.3338
271.7009, 348.3535
272.1830, 358.6829
272.6651, 369.3764
273.1472, 380.3024
273.6294, 389.4794
274.1115, 397.6835
274.5936, 403.0281
275.0757, 405.1278
275.5578, 404.0249
276.0399, 399.5255
276.5221, 391.3378
277.0042, 379.9693
277.4863, 368.6131
277.9684, 355.5670
278.4505, 344.4738
278.9326, 335.9625
279.4148, 329.5562
279.8969, 324.5693
280.3790, 320.6413
280.8611, 317.8541
281.3432, 316.4455
281.8253, 317.1071
282.3075, 318.5187
282.7896, 320.9002
283.2717, 323.8641
283.7538, 326.9797
284.2359, 330.0804
284.7180, 333.3721
285.2002, 337.2510
285.6823, 341.7466
286.1644, 346.9164
286.6465, 352.7482
287.1286, 359.2203
287.6107, 366.4199
288.0929, 374.3521
288.5750, 382.7338
289.0571, 391.2164
289.5392, 399.6425
290.0213, 408.4932
290.5034, 418.6915
290.9856, 428.6001
291.4677, 437.6754
291.9498, 445.4872
292.4319, 451.0485
292.9140, 453.1690
293.3961, 451.5160
293.8783, 446.7734
294.3604, 437.9882
294.8425, 427.3922
295.3246, 415.4356
295.8067, 402.6598
296.2888, 390.3043
296.7710, 379.3072
297.2531, 369.7489
297.7352, 362.0078
298.2173, 356.1592
298.6994, 351.6664
299.1815, 348.7043
299.6637, 346.9640
300.1458, 345.8507
300.6279, 345.1120
301.1100, 344.6085
301.5921, 343.0271
302.0742, 340.1382
302.5564, 336.6757
303.0385, 332.5847
303.5206, 328.0895
304.0027, 323.3599
304.4848, 318.4193
304.9669, 313.6047
305.4491, 309.9619
305.9312, 307.5762
306.4133, 306.1363
306.8954, 305.9766
307.3775, 306.6229
307.8596, 307.4711
308.3418, 308.3121
308.8239, 309.3548
309.3060, 310.9856
309.7881, 313.5018
310.2702, 316.0429
310.7523, 319.0021
311.2345, 321.7483
311.7166, 323.5903
312.1987, 324.4117
312.6808, 324.7074
313.1629, 324.9940
313.6451, 325.2405
314.1272, 325.6362
314.6093, 326.3237
315.0914, 327.0362
315.5735, 327.4428
316.0556, 327.6158
316.5378, 328.0553
317.0199, 329.2198
317.5020, 331.1325
317.9841, 332.9916
318.4662, 334.3815
318.9483, 336.1222
319.4305, 338.8066
319.9126, 342.1771
320.3947, 345.5013
320.8768, 348.3168
321.3589, 350.7676
321.8410, 353.6140
322.3232, 356.6825
322.8053, 360.2903
323.2874, 364.7202
323.7695, 369.6866
324.2516, 374.6864
324.7337, 379.4613
325.2159, 384.3353
325.6980, 390.0511
326.1801, 397.7500
326.6622, 404.2405
327.1443, 409.0315
327.6264, 412.6639
328.1086, 416.0690
328.5907, 419.3764
329.0728, 421.2953
329.5549, 420.0835
330.0370, 414.7835
330.5191, 408.7694
331.0013, 402.4002
331.4834, 395.1152
331.9655, 386.1280
332.4476, 375.6423
332.9297, 364.8184
333.4118, 354.4965
333.8940, 344.6829
334.3761, 335.8022
334.8582, 327.4969
335.3403, 320.2458
335.8224, 314.3470
336.3045, 309.6535
336.7867, 305.7542
337.2688, 302.4565
337.7509, 299.7336
338.2330, 297.5317
338.7151, 296.1513
339.1972, 294.8986
339.6793, 293.5308
340.1614, 292.2796
340.6436, 291.7151
341.1257, 292.0329
341.6078, 292.4100
342.0899, 291.2369
342.5720, 287.3777
343.0541, 283.7885
343.5363, 280.7662
344.0184, 277.7933
344.5005, 274.3209
344.9826, 270.3389
345.4647, 266.3622
345.9468, 262.9235
346.4290, 259.9728
346.9111, 257.8351
347.3932, 256.8820
347.8753, 256.2166
348.3574, 255.3722
348.8395, 254.4487
349.3217, 253.8312
349.8038, 253.8200
350.2859, 254.3649
350.7680, 254.9203
351.2501, 255.4510
351.7322, 256.0353
352.2144, 256.6966
352.6965, 257.4157
353.1786, 258.1125
353.6607, 258.7511
354.1428, 259.4648
354.6249, 260.5966
355.1071, 262.4647
355.5892, 264.2570
356.0713, 265.7289
356.5534, 267.2545
357.0355, 269.1662
357.5176, 271.5029
357.9998, 274.0217
358.4819, 276.4170
358.9640, 278.6299
359.4461, 280.9849
359.9282, 283.2198
360.4103, 285.8603
360.8925, 289.4380
361.3746, 293.6545
361.8567, 297.6921
362.3388, 300.9242
362.8209, 303.4543
363.3030, 306.2563
363.7852, 309.6322
364.2673, 312.8843
364.7494, 316.2359
365.2315, 319.2454
365.7136, 321.3689
366.1957, 322.3696
366.6779, 322.4290
367.1600, 321.9206
367.6421, 320.9494
368.1242, 319.0870
368.6063, 315.8257
369.0884, 312.0428
369.5706, 308.1778
370.0527, 304.3509
370.5348, 300.6812
371.0169, 297.2352
371.4990, 294.0280
371.9811, 291.1345
372.4633, 288.5661
372.9454, 286.3552
373.4275, 284.5490
373.9096, 283.0873
374.3917, 281.8053
374.8738, 280.6398
375.3560, 279.5757
375.8381, 278.6078
376.3202, 277.7988
376.8023, 276.9319
377.2844, 276.1219
377.7665, 275.1338
378.2487, 273.6093
378.7308, 271.3598
379.2129, 268.9164
379.6950, 266.8470
380.1771, 265.1558
380.6592, 263.7382
381.1414, 262.7398
381.6235, 261.8575
382.1056, 260.7835
382.5877, 259.5237
383.0698, 258.3726
383.5519, 257.5170
384.0341, 256.9007
384.5162, 256.3925
384.9983, 256.0496
385.4804, 255.6342
385.9625, 255.0561
386.4446, 254.2780
386.9268, 253.1452
387.4089, 251.3358
387.8910, 249.3759
388.3731, 247.9189
388.8552, 246.9469
389.3373, 245.8717
389.8195, 244.3710
390.3016, 242.6315
390.7837, 240.9743
391.2658, 239.3121
391.7479, 237.9791
392.2300, 237.3306
392.7122, 237.1155
393.1943, 236.7197
393.6764, 235.9272
394.1585, 235.2216
394.6406, 235.3052
395.1227, 236.2007
395.6049, 236.8423
396.0870, 236.6300
396.5691, 236.4327
397.0512, 237.1300
397.5333, 238.6693
398.0154, 240.2372
398.4976, 241.2764
398.9797, 241.8896
399.4618, 242.7629
399.9439, 244.2270
400.4260, 245.5248
400.9081, 246.4079
401.3903, 246.9879
401.8724, 247.4723
402.3545, 247.9397
402.8366, 248.2241
403.3187, 248.0103
403.8008, 246.9413
404.2830, 246.1515
404.7651, 245.6281
405.2472, 245.3812
405.7293, 245.5685
406.2114, 246.0946
406.6935, 246.5807
407.1757, 246.6746
407.6578, 246.3923
408.1399, 246.4718
408.6220, 247.0087
409.1041, 247.8030
409.5862, 248.8765
410.0684, 250.1635
410.5505, 251.6596
411.0326, 253.3510
411.5147, 255.0955
411.9968, 256.5880
412.4789, 257.6030
412.9611, 258.8591
413.4432, 260.6459
413.9253, 262.4551
414.4074, 263.9647
414.8895, 265.1854
415.3716, 266.3190
415.8538, 267.4963
416.3359, 268.7268
416.8180, 270.1729
417.3001, 271.8671
417.7822, 273.7579
418.2643, 275.8290
418.7465, 278.0557
419.2286, 280.4542
419.7107, 283.0788
420.1928, 285.7076
420.6749, 287.8197
421.1570, 289.2467
421.6392, 291.4059
422.1213, 294.9771
422.6034, 299.1664
423.0855, 303.5054
423.5676, 307.9619
424.0497, 312.1886
424.5319, 315.8046
425.0140, 319.0399
425.4961, 322.5847
425.9782, 326.5745
426.4603, 330.5173
426.9424, 333.8869
427.4246, 336.9482
427.9067, 340.2436
428.3888, 344.0237
428.8709, 347.8350
429.3530, 351.1911
429.8351, 354.2061
430.3173, 357.4361
430.7994, 361.1010
431.2815, 364.9926
431.7636, 368.6647
432.2457, 371.9376
432.7278, 375.9035
433.2100, 381.2378
433.6921, 387.1297
434.1742, 392.6174
434.6563, 397.6506
435.1384, 402.8751
435.6205, 408.8500
436.1027, 415.5056
436.5848, 421.8357
437.0669, 427.5777
437.5490, 433.3698
438.0311, 439.9087
438.5132, 446.5019
438.9954, 451.9904
439.4775, 455.9407
439.9596, 459.0305
440.4417, 462.4650
440.9238, 466.9730
441.4059, 470.0304
441.8881, 471.1216
442.3702, 471.4469
442.8523, 471.7250
443.3344, 471.8632
443.8165, 471.3336
444.2986, 469.7269
444.7808, 467.1357
445.2629, 464.1426
445.7450, 460.6853
446.2271, 456.8514
446.7092, 452.4882
447.1913, 447.9034
447.6735, 443.3441
448.1556, 438.8971
448.6377, 434.5778
449.1198, 430.4434
449.6019, 426.5229
450.0840, 422.4512
450.5662, 418.1169
451.0483, 413.6977
451.5304, 409.2237
452.0125, 404.7574
452.4946, 400.3700
452.9767, 395.8907
453.4589, 391.6757
453.9410, 388.3474
454.4231, 385.9619
454.9052, 383.8425
455.3873, 381.4721
455.8694, 379.5000
456.3516, 378.6524
456.8337, 378.9857
457.3158, 380.1600
457.7979, 382.1320
458.2800, 384.8034
458.7621, 388.0359
459.2443, 391.8080
459.7264, 396.0785
460.2085, 400.8326
460.6906, 406.0851
461.1727, 411.7616
461.6548, 417.7292
462.1370, 424.1992
462.6191, 431.6257
463.1012, 439.5864
463.5833, 447.1339
464.0654, 453.9569
464.5475, 460.5091
465.0297, 467.5952
465.5118, 475.5339
465.9939, 483.2133
466.4760, 490.4256
466.9581, 497.5858
467.4402, 504.9375
467.9224, 512.4559
468.4045, 519.9496
468.8866, 527.4274
469.3687, 534.7281
469.8508, 541.1819
470.3329, 546.2528
470.8151, 551.3474
471.2972, 556.5139
471.7793, 561.8875
472.2614, 567.6424
472.7435, 573.7829
473.2256, 580.1682
473.7078, 586.6364
474.1899, 593.2164
474.6720, 600.0852
475.1541, 607.5062
475.6362, 614.8029
476.1183, 622.5057
476.6005, 629.7302
477.0826, 635.1215
477.5647, 638.4264
478.0468, 639.3613
478.5289, 638.1258
479.0110, 634.5618
479.4932, 626.7851
479.9753, 613.8585
480.4574, 597.2426
480.9395, 578.1642
481.4216, 556.8321
481.9037, 534.2570
482.3859, 509.6425
482.8680, 484.7685
483.3501, 460.7715
483.8322, 437.8784
484.3143, 416.5399
484.7964, 396.8254
485.2786, 378.8850
485.7607, 363.2148
486.2428, 350.0165
486.7249, 338.4535
487.2070, 328.8474
487.6891, 320.5099
488.1713, 312.7507
488.6534, 305.5143
489.1355, 299.3462
489.6176, 294.8740
490.0997, 292.0315
490.5818, 289.2210
491.0640, 286.1823
491.5461, 283.5063
492.0282, 281.4825
492.5103, 279.7869
492.9924, 278.0454
493.4745, 276.1551
493.9567, 274.3899
494.4388, 273.2177
494.9209, 272.7292
495.4030, 271.8492
495.8851, 270.2596
496.3672, 268.6107
496.8494, 267.3031
497.3315, 266.1689
497.8136, 264.8336
498.2957, 263.0526
498.7778, 261.1994
499.2599, 259.7296
499.7421, 258.6305
500.2242, 256.5496
500.7063, 256.9923
501.1884, 256.8007
501.6705, 256.0089
502.1526, 252.8194
502.6348, 252.7259
503.1169, 251.3917
503.5990, 250.0067
504.0811, 250.3492
504.5632, 247.5084
505.0453, 247.8235
505.5274, 246.8788
506.0096, 246.5104
506.4917, 244.8938
506.9738, 243.6629
507.4559, 243.6807
507.9380, 243.0071
508.4201, 241.2467
508.9023, 240.9150
509.3844, 238.0307
509.8665, 237.3865
510.3486, 237.7089
510.8307, 236.0113
511.3128, 235.7026
511.7950, 234.8648
512.2771, 231.6232
512.7592, 232.5623
513.2413, 231.6935
513.7234, 228.9681
514.2056, 229.7637
514.6877, 227.2944
515.1698, 225.9905
515.6519, 225.5637
516.1340, 224.2226
516.6161, 223.6439
517.0983, 223.0164
517.5804, 222.9248
518.0625, 223.1032
518.5446, 223.1996
519.0267, 223.1719
519.5089, 222.9896
519.9910, 222.5833
520.4731, 222.0051
520.9552, 221.3181
521.4373, 220.4829
521.9194, 219.8450
522.4016, 219.8399
522.8837, 220.4973
523.3658, 220.8109
523.8479, 220.4781
524.3300, 220.1260
524.8121, 220.0333
525.2943, 220.1188
525.7764, 220.2127
526.2585, 220.2538
526.7406, 220.3271
527.2227, 220.5882
527.7048, 221.1450
528.1870, 221.4983
528.6691, 221.3030
529.1512, 221.2676
529.6333, 221.7169
530.1154, 222.5125
530.5975, 223.4239
531.0797, 224.3654
531.5618, 225.2298
532.0439, 225.7281
532.5260, 225.7689
533.0081, 226.1582
533.4902, 226.9722
533.9724, 228.2668
534.4545, 230.4780
534.9366, 233.2520
535.4187, 235.2512
535.9008, 235.3918
536.3829, 234.9829
536.8651, 235.5514
537.3472, 236.9553
537.8293, 238.1727
538.3114, 238.7369
538.7935, 239.1396
539.2756, 240.2209
539.7578, 242.1688
540.2399, 243.8407
540.7220, 244.8796
541.2041, 245.8307
541.6862, 247.1077
542.1683, 248.6196
542.6505, 250.0746
543.1326, 251.3289
543.6147, 252.3428
544.0968, 252.9808
544.5789, 252.9667
545.0610, 253.1393
545.5432, 253.6902
546.0253, 254.2598
546.5074, 254.7526
546.9895, 255.0957
547.4716, 255.1451
547.9537, 254.7521
548.4359, 254.1118
548.9180, 253.6003
549.4001, 253.2026
549.8822, 253.0354
550.3643, 253.2344
550.8464, 253.5874
551.3286, 253.9630
551.8107, 254.3398
552.2928, 254.4802
552.7749, 254.1699
553.2570, 253.6588
553.7391, 253.0689
554.2213, 252.4715
554.7034, 252.2410
555.1855, 252.5937
555.6676, 253.3005
556.1497, 253.9355
556.6318, 254.5791
557.1140, 254.9222
557.5961, 254.7193
558.0782, 254.4249
558.5603, 254.4224
559.0424, 254.5833
559.5245, 254.4722
560.0067, 253.8184
560.4888, 252.8946
560.9709, 252.4134
561.4530, 252.5669
561.9351, 252.6264
562.4172, 252.3535
562.8994, 252.1038
563.3815, 252.1025
563.8636, 252.2904
564.3457, 252.4462
564.8278, 252.4207
565.3099, 252.3476
565.7921, 252.4798
566.2742, 252.8032
566.7563, 252.9889
567.2384, 252.9220
567.7205, 252.6971
568.2026, 252.3430
568.6848, 251.8546
569.1669, 251.6115
569.6490, 252.0426
570.1311, 252.3984
570.6132, 252.0024
571.0953, 251.1286
571.5775, 250.4939
572.0596, 250.4097
572.5417, 250.6298
573.0238, 250.7104
573.5059, 250.5044
573.9880, 250.6165
574.4702, 251.5234
574.9523, 252.2369
575.4344, 252.1051
575.9165, 251.5623
576.3986, 251.4360
576.8807, 252.1185
577.3629, 253.0581
577.8450, 253.2978
578.3271, 252.8535
578.8092, 253.1842
579.2913, 254.9289
579.7734, 256.7235
580.2556, 257.2744
580.7377, 257.0521
581.2198, 257.2274
581.7019, 258.1786
582.1840, 259.3608
582.6661, 260.6910
583.1483, 261.9613
583.6304, 262.6319
584.1125, 262.5757
584.5946, 262.4358
585.0767, 262.8643
585.5588, 263.8733
586.0409, 265.1090
586.5230, 267.0105
587.0051, 268.6094
587.4872, 269.5533
587.9694, 270.1646
