##NAMES=Sengierite
##RRUFFID=R100186
##IDEAL CHEMISTRY=Cu^2+^_2_(U^6+^O_2_)_2_(V^5+^O_4_)_2_(OH)_2_&#183;6H_2_O
##LOCALITY=Shinkolobwe mine, Katanga, Congo
##OWNER=RRUFF
##SOURCE=William W Pinch
##DESCRIPTION=Lime green thin plates
##STATUS=The identification of this mineral has been confirmed by single-crystal X-ray diffraction.
##URL=rruff.info/R100186
112.3007, 99.38577
112.7828, 99.21041
113.2649, 99.47254
113.7471, 100.1366
114.2292, 100.7345
114.7113, 101.4880
115.1934, 101.9342
115.6755, 101.5677
116.1576, 100.6171
116.6397, 99.84116
117.1219, 100.1826
117.6040, 102.2710
118.0861, 103.5343
118.5682, 103.5588
119.0503, 103.2338
119.5324, 102.9865
120.0146, 102.9439
120.4967, 103.0517
120.9788, 103.2254
121.4609, 103.5618
121.9430, 103.8166
122.4251, 103.7301
122.9073, 103.6448
123.3894, 104.0913
123.8715, 105.3504
124.3536, 106.9612
124.8357, 107.6256
125.3178, 106.9611
125.8000, 106.4365
126.2821, 106.9667
126.7642, 108.2084
127.2463, 108.8062
127.7284, 107.8227
128.2105, 106.0121
128.6927, 104.8139
129.1748, 104.4260
129.6569, 104.4044
130.1390, 104.4907
130.6211, 104.7663
131.1032, 104.6579
131.5854, 103.3062
132.0675, 101.6516
132.5496, 100.6416
133.0317, 100.7683
133.5138, 101.5392
133.9959, 101.7968
134.4781, 101.3842
134.9602, 100.6303
135.4423, 99.23614
135.9244, 97.69212
136.4065, 96.68616
136.8886, 96.70281
137.3708, 97.65041
137.8529, 98.24546
138.3350, 98.21601
138.8171, 98.08230
139.2992, 97.93395
139.7813, 97.77464
140.2635, 97.56039
140.7456, 97.23560
141.2277, 96.76539
141.7098, 96.53385
142.1919, 96.67031
142.6740, 96.88294
143.1561, 96.99064
143.6383, 96.99207
144.1204, 97.05684
144.6025, 97.43883
145.0846, 98.22591
145.5667, 98.53104
146.0488, 97.85972
146.5310, 96.89814
147.0131, 96.36851
147.4952, 96.41687
147.9773, 96.78625
148.4594, 97.35483
148.9415, 98.07972
149.4237, 98.63394
149.9058, 98.73338
150.3879, 98.55759
150.8700, 98.64393
151.3521, 99.26909
151.8342, 99.91125
152.3164, 100.1010
152.7985, 99.88684
153.2806, 99.64378
153.7627, 99.65686
154.2448, 99.93052
154.7269, 100.2077
155.2091, 100.3763
155.6912, 100.6065
156.1733, 101.0259
156.6554, 101.6298
157.1375, 102.2766
157.6196, 102.7824
158.1018, 103.0741
158.5839, 103.4372
159.0660, 104.0524
159.5481, 104.6252
160.0302, 104.9456
160.5123, 104.9707
160.9945, 104.8272
161.4766, 104.7091
161.9587, 104.3436
162.4408, 104.4716
162.9229, 105.5204
163.4050, 106.8197
163.8871, 107.7072
164.3693, 107.9423
164.8514, 107.8166
165.3335, 108.0416
165.8156, 109.0494
166.2977, 109.8025
166.7798, 110.0580
167.2620, 110.0198
167.7441, 109.9520
168.2262, 109.9394
168.7083, 110.0338
169.1904, 110.4680
169.6725, 111.7037
170.1547, 112.4320
170.6368, 111.7814
171.1189, 110.1086
171.6010, 108.5997
172.0831, 107.6923
172.5652, 107.3970
173.0474, 107.6119
173.5295, 108.6838
174.0116, 109.6056
174.4937, 109.3374
174.9758, 107.8825
175.4579, 106.7960
175.9401, 107.1412
176.4222, 108.0289
176.9043, 108.5362
177.3864, 108.4829
177.8685, 108.0549
178.3506, 107.4072
178.8328, 106.4545
179.3149, 105.5847
179.7970, 104.9787
180.2791, 104.4870
180.7612, 103.9717
181.2433, 103.3637
181.7255, 102.7698
182.2076, 102.4491
182.6897, 102.6112
183.1718, 102.6656
183.6539, 102.5079
184.1360, 102.1949
184.6181, 101.7733
185.1003, 101.2624
185.5824, 100.6737
186.0645, 100.0486
186.5466, 99.24929
187.0287, 98.58861
187.5108, 98.33986
187.9930, 98.19434
188.4751, 97.70979
188.9572, 96.62124
189.4393, 95.07906
189.9214, 93.93748
190.4035, 93.62504
190.8857, 93.24004
191.3678, 92.44815
191.8499, 91.48698
192.3320, 90.75552
192.8141, 90.48842
193.2962, 90.66038
193.7784, 91.11875
194.2605, 92.40633
194.7426, 93.34556
195.2247, 93.35421
195.7068, 92.65492
196.1889, 91.88564
196.6711, 91.40058
197.1532, 91.17603
197.6353, 91.00827
198.1174, 90.71762
198.5995, 90.63227
199.0816, 91.07774
199.5638, 91.97562
200.0459, 92.78506
200.5280, 93.13374
201.0101, 93.17671
201.4922, 93.40098
201.9743, 93.88896
202.4565, 94.49777
202.9386, 95.20903
203.4207, 96.03371
203.9028, 96.63767
204.3849, 96.60213
204.8670, 96.30806
205.3492, 96.32790
205.8313, 96.91793
206.3134, 97.65783
206.7955, 97.96734
207.2776, 97.73691
207.7597, 97.58689
208.2419, 97.87012
208.7240, 98.35364
209.2061, 98.86440
209.6882, 99.38819
210.1703, 99.83200
210.6524, 100.0105
211.1346, 99.83787
211.6167, 99.60776
212.0988, 99.52174
212.5809, 99.38771
213.0630, 98.96220
213.5451, 98.11766
214.0273, 97.06824
214.5094, 96.31434
214.9915, 96.03517
215.4736, 95.74361
215.9557, 95.49285
216.4378, 95.12292
216.9200, 94.35691
217.4021, 93.05631
217.8842, 91.53801
218.3663, 90.74349
218.8484, 91.41035
219.3305, 91.76963
219.8127, 91.31030
220.2948, 90.58604
220.7769, 90.27551
221.2590, 90.68853
221.7411, 91.47356
222.2232, 91.58271
222.7054, 90.14006
223.1875, 89.02776
223.6696, 88.50768
224.1517, 88.31637
224.6338, 88.18541
225.1159, 87.99563
225.5980, 87.74213
226.0802, 87.40737
226.5623, 86.91705
227.0444, 86.43184
227.5265, 86.02367
228.0086, 85.60947
228.4907, 85.04673
228.9729, 84.26555
229.4550, 83.39449
229.9371, 82.78808
230.4192, 82.59794
230.9013, 82.41345
231.3834, 82.13631
231.8656, 81.83725
232.3477, 81.65910
232.8298, 81.67905
233.3119, 81.75208
233.7940, 81.50569
234.2761, 80.76526
234.7583, 80.20257
235.2404, 80.20742
235.7225, 80.46614
236.2046, 80.39633
236.6867, 79.75518
237.1688, 78.84207
237.6510, 78.09387
238.1331, 77.44225
238.6152, 77.12601
239.0973, 77.63025
239.5794, 78.50533
240.0615, 78.70090
240.5437, 77.76283
241.0258, 76.42561
241.5079, 75.65417
241.9900, 75.42122
242.4721, 75.29663
242.9542, 75.21740
243.4364, 75.11671
243.9185, 74.76585
244.4006, 73.98684
244.8827, 73.20128
245.3648, 72.90926
245.8469, 73.04213
246.3290, 73.11362
246.8112, 72.79592
247.2933, 72.22662
247.7754, 71.85328
248.2575, 71.86142
248.7396, 71.84969
249.2217, 71.38824
249.7039, 70.61794
250.1860, 70.03075
250.6681, 70.06963
251.1502, 70.53439
251.6323, 70.63226
252.1144, 70.08344
252.5966, 69.56908
253.0787, 69.59362
253.5608, 69.95562
254.0429, 70.20251
254.5250, 70.05289
255.0071, 69.58801
255.4893, 69.05336
255.9714, 68.17502
256.4535, 67.71516
256.9356, 68.35401
257.4177, 69.51733
257.8998, 70.24516
258.3820, 69.89353
258.8641, 68.78172
259.3462, 68.02387
259.8283, 67.72301
260.3104, 67.64725
260.7925, 67.75617
261.2747, 67.98666
261.7568, 68.31144
262.2389, 68.77888
262.7210, 69.22184
263.2031, 69.05059
263.6852, 67.56405
264.1674, 66.69090
264.6495, 67.25286
265.1316, 68.40401
265.6137, 69.25651
266.0958, 69.42368
266.5779, 69.14794
267.0601, 68.99592
267.5422, 69.07089
268.0243, 69.08678
268.5064, 68.90100
268.9885, 68.69910
269.4706, 68.62950
269.9528, 68.74651
270.4349, 69.03167
270.9170, 69.52819
271.3991, 70.64304
271.8812, 71.11643
272.3633, 70.38302
272.8455, 69.39737
273.3276, 68.85339
273.8097, 68.92801
274.2918, 69.37984
274.7739, 69.87159
275.2560, 70.45014
275.7382, 70.96626
276.2202, 71.54050
276.7024, 71.98170
277.1845, 72.06907
277.6666, 71.83069
278.1487, 71.55866
278.6308, 71.60571
279.1129, 72.04055
279.5951, 72.57600
280.0772, 73.30553
280.5593, 74.03745
281.0414, 74.66662
281.5235, 75.19678
282.0056, 75.69213
282.4878, 76.20292
282.9699, 76.72087
283.4520, 77.34719
283.9341, 78.07841
284.4162, 78.90454
284.8983, 80.03926
285.3805, 81.29614
285.8626, 82.17150
286.3447, 82.19608
286.8268, 81.39528
287.3089, 81.36443
287.7910, 82.64091
288.2732, 84.03699
288.7553, 85.41959
289.2374, 86.66420
289.7195, 87.52867
290.2016, 87.82934
290.6837, 87.71329
291.1659, 88.02389
291.6480, 89.13506
292.1301, 90.22876
292.6122, 91.29972
293.0943, 92.24257
293.5764, 92.88022
294.0586, 93.12672
294.5407, 93.12004
295.0228, 93.23479
295.5049, 93.60014
295.9870, 93.93594
296.4691, 94.13228
296.9513, 94.33806
297.4334, 94.82320
297.9155, 95.65491
298.3976, 96.48922
298.8797, 96.72815
299.3618, 95.91025
299.8440, 95.31813
300.3261, 94.88850
300.8082, 94.71933
301.2903, 95.10680
301.7724, 96.01836
302.2545, 96.84560
302.7367, 96.83325
303.2188, 95.68035
303.7009, 94.78323
304.1830, 94.37570
304.6651, 94.00425
305.1472, 93.33984
305.6294, 92.40691
306.1115, 91.48866
306.5936, 90.85337
307.0757, 90.52451
307.5578, 89.93413
308.0399, 88.87893
308.5221, 87.81371
309.0042, 86.80650
309.4863, 85.93800
309.9684, 85.44939
310.4505, 85.56532
310.9326, 86.14005
311.4148, 86.13023
311.8969, 85.09276
312.3790, 84.08250
312.8611, 83.17088
313.3432, 82.48239
313.8253, 82.25989
314.3075, 82.64002
314.7896, 83.39116
315.2717, 83.92724
315.7538, 84.14503
316.2359, 84.29574
316.7180, 84.20638
317.2001, 84.14327
317.6823, 84.45420
318.1644, 85.23231
318.6465, 86.20642
319.1286, 86.96310
319.6107, 87.31159
320.0928, 87.90165
320.5750, 89.02974
321.0571, 90.18983
321.5392, 90.92399
322.0213, 91.21812
322.5034, 91.45876
322.9855, 92.02675
323.4677, 92.97737
323.9498, 93.93138
324.4319, 94.95179
324.9140, 95.91932
325.3961, 96.73556
325.8782, 97.44026
326.3604, 98.17942
326.8425, 99.06865
327.3246, 100.0833
327.8067, 100.9542
328.2888, 101.5795
328.7709, 102.2019
329.2531, 102.9472
329.7352, 103.7175
330.2173, 104.3059
330.6994, 104.6020
331.1815, 104.7615
331.6636, 105.2102
332.1458, 106.1844
332.6279, 107.1768
333.1100, 108.3143
333.5921, 109.3890
334.0742, 110.1298
334.5563, 110.4765
335.0385, 110.6973
335.5206, 111.1881
336.0027, 112.1193
336.4848, 112.8909
336.9669, 113.4402
337.4490, 113.9048
337.9312, 114.3413
338.4133, 114.7741
338.8954, 115.2315
339.3775, 115.7440
339.8596, 116.3190
340.3417, 116.8685
340.8239, 117.5721
341.3060, 118.0718
341.7881, 118.1035
342.2702, 117.8381
342.7523, 117.6113
343.2344, 117.6279
343.7166, 117.8533
344.1987, 118.1202
344.6808, 118.4267
345.1629, 118.7848
345.6450, 119.1554
346.1271, 119.5931
346.6093, 120.1810
347.0914, 120.9409
347.5735, 121.8022
348.0556, 122.6432
348.5377, 123.6416
349.0198, 124.2724
349.5020, 123.9229
349.9841, 123.7078
350.4662, 124.5776
350.9483, 126.5053
351.4304, 128.6384
351.9125, 130.0332
352.3947, 130.5598
352.8768, 131.2003
353.3589, 131.5880
353.8410, 132.4452
354.3231, 134.4490
354.8052, 137.1199
355.2874, 139.4506
355.7695, 140.6938
356.2516, 141.0848
356.7337, 142.0220
357.2158, 144.0687
357.6979, 145.9140
358.1800, 147.2216
358.6621, 148.2645
359.1443, 149.3573
359.6264, 150.6264
360.1085, 151.9150
360.5906, 152.9601
361.0727, 153.7412
361.5548, 154.3180
362.0370, 154.4594
362.5191, 154.5916
363.0012, 155.0245
363.4833, 155.7598
363.9654, 156.5274
364.4475, 157.0511
364.9297, 157.3156
365.4118, 157.6006
365.8939, 158.1715
366.3760, 158.4445
366.8581, 158.0140
367.3402, 157.1300
367.8224, 156.3155
368.3045, 155.9213
368.7866, 155.7741
369.2687, 155.4087
369.7508, 154.9173
370.2329, 153.9710
370.7151, 152.2170
371.1972, 150.1109
371.6793, 147.9990
372.1614, 145.9756
372.6435, 144.1165
373.1256, 142.6343
373.6078, 141.5726
374.0899, 140.3135
374.5720, 138.7698
375.0541, 136.9178
375.5362, 134.6685
376.0183, 132.0526
376.5005, 129.3943
376.9826, 126.8742
377.4647, 124.4699
377.9468, 122.0910
378.4289, 119.7486
378.9110, 117.3942
379.3932, 114.8671
379.8753, 112.3089
380.3574, 110.0043
380.8395, 107.9780
381.3216, 106.2998
381.8037, 105.3126
382.2859, 105.0370
382.7680, 104.3503
383.2501, 102.5098
383.7322, 100.1253
384.2143, 98.12641
384.6964, 96.53519
385.1786, 95.35275
385.6607, 94.70862
386.1428, 94.49049
386.6249, 94.46442
387.1070, 94.65697
387.5891, 94.80705
388.0713, 94.56186
388.5534, 93.96146
389.0355, 93.30808
389.5176, 92.32713
389.9997, 91.52930
390.4818, 91.51118
390.9640, 92.27271
391.4461, 93.31187
391.9282, 94.39920
392.4103, 95.46795
392.8924, 96.22327
393.3745, 96.39197
393.8567, 96.57514
394.3388, 97.01401
394.8209, 97.63090
395.3030, 98.28500
395.7851, 98.93513
396.2672, 99.56886
396.7494, 100.1755
397.2315, 100.7640
397.7136, 101.2890
398.1957, 101.7881
398.6778, 102.2001
399.1599, 102.4237
399.6420, 102.4798
400.1241, 102.5175
400.6063, 102.6477
401.0884, 102.8673
401.5705, 103.3400
402.0526, 104.5517
402.5347, 105.4486
403.0168, 105.5362
403.4990, 105.1315
403.9811, 104.7951
404.4632, 104.8017
404.9453, 104.9183
405.4274, 104.5203
405.9095, 102.8697
406.3917, 101.9858
406.8738, 102.4150
407.3559, 103.1934
407.8380, 103.8382
408.3201, 104.1725
408.8022, 104.0431
409.2844, 103.1931
409.7665, 101.5655
410.2486, 100.1714
410.7307, 99.38857
411.2128, 98.42995
411.6949, 96.76505
412.1771, 94.83341
412.6592, 93.41430
413.1413, 92.97073
413.6234, 92.97539
414.1055, 92.30510
414.5876, 90.82920
415.0698, 89.05431
415.5519, 86.62255
416.0340, 84.25906
416.5161, 82.55216
416.9982, 81.53477
417.4803, 80.68863
417.9625, 79.55125
418.4446, 78.18155
418.9267, 76.95671
419.4088, 75.94538
419.8909, 75.01708
420.3730, 74.03641
420.8552, 73.07728
421.3373, 72.33333
421.8194, 72.02579
422.3015, 71.79900
422.7836, 71.15282
423.2657, 70.09500
423.7479, 69.15092
424.2300, 68.53761
424.7121, 68.15169
425.1942, 67.84052
425.6763, 67.64025
426.1584, 67.33865
426.6406, 66.64178
427.1227, 65.84144
427.6048, 65.49145
428.0869, 65.70279
428.5690, 66.08572
429.0511, 66.37228
429.5333, 66.53298
430.0154, 66.36132
430.4975, 65.38145
430.9796, 64.51580
431.4617, 64.43487
431.9438, 64.89184
432.4260, 65.22037
432.9081, 65.10063
433.3902, 64.69198
433.8723, 64.35094
434.3544, 63.87236
434.8365, 63.83357
435.3187, 64.64385
435.8008, 65.64159
436.2829, 66.33882
436.7650, 66.65237
437.2471, 66.66959
437.7292, 66.40921
438.2114, 65.85232
438.6935, 65.74440
439.1756, 66.52403
439.6577, 67.27354
440.1398, 67.81789
440.6219, 68.19945
441.1040, 68.49670
441.5862, 68.74193
442.0683, 68.89561
442.5504, 68.78196
443.0325, 68.13059
443.5146, 68.05013
443.9967, 69.17390
444.4789, 70.44267
444.9610, 71.34616
445.4431, 71.89189
445.9252, 72.32574
446.4073, 72.72240
446.8894, 73.15379
447.3716, 73.96220
447.8537, 75.33321
448.3358, 76.61482
448.8179, 77.46654
449.3000, 78.10570
449.7821, 78.65437
450.2643, 79.05351
450.7464, 79.76574
451.2285, 81.41271
451.7106, 83.79732
452.1927, 85.90582
452.6748, 87.54355
453.1570, 88.83178
453.6391, 89.62704
454.1212, 90.07049
454.6033, 90.89843
455.0854, 92.47676
455.5675, 94.35979
456.0497, 96.25056
456.5318, 98.11440
457.0139, 99.82361
457.4960, 101.2212
457.9781, 102.5367
458.4602, 104.4444
458.9424, 107.1136
459.4245, 109.8933
459.9066, 112.9003
460.3887, 115.8281
460.8708, 118.3308
461.3529, 120.3764
461.8351, 122.1772
462.3172, 123.9113
462.7993, 125.5609
463.2814, 127.3895
463.7635, 129.7355
464.2456, 131.8594
464.7278, 133.5200
465.2099, 134.8815
465.6920, 136.1131
466.1741, 137.2968
466.6562, 138.5343
467.1383, 140.1059
467.6205, 142.3476
468.1026, 143.9068
468.5847, 144.1642
469.0668, 144.2410
469.5489, 144.6387
470.0310, 145.2760
470.5132, 145.7995
470.9953, 145.9290
471.4774, 145.8623
471.9595, 146.2594
472.4416, 147.4007
472.9237, 147.9562
473.4059, 146.8683
473.8880, 145.3184
474.3701, 144.4429
474.8522, 144.3935
475.3343, 144.2810
475.8164, 143.4870
476.2986, 142.2114
476.7807, 140.9595
477.2628, 139.8229
477.7449, 138.5360
478.2270, 136.8220
478.7091, 134.7721
479.1913, 132.8305
479.6734, 131.0228
480.1555, 129.3255
480.6376, 127.9336
481.1197, 126.6229
481.6018, 124.8345
482.0839, 122.3633
482.5660, 119.6694
483.0482, 117.4137
483.5303, 115.8319
484.0124, 113.8278
484.4945, 110.6087
484.9766, 107.7398
485.4587, 106.3624
485.9409, 106.0135
486.4230, 105.4526
486.9051, 103.9611
487.3872, 101.9112
487.8693, 100.4473
488.3514, 100.1691
488.8336, 99.31516
489.3157, 97.10295
489.7978, 94.88394
490.2799, 93.76584
490.7620, 93.62080
491.2441, 93.39378
491.7263, 92.08671
492.2084, 90.00935
492.6905, 88.73122
493.1726, 88.57470
493.6547, 88.44963
494.1368, 88.06691
494.6190, 87.41685
495.1011, 86.32783
495.5832, 84.69576
496.0653, 83.23006
496.5474, 82.64239
497.0295, 82.66054
497.5117, 82.43159
497.9938, 81.77506
498.4759, 81.11126
498.9580, 80.88641
499.4401, 80.97210
499.9222, 80.68778
500.4044, 79.62406
500.8865, 78.56103
501.3686, 78.00465
501.8507, 77.72280
502.3328, 77.21204
502.8149, 76.29943
503.2971, 75.18301
503.7792, 74.11827
504.2613, 73.05128
504.7434, 72.23767
505.2255, 71.84544
505.7076, 71.51222
506.1898, 71.11075
506.6719, 70.62980
507.1540, 70.06666
507.6361, 69.41454
508.1182, 68.73222
508.6003, 68.20000
509.0825, 67.97128
509.5646, 67.47720
510.0467, 66.28130
510.5288, 65.13470
511.0109, 64.50562
511.4930, 64.31023
511.9752, 64.12798
512.4573, 63.63534
512.9394, 63.01968
513.4215, 62.73669
513.9036, 62.82888
514.3857, 62.99247
514.8679, 63.24617
515.3500, 63.40773
515.8321, 63.17785
516.3142, 62.49102
516.7963, 61.96668
517.2784, 61.92381
517.7606, 62.17375
518.2427, 62.54485
518.7248, 63.00161
519.2069, 63.29536
519.6890, 63.18566
520.1711, 62.80579
520.6533, 62.83528
521.1354, 63.51971
521.6175, 64.21479
522.0996, 65.01374
522.5817, 65.65997
523.0638, 65.68645
523.5460, 65.14138
524.0281, 64.72387
524.5102, 65.15953
524.9923, 66.41445
525.4744, 67.35374
525.9565, 67.60835
526.4387, 68.01477
526.9208, 68.98156
527.4029, 70.05411
527.8850, 70.67613
528.3671, 70.72874
528.8492, 70.70108
529.3314, 71.17654
529.8135, 72.08603
530.2956, 72.73750
530.7777, 73.00770
531.2598, 73.19216
531.7419, 73.40967
532.2241, 73.67626
532.7062, 74.02821
533.1883, 74.46334
533.6704, 75.00204
534.1525, 75.82520
534.6346, 76.74792
535.1168, 77.27376
535.5989, 77.26292
536.0810, 77.14802
536.5631, 77.38990
537.0452, 78.01096
537.5273, 78.38626
538.0095, 78.30523
538.4916, 78.23806
538.9737, 78.42030
539.4558, 78.70559
539.9379, 78.84391
540.4200, 78.76223
540.9022, 78.62783
541.3843, 78.70322
541.8664, 79.06432
542.3485, 79.20597
542.8306, 78.97189
543.3127, 78.67471
543.7948, 78.22941
544.2769, 77.83801
544.7590, 77.87134
545.2411, 78.51384
545.7233, 79.25719
546.2054, 79.28251
546.6875, 78.67065
547.1696, 78.72783
547.6517, 79.99065
548.1339, 81.30644
548.6160, 81.30062
549.0981, 80.52015
549.5802, 80.58716
550.0623, 82.53236
550.5444, 84.62261
551.0266, 85.82212
551.5087, 86.32291
551.9908, 86.37112
552.4729, 86.00788
552.9550, 85.87294
553.4371, 86.84234
553.9193, 89.17803
554.4014, 91.07095
554.8835, 92.48764
555.3656, 93.57165
555.8477, 93.89882
556.3298, 94.09133
556.8120, 95.18644
557.2941, 97.53124
557.7762, 100.2239
558.2583, 101.8656
558.7404, 102.2552
559.2225, 103.2183
559.7047, 105.0763
560.1868, 107.1659
560.6689, 109.2514
561.1510, 111.3129
561.6331, 113.3328
562.1152, 115.2861
562.5974, 117.2305
563.0795, 119.4147
563.5616, 121.6621
564.0437, 123.1281
564.5258, 123.4614
565.0079, 123.9110
565.4901, 125.8197
565.9722, 129.0946
566.4543, 131.5221
566.9364, 132.5367
567.4185, 133.3613
567.9006, 134.4253
568.3828, 135.5954
568.8649, 136.7326
569.3470, 137.7729
569.8291, 138.6428
570.3112, 139.2653
570.7933, 139.6509
571.2755, 139.6299
571.7576, 138.9277
572.2397, 138.1400
572.7218, 137.1699
573.2039, 136.3080
573.6860, 135.9973
574.1682, 136.3266
574.6503, 136.6553
575.1324, 136.5513
575.6145, 135.9654
576.0966, 134.4942
576.5787, 131.8675
577.0609, 129.3335
577.5430, 127.7763
578.0251, 126.8260
578.5072, 125.5808
578.9893, 123.9748
579.4714, 122.1833
579.9536, 120.2738
580.4357, 118.2168
580.9178, 115.8832
581.3999, 113.3100
581.8820, 110.7561
582.3641, 108.4313
582.8463, 106.2847
583.3284, 103.9863
583.8105, 101.1997
584.2926, 98.74973
584.7747, 96.97734
585.2568, 95.32490
585.7390, 93.25546
586.2211, 90.83989
586.7032, 88.63975
587.1853, 87.16200
587.6674, 86.10727
588.1495, 84.65641
588.6317, 82.74363
589.1138, 80.82812
589.5959, 79.08183
590.0780, 77.35838
590.5601, 75.35676
591.0422, 73.08102
591.5244, 71.30679
592.0065, 70.69491
592.4886, 70.35760
592.9707, 69.47887
593.4528, 68.17593
593.9349, 66.90491
594.4171, 65.85428
594.8992, 65.06219
595.3813, 64.63617
595.8634, 64.81090
596.3455, 64.64831
596.8276, 64.09611
597.3098, 63.31476
597.7919, 62.14762
598.2740, 60.85270
598.7561, 59.84630
599.2382, 59.30265
599.7203, 58.98126
600.2025, 58.55907
600.6846, 58.03963
601.1667, 57.61684
601.6488, 57.34183
602.1309, 57.10469
602.6130, 56.84278
603.0952, 56.56455
603.5773, 56.29571
604.0594, 56.06127
604.5415, 55.79382
605.0236, 55.50894
605.5057, 55.14835
605.9879, 54.52856
606.4700, 53.65984
606.9521, 52.90700
607.4342, 52.59918
607.9163, 52.66880
608.3984, 52.59649
608.8806, 52.16074
609.3627, 51.88945
609.8448, 52.02817
