##NAMES=Sengierite
##RRUFFID=R100186
##IDEAL CHEMISTRY=Cu^2+^_2_(U^6+^O_2_)_2_(V^5+^O_4_)_2_(OH)_2_&#183;6H_2_O
##LOCALITY=Shinkolobwe mine, Katanga, Congo
##OWNER=RRUFF
##SOURCE=William W Pinch
##DESCRIPTION=Lime green thin plates
##STATUS=The identification of this mineral has been confirmed by single-crystal X-ray diffraction.
##URL=rruff.info/R100186
167.2097, 970.5189
167.6918, 993.5334
168.1739, 1015.006
168.6560, 1037.046
169.1381, 1061.905
169.6203, 1087.304
170.1024, 1103.587
170.5845, 1112.810
171.0666, 1121.255
171.5487, 1130.484
172.0309, 1140.465
172.5130, 1151.441
172.9951, 1165.008
173.4772, 1179.463
173.9593, 1192.173
174.4414, 1200.731
174.9236, 1207.761
175.4057, 1215.930
175.8878, 1225.318
176.3699, 1234.800
176.8520, 1243.919
177.3341, 1252.518
177.8163, 1260.285
178.2984, 1266.254
178.7805, 1271.516
179.2626, 1278.421
179.7447, 1287.121
180.2268, 1294.699
180.7090, 1295.539
181.1911, 1292.151
181.6732, 1292.369
182.1553, 1301.841
182.6374, 1317.067
183.1195, 1330.683
183.6017, 1342.627
184.0838, 1353.318
184.5659, 1363.175
185.0480, 1372.285
185.5301, 1381.585
186.0123, 1392.073
186.4944, 1403.126
186.9765, 1412.682
187.4586, 1420.896
187.9407, 1427.134
188.4228, 1430.973
188.9050, 1432.357
189.3871, 1430.483
189.8692, 1424.204
190.3513, 1414.130
190.8334, 1402.631
191.3155, 1389.528
191.7977, 1375.990
192.2798, 1363.505
192.7619, 1352.072
193.2440, 1342.154
193.7261, 1333.401
194.2082, 1326.010
194.6904, 1321.703
195.1725, 1320.510
195.6546, 1322.482
196.1367, 1328.168
196.6188, 1337.706
197.1009, 1349.080
197.5831, 1361.689
198.0652, 1375.631
198.5473, 1389.067
199.0294, 1401.679
199.5115, 1414.026
199.9937, 1427.549
200.4758, 1442.276
200.9579, 1456.810
201.4400, 1470.299
201.9221, 1482.719
202.4042, 1494.208
202.8864, 1504.480
203.3685, 1514.094
203.8506, 1524.101
204.3327, 1534.149
204.8148, 1545.539
205.2969, 1559.041
205.7791, 1574.779
206.2612, 1591.600
206.7433, 1609.377
207.2254, 1628.221
207.7075, 1648.014
208.1896, 1668.186
208.6718, 1691.112
209.1539, 1719.084
209.6360, 1752.889
210.1181, 1786.587
210.6002, 1820.348
211.0823, 1853.592
211.5645, 1885.250
212.0466, 1916.600
212.5287, 1943.762
213.0108, 1965.734
213.4929, 1984.198
213.9750, 1991.814
214.4572, 1987.574
214.9393, 1972.578
215.4214, 1949.464
215.9035, 1917.647
216.3856, 1878.559
216.8678, 1832.652
217.3499, 1776.996
217.8320, 1721.873
218.3141, 1667.239
218.7962, 1613.863
219.2783, 1564.595
219.7605, 1519.460
220.2426, 1479.038
220.7247, 1444.305
221.2068, 1416.292
221.6889, 1391.213
222.1710, 1369.351
222.6532, 1350.303
223.1353, 1333.587
223.6174, 1319.210
224.0995, 1306.886
224.5816, 1296.795
225.0637, 1289.945
225.5459, 1282.390
226.0280, 1273.116
226.5101, 1263.236
226.9922, 1256.552
227.4743, 1254.035
227.9564, 1253.067
228.4386, 1252.232
228.9207, 1250.669
229.4028, 1251.478
229.8849, 1255.852
230.3670, 1262.318
230.8492, 1266.503
231.3313, 1265.899
231.8134, 1266.732
232.2955, 1271.956
232.7776, 1282.662
233.2597, 1295.184
233.7419, 1310.105
234.2240, 1326.722
234.7061, 1342.881
235.1882, 1358.804
235.6703, 1373.945
236.1524, 1388.259
236.6346, 1401.801
237.1167, 1414.500
237.5988, 1427.590
238.0809, 1439.481
238.5630, 1446.617
239.0451, 1448.524
239.5273, 1446.248
240.0094, 1439.859
240.4915, 1428.141
240.9736, 1415.194
241.4557, 1400.431
241.9378, 1384.580
242.4200, 1369.486
242.9021, 1356.579
243.3842, 1341.862
243.8663, 1322.978
244.3484, 1297.012
244.8306, 1275.817
245.3127, 1261.890
245.7948, 1251.589
246.2769, 1238.107
246.7590, 1219.633
247.2411, 1201.327
247.7233, 1184.922
248.2054, 1170.690
248.6875, 1157.309
249.1696, 1144.729
249.6517, 1133.174
250.1338, 1123.161
250.6160, 1115.068
251.0981, 1107.795
251.5802, 1100.806
252.0623, 1093.618
252.5444, 1089.131
253.0265, 1088.402
253.5087, 1089.548
253.9908, 1090.065
254.4729, 1090.060
254.9550, 1089.239
255.4371, 1087.426
255.9192, 1084.557
256.4014, 1081.479
256.8835, 1078.595
257.3656, 1075.097
257.8477, 1069.805
258.3298, 1062.148
258.8120, 1053.911
259.2941, 1045.431
259.7762, 1036.672
260.2583, 1027.387
260.7404, 1016.662
261.2225, 1006.403
261.7047, 998.5067
262.1868, 993.5984
262.6689, 989.2923
263.1510, 984.7894
263.6331, 980.1692
264.1152, 977.4304
264.5974, 976.9051
265.0795, 977.7830
265.5616, 979.6122
266.0437, 982.9677
266.5258, 985.3458
267.0079, 985.5215
267.4901, 984.0530
267.9722, 986.1481
268.4543, 992.9734
268.9364, 1001.129
269.4185, 1007.892
269.9006, 1012.959
270.3828, 1018.220
270.8649, 1024.824
271.3470, 1031.796
271.8291, 1034.213
272.3112, 1030.971
272.7933, 1026.051
273.2755, 1022.613
273.7576, 1021.110
274.2397, 1017.594
274.7218, 1010.877
275.2039, 1002.268
275.6860, 996.0771
276.1682, 992.8254
276.6503, 989.8095
277.1324, 984.9812
277.6145, 978.1796
278.0966, 972.4381
278.5787, 967.9044
279.0609, 964.7228
279.5430, 963.5607
280.0251, 964.7408
280.5072, 966.1722
280.9893, 966.4509
281.4715, 965.5967
281.9536, 966.0010
282.4357, 967.9899
282.9178, 970.8177
283.3999, 972.7752
283.8820, 973.7198
284.3642, 976.0599
284.8463, 981.7637
285.3284, 990.4479
285.8105, 997.2091
286.2926, 1001.600
286.7747, 1005.432
287.2569, 1011.446
287.7390, 1019.541
288.2211, 1027.417
288.7032, 1033.825
289.1853, 1039.195
289.6674, 1045.748
290.1496, 1053.667
290.6317, 1061.814
291.1138, 1068.547
291.5959, 1074.187
292.0780, 1080.654
292.5602, 1088.896
293.0423, 1098.349
293.5244, 1107.524
294.0065, 1116.365
294.4886, 1125.506
294.9707, 1135.840
295.4529, 1147.126
295.9350, 1158.108
296.4171, 1167.901
296.8992, 1177.914
297.3813, 1190.603
297.8634, 1205.795
298.3456, 1222.345
298.8277, 1239.821
299.3098, 1257.846
299.7919, 1275.449
300.2740, 1292.090
300.7561, 1308.615
301.2383, 1326.146
301.7204, 1344.484
302.2025, 1361.519
302.6846, 1377.735
303.1667, 1391.442
303.6488, 1400.250
304.1310, 1403.409
304.6131, 1402.554
305.0952, 1399.981
305.5773, 1394.760
306.0594, 1384.427
306.5415, 1364.691
307.0237, 1340.623
307.5058, 1317.045
307.9879, 1294.581
308.4700, 1272.348
308.9521, 1249.515
309.4343, 1226.373
309.9164, 1202.939
310.3985, 1176.966
310.8806, 1152.001
311.3627, 1130.579
311.8448, 1112.635
312.3270, 1097.570
312.8091, 1085.622
313.2912, 1076.112
313.7733, 1068.236
314.2554, 1062.374
314.7375, 1057.506
315.2197, 1052.578
315.7018, 1047.796
316.1839, 1045.258
316.6660, 1046.985
317.1481, 1050.802
317.6302, 1054.916
318.1124, 1058.733
318.5945, 1062.995
319.0766, 1067.277
319.5587, 1072.055
320.0408, 1078.999
320.5229, 1089.558
321.0051, 1101.774
321.4872, 1114.586
321.9693, 1127.332
322.4514, 1141.335
322.9335, 1157.293
323.4156, 1174.646
323.8978, 1192.316
324.3799, 1209.431
324.8620, 1227.431
325.3441, 1246.709
325.8262, 1266.796
326.3083, 1289.129
326.7905, 1315.359
327.2726, 1343.500
327.7547, 1370.744
328.2368, 1395.260
328.7189, 1420.917
329.2010, 1448.657
329.6832, 1478.362
330.1653, 1508.700
330.6474, 1539.869
331.1295, 1571.497
331.6116, 1603.642
332.0938, 1636.411
332.5759, 1669.672
333.0580, 1703.217
333.5401, 1737.266
334.0222, 1771.141
334.5043, 1805.366
334.9865, 1839.077
335.4686, 1871.887
335.9507, 1903.263
336.4328, 1935.456
336.9149, 1969.026
337.3970, 2003.764
337.8792, 2038.007
338.3613, 2072.502
338.8434, 2105.804
339.3255, 2137.359
339.8076, 2167.101
340.2898, 2197.031
340.7719, 2228.319
341.2540, 2258.310
341.7361, 2283.462
342.2182, 2303.070
342.7003, 2320.789
343.1825, 2338.216
343.6646, 2354.923
344.1467, 2366.854
344.6288, 2373.931
345.1109, 2377.130
345.5930, 2377.343
346.0752, 2374.535
346.5573, 2368.798
347.0394, 2360.322
347.5215, 2348.703
348.0036, 2332.102
348.4857, 2310.623
348.9679, 2287.064
349.4500, 2262.663
349.9321, 2237.510
350.4142, 2211.956
350.8963, 2185.806
351.3784, 2159.623
351.8606, 2133.744
352.3427, 2108.672
352.8248, 2085.688
353.3069, 2065.731
353.7890, 2048.541
354.2711, 2033.842
354.7533, 2021.835
355.2354, 2010.874
355.7175, 1998.309
356.1996, 1986.092
356.6817, 1977.626
357.1638, 1975.067
357.6460, 1976.274
358.1281, 1980.013
358.6102, 1986.172
359.0923, 1994.189
359.5744, 2003.441
360.0565, 2014.471
360.5387, 2027.827
361.0208, 2043.996
361.5029, 2062.172
361.9850, 2081.666
362.4671, 2102.752
362.9492, 2126.068
363.4314, 2152.248
363.9135, 2180.424
364.3956, 2210.211
364.8777, 2241.895
365.3598, 2274.724
365.8419, 2308.039
366.3241, 2342.508
366.8062, 2378.935
367.2883, 2418.109
367.7704, 2458.594
368.2526, 2500.510
368.7347, 2544.431
369.2168, 2587.051
369.6989, 2627.890
370.1810, 2667.864
370.6631, 2708.337
371.1453, 2752.040
371.6274, 2792.301
372.1095, 2828.842
372.5916, 2861.735
373.0737, 2890.629
373.5558, 2916.980
374.0380, 2937.543
374.5201, 2950.687
375.0022, 2955.753
375.4843, 2955.282
375.9664, 2949.530
376.4485, 2938.109
376.9307, 2920.176
377.4128, 2896.031
377.8949, 2864.729
378.3770, 2825.714
378.8591, 2779.300
379.3412, 2727.387
379.8234, 2670.558
380.3055, 2607.723
380.7876, 2537.029
381.2697, 2458.296
381.7518, 2378.721
382.2339, 2299.088
382.7161, 2220.906
383.1982, 2146.018
383.6803, 2075.050
384.1624, 2007.385
384.6445, 1942.681
385.1266, 1881.584
385.6088, 1825.714
386.0909, 1775.578
386.5730, 1730.285
387.0551, 1690.165
387.5372, 1654.918
388.0193, 1622.968
388.5015, 1594.006
388.9836, 1568.037
389.4657, 1545.177
389.9478, 1525.438
390.4299, 1508.363
390.9120, 1493.483
391.3942, 1481.075
391.8763, 1471.731
392.3584, 1467.219
392.8405, 1464.291
393.3226, 1461.243
393.8047, 1458.337
394.2869, 1456.745
394.7690, 1456.274
395.2511, 1457.708
395.7332, 1461.778
396.2154, 1469.769
396.6975, 1477.918
397.1796, 1484.862
397.6617, 1491.650
398.1438, 1500.007
398.6259, 1511.367
399.1081, 1523.200
399.5902, 1534.562
400.0723, 1545.156
400.5544, 1557.276
401.0365, 1571.410
401.5186, 1586.729
402.0008, 1602.509
402.4829, 1619.501
402.9650, 1635.591
403.4471, 1650.038
403.9292, 1663.454
404.4113, 1678.077
404.8935, 1694.226
405.3756, 1711.028
405.8577, 1728.365
406.3398, 1746.273
406.8219, 1763.500
407.3040, 1780.297
407.7862, 1796.029
408.2683, 1810.281
408.7504, 1823.100
409.2325, 1833.881
409.7146, 1842.843
410.1967, 1849.511
410.6789, 1852.822
411.1610, 1852.795
411.6431, 1849.610
412.1252, 1843.485
412.6073, 1834.371
413.0894, 1822.270
413.5716, 1807.885
414.0537, 1789.549
414.5358, 1764.036
415.0179, 1732.725
415.5000, 1699.235
415.9821, 1665.652
416.4643, 1631.194
416.9464, 1594.543
417.4285, 1555.604
417.9106, 1516.794
418.3927, 1479.918
418.8748, 1443.848
419.3570, 1407.929
419.8391, 1369.671
420.3212, 1333.305
420.8033, 1299.997
421.2854, 1269.804
421.7675, 1242.182
422.2497, 1217.932
422.7318, 1195.487
423.2139, 1174.287
423.6960, 1154.368
424.1781, 1135.591
424.6602, 1118.255
425.1424, 1102.078
425.6245, 1086.821
426.1066, 1072.422
426.5887, 1059.228
427.0709, 1047.283
427.5530, 1036.578
428.0351, 1027.851
428.5172, 1021.802
428.9993, 1016.612
429.4814, 1010.974
429.9636, 1004.724
430.4457, 998.5819
430.9278, 992.5014
431.4099, 986.6555
431.8920, 981.4186
432.3741, 976.7482
432.8563, 972.6595
433.3384, 969.4515
433.8205, 966.9216
434.3026, 963.5208
434.7847, 959.0770
435.2668, 955.0004
435.7490, 953.3666
436.2311, 953.4269
436.7132, 952.4234
437.1953, 949.0080
437.6774, 945.0783
438.1595, 943.0094
438.6417, 942.6058
439.1238, 943.0560
439.6059, 944.2825
440.0880, 945.9098
440.5701, 947.6759
441.0522, 949.6296
441.5344, 951.2404
442.0165, 951.7504
442.4986, 951.8698
442.9807, 952.4648
443.4628, 954.0840
443.9449, 955.9716
444.4271, 957.9989
444.9092, 960.1036
445.3913, 961.9937
445.8734, 962.5026
446.3555, 963.5623
446.8376, 966.2712
447.3198, 971.8907
447.8019, 976.8115
448.2840, 980.6056
448.7661, 983.7684
449.2482, 986.9080
449.7303, 989.6781
450.2125, 992.9684
450.6946, 996.9784
451.1767, 1001.721
451.6588, 1007.065
452.1409, 1013.192
452.6230, 1019.611
453.1052, 1025.876
453.5873, 1032.011
454.0694, 1038.240
454.5515, 1044.290
455.0337, 1050.999
455.5158, 1060.008
455.9979, 1071.246
456.4800, 1082.505
456.9621, 1092.627
457.4442, 1102.286
457.9264, 1113.156
458.4085, 1125.170
458.8906, 1137.952
459.3727, 1150.608
459.8548, 1163.894
460.3369, 1178.907
460.8191, 1196.492
461.3012, 1214.852
461.7833, 1232.419
462.2654, 1249.750
462.7475, 1267.914
463.2296, 1287.436
463.7118, 1308.112
464.1939, 1330.552
464.6760, 1355.005
465.1581, 1378.058
465.6402, 1396.879
466.1223, 1414.775
466.6045, 1433.813
467.0866, 1453.897
467.5687, 1475.471
468.0508, 1499.658
468.5329, 1525.332
469.0150, 1550.288
469.4972, 1573.133
469.9793, 1596.856
470.4614, 1622.022
470.9435, 1648.622
471.4256, 1677.141
471.9077, 1708.004
472.3899, 1739.985
472.8720, 1772.219
473.3541, 1805.223
473.8362, 1837.228
474.3183, 1868.120
474.8004, 1898.168
475.2826, 1928.066
475.7647, 1957.750
476.2468, 1986.346
476.7289, 2014.173
477.2110, 2040.531
477.6931, 2063.791
478.1753, 2084.037
478.6574, 2100.572
479.1395, 2113.603
479.6216, 2122.336
480.1037, 2125.317
480.5858, 2120.982
481.0680, 2113.044
481.5501, 2105.323
482.0322, 2095.908
482.5143, 2080.800
482.9964, 2054.940
483.4786, 2026.104
483.9607, 1997.571
484.4428, 1969.897
484.9249, 1941.490
485.4070, 1910.119
485.8892, 1879.429
486.3713, 1852.068
486.8534, 1829.905
487.3355, 1808.634
487.8176, 1787.777
488.2997, 1767.925
488.7819, 1749.889
489.2640, 1733.656
489.7461, 1719.071
490.2282, 1705.953
490.7103, 1694.240
491.1924, 1685.248
491.6746, 1679.261
492.1567, 1674.509
492.6388, 1669.291
493.1209, 1663.751
493.6030, 1659.986
494.0851, 1658.464
494.5673, 1658.041
495.0494, 1657.383
495.5315, 1656.492
496.0136, 1655.408
496.4957, 1652.547
496.9778, 1650.457
497.4600, 1653.417
497.9421, 1660.804
498.4242, 1666.503
498.9063, 1665.927
499.3884, 1662.637
499.8705, 1659.555
500.3527, 1657.179
500.8348, 1655.277
501.3169, 1655.004
501.7990, 1654.877
502.2811, 1652.780
502.7632, 1646.675
503.2454, 1640.399
503.7275, 1634.964
504.2096, 1630.258
504.6917, 1624.566
505.1738, 1617.852
505.6559, 1610.350
506.1381, 1602.233
506.6202, 1593.493
507.1023, 1584.184
507.5844, 1574.207
508.0665, 1563.908
508.5486, 1553.835
509.0308, 1543.944
509.5129, 1534.487
509.9950, 1526.175
510.4771, 1517.581
510.9592, 1504.872
511.4413, 1488.390
511.9235, 1471.219
512.4056, 1455.523
512.8877, 1440.292
513.3698, 1423.430
513.8519, 1404.664
514.3340, 1386.059
514.8162, 1369.418
515.2983, 1353.704
515.7804, 1337.689
516.2625, 1320.918
516.7446, 1303.868
517.2267, 1285.934
517.7089, 1267.947
518.1910, 1252.126
518.6731, 1241.119
519.1552, 1230.294
519.6373, 1217.432
520.1194, 1201.918
520.6016, 1189.838
521.0837, 1182.585
521.5658, 1177.330
522.0479, 1171.907
522.5300, 1165.714
523.0121, 1161.724
523.4943, 1160.326
523.9764, 1160.939
524.4585, 1162.688
524.9406, 1165.542
525.4227, 1169.333
525.9048, 1173.798
526.3870, 1179.249
526.8691, 1186.740
527.3513, 1196.256
527.8334, 1206.889
528.3155, 1219.214
528.7976, 1231.934
529.2797, 1242.352
529.7618, 1249.534
530.2440, 1258.630
530.7261, 1274.287
531.2082, 1293.653
531.6903, 1312.775
532.1724, 1329.904
532.6545, 1347.293
533.1367, 1366.506
533.6188, 1386.809
534.1009, 1406.290
534.5830, 1422.438
535.0651, 1439.740
535.5472, 1460.106
536.0294, 1484.519
536.5115, 1506.109
536.9936, 1523.852
537.4757, 1540.223
537.9578, 1557.374
538.4399, 1575.802
538.9221, 1592.953
539.4042, 1609.052
539.8863, 1623.268
540.3684, 1634.239
540.8505, 1642.025
541.3326, 1647.387
541.8148, 1651.104
542.2969, 1652.316
542.7790, 1649.605
543.2611, 1642.995
543.7432, 1632.728
544.2253, 1617.812
544.7075, 1599.945
545.1896, 1580.551
545.6717, 1559.637
546.1538, 1538.314
546.6359, 1517.770
547.1180, 1496.787
547.6002, 1474.334
548.0823, 1447.015
548.5644, 1421.797
549.0465, 1400.623
549.5286, 1382.351
550.0107, 1363.607
550.4929, 1342.817
550.9750, 1323.910
551.4571, 1308.337
551.9392, 1296.053
552.4213, 1284.705
552.9034, 1274.427
553.3856, 1264.457
553.8677, 1253.379
554.3498, 1241.509
554.8319, 1233.019
555.3140, 1228.685
555.7961, 1226.420
556.2783, 1223.831
556.7604, 1221.160
557.2425, 1219.079
557.7246, 1217.463
558.2067, 1216.957
558.6888, 1218.350
559.1710, 1221.429
559.6531, 1225.476
560.1352, 1229.874
560.6173, 1235.338
561.0994, 1242.245
561.5815, 1250.689
562.0637, 1260.262
562.5458, 1271.871
563.0279, 1283.929
563.5100, 1295.288
563.9921, 1304.295
564.4742, 1315.643
564.9564, 1330.006
565.4385, 1346.221
565.9206, 1362.213
566.4027, 1377.572
566.8848, 1394.054
567.3669, 1412.177
567.8491, 1431.637
568.3312, 1451.138
568.8133, 1470.588
569.2954, 1489.875
569.7775, 1508.287
570.2596, 1526.531
570.7418, 1545.557
571.2239, 1565.615
571.7060, 1585.875
572.1881, 1606.768
572.6702, 1627.048
573.1523, 1645.498
573.6345, 1660.970
574.1166, 1675.768
574.5987, 1690.317
575.0808, 1704.650
575.5629, 1719.095
576.0450, 1735.448
576.5272, 1749.564
577.0093, 1760.968
577.4914, 1769.528
577.9735, 1774.422
578.4556, 1775.171
578.9377, 1773.208
579.4199, 1769.654
579.9020, 1764.617
580.3841, 1754.238
580.8662, 1738.165
581.3483, 1719.059
581.8304, 1699.849
582.3126, 1680.000
582.7947, 1657.402
583.2768, 1631.278
583.7589, 1603.478
584.2410, 1575.475
584.7231, 1547.261
585.2053, 1518.827
585.6874, 1490.534
586.1696, 1461.628
586.6517, 1430.807
587.1338, 1398.703
587.6159, 1368.189
588.0980, 1339.783
588.5801, 1313.297
589.0623, 1289.020
589.5444, 1267.247
590.0265, 1245.387
590.5086, 1223.037
590.9907, 1201.148
591.4728, 1180.287
591.9550, 1160.617
592.4371, 1142.247
592.9192, 1125.470
593.4013, 1109.851
593.8834, 1094.900
594.3655, 1080.653
594.8477, 1067.179
595.3298, 1054.484
595.8119, 1042.833
596.2940, 1033.055
596.7761, 1024.824
597.2582, 1016.729
597.7404, 1007.663
598.2225, 998.7445
598.7046, 990.8572
599.1867, 984.0587
599.6688, 977.2451
600.1509, 969.1478
600.6331, 961.4935
601.1152, 955.5733
601.5973, 952.2615
602.0794, 948.4395
602.5615, 943.5336
603.0436, 938.6984
603.5258, 935.7424
604.0079, 935.3414
604.4900, 933.1313
604.9721, 928.0136
605.4542, 921.4227
605.9363, 915.7273
606.4185, 911.0324
606.9006, 907.7978
607.3827, 907.6396
607.8648, 908.2744
608.3469, 905.7355
608.8290, 900.6120
609.3112, 896.3472
609.7933, 896.0377
610.2754, 896.5803
610.7575, 895.5490
611.2396, 892.5125
611.7217, 889.2810
612.2039, 886.2676
612.6860, 883.3127
613.1681, 880.2361
613.6502, 876.7414
614.1323, 873.6935
614.6144, 871.4342
615.0966, 869.3547
615.5787, 866.2899
616.0608, 862.0014
616.5429, 858.3776
617.0250, 855.9224
617.5071, 854.3313
617.9893, 853.1988
618.4714, 852.4630
618.9535, 851.6287
619.4356, 850.4805
619.9177, 849.0577
620.3998, 847.1052
620.8820, 844.7415
621.3641, 842.9552
621.8462, 842.3112
622.3283, 842.4221
622.8104, 843.1169
623.2925, 844.5217
623.7747, 845.8609
624.2568, 847.2494
624.7389, 848.3264
625.2210, 848.7116
625.7031, 847.7308
626.1852, 847.5013
626.6674, 848.1502
627.1495, 849.5660
627.6316, 851.6508
628.1137, 854.4170
628.5958, 857.6552
629.0779, 861.7084
629.5601, 865.7492
630.0422, 867.8007
630.5243, 868.2239
631.0064, 868.7814
631.4885, 869.9016
631.9706, 871.9944
632.4528, 875.9324
632.9349, 881.5323
633.4170, 886.9324
633.8991, 890.8189
634.3812, 894.6310
634.8633, 899.2035
635.3455, 904.5370
635.8276, 910.8710
636.3097, 918.7470
636.7918, 927.0939
637.2739, 934.9323
637.7560, 941.8502
638.2382, 949.6736
638.7203, 958.6490
639.2024, 968.1942
639.6845, 977.6384
640.1666, 987.0042
640.6487, 996.0370
641.1309, 1004.076
641.6130, 1012.750
642.0951, 1025.061
642.5772, 1039.865
643.0594, 1053.438
643.5415, 1062.475
644.0236, 1071.172
644.5057, 1082.058
644.9879, 1095.120
645.4700, 1108.775
645.9521, 1124.699
646.4342, 1139.443
646.9163, 1151.369
647.3984, 1160.104
647.8806, 1169.404
648.3627, 1179.581
648.8448, 1189.960
649.3269, 1200.830
649.8090, 1212.189
650.2911, 1220.531
650.7733, 1225.520
651.2554, 1228.459
651.7375, 1231.348
652.2196, 1233.436
652.7017, 1232.767
653.1838, 1228.119
653.6660, 1221.858
654.1481, 1216.064
654.6302, 1209.887
655.1123, 1201.730
655.5944, 1190.713
656.0765, 1178.023
656.5587, 1162.567
657.0408, 1145.365
657.5229, 1130.768
658.0050, 1119.954
658.4871, 1110.157
658.9692, 1100.559
659.4514, 1091.172
659.9335, 1081.985
660.4156, 1072.935
660.8977, 1064.842
661.3798, 1058.816
661.8619, 1054.270
662.3441, 1048.864
662.8262, 1042.407
663.3083, 1037.798
663.7904, 1039.724
664.2725, 1043.618
664.7546, 1044.117
