##NAMES=Sepiolite
##RRUFFID=R070311
##IDEAL CHEMISTRY=Mg_4_Si_6_O_15_(OH)_2_&#183;6H_2_O
##LOCALITY=Miller Quartz, near Santa Cruz, Santa Cruz County, California, USA
##OWNER=RRUFF
##SOURCE=James Shigley
##DESCRIPTION=Tan colored compact fibrous
##STATUS=The identification of this mineral has been made only by X-ray diffraction.
##URL=rruff.info/R070311
158.8221, 29003.12
159.3042, 29164.92
159.7863, 29240.36
160.2684, 29309.89
160.7505, 29396.25
161.2326, 29499.08
161.7148, 29609.72
162.1969, 29738.20
162.6790, 29868.11
163.1611, 29982.08
163.6432, 30061.67
164.1253, 30135.28
164.6075, 30210.73
165.0896, 30288.04
165.5717, 30385.01
166.0538, 30528.42
166.5359, 30694.99
167.0180, 30851.60
167.5002, 30973.52
167.9823, 31088.55
168.4644, 31222.29
168.9465, 31380.13
169.4286, 31532.13
169.9107, 31648.79
170.3929, 31742.54
170.8750, 31842.70
171.3571, 31984.53
171.8392, 32130.32
172.3213, 32230.91
172.8034, 32266.69
173.2856, 32298.24
173.7677, 32390.92
174.2498, 32529.85
174.7319, 32662.01
175.2140, 32745.16
175.6961, 32803.85
176.1783, 32877.24
176.6604, 32977.95
177.1425, 33083.81
177.6246, 33171.81
178.1067, 33241.52
178.5888, 33295.85
179.0710, 33319.16
179.5531, 33327.73
180.0352, 33359.25
180.5173, 33430.65
180.9994, 33520.72
181.4815, 33593.50
181.9637, 33650.06
182.4458, 33703.63
182.9279, 33770.34
183.4100, 33845.20
183.8921, 33908.64
184.3742, 33941.52
184.8564, 33965.47
185.3385, 34040.55
185.8206, 34171.34
186.3027, 34305.32
186.7848, 34377.70
187.2669, 34397.83
187.7491, 34440.73
188.2312, 34555.69
188.7133, 34714.32
189.1954, 34801.59
189.6775, 34805.04
190.1596, 34790.16
190.6418, 34843.70
191.1239, 34963.80
191.6060, 35080.21
192.0881, 35162.45
192.5702, 35214.21
193.0524, 35267.53
193.5345, 35322.25
194.0166, 35378.47
194.4987, 35435.02
194.9808, 35491.79
195.4629, 35550.69
195.9451, 35611.74
196.4272, 35675.71
196.9093, 35741.83
197.3914, 35810.58
197.8735, 35880.69
198.3556, 35954.68
198.8378, 36035.25
199.3199, 36101.29
199.8020, 36130.82
200.2841, 36119.62
200.7662, 36133.71
201.2483, 36182.85
201.7305, 36253.88
202.2126, 36317.27
202.6947, 36373.65
203.1768, 36419.96
203.6589, 36448.71
204.1410, 36455.06
204.6232, 36476.93
205.1053, 36520.39
205.5874, 36580.31
206.0695, 36639.05
206.5516, 36694.30
207.0337, 36754.41
207.5159, 36830.16
207.9980, 36926.57
208.4801, 37008.28
208.9622, 37070.02
209.4443, 37113.73
209.9264, 37144.90
210.4086, 37155.16
210.8907, 37169.82
211.3728, 37209.89
211.8549, 37282.41
212.3370, 37357.93
212.8191, 37434.52
213.3013, 37511.07
213.7834, 37586.07
214.2655, 37665.79
214.7476, 37734.11
215.2297, 37769.90
215.7118, 37754.63
216.1940, 37760.08
216.6761, 37803.82
217.1582, 37884.01
217.6403, 37956.75
218.1224, 38018.24
218.6045, 38076.23
219.0867, 38141.73
219.5688, 38226.57
220.0509, 38288.38
220.5330, 38308.22
221.0151, 38284.94
221.4972, 38288.43
221.9794, 38325.18
222.4615, 38381.39
222.9436, 38446.57
223.4257, 38532.54
223.9078, 38603.13
224.3899, 38643.91
224.8721, 38651.96
225.3542, 38675.95
225.8363, 38720.23
226.3184, 38776.45
226.8005, 38839.41
227.2827, 38923.07
227.7648, 38984.69
228.2469, 39002.61
228.7290, 38965.71
229.2111, 38973.55
229.6932, 39048.05
230.1754, 39149.37
230.6575, 39226.12
231.1396, 39265.77
231.6217, 39302.28
232.1038, 39348.60
232.5859, 39411.34
233.0681, 39444.54
233.5502, 39424.34
234.0323, 39391.64
234.5144, 39409.48
234.9965, 39507.88
235.4786, 39606.11
235.9608, 39679.74
236.4429, 39722.31
236.9250, 39765.80
237.4071, 39807.79
237.8892, 39851.95
238.3713, 39906.23
238.8535, 39982.43
239.3356, 40048.92
239.8177, 40093.70
240.2998, 40110.57
240.7819, 40128.23
241.2640, 40139.14
241.7462, 40155.49
242.2283, 40201.29
242.7104, 40295.69
243.1925, 40388.09
243.6746, 40462.19
244.1567, 40515.00
244.6389, 40560.58
245.1210, 40600.75
245.6031, 40632.59
246.0852, 40646.66
246.5673, 40624.29
247.0494, 40616.08
247.5316, 40642.76
248.0137, 40716.02
248.4958, 40786.35
248.9779, 40858.22
249.4600, 40924.27
249.9421, 40963.89
250.4243, 40952.68
250.9064, 40959.50
251.3885, 41017.66
251.8706, 41153.92
252.3527, 41251.60
252.8348, 41298.71
253.3170, 41314.71
253.7991, 41332.59
254.2812, 41345.72
254.7633, 41373.28
255.2454, 41429.23
255.7275, 41528.54
256.2097, 41597.42
256.6918, 41625.94
257.1739, 41630.16
257.6560, 41637.47
258.1381, 41643.81
258.6202, 41661.93
259.1024, 41701.82
259.5845, 41772.89
260.0666, 41822.79
260.5487, 41840.55
261.0308, 41845.38
261.5129, 41875.91
261.9951, 41942.44
262.4772, 42009.34
262.9593, 42056.51
263.4414, 42073.66
263.9235, 42127.73
264.4056, 42239.62
264.8878, 42369.57
265.3699, 42447.65
265.8520, 42461.64
266.3341, 42460.29
266.8162, 42457.96
267.2983, 42452.41
267.7805, 42461.10
268.2626, 42486.70
268.7447, 42523.56
269.2268, 42566.86
269.7089, 42622.46
270.1910, 42662.79
270.6732, 42661.66
271.1553, 42608.50
271.6374, 42630.39
272.1195, 42754.19
272.6016, 42913.74
273.0837, 42989.95
273.5659, 42966.41
274.0480, 42945.56
274.5301, 42968.53
275.0122, 43036.83
275.4943, 43110.43
275.9764, 43197.05
276.4586, 43274.42
276.9407, 43291.55
277.4228, 43237.39
277.9049, 43216.91
278.3870, 43293.00
278.8691, 43459.19
279.3513, 43562.46
279.8334, 43593.13
280.3155, 43585.71
280.7976, 43576.72
281.2798, 43565.52
281.7619, 43570.03
282.2440, 43606.66
282.7261, 43669.07
283.2082, 43703.76
283.6903, 43704.67
284.1725, 43700.16
284.6546, 43723.65
285.1367, 43774.45
285.6188, 43840.38
286.1009, 43931.40
286.5830, 44035.44
287.0652, 44092.53
287.5473, 44096.11
288.0294, 44088.76
288.5115, 44124.49
288.9936, 44197.18
289.4757, 44253.97
289.9579, 44265.25
290.4400, 44251.16
290.9221, 44270.27
291.4042, 44324.34
291.8863, 44389.61
292.3684, 44445.40
292.8506, 44492.80
293.3327, 44537.59
293.8148, 44582.79
294.2969, 44626.13
294.7790, 44663.61
295.2611, 44695.38
295.7433, 44724.12
296.2254, 44752.76
296.7075, 44780.82
297.1896, 44804.88
297.6717, 44817.43
298.1538, 44831.76
298.6360, 44871.90
299.1181, 44936.35
299.6002, 45002.98
300.0823, 45063.48
300.5644, 45113.75
301.0465, 45143.29
301.5287, 45133.11
302.0108, 45121.48
302.4929, 45153.17
302.9750, 45223.84
303.4571, 45306.81
303.9392, 45418.79
304.4214, 45522.36
304.9035, 45559.99
305.3856, 45480.15
305.8677, 45390.61
306.3498, 45389.62
306.8319, 45460.02
307.3141, 45541.80
307.7962, 45603.55
308.2783, 45656.86
308.7604, 45717.20
309.2425, 45795.78
309.7246, 45860.95
310.2068, 45879.38
310.6889, 45867.02
311.1710, 45865.63
311.6531, 45910.96
312.1352, 45965.46
312.6173, 45999.95
313.0995, 46004.10
313.5816, 46003.75
314.0637, 45996.52
314.5458, 45994.08
315.0279, 46018.14
315.5100, 46107.69
315.9922, 46202.85
316.4743, 46268.93
316.9564, 46294.53
317.4385, 46321.65
317.9206, 46367.24
318.4027, 46421.93
318.8849, 46472.59
319.3670, 46511.53
319.8491, 46549.51
320.3312, 46592.88
320.8133, 46644.65
321.2954, 46686.77
321.7776, 46712.29
322.2597, 46728.13
322.7418, 46741.67
323.2239, 46740.41
323.7060, 46750.49
324.1881, 46788.70
324.6703, 46859.80
325.1524, 46902.26
325.6345, 46869.54
326.1166, 46828.55
326.5987, 46833.13
327.0808, 46927.74
327.5630, 47015.79
328.0451, 47081.40
328.5272, 47126.11
329.0093, 47186.27
329.4914, 47293.30
329.9735, 47386.02
330.4557, 47419.67
330.9378, 47343.00
331.4199, 47295.76
331.9020, 47287.29
332.3841, 47316.13
332.8662, 47383.25
333.3484, 47523.13
333.8305, 47648.05
334.3126, 47701.54
334.7947, 47648.86
335.2768, 47631.93
335.7589, 47667.75
336.2411, 47737.66
336.7232, 47795.77
337.2053, 47837.73
337.6874, 47879.38
338.1695, 47929.63
338.6516, 47989.40
339.1338, 48049.14
339.6159, 48113.41
340.0980, 48169.29
340.5801, 48181.64
341.0622, 48143.82
341.5443, 48126.06
342.0265, 48173.00
342.5086, 48274.26
342.9907, 48332.07
343.4728, 48340.04
343.9549, 48327.71
344.4370, 48322.27
344.9192, 48324.71
345.4013, 48346.69
345.8834, 48405.28
346.3655, 48482.61
346.8476, 48523.33
347.3297, 48526.14
347.8119, 48526.14
348.2940, 48560.69
348.7761, 48619.43
349.2582, 48671.29
349.7403, 48711.08
350.2225, 48737.54
350.7046, 48730.64
351.1867, 48697.47
351.6688, 48693.25
352.1509, 48789.05
352.6331, 48931.15
353.1152, 49037.12
353.5973, 49078.84
354.0794, 49098.76
354.5615, 49140.46
355.0436, 49192.77
355.5258, 49221.73
356.0079, 49175.73
356.4900, 49116.47
356.9721, 49100.68
357.4542, 49146.15
357.9363, 49204.28
358.4185, 49248.33
358.9006, 49286.55
359.3827, 49333.19
359.8648, 49412.36
360.3469, 49486.68
360.8290, 49528.57
361.3112, 49529.20
361.7933, 49547.09
362.2754, 49631.89
362.7575, 49732.09
363.2396, 49791.86
363.7217, 49755.69
364.2039, 49720.04
364.6860, 49703.06
365.1681, 49705.58
365.6502, 49734.78
366.1323, 49814.80
366.6144, 49907.66
367.0966, 49987.64
367.5787, 50059.66
368.0608, 50110.30
368.5429, 50126.47
369.0250, 50116.71
369.5071, 50125.31
369.9893, 50166.83
370.4714, 50209.61
370.9535, 50235.20
371.4356, 50222.51
371.9177, 50242.59
372.3998, 50312.75
372.8820, 50408.04
373.3641, 50470.03
373.8462, 50487.15
374.3283, 50500.68
374.8104, 50525.35
375.2925, 50561.88
375.7747, 50605.38
376.2568, 50658.95
376.7389, 50714.14
377.2210, 50757.34
377.7031, 50787.65
378.1852, 50820.43
378.6674, 50866.82
379.1495, 50919.21
379.6316, 50932.21
380.1137, 50899.32
380.5958, 50884.70
381.0779, 50979.64
381.5601, 51157.27
382.0422, 51271.18
382.5243, 51266.20
383.0064, 51214.23
383.4885, 51244.74
383.9706, 51346.99
384.4528, 51439.77
384.9349, 51463.88
385.4170, 51443.95
385.8991, 51415.55
386.3812, 51377.09
386.8633, 51352.25
387.3455, 51369.64
387.8276, 51417.66
388.3097, 51470.21
388.7918, 51512.66
389.2739, 51554.91
389.7560, 51607.02
390.2382, 51670.77
390.7203, 51732.21
391.2024, 51777.84
391.6845, 51818.85
392.1666, 51868.74
392.6487, 51957.82
393.1309, 52032.02
393.6130, 52063.18
394.0951, 52054.57
394.5772, 52044.79
395.0593, 52026.11
395.5414, 52020.46
396.0236, 52041.91
396.5057, 52121.61
396.9878, 52193.97
397.4699, 52262.77
397.9520, 52320.94
398.4341, 52345.10
398.9163, 52292.18
399.3984, 52249.89
399.8805, 52253.04
400.3626, 52321.02
400.8447, 52376.11
401.3268, 52409.38
401.8090, 52436.30
402.2911, 52483.31
402.7732, 52563.48
403.2553, 52627.77
403.7374, 52658.40
404.2195, 52657.64
404.7017, 52666.53
405.1838, 52686.05
405.6659, 52712.87
406.1480, 52747.13
406.6301, 52789.17
407.1122, 52824.16
407.5944, 52846.56
408.0765, 52863.48
408.5586, 52888.06
409.0407, 52920.43
409.5228, 52966.18
410.0049, 53043.02
410.4871, 53135.90
410.9692, 53200.09
411.4513, 53226.91
411.9334, 53242.27
412.4155, 53272.60
412.8976, 53315.76
413.3798, 53363.99
413.8619, 53434.90
414.3440, 53497.71
414.8261, 53506.29
415.3082, 53460.32
415.7903, 53428.71
416.2725, 53474.81
416.7546, 53553.16
417.2367, 53612.71
417.7188, 53610.58
418.2009, 53614.65
418.6830, 53668.13
419.1652, 53756.79
419.6473, 53826.41
420.1294, 53832.19
420.6115, 53834.39
421.0937, 53868.43
421.5758, 53955.88
422.0579, 54037.27
422.5400, 54119.74
423.0221, 54188.78
423.5042, 54221.31
423.9864, 54167.97
424.4685, 54132.48
424.9506, 54139.10
425.4327, 54190.18
425.9148, 54255.72
426.3969, 54351.74
426.8791, 54443.94
427.3612, 54497.41
427.8433, 54496.69
428.3254, 54506.72
428.8075, 54541.75
429.2896, 54591.45
429.7718, 54617.92
430.2539, 54617.55
430.7360, 54613.60
431.2181, 54617.13
431.7002, 54628.21
432.1823, 54645.10
432.6645, 54665.13
433.1466, 54699.91
433.6287, 54778.89
434.1108, 54891.99
434.5929, 54989.70
435.0750, 55051.88
435.5572, 55084.82
436.0393, 55092.77
436.5214, 55076.61
437.0035, 55055.02
437.4856, 55027.64
437.9677, 55008.43
438.4499, 55018.50
438.9320, 55070.75
439.4141, 55140.64
439.8962, 55225.95
440.3783, 55316.43
440.8604, 55388.14
441.3426, 55411.52
441.8247, 55426.51
442.3068, 55456.73
442.7889, 55508.50
443.2710, 55557.54
443.7531, 55598.05
444.2353, 55632.20
444.7174, 55663.12
445.1995, 55690.10
445.6816, 55714.55
446.1637, 55725.33
446.6458, 55726.39
447.1280, 55766.88
447.6101, 55886.73
448.0922, 56002.27
448.5743, 56063.05
449.0564, 56044.00
449.5385, 56037.25
450.0207, 56044.00
450.5028, 56065.04
450.9849, 56109.05
451.4670, 56182.64
451.9491, 56243.31
452.4312, 56271.30
452.9134, 56270.52
453.3955, 56272.56
453.8776, 56277.93
454.3597, 56282.32
454.8418, 56265.09
455.3239, 56238.73
455.8061, 56260.16
456.2882, 56357.42
456.7703, 56484.80
457.2524, 56592.35
457.7345, 56677.78
458.2166, 56733.55
458.6988, 56735.46
459.1809, 56714.43
459.6630, 56698.98
460.1451, 56690.57
460.6272, 56698.19
461.1093, 56739.17
461.5915, 56795.85
462.0736, 56845.55
462.5557, 56883.82
463.0378, 56910.93
463.5199, 56922.81
464.0020, 56921.21
464.4842, 56919.13
464.9663, 56890.52
465.4484, 56883.49
465.9305, 56926.98
466.4126, 57071.55
466.8947, 57179.37
467.3769, 57229.05
467.8590, 57251.10
468.3411, 57300.74
468.8232, 57407.32
469.3053, 57480.18
469.7874, 57480.12
470.2696, 57413.54
470.7517, 57408.88
471.2338, 57484.29
471.7159, 57565.67
472.1980, 57572.88
472.6801, 57508.63
473.1623, 57493.38
473.6444, 57553.30
474.1265, 57650.83
474.6086, 57736.25
475.0907, 57807.39
475.5728, 57850.25
476.0550, 57828.91
476.5371, 57784.42
477.0192, 57783.03
477.5013, 57827.02
477.9834, 57894.45
478.4655, 57992.30
478.9477, 58096.34
479.4298, 58173.69
479.9119, 58210.65
480.3940, 58225.04
480.8761, 58207.85
481.3582, 58172.70
481.8404, 58159.14
482.3225, 58195.10
482.8046, 58243.21
483.2867, 58285.25
483.7688, 58314.02
484.2509, 58356.39
484.7331, 58440.52
485.2152, 58525.63
485.6973, 58573.21
486.1794, 58556.41
486.6615, 58547.85
487.1436, 58558.38
487.6258, 58584.89
488.1079, 58610.61
488.5900, 58630.14
489.0721, 58663.66
489.5542, 58735.86
490.0363, 58847.78
490.5185, 58908.88
491.0006, 58906.68
491.4827, 58885.80
491.9648, 58897.67
492.4470, 58939.94
492.9291, 59003.49
493.4112, 59102.77
493.8933, 59205.18
494.3754, 59250.19
494.8575, 59245.53
495.3397, 59237.02
495.8218, 59246.83
496.3039, 59272.65
496.7860, 59315.71
497.2681, 59382.18
497.7502, 59443.98
498.2324, 59487.41
498.7145, 59517.24
499.1966, 59540.75
499.6787, 59564.79
500.1608, 59577.62
500.6429, 59562.23
501.1251, 59522.27
501.6072, 59514.98
502.0893, 59569.58
502.5714, 59635.12
503.0535, 59688.25
503.5356, 59722.79
504.0178, 59758.79
504.4999, 59794.21
504.9820, 59832.68
505.4641, 59885.48
505.9462, 59958.44
506.4283, 60013.86
506.9105, 60035.96
507.3926, 60032.96
507.8747, 60032.08
508.3568, 60032.69
508.8389, 60047.79
509.3210, 60099.21
509.8032, 60172.75
510.2853, 60226.70
510.7674, 60252.02
511.2495, 60274.20
511.7316, 60337.00
512.2137, 60415.27
512.6959, 60457.20
513.1780, 60379.99
513.6601, 60310.73
514.1422, 60348.20
514.6243, 60478.21
515.1064, 60598.38
515.5886, 60684.24
516.0707, 60737.18
516.5528, 60752.49
517.0349, 60704.31
517.5170, 60671.99
517.9991, 60657.97
518.4813, 60665.97
518.9634, 60703.89
519.4455, 60790.02
519.9276, 60876.54
520.4097, 60965.85
520.8918, 61049.63
521.3740, 61069.12
521.8561, 61002.88
522.3382, 60943.39
522.8203, 60956.08
523.3024, 61036.78
523.7845, 61120.23
524.2667, 61206.68
524.7488, 61282.96
525.2309, 61332.44
525.7130, 61359.77
526.1951, 61378.79
526.6772, 61381.06
527.1594, 61390.51
527.6415, 61454.83
528.1236, 61558.11
528.6057, 61631.51
529.0878, 61603.52
529.5699, 61550.98
530.0521, 61533.88
530.5342, 61567.86
531.0163, 61600.45
531.4984, 61598.15
531.9805, 61593.35
532.4626, 61620.45
532.9448, 61734.02
533.4269, 61818.90
533.9090, 61843.14
534.3911, 61827.27
534.8732, 61854.67
535.3553, 61954.53
535.8375, 62043.27
536.3196, 62072.31
536.8017, 62036.94
537.2838, 62063.90
537.7659, 62173.86
538.2480, 62278.71
538.7302, 62252.66
539.2123, 62119.91
539.6944, 62053.06
540.1765, 62101.93
540.6586, 62209.78
541.1407, 62334.58
541.6229, 62460.05
542.1050, 62530.32
542.5871, 62448.76
543.0692, 62342.27
543.5513, 62339.84
544.0334, 62447.32
544.5156, 62543.51
544.9977, 62566.72
545.4798, 62558.20
545.9619, 62546.80
546.4440, 62497.58
546.9261, 62505.88
547.4083, 62654.59
547.8904, 62855.41
548.3725, 62941.04
548.8546, 62819.00
549.3367, 62736.40
549.8188, 62769.75
550.3010, 62905.80
550.7831, 62984.75
551.2652, 62993.73
551.7473, 62988.56
552.2294, 63010.52
552.7115, 63056.24
553.1937, 63089.07
553.6758, 63103.63
554.1579, 63115.64
554.6400, 63148.99
555.1221, 63196.18
555.6042, 63233.75
556.0864, 63234.31
556.5685, 63241.50
557.0506, 63315.68
557.5327, 63437.34
558.0148, 63532.64
558.4969, 63554.35
558.9791, 63547.16
559.4612, 63530.14
559.9433, 63499.48
560.4254, 63490.57
560.9075, 63506.38
561.3896, 63549.41
561.8718, 63624.72
562.3539, 63783.29
562.8360, 63885.32
563.3181, 63902.55
563.8002, 63864.88
564.2823, 63837.38
564.7645, 63816.88
565.2466, 63823.25
565.7287, 63878.54
566.2108, 63968.19
566.6929, 64013.43
567.1750, 64012.22
567.6572, 64004.87
568.1393, 64017.82
568.6214, 64050.00
569.1035, 64104.86
569.5856, 64190.00
570.0677, 64270.63
570.5499, 64329.37
571.0320, 64363.00
571.5141, 64367.14
571.9962, 64273.09
572.4783, 64215.93
572.9604, 64291.30
573.4426, 64466.30
573.9247, 64571.09
574.4068, 64499.96
574.8889, 64424.11
575.3710, 64409.68
575.8531, 64468.63
576.3353, 64526.24
576.8174, 64579.88
577.2995, 64635.30
577.7816, 64697.86
578.2637, 64767.20
578.7458, 64850.83
579.2280, 64961.05
579.7101, 65065.40
580.1922, 65098.63
580.6743, 65069.73
581.1564, 65029.44
581.6385, 64973.05
582.1207, 64933.57
582.6028, 64982.75
583.0849, 65106.46
583.5670, 65197.58
584.0491, 65146.15
584.5313, 65066.61
585.0134, 65054.08
585.4955, 65146.49
585.9776, 65228.18
586.4597, 65251.63
586.9418, 65256.81
587.4240, 65289.89
587.9061, 65383.81
588.3882, 65457.28
588.8703, 65503.22
589.3524, 65522.73
589.8345, 65503.49
590.3167, 65423.05
590.7988, 65392.63
591.2809, 65490.70
591.7630, 65683.04
592.2451, 65777.08
592.7272, 65769.28
593.2094, 65749.73
593.6915, 65809.57
594.1736, 65907.70
594.6557, 65956.81
595.1378, 65929.08
595.6199, 65907.35
596.1021, 65991.58
596.5842, 66110.86
597.0663, 66164.24
597.5485, 65997.89
598.0306, 65886.59
598.5127, 65966.79
598.9948, 66187.98
599.4769, 66328.22
599.9590, 66340.84
600.4412, 66312.46
600.9233, 66248.23
601.4054, 66139.51
601.8875, 66139.03
602.3696, 66281.00
602.8517, 66447.52
603.3339, 66536.31
603.8160, 66553.30
604.2981, 66558.31
604.7802, 66554.65
605.2623, 66551.81
605.7444, 66558.86
606.2266, 66576.45
606.7087, 66606.46
607.1908, 66661.73
607.6729, 66717.45
608.1550, 66750.96
608.6371, 66768.18
609.1193, 66789.51
609.6014, 66833.96
610.0835, 66874.90
610.5656, 66890.58
611.0477, 66872.54
611.5298, 66890.04
612.0120, 66984.33
612.4941, 67075.36
612.9762, 67102.55
613.4583, 67039.34
613.9404, 67007.70
614.4225, 67014.56
614.9047, 67050.82
615.3868, 67113.07
615.8689, 67199.37
616.3510, 67279.19
616.8331, 67350.70
617.3152, 67401.94
617.7974, 67396.41
618.2795, 67349.49
618.7616, 67320.57
619.2437, 67346.48
619.7258, 67399.71
620.2079, 67466.84
620.6901, 67546.42
621.1722, 67622.30
621.6543, 67700.33
622.1364, 67765.00
622.6185, 67803.66
623.1006, 67804.18
623.5828, 67804.72
624.0649, 67799.86
624.5470, 67800.02
625.0291, 67817.33
625.5112, 67852.61
625.9933, 67905.97
626.4755, 67989.30
626.9576, 68073.87
627.4397, 68086.73
627.9218, 68036.88
628.4039, 67992.94
628.8860, 67976.28
629.3682, 67991.61
629.8503, 68065.25
630.3324, 68188.23
630.8145, 68292.86
631.2966, 68315.95
631.7787, 68321.97
632.2609, 68366.10
632.7430, 68476.66
633.2251, 68540.62
633.7072, 68496.34
634.1893, 68420.13
634.6714, 68371.67
635.1536, 68347.63
635.6357, 68363.47
636.1178, 68436.34
636.5999, 68532.52
637.0820, 68586.50
637.5641, 68596.20
638.0463, 68607.45
638.5284, 68634.35
639.0105, 68672.70
639.4926, 68721.08
639.9747, 68776.81
640.4568, 68822.98
640.9390, 68830.45
641.4211, 68836.63
641.9032, 68894.62
642.3853, 69007.63
642.8674, 69077.16
643.3495, 68998.23
643.8317, 68905.84
644.3138, 68895.20
644.7959, 69023.09
645.2780, 69149.04
645.7601, 69289.45
646.2422, 69413.23
646.7244, 69478.98
647.2065, 69475.44
647.6886, 69470.36
648.1707, 69478.76
648.6528, 69486.78
649.1349, 69453.06
649.6171, 69385.82
650.0992, 69341.98
650.5813, 69357.59
651.0634, 69405.19
651.5455, 69456.55
652.0276, 69511.73
652.5098, 69568.66
652.9919, 69648.52
653.4740, 69712.64
653.9561, 69727.00
654.4382, 69676.70
654.9203, 69648.93
655.4025, 69662.58
655.8846, 69695.17
656.3667, 69735.16
