##NAMES=Sepiolite
##RRUFFID=R070311
##IDEAL CHEMISTRY=Mg_4_Si_6_O_15_(OH)_2_&#183;6H_2_O
##LOCALITY=Miller Quartz, near Santa Cruz, Santa Cruz County, California, USA
##OWNER=RRUFF
##SOURCE=James Shigley
##DESCRIPTION=Tan colored compact fibrous
##STATUS=The identification of this mineral has been made only by X-ray diffraction.
##URL=rruff.info/R070311
193.8190, 14425.85
194.3011, 14414.72
194.7832, 14449.20
195.2654, 14509.64
195.7475, 14554.25
196.2296, 14578.23
196.7117, 14594.33
197.1938, 14588.58
197.6759, 14585.37
198.1581, 14613.61
198.6402, 14681.95
199.1223, 14762.26
199.6044, 14797.78
200.0865, 14753.39
200.5686, 14734.22
201.0508, 14767.78
201.5329, 14814.04
202.0150, 14842.33
202.4971, 14844.34
202.9792, 14832.66
203.4613, 14829.55
203.9435, 14848.00
204.4256, 14844.51
204.9077, 14786.27
205.3898, 14729.97
205.8719, 14725.07
206.3540, 14776.26
206.8362, 14839.11
207.3183, 14847.66
207.8004, 14769.53
208.2825, 14719.32
208.7646, 14708.90
209.2467, 14713.92
209.7289, 14724.39
210.2110, 14737.25
210.6931, 14751.89
211.1752, 14768.85
211.6573, 14790.75
212.1395, 14804.56
212.6216, 14806.30
213.1037, 14804.01
213.5858, 14799.63
214.0679, 14794.33
214.5500, 14789.41
215.0322, 14784.75
215.5143, 14778.64
215.9964, 14784.87
216.4785, 14827.27
216.9606, 14859.84
217.4427, 14853.55
217.9249, 14819.83
218.4070, 14793.68
218.8891, 14806.75
219.3712, 14860.46
219.8533, 14902.25
220.3354, 14926.08
220.8176, 14942.97
221.2997, 14950.98
221.7818, 14954.17
222.2639, 14960.28
222.7460, 14975.91
223.2281, 14999.37
223.7103, 15010.88
224.1924, 15000.43
224.6745, 14987.85
225.1566, 14975.02
225.6387, 14963.10
226.1208, 14953.80
226.6030, 14948.57
227.0851, 14945.79
227.5672, 14938.10
228.0493, 14916.14
228.5314, 14902.29
229.0135, 14904.55
229.4957, 14914.82
229.9778, 14924.03
230.4599, 14928.08
230.9420, 14929.11
231.4241, 14932.00
231.9062, 14935.07
232.3884, 14943.54
232.8705, 14963.49
233.3526, 14985.29
233.8347, 15002.70
234.3168, 15013.27
234.7989, 15015.10
235.2811, 15000.57
235.7632, 14953.02
236.2453, 14929.68
236.7274, 14949.06
237.2095, 14981.19
237.6916, 15011.33
238.1738, 15034.59
238.6559, 15048.19
239.1380, 15043.24
239.6201, 15009.07
240.1022, 14996.37
240.5843, 15031.45
241.0665, 15068.24
241.5486, 15089.54
242.0307, 15092.20
242.5128, 15077.29
242.9949, 15033.58
243.4770, 14954.87
243.9592, 14922.89
244.4413, 14986.97
244.9234, 15053.92
245.4055, 15098.73
245.8876, 15118.82
246.3697, 15113.99
246.8519, 15074.51
247.3340, 15006.67
247.8161, 14971.01
248.2982, 14992.51
248.7803, 15014.39
249.2624, 15015.78
249.7446, 15004.49
250.2267, 14994.14
250.7088, 14992.94
251.1909, 14996.37
251.6730, 14988.36
252.1551, 14955.83
252.6373, 14939.31
253.1194, 14969.26
253.6015, 15012.95
254.0836, 15032.00
254.5657, 15009.09
255.0478, 14970.26
255.5300, 14958.24
256.0121, 14980.02
256.4942, 15002.34
256.9763, 15020.93
257.4584, 15033.40
257.9406, 15031.80
258.4227, 15013.70
258.9048, 15001.40
259.3869, 15033.26
259.8690, 15112.96
260.3511, 15148.51
260.8333, 15088.59
261.3154, 15007.36
261.7975, 14951.40
262.2796, 14923.51
262.7617, 14916.69
263.2438, 14937.74
263.7260, 14980.26
264.2081, 15005.20
264.6902, 15001.34
265.1723, 14990.02
265.6544, 14986.36
266.1365, 14988.56
266.6187, 14990.94
267.1008, 14989.89
267.5829, 14987.39
268.0650, 14989.33
268.5471, 14998.46
269.0292, 15003.52
269.5114, 14992.13
269.9935, 14971.68
270.4756, 14954.18
270.9577, 14943.81
271.4398, 14936.76
271.9219, 14926.30
272.4041, 14912.09
272.8862, 14907.75
273.3683, 14930.47
273.8504, 14962.26
274.3325, 14967.67
274.8146, 14931.92
275.2968, 14893.63
275.7789, 14878.64
276.2610, 14882.94
276.7431, 14889.99
277.2252, 14893.82
277.7073, 14898.25
278.1895, 14910.52
278.6716, 14932.01
279.1537, 14952.71
279.6358, 14976.53
280.1179, 14995.50
280.6000, 14990.50
281.0822, 14954.31
281.5643, 14912.52
282.0464, 14895.68
282.5285, 14905.53
283.0106, 14919.03
283.4927, 14939.74
283.9749, 14959.21
284.4570, 14969.59
284.9391, 14970.44
285.4212, 14965.78
285.9033, 14956.66
286.3854, 14943.65
286.8676, 14941.24
287.3497, 14964.17
287.8318, 14982.47
288.3139, 14979.15
288.7960, 14959.16
289.2781, 14936.58
289.7603, 14919.02
290.2424, 14905.12
290.7245, 14889.60
291.2066, 14860.97
291.6887, 14844.81
292.1708, 14862.47
292.6530, 14888.52
293.1351, 14887.07
293.6172, 14846.03
294.0993, 14787.39
294.5814, 14749.80
295.0635, 14741.32
295.5457, 14741.29
296.0278, 14755.57
296.5099, 14773.38
296.9920, 14789.49
297.4741, 14802.01
297.9562, 14808.85
298.4384, 14807.04
298.9205, 14795.02
299.4026, 14785.19
299.8847, 14779.81
300.3668, 14774.31
300.8489, 14765.01
301.3311, 14754.35
301.8131, 14747.96
302.2953, 14750.09
302.7774, 14758.82
303.2595, 14764.28
303.7416, 14764.09
304.2237, 14763.95
304.7058, 14769.00
305.1880, 14773.03
305.6701, 14764.72
306.1522, 14739.15
306.6343, 14714.28
307.1164, 14724.73
307.5985, 14782.98
308.0807, 14829.89
308.5628, 14852.36
309.0449, 14861.69
309.5270, 14862.50
310.0091, 14855.53
310.4912, 14840.22
310.9734, 14810.66
311.4555, 14768.84
311.9376, 14737.82
312.4197, 14722.05
312.9018, 14714.00
313.3839, 14714.62
313.8661, 14718.95
314.3482, 14713.48
314.8303, 14681.74
315.3124, 14641.03
315.7945, 14624.96
316.2766, 14637.64
316.7588, 14651.06
317.2409, 14651.28
317.7230, 14642.15
318.2051, 14627.94
318.6872, 14600.75
319.1693, 14583.43
319.6515, 14607.36
320.1336, 14660.58
320.6157, 14686.95
321.0978, 14660.76
321.5799, 14609.94
322.0620, 14578.31
322.5442, 14567.99
323.0263, 14557.88
323.5084, 14530.79
323.9905, 14505.29
324.4726, 14512.43
324.9547, 14557.25
325.4369, 14606.08
325.9190, 14627.95
326.4011, 14619.73
326.8832, 14603.75
327.3653, 14569.40
327.8474, 14537.22
328.3296, 14521.04
328.8117, 14517.09
329.2938, 14512.04
329.7759, 14497.31
330.2580, 14476.62
330.7401, 14467.36
331.2223, 14479.12
331.7044, 14490.48
332.1865, 14506.14
332.6686, 14517.23
333.1507, 14508.75
333.6328, 14477.89
334.1150, 14443.68
334.5971, 14437.14
335.0792, 14475.93
335.5613, 14494.32
336.0434, 14474.46
336.5255, 14452.50
337.0077, 14451.26
337.4898, 14465.78
337.9719, 14474.63
338.4540, 14459.73
338.9361, 14423.81
339.4182, 14390.81
339.9004, 14358.78
340.3825, 14333.57
340.8646, 14314.14
341.3467, 14302.33
341.8288, 14303.19
342.3109, 14320.57
342.7931, 14341.56
343.2752, 14344.22
343.7573, 14325.16
344.2394, 14312.18
344.7215, 14318.84
345.2036, 14328.35
345.6858, 14328.71
346.1679, 14319.19
346.6500, 14302.52
347.1321, 14272.14
347.6142, 14236.04
348.0963, 14219.77
348.5785, 14231.63
349.0606, 14245.02
349.5427, 14231.70
350.0248, 14202.18
350.5069, 14188.64
350.9890, 14214.70
351.4712, 14244.47
351.9533, 14245.74
352.4354, 14223.17
352.9175, 14200.06
353.3996, 14184.32
353.8817, 14178.29
354.3639, 14193.64
354.8460, 14251.17
355.3281, 14282.81
355.8102, 14249.25
356.2923, 14192.70
356.7744, 14164.22
357.2566, 14174.11
357.7387, 14200.23
358.2208, 14220.69
358.7029, 14238.25
359.1850, 14231.69
359.6671, 14177.54
360.1493, 14126.36
360.6314, 14101.35
361.1135, 14097.08
361.5956, 14100.45
362.0777, 14104.96
362.5598, 14107.16
363.0420, 14092.76
363.5241, 14041.88
364.0062, 14006.71
364.4883, 13996.21
364.9704, 14000.12
365.4525, 14016.09
365.9347, 14041.08
366.4168, 14061.36
366.8989, 14058.39
367.3810, 14030.52
367.8631, 14006.02
368.3452, 13981.61
368.8274, 13966.61
369.3095, 13965.38
369.7916, 13976.12
370.2737, 13996.42
370.7558, 14039.07
371.2379, 14079.21
371.7201, 14061.67
372.2022, 13978.62
372.6843, 13914.63
373.1664, 13917.37
373.6485, 13953.18
374.1306, 13967.98
374.6128, 13954.13
375.0949, 13941.22
375.5770, 13952.81
376.0591, 13974.79
376.5412, 13974.85
377.0233, 13944.18
377.5055, 13909.52
377.9876, 13901.11
378.4697, 13922.64
378.9518, 13926.57
379.4339, 13895.92
379.9160, 13862.33
380.3982, 13840.36
380.8803, 13830.85
381.3624, 13836.30
381.8445, 13860.20
382.3266, 13892.40
382.8087, 13902.18
383.2909, 13871.97
383.7730, 13840.28
384.2551, 13792.04
384.7372, 13753.02
385.2193, 13755.09
385.7014, 13796.65
386.1836, 13838.15
386.6657, 13833.29
387.1478, 13778.46
387.6299, 13748.64
388.1120, 13772.87
388.5941, 13788.95
389.0763, 13767.25
389.5584, 13726.65
390.0405, 13698.87
390.5226, 13699.56
391.0047, 13711.64
391.4868, 13703.54
391.9690, 13671.55
392.4511, 13656.02
392.9332, 13678.68
393.4153, 13712.45
393.8974, 13735.15
394.3795, 13746.26
394.8617, 13743.68
395.3438, 13715.37
395.8259, 13676.46
396.3080, 13654.19
396.7901, 13651.74
397.2722, 13650.41
397.7544, 13635.17
398.2365, 13610.19
398.7186, 13597.26
399.2007, 13603.85
399.6828, 13613.88
400.1649, 13628.88
400.6471, 13641.47
401.1292, 13634.63
401.6113, 13602.55
402.0934, 13565.44
402.5755, 13554.85
403.0576, 13586.35
403.5398, 13596.74
404.0219, 13571.89
404.5040, 13542.24
404.9861, 13519.93
405.4682, 13505.97
405.9503, 13499.75
406.4325, 13502.17
406.9146, 13509.16
407.3967, 13505.26
407.8788, 13483.55
408.3609, 13465.17
408.8430, 13456.42
409.3252, 13450.76
409.8073, 13444.37
410.2894, 13436.28
410.7715, 13425.04
411.2536, 13404.80
411.7357, 13378.89
412.2179, 13367.43
412.7000, 13377.61
413.1821, 13388.08
413.6642, 13375.55
414.1463, 13353.33
414.6284, 13350.50
415.1106, 13391.25
415.5927, 13429.77
416.0748, 13427.12
416.5569, 13394.25
417.0390, 13363.71
417.5211, 13345.75
418.0033, 13337.53
418.4854, 13337.46
418.9675, 13351.88
419.4496, 13351.40
419.9317, 13316.83
420.4138, 13282.02
420.8960, 13274.33
421.3781, 13287.75
421.8602, 13297.36
422.3423, 13286.50
422.8244, 13260.51
423.3065, 13242.58
423.7887, 13236.82
424.2708, 13233.23
424.7529, 13232.77
425.2350, 13232.48
425.7171, 13232.20
426.1992, 13230.76
426.6814, 13223.23
427.1635, 13199.73
427.6456, 13162.37
428.1277, 13139.66
428.6098, 13137.16
429.0919, 13138.85
429.5741, 13140.62
430.0562, 13140.10
430.5383, 13132.04
431.0204, 13111.09
431.5025, 13091.24
431.9846, 13083.44
432.4668, 13086.23
432.9489, 13098.38
433.4310, 13123.78
433.9131, 13143.86
434.3952, 13132.43
434.8773, 13085.45
435.3595, 13049.32
435.8416, 13034.63
436.3237, 13024.18
436.8058, 13001.17
437.2879, 12973.53
437.7701, 12967.40
438.2522, 12998.29
438.7343, 13044.48
439.2164, 13047.13
439.6985, 12956.62
440.1806, 12911.88
440.6628, 12946.13
441.1449, 12995.65
441.6270, 13025.71
442.1091, 13032.75
442.5912, 13026.08
443.0733, 13011.34
443.5555, 12988.79
444.0376, 12954.89
444.5197, 12899.22
445.0018, 12861.58
445.4839, 12875.84
445.9660, 12906.21
446.4482, 12917.78
446.9303, 12904.62
447.4124, 12885.81
447.8945, 12872.18
448.3766, 12861.29
448.8587, 12845.92
449.3409, 12824.36
449.8230, 12808.23
450.3051, 12807.37
450.7872, 12820.85
451.2693, 12834.81
451.7514, 12861.76
452.2336, 12874.80
452.7157, 12853.48
453.1978, 12817.07
453.6799, 12794.01
454.1620, 12791.95
454.6441, 12795.76
455.1263, 12785.30
455.6084, 12757.26
456.0905, 12733.85
456.5726, 12721.62
457.0547, 12707.63
457.5368, 12681.40
458.0190, 12652.41
458.5011, 12637.25
458.9832, 12644.41
459.4653, 12660.57
459.9474, 12666.48
460.4295, 12661.93
460.9117, 12660.12
461.3938, 12666.72
461.8759, 12672.28
462.3580, 12667.70
462.8401, 12654.53
463.3222, 12640.18
463.8044, 12621.22
464.2865, 12606.11
464.7686, 12606.71
465.2507, 12618.91
465.7328, 12626.75
466.2149, 12623.49
466.6971, 12611.50
467.1792, 12594.46
467.6613, 12563.73
468.1434, 12547.11
468.6255, 12559.89
469.1076, 12573.22
469.5898, 12566.98
470.0719, 12545.16
470.5540, 12522.52
471.0361, 12507.40
471.5182, 12500.19
472.0003, 12506.48
472.4825, 12539.33
472.9646, 12549.74
473.4467, 12498.17
473.9288, 12441.47
474.4109, 12422.54
474.8930, 12439.45
475.3752, 12450.00
475.8573, 12419.10
476.3394, 12370.82
476.8215, 12344.71
477.3036, 12341.87
477.7857, 12355.73
478.2679, 12393.36
478.7500, 12437.17
479.2321, 12439.88
479.7142, 12382.51
480.1963, 12338.54
480.6784, 12328.79
481.1606, 12333.76
481.6427, 12344.75
482.1248, 12355.31
482.6069, 12346.11
483.0890, 12297.50
483.5711, 12222.67
484.0533, 12197.53
484.5354, 12269.07
485.0175, 12313.27
485.4996, 12293.80
485.9817, 12256.69
486.4638, 12233.62
486.9460, 12230.02
487.4281, 12240.62
487.9102, 12276.85
488.3923, 12323.43
488.8744, 12325.41
489.3565, 12273.48
489.8387, 12229.74
490.3208, 12234.21
490.8029, 12262.13
491.2850, 12258.93
491.7671, 12210.87
492.2492, 12172.01
492.7314, 12172.54
493.2135, 12185.30
493.6956, 12173.16
494.1777, 12136.73
494.6598, 12112.29
495.1419, 12131.49
495.6241, 12183.77
496.1062, 12200.41
496.5883, 12151.72
497.0704, 12107.38
497.5525, 12068.95
498.0346, 12040.82
498.5168, 12030.21
498.9989, 12035.63
499.4810, 12044.68
499.9631, 12049.88
500.4452, 12050.47
500.9273, 12040.36
501.4095, 12015.36
501.8916, 11997.65
502.3737, 12000.59
502.8558, 12014.52
503.3379, 12026.86
503.8200, 12040.79
504.3022, 12038.38
504.7843, 12001.58
505.2664, 11951.35
505.7485, 11906.77
506.2306, 11871.56
506.7127, 11851.59
507.1949, 11851.44
507.6770, 11868.41
508.1591, 11891.21
508.6412, 11933.93
509.1233, 11961.37
509.6054, 11972.44
510.0876, 11967.96
510.5697, 11938.71
511.0518, 11891.60
511.5339, 11852.53
512.0161, 11842.95
512.4982, 11852.90
512.9803, 11853.96
513.4624, 11843.75
513.9445, 11840.30
514.4266, 11860.72
514.9088, 11881.16
515.3909, 11864.18
515.8730, 11805.54
516.3551, 11765.07
516.8372, 11774.76
517.3193, 11800.11
517.8015, 11814.07
518.2836, 11814.83
518.7657, 11805.26
519.2478, 11786.43
519.7299, 11760.07
520.2120, 11728.74
520.6942, 11678.00
521.1763, 11650.56
521.6584, 11663.10
522.1405, 11680.41
522.6226, 11688.75
523.1047, 11686.09
523.5869, 11670.69
524.0690, 11637.77
524.5511, 11600.33
525.0332, 11577.86
525.5153, 11570.34
525.9974, 11576.95
526.4796, 11604.32
526.9617, 11634.75
527.4438, 11648.03
527.9259, 11646.28
528.4080, 11644.78
528.8901, 11653.27
529.3723, 11655.02
529.8544, 11639.33
530.3365, 11609.87
530.8186, 11565.24
531.3007, 11506.08
531.7828, 11461.48
532.2650, 11480.81
532.7471, 11583.61
533.2292, 11627.95
533.7113, 11555.08
534.1934, 11489.51
534.6755, 11477.89
535.1577, 11492.49
535.6398, 11492.05
536.1219, 11463.16
536.6040, 11433.92
537.0861, 11435.29
537.5682, 11457.55
538.0504, 11470.80
538.5325, 11471.91
539.0146, 11460.46
539.4967, 11431.24
539.9788, 11389.37
540.4609, 11360.75
540.9431, 11343.13
541.4252, 11339.63
541.9073, 11366.68
542.3894, 11397.93
542.8715, 11407.06
543.3536, 11392.93
543.8358, 11371.56
544.3179, 11355.24
544.8000, 11342.37
545.2821, 11323.70
545.7642, 11292.22
546.2463, 11274.22
546.7285, 11284.83
547.2106, 11305.62
547.6927, 11331.89
548.1748, 11360.26
548.6569, 11364.79
549.1390, 11305.27
549.6211, 11236.51
550.1032, 11228.46
550.5853, 11268.13
551.0674, 11294.66
551.5496, 11283.32
552.0317, 11250.65
552.5138, 11221.02
552.9959, 11188.89
553.4780, 11179.40
553.9601, 11222.94
554.4423, 11253.27
554.9244, 11232.38
555.4065, 11184.29
555.8886, 11147.30
556.3707, 11135.39
556.8528, 11135.86
557.3350, 11134.39
557.8171, 11131.64
558.2992, 11134.54
558.7813, 11146.43
559.2634, 11155.23
559.7455, 11150.64
560.2277, 11137.00
560.7098, 11129.09
561.1919, 11131.03
561.6740, 11131.64
562.1561, 11128.33
562.6382, 11121.44
563.1204, 11105.51
563.6025, 11084.23
564.0846, 11076.46
564.5667, 11099.22
565.0488, 11140.23
565.5309, 11149.18
566.0131, 11112.50
566.4952, 11078.08
566.9773, 11050.89
567.4594, 11031.13
567.9415, 11023.04
568.4236, 11023.86
568.9058, 11021.79
569.3879, 11010.85
569.8700, 10995.72
570.3521, 10982.12
570.8342, 10968.41
571.3163, 10943.80
571.7985, 10903.03
572.2806, 10871.03
572.7627, 10881.73
573.2448, 10941.91
573.7269, 10980.73
574.2090, 10997.50
574.6912, 10995.40
575.1733, 10956.53
575.6554, 10908.94
576.1375, 10886.18
576.6196, 10894.23
577.1017, 10907.51
577.5839, 10906.19
578.0660, 10891.52
578.5481, 10860.13
579.0302, 10807.92
579.5123, 10778.20
579.9944, 10803.04
580.4766, 10851.15
580.9587, 10858.08
581.4408, 10813.38
581.9229, 10780.34
582.4050, 10781.10
582.8871, 10783.99
583.3693, 10760.05
583.8514, 10722.49
584.3335, 10705.41
584.8156, 10724.75
585.2977, 10756.85
585.7798, 10764.00
586.2620, 10744.16
586.7441, 10721.41
587.2262, 10692.37
587.7083, 10667.65
588.1904, 10650.70
588.6725, 10642.60
589.1547, 10650.18
589.6368, 10686.33
590.1189, 10706.21
590.6010, 10672.96
591.0831, 10619.59
591.5652, 10586.88
592.0474, 10577.69
592.5295, 10577.06
593.0116, 10575.72
593.4937, 10574.43
593.9758, 10576.70
594.4579, 10588.44
594.9401, 10589.66
595.4222, 10564.68
595.9043, 10541.61
596.3864, 10536.34
596.8685, 10544.23
597.3506, 10552.18
597.8328, 10555.50
598.3149, 10557.15
598.7970, 10565.36
599.2791, 10573.55
599.7612, 10560.24
600.2433, 10521.14
600.7255, 10480.40
601.2076, 10457.22
601.6897, 10450.68
602.1718, 10453.53
602.6539, 10486.05
603.1360, 10499.73
603.6182, 10478.49
604.1003, 10447.30
604.5824, 10416.42
605.0645, 10391.92
605.5466, 10387.38
606.0287, 10420.31
606.5109, 10464.11
606.9930, 10479.01
607.4751, 10467.42
607.9572, 10444.65
608.4393, 10410.23
608.9214, 10382.38
609.4036, 10383.43
609.8857, 10413.52
610.3678, 10425.07
610.8499, 10404.49
611.3320, 10384.48
611.8141, 10371.23
612.2963, 10362.96
612.7784, 10364.15
613.2605, 10370.79
613.7426, 10363.76
614.2247, 10320.25
614.7068, 10259.80
615.1890, 10231.71
615.6711, 10237.02
616.1532, 10254.25
616.6353, 10285.07
617.1174, 10311.51
617.5995, 10309.22
618.0817, 10277.45
618.5638, 10254.82
619.0459, 10251.63
619.5280, 10247.58
620.0101, 10228.25
620.4922, 10206.95
620.9744, 10203.14
621.4565, 10218.67
621.9386, 10237.12
622.4207, 10243.55
622.9028, 10241.14
623.3849, 10245.95
623.8671, 10262.43
624.3492, 10257.50
624.8313, 10205.62
625.3134, 10145.78
625.7955, 10131.34
626.2776, 10159.23
626.7598, 10173.90
627.2419, 10157.39
627.7240, 10137.19
628.2061, 10127.10
628.6882, 10122.10
629.1703, 10112.63
629.6525, 10097.43
630.1346, 10086.07
630.6167, 10092.69
631.0988, 10110.43
631.5809, 10094.24
632.0630, 10030.24
632.5452, 9987.106
633.0273, 9995.462
633.5094, 10024.06
633.9915, 10038.25
634.4736, 10038.91
634.9557, 10042.91
635.4379, 10068.06
635.9200, 10082.05
636.4021, 10055.75
636.8842, 10010.44
637.3663, 9977.754
637.8484, 9965.906
638.3306, 9967.438
638.8127, 9979.313
639.2948, 9997.385
639.7769, 9992.771
640.2590, 9957.297
640.7411, 9928.358
641.2233, 9920.586
641.7054, 9920.036
642.1875, 9908.328
642.6696, 9887.225
643.1517, 9880.771
643.6339, 9915.857
644.1160, 9943.370
644.5981, 9929.660
645.0802, 9893.587
645.5623, 9860.362
646.0444, 9837.353
646.5266, 9825.308
647.0087, 9827.760
647.4908, 9840.194
647.9729, 9838.944
648.4550, 9818.823
648.9371, 9806.177
649.4193, 9811.255
649.9014, 9822.319
650.3835, 9833.083
650.8656, 9841.970
651.3477, 9836.054
651.8298, 9798.668
652.3120, 9762.510
652.7941, 9742.234
653.2762, 9732.502
653.7583, 9729.404
654.2404, 9730.144
654.7225, 9727.344
655.2047, 9713.989
655.6868, 9693.995
656.1689, 9679.996
656.6510, 9672.188
657.1331, 9670.433
657.6152, 9680.998
658.0974, 9688.538
658.5795, 9669.920
659.0616, 9633.759
659.5437, 9620.370
660.0258, 9663.337
660.5079, 9692.229
660.9901, 9666.971
661.4722, 9626.157
661.9543, 9613.663
662.4364, 9628.836
662.9185, 9641.431
663.4006, 9631.148
663.8828, 9606.614
664.3649, 9582.850
664.8470, 9559.522
665.3291, 9549.856
665.8112, 9561.076
666.2933, 9573.682
666.7755, 9571.310
667.2576, 9558.306
667.7397, 9554.632
668.2218, 9575.752
668.7039, 9581.136
669.1860, 9549.186
669.6682, 9510.018
670.1503, 9485.330
670.6324, 9474.433
671.1145, 9467.144
671.5966, 9457.992
672.0787, 9453.129
672.5609, 9467.505
673.0430, 9496.693
673.5251, 9506.175
674.0072, 9489.740
674.4893, 9470.615
674.9714, 9460.688
675.4536, 9458.859
675.9357, 9463.767
676.4178, 9485.604
676.8999, 9491.522
677.3820, 9472.161
677.8641, 9445.349
678.3463, 9412.551
678.8284, 9381.444
679.3105, 9364.519
679.7926, 9365.754
680.2747, 9372.231
680.7568, 9370.571
681.2390, 9365.505
681.7211, 9373.387
682.2032, 9393.417
682.6853, 9397.305
683.1674, 9369.022
683.6495, 9331.580
684.1317, 9322.807
684.6138, 9351.447
685.0959, 9362.507
685.5780, 9343.072
686.0601, 9321.386
686.5422, 9299.231
687.0244, 9281.094
687.5065, 9273.576
687.9886, 9276.376
688.4707, 9278.469
688.9528, 9276.769
689.4349, 9268.760
689.9171, 9244.605
690.3992, 9211.771
690.8813, 9193.253
691.3634, 9195.140
