##NAMES=Serandite
##RRUFFID=R040056
##IDEAL CHEMISTRY=NaMn^2+^_2_Si_3_O_8_(OH)
##LOCALITY=Mont Saint-Hilaire, Rouville County, Quebec, Canada
##OWNER=RRUFF
##SOURCE=Bob Downs
##DESCRIPTION=Pink prismatic crystals
##STATUS=The identification of this mineral has been confirmed by X-ray diffraction and chemical analysis
##URL=rruff.info/R040056
##MEASURED CHEMISTRY=Na_1.01_Mn^2+^_1.93_Ca_0.05_Si_3.00_O_8_(OH)
87.29187, 37.63128
87.77399, 44.02315
88.25610, 48.59579
88.73822, 44.70127
89.22034, 35.71324
89.70245, 28.81974
90.18457, 29.68438
90.66669, 34.31319
91.14880, 37.47815
91.63092, 38.06178
92.11304, 37.46824
92.59515, 37.41967
93.07727, 37.83898
93.55939, 37.96182
94.04150, 36.60293
94.52362, 34.29015
95.00574, 33.00877
95.48786, 33.76660
95.96998, 35.86334
96.45210, 37.25993
96.93421, 37.88469
97.41633, 38.08155
97.89845, 38.29167
98.38056, 38.52785
98.86268, 38.46682
99.34480, 37.83909
99.82691, 36.61146
100.3090, 35.51964
100.7911, 34.40920
101.2733, 33.58143
101.7554, 33.91839
102.2375, 35.93471
102.7196, 37.87539
103.2017, 38.38026
103.6838, 36.35828
104.1660, 35.92009
104.6481, 37.83628
105.1302, 41.91952
105.6123, 45.77206
106.0944, 49.19607
106.5765, 52.55725
107.0587, 56.15355
107.5408, 60.65010
108.0229, 64.55412
108.5050, 66.78259
108.9871, 65.83304
109.4692, 68.89305
109.9514, 77.23872
110.4335, 89.29645
110.9156, 102.8352
111.3977, 118.5556
111.8798, 135.2347
112.3620, 151.5868
112.8441, 162.5663
113.3262, 182.2560
113.8083, 212.8595
114.2904, 253.8887
114.7725, 302.9985
115.2547, 353.2661
115.7368, 415.0826
116.2189, 494.6595
116.7010, 624.8717
117.1831, 746.2195
117.6652, 850.0787
118.1474, 934.4406
118.6295, 967.3206
119.1116, 903.9029
119.5937, 788.8887
120.0758, 674.5021
120.5579, 566.3641
121.0401, 475.1596
121.5222, 412.3697
122.0043, 379.8451
122.4864, 362.1141
122.9685, 351.6089
123.4506, 347.7435
123.9328, 349.2103
124.4149, 357.8879
124.8970, 370.6977
125.3791, 383.6178
125.8612, 395.5844
126.3433, 408.3106
126.8255, 424.4969
127.3076, 443.6403
127.7897, 462.6578
128.2718, 478.7852
128.7539, 493.0208
129.2360, 507.7728
129.7182, 522.5894
130.2003, 539.0355
130.6824, 560.7728
131.1645, 588.0086
131.6466, 618.1916
132.1287, 652.0320
132.6109, 688.6505
133.0930, 719.0656
133.5751, 740.4518
134.0572, 753.0805
134.5393, 755.9153
135.0215, 747.1759
135.5036, 733.3880
135.9857, 723.3209
136.4678, 717.2354
136.9499, 712.8007
137.4320, 710.3589
137.9142, 710.5662
138.3963, 707.2162
138.8784, 702.6559
139.3605, 692.6016
139.8426, 664.3679
140.3247, 612.6442
140.8069, 555.3301
141.2890, 501.2000
141.7711, 446.5388
142.2532, 405.0949
142.7353, 380.3814
143.2174, 370.3982
143.6996, 360.0126
144.1817, 347.6115
144.6638, 336.5130
145.1459, 329.3765
145.6280, 328.0581
146.1101, 327.7870
146.5923, 328.5392
147.0744, 330.6365
147.5565, 330.1255
148.0386, 324.1739
148.5207, 317.0198
149.0028, 313.6381
149.4850, 314.0602
149.9671, 318.2435
150.4492, 327.0693
150.9313, 343.9740
151.4134, 357.3154
151.8955, 362.9263
152.3777, 365.5457
152.8598, 373.2431
153.3419, 392.2124
153.8240, 411.6508
154.3061, 428.0354
154.7882, 439.3591
155.2704, 449.8438
155.7525, 457.0231
156.2346, 463.2001
156.7167, 475.1757
157.1988, 497.8483
157.6809, 524.5211
158.1631, 551.4122
158.6452, 577.6143
159.1273, 604.0603
159.6094, 629.3331
160.0915, 654.0600
160.5736, 683.0656
161.0558, 723.6461
161.5379, 766.6708
162.0200, 804.4382
162.5021, 830.6010
162.9842, 853.9049
163.4663, 876.7573
163.9485, 899.2273
164.4306, 922.9549
164.9127, 944.3175
165.3948, 968.3904
165.8769, 1001.745
166.3591, 1054.230
166.8412, 1112.231
167.3233, 1168.061
167.8054, 1221.823
168.2875, 1271.225
168.7696, 1323.076
169.2518, 1369.662
169.7339, 1395.973
170.2160, 1392.655
170.6981, 1366.574
171.1802, 1321.734
171.6623, 1255.927
172.1445, 1180.432
172.6266, 1097.302
173.1087, 1010.239
173.5908, 930.8130
174.0729, 864.3805
174.5550, 810.6592
175.0372, 771.6051
175.5193, 750.4317
176.0014, 738.7934
176.4835, 728.4474
176.9656, 719.5983
177.4477, 713.5919
177.9299, 717.7270
178.4120, 725.2511
178.8941, 721.9373
179.3762, 700.1787
179.8583, 668.5162
180.3404, 638.9214
180.8226, 611.2315
181.3047, 584.2322
181.7868, 555.8301
182.2689, 527.0061
182.7510, 501.8062
183.2331, 482.0456
183.7153, 466.7557
184.1974, 453.3668
184.6795, 441.8676
185.1616, 433.5103
185.6437, 431.7057
186.1258, 435.3466
186.6080, 438.1414
187.0901, 435.6031
187.5722, 429.8724
188.0543, 429.0891
188.5364, 434.0753
189.0185, 441.2368
189.5007, 444.6797
189.9828, 444.7221
190.4649, 447.7143
190.9470, 459.3232
191.4291, 477.6560
191.9112, 491.2733
192.3934, 498.6450
192.8755, 502.9639
193.3576, 508.8529
193.8397, 516.2375
194.3218, 526.3281
194.8039, 541.0314
195.2861, 560.3315
195.7682, 578.0338
196.2503, 593.6106
196.7324, 607.5447
197.2145, 621.2439
197.6967, 635.1115
198.1788, 647.0782
198.6609, 654.5226
199.1430, 657.1464
199.6251, 662.4592
200.1072, 672.3978
200.5894, 685.1286
201.0715, 695.3326
201.5536, 703.0699
202.0357, 707.7110
202.5178, 708.1765
202.9999, 703.9947
203.4821, 698.5772
203.9642, 691.6970
204.4463, 683.9459
204.9284, 678.5526
205.4105, 675.4064
205.8926, 674.8658
206.3748, 677.7180
206.8569, 684.5333
207.3390, 692.3251
207.8211, 701.2766
208.3032, 711.1658
208.7853, 717.0816
209.2675, 717.8049
209.7496, 716.9631
210.2317, 719.1628
210.7138, 726.1078
211.1959, 730.1766
211.6780, 727.6340
212.1602, 718.2808
212.6423, 716.3158
213.1244, 724.0638
213.6065, 736.1385
214.0886, 745.6874
214.5707, 751.4910
215.0529, 757.7204
215.5350, 765.6226
216.0171, 775.3060
216.4992, 785.1167
216.9813, 794.4623
217.4634, 804.5691
217.9456, 817.1570
218.4277, 832.5302
218.9098, 849.9189
219.3919, 869.4514
219.8740, 891.8176
220.3561, 912.6262
220.8383, 930.2626
221.3204, 947.7425
221.8025, 971.4991
222.2846, 1006.981
222.7667, 1038.852
223.2488, 1061.238
223.7310, 1070.989
224.2131, 1080.186
224.6952, 1087.954
225.1773, 1095.565
225.6594, 1105.813
226.1415, 1120.318
226.6237, 1134.854
227.1058, 1147.199
227.5879, 1154.412
228.0700, 1166.731
228.5521, 1186.398
229.0343, 1210.416
229.5164, 1231.157
229.9985, 1246.965
230.4806, 1261.708
230.9627, 1276.731
231.4448, 1291.108
231.9270, 1308.372
232.4091, 1331.779
232.8912, 1357.808
233.3733, 1374.329
233.8554, 1377.647
234.3375, 1376.885
234.8197, 1377.364
235.3018, 1383.266
235.7839, 1381.299
236.2660, 1369.857
236.7481, 1350.118
237.2302, 1326.475
237.7124, 1298.072
238.1945, 1266.995
238.6766, 1234.646
239.1587, 1201.273
239.6408, 1165.643
240.1229, 1125.873
240.6051, 1083.594
241.0872, 1047.604
241.5693, 1019.054
242.0514, 995.2744
242.5335, 974.8166
243.0156, 957.5359
243.4978, 943.4957
243.9799, 933.3440
244.4620, 926.6465
244.9441, 919.9288
245.4262, 910.8406
245.9083, 904.6462
246.3905, 904.7415
246.8726, 912.4877
247.3547, 923.8990
247.8368, 940.6060
248.3189, 961.2604
248.8010, 976.2090
249.2832, 978.4086
249.7653, 984.0326
250.2474, 1005.311
250.7295, 1048.195
251.2116, 1093.184
251.6937, 1139.379
252.1759, 1186.120
252.6580, 1231.042
253.1401, 1272.408
253.6222, 1313.774
254.1043, 1357.203
254.5864, 1401.942
255.0686, 1451.187
255.5507, 1507.038
256.0328, 1568.700
256.5149, 1626.135
256.9970, 1683.260
257.4792, 1730.223
257.9613, 1757.398
258.4434, 1757.101
258.9255, 1756.414
259.4076, 1762.499
259.8897, 1772.677
260.3719, 1763.152
260.8540, 1727.148
261.3361, 1682.181
261.8182, 1641.253
262.3003, 1603.510
262.7824, 1571.453
263.2646, 1546.015
263.7467, 1526.753
264.2288, 1511.934
264.7109, 1501.736
265.1930, 1495.720
265.6751, 1494.059
266.1573, 1497.797
266.6394, 1502.778
267.1215, 1509.750
267.6036, 1517.749
268.0857, 1520.147
268.5678, 1515.249
269.0500, 1508.365
269.5321, 1506.058
270.0142, 1512.186
270.4963, 1505.025
270.9784, 1476.610
271.4605, 1432.084
271.9427, 1399.659
272.4248, 1382.177
272.9069, 1369.403
273.3890, 1353.049
273.8711, 1331.934
274.3532, 1313.030
274.8354, 1296.181
275.3175, 1282.537
275.7996, 1278.203
276.2817, 1284.699
276.7638, 1295.545
277.2459, 1306.153
277.7281, 1316.396
278.2102, 1327.948
278.6923, 1342.017
279.1744, 1357.188
279.6565, 1365.404
280.1386, 1364.273
280.6208, 1367.152
281.1029, 1386.759
281.5850, 1423.365
282.0671, 1458.181
282.5492, 1488.971
283.0313, 1515.652
283.5135, 1539.057
283.9956, 1559.692
284.4777, 1573.220
284.9598, 1572.157
285.4419, 1557.849
285.9240, 1550.094
286.4062, 1554.802
286.8883, 1564.474
287.3704, 1561.070
287.8525, 1544.218
288.3346, 1522.681
288.8167, 1502.305
289.2989, 1482.681
289.7810, 1462.848
290.2631, 1443.296
290.7452, 1422.497
291.2273, 1395.254
291.7094, 1362.135
292.1916, 1331.376
292.6737, 1309.420
293.1558, 1294.640
293.6379, 1282.514
294.1200, 1272.993
294.6021, 1264.580
295.0843, 1255.044
295.5664, 1244.588
296.0485, 1233.928
296.5306, 1224.424
297.0127, 1215.141
297.4948, 1202.945
297.9770, 1186.770
298.4591, 1169.479
298.9412, 1156.646
299.4233, 1146.492
299.9054, 1131.423
300.3875, 1103.266
300.8697, 1068.255
301.3518, 1035.387
301.8339, 1005.478
302.3160, 979.4354
302.7981, 960.9999
303.2803, 947.9114
303.7624, 934.2433
304.2445, 916.4699
304.7266, 896.4396
305.2087, 875.0518
305.6909, 852.1687
306.1730, 830.4859
306.6551, 814.7297
307.1372, 802.1816
307.6193, 787.0002
308.1014, 760.2328
308.5836, 733.3597
309.0657, 717.9157
309.5478, 715.5346
310.0299, 716.0904
310.5120, 714.8313
310.9941, 711.8134
311.4763, 707.0739
311.9584, 697.8828
312.4405, 689.0231
312.9226, 684.4958
313.4047, 684.6469
313.8868, 683.7882
314.3690, 675.9628
314.8511, 666.4566
315.3332, 661.2909
315.8153, 667.3383
316.2974, 674.2391
316.7795, 676.0459
317.2617, 672.7993
317.7438, 671.8033
318.2259, 675.8765
318.7080, 683.4008
319.1901, 692.9078
319.6722, 706.4617
320.1544, 719.5884
320.6365, 731.1393
321.1186, 741.1248
321.6007, 749.3949
322.0828, 754.1022
322.5649, 758.1068
323.0471, 763.3605
323.5292, 769.5558
324.0113, 777.6909
324.4934, 790.2820
324.9755, 805.9478
325.4576, 817.2365
325.9398, 818.2008
326.4219, 818.2360
326.9040, 822.1044
327.3861, 837.2513
327.8682, 847.4591
328.3503, 851.9394
328.8325, 851.2505
329.3146, 847.2454
329.7967, 838.3593
330.2788, 827.6998
330.7609, 816.3055
331.2430, 803.5502
331.7252, 791.4735
332.2073, 781.7503
332.6894, 772.2847
333.1715, 757.3820
333.6536, 731.5763
334.1357, 708.9222
334.6179, 696.1229
335.1000, 697.0350
335.5821, 691.3892
336.0642, 675.8958
336.5463, 656.8170
337.0284, 644.6646
337.5106, 641.7142
337.9927, 639.0393
338.4748, 634.0615
338.9569, 626.7266
339.4390, 617.6088
339.9211, 605.7424
340.4033, 594.1261
340.8854, 586.6115
341.3675, 583.2693
341.8496, 582.6338
342.3317, 585.4191
342.8138, 590.6777
343.2960, 593.1919
343.7781, 592.7189
344.2602, 590.7527
344.7423, 587.5715
345.2244, 583.4612
345.7065, 581.9337
346.1887, 583.9990
346.6708, 588.9751
347.1529, 595.8012
347.6350, 604.4164
348.1171, 613.4114
348.5992, 622.3757
349.0814, 630.8307
349.5635, 637.1084
350.0456, 640.3857
350.5277, 642.2402
351.0098, 642.8943
351.4919, 643.1909
351.9741, 647.6837
352.4562, 664.8684
352.9383, 686.4391
353.4204, 697.5123
353.9025, 693.3102
354.3846, 688.6409
354.8668, 699.3669
355.3489, 720.4566
355.8310, 739.6695
356.3131, 750.1840
356.7952, 756.4474
357.2773, 762.0149
357.7595, 767.1002
358.2416, 772.2312
358.7237, 776.8342
359.2058, 781.8859
359.6879, 788.6869
360.1700, 800.1335
360.6522, 811.4576
361.1343, 820.3080
361.6164, 826.5730
362.0985, 831.6906
362.5806, 837.7706
363.0627, 842.1961
363.5449, 842.6650
364.0270, 836.0302
364.5091, 828.0051
364.9912, 820.9709
365.4734, 814.3763
365.9555, 804.1455
366.4376, 786.8590
366.9197, 767.6658
367.4018, 749.3857
367.8839, 734.5544
368.3661, 717.7180
368.8482, 697.0487
369.3303, 674.1135
369.8124, 653.5305
370.2945, 635.8001
370.7766, 619.8859
371.2588, 605.4786
371.7409, 593.2623
372.2230, 580.3372
372.7051, 565.0449
373.1872, 550.2850
373.6693, 541.8807
374.1515, 543.2670
374.6336, 543.3625
375.1157, 537.9758
375.5978, 526.8016
376.0799, 518.4803
376.5620, 513.6320
377.0442, 510.4894
377.5263, 507.7491
378.0084, 505.7824
378.4905, 501.0878
378.9726, 491.6102
379.4547, 479.0410
379.9369, 469.5654
380.4190, 463.2786
380.9011, 459.9109
381.3832, 460.6757
381.8653, 464.8281
382.3474, 467.2758
382.8296, 466.5669
383.3117, 464.7357
383.7938, 466.2051
384.2759, 470.4527
384.7580, 473.0112
385.2401, 469.5741
385.7223, 462.8539
386.2044, 457.7074
386.6865, 454.4814
387.1686, 453.3576
387.6507, 455.6800
388.1328, 460.3161
388.6150, 464.4796
389.0971, 466.3185
389.5792, 467.4865
390.0613, 469.2481
390.5434, 471.6728
391.0255, 474.8217
391.5077, 480.4915
391.9898, 486.3620
392.4719, 489.7778
392.9540, 485.4762
393.4361, 482.6071
393.9182, 486.9582
394.4004, 497.2936
394.8825, 505.0121
395.3646, 502.9674
395.8467, 500.1928
396.3288, 502.6125
396.8109, 516.7608
397.2931, 528.2091
397.7752, 534.2531
398.2573, 536.0589
398.7394, 536.6478
399.2215, 531.3884
399.7036, 529.3646
400.1858, 534.1066
400.6679, 547.9299
401.1500, 561.2203
401.6321, 573.9479
402.1142, 586.1743
402.5963, 597.9891
403.0785, 609.5100
403.5606, 620.4209
404.0427, 630.5384
404.5248, 639.9502
405.0069, 649.0047
405.4890, 656.3376
405.9712, 666.4705
406.4533, 684.3530
406.9354, 710.8987
407.4175, 737.7085
407.8996, 764.8943
408.3817, 790.6023
408.8639, 807.6741
409.3460, 815.8896
409.8281, 824.6105
410.3102, 840.6168
410.7923, 862.3797
411.2744, 883.0604
411.7566, 901.9917
412.2387, 920.8038
412.7208, 944.8658
413.2029, 971.0997
413.6850, 989.7059
414.1671, 990.2858
414.6493, 983.3021
415.1314, 984.1017
415.6135, 992.8262
416.0956, 997.7310
416.5777, 989.1712
417.0598, 971.9282
417.5420, 951.8042
418.0241, 930.4719
418.5062, 907.1204
418.9883, 880.0450
419.4704, 850.1940
419.9525, 822.0685
420.4347, 797.5551
420.9168, 775.3933
421.3989, 754.6589
421.8810, 735.5728
422.3631, 717.6121
422.8452, 700.6901
423.3274, 685.0225
423.8095, 670.7145
424.2916, 657.3683
424.7737, 646.0549
425.2558, 637.9703
425.7379, 634.0378
426.2201, 626.1155
426.7022, 610.8458
427.1843, 594.5011
427.6664, 582.3723
428.1486, 575.0802
428.6307, 570.7704
429.1128, 571.2391
429.5949, 574.2060
430.0770, 569.0237
430.5591, 553.0356
431.0413, 537.2288
431.5234, 528.1375
432.0055, 525.8723
432.4876, 525.2994
432.9697, 526.5000
433.4518, 528.6034
433.9340, 530.9268
434.4161, 533.3347
434.8982, 534.2861
435.3803, 532.4017
435.8624, 528.8057
436.3445, 525.3541
436.8267, 522.0844
437.3088, 520.5269
437.7909, 523.0750
438.2730, 528.0807
438.7551, 532.6297
439.2372, 535.8445
439.7194, 538.4803
440.2015, 541.7546
440.6836, 545.1094
441.1657, 546.6950
441.6478, 543.5045
442.1299, 539.6324
442.6121, 537.8096
443.0942, 538.5089
443.5763, 540.8142
444.0584, 544.3846
444.5405, 549.3785
445.0226, 556.0667
445.5048, 567.9655
445.9869, 577.9659
446.4690, 583.6278
446.9511, 584.8578
447.4332, 586.5527
447.9153, 588.5367
448.3975, 591.2484
448.8796, 594.6226
449.3617, 596.3721
449.8438, 603.7060
450.3259, 619.4407
450.8080, 639.8301
451.2902, 655.2205
451.7723, 664.1053
452.2544, 672.8688
452.7365, 683.7681
453.2186, 696.9017
453.7007, 710.8753
454.1829, 725.9881
454.6650, 741.1623
455.1471, 755.2851
455.6292, 768.4424
456.1113, 779.8413
456.5934, 787.6703
457.0756, 795.3946
457.5577, 809.4473
458.0398, 829.3134
458.5219, 852.1740
459.0040, 880.7131
459.4861, 909.4943
459.9683, 930.1861
460.4504, 942.0640
460.9325, 946.0299
461.4146, 939.2040
461.8967, 925.5397
462.3788, 911.6620
462.8610, 901.0237
463.3431, 889.9485
463.8252, 876.5700
464.3073, 860.8769
464.7894, 844.0233
465.2715, 820.9540
465.7537, 800.2393
466.2358, 787.8495
466.7179, 792.9245
467.2000, 795.2026
467.6821, 790.0198
468.1642, 781.7373
468.6464, 779.7305
469.1285, 787.7702
469.6106, 796.4869
470.0927, 803.2864
470.5748, 808.0237
471.0569, 811.5302
471.5391, 812.9592
472.0212, 814.6956
472.5033, 819.1703
472.9854, 826.4927
473.4675, 834.9095
473.9496, 844.2407
474.4318, 854.2836
474.9139, 864.7980
475.3960, 875.7834
475.8781, 886.5764
476.3602, 894.8586
476.8423, 902.8462
477.3245, 917.0681
477.8066, 938.8257
478.2887, 960.0190
478.7708, 970.4320
479.2529, 975.1985
479.7350, 983.5745
480.2172, 1003.227
480.6993, 1024.055
481.1814, 1037.244
481.6635, 1044.802
482.1456, 1056.869
482.6277, 1083.397
483.1099, 1112.029
483.5920, 1133.875
484.0741, 1141.257
484.5562, 1155.308
485.0383, 1187.448
485.5204, 1226.178
486.0026, 1254.348
486.4847, 1258.365
486.9668, 1268.334
487.4489, 1292.762
487.9310, 1330.254
488.4131, 1361.251
488.8953, 1381.927
489.3774, 1402.935
489.8595, 1433.382
490.3416, 1475.775
490.8238, 1511.257
491.3059, 1537.613
491.7880, 1558.809
492.2701, 1583.658
492.7522, 1611.896
493.2343, 1630.373
493.7165, 1629.391
494.1986, 1615.989
494.6807, 1608.707
495.1628, 1607.232
495.6449, 1601.737
496.1270, 1582.861
496.6092, 1555.355
497.0913, 1524.661
497.5734, 1489.104
498.0555, 1457.677
498.5376, 1439.672
499.0197, 1430.124
499.5019, 1418.471
499.9840, 1398.667
500.4661, 1377.573
500.9482, 1357.703
501.4303, 1339.417
501.9124, 1322.288
502.3946, 1305.683
502.8767, 1290.707
503.3588, 1278.075
503.8409, 1266.906
504.3230, 1259.768
504.8051, 1260.680
505.2873, 1264.413
505.7694, 1256.687
506.2515, 1231.933
506.7336, 1210.186
507.2157, 1200.610
507.6978, 1202.523
508.1800, 1200.119
508.6621, 1193.763
509.1442, 1181.505
509.6263, 1157.697
510.1084, 1124.951
510.5905, 1097.842
511.0727, 1080.652
511.5548, 1066.752
512.0369, 1045.788
512.5190, 1019.677
513.0011, 995.0341
513.4832, 980.2198
513.9653, 965.5068
514.4474, 937.4852
514.9296, 895.1960
515.4117, 860.9654
515.8938, 852.6823
516.3759, 854.1793
516.8580, 851.0691
517.3401, 835.8600
517.8223, 821.1843
518.3044, 809.3090
518.7865, 799.8036
519.2687, 791.2532
519.7508, 779.1171
520.2329, 773.2959
520.7150, 779.6362
521.1971, 799.9628
521.6793, 808.9161
522.1614, 802.7857
522.6435, 791.6451
523.1256, 784.2031
523.6077, 781.0167
524.0898, 775.9180
524.5720, 768.2335
525.0541, 758.0735
525.5362, 744.8558
526.0183, 728.9431
526.5004, 712.6279
526.9825, 696.9415
527.4647, 681.7144
527.9468, 665.4762
528.4289, 648.2444
528.9110, 632.5567
529.3931, 620.4339
529.8752, 610.5508
530.3574, 601.5833
530.8395, 593.1131
531.3216, 585.5394
531.8037, 577.8107
532.2858, 571.1783
532.7679, 567.6862
533.2501, 570.5851
533.7322, 574.0392
534.2143, 576.5188
534.6964, 578.0040
535.1785, 578.8260
535.6606, 577.4414
536.1428, 577.1704
536.6249, 580.6278
537.1070, 589.6495
537.5891, 595.7032
538.0712, 597.6632
538.5533, 597.8103
539.0355, 599.7902
539.5176, 603.6201
539.9997, 607.6889
540.4818, 611.0265
540.9639, 614.5151
541.4460, 621.6508
541.9282, 631.9317
542.4103, 640.3335
542.8924, 640.4327
543.3745, 637.4142
543.8566, 638.9655
544.3387, 647.0901
544.8209, 654.5734
545.3030, 657.7896
545.7851, 657.2233
546.2672, 653.4824
546.7493, 639.3844
547.2314, 629.9625
547.7136, 633.1982
548.1957, 646.3086
548.6778, 654.5559
549.1599, 652.4114
549.6420, 649.7206
550.1241, 650.6203
550.6063, 656.6382
551.0884, 658.0194
551.5705, 652.6930
552.0526, 646.1222
552.5347, 644.7470
553.0168, 649.1033
553.4990, 650.7437
553.9811, 647.0687
554.4632, 641.6466
554.9453, 643.3521
555.4274, 650.9058
555.9095, 655.4635
556.3917, 648.9008
556.8738, 638.0674
557.3559, 633.2865
557.8380, 634.6713
558.3201, 636.6761
558.8022, 633.9891
559.2844, 630.9630
559.7665, 632.6008
560.2486, 644.7536
560.7307, 652.0926
561.2128, 644.7170
561.6949, 630.4990
562.1771, 622.3160
562.6592, 627.1089
563.1413, 632.6127
563.6234, 637.8710
564.1055, 642.5095
564.5876, 642.8322
565.0698, 637.2120
565.5519, 630.4936
566.0340, 624.3957
566.5161, 618.7675
566.9982, 618.7376
567.4803, 625.7606
567.9625, 633.5071
568.4446, 633.0551
568.9267, 626.1993
569.4088, 620.5145
569.8909, 618.2018
570.3730, 617.8492
570.8552, 617.6089
571.3373, 617.8148
571.8194, 619.5245
572.3015, 626.4426
572.7836, 632.6660
573.2657, 632.7548
573.7479, 625.9974
574.2300, 621.6721
574.7121, 624.8051
575.1942, 629.9414
575.6763, 633.1520
576.1584, 632.6589
576.6406, 632.4650
577.1227, 632.3148
577.6048, 632.6243
578.0869, 634.7912
578.5690, 640.1682
579.0511, 642.2858
579.5333, 637.6568
580.0154, 628.8870
580.4975, 627.5857
580.9796, 633.9948
581.4617, 640.3723
581.9438, 639.9802
582.4260, 635.9143
582.9081, 635.5441
583.3902, 639.7202
583.8723, 644.2115
