##NAMES=Serandite
##RRUFFID=R050261
##IDEAL CHEMISTRY=NaMn^2+^_2_Si_3_O_8_(OH)
##LOCALITY=Mont Saint-Hilaire, Rouville County, Quebec, Canada
##OWNER=RRUFF
##SOURCE=Marcus Origlieri
##DESCRIPTION=Orange tabular single crystal associated with aegirine and microcline
##STATUS=The identification of this mineral has been confirmed by X-ray diffraction and chemical analysis
##URL=rruff.info/R050261
##MEASURED CHEMISTRY=Na_0.96_(Mn_0.92_Ca_0.06_Fe_0.01_)_2_Si_3.03_O_8_(OH)
93.02344, 15.54501
93.50555, 15.72401
93.98767, 15.78979
94.46979, 15.02613
94.95190, 14.19223
95.43402, 15.17647
95.91614, 18.09080
96.39825, 22.29846
96.88037, 26.99481
97.36249, 32.20502
97.84460, 38.09499
98.32672, 44.80809
98.80884, 52.27449
99.29095, 60.35400
99.77307, 68.78333
100.2552, 77.88273
100.7373, 88.10844
101.2194, 99.25326
101.7015, 111.9332
102.1837, 126.8400
102.6658, 144.2372
103.1479, 162.1043
103.6300, 180.1429
104.1121, 198.4040
104.5942, 216.9737
105.0764, 235.5611
105.5585, 255.0536
106.0406, 276.6757
106.5227, 301.7985
107.0048, 326.3590
107.4869, 349.7865
107.9690, 372.1026
108.4512, 392.8737
108.9333, 411.3778
109.4154, 428.8740
109.8975, 446.6589
110.3796, 460.9532
110.8617, 479.4023
111.3439, 504.1195
111.8260, 536.6707
112.3081, 570.0863
112.7902, 602.2513
113.2723, 635.4792
113.7544, 672.4824
114.2366, 713.2725
114.7187, 758.2874
115.2008, 807.0231
115.6829, 858.4727
116.1650, 915.8984
116.6471, 984.2540
117.1293, 1060.013
117.6114, 1135.699
118.0935, 1227.764
118.5756, 1307.208
119.0577, 1355.471
119.5398, 1361.626
120.0220, 1344.491
120.5041, 1301.700
120.9862, 1239.458
121.4683, 1182.960
121.9504, 1144.844
122.4325, 1120.302
122.9147, 1104.031
123.3968, 1096.748
123.8789, 1095.400
124.3610, 1098.756
124.8431, 1106.542
125.3252, 1115.741
125.8074, 1122.379
126.2895, 1128.834
126.7716, 1139.646
127.2537, 1156.970
127.7358, 1179.635
128.2179, 1205.953
128.7001, 1235.833
129.1822, 1268.722
129.6643, 1304.188
130.1464, 1342.166
130.6285, 1382.394
131.1106, 1424.432
131.5928, 1468.588
132.0749, 1517.013
132.5570, 1569.554
133.0391, 1623.715
133.5212, 1678.395
134.0033, 1730.698
134.4855, 1766.982
134.9676, 1784.245
135.4497, 1789.297
135.9318, 1786.019
136.4139, 1772.867
136.8960, 1754.567
137.3782, 1740.114
137.8603, 1730.248
138.3424, 1720.113
138.8245, 1708.131
139.3066, 1694.875
139.7887, 1675.992
140.2709, 1651.327
140.7530, 1621.033
141.2351, 1583.916
141.7172, 1536.316
142.1993, 1489.162
142.6814, 1449.685
143.1636, 1417.614
143.6457, 1392.428
144.1278, 1374.647
144.6099, 1363.779
145.0920, 1355.304
145.5741, 1349.490
146.0563, 1345.572
146.5384, 1342.918
147.0205, 1340.524
147.5026, 1340.922
147.9847, 1345.702
148.4668, 1355.160
148.9490, 1361.721
149.4311, 1363.074
149.9132, 1362.992
150.3953, 1364.916
150.8774, 1369.328
151.3595, 1375.206
151.8417, 1382.873
152.3238, 1392.810
152.8059, 1401.853
153.2880, 1408.846
153.7701, 1415.305
154.2522, 1422.950
154.7344, 1432.869
155.2165, 1443.020
155.6986, 1452.846
156.1807, 1462.337
156.6628, 1471.769
157.1449, 1479.963
157.6271, 1488.264
158.1092, 1498.591
158.5913, 1512.211
159.0734, 1527.115
159.5555, 1543.016
160.0376, 1560.800
160.5198, 1576.896
161.0019, 1589.814
161.4840, 1600.402
161.9661, 1609.742
162.4482, 1619.377
162.9303, 1627.132
163.4125, 1631.460
163.8946, 1631.034
164.3767, 1629.724
164.8588, 1627.290
165.3409, 1625.075
165.8230, 1626.221
166.3052, 1633.604
166.7873, 1644.058
167.2694, 1655.500
167.7515, 1668.467
168.2336, 1680.563
168.7157, 1691.286
169.1978, 1700.107
169.6800, 1705.681
170.1621, 1708.775
170.6442, 1707.606
171.1263, 1700.207
171.6084, 1685.033
172.0905, 1665.072
172.5727, 1640.121
173.0548, 1611.412
173.5369, 1584.501
174.0190, 1562.612
174.5011, 1544.557
174.9832, 1528.590
175.4654, 1513.514
175.9475, 1501.132
176.4296, 1493.788
176.9117, 1491.162
177.3938, 1490.732
177.8759, 1491.836
178.3581, 1493.675
178.8402, 1494.765
179.3223, 1494.843
179.8044, 1493.813
180.2865, 1491.394
180.7686, 1487.610
181.2508, 1482.871
181.7329, 1476.821
182.2150, 1469.998
182.6971, 1463.925
183.1792, 1459.330
183.6613, 1455.683
184.1435, 1451.717
184.6256, 1447.343
185.1077, 1444.046
185.5898, 1443.112
186.0719, 1444.414
186.5540, 1447.503
187.0362, 1453.300
187.5183, 1460.522
188.0004, 1464.824
188.4825, 1465.896
188.9646, 1467.159
189.4467, 1473.167
189.9289, 1483.315
190.4110, 1492.460
190.8931, 1497.967
191.3752, 1501.101
191.8573, 1507.213
192.3394, 1516.653
192.8216, 1527.658
193.3037, 1538.675
193.7858, 1549.694
194.2679, 1560.062
194.7500, 1569.482
195.2321, 1577.996
195.7143, 1586.217
196.1964, 1594.169
196.6785, 1601.564
197.1606, 1608.119
197.6427, 1613.916
198.1248, 1618.583
198.6070, 1621.417
199.0891, 1622.621
199.5712, 1625.594
200.0533, 1630.711
200.5354, 1636.635
201.0175, 1641.989
201.4997, 1647.009
201.9818, 1649.894
202.4639, 1649.448
202.9460, 1645.670
203.4281, 1642.589
203.9102, 1640.430
204.3924, 1638.590
204.8745, 1636.095
205.3566, 1632.771
205.8387, 1629.635
206.3208, 1626.750
206.8029, 1624.012
207.2851, 1623.589
207.7672, 1626.379
208.2493, 1630.202
208.7314, 1631.251
209.2135, 1628.414
209.6956, 1626.628
210.1778, 1628.052
210.6599, 1633.147
211.1420, 1637.046
211.6241, 1639.046
212.1062, 1640.603
212.5883, 1644.069
213.0705, 1649.932
213.5526, 1656.384
214.0347, 1662.775
214.5168, 1669.176
214.9989, 1675.359
215.4810, 1681.206
215.9632, 1686.949
216.4453, 1692.564
216.9274, 1697.285
217.4095, 1703.818
217.8916, 1713.795
218.3737, 1728.202
218.8559, 1739.651
219.3380, 1746.563
219.8201, 1751.800
220.3022, 1760.225
220.7843, 1773.673
221.2664, 1786.224
221.7486, 1795.728
222.2307, 1801.321
222.7128, 1807.977
223.1949, 1816.887
223.6770, 1825.895
224.1591, 1831.448
224.6413, 1832.793
225.1234, 1832.277
225.6055, 1830.201
226.0876, 1826.078
226.5697, 1823.091
227.0518, 1822.189
227.5340, 1821.688
228.0161, 1818.764
228.4982, 1811.456
228.9803, 1805.179
229.4624, 1801.509
229.9445, 1800.665
230.4267, 1801.204
230.9088, 1803.780
231.3909, 1807.225
231.8730, 1809.929
232.3551, 1811.719
232.8372, 1813.103
233.3194, 1814.352
233.8015, 1815.664
234.2836, 1815.805
234.7657, 1814.958
235.2478, 1812.831
235.7299, 1808.858
236.2121, 1802.230
236.6942, 1795.224
237.1763, 1788.582
237.6584, 1782.579
238.1405, 1775.010
238.6226, 1764.789
239.1048, 1754.030
239.5869, 1745.340
240.0690, 1739.433
240.5511, 1734.345
241.0332, 1729.604
241.5153, 1725.208
241.9975, 1721.253
242.4796, 1717.109
242.9617, 1713.994
243.4438, 1713.663
243.9259, 1718.348
244.4080, 1721.677
244.8902, 1721.427
245.3723, 1717.163
245.8544, 1716.317
246.3365, 1720.199
246.8186, 1726.251
247.3007, 1731.877
247.7829, 1735.997
248.2650, 1741.733
248.7471, 1749.630
249.2292, 1759.741
249.7113, 1771.641
250.1934, 1785.996
250.6756, 1801.492
251.1577, 1817.079
251.6398, 1832.379
252.1219, 1848.483
252.6040, 1865.459
253.0861, 1883.189
253.5683, 1902.660
254.0504, 1924.580
254.5325, 1947.481
255.0146, 1970.200
255.4967, 1992.787
255.9788, 2015.486
256.4609, 2038.935
256.9431, 2062.642
257.4252, 2084.377
257.9073, 2104.843
258.3894, 2122.433
258.8715, 2136.147
259.3536, 2146.221
259.8358, 2152.094
260.3179, 2153.497
260.8000, 2150.660
261.2821, 2144.632
261.7642, 2134.444
262.2463, 2122.615
262.7285, 2109.821
263.2106, 2094.303
263.6927, 2083.878
264.1748, 2080.893
264.6569, 2083.134
265.1390, 2082.076
265.6212, 2075.836
266.1033, 2070.242
266.5854, 2068.956
267.0675, 2073.342
267.5496, 2076.914
268.0317, 2079.634
268.5139, 2081.138
268.9960, 2080.266
269.4781, 2076.649
269.9602, 2071.666
270.4423, 2066.347
270.9244, 2061.182
271.4066, 2052.830
271.8887, 2040.474
272.3708, 2025.640
272.8529, 2011.534
273.3350, 1998.280
273.8171, 1985.319
274.2993, 1971.737
274.7814, 1957.386
275.2635, 1945.555
275.7456, 1936.330
276.2277, 1929.471
276.7098, 1925.198
277.1920, 1923.864
277.6741, 1923.090
278.1562, 1921.802
278.6383, 1919.994
279.1204, 1919.609
279.6025, 1920.768
280.0847, 1923.043
280.5668, 1925.442
281.0489, 1927.770
281.5310, 1932.726
282.0131, 1943.046
282.4952, 1957.476
282.9774, 1964.842
283.4595, 1964.008
283.9416, 1961.021
284.4237, 1962.901
284.9058, 1969.627
285.3879, 1974.974
285.8701, 1976.996
286.3522, 1976.518
286.8343, 1976.803
287.3164, 1978.037
287.7985, 1978.478
288.2806, 1975.947
288.7628, 1970.750
289.2449, 1966.099
289.7270, 1962.634
290.2091, 1960.135
290.6912, 1958.701
291.1733, 1958.387
291.6555, 1957.119
292.1376, 1952.145
292.6197, 1944.503
293.1018, 1939.247
293.5839, 1937.823
294.0660, 1938.143
294.5482, 1936.824
295.0303, 1933.974
295.5124, 1930.626
295.9945, 1926.813
296.4766, 1922.973
296.9587, 1920.756
297.4409, 1920.776
297.9230, 1921.014
298.4051, 1918.779
298.8872, 1914.408
299.3693, 1909.258
299.8514, 1903.578
300.3336, 1897.738
300.8157, 1892.904
301.2978, 1889.433
301.7799, 1885.182
302.2620, 1876.747
302.7441, 1865.618
303.2263, 1855.758
303.7084, 1849.890
304.1905, 1845.746
304.6726, 1840.147
305.1547, 1833.029
305.6368, 1826.010
306.1190, 1820.590
306.6011, 1816.214
307.0832, 1812.096
307.5653, 1807.777
308.0474, 1803.699
308.5295, 1800.916
309.0117, 1799.207
309.4938, 1796.647
309.9759, 1790.816
310.4580, 1783.809
310.9401, 1778.205
311.4222, 1774.433
311.9044, 1772.552
312.3865, 1773.671
312.8686, 1777.053
313.3507, 1780.053
313.8328, 1781.053
314.3149, 1781.145
314.7971, 1781.020
315.2792, 1780.221
315.7613, 1780.412
316.2434, 1783.148
316.7255, 1787.469
317.2076, 1791.311
317.6898, 1791.834
318.1719, 1793.110
318.6540, 1798.130
319.1361, 1808.402
319.6182, 1817.806
320.1003, 1823.953
320.5825, 1828.081
321.0646, 1831.889
321.5467, 1834.994
322.0288, 1838.631
322.5109, 1843.447
322.9930, 1849.557
323.4752, 1855.674
323.9573, 1861.514
324.4394, 1867.254
324.9215, 1873.051
325.4036, 1878.921
325.8857, 1884.845
326.3679, 1891.156
326.8500, 1897.809
327.3321, 1903.395
327.8142, 1907.617
328.2963, 1910.934
328.7784, 1913.618
329.2606, 1917.004
329.7427, 1918.138
330.2248, 1916.079
330.7069, 1911.536
331.1890, 1907.380
331.6711, 1904.884
332.1533, 1901.391
332.6354, 1895.609
333.1175, 1886.297
333.5996, 1877.417
334.0817, 1868.925
334.5638, 1860.853
335.0460, 1853.263
335.5281, 1846.245
336.0102, 1839.382
336.4923, 1832.499
336.9744, 1825.546
337.4565, 1818.490
337.9387, 1810.911
338.4208, 1803.652
338.9029, 1797.818
339.3850, 1793.578
339.8671, 1790.126
340.3492, 1787.195
340.8313, 1784.859
341.3134, 1784.098
341.7956, 1785.463
342.2777, 1786.742
342.7598, 1785.693
343.2419, 1782.241
343.7240, 1779.496
344.2061, 1777.788
344.6883, 1777.302
345.1704, 1778.942
345.6525, 1782.841
346.1346, 1787.038
346.6167, 1790.273
347.0988, 1792.724
347.5810, 1795.254
348.0631, 1797.996
348.5452, 1800.650
349.0273, 1802.504
349.5094, 1803.718
349.9915, 1805.336
350.4737, 1807.374
350.9558, 1810.224
351.4379, 1815.124
351.9200, 1822.189
352.4021, 1829.528
352.8842, 1836.066
353.3664, 1841.580
353.8485, 1845.535
354.3306, 1846.500
354.8127, 1846.913
355.2948, 1849.837
355.7769, 1855.003
356.2591, 1860.400
356.7412, 1863.722
357.2233, 1866.909
357.7054, 1872.703
358.1875, 1883.430
358.6696, 1893.710
359.1518, 1899.050
359.6339, 1900.892
360.1160, 1902.677
360.5981, 1905.086
361.0802, 1908.619
361.5623, 1914.352
362.0445, 1923.242
362.5266, 1930.362
363.0087, 1932.327
363.4908, 1931.622
363.9729, 1931.389
364.4550, 1933.289
364.9372, 1935.068
365.4193, 1936.662
365.9014, 1938.070
366.3835, 1936.765
366.8656, 1930.839
367.3477, 1922.832
367.8299, 1914.494
368.3120, 1904.731
368.7941, 1896.137
369.2762, 1890.398
369.7583, 1886.485
370.2404, 1879.681
370.7226, 1867.624
371.2047, 1855.087
371.6868, 1843.848
372.1689, 1834.168
372.6510, 1825.106
373.1331, 1816.002
373.6153, 1807.829
374.0974, 1802.436
374.5795, 1801.204
375.0616, 1800.094
375.5437, 1798.135
376.0258, 1795.342
376.5080, 1791.430
376.9901, 1785.617
377.4722, 1780.115
377.9543, 1777.043
378.4364, 1776.627
378.9185, 1777.341
379.4007, 1779.378
379.8828, 1782.037
380.3649, 1783.095
380.8470, 1782.446
381.3291, 1780.984
381.8112, 1778.599
382.2934, 1775.580
382.7755, 1774.602
383.2576, 1776.353
383.7397, 1778.765
384.2218, 1778.484
384.7039, 1776.011
385.1861, 1774.107
385.6682, 1774.539
386.1503, 1776.260
386.6324, 1777.404
387.1145, 1777.941
387.5966, 1777.986
388.0788, 1776.685
388.5609, 1775.087
389.0430, 1775.157
389.5251, 1778.398
390.0072, 1782.379
390.4893, 1785.170
390.9715, 1786.853
391.4536, 1787.893
391.9357, 1787.792
392.4178, 1787.578
392.8999, 1788.034
393.3820, 1789.263
393.8642, 1791.312
394.3463, 1795.622
394.8284, 1800.542
395.3105, 1803.466
395.7926, 1800.506
396.2747, 1798.305
396.7569, 1800.057
397.2390, 1806.068
397.7211, 1811.463
398.2032, 1813.760
398.6853, 1815.969
399.1674, 1820.260
399.6496, 1829.189
400.1317, 1837.376
400.6138, 1843.755
401.0959, 1848.984
401.5780, 1855.508
402.0602, 1864.945
402.5423, 1873.719
403.0244, 1879.869
403.5065, 1881.875
403.9886, 1886.909
404.4707, 1896.570
404.9529, 1907.715
405.4350, 1915.706
405.9171, 1919.323
406.3992, 1923.835
406.8813, 1930.726
407.3634, 1939.680
407.8456, 1949.010
408.3277, 1958.761
408.8098, 1968.785
409.2919, 1979.222
409.7740, 1990.036
410.2561, 1999.411
410.7383, 2006.598
411.2204, 2013.316
411.7025, 2023.204
412.1846, 2035.918
412.6667, 2048.635
413.1488, 2060.894
413.6310, 2071.826
414.1131, 2079.155
414.5952, 2082.673
415.0773, 2084.365
415.5594, 2086.403
416.0415, 2087.834
416.5237, 2086.878
417.0058, 2081.852
417.4879, 2075.447
417.9700, 2070.265
418.4521, 2065.784
418.9342, 2059.859
419.4164, 2050.949
419.8985, 2040.360
420.3806, 2028.909
420.8627, 2016.163
421.3448, 2003.985
421.8269, 1992.427
422.3091, 1981.911
422.7912, 1972.951
423.2733, 1966.803
423.7554, 1961.136
424.2375, 1955.672
424.7196, 1950.461
425.2018, 1944.010
425.6839, 1934.153
426.1660, 1924.592
426.6481, 1917.468
427.1302, 1915.087
427.6123, 1911.657
428.0945, 1906.221
428.5766, 1899.915
429.0587, 1895.469
429.5408, 1893.797
430.0229, 1892.047
430.5050, 1888.907
430.9872, 1884.293
431.4693, 1881.211
431.9514, 1879.838
432.4335, 1879.425
432.9156, 1879.613
433.3977, 1880.416
433.8799, 1879.998
434.3620, 1877.406
434.8441, 1873.977
435.3262, 1873.183
435.8083, 1874.885
436.2904, 1876.438
436.7726, 1875.845
437.2547, 1873.938
437.7368, 1872.752
438.2189, 1872.532
438.7010, 1872.392
439.1831, 1871.127
439.6652, 1869.374
440.1473, 1868.341
440.6295, 1868.618
441.1116, 1869.739
441.5937, 1872.199
442.0758, 1875.568
442.5579, 1877.521
443.0400, 1873.902
443.5222, 1870.318
444.0043, 1871.601
444.4864, 1881.028
444.9685, 1888.863
445.4506, 1890.543
445.9327, 1889.138
446.4149, 1889.067
446.8970, 1892.195
447.3791, 1895.659
447.8612, 1899.165
448.3433, 1902.699
448.8254, 1904.809
449.3076, 1903.464
449.7897, 1902.570
450.2718, 1904.763
450.7539, 1912.415
451.2360, 1917.666
451.7181, 1919.481
452.2003, 1919.398
452.6824, 1920.278
453.1645, 1922.112
453.6466, 1924.957
454.1287, 1928.854
454.6108, 1933.814
455.0930, 1939.818
455.5751, 1947.133
456.0572, 1954.090
456.5393, 1958.084
457.0214, 1959.954
457.5035, 1964.306
457.9857, 1972.729
458.4678, 1982.363
458.9499, 1989.283
459.4320, 1993.909
459.9141, 1997.881
460.3962, 2002.839
460.8784, 2007.205
461.3605, 2008.650
461.8426, 2007.122
462.3247, 2005.130
462.8068, 2004.531
463.2889, 2004.244
463.7711, 2003.130
464.2532, 2000.642
464.7353, 1997.608
465.2174, 1993.964
465.6995, 1990.011
466.1816, 1986.392
466.6638, 1981.841
467.1459, 1978.994
467.6280, 1979.195
468.1101, 1983.187
468.5922, 1986.975
469.0743, 1990.918
469.5565, 1994.279
470.0386, 1996.291
470.5207, 1996.007
471.0028, 1996.280
471.4849, 1997.283
471.9670, 1999.076
472.4492, 2001.865
472.9313, 2005.699
473.4134, 2010.407
473.8955, 2016.019
474.3776, 2022.545
474.8597, 2029.840
475.3419, 2038.181
475.8240, 2046.002
476.3061, 2051.618
476.7882, 2055.268
477.2703, 2057.879
477.7524, 2059.188
478.2346, 2060.366
478.7167, 2062.649
479.1988, 2066.117
479.6809, 2071.079
480.1630, 2078.878
480.6451, 2087.583
481.1273, 2095.090
481.6094, 2101.242
482.0915, 2107.601
482.5736, 2115.572
483.0557, 2124.008
483.5378, 2131.886
484.0200, 2138.799
484.5021, 2145.251
484.9842, 2150.345
485.4663, 2154.999
485.9484, 2161.625
486.4305, 2171.543
486.9127, 2182.491
487.3948, 2194.349
487.8769, 2207.429
488.3590, 2218.259
488.8411, 2225.493
489.3232, 2232.005
489.8054, 2240.250
490.2875, 2250.776
490.7696, 2261.161
491.2517, 2271.142
491.7338, 2280.848
492.2159, 2290.271
492.6981, 2299.487
493.1802, 2308.573
493.6623, 2319.164
494.1444, 2329.779
494.6265, 2333.479
495.1086, 2330.239
495.5908, 2323.539
496.0729, 2314.050
496.5550, 2303.468
497.0371, 2295.843
497.5192, 2293.059
498.0013, 2290.617
498.4835, 2284.019
498.9656, 2274.754
499.4477, 2266.097
499.9298, 2260.326
500.4119, 2254.735
500.8940, 2246.978
501.3762, 2237.090
501.8583, 2229.611
502.3404, 2228.241
502.8225, 2227.970
503.3046, 2225.643
503.7867, 2219.303
504.2689, 2213.597
504.7510, 2208.195
505.2331, 2203.733
505.7152, 2201.349
506.1973, 2202.472
506.6794, 2202.856
507.1616, 2201.360
507.6437, 2198.235
508.1258, 2195.308
508.6079, 2192.531
509.0900, 2190.087
509.5721, 2188.574
510.0543, 2187.792
510.5364, 2185.375
511.0185, 2180.976
511.5006, 2175.899
511.9827, 2172.219
512.4648, 2169.262
512.9470, 2164.816
513.4291, 2157.479
513.9112, 2149.071
514.3933, 2141.246
514.8754, 2133.918
515.3575, 2126.789
515.8397, 2118.894
516.3218, 2111.665
516.8039, 2106.529
517.2860, 2103.933
517.7681, 2100.977
518.2502, 2095.113
518.7324, 2089.176
519.2145, 2085.701
519.6966, 2087.033
520.1787, 2088.423
520.6608, 2089.422
521.1429, 2090.190
521.6251, 2091.179
522.1072, 2092.653
522.5893, 2093.921
523.0714, 2094.934
523.5535, 2095.696
524.0356, 2095.620
524.5178, 2094.984
524.9999, 2092.704
525.4820, 2087.179
525.9641, 2078.840
526.4462, 2070.847
526.9283, 2063.633
527.4105, 2056.748
527.8926, 2049.221
528.3747, 2041.334
528.8568, 2034.142
529.3389, 2028.648
529.8210, 2023.618
530.3032, 2017.685
530.7853, 2011.028
531.2674, 2004.705
531.7495, 1999.555
532.2316, 1994.778
532.7137, 1989.478
533.1959, 1982.809
533.6780, 1978.231
534.1601, 1977.878
534.6422, 1979.368
535.1243, 1980.255
535.6064, 1980.275
536.0886, 1979.730
536.5707, 1978.108
537.0528, 1976.014
537.5349, 1975.647
538.0170, 1978.100
538.4991, 1979.592
538.9813, 1978.092
539.4634, 1973.851
539.9455, 1971.786
540.4276, 1972.130
540.9097, 1973.426
541.3918, 1974.551
541.8740, 1975.542
542.3561, 1976.503
542.8382, 1977.366
543.3203, 1978.428
543.8024, 1979.439
544.2845, 1980.898
544.7667, 1983.939
545.2488, 1992.083
545.7309, 1999.395
546.2130, 2000.913
546.6951, 1997.647
547.1772, 1994.292
547.6594, 1991.352
548.1415, 1989.937
548.6236, 1991.091
549.1057, 1995.835
549.5878, 1999.746
550.0699, 2002.627
550.5521, 2004.516
551.0342, 2005.322
551.5163, 2004.345
551.9984, 2003.933
552.4805, 2004.738
552.9626, 2005.943
553.4448, 2005.316
553.9269, 2002.539
554.4090, 2000.317
554.8911, 1999.295
555.3732, 1999.691
555.8553, 2003.564
556.3375, 2010.796
556.8196, 2016.734
557.3017, 2016.527
557.7838, 2012.964
558.2659, 2010.442
558.7480, 2009.539
559.2302, 2009.556
559.7123, 2010.405
560.1944, 2011.717
560.6765, 2013.017
561.1586, 2014.390
561.6407, 2015.481
562.1229, 2016.069
562.6050, 2016.277
563.0871, 2016.478
563.5692, 2016.217
564.0513, 2016.515
564.5334, 2017.937
565.0156, 2020.551
565.4977, 2022.475
565.9798, 2023.839
566.4619, 2024.281
566.9440, 2023.205
567.4261, 2020.490
567.9083, 2018.163
568.3904, 2016.189
568.8725, 2015.197
569.3546, 2016.994
569.8367, 2020.802
570.3188, 2023.044
570.8010, 2021.746
571.2831, 2019.430
571.7652, 2018.833
572.2473, 2019.813
572.7294, 2021.897
573.2115, 2026.194
573.6937, 2030.465
574.1758, 2033.321
574.6579, 2034.638
575.1400, 2035.020
575.6221, 2033.193
576.1042, 2031.507
576.5864, 2031.664
577.0685, 2035.565
577.5506, 2037.951
578.0327, 2037.683
578.5148, 2036.751
578.9969, 2038.194
579.4791, 2043.136
579.9612, 2046.156
580.4433, 2045.245
580.9254, 2042.462
581.4075, 2043.692
581.8896, 2048.872
582.3718, 2054.208
582.8539, 2058.330
583.3360, 2061.021
583.8181, 2061.001
584.3002, 2058.395
584.7823, 2056.016
585.2645, 2056.948
585.7466, 2058.678
586.2287, 2058.192
586.7108, 2054.033
587.1929, 2050.963
587.6750, 2050.982
