##NAMES=Serendibite
##RRUFFID=R070622
##IDEAL CHEMISTRY=Ca_4_(Mg_6_Al_6_)O_4_[Si_6_B_3_Al_3_O_36_]
##LOCALITY=Sri Lanka
##OWNER=RRUFF
##SOURCE=Shinichi Kihara
##DESCRIPTION=Deep blue-green vitreous crystals with conchoidal fracture.
##STATUS=The identification of this mineral has been confirmed by single-crystal X-ray diffraction.
##URL=rruff.info/R070622
95.89557, 6547.607
96.37769, 6943.081
96.85980, 7329.600
97.34192, 7708.500
97.82404, 8085.329
98.30615, 8466.021
98.78827, 8844.189
99.27039, 9205.761
99.75250, 9562.913
100.2346, 9897.749
100.7167, 10190.72
101.1989, 10422.16
101.6810, 10577.50
102.1631, 10579.17
102.6452, 10607.83
103.1273, 10613.28
103.6094, 10556.29
104.0916, 10462.62
104.5737, 10413.17
105.0558, 10442.06
105.5379, 10469.22
106.0200, 10448.83
106.5021, 10388.01
106.9843, 10317.15
107.4664, 10260.82
107.9485, 10220.06
108.4306, 10182.43
108.9127, 10132.88
109.3948, 10093.60
109.8770, 10075.10
110.3591, 10080.10
110.8412, 10106.10
111.3233, 10152.62
111.8054, 10257.61
112.2875, 10325.80
112.7697, 10335.56
113.2518, 10314.02
113.7339, 10287.18
114.2160, 10267.81
114.6981, 10256.39
115.1802, 10259.22
115.6624, 10280.99
116.1445, 10308.53
116.6266, 10340.02
117.1087, 10374.32
117.5908, 10410.02
118.0729, 10448.04
118.5551, 10487.44
119.0372, 10514.91
119.5193, 10514.15
120.0014, 10510.89
120.4835, 10531.11
120.9656, 10580.09
121.4478, 10635.30
121.9299, 10662.62
122.4120, 10668.02
122.8941, 10695.74
123.3762, 10789.21
123.8583, 10919.74
124.3405, 11001.26
124.8226, 10994.27
125.3047, 10958.44
125.7868, 10944.76
126.2689, 10953.88
126.7510, 10981.89
127.2332, 11033.33
127.7153, 11112.79
128.1974, 11181.37
128.6795, 11219.40
129.1616, 11249.34
129.6437, 11281.39
130.1259, 11318.45
130.6080, 11364.14
131.0901, 11433.11
131.5722, 11566.79
132.0543, 11646.56
132.5364, 11623.89
133.0186, 11555.34
133.5007, 11502.19
133.9828, 11500.04
134.4649, 11539.26
134.9470, 11551.52
135.4291, 11501.07
135.9113, 11457.93
136.3934, 11438.12
136.8755, 11437.38
137.3576, 11445.48
137.8397, 11456.12
138.3218, 11471.10
138.8040, 11466.27
139.2861, 11421.65
139.7682, 11376.99
140.2503, 11355.81
140.7324, 11359.71
141.2145, 11374.58
141.6967, 11386.94
142.1788, 11397.94
142.6609, 11398.50
143.1430, 11376.27
143.6251, 11347.85
144.1072, 11332.70
144.5894, 11336.28
145.0715, 11351.52
145.5536, 11371.13
146.0357, 11396.23
146.5178, 11417.24
146.9999, 11429.87
147.4821, 11435.32
147.9642, 11436.68
148.4463, 11429.54
148.9284, 11424.40
149.4105, 11434.96
149.8927, 11465.09
150.3748, 11498.19
150.8569, 11520.14
151.3390, 11530.02
151.8211, 11537.38
152.3032, 11536.72
152.7854, 11539.13
153.2675, 11558.41
153.7496, 11603.79
154.2317, 11655.53
154.7138, 11675.24
155.1959, 11646.02
155.6781, 11619.36
156.1602, 11605.30
156.6423, 11603.61
157.1244, 11617.97
157.6065, 11655.36
158.0886, 11707.34
158.5708, 11729.43
159.0529, 11689.28
159.5350, 11651.78
160.0171, 11640.31
160.4992, 11642.77
160.9813, 11634.27
161.4635, 11591.81
161.9456, 11510.90
162.4277, 11460.20
162.9098, 11472.54
163.3919, 11482.95
163.8740, 11461.28
164.3562, 11411.80
164.8383, 11360.73
165.3204, 11337.16
165.8025, 11353.29
166.2846, 11353.33
166.7667, 11322.56
167.2489, 11288.24
167.7310, 11272.74
168.2131, 11279.13
168.6952, 11289.63
169.1773, 11278.66
169.6594, 11232.60
170.1416, 11197.44
170.6237, 11181.75
171.1058, 11175.84
171.5879, 11168.44
172.0700, 11155.98
172.5521, 11141.94
173.0343, 11132.38
173.5164, 11125.71
173.9985, 11125.14
174.4806, 11135.93
174.9627, 11153.72
175.4448, 11168.37
175.9270, 11176.09
176.4091, 11178.42
176.8912, 11179.52
177.3733, 11180.89
177.8554, 11177.97
178.3375, 11163.15
178.8197, 11138.23
179.3018, 11121.29
179.7839, 11126.82
180.2660, 11141.04
180.7481, 11141.88
181.2302, 11117.54
181.7124, 11096.33
182.1945, 11124.08
182.6766, 11214.54
183.1587, 11270.55
183.6408, 11202.66
184.1229, 11091.49
184.6051, 11012.10
185.0872, 10991.21
185.5693, 11010.33
186.0514, 11040.63
186.5335, 11090.94
187.0156, 11132.33
187.4978, 11158.99
187.9799, 11170.76
188.4620, 11163.48
188.9441, 11128.20
189.4262, 11075.76
189.9083, 11051.47
190.3905, 11084.24
190.8726, 11107.23
191.3547, 11087.88
191.8368, 11047.03
192.3189, 11020.71
192.8010, 11037.05
193.2832, 11093.29
193.7653, 11131.93
194.2474, 11133.24
194.7295, 11133.73
195.2116, 11140.93
195.6937, 11154.63
196.1759, 11172.95
196.6580, 11196.68
197.1401, 11228.61
197.6222, 11239.59
198.1043, 11212.90
198.5864, 11182.13
199.0686, 11158.53
199.5507, 11142.72
200.0328, 11130.66
200.5149, 11118.56
200.9970, 11106.60
201.4791, 11093.18
201.9613, 11071.99
202.4434, 11054.26
202.9255, 11048.13
203.4076, 11053.59
203.8897, 11063.57
204.3718, 11069.65
204.8540, 11069.47
205.3361, 11072.26
205.8182, 11089.55
206.3003, 11102.72
206.7824, 11092.30
207.2645, 11055.45
207.7467, 11010.98
208.2288, 10984.27
208.7109, 10982.71
209.1930, 10982.81
209.6751, 10985.86
210.1572, 10989.23
210.6394, 10990.67
211.1215, 10989.66
211.6036, 10985.40
212.0857, 10973.70
212.5678, 10948.41
213.0499, 10937.06
213.5321, 10956.14
214.0142, 10989.44
214.4963, 11013.22
214.9784, 11020.28
215.4605, 11015.65
215.9426, 11005.32
216.4248, 10988.56
216.9069, 10971.91
217.3890, 10949.82
217.8711, 10929.37
218.3532, 10929.41
218.8353, 10961.83
219.3175, 11008.08
219.7996, 11040.41
220.2817, 11059.40
220.7638, 11067.76
221.2459, 11057.61
221.7280, 11035.26
222.2102, 11027.70
222.6923, 11051.94
223.1744, 11085.79
223.6565, 11097.47
224.1386, 11083.35
224.6207, 11063.65
225.1029, 11045.88
225.5850, 11031.19
226.0671, 11032.34
226.5492, 11071.99
227.0313, 11113.67
227.5134, 11113.41
227.9956, 11061.48
228.4777, 10999.21
228.9598, 10953.89
229.4419, 10925.65
229.9240, 10917.69
230.4061, 10949.62
230.8883, 10991.00
231.3704, 11013.20
231.8525, 11010.96
232.3346, 10998.03
232.8167, 10987.17
233.2988, 10978.72
233.7810, 10968.58
234.2631, 10954.53
234.7452, 10938.68
235.2273, 10919.38
235.7094, 10894.97
236.1915, 10876.71
236.6737, 10886.25
237.1558, 10932.91
237.6379, 10959.55
238.1200, 10920.49
238.6021, 10871.05
239.0842, 10855.85
239.5664, 10888.92
240.0485, 10935.04
240.5306, 10941.53
241.0127, 10894.89
241.4948, 10856.63
241.9769, 10847.85
242.4591, 10849.50
242.9412, 10847.31
243.4233, 10836.89
243.9054, 10825.82
244.3875, 10829.91
244.8696, 10860.53
245.3518, 10873.67
245.8339, 10841.20
246.3160, 10800.00
246.7981, 10779.32
247.2802, 10788.72
247.7623, 10813.88
248.2445, 10829.00
248.7266, 10823.18
249.2087, 10834.17
249.6908, 10883.01
250.1729, 10940.57
250.6550, 10988.58
251.1372, 11021.06
251.6193, 11033.59
252.1014, 11013.60
252.5835, 10940.14
253.0656, 10879.01
253.5477, 10840.77
254.0299, 10814.96
254.5120, 10793.54
254.9941, 10773.85
255.4762, 10758.29
255.9583, 10752.90
256.4405, 10767.11
256.9226, 10772.28
257.4047, 10766.26
257.8868, 10751.62
258.3689, 10723.24
258.8510, 10680.83
259.3332, 10641.18
259.8153, 10638.92
260.2974, 10704.13
260.7795, 10748.38
261.2616, 10755.41
261.7437, 10748.17
262.2259, 10743.45
262.7080, 10746.57
263.1901, 10753.46
263.6722, 10755.40
264.1543, 10741.74
264.6364, 10744.90
265.1186, 10782.10
265.6007, 10824.24
266.0828, 10851.20
266.5649, 10856.70
267.0470, 10845.60
267.5291, 10821.67
268.0113, 10762.04
268.4934, 10736.37
268.9755, 10765.12
269.4576, 10810.63
269.9397, 10851.32
270.4218, 10879.71
270.9040, 10894.35
271.3861, 10888.03
271.8682, 10833.94
272.3503, 10815.04
272.8324, 10853.77
273.3145, 10906.07
273.7967, 10942.24
274.2788, 10956.25
274.7609, 10961.25
275.2430, 10976.78
275.7251, 11012.21
276.2072, 11036.10
276.6894, 11040.90
277.1715, 11041.89
277.6536, 11053.81
278.1357, 11076.07
278.6178, 11091.87
279.0999, 11075.14
279.5821, 11002.36
280.0642, 10964.00
280.5463, 10974.84
281.0284, 11001.33
281.5105, 11031.49
281.9926, 11060.44
282.4748, 11083.75
282.9569, 11095.90
283.4390, 11094.85
283.9211, 11090.07
284.4032, 11079.13
284.8853, 11067.20
285.3675, 11048.04
285.8496, 11027.29
286.3317, 11023.89
286.8138, 11062.42
287.2959, 11156.81
287.7780, 11215.19
288.2602, 11205.94
288.7423, 11192.82
289.2244, 11202.32
289.7065, 11232.30
290.1886, 11266.27
290.6707, 11289.10
291.1529, 11299.44
291.6350, 11315.64
292.1171, 11351.74
292.5992, 11379.99
293.0813, 11382.57
293.5634, 11368.53
294.0456, 11359.74
294.5277, 11373.24
295.0098, 11408.66
295.4919, 11447.40
295.9740, 11501.09
296.4561, 11545.96
296.9383, 11577.12
297.4204, 11595.03
297.9025, 11600.03
298.3846, 11590.92
298.8667, 11569.93
299.3488, 11555.73
299.8310, 11551.46
300.3131, 11551.36
300.7952, 11563.05
301.2773, 11576.38
301.7594, 11574.84
302.2415, 11547.50
302.7237, 11503.42
303.2058, 11477.74
303.6879, 11402.54
304.1700, 11462.94
304.6521, 11493.45
305.1342, 11495.67
305.6164, 11384.86
306.0985, 11420.00
306.5806, 11396.65
307.0627, 11370.90
307.5448, 11426.58
308.0269, 11332.21
308.5091, 11386.60
308.9912, 11429.70
309.4733, 11459.97
309.9554, 11466.78
310.4375, 11462.72
310.9196, 11473.65
311.4018, 11517.21
311.8839, 11533.85
312.3660, 11492.71
312.8481, 11442.34
313.3302, 11417.48
313.8123, 11425.71
314.2945, 11449.35
314.7766, 11467.18
315.2587, 11479.47
315.7408, 11484.44
316.2229, 11477.97
316.7050, 11467.29
317.1872, 11454.57
317.6693, 11440.69
318.1514, 11427.29
318.6335, 11415.73
319.1156, 11406.02
319.5977, 11398.34
320.0799, 11384.59
320.5620, 11380.88
321.0441, 11404.15
321.5262, 11446.88
322.0083, 11482.44
322.4904, 11483.04
322.9726, 11451.04
323.4547, 11437.67
323.9368, 11457.01
324.4189, 11478.62
324.9010, 11492.05
325.3831, 11497.45
325.8653, 11495.99
326.3474, 11485.16
326.8295, 11468.40
327.3116, 11459.32
327.7937, 11462.47
328.2758, 11464.98
328.7580, 11459.84
329.2401, 11450.89
329.7222, 11443.74
330.2043, 11441.17
330.6864, 11441.22
331.1685, 11437.80
331.6507, 11426.96
332.1328, 11426.30
332.6149, 11461.33
333.0970, 11503.56
333.5791, 11521.54
334.0612, 11502.04
334.5434, 11468.92
335.0255, 11445.23
335.5076, 11430.71
335.9897, 11430.38
336.4718, 11457.39
336.9539, 11492.67
337.4361, 11516.29
337.9182, 11525.63
338.4003, 11528.50
338.8824, 11531.46
339.3645, 11533.62
339.8466, 11526.32
340.3288, 11497.00
340.8109, 11470.87
341.2930, 11480.49
341.7751, 11526.86
342.2572, 11567.82
342.7393, 11575.10
343.2215, 11562.63
343.7036, 11565.21
344.1857, 11593.06
344.6678, 11624.79
345.1499, 11639.34
345.6320, 11639.07
346.1142, 11628.95
346.5963, 11592.05
347.0784, 11554.42
347.5605, 11556.40
348.0426, 11603.47
348.5247, 11651.34
349.0069, 11661.88
349.4890, 11639.17
349.9711, 11625.83
350.4532, 11626.83
350.9353, 11635.76
351.4174, 11646.89
351.8996, 11661.05
352.3817, 11687.32
352.8638, 11739.16
353.3459, 11804.66
353.8280, 11828.61
354.3102, 11767.36
354.7923, 11717.65
355.2744, 11729.45
355.7565, 11777.96
356.2386, 11808.57
356.7207, 11794.94
357.2029, 11759.41
357.6850, 11759.15
358.1671, 11833.43
358.6492, 11878.71
359.1313, 11862.04
359.6134, 11819.75
360.0956, 11790.30
360.5777, 11784.56
361.0598, 11793.04
361.5419, 11803.34
362.0240, 11820.81
362.5061, 11825.45
362.9883, 11806.39
363.4704, 11783.82
363.9525, 11772.90
364.4346, 11773.41
364.9167, 11772.73
365.3988, 11755.45
365.8810, 11716.12
366.3631, 11710.02
366.8452, 11782.62
367.3273, 11839.94
367.8094, 11840.89
368.2915, 11800.78
368.7737, 11753.50
369.2558, 11718.37
369.7379, 11697.54
370.2200, 11706.20
370.7021, 11788.00
371.1842, 11841.88
371.6664, 11832.11
372.1485, 11793.00
372.6306, 11762.74
373.1127, 11756.76
373.5948, 11766.78
374.0769, 11779.64
374.5591, 11800.95
375.0412, 11809.76
375.5233, 11786.14
376.0054, 11760.63
376.4875, 11756.64
376.9696, 11777.22
377.4518, 11804.02
377.9339, 11820.08
378.4160, 11825.33
378.8981, 11822.75
379.3802, 11802.87
379.8623, 11785.97
380.3445, 11789.23
380.8266, 11807.66
381.3087, 11820.62
381.7908, 11811.35
382.2729, 11787.31
382.7550, 11770.43
383.2372, 11763.25
383.7193, 11757.81
384.2014, 11748.59
384.6835, 11737.57
385.1656, 11728.31
385.6477, 11721.93
386.1299, 11717.38
386.6120, 11711.77
387.0941, 11705.25
387.5762, 11704.96
388.0583, 11714.05
388.5404, 11732.18
389.0226, 11758.87
389.5047, 11803.32
389.9868, 11836.60
390.4689, 11838.21
390.9510, 11818.53
391.4331, 11799.55
391.9153, 11786.84
392.3974, 11780.51
392.8795, 11783.57
393.3616, 11800.18
393.8437, 11807.74
394.3258, 11801.55
394.8080, 11786.27
395.2901, 11760.26
395.7722, 11725.61
396.2543, 11698.02
396.7364, 11692.63
397.2185, 11711.35
397.7007, 11729.16
398.1828, 11753.40
398.6649, 11769.52
399.1470, 11767.49
399.6291, 11752.65
400.1112, 11735.45
400.5934, 11721.13
401.0755, 11711.13
401.5576, 11711.28
402.0397, 11727.14
402.5218, 11747.06
403.0039, 11787.02
403.4861, 11822.05
403.9682, 11820.93
404.4503, 11776.33
404.9324, 11717.03
405.4145, 11685.66
405.8966, 11689.13
406.3788, 11699.07
406.8609, 11730.29
407.3430, 11754.32
407.8251, 11753.43
408.3072, 11730.60
408.7893, 11702.16
409.2715, 11673.11
409.7536, 11647.08
410.2357, 11656.10
410.7178, 11723.88
411.1999, 11787.70
411.6820, 11824.79
412.1642, 11838.99
412.6463, 11833.60
413.1284, 11805.43
413.6105, 11764.84
414.0926, 11716.61
414.5747, 11658.24
415.0569, 11630.06
415.5390, 11662.24
416.0211, 11723.00
416.5032, 11771.67
416.9853, 11808.47
417.4674, 11827.31
417.9496, 11811.58
418.4317, 11776.23
418.9138, 11761.68
419.3959, 11781.83
419.8780, 11803.10
420.3601, 11779.52
420.8423, 11709.04
421.3244, 11664.28
421.8065, 11682.37
422.2886, 11708.08
422.7707, 11682.50
423.2528, 11614.18
423.7350, 11569.70
424.2171, 11600.54
424.6992, 11694.01
425.1813, 11742.72
425.6634, 11709.23
426.1455, 11682.75
426.6277, 11687.31
427.1098, 11709.77
427.5919, 11734.87
428.0740, 11756.55
428.5561, 11770.87
429.0382, 11769.38
429.5204, 11741.02
430.0025, 11718.44
430.4846, 11710.48
430.9667, 11700.20
431.4488, 11674.18
431.9309, 11634.39
432.4131, 11594.03
432.8952, 11561.23
433.3773, 11536.68
433.8594, 11533.71
434.3415, 11571.04
434.8236, 11603.83
435.3058, 11619.99
435.7879, 11621.19
436.2700, 11608.79
436.7521, 11581.27
437.2342, 11545.66
437.7163, 11507.44
438.1985, 11465.08
438.6806, 11437.36
439.1627, 11432.63
439.6448, 11444.14
440.1269, 11469.56
440.6090, 11510.73
441.0912, 11540.31
441.5733, 11543.30
442.0554, 11524.38
442.5375, 11483.04
443.0196, 11412.60
443.5017, 11358.10
443.9839, 11370.56
444.4660, 11444.67
444.9481, 11490.33
445.4302, 11491.52
445.9123, 11473.30
446.3944, 11438.63
446.8766, 11395.90
447.3587, 11369.58
447.8408, 11373.73
448.3229, 11397.81
448.8050, 11411.21
449.2871, 11403.72
449.7693, 11398.63
450.2514, 11394.97
450.7335, 11395.06
451.2156, 11406.08
451.6977, 11426.60
452.1798, 11441.66
452.6620, 11431.42
453.1441, 11390.51
453.6262, 11365.12
454.1083, 11360.21
454.5904, 11367.34
455.0725, 11398.11
455.5547, 11437.52
456.0368, 11458.63
456.5189, 11444.31
457.0010, 11409.92
457.4832, 11389.28
457.9653, 11385.52
458.4474, 11384.21
458.9295, 11378.24
459.4116, 11375.33
459.8937, 11385.75
460.3759, 11411.20
460.8580, 11432.10
461.3401, 11429.40
461.8222, 11411.19
462.3043, 11403.24
462.7864, 11410.92
463.2686, 11421.71
463.7507, 11427.04
464.2328, 11426.82
464.7149, 11420.44
465.1970, 11400.08
465.6791, 11380.20
466.1613, 11372.60
466.6434, 11374.06
467.1255, 11372.94
467.6076, 11363.34
468.0897, 11348.81
468.5718, 11337.97
469.0540, 11325.95
469.5361, 11325.64
470.0182, 11359.41
470.5003, 11390.90
470.9824, 11376.87
471.4645, 11320.33
471.9467, 11270.18
472.4288, 11279.80
472.9109, 11352.24
473.3930, 11389.34
473.8751, 11364.18
474.3572, 11331.44
474.8394, 11294.24
475.3215, 11261.19
475.8036, 11244.47
476.2857, 11250.36
476.7678, 11267.87
477.2499, 11286.99
477.7321, 11311.07
478.2142, 11306.74
478.6963, 11245.33
479.1784, 11172.85
479.6605, 11119.14
480.1426, 11085.84
480.6248, 11077.29
481.1069, 11117.07
481.5890, 11174.99
482.0711, 11198.77
482.5532, 11184.22
483.0353, 11161.05
483.5175, 11145.62
483.9996, 11137.08
484.4817, 11130.42
484.9638, 11135.93
485.4459, 11130.72
485.9280, 11094.74
486.4102, 11046.66
486.8923, 11016.12
487.3744, 11011.63
487.8565, 11018.19
488.3386, 11014.69
488.8207, 10995.07
489.3029, 10987.35
489.7850, 11008.53
490.2671, 11023.11
490.7492, 11012.22
491.2313, 10982.09
491.7134, 10948.14
492.1956, 10918.64
492.6777, 10893.13
493.1598, 10868.40
493.6419, 10840.13
494.1240, 10824.54
494.6061, 10827.09
495.0883, 10842.80
495.5704, 10878.03
496.0525, 10931.64
496.5346, 10971.79
497.0167, 10967.73
497.4988, 10932.67
497.9810, 10902.37
498.4631, 10877.97
498.9452, 10864.94
499.4273, 10873.61
499.9094, 10897.27
500.3915, 10910.62
500.8737, 10904.83
501.3558, 10896.28
501.8379, 10888.16
502.3200, 10883.96
502.8021, 10894.11
503.2842, 10922.83
503.7664, 10956.53
504.2485, 10974.91
504.7306, 10975.28
505.2127, 10966.35
505.6948, 10941.04
506.1769, 10914.11
506.6591, 10888.33
507.1412, 10867.50
507.6233, 10859.70
508.1054, 10871.93
508.5875, 10895.94
509.0696, 10905.99
509.5518, 10896.93
510.0339, 10885.91
510.5160, 10869.11
510.9981, 10856.93
511.4802, 10862.07
511.9623, 10884.68
512.4445, 10903.83
512.9266, 10905.75
513.4087, 10892.80
513.8908, 10866.72
514.3729, 10823.98
514.8550, 10786.69
515.3372, 10765.90
515.8193, 10763.71
516.3014, 10782.47
516.7835, 10852.81
517.2656, 10905.65
517.7477, 10893.52
518.2299, 10847.06
518.7120, 10820.87
519.1941, 10830.42
519.6762, 10849.73
520.1583, 10844.03
520.6404, 10804.96
521.1226, 10777.83
521.6047, 10759.31
522.0868, 10753.75
522.5689, 10769.73
523.0510, 10798.89
523.5331, 10828.21
524.0153, 10852.04
524.4974, 10868.46
524.9795, 10874.33
525.4616, 10870.32
525.9437, 10851.79
526.4258, 10796.44
526.9080, 10745.10
527.3901, 10727.58
527.8722, 10741.93
528.3543, 10766.22
528.8364, 10802.67
529.3185, 10836.54
529.8007, 10843.58
530.2828, 10823.49
530.7649, 10789.49
531.2470, 10740.73
531.7291, 10688.31
532.2112, 10665.25
532.6934, 10688.16
533.1755, 10702.77
533.6576, 10693.45
534.1397, 10673.82
534.6218, 10655.35
535.1039, 10640.47
535.5861, 10627.84
536.0682, 10616.67
536.5503, 10606.78
537.0324, 10595.25
537.5145, 10573.15
537.9966, 10561.68
538.4788, 10568.51
538.9609, 10585.79
539.4430, 10610.65
539.9251, 10641.88
540.4072, 10662.66
540.8893, 10645.80
541.3715, 10597.65
541.8536, 10572.14
542.3357, 10583.96
542.8178, 10596.64
543.2999, 10576.84
543.7820, 10536.85
544.2642, 10509.04
544.7463, 10505.78
545.2284, 10507.71
545.7105, 10499.12
546.1926, 10487.79
546.6747, 10497.03
547.1569, 10535.13
547.6390, 10572.90
548.1211, 10567.33
548.6032, 10500.46
549.0853, 10461.35
549.5674, 10455.08
550.0496, 10466.45
550.5317, 10507.56
551.0138, 10558.46
551.4959, 10583.35
551.9780, 10563.43
552.4601, 10522.06
552.9423, 10499.92
553.4244, 10498.83
553.9065, 10505.16
554.3886, 10526.59
554.8707, 10544.12
555.3528, 10534.16
555.8350, 10504.92
556.3171, 10496.01
556.7992, 10542.49
557.2813, 10602.60
557.7634, 10638.10
558.2455, 10649.03
558.7277, 10632.11
559.2098, 10578.42
559.6919, 10514.92
560.1740, 10494.24
560.6561, 10545.55
561.1382, 10577.66
561.6204, 10571.01
562.1025, 10560.74
562.5846, 10574.63
563.0667, 10605.79
563.5488, 10627.30
564.0309, 10620.38
564.5131, 10597.33
564.9952, 10598.03
565.4773, 10637.15
565.9594, 10657.37
566.4415, 10622.43
566.9236, 10582.26
567.4058, 10574.88
567.8879, 10598.47
568.3700, 10616.81
568.8521, 10603.32
569.3342, 10576.85
569.8163, 10569.03
570.2985, 10579.16
570.7806, 10581.55
571.2627, 10560.62
571.7448, 10527.41
572.2269, 10509.11
572.7090, 10510.14
573.1912, 10515.49
573.6733, 10533.28
574.1554, 10547.75
574.6375, 10542.18
575.1196, 10520.32
575.6017, 10500.67
576.0839, 10497.17
576.5660, 10504.26
577.0481, 10498.04
577.5302, 10466.30
578.0123, 10450.67
578.4944, 10486.83
578.9766, 10523.69
579.4587, 10516.53
579.9408, 10466.21
580.4229, 10422.67
580.9050, 10422.05
581.3871, 10441.78
581.8693, 10441.83
582.3514, 10422.30
582.8335, 10416.82
583.3156, 10449.40
583.7977, 10498.91
584.2798, 10510.80
584.7620, 10459.84
585.2441, 10424.63
585.7262, 10418.46
586.2083, 10425.46
586.6904, 10438.66
587.1725, 10454.26
587.6547, 10467.28
588.1368, 10475.08
588.6189, 10476.12
589.1010, 10462.66
589.5831, 10426.57
590.0652, 10398.37
590.5474, 10393.00
591.0295, 10391.93
591.5116, 10378.22
591.9937, 10353.16
592.4758, 10338.13
592.9579, 10355.96
593.4401, 10382.47
