##NAMES=Serendibite
##RRUFFID=R070622
##IDEAL CHEMISTRY=Ca_4_(Mg_6_Al_6_)O_4_[Si_6_B_3_Al_3_O_36_]
##LOCALITY=Sri Lanka
##OWNER=RRUFF
##SOURCE=Shinichi Kihara
##DESCRIPTION=Deep blue-green vitreous crystals with conchoidal fracture.
##STATUS=The identification of this mineral has been confirmed by single-crystal X-ray diffraction.
##URL=rruff.info/R070622
131.7175, 11840.81
132.1996, 12017.58
132.6818, 12261.12
133.1639, 12563.73
133.6460, 12807.04
134.1281, 12992.19
134.6102, 13116.58
135.0923, 13161.92
135.5745, 13112.95
136.0566, 13053.41
136.5387, 13022.08
137.0208, 13022.98
137.5029, 13031.33
137.9850, 13046.55
138.4672, 13068.18
138.9493, 13097.32
139.4314, 13141.99
139.9135, 13180.96
140.3956, 13193.73
140.8777, 13157.42
141.3599, 13147.23
141.8420, 13176.08
142.3241, 13245.36
142.8062, 13319.13
143.2883, 13331.03
143.7704, 13316.01
144.2526, 13317.53
144.7347, 13337.08
145.2168, 13369.84
145.6989, 13418.76
146.1810, 13497.71
146.6631, 13555.49
147.1453, 13581.75
147.6274, 13589.37
148.1095, 13602.29
148.5916, 13623.82
149.0737, 13648.25
149.5558, 13674.17
150.0379, 13715.66
150.5201, 13741.15
151.0022, 13733.11
151.4843, 13702.70
151.9664, 13697.00
152.4485, 13747.49
152.9306, 13807.59
153.4128, 13849.33
153.8949, 13860.31
154.3770, 13861.93
154.8591, 13861.03
155.3412, 13857.71
155.8233, 13838.96
156.3055, 13790.29
156.7876, 13728.76
157.2697, 13671.96
157.7518, 13618.45
158.2339, 13575.03
158.7160, 13547.12
159.1982, 13538.68
159.6803, 13529.27
160.1624, 13527.10
160.6445, 13517.60
161.1266, 13475.89
161.6087, 13340.27
162.0909, 13201.90
162.5730, 13126.22
163.0551, 13156.45
163.5372, 13188.89
164.0193, 13166.90
164.5014, 13102.68
164.9836, 13034.52
165.4657, 12975.62
165.9478, 12925.51
166.4299, 12882.75
166.9120, 12834.07
167.3941, 12805.43
167.8763, 12834.07
168.3584, 12914.04
168.8405, 12978.67
169.3226, 12966.16
169.8047, 12913.07
170.2868, 12873.92
170.7690, 12880.87
171.2511, 12905.63
171.7332, 12927.12
172.2153, 12946.02
172.6974, 12944.00
173.1795, 12873.49
173.6617, 12765.38
174.1438, 12695.60
174.6259, 12734.40
175.1080, 12825.71
175.5901, 12885.21
176.0722, 12903.73
176.5544, 12898.48
177.0365, 12881.33
177.5186, 12854.51
178.0007, 12829.01
178.4828, 12808.17
178.9649, 12793.87
179.4471, 12792.98
179.9292, 12814.41
180.4113, 12838.85
180.8934, 12828.96
181.3755, 12787.24
181.8576, 12749.66
182.3397, 12764.50
182.8219, 12813.42
183.3040, 12819.38
183.7861, 12734.75
184.2682, 12610.81
184.7503, 12576.43
185.2324, 12638.16
185.7146, 12716.20
186.1967, 12724.82
186.6788, 12671.91
187.1609, 12627.06
187.6430, 12618.68
188.1251, 12637.97
188.6073, 12651.66
189.0894, 12660.75
189.5715, 12658.96
190.0536, 12626.11
190.5357, 12562.28
191.0178, 12516.79
191.5000, 12525.00
191.9821, 12581.37
192.4642, 12609.87
192.9463, 12603.92
193.4284, 12580.33
193.9105, 12567.09
194.3927, 12564.95
194.8748, 12569.44
195.3569, 12572.96
195.8390, 12575.15
196.3211, 12610.96
196.8032, 12701.46
197.2854, 12811.83
197.7675, 12842.54
198.2496, 12781.63
198.7317, 12692.54
199.2138, 12609.11
199.6959, 12527.16
200.1780, 12477.07
200.6602, 12468.07
201.1423, 12493.16
201.6244, 12523.64
202.1065, 12564.57
202.5886, 12597.59
203.0707, 12600.44
203.5529, 12564.79
204.0350, 12540.37
204.5171, 12542.27
204.9992, 12568.58
205.4813, 12584.12
205.9634, 12589.21
206.4456, 12583.86
206.9277, 12563.56
207.4098, 12521.07
207.8919, 12488.49
208.3740, 12480.38
208.8561, 12500.05
209.3383, 12497.95
209.8204, 12463.58
210.3025, 12419.25
210.7846, 12401.72
211.2667, 12422.03
211.7488, 12441.28
212.2310, 12439.29
212.7131, 12403.78
213.1952, 12405.73
213.6773, 12460.65
214.1594, 12543.15
214.6415, 12601.13
215.1236, 12634.58
215.6058, 12643.14
216.0879, 12615.87
216.5700, 12526.28
217.0521, 12485.62
217.5342, 12516.09
218.0163, 12593.20
218.4985, 12635.70
218.9806, 12623.29
219.4627, 12608.68
219.9448, 12627.15
220.4269, 12702.56
220.9090, 12746.78
221.3912, 12735.48
221.8733, 12683.53
222.3554, 12682.85
222.8375, 12771.24
223.3196, 12859.73
223.8017, 12880.15
224.2839, 12787.05
224.7660, 12723.83
225.2481, 12718.78
225.7302, 12766.60
226.2123, 12790.53
226.6944, 12777.17
227.1766, 12754.71
227.6587, 12749.09
228.1408, 12773.00
228.6229, 12789.58
229.1050, 12794.32
229.5871, 12787.60
230.0693, 12763.89
230.5514, 12712.04
231.0335, 12653.98
231.5156, 12613.72
231.9977, 12599.31
232.4798, 12588.16
232.9619, 12576.20
233.4441, 12563.64
233.9262, 12547.21
234.4083, 12517.66
234.8904, 12490.97
235.3725, 12491.13
235.8546, 12537.13
236.3368, 12577.94
236.8189, 12598.44
237.3010, 12595.39
237.7831, 12584.44
238.2652, 12557.00
238.7473, 12526.47
239.2295, 12518.12
239.7116, 12552.23
240.1937, 12576.18
240.6758, 12566.02
241.1579, 12500.35
241.6400, 12469.17
242.1222, 12487.69
242.6043, 12534.58
243.0864, 12567.37
243.5685, 12592.76
244.0506, 12593.83
244.5327, 12554.67
245.0149, 12435.82
245.4970, 12375.26
245.9791, 12403.32
246.4612, 12482.20
246.9433, 12506.42
247.4254, 12445.67
247.9075, 12374.78
248.3897, 12326.62
248.8718, 12305.64
249.3539, 12298.97
249.8360, 12312.91
250.3181, 12340.48
250.8002, 12354.84
251.2824, 12346.80
251.7645, 12339.79
252.2466, 12351.02
252.7287, 12398.91
253.2108, 12419.40
253.6929, 12401.80
254.1751, 12353.91
254.6572, 12306.35
255.1393, 12252.88
255.6214, 12209.40
256.1035, 12189.72
256.5856, 12209.53
257.0677, 12209.56
257.5499, 12167.47
258.0320, 12097.63
258.5141, 12095.27
258.9962, 12196.28
259.4783, 12306.38
259.9604, 12350.98
260.4426, 12297.73
260.9247, 12273.77
261.4068, 12308.75
261.8889, 12391.15
262.3710, 12428.67
262.8531, 12404.03
263.3353, 12365.09
263.8174, 12347.84
264.2995, 12353.43
264.7816, 12379.12
265.2637, 12431.64
265.7458, 12506.15
266.2280, 12563.30
266.7101, 12599.34
267.1922, 12624.84
267.6743, 12646.81
268.1564, 12663.52
268.6385, 12685.40
269.1207, 12718.54
269.6028, 12760.22
270.0849, 12782.05
270.5670, 12776.32
271.0491, 12767.45
271.5313, 12776.22
272.0134, 12802.22
272.4955, 12852.65
272.9776, 12951.30
273.4597, 13083.64
273.9418, 13112.56
274.4240, 13007.37
274.9061, 12878.50
275.3882, 12852.87
275.8703, 12944.17
276.3524, 13018.76
276.8345, 13036.59
277.3167, 13006.25
277.7988, 12990.25
278.2809, 12991.74
278.7630, 12997.90
279.2451, 12993.45
279.7272, 12977.77
280.2094, 12966.31
280.6915, 12969.00
281.1736, 12981.09
281.6557, 12961.10
282.1378, 12898.29
282.6199, 12848.84
283.1021, 12898.89
283.5842, 13045.52
284.0663, 13158.40
284.5484, 13183.96
285.0305, 13141.06
285.5126, 13110.39
285.9948, 13090.69
286.4769, 13086.87
286.9590, 13118.59
287.4411, 13180.34
287.9232, 13219.51
288.4053, 13198.31
288.8874, 13142.26
289.3695, 13139.83
289.8517, 13195.25
290.3338, 13265.97
290.8159, 13304.17
291.2980, 13316.19
291.7801, 13335.23
292.2622, 13371.19
292.7444, 13423.26
293.2265, 13499.78
293.7086, 13602.55
294.1907, 13700.10
294.6728, 13760.51
295.1549, 13789.26
295.6371, 13801.30
296.1192, 13787.17
296.6013, 13765.44
297.0834, 13776.03
297.5655, 13820.12
298.0476, 13863.80
298.5298, 13863.22
299.0119, 13837.58
299.4940, 13832.87
299.9761, 13892.34
300.4582, 13970.56
300.9403, 14007.90
301.4225, 14003.27
301.9046, 13983.14
302.3867, 13969.41
302.8688, 13954.92
303.3509, 13927.22
303.8330, 13851.55
304.3152, 13777.99
304.7973, 13770.28
305.2794, 13827.61
305.7615, 13878.45
306.2436, 13859.36
306.7257, 13805.62
307.2079, 13766.65
307.6900, 13787.57
308.1721, 13811.11
308.6542, 13790.05
309.1363, 13726.09
309.6184, 13661.01
310.1006, 13616.51
310.5827, 13585.50
311.0648, 13560.02
311.5469, 13540.53
312.0290, 13522.65
312.5111, 13500.92
312.9933, 13475.81
313.4754, 13459.53
313.9575, 13474.57
314.4396, 13492.98
314.9217, 13488.68
315.4038, 13428.22
315.8860, 13367.89
316.3681, 13322.90
316.8502, 13293.97
317.3323, 13285.46
317.8144, 13324.99
318.2965, 13372.03
318.7787, 13394.89
319.2608, 13368.24
319.7429, 13335.76
320.2250, 13298.98
320.7071, 13260.36
321.1892, 13241.95
321.6713, 13279.47
322.1534, 13319.55
322.6356, 13328.08
323.1177, 13255.27
323.5998, 13201.78
324.0819, 13191.10
324.5640, 13217.06
325.0461, 13229.51
325.5283, 13206.25
326.0104, 13183.02
326.4925, 13179.19
326.9746, 13221.81
327.4567, 13248.41
327.9388, 13256.09
328.4210, 13245.75
328.9031, 13220.39
329.3852, 13164.29
329.8673, 13109.32
330.3494, 13071.60
330.8315, 13059.23
331.3137, 13047.24
331.7958, 13030.55
332.2779, 13013.88
332.7600, 13015.78
333.2421, 13045.71
333.7242, 13077.83
334.2064, 13099.43
334.6885, 13108.08
335.1706, 13114.29
335.6527, 13117.73
336.1348, 13119.75
336.6169, 13125.93
337.0991, 13140.13
337.5812, 13146.40
338.0633, 13129.03
338.5454, 13084.10
339.0275, 13065.23
339.5096, 13076.91
339.9918, 13111.50
340.4739, 13163.19
340.9560, 13234.89
341.4381, 13294.41
341.9202, 13315.97
342.4023, 13305.46
342.8845, 13313.90
343.3666, 13345.05
343.8487, 13387.35
344.3308, 13428.58
344.8129, 13468.12
345.2950, 13503.13
345.7772, 13524.79
346.2593, 13540.90
346.7414, 13575.93
347.2235, 13632.53
347.7056, 13695.38
348.1877, 13758.79
348.6699, 13817.72
349.1520, 13853.65
349.6341, 13837.88
350.1162, 13803.27
350.5983, 13799.43
351.0804, 13827.77
351.5626, 13859.70
352.0447, 13869.56
352.5268, 13866.79
353.0089, 13867.61
353.4910, 13875.98
353.9731, 13891.76
354.4552, 13917.86
354.9373, 13953.31
355.4195, 13987.74
355.9016, 14012.32
356.3837, 14033.10
356.8658, 14056.97
357.3479, 14099.57
357.8300, 14132.40
358.3122, 14134.46
358.7943, 14111.28
359.2764, 14093.10
359.7585, 14100.92
360.2406, 14113.89
360.7227, 14116.99
361.2049, 14102.93
361.6870, 14084.04
362.1691, 14050.00
362.6512, 14010.27
363.1333, 13998.84
363.6154, 14065.53
364.0976, 14130.30
364.5797, 14151.80
365.0618, 14082.53
365.5439, 14035.53
366.0260, 14021.51
366.5081, 14033.80
366.9903, 14056.94
367.4724, 14108.14
367.9545, 14152.49
368.4366, 14176.81
368.9187, 14171.16
369.4008, 14172.92
369.8830, 14195.71
370.3651, 14218.51
370.8472, 14201.56
371.3293, 14117.68
371.8114, 14046.69
372.2935, 14015.52
372.7757, 14028.58
373.2578, 14043.62
373.7399, 14062.38
374.2220, 14080.47
374.7041, 14091.11
375.1862, 14093.00
375.6684, 14095.78
376.1505, 14105.17
376.6326, 14118.51
377.1147, 14111.60
377.5968, 14078.65
378.0789, 14052.04
378.5611, 14072.72
379.0432, 14135.53
379.5253, 14185.65
380.0074, 14204.40
380.4895, 14205.55
380.9716, 14220.19
381.4538, 14247.98
381.9359, 14276.48
382.4180, 14294.51
382.9001, 14306.01
383.3822, 14321.04
383.8643, 14344.58
384.3465, 14367.14
384.8286, 14367.97
385.3107, 14354.38
385.7928, 14355.25
386.2749, 14409.69
386.7570, 14478.37
387.2391, 14515.72
387.7213, 14507.09
388.2034, 14488.64
388.6855, 14469.24
389.1676, 14458.26
389.6497, 14475.54
390.1318, 14572.06
390.6140, 14667.81
391.0961, 14706.49
391.5782, 14671.62
392.0603, 14645.58
392.5424, 14671.85
393.0245, 14719.63
393.5067, 14750.73
393.9888, 14731.20
394.4709, 14718.56
394.9530, 14736.71
395.4351, 14789.56
395.9172, 14824.75
396.3994, 14810.32
396.8815, 14791.62
397.3636, 14806.53
397.8457, 14910.53
398.3278, 14973.64
398.8099, 14957.14
399.2921, 14877.03
399.7742, 14859.20
400.2563, 14939.20
400.7384, 15033.49
401.2205, 15091.81
401.7026, 15100.36
402.1848, 15116.87
402.6669, 15154.65
403.1490, 15196.42
403.6311, 15187.32
404.1132, 15111.00
404.5953, 15048.71
405.0775, 15053.71
405.5596, 15124.92
406.0417, 15159.64
406.5238, 15146.96
407.0059, 15119.58
407.4880, 15130.67
407.9702, 15176.08
408.4523, 15208.03
408.9344, 15194.56
409.4165, 15154.03
409.8986, 15136.29
410.3807, 15142.30
410.8629, 15151.44
411.3450, 15145.79
411.8271, 15129.13
412.3092, 15108.49
412.7913, 15075.39
413.2734, 15049.60
413.7556, 15053.30
414.2377, 15083.71
414.7198, 15122.58
415.2019, 15158.45
415.6840, 15197.22
416.1661, 15247.33
416.6483, 15325.42
417.1304, 15389.29
417.6125, 15412.76
418.0946, 15405.27
418.5767, 15389.20
419.0588, 15347.64
419.5410, 15317.88
420.0230, 15324.00
420.5052, 15387.62
420.9873, 15432.49
421.4694, 15443.21
421.9515, 15429.86
422.4336, 15406.48
422.9157, 15344.65
423.3979, 15305.92
423.8800, 15312.14
424.3621, 15369.88
424.8442, 15406.08
425.3263, 15422.22
425.8084, 15415.98
426.2906, 15373.80
426.7727, 15266.78
427.2548, 15214.72
427.7369, 15257.54
428.2190, 15365.33
428.7011, 15400.54
429.1833, 15347.68
429.6654, 15282.73
430.1475, 15259.28
430.6296, 15274.31
431.1117, 15271.46
431.5938, 15239.39
432.0760, 15199.37
432.5581, 15193.93
433.0402, 15217.92
433.5223, 15230.52
434.0044, 15201.73
434.4865, 15149.74
434.9687, 15105.99
435.4508, 15071.62
435.9329, 15049.65
436.4150, 15059.16
436.8971, 15081.55
437.3792, 15083.50
437.8614, 15018.48
438.3435, 14955.56
438.8256, 14954.42
439.3077, 15007.62
439.7898, 15055.56
440.2719, 15066.29
440.7541, 15061.25
441.2362, 15057.48
441.7183, 15062.33
442.2004, 15063.36
442.6825, 15049.97
443.1646, 15029.60
443.6468, 15022.27
444.1289, 15035.18
444.6110, 15057.82
445.0931, 15086.42
445.5752, 15119.74
446.0573, 15161.60
446.5395, 15222.22
447.0216, 15284.74
447.5037, 15326.82
447.9858, 15336.34
448.4679, 15351.76
448.9500, 15389.23
449.4322, 15444.60
449.9143, 15460.69
450.3964, 15425.02
450.8785, 15386.32
451.3606, 15386.85
451.8427, 15426.72
452.3249, 15477.24
452.8070, 15540.56
453.2891, 15604.27
453.7712, 15642.77
454.2533, 15657.74
454.7354, 15663.67
455.2175, 15667.10
455.6996, 15668.30
456.1818, 15662.90
456.6639, 15647.76
457.1460, 15645.00
457.6281, 15688.53
458.1102, 15757.63
458.5923, 15815.24
459.0745, 15835.69
459.5566, 15846.55
460.0387, 15866.29
460.5208, 15894.58
461.0029, 15921.43
461.4850, 15938.37
461.9672, 15954.17
462.4493, 15975.66
462.9314, 16014.28
463.4135, 16044.98
463.8956, 16059.32
464.3777, 16061.39
464.8599, 16064.58
465.3420, 16078.87
465.8241, 16084.46
466.3062, 16070.24
466.7883, 16024.31
467.2704, 16003.45
467.7526, 16028.13
468.2347, 16058.86
468.7168, 16039.23
469.1989, 15952.31
469.6810, 15879.75
470.1631, 15847.16
470.6453, 15845.06
471.1274, 15826.08
471.6095, 15790.32
472.0916, 15741.34
472.5737, 15667.07
473.0558, 15577.53
473.5380, 15526.47
474.0201, 15530.35
474.5022, 15554.28
474.9843, 15560.86
475.4664, 15548.58
475.9485, 15512.10
476.4307, 15412.36
476.9128, 15305.12
477.3949, 15265.51
477.8770, 15300.69
478.3591, 15328.74
478.8412, 15284.85
479.3234, 15210.13
479.8055, 15151.78
480.2876, 15131.72
480.7697, 15123.75
481.2518, 15128.83
481.7339, 15142.24
482.2161, 15139.56
482.6982, 15099.62
483.1803, 15055.30
483.6624, 15022.99
484.1445, 15007.60
484.6266, 14993.19
485.1088, 14969.63
485.5909, 14952.24
486.0730, 14971.82
486.5551, 15056.16
487.0372, 15109.68
487.5193, 15090.55
488.0014, 15006.54
488.4836, 14983.60
488.9657, 15033.72
489.4478, 15097.27
489.9299, 15120.05
490.4120, 15106.63
490.8941, 15103.66
491.3763, 15124.32
491.8584, 15148.95
492.3405, 15145.17
492.8226, 15117.13
493.3047, 15083.45
493.7868, 15038.28
494.2690, 15001.68
494.7511, 15006.41
495.2332, 15057.84
495.7153, 15111.33
496.1974, 15143.30
496.6795, 15158.63
497.1617, 15164.17
497.6438, 15142.33
498.1259, 15130.58
498.6080, 15153.02
499.0901, 15201.32
499.5722, 15230.22
500.0544, 15196.40
500.5365, 15168.96
501.0186, 15183.74
501.5007, 15270.81
501.9828, 15333.42
502.4649, 15362.14
502.9471, 15372.41
503.4292, 15387.62
503.9113, 15412.36
504.3934, 15429.24
504.8755, 15431.33
505.3576, 15421.70
505.8398, 15416.54
506.3219, 15415.42
506.8040, 15423.38
507.2861, 15449.80
507.7682, 15490.78
508.2503, 15524.56
508.7325, 15544.63
509.2146, 15564.63
509.6967, 15610.18
510.1788, 15671.63
510.6609, 15718.78
511.1430, 15719.05
511.6252, 15708.12
512.1072, 15720.04
512.5894, 15756.02
513.0715, 15796.20
513.5536, 15828.43
514.0357, 15860.64
514.5178, 15900.34
514.9999, 15977.66
515.4821, 16029.25
515.9642, 16016.81
516.4463, 15966.14
516.9284, 15959.40
517.4105, 16046.14
517.8926, 16124.72
518.3748, 16160.11
518.8569, 16143.97
519.3390, 16134.13
519.8211, 16129.60
520.3032, 16132.99
520.7853, 16151.10
521.2675, 16186.73
521.7496, 16211.79
522.2317, 16217.16
522.7138, 16211.97
523.1959, 16222.42
523.6780, 16247.30
524.1602, 16265.71
524.6423, 16260.47
525.1244, 16240.47
525.6065, 16224.36
526.0886, 16214.90
526.5707, 16197.92
527.0529, 16156.73
527.5350, 16101.47
528.0171, 16047.32
528.4992, 15979.75
528.9813, 15933.33
529.4634, 15949.95
529.9456, 16011.22
530.4277, 16027.66
530.9098, 15916.66
531.3919, 15800.55
531.8740, 15743.67
532.3561, 15782.69
532.8383, 15803.08
533.3204, 15805.37
533.8025, 15788.54
534.2846, 15744.25
534.7667, 15651.35
535.2488, 15590.48
535.7310, 15588.01
536.2131, 15629.23
536.6952, 15646.95
537.1773, 15638.91
537.6594, 15627.67
538.1415, 15631.43
538.6237, 15645.45
539.1058, 15652.53
539.5879, 15651.76
540.0700, 15641.21
540.5521, 15610.91
541.0342, 15569.45
541.5164, 15534.79
541.9985, 15508.65
542.4806, 15496.30
542.9627, 15519.53
543.4448, 15568.90
543.9269, 15586.32
544.4091, 15508.80
544.8912, 15421.78
545.3733, 15375.68
545.8554, 15392.72
546.3375, 15417.99
546.8196, 15446.60
547.3018, 15481.28
547.7839, 15528.06
548.2660, 15603.96
548.7481, 15657.52
549.2302, 15671.89
549.7123, 15654.19
550.1945, 15645.91
550.6766, 15647.15
551.1587, 15656.72
551.6408, 15681.30
552.1229, 15716.29
552.6050, 15732.54
553.0872, 15725.79
553.5693, 15710.13
554.0514, 15690.21
554.5335, 15673.89
555.0156, 15681.14
555.4977, 15734.87
555.9799, 15802.12
556.4620, 15865.62
556.9441, 15922.92
557.4262, 15961.71
557.9083, 15961.20
558.3904, 15951.04
558.8726, 15947.63
559.3547, 15952.42
559.8368, 15965.31
560.3189, 15998.98
560.8010, 16034.54
561.2831, 16050.41
561.7653, 16034.47
562.2474, 16020.10
562.7295, 16009.65
563.2116, 16005.12
563.6937, 16019.96
564.1758, 16059.61
564.6580, 16093.78
565.1401, 16102.35
565.6222, 16089.25
566.1043, 16079.61
566.5864, 16075.69
567.0685, 16067.92
567.5507, 16038.87
568.0327, 15998.97
568.5148, 15969.74
568.9969, 15958.83
569.4791, 15960.28
569.9612, 15985.21
570.4433, 16021.58
570.9254, 16031.39
571.4075, 15951.76
571.8896, 15879.90
572.3718, 15879.75
572.8539, 15981.22
573.3360, 16031.30
573.8181, 15967.65
574.3002, 15881.00
574.7823, 15849.38
575.2645, 15909.35
575.7466, 15935.31
576.2287, 15902.76
576.7108, 15837.92
577.1929, 15805.74
577.6750, 15810.27
578.1572, 15811.99
578.6393, 15787.54
579.1214, 15746.09
579.6035, 15722.03
580.0856, 15715.35
580.5677, 15715.43
581.0499, 15719.07
581.5320, 15722.29
582.0141, 15717.10
582.4962, 15696.09
582.9783, 15680.38
583.4604, 15693.97
583.9426, 15719.96
584.4247, 15728.77
584.9068, 15692.51
585.3889, 15656.81
585.8710, 15633.72
586.3531, 15623.68
586.8353, 15625.19
587.3174, 15659.16
587.7995, 15678.18
588.2816, 15647.88
588.7637, 15549.10
589.2458, 15482.68
589.7280, 15452.14
590.2101, 15449.54
590.6922, 15479.35
591.1743, 15536.73
591.6564, 15566.36
592.1385, 15537.55
592.6207, 15487.15
593.1028, 15480.45
593.5849, 15509.03
594.0670, 15530.68
594.5491, 15519.06
595.0313, 15490.63
595.5134, 15452.88
595.9955, 15404.36
596.4776, 15372.16
596.9597, 15385.31
597.4418, 15410.24
597.9240, 15416.35
598.4061, 15369.23
598.8882, 15342.59
599.3703, 15356.63
599.8524, 15388.84
600.3345, 15381.97
600.8167, 15319.94
601.2988, 15262.06
601.7809, 15223.19
602.2630, 15205.03
602.7451, 15233.36
603.2272, 15312.34
603.7094, 15381.84
604.1915, 15382.86
604.6736, 15337.92
605.1557, 15299.61
605.6378, 15276.86
606.1199, 15259.29
606.6021, 15234.63
607.0842, 15210.24
607.5663, 15198.38
608.0484, 15204.75
608.5305, 15223.24
609.0126, 15257.67
609.4948, 15304.95
609.9769, 15345.80
610.4590, 15375.94
610.9411, 15400.87
611.4232, 15421.97
611.9053, 15439.07
612.3875, 15453.42
612.8696, 15465.53
613.3517, 15473.26
613.8338, 15465.42
614.3159, 15443.06
614.7980, 15452.50
615.2802, 15509.88
615.7623, 15584.65
616.2444, 15632.72
616.7265, 15658.72
617.2086, 15678.86
617.6907, 15705.75
618.1729, 15726.73
618.6550, 15721.35
619.1371, 15694.02
619.6192, 15684.80
620.1013, 15740.59
620.5834, 15798.21
621.0656, 15814.41
621.5477, 15754.00
622.0298, 15724.01
622.5119, 15744.38
622.9940, 15783.45
623.4761, 15806.25
623.9583, 15808.38
624.4404, 15808.46
624.9225, 15806.92
625.4046, 15807.41
625.8867, 15830.42
626.3688, 15873.87
626.8510, 15891.66
627.3331, 15835.98
627.8152, 15746.53
628.2973, 15694.86
628.7794, 15680.58
629.2615, 15671.77
