##NAMES=Serendibite
##RRUFFID=R070633
##IDEAL CHEMISTRY=Ca_4_(Mg_6_Al_6_)O_4_[Si_6_B_3_Al_3_O_36_]
##LOCALITY=Burma
##OWNER=RRUFF
##SOURCE=www.multicolour.com
##DESCRIPTION=Black, dark blue under strong light, polished gemstone
##STATUS=The identification of this mineral has been confirmed by X-ray diffraction and chemical analysis
##URL=rruff.info/R070633
##MEASURED CHEMISTRY=(Ca_1.91_Na_0.09_)_Σ=2_(Mg_2.59_Al_0.18_Fe^2+^_0.11_Fe^3+^_0.11_)_Σ=3_Al_4.50_B_1.50_(Si_2.78_Al_0.22_)_Σ=3_O_20_ ; B_2_O_3_ estimated by charge balance; Fe^2+^ and Fe^3+^ splitted by charge balance
126.2818, 3194.085
126.7639, 3335.158
127.2460, 3483.905
127.7281, 3634.903
128.2102, 3788.807
128.6924, 3948.842
129.1745, 4120.330
129.6566, 4297.145
130.1387, 4463.811
130.6208, 4619.417
131.1029, 4764.240
131.5850, 4907.542
132.0672, 5049.721
132.5493, 5160.908
133.0314, 5232.792
133.5135, 5265.364
133.9956, 5254.713
134.4777, 5194.659
134.9599, 5099.877
135.4420, 4997.062
135.9241, 4885.664
136.4062, 4770.624
136.8883, 4653.646
137.3704, 4535.305
137.8526, 4416.512
138.3347, 4292.130
138.8168, 4167.195
139.2989, 4066.494
139.7810, 3996.632
140.2631, 3940.711
140.7453, 3882.761
141.2274, 3812.907
141.7095, 3764.141
142.1916, 3745.772
142.6737, 3760.358
143.1558, 3781.294
143.6380, 3814.406
144.1201, 3850.434
144.6022, 3876.451
145.0843, 3873.451
145.5664, 3848.323
146.0485, 3847.983
146.5307, 3897.991
147.0128, 3917.629
147.4949, 3885.717
147.9770, 3823.990
148.4591, 3787.868
148.9412, 3803.163
149.4234, 3823.069
149.9055, 3829.549
150.3876, 3812.108
150.8697, 3793.831
151.3518, 3773.339
151.8339, 3751.697
152.3161, 3737.796
152.7982, 3738.087
153.2803, 3743.044
153.7624, 3745.963
154.2445, 3753.992
154.7266, 3752.248
155.2087, 3734.173
155.6909, 3698.376
156.1730, 3662.548
156.6551, 3623.720
157.1372, 3589.033
157.6193, 3566.376
158.1014, 3565.923
158.5836, 3571.685
159.0657, 3580.749
159.5478, 3599.339
160.0299, 3600.724
160.5120, 3556.555
160.9941, 3487.698
161.4763, 3437.644
161.9584, 3441.636
162.4405, 3460.162
162.9226, 3465.617
163.4047, 3446.764
163.8868, 3421.887
164.3690, 3397.210
164.8511, 3373.437
165.3332, 3353.643
165.8153, 3341.438
166.2974, 3333.399
166.7795, 3325.890
167.2617, 3315.080
167.7438, 3306.362
168.2259, 3304.310
168.7080, 3308.817
169.1901, 3315.507
169.6722, 3325.351
170.1544, 3334.990
170.6365, 3338.796
171.1186, 3331.315
171.6007, 3318.289
172.0828, 3306.114
172.5649, 3295.620
173.0471, 3282.492
173.5292, 3257.032
174.0113, 3224.685
174.4934, 3200.688
174.9755, 3200.746
175.4576, 3212.805
175.9397, 3218.267
176.4219, 3214.298
176.9040, 3204.531
177.3861, 3190.289
177.8682, 3172.648
178.3503, 3157.181
178.8324, 3147.498
179.3146, 3142.867
179.7967, 3142.136
180.2788, 3147.833
180.7609, 3154.366
181.2430, 3151.983
181.7251, 3140.781
182.2073, 3125.647
182.6894, 3107.143
183.1715, 3087.064
183.6536, 3074.335
184.1357, 3076.513
184.6178, 3086.570
185.1000, 3084.222
185.5821, 3068.193
186.0642, 3049.416
186.5463, 3039.966
187.0284, 3039.194
187.5105, 3039.823
187.9927, 3037.350
188.4748, 3033.208
188.9569, 3035.995
189.4390, 3047.097
189.9211, 3061.131
190.4032, 3070.445
190.8854, 3074.866
191.3675, 3077.746
191.8496, 3081.355
192.3317, 3085.406
192.8138, 3085.219
193.2959, 3078.627
193.7781, 3070.282
194.2602, 3072.390
194.7423, 3086.769
195.2244, 3098.567
195.7065, 3095.042
196.1886, 3075.682
196.6708, 3063.342
197.1529, 3063.019
197.6350, 3070.737
198.1171, 3074.846
198.5992, 3076.458
199.0813, 3070.761
199.5634, 3049.148
200.0456, 3008.487
200.5277, 2977.894
201.0098, 2965.942
201.4919, 2969.513
201.9740, 2964.889
202.4561, 2949.946
202.9383, 2931.444
203.4204, 2917.209
203.9025, 2908.675
204.3846, 2897.134
204.8667, 2877.955
205.3488, 2850.945
205.8310, 2834.884
206.3131, 2834.862
206.7952, 2838.316
207.2773, 2826.101
207.7594, 2793.321
208.2415, 2759.999
208.7237, 2732.245
209.2058, 2709.944
209.6879, 2695.501
210.1700, 2692.048
210.6521, 2693.817
211.1342, 2689.997
211.6164, 2680.236
212.0985, 2666.032
212.5806, 2645.671
213.0627, 2614.640
213.5448, 2594.975
214.0269, 2592.586
214.5091, 2599.497
214.9912, 2591.296
215.4733, 2560.480
215.9554, 2528.652
216.4375, 2508.354
216.9196, 2504.297
217.4018, 2499.332
217.8839, 2492.481
218.3660, 2483.847
218.8481, 2472.783
219.3302, 2456.657
219.8123, 2442.163
220.2945, 2435.860
220.7766, 2444.650
221.2587, 2443.961
221.7408, 2424.547
222.2229, 2389.105
222.7050, 2375.903
223.1871, 2395.440
223.6693, 2424.424
224.1514, 2443.197
224.6335, 2446.590
225.1156, 2450.124
225.5977, 2457.208
226.0798, 2467.957
226.5620, 2475.346
227.0441, 2479.596
227.5262, 2480.218
228.0083, 2475.637
228.4904, 2460.883
228.9725, 2450.203
229.4547, 2447.405
229.9368, 2453.420
230.4189, 2460.635
230.9010, 2471.068
231.3831, 2481.274
231.8652, 2486.665
232.3474, 2486.426
232.8295, 2482.581
233.3116, 2474.005
233.7937, 2457.552
234.2758, 2449.415
234.7579, 2452.388
235.2401, 2462.232
235.7222, 2471.558
236.2043, 2479.070
236.6864, 2488.075
237.1685, 2501.258
237.6507, 2523.990
238.1328, 2535.386
238.6149, 2531.501
239.0970, 2517.647
239.5791, 2505.740
240.0612, 2496.914
240.5434, 2488.380
241.0255, 2478.432
241.5076, 2463.609
241.9897, 2455.454
242.4718, 2456.694
242.9539, 2464.231
243.4360, 2468.983
243.9182, 2470.260
244.4003, 2469.814
244.8824, 2469.932
245.3645, 2477.201
245.8466, 2468.995
246.3287, 2434.024
246.8109, 2382.266
247.2930, 2358.288
247.7751, 2378.479
248.2572, 2403.929
248.7393, 2410.551
249.2214, 2387.322
249.7036, 2370.058
250.1857, 2362.066
250.6678, 2362.480
251.1499, 2366.531
251.6320, 2376.641
252.1141, 2387.097
252.5963, 2394.495
253.0784, 2400.316
253.5605, 2399.001
254.0426, 2385.612
254.5247, 2362.709
255.0068, 2353.464
255.4890, 2365.602
255.9711, 2380.881
256.4532, 2383.486
256.9353, 2365.110
257.4174, 2354.604
257.8995, 2358.438
258.3817, 2375.364
258.8638, 2388.621
259.3459, 2398.050
259.8280, 2404.066
260.3101, 2406.601
260.7922, 2404.365
261.2744, 2401.881
261.7565, 2399.165
262.2386, 2396.312
262.7207, 2396.467
263.2028, 2397.101
263.6849, 2404.412
264.1671, 2429.010
264.6492, 2479.811
265.1313, 2518.809
265.6134, 2533.498
266.0955, 2524.858
266.5776, 2521.875
267.0598, 2527.244
267.5419, 2533.887
268.0240, 2531.947
268.5061, 2517.407
268.9882, 2509.879
269.4703, 2516.187
269.9525, 2536.074
270.4346, 2554.478
270.9167, 2571.817
271.3988, 2587.370
271.8809, 2601.422
272.3630, 2614.932
272.8452, 2621.688
273.3273, 2615.481
273.8094, 2597.234
274.2915, 2594.745
274.7736, 2611.948
275.2557, 2636.209
275.7379, 2652.921
276.2200, 2662.227
276.7021, 2662.688
277.1842, 2649.629
277.6663, 2624.515
278.1484, 2609.647
278.6305, 2606.767
279.1126, 2609.556
279.5948, 2608.544
280.0769, 2603.102
280.5590, 2603.016
281.0411, 2619.018
281.5232, 2647.834
282.0053, 2648.104
282.4875, 2613.073
282.9696, 2570.355
283.4517, 2560.805
283.9338, 2584.389
284.4159, 2606.186
284.8980, 2607.710
285.3802, 2593.414
285.8623, 2590.671
286.3444, 2600.335
286.8265, 2617.994
287.3086, 2642.065
287.7907, 2671.715
288.2729, 2696.243
288.7550, 2707.731
289.2371, 2709.695
289.7192, 2713.833
290.2013, 2719.499
290.6834, 2730.603
291.1656, 2754.073
291.6477, 2788.375
292.1298, 2824.218
292.6119, 2862.521
293.0940, 2898.897
293.5761, 2919.603
294.0583, 2921.873
294.5404, 2921.378
295.0225, 2937.911
295.5046, 2967.671
295.9867, 2995.307
296.4688, 3012.198
296.9510, 3022.932
297.4331, 3038.136
297.9152, 3059.634
298.3973, 3075.616
298.8794, 3064.841
299.3615, 3037.758
299.8437, 3022.684
300.3258, 3047.335
300.8079, 3086.166
301.2900, 3101.157
301.7721, 3088.129
302.2542, 3073.414
302.7364, 3086.656
303.2185, 3115.461
303.7006, 3134.592
304.1827, 3120.673
304.6648, 3097.551
305.1469, 3093.165
305.6291, 3110.601
306.1112, 3125.234
306.5933, 3116.086
307.0754, 3092.096
307.5575, 3068.402
308.0396, 3056.176
308.5218, 3043.737
309.0039, 3018.823
309.4860, 2979.714
309.9681, 2945.607
310.4502, 2933.390
310.9323, 2932.077
311.4145, 2926.455
311.8966, 2904.201
312.3787, 2880.820
312.8608, 2868.170
313.3429, 2867.757
313.8250, 2861.129
314.3072, 2824.966
314.7893, 2782.634
315.2714, 2761.205
315.7535, 2797.604
316.2356, 2832.001
316.7177, 2836.552
317.1999, 2808.227
317.6820, 2778.936
318.1641, 2752.550
318.6462, 2731.944
319.1283, 2720.334
319.6104, 2734.294
320.0926, 2742.129
320.5747, 2730.601
321.0568, 2698.254
321.5389, 2672.108
322.0210, 2664.304
322.5031, 2661.427
322.9852, 2652.146
323.4673, 2628.371
323.9495, 2605.385
324.4316, 2584.031
324.9137, 2564.239
325.3958, 2551.420
325.8779, 2550.440
326.3600, 2553.940
326.8422, 2556.849
327.3243, 2559.381
327.8064, 2560.961
328.2885, 2561.378
328.7706, 2560.628
329.2527, 2559.472
329.7349, 2559.498
330.2170, 2557.572
330.6991, 2550.358
331.1812, 2529.795
331.6633, 2519.337
332.1454, 2525.638
332.6276, 2545.438
333.1097, 2557.309
333.5918, 2562.419
334.0739, 2557.638
334.5560, 2535.410
335.0381, 2484.081
335.5203, 2456.401
336.0024, 2465.417
336.4845, 2500.122
336.9666, 2518.984
337.4487, 2518.322
337.9308, 2512.143
338.4130, 2507.282
338.8951, 2503.133
339.3772, 2507.287
339.8593, 2523.545
340.3414, 2545.474
340.8235, 2557.175
341.3057, 2557.588
341.7878, 2555.877
342.2699, 2558.142
342.7520, 2563.781
343.2341, 2566.081
343.7162, 2563.473
344.1984, 2559.144
344.6805, 2558.527
345.1626, 2561.443
345.6447, 2565.558
346.1268, 2569.535
346.6089, 2573.653
347.0911, 2578.610
347.5732, 2584.470
348.0553, 2591.137
348.5374, 2600.342
349.0195, 2610.820
349.5016, 2617.816
349.9838, 2613.950
350.4659, 2606.637
350.9480, 2608.318
351.4301, 2620.765
351.9122, 2634.857
352.3943, 2641.058
352.8765, 2642.767
353.3586, 2647.053
353.8407, 2659.510
354.3228, 2674.448
354.8049, 2686.868
355.2870, 2696.456
355.7692, 2704.780
356.2513, 2716.061
356.7334, 2725.815
357.2155, 2728.152
357.6976, 2710.043
358.1797, 2692.849
358.6619, 2692.335
359.1440, 2708.210
359.6261, 2715.753
360.1082, 2695.162
360.5903, 2666.047
361.0724, 2646.156
361.5546, 2650.605
362.0367, 2654.250
362.5188, 2647.076
363.0009, 2630.566
363.4830, 2620.853
363.9651, 2627.026
364.4473, 2637.279
364.9294, 2644.268
365.4115, 2646.608
365.8936, 2646.223
366.3757, 2642.059
366.8578, 2634.896
367.3399, 2628.538
367.8221, 2623.960
368.3042, 2619.394
368.7863, 2614.488
369.2684, 2614.036
369.7505, 2604.225
370.2326, 2578.212
370.7148, 2544.618
371.1969, 2526.667
371.6790, 2531.249
372.1611, 2539.400
372.6432, 2542.249
373.1253, 2536.760
373.6075, 2539.708
374.0896, 2555.317
374.5717, 2574.491
375.0538, 2580.000
375.5359, 2568.465
376.0180, 2559.331
376.5002, 2563.531
376.9823, 2579.920
377.4644, 2581.254
377.9465, 2563.853
378.4286, 2542.729
378.9107, 2536.179
379.3929, 2543.485
379.8750, 2555.188
380.3571, 2570.660
380.8392, 2587.595
381.3213, 2600.408
381.8034, 2609.037
382.2856, 2613.768
382.7677, 2613.014
383.2498, 2608.479
383.7319, 2604.138
384.2140, 2598.700
384.6961, 2596.531
385.1783, 2606.152
385.6604, 2626.178
386.1425, 2645.127
386.6246, 2653.648
387.1067, 2657.451
387.5888, 2664.416
388.0710, 2679.732
388.5531, 2693.194
389.0352, 2691.245
389.5173, 2680.371
389.9994, 2679.876
390.4815, 2711.893
390.9637, 2749.201
391.4458, 2772.461
391.9279, 2774.439
392.4100, 2773.187
392.8921, 2773.949
393.3742, 2775.718
393.8564, 2776.712
394.3385, 2768.946
394.8206, 2766.853
395.3027, 2778.799
395.7848, 2811.042
396.2669, 2834.488
396.7491, 2840.111
397.2312, 2838.012
397.7133, 2840.128
398.1954, 2855.280
398.6775, 2863.635
399.1596, 2857.897
399.6418, 2837.480
400.1239, 2828.546
400.6060, 2834.900
401.0881, 2848.633
401.5702, 2864.564
402.0523, 2884.889
402.5345, 2901.082
403.0166, 2912.766
403.4987, 2919.302
403.9808, 2916.497
404.4629, 2902.339
404.9450, 2885.600
405.4272, 2866.753
405.9093, 2845.336
406.3914, 2847.958
406.8735, 2884.898
407.3556, 2933.112
407.8377, 2946.660
408.3199, 2926.650
408.8020, 2903.761
409.2841, 2896.699
409.7662, 2899.616
410.2483, 2894.074
410.7304, 2877.733
411.2126, 2861.325
411.6946, 2861.555
412.1768, 2871.581
412.6589, 2873.433
413.1410, 2850.258
413.6231, 2820.016
414.1052, 2801.614
414.5873, 2795.202
415.0695, 2793.821
415.5516, 2797.162
416.0337, 2801.609
416.5158, 2802.948
416.9979, 2797.600
417.4800, 2791.113
417.9622, 2787.653
418.4443, 2785.957
418.9264, 2779.697
419.4085, 2752.869
419.8906, 2730.042
420.3727, 2727.735
420.8549, 2768.952
421.3370, 2798.560
421.8191, 2803.851
422.3012, 2791.879
422.7833, 2778.692
423.2654, 2756.917
423.7476, 2741.850
424.2297, 2740.096
424.7118, 2757.264
425.1939, 2766.184
425.6760, 2758.233
426.1581, 2748.903
426.6403, 2762.373
427.1224, 2814.677
427.6045, 2845.772
428.0866, 2831.702
428.5687, 2778.345
429.0508, 2757.745
429.5330, 2776.207
430.0151, 2807.554
430.4972, 2832.354
430.9793, 2850.582
431.4614, 2862.518
431.9435, 2867.313
432.4257, 2866.637
432.9078, 2861.550
433.3899, 2852.449
433.8720, 2845.902
434.3541, 2848.680
434.8362, 2856.715
435.3184, 2860.607
435.8005, 2857.972
436.2826, 2856.524
436.7647, 2866.955
437.2468, 2884.707
437.7289, 2898.925
438.2111, 2898.701
438.6932, 2897.126
439.1753, 2907.436
439.6574, 2930.817
440.1395, 2949.344
440.6216, 2947.396
441.1038, 2938.601
441.5859, 2937.010
442.0680, 2953.693
442.5501, 2970.519
443.0322, 2979.585
443.5143, 2982.870
443.9965, 2993.508
444.4786, 3023.810
444.9607, 3054.155
445.4428, 3074.367
445.9249, 3073.917
446.4070, 3080.167
446.8892, 3095.356
447.3713, 3116.477
447.8534, 3138.329
448.3355, 3164.468
448.8176, 3184.629
449.2997, 3193.200
449.7819, 3188.929
450.2640, 3191.307
450.7461, 3200.220
451.2282, 3216.128
451.7103, 3244.654
452.1924, 3286.738
452.6746, 3315.580
453.1567, 3319.145
453.6388, 3308.329
454.1209, 3313.040
454.6030, 3333.115
455.0851, 3356.451
455.5673, 3376.233
456.0494, 3392.356
456.5315, 3404.550
457.0136, 3411.693
457.4957, 3417.428
457.9778, 3429.675
458.4599, 3443.928
458.9420, 3449.039
459.4242, 3422.310
459.9063, 3395.581
460.3884, 3398.917
460.8705, 3437.799
461.3526, 3471.924
461.8347, 3479.722
462.3169, 3474.017
462.7990, 3467.954
463.2811, 3463.700
463.7632, 3460.679
464.2453, 3455.875
464.7274, 3450.396
465.2096, 3455.168
465.6917, 3491.481
466.1738, 3520.659
466.6559, 3522.385
467.1380, 3474.428
467.6201, 3442.135
468.1023, 3432.189
468.5844, 3433.897
469.0665, 3425.481
469.5486, 3402.988
470.0307, 3383.135
470.5128, 3374.433
470.9950, 3375.787
471.4771, 3366.718
471.9592, 3345.950
472.4413, 3320.120
472.9234, 3294.427
473.4055, 3269.160
473.8877, 3245.873
474.3698, 3224.243
474.8519, 3205.721
475.3340, 3196.170
475.8161, 3193.842
476.2982, 3187.484
476.7804, 3163.625
477.2625, 3134.222
477.7446, 3115.697
478.2267, 3113.698
478.7088, 3109.037
479.1909, 3084.028
479.6731, 3048.924
480.1552, 3020.078
480.6373, 3004.475
481.1194, 2995.401
481.6015, 2994.243
482.0836, 3000.979
482.5658, 2998.648
483.0479, 2974.417
483.5300, 2945.943
484.0121, 2925.461
484.4942, 2915.800
484.9763, 2910.879
485.4585, 2915.575
485.9406, 2924.214
486.4227, 2918.767
486.9048, 2890.915
487.3869, 2866.921
487.8690, 2860.053
488.3512, 2872.188
488.8333, 2875.655
489.3154, 2868.318
489.7975, 2857.913
490.2796, 2855.066
490.7617, 2858.985
491.2439, 2858.242
491.7260, 2847.432
492.2081, 2831.803
492.6902, 2819.098
493.1723, 2809.878
493.6544, 2807.427
494.1366, 2823.281
494.6187, 2844.233
495.1008, 2849.350
495.5829, 2830.624
496.0650, 2812.283
496.5471, 2814.042
497.0293, 2827.326
497.5114, 2837.103
497.9935, 2829.938
498.4756, 2825.285
498.9577, 2835.328
499.4398, 2860.986
499.9220, 2878.385
500.4041, 2871.051
500.8862, 2861.618
501.3683, 2866.705
501.8504, 2905.217
502.3325, 2929.092
502.8146, 2931.730
503.2968, 2919.608
503.7789, 2907.979
504.2610, 2894.595
504.7431, 2887.073
505.2252, 2891.362
505.7073, 2907.473
506.1895, 2913.861
506.6716, 2908.118
507.1537, 2901.837
507.6358, 2908.721
508.1179, 2927.093
508.6000, 2947.052
509.0822, 2968.993
509.5643, 2987.612
510.0464, 2989.854
510.5285, 2979.477
511.0106, 2974.734
511.4927, 2991.409
511.9749, 3017.387
512.4570, 3042.342
512.9391, 3066.179
513.4212, 3081.169
513.9033, 3071.420
514.3854, 3053.857
514.8676, 3050.462
515.3497, 3082.344
515.8318, 3113.538
516.3139, 3132.828
516.7960, 3140.776
517.2781, 3152.086
517.7603, 3175.209
518.2424, 3194.426
518.7245, 3202.229
519.2066, 3196.734
519.6887, 3182.266
520.1708, 3151.405
520.6530, 3118.841
521.1351, 3112.492
521.6172, 3136.034
522.0993, 3159.219
522.5814, 3174.538
523.0635, 3181.567
523.5457, 3175.835
524.0278, 3157.095
524.5099, 3135.884
524.9920, 3121.449
525.4741, 3111.166
525.9562, 3098.883
526.4384, 3081.919
526.9205, 3067.508
527.4026, 3068.780
527.8847, 3077.549
528.3668, 3076.290
528.8489, 3045.804
529.3311, 3012.398
529.8132, 2992.896
530.2953, 2988.157
530.7774, 2978.835
531.2595, 2950.300
531.7416, 2921.022
532.2238, 2904.569
532.7059, 2915.164
533.1880, 2920.480
533.6701, 2919.381
534.1522, 2912.951
534.6343, 2902.244
535.1165, 2883.237
535.5986, 2869.933
536.0807, 2871.314
536.5628, 2886.080
537.0449, 2882.429
537.5270, 2857.057
538.0092, 2829.610
538.4913, 2821.648
538.9734, 2828.627
539.4555, 2829.192
539.9376, 2815.558
540.4197, 2801.067
540.9019, 2807.369
541.3840, 2827.548
541.8661, 2840.219
542.3482, 2827.073
542.8303, 2806.963
543.3124, 2791.775
543.7946, 2782.262
544.2767, 2781.946
544.7588, 2806.183
545.2409, 2832.463
545.7230, 2842.207
546.2051, 2802.220
546.6873, 2781.992
547.1694, 2801.130
547.6515, 2843.306
548.1336, 2869.274
548.6157, 2874.266
549.0978, 2870.637
549.5800, 2858.041
550.0621, 2836.128
550.5442, 2834.836
551.0263, 2860.030
551.5084, 2887.326
551.9905, 2887.234
552.4727, 2864.418
552.9548, 2857.962
553.4369, 2880.636
553.9190, 2911.435
554.4011, 2916.780
554.8832, 2903.238
555.3654, 2894.062
555.8475, 2906.364
556.3296, 2925.278
556.8117, 2936.114
557.2938, 2938.078
557.7759, 2943.875
558.2581, 2966.206
558.7402, 2991.112
559.2223, 3006.963
559.7044, 2999.062
560.1865, 2998.020
560.6686, 3014.979
561.1508, 3040.214
561.6329, 3053.365
562.1150, 3048.718
562.5971, 3041.448
563.0792, 3034.127
563.5613, 3026.922
564.0435, 3029.696
564.5256, 3044.752
565.0077, 3061.587
565.4898, 3072.285
565.9719, 3077.081
566.4540, 3077.937
566.9362, 3074.709
567.4183, 3068.717
567.9004, 3061.822
568.3824, 3053.662
568.8646, 3043.506
569.3467, 3027.414
569.8288, 3011.683
570.3109, 3000.256
570.7930, 2993.399
571.2751, 2991.806
571.7573, 3004.590
572.2394, 3017.006
572.7215, 3018.049
573.2036, 2995.614
573.6857, 2981.421
574.1678, 2983.588
574.6500, 2993.258
575.1321, 2998.873
575.6142, 3001.185
576.0963, 2997.052
576.5784, 2981.254
577.0605, 2958.209
577.5427, 2956.242
578.0248, 2979.091
578.5069, 3000.175
578.9890, 2996.860
579.4711, 2975.862
579.9532, 2967.626
580.4354, 2976.594
580.9175, 2985.106
581.3996, 2969.231
581.8817, 2940.569
582.3638, 2920.969
582.8459, 2925.083
583.3281, 2933.274
583.8102, 2933.883
584.2923, 2928.508
584.7744, 2922.478
585.2565, 2917.184
585.7386, 2911.991
586.2208, 2905.111
586.7029, 2893.709
587.1850, 2892.444
587.6671, 2906.864
588.1492, 2926.057
588.6313, 2941.661
589.1135, 2954.719
589.5956, 2959.365
590.0777, 2952.887
590.5598, 2939.750
591.0419, 2929.972
591.5240, 2923.431
592.0062, 2914.995
592.4883, 2897.477
592.9704, 2877.600
593.4525, 2872.517
593.9346, 2881.502
594.4167, 2887.970
594.8989, 2876.419
595.3810, 2857.596
595.8631, 2843.257
596.3452, 2837.871
596.8273, 2832.030
597.3094, 2817.068
597.7916, 2800.673
598.2737, 2794.578
598.7558, 2812.823
599.2379, 2827.815
599.7200, 2836.136
600.2021, 2837.705
600.6843, 2829.299
601.1664, 2805.795
601.6485, 2784.328
602.1306, 2775.823
602.6127, 2780.185
603.0948, 2784.445
603.5770, 2788.593
604.0591, 2791.271
604.5412, 2789.459
605.0233, 2784.767
605.5054, 2782.167
605.9875, 2784.735
606.4697, 2787.294
606.9518, 2783.880
607.4339, 2776.406
607.9160, 2769.871
608.3981, 2762.190
608.8802, 2759.608
609.3624, 2767.780
609.8445, 2788.174
610.3266, 2804.457
610.8087, 2811.006
611.2908, 2815.548
611.7729, 2822.672
612.2551, 2833.904
612.7372, 2844.217
613.2193, 2854.764
613.7014, 2862.695
614.1835, 2860.475
614.6656, 2847.772
615.1478, 2841.514
615.6299, 2849.098
616.1120, 2864.575
616.5941, 2874.864
617.0762, 2881.159
617.5583, 2891.192
618.0405, 2918.081
618.5226, 2946.409
