##NAMES=Serendibite
##RRUFFID=R120069
##IDEAL CHEMISTRY=Ca_4_(Mg_6_Al_6_)O_4_[Si_6_B_3_Al_3_O_36_]
##LOCALITY=Mogok, Burma
##OWNER=RRUFF
##SOURCE=William W. Pinch
##DESCRIPTION=Deep blue/purple fragment that almost appears black. Twinned by a 2-fold rotation around (010), according to single crystal X-ray diffraction.
##STATUS=The identification of this mineral has been confirmed by single-crystal X-ray diffraction.
##URL=rruff.info/R120069
8.975323e+001, 0.000000e+000
9.023535e+001, 1.092297e+003
9.071747e+001, 1.083250e+003
9.119958e+001, 1.075851e+003
9.168170e+001, 1.089889e+003
9.216382e+001, 1.101165e+003
9.264594e+001, 1.106810e+003
9.312805e+001, 1.110011e+003
9.361017e+001, 1.112921e+003
9.409229e+001, 1.112726e+003
9.457440e+001, 1.108625e+003
9.505651e+001, 1.102613e+003
9.553863e+001, 1.094307e+003
9.602074e+001, 1.085704e+003
9.650286e+001, 1.078835e+003
9.698498e+001, 1.073886e+003
9.746709e+001, 1.068017e+003
9.794921e+001, 1.061040e+003
9.843133e+001, 1.052000e+003
9.891344e+001, 1.043576e+003
9.939556e+001, 1.036201e+003
9.987768e+001, 1.029617e+003
1.003598e+002, 1.023449e+003
1.008419e+002, 1.017241e+003
1.013240e+002, 1.011329e+003
1.018061e+002, 1.006639e+003
1.022883e+002, 1.002917e+003
1.027704e+002, 1.000348e+003
1.032525e+002, 9.996668e+002
1.037346e+002, 1.001243e+003
1.042167e+002, 1.002474e+003
1.046988e+002, 1.000702e+003
1.051810e+002, 9.972432e+002
1.056631e+002, 9.940296e+002
1.061452e+002, 9.920165e+002
1.066273e+002, 9.908871e+002
1.071094e+002, 9.893409e+002
1.075915e+002, 9.867980e+002
1.080737e+002, 9.844736e+002
1.085558e+002, 9.830261e+002
1.090379e+002, 9.822003e+002
1.095200e+002, 9.813705e+002
1.100021e+002, 9.798478e+002
1.104842e+002, 9.773633e+002
1.109664e+002, 9.756386e+002
1.114485e+002, 9.746794e+002
1.119306e+002, 9.743758e+002
1.124127e+002, 9.747313e+002
1.128948e+002, 9.757264e+002
1.133769e+002, 9.773545e+002
1.138591e+002, 9.797048e+002
1.143412e+002, 9.841600e+002
1.148233e+002, 9.866824e+002
1.153054e+002, 9.858080e+002
1.157875e+002, 9.837634e+002
1.162696e+002, 9.827772e+002
1.167517e+002, 9.836695e+002
1.172339e+002, 9.855940e+002
1.177160e+002, 9.864329e+002
1.181981e+002, 9.852404e+002
1.186802e+002, 9.850336e+002
1.191623e+002, 9.869943e+002
1.196444e+002, 9.906434e+002
1.201266e+002, 9.948187e+002
1.206087e+002, 9.993256e+002
1.210908e+002, 1.003753e+003
1.215729e+002, 1.007373e+003
1.220550e+002, 1.009822e+003
1.225371e+002, 1.012074e+003
1.230193e+002, 1.015019e+003
1.235014e+002, 1.018751e+003
1.239835e+002, 1.022402e+003
1.244656e+002, 1.025224e+003
1.249477e+002, 1.027857e+003
1.254298e+002, 1.030702e+003
1.259120e+002, 1.033521e+003
1.263941e+002, 1.037068e+003
1.268762e+002, 1.043247e+003
1.273583e+002, 1.053684e+003
1.278404e+002, 1.064263e+003
1.283225e+002, 1.073581e+003
1.288047e+002, 1.082322e+003
1.292868e+002, 1.091503e+003
1.297689e+002, 1.101978e+003
1.302510e+002, 1.113552e+003
1.307331e+002, 1.123316e+003
1.312152e+002, 1.130386e+003
1.316974e+002, 1.136423e+003
1.321795e+002, 1.142153e+003
1.326616e+002, 1.147203e+003
1.331437e+002, 1.150739e+003
1.336258e+002, 1.152194e+003
1.341079e+002, 1.151670e+003
1.345901e+002, 1.147257e+003
1.350722e+002, 1.138244e+003
1.355543e+002, 1.126822e+003
1.360364e+002, 1.113358e+003
1.365185e+002, 1.098251e+003
1.370006e+002, 1.082946e+003
1.374828e+002, 1.069326e+003
1.379649e+002, 1.057721e+003
1.384470e+002, 1.046062e+003
1.389291e+002, 1.033033e+003
1.394112e+002, 1.020327e+003
1.398933e+002, 1.010208e+003
1.403755e+002, 1.003506e+003
1.408576e+002, 9.982841e+002
1.413397e+002, 9.918517e+002
1.418218e+002, 9.842888e+002
1.423039e+002, 9.779295e+002
1.427860e+002, 9.742054e+002
1.432681e+002, 9.725713e+002
1.437503e+002, 9.710313e+002
1.442324e+002, 9.691003e+002
1.447145e+002, 9.672375e+002
1.451966e+002, 9.657482e+002
1.456787e+002, 9.646415e+002
1.461608e+002, 9.638873e+002
1.466430e+002, 9.637374e+002
1.471251e+002, 9.643168e+002
1.476072e+002, 9.642380e+002
1.480893e+002, 9.620433e+002
1.485714e+002, 9.598460e+002
1.490535e+002, 9.588254e+002
1.495357e+002, 9.592263e+002
1.500178e+002, 9.604703e+002
1.504999e+002, 9.617340e+002
1.509820e+002, 9.629622e+002
1.514641e+002, 9.643787e+002
1.519462e+002, 9.665134e+002
1.524284e+002, 9.685408e+002
1.529105e+002, 9.696442e+002
1.533926e+002, 9.695419e+002
1.538747e+002, 9.688092e+002
1.543568e+002, 9.689016e+002
1.548389e+002, 9.712786e+002
1.553211e+002, 9.727361e+002
1.558032e+002, 9.722274e+002
1.562853e+002, 9.709877e+002
1.567674e+002, 9.706196e+002
1.572495e+002, 9.719702e+002
1.577316e+002, 9.745145e+002
1.582138e+002, 9.760020e+002
1.586959e+002, 9.757628e+002
1.591780e+002, 9.753951e+002
1.596601e+002, 9.753870e+002
1.601422e+002, 9.755413e+002
1.606243e+002, 9.753538e+002
1.611065e+002, 9.744755e+002
1.615886e+002, 9.730565e+002
1.620707e+002, 9.718745e+002
1.625528e+002, 9.712957e+002
1.630349e+002, 9.706005e+002
1.635170e+002, 9.693997e+002
1.639991e+002, 9.677136e+002
1.644813e+002, 9.657049e+002
1.649634e+002, 9.631922e+002
1.654455e+002, 9.604922e+002
1.659276e+002, 9.583144e+002
1.664097e+002, 9.569335e+002
1.668918e+002, 9.559348e+002
1.673740e+002, 9.550010e+002
1.678561e+002, 9.542166e+002
1.683382e+002, 9.530971e+002
1.688203e+002, 9.509073e+002
1.693024e+002, 9.483207e+002
1.697845e+002, 9.461234e+002
1.702667e+002, 9.445446e+002
1.707488e+002, 9.435816e+002
1.712309e+002, 9.435059e+002
1.717130e+002, 9.453475e+002
1.721951e+002, 9.460991e+002
1.726772e+002, 9.441083e+002
1.731594e+002, 9.405931e+002
1.736415e+002, 9.371866e+002
1.741236e+002, 9.347474e+002
1.746057e+002, 9.332227e+002
1.750878e+002, 9.323740e+002
1.755699e+002, 9.330856e+002
1.760521e+002, 9.335173e+002
1.765342e+002, 9.330569e+002
1.770163e+002, 9.319837e+002
1.774984e+002, 9.308293e+002
1.779805e+002, 9.299828e+002
1.784626e+002, 9.294467e+002
1.789448e+002, 9.287518e+002
1.794269e+002, 9.274149e+002
1.799090e+002, 9.263878e+002
1.803911e+002, 9.263802e+002
1.808732e+002, 9.269984e+002
1.813553e+002, 9.271830e+002
1.818375e+002, 9.259016e+002
1.823196e+002, 9.228721e+002
1.828017e+002, 9.212030e+002
1.832838e+002, 9.221143e+002
1.837659e+002, 9.229729e+002
1.842480e+002, 9.223797e+002
1.847301e+002, 9.203982e+002
1.852123e+002, 9.179938e+002
1.856944e+002, 9.159791e+002
1.861765e+002, 9.144026e+002
1.866586e+002, 9.132458e+002
1.871407e+002, 9.124744e+002
1.876228e+002, 9.121234e+002
1.881050e+002, 9.125037e+002
1.885871e+002, 9.135967e+002
1.890692e+002, 9.145493e+002
1.895513e+002, 9.143011e+002
1.900334e+002, 9.129055e+002
1.905155e+002, 9.122037e+002
1.909977e+002, 9.130166e+002
1.914798e+002, 9.143382e+002
1.919619e+002, 9.149085e+002
1.924440e+002, 9.144551e+002
1.929261e+002, 9.139644e+002
1.934082e+002, 9.147374e+002
1.938904e+002, 9.163561e+002
1.943725e+002, 9.174841e+002
1.948546e+002, 9.175859e+002
1.953367e+002, 9.169492e+002
1.958188e+002, 9.159242e+002
1.963009e+002, 9.141262e+002
1.967831e+002, 9.128836e+002
1.972652e+002, 9.137546e+002
1.977473e+002, 9.159903e+002
1.982294e+002, 9.176561e+002
1.987115e+002, 9.171799e+002
1.991936e+002, 9.151705e+002
1.996758e+002, 9.143047e+002
2.001579e+002, 9.152086e+002
2.006400e+002, 9.165533e+002
2.011221e+002, 9.177338e+002
2.016042e+002, 9.187410e+002
2.020863e+002, 9.195691e+002
2.025685e+002, 9.201832e+002
2.030506e+002, 9.205921e+002
2.035327e+002, 9.209387e+002
2.040148e+002, 9.210979e+002
2.044969e+002, 9.213201e+002
2.049790e+002, 9.220740e+002
2.054612e+002, 9.230115e+002
2.059433e+002, 9.233351e+002
2.064254e+002, 9.222880e+002
2.069075e+002, 9.197982e+002
2.073896e+002, 9.173116e+002
2.078717e+002, 9.150091e+002
2.083539e+002, 9.125342e+002
2.088360e+002, 9.093799e+002
2.093181e+002, 9.058882e+002
2.098002e+002, 9.029099e+002
2.102823e+002, 9.012691e+002
2.107644e+002, 9.011409e+002
2.112466e+002, 9.009122e+002
2.117287e+002, 9.007316e+002
2.122108e+002, 9.003383e+002
2.126929e+002, 8.995102e+002
2.131750e+002, 8.983440e+002
2.136571e+002, 8.971041e+002
2.141393e+002, 8.959935e+002
2.146214e+002, 8.949679e+002
2.151035e+002, 8.944780e+002
2.155856e+002, 8.953848e+002
2.160677e+002, 8.959568e+002
2.165498e+002, 8.950888e+002
2.170320e+002, 8.929530e+002
2.175141e+002, 8.905551e+002
2.179962e+002, 8.887260e+002
2.184783e+002, 8.875029e+002
2.189604e+002, 8.870908e+002
2.194425e+002, 8.879095e+002
2.199247e+002, 8.890822e+002
2.204068e+002, 8.902771e+002
2.208889e+002, 8.913993e+002
2.213710e+002, 8.922325e+002
2.218531e+002, 8.925495e+002
2.223352e+002, 8.922943e+002
2.228174e+002, 8.920425e+002
2.232995e+002, 8.914300e+002
2.237816e+002, 8.910754e+002
2.242637e+002, 8.917851e+002
2.247458e+002, 8.935208e+002
2.252279e+002, 8.949780e+002
2.257100e+002, 8.949509e+002
2.261922e+002, 8.935842e+002
2.266743e+002, 8.924807e+002
2.271564e+002, 8.914116e+002
2.276385e+002, 8.908479e+002
2.281206e+002, 8.916957e+002
2.286027e+002, 8.940511e+002
2.290849e+002, 8.960139e+002
2.295670e+002, 8.958078e+002
2.300491e+002, 8.941114e+002
2.305312e+002, 8.928307e+002
2.310133e+002, 8.923414e+002
2.314954e+002, 8.923685e+002
2.319776e+002, 8.927624e+002
2.324597e+002, 8.935936e+002
2.329418e+002, 8.942919e+002
2.334239e+002, 8.941616e+002
2.339060e+002, 8.937219e+002
2.343881e+002, 8.938023e+002
2.348703e+002, 8.948243e+002
2.353524e+002, 8.962735e+002
2.358345e+002, 8.975484e+002
2.363166e+002, 8.986895e+002
2.367987e+002, 8.994993e+002
2.372808e+002, 9.000395e+002
2.377630e+002, 9.001403e+002
2.382451e+002, 8.993327e+002
2.387272e+002, 8.969861e+002
2.392093e+002, 8.943761e+002
2.396914e+002, 8.938130e+002
2.401735e+002, 8.960010e+002
2.406557e+002, 8.979805e+002
2.411378e+002, 8.986584e+002
2.416199e+002, 8.985643e+002
2.421020e+002, 8.979598e+002
2.425841e+002, 8.967914e+002
2.430662e+002, 8.956014e+002
2.435484e+002, 8.953855e+002
2.440305e+002, 8.964433e+002
2.445126e+002, 8.976935e+002
2.449947e+002, 8.994134e+002
2.454768e+002, 9.008975e+002
2.459589e+002, 9.013609e+002
2.464410e+002, 9.004976e+002
2.469232e+002, 8.990295e+002
2.474053e+002, 8.982042e+002
2.478874e+002, 8.983034e+002
2.483695e+002, 8.983964e+002
2.488516e+002, 8.985721e+002
2.493337e+002, 8.985325e+002
2.498159e+002, 8.979807e+002
2.502980e+002, 8.968329e+002
2.507801e+002, 8.953373e+002
2.512622e+002, 8.938840e+002
2.517443e+002, 8.925109e+002
2.522264e+002, 8.911039e+002
2.527086e+002, 8.891009e+002
2.531907e+002, 8.874052e+002
2.536728e+002, 8.869393e+002
2.541549e+002, 8.878281e+002
2.546370e+002, 8.891155e+002
2.551191e+002, 8.892719e+002
2.556013e+002, 8.875807e+002
2.560834e+002, 8.862813e+002
2.565655e+002, 8.855957e+002
2.570476e+002, 8.851138e+002
2.575297e+002, 8.845986e+002
2.580118e+002, 8.839942e+002
2.584940e+002, 8.833575e+002
2.589761e+002, 8.827728e+002
2.594582e+002, 8.823001e+002
2.599403e+002, 8.817250e+002
2.604224e+002, 8.809468e+002
2.609045e+002, 8.801616e+002
2.613867e+002, 8.795479e+002
2.618688e+002, 8.790889e+002
2.623509e+002, 8.785956e+002
2.628330e+002, 8.778342e+002
2.633151e+002, 8.767101e+002
2.637972e+002, 8.756530e+002
2.642794e+002, 8.747308e+002
2.647615e+002, 8.738106e+002
2.652436e+002, 8.724616e+002
2.657257e+002, 8.709023e+002
2.662078e+002, 8.700256e+002
2.666899e+002, 8.708492e+002
2.671721e+002, 8.737756e+002
2.676542e+002, 8.758077e+002
2.681363e+002, 8.769026e+002
2.686184e+002, 8.773601e+002
2.691005e+002, 8.769265e+002
2.695826e+002, 8.758756e+002
2.700648e+002, 8.750223e+002
2.705469e+002, 8.751113e+002
2.710290e+002, 8.761959e+002
2.715111e+002, 8.765184e+002
2.719932e+002, 8.752455e+002
2.724753e+002, 8.741931e+002
2.729575e+002, 8.742799e+002
2.734396e+002, 8.752521e+002
2.739217e+002, 8.763132e+002
2.744038e+002, 8.769303e+002
2.748859e+002, 8.771478e+002
2.753680e+002, 8.774893e+002
2.758501e+002, 8.777867e+002
2.763322e+002, 8.783481e+002
2.768144e+002, 8.797177e+002
2.772965e+002, 8.814440e+002
2.777786e+002, 8.824944e+002
2.782607e+002, 8.822504e+002
2.787428e+002, 8.809954e+002
2.792249e+002, 8.799060e+002
2.797071e+002, 8.787572e+002
2.801892e+002, 8.779824e+002
2.806713e+002, 8.777599e+002
2.811534e+002, 8.779774e+002
2.816355e+002, 8.785920e+002
2.821176e+002, 8.796848e+002
2.825998e+002, 8.808523e+002
2.830819e+002, 8.809166e+002
2.835640e+002, 8.791852e+002
2.840461e+002, 8.778499e+002
2.845282e+002, 8.774426e+002
2.850103e+002, 8.776760e+002
2.854925e+002, 8.782366e+002
2.859746e+002, 8.790654e+002
2.864567e+002, 8.799379e+002
2.869388e+002, 8.803293e+002
2.874209e+002, 8.798263e+002
2.879030e+002, 8.802500e+002
2.883852e+002, 8.827645e+002
2.888673e+002, 8.860045e+002
2.893494e+002, 8.882668e+002
2.898315e+002, 8.891503e+002
2.903136e+002, 8.893962e+002
2.907957e+002, 8.897626e+002
2.912779e+002, 8.902130e+002
2.917600e+002, 8.911191e+002
2.922421e+002, 8.927070e+002
2.927242e+002, 8.946575e+002
2.932063e+002, 8.967471e+002
2.936884e+002, 8.989459e+002
2.941706e+002, 9.011008e+002
2.946527e+002, 9.030496e+002
2.951348e+002, 9.047886e+002
2.956169e+002, 9.065974e+002
2.960990e+002, 9.081553e+002
2.965811e+002, 9.100273e+002
2.970633e+002, 9.129964e+002
2.975454e+002, 9.169522e+002
2.980275e+002, 9.206339e+002
2.985096e+002, 9.230781e+002
2.989917e+002, 9.244330e+002
2.994738e+002, 9.260619e+002
2.999560e+002, 9.283455e+002
3.004381e+002, 9.305393e+002
3.009202e+002, 9.321971e+002
3.014023e+002, 9.333820e+002
3.018844e+002, 9.344284e+002
3.023665e+002, 9.355023e+002
3.028487e+002, 9.365568e+002
3.033308e+002, 9.374336e+002
3.038129e+002, 9.378006e+002
3.042950e+002, 9.385238e+002
3.047771e+002, 9.407297e+002
3.052592e+002, 9.436400e+002
3.057414e+002, 9.451312e+002
3.062235e+002, 9.442185e+002
3.067056e+002, 9.418510e+002
3.071877e+002, 9.397504e+002
3.076698e+002, 9.379160e+002
3.081519e+002, 9.362322e+002
3.086341e+002, 9.346713e+002
3.091162e+002, 9.332411e+002
3.095983e+002, 9.321409e+002
3.100804e+002, 9.315466e+002
3.105625e+002, 9.307683e+002
3.110446e+002, 9.287097e+002
3.115268e+002, 9.253563e+002
3.120089e+002, 9.220287e+002
3.124910e+002, 9.185850e+002
3.129731e+002, 9.154840e+002
3.134552e+002, 9.133745e+002
3.139373e+002, 9.123773e+002
3.144195e+002, 9.118436e+002
3.149016e+002, 9.115311e+002
3.153837e+002, 9.113168e+002
3.158658e+002, 9.099172e+002
3.163479e+002, 9.058238e+002
3.168300e+002, 9.014963e+002
3.173121e+002, 8.992785e+002
3.177943e+002, 8.990888e+002
3.182764e+002, 8.988104e+002
3.187585e+002, 8.967617e+002
3.192406e+002, 8.935209e+002
3.197227e+002, 8.918061e+002
3.202048e+002, 8.927825e+002
3.206870e+002, 8.940665e+002
3.211691e+002, 8.943732e+002
3.216512e+002, 8.939063e+002
3.221333e+002, 8.934515e+002
3.226154e+002, 8.935082e+002
3.230975e+002, 8.936321e+002
3.235797e+002, 8.926237e+002
3.240618e+002, 8.900049e+002
3.245439e+002, 8.875197e+002
3.250260e+002, 8.857829e+002
3.255081e+002, 8.845947e+002
3.259902e+002, 8.837151e+002
3.264724e+002, 8.831815e+002
3.269545e+002, 8.825031e+002
3.274366e+002, 8.805193e+002
3.279187e+002, 8.767786e+002
3.284008e+002, 8.744341e+002
3.288829e+002, 8.751815e+002
3.293651e+002, 8.771165e+002
3.298472e+002, 8.780883e+002
3.303293e+002, 8.777242e+002
3.308114e+002, 8.767213e+002
3.312935e+002, 8.756063e+002
3.317756e+002, 8.743693e+002
3.322578e+002, 8.735048e+002
3.327399e+002, 8.730085e+002
3.332220e+002, 8.729031e+002
3.337041e+002, 8.734384e+002
3.341862e+002, 8.745053e+002
3.346683e+002, 8.754308e+002
3.351505e+002, 8.757047e+002
3.356326e+002, 8.754232e+002
3.361147e+002, 8.753665e+002
3.365968e+002, 8.759321e+002
3.370789e+002, 8.762873e+002
3.375610e+002, 8.760377e+002
3.380432e+002, 8.753137e+002
3.385253e+002, 8.744086e+002
3.390074e+002, 8.734429e+002
3.394895e+002, 8.724252e+002
3.399716e+002, 8.713565e+002
3.404537e+002, 8.700867e+002
3.409359e+002, 8.690486e+002
3.414180e+002, 8.682267e+002
3.419001e+002, 8.677169e+002
3.423822e+002, 8.677360e+002
3.428643e+002, 8.683460e+002
3.433464e+002, 8.692508e+002
3.438286e+002, 8.701046e+002
3.443107e+002, 8.710323e+002
3.447928e+002, 8.713997e+002
3.452749e+002, 8.703318e+002
3.457570e+002, 8.693011e+002
3.462391e+002, 8.695906e+002
3.467213e+002, 8.712032e+002
3.472034e+002, 8.732745e+002
3.476855e+002, 8.752348e+002
3.481676e+002, 8.771300e+002
3.486497e+002, 8.771697e+002
3.491318e+002, 8.730890e+002
3.496140e+002, 8.697531e+002
3.500961e+002, 8.699874e+002
3.505782e+002, 8.726467e+002
3.510603e+002, 8.748340e+002
3.515424e+002, 8.747971e+002
3.520245e+002, 8.731371e+002
3.525067e+002, 8.724379e+002
3.529888e+002, 8.738339e+002
3.534709e+002, 8.747799e+002
3.539530e+002, 8.744064e+002
3.544351e+002, 8.736414e+002
3.549172e+002, 8.736840e+002
3.553994e+002, 8.749319e+002
3.558815e+002, 8.767015e+002
3.563636e+002, 8.778575e+002
3.568457e+002, 8.781701e+002
3.573278e+002, 8.782367e+002
3.578099e+002, 8.778566e+002
3.582920e+002, 8.773961e+002
3.587741e+002, 8.771388e+002
3.592563e+002, 8.770815e+002
3.597384e+002, 8.769997e+002
3.602205e+002, 8.766448e+002
3.607026e+002, 8.759617e+002
3.611847e+002, 8.755414e+002
3.616668e+002, 8.754063e+002
3.621490e+002, 8.754904e+002
3.626311e+002, 8.763366e+002
3.631132e+002, 8.773465e+002
3.635953e+002, 8.772810e+002
3.640774e+002, 8.752849e+002
3.645595e+002, 8.719604e+002
3.650417e+002, 8.698837e+002
3.655238e+002, 8.698445e+002
3.660059e+002, 8.700848e+002
3.664880e+002, 8.707130e+002
3.669701e+002, 8.713438e+002
3.674522e+002, 8.714954e+002
3.679344e+002, 8.710488e+002
3.684165e+002, 8.704687e+002
3.688986e+002, 8.706580e+002
3.693807e+002, 8.723152e+002
3.698628e+002, 8.727944e+002
3.703449e+002, 8.711344e+002
3.708271e+002, 8.691006e+002
3.713092e+002, 8.675457e+002
3.717913e+002, 8.665063e+002
3.722734e+002, 8.655425e+002
3.727555e+002, 8.642264e+002
3.732376e+002, 8.625831e+002
3.737198e+002, 8.612863e+002
3.742019e+002, 8.604708e+002
3.746840e+002, 8.598824e+002
3.751661e+002, 8.593764e+002
3.756482e+002, 8.590363e+002
3.761303e+002, 8.590950e+002
3.766125e+002, 8.597834e+002
3.770946e+002, 8.606485e+002
3.775767e+002, 8.605363e+002
3.780588e+002, 8.589690e+002
3.785409e+002, 8.577714e+002
3.790230e+002, 8.579073e+002
3.795052e+002, 8.583166e+002
3.799873e+002, 8.579355e+002
3.804694e+002, 8.565717e+002
3.809515e+002, 8.554946e+002
3.814336e+002, 8.563550e+002
3.819157e+002, 8.591008e+002
3.823979e+002, 8.611273e+002
3.828800e+002, 8.620087e+002
3.833621e+002, 8.621237e+002
3.838442e+002, 8.613358e+002
3.843263e+002, 8.599784e+002
3.848084e+002, 8.592136e+002
3.852906e+002, 8.599548e+002
3.857727e+002, 8.616744e+002
3.862548e+002, 8.633912e+002
3.867369e+002, 8.652922e+002
3.872190e+002, 8.664844e+002
3.877011e+002, 8.658799e+002
3.881833e+002, 8.643830e+002
3.886654e+002, 8.632077e+002
3.891475e+002, 8.625811e+002
3.896296e+002, 8.623235e+002
3.901117e+002, 8.625029e+002
3.905938e+002, 8.630350e+002
3.910760e+002, 8.632273e+002
3.915581e+002, 8.627981e+002
3.920402e+002, 8.619969e+002
3.925223e+002, 8.609427e+002
3.930044e+002, 8.595378e+002
3.934865e+002, 8.589164e+002
3.939687e+002, 8.601600e+002
3.944508e+002, 8.622638e+002
3.949329e+002, 8.636983e+002
3.954150e+002, 8.642529e+002
3.958971e+002, 8.641725e+002
3.963792e+002, 8.634049e+002
3.968614e+002, 8.620449e+002
3.973435e+002, 8.612236e+002
3.978256e+002, 8.607750e+002
3.983077e+002, 8.610489e+002
3.987898e+002, 8.629670e+002
3.992719e+002, 8.659628e+002
3.997540e+002, 8.680385e+002
4.002361e+002, 8.681347e+002
4.007183e+002, 8.667578e+002
4.012004e+002, 8.652617e+002
4.016825e+002, 8.633369e+002
4.021646e+002, 8.618312e+002
4.026467e+002, 8.610805e+002
4.031288e+002, 8.607396e+002
4.036110e+002, 8.603869e+002
4.040931e+002, 8.599396e+002
4.045752e+002, 8.596869e+002
4.050573e+002, 8.600637e+002
4.055394e+002, 8.613412e+002
4.060215e+002, 8.618282e+002
4.065037e+002, 8.610350e+002
4.069858e+002, 8.600332e+002
4.074679e+002, 8.593450e+002
4.079500e+002, 8.588878e+002
4.084321e+002, 8.583412e+002
4.089142e+002, 8.574979e+002
4.093964e+002, 8.564031e+002
4.098785e+002, 8.552418e+002
4.103606e+002, 8.534701e+002
4.108427e+002, 8.523792e+002
4.113248e+002, 8.525574e+002
4.118069e+002, 8.531778e+002
4.122891e+002, 8.534433e+002
4.127712e+002, 8.531526e+002
4.132533e+002, 8.526675e+002
4.137354e+002, 8.525080e+002
4.142175e+002, 8.528213e+002
