##NAMES=Serpierite
##RRUFFID=R060475
##IDEAL CHEMISTRY=Ca(Cu^2+^,Zn^2+^)_4_(S^6+^O_4_)_2_(OH)_6_&#183;3H_2_O
##LOCALITY=Oh mine, Gila County, Arizona, USA
##OWNER=RRUFF
##SOURCE=Michael Scott
##DESCRIPTION=Divergent sprays of blue bladed crystals associated with ktenasite, R090002
##STATUS=The identification of this mineral has been confirmed by single-crystal X-ray diffraction.
##URL=rruff.info/R060475
177.7553, 4350.588
178.2374, 4391.309
178.7195, 4422.009
179.2017, 4445.451
179.6838, 4465.293
180.1659, 4486.920
180.6480, 4510.877
181.1301, 4534.127
181.6122, 4553.964
182.0944, 4571.114
182.5765, 4587.216
183.0586, 4603.114
183.5407, 4618.570
184.0228, 4634.653
184.5049, 4651.732
184.9871, 4666.627
185.4692, 4672.938
185.9513, 4672.310
186.4334, 4673.473
186.9155, 4682.209
187.3976, 4696.026
187.8798, 4706.274
188.3619, 4711.805
188.8440, 4716.569
189.3261, 4726.368
189.8082, 4740.906
190.2903, 4755.789
190.7725, 4768.569
191.2546, 4779.800
191.7367, 4791.309
192.2188, 4802.886
192.7009, 4815.571
193.1830, 4831.678
193.6652, 4851.148
194.1473, 4870.313
194.6294, 4886.162
195.1115, 4899.065
195.5936, 4914.596
196.0757, 4933.924
196.5579, 4954.473
197.0400, 4970.961
197.5221, 4983.083
198.0042, 4994.529
198.4863, 5007.312
198.9684, 5021.396
199.4506, 5036.594
199.9327, 5053.671
200.4148, 5070.742
200.8969, 5083.025
201.3790, 5090.083
201.8611, 5095.653
202.3433, 5101.585
202.8254, 5107.879
203.3075, 5114.795
203.7896, 5122.255
204.2717, 5130.310
204.7538, 5139.664
205.2360, 5150.995
205.7181, 5160.814
206.2002, 5165.540
206.6823, 5163.593
207.1644, 5166.776
207.6465, 5177.946
208.1287, 5193.622
208.6108, 5202.755
209.0929, 5202.733
209.5750, 5203.269
210.0571, 5211.635
210.5392, 5230.485
211.0214, 5244.446
211.5035, 5250.574
211.9856, 5251.549
212.4677, 5257.447
212.9498, 5270.699
213.4319, 5283.801
213.9141, 5291.803
214.3962, 5292.967
214.8783, 5295.820
215.3604, 5301.665
215.8425, 5309.703
216.3246, 5316.361
216.8067, 5321.236
217.2889, 5325.545
217.7710, 5330.204
218.2531, 5335.705
218.7352, 5339.665
219.2173, 5340.892
219.6994, 5340.299
220.1816, 5342.502
220.6637, 5348.390
221.1458, 5355.265
221.6279, 5361.392
222.1100, 5366.501
222.5921, 5371.669
223.0743, 5377.582
223.5564, 5383.692
224.0385, 5387.426
224.5206, 5387.859
225.0027, 5387.500
225.4848, 5387.831
225.9670, 5389.034
226.4491, 5390.851
226.9312, 5393.556
227.4133, 5396.982
227.8954, 5400.040
228.3775, 5401.673
228.8597, 5404.462
229.3418, 5410.227
229.8239, 5420.518
230.3060, 5430.063
230.7881, 5438.457
231.2702, 5445.688
231.7524, 5451.179
232.2345, 5452.721
232.7166, 5455.245
233.1987, 5462.122
233.6808, 5476.654
234.1629, 5487.700
234.6451, 5493.089
235.1272, 5494.296
235.6093, 5498.117
236.0914, 5505.520
236.5735, 5514.192
237.0556, 5523.456
237.5378, 5535.747
238.0199, 5543.250
238.5020, 5543.335
238.9841, 5538.447
239.4662, 5538.515
239.9483, 5546.692
240.4305, 5555.855
240.9126, 5562.340
241.3947, 5565.093
241.8768, 5567.776
242.3589, 5570.471
242.8410, 5573.271
243.3232, 5576.294
243.8053, 5578.431
244.2874, 5582.244
244.7695, 5589.411
245.2516, 5602.540
245.7337, 5612.811
246.2159, 5618.699
246.6980, 5621.553
247.1801, 5625.858
247.6622, 5632.590
248.1443, 5639.138
248.6264, 5644.157
249.1086, 5647.109
249.5907, 5649.733
250.0728, 5651.630
250.5549, 5653.389
251.0370, 5656.973
251.5191, 5664.722
252.0013, 5670.822
252.4834, 5672.280
252.9655, 5666.521
253.4476, 5663.184
253.9297, 5663.059
254.4118, 5665.104
254.8940, 5667.419
255.3761, 5671.543
255.8582, 5673.162
256.3403, 5670.041
256.8224, 5660.742
257.3046, 5650.991
257.7867, 5639.989
258.2688, 5628.946
258.7509, 5620.677
259.2330, 5616.600
259.7151, 5612.359
260.1973, 5606.250
260.6794, 5598.092
261.1615, 5589.177
261.6436, 5579.224
262.1257, 5568.936
262.6078, 5559.807
263.0900, 5552.904
263.5721, 5545.092
264.0542, 5534.671
264.5363, 5520.642
265.0184, 5511.010
265.5005, 5506.982
265.9827, 5505.938
266.4648, 5503.816
266.9469, 5499.802
267.4290, 5497.324
267.9111, 5498.471
268.3932, 5503.675
268.8754, 5503.797
269.3575, 5496.948
269.8396, 5487.690
270.3217, 5481.314
270.8038, 5477.584
271.2859, 5477.263
271.7681, 5481.463
272.2502, 5489.900
272.7323, 5497.064
273.2144, 5503.258
273.6965, 5507.216
274.1786, 5506.559
274.6608, 5500.174
275.1429, 5495.397
275.6250, 5494.811
276.1071, 5497.622
276.5892, 5496.853
277.0714, 5491.235
277.5535, 5485.727
278.0356, 5485.681
278.5177, 5491.675
278.9998, 5496.912
279.4819, 5500.307
279.9641, 5501.805
280.4462, 5500.696
280.9283, 5496.593
281.4104, 5491.438
281.8925, 5487.011
282.3746, 5483.369
282.8568, 5478.007
283.3389, 5469.403
283.8210, 5459.911
284.3031, 5456.880
284.7852, 5461.060
285.2673, 5466.489
285.7495, 5468.935
286.2316, 5468.736
286.7137, 5469.018
287.1958, 5469.946
287.6779, 5472.029
288.1600, 5477.089
288.6422, 5485.164
289.1243, 5492.780
289.6064, 5496.764
290.0885, 5497.909
290.5706, 5500.377
291.0527, 5504.479
291.5349, 5509.783
292.0170, 5516.034
292.4991, 5523.015
292.9812, 5529.847
293.4633, 5536.660
293.9454, 5542.921
294.4276, 5546.215
294.9097, 5545.836
295.3918, 5545.021
295.8739, 5548.384
296.3560, 5555.150
296.8381, 5561.705
297.3203, 5565.239
297.8024, 5567.561
298.2845, 5573.167
298.7666, 5582.511
299.2487, 5591.829
299.7308, 5596.452
300.2130, 5597.938
300.6951, 5600.689
301.1772, 5607.414
301.6593, 5615.902
302.1414, 5623.474
302.6235, 5630.040
303.1057, 5635.462
303.5878, 5638.700
304.0699, 5640.748
304.5520, 5643.366
305.0341, 5647.071
305.5162, 5651.667
305.9984, 5657.429
306.4805, 5664.154
306.9626, 5670.776
307.4447, 5676.076
307.9268, 5680.952
308.4089, 5686.475
308.8911, 5693.017
309.3732, 5700.166
309.8553, 5707.291
310.3374, 5714.636
310.8195, 5723.194
311.3016, 5733.736
311.7838, 5745.482
312.2659, 5758.304
312.7480, 5773.139
313.2301, 5786.458
313.7122, 5793.916
314.1943, 5798.424
314.6765, 5805.972
315.1586, 5821.916
315.6407, 5839.848
316.1228, 5855.958
316.6049, 5869.358
317.0870, 5882.417
317.5692, 5896.412
318.0513, 5910.578
318.5334, 5923.749
319.0155, 5935.790
319.4976, 5946.592
319.9797, 5955.114
320.4619, 5960.982
320.9440, 5968.665
321.4261, 5981.283
321.9082, 5995.412
322.3903, 6007.752
322.8724, 6016.894
323.3546, 6024.755
323.8367, 6031.319
324.3188, 6036.641
324.8009, 6042.216
325.2830, 6052.081
325.7651, 6059.971
326.2473, 6061.828
326.7294, 6050.875
327.2115, 6041.547
327.6936, 6034.837
328.1757, 6030.903
328.6578, 6029.749
329.1400, 6035.264
329.6221, 6040.531
330.1042, 6042.570
330.5863, 6038.642
331.0684, 6036.098
331.5505, 6035.475
332.0327, 6036.036
332.5148, 6036.145
332.9969, 6034.819
333.4790, 6033.916
333.9611, 6033.745
334.4432, 6033.904
334.9254, 6035.913
335.4075, 6041.530
335.8896, 6047.162
336.3717, 6047.393
336.8538, 6040.001
337.3359, 6032.212
337.8180, 6025.212
338.3001, 6019.080
338.7823, 6018.102
339.2644, 6025.226
339.7465, 6032.025
340.2286, 6029.334
340.7107, 6015.663
341.1928, 6002.261
341.6750, 5991.453
342.1571, 5982.736
342.6392, 5974.698
343.1213, 5967.337
343.6034, 5960.629
344.0855, 5954.533
344.5677, 5949.108
345.0498, 5943.890
345.5319, 5938.531
346.0140, 5933.939
346.4961, 5932.800
346.9782, 5934.952
347.4604, 5936.256
347.9425, 5933.363
348.4246, 5927.552
348.9067, 5923.753
349.3888, 5922.452
349.8709, 5922.032
350.3531, 5920.515
350.8352, 5918.186
351.3173, 5916.138
351.7994, 5913.787
352.2815, 5912.282
352.7636, 5914.055
353.2458, 5919.040
353.7279, 5924.710
354.2100, 5929.778
354.6921, 5933.866
355.1742, 5936.427
355.6563, 5937.814
356.1385, 5936.984
356.6206, 5930.796
357.1027, 5920.518
357.5848, 5912.714
358.0669, 5914.060
358.5490, 5918.299
359.0312, 5919.290
359.5133, 5914.690
359.9954, 5909.483
360.4775, 5905.802
360.9596, 5903.688
361.4417, 5903.201
361.9239, 5906.704
362.4060, 5910.146
362.8881, 5911.150
363.3702, 5909.132
363.8523, 5906.681
364.3344, 5904.360
364.8166, 5902.167
365.2987, 5900.081
365.7808, 5896.651
366.2629, 5894.854
366.7450, 5896.005
367.2271, 5900.086
367.7093, 5904.133
368.1914, 5908.916
368.6735, 5912.771
369.1556, 5914.580
369.6377, 5911.086
370.1198, 5909.388
370.6020, 5909.882
371.0841, 5912.292
371.5662, 5916.031
372.0483, 5923.780
372.5304, 5929.408
373.0125, 5929.473
373.4947, 5920.257
373.9768, 5916.276
374.4589, 5919.348
374.9410, 5926.138
375.4231, 5931.380
375.9052, 5934.729
376.3874, 5937.974
376.8695, 5942.248
377.3516, 5947.601
377.8337, 5949.492
378.3158, 5947.092
378.7979, 5944.050
379.2801, 5944.055
379.7622, 5947.272
380.2443, 5950.938
380.7264, 5954.123
381.2085, 5957.800
381.6906, 5965.842
382.1728, 5978.269
382.6549, 5989.446
383.1370, 5993.156
383.6191, 5991.745
384.1012, 5995.377
384.5833, 6006.061
385.0655, 6018.183
385.5476, 6023.250
386.0297, 6023.033
386.5118, 6023.912
386.9939, 6030.321
387.4760, 6039.156
387.9582, 6046.143
388.4403, 6051.289
388.9224, 6055.440
389.4045, 6058.615
389.8866, 6061.482
390.3687, 6064.990
390.8509, 6069.528
391.3330, 6074.855
391.8151, 6081.729
392.2972, 6089.628
392.7793, 6096.387
393.2614, 6100.123
393.7436, 6102.811
394.2257, 6105.315
394.7078, 6106.194
395.1899, 6110.695
395.6720, 6122.763
396.1541, 6139.171
396.6363, 6154.775
397.1184, 6168.700
397.6005, 6181.190
398.0826, 6191.851
398.5647, 6200.399
399.0468, 6209.393
399.5290, 6218.724
400.0111, 6228.789
400.4932, 6239.889
400.9753, 6251.472
401.4574, 6264.983
401.9395, 6281.306
402.4217, 6299.826
402.9038, 6317.161
403.3859, 6332.401
403.8680, 6347.851
404.3501, 6364.822
404.8322, 6383.717
405.3144, 6402.027
405.7965, 6418.821
406.2786, 6435.860
406.7607, 6455.570
407.2428, 6477.873
407.7249, 6503.452
408.2071, 6533.476
408.6892, 6567.063
409.1713, 6596.767
409.6534, 6621.772
410.1355, 6648.193
410.6176, 6683.617
411.0998, 6726.359
411.5819, 6765.490
412.0640, 6797.936
412.5461, 6827.467
413.0282, 6861.078
413.5103, 6898.039
413.9925, 6934.809
414.4746, 6968.172
414.9567, 7000.796
415.4388, 7036.607
415.9209, 7076.442
416.4030, 7117.458
416.8852, 7161.702
417.3673, 7205.276
417.8494, 7242.014
418.3315, 7263.245
418.8136, 7282.567
419.2957, 7309.881
419.7779, 7343.910
420.2600, 7377.249
420.7421, 7408.723
421.2242, 7436.907
421.7063, 7459.709
422.1884, 7475.143
422.6706, 7489.386
423.1527, 7508.692
423.6348, 7527.434
424.1169, 7535.189
424.5990, 7522.117
425.0811, 7505.824
425.5633, 7491.140
426.0454, 7478.406
426.5275, 7464.867
427.0096, 7452.985
427.4917, 7437.926
427.9738, 7415.151
428.4560, 7380.928
428.9381, 7346.769
429.4202, 7314.912
429.9023, 7284.146
430.3844, 7247.638
430.8665, 7203.407
431.3487, 7159.660
431.8308, 7120.243
432.3129, 7085.412
432.7950, 7053.315
433.2771, 7024.107
433.7592, 6997.747
434.2414, 6973.969
434.7235, 6952.771
435.2056, 6933.616
435.6877, 6916.624
436.1698, 6901.552
436.6519, 6887.559
437.1341, 6874.718
437.6162, 6863.456
438.0983, 6854.956
438.5804, 6847.952
439.0625, 6839.931
439.5446, 6830.000
440.0268, 6820.693
440.5089, 6814.325
440.9910, 6810.201
441.4731, 6807.010
441.9552, 6805.321
442.4373, 6803.317
442.9195, 6799.176
443.4016, 6792.877
443.8837, 6787.432
444.3658, 6785.324
444.8479, 6783.688
445.3300, 6780.241
445.8122, 6771.936
446.2943, 6764.967
446.7764, 6760.711
447.2585, 6758.453
447.7406, 6756.442
448.2227, 6758.681
448.7049, 6756.992
449.1870, 6747.653
449.6691, 6728.907
450.1512, 6714.016
450.6333, 6704.636
451.1154, 6697.670
451.5976, 6690.533
452.0797, 6683.623
452.5618, 6675.730
453.0439, 6666.074
453.5260, 6655.832
454.0081, 6648.428
454.4903, 6644.331
454.9724, 6640.114
455.4545, 6631.814
455.9366, 6620.754
456.4187, 6617.047
456.9008, 6621.797
457.3830, 6629.337
457.8651, 6633.162
458.3472, 6634.197
458.8293, 6635.374
459.3114, 6637.481
459.7935, 6640.171
460.2757, 6643.982
460.7578, 6648.346
461.2399, 6650.810
461.7220, 6647.890
462.2041, 6643.420
462.6862, 6641.011
463.1684, 6641.377
463.6505, 6643.210
464.1326, 6649.536
464.6147, 6655.972
465.0968, 6656.867
465.5789, 6642.632
466.0611, 6630.855
466.5432, 6628.607
467.0253, 6635.095
467.5074, 6639.117
467.9895, 6637.308
468.4716, 6634.548
468.9538, 6632.926
469.4359, 6631.938
469.9180, 6633.308
470.4001, 6638.428
470.8822, 6644.819
471.3643, 6648.455
471.8465, 6647.967
472.3286, 6648.490
472.8107, 6651.788
473.2928, 6657.121
473.7749, 6660.339
474.2570, 6661.024
474.7392, 6661.440
475.2213, 6663.130
475.7034, 6666.008
476.1855, 6670.037
476.6676, 6675.818
477.1497, 6680.892
477.6319, 6680.618
478.1140, 6676.629
478.5961, 6674.124
479.0782, 6675.956
479.5603, 6680.139
480.0424, 6685.333
480.5246, 6691.294
481.0067, 6695.937
481.4888, 6697.377
481.9709, 6697.186
482.4530, 6696.776
482.9352, 6696.654
483.4173, 6695.568
483.8994, 6691.495
484.3815, 6686.378
484.8636, 6683.243
485.3457, 6682.688
485.8279, 6684.190
486.3100, 6689.176
486.7921, 6697.646
487.2742, 6702.469
487.7563, 6701.576
488.2384, 6699.407
488.7206, 6698.917
489.2027, 6702.590
489.6848, 6701.089
490.1669, 6692.029
490.6490, 6680.376
491.1311, 6674.675
491.6133, 6676.076
492.0954, 6675.665
492.5775, 6669.472
493.0596, 6659.634
493.5417, 6654.563
494.0238, 6654.251
494.5060, 6654.754
494.9881, 6654.117
495.4702, 6651.857
495.9523, 6646.058
496.4344, 6635.673
496.9165, 6625.104
497.3987, 6620.821
497.8808, 6619.281
498.3629, 6613.922
498.8450, 6597.234
499.3271, 6579.945
499.8092, 6570.242
500.2914, 6566.758
500.7735, 6562.326
501.2556, 6553.906
501.7377, 6543.905
502.2198, 6533.627
502.7019, 6522.946
503.1841, 6512.777
503.6662, 6502.979
504.1483, 6493.954
504.6304, 6486.380
505.1125, 6482.008
505.5946, 6476.285
506.0768, 6467.279
506.5589, 6456.178
507.0410, 6449.479
507.5231, 6448.712
508.0052, 6447.854
508.4873, 6443.180
508.9695, 6434.658
509.4516, 6427.110
509.9337, 6420.346
510.4158, 6415.196
510.8979, 6414.807
511.3800, 6417.513
511.8622, 6415.393
512.3443, 6404.068
512.8264, 6390.290
513.3085, 6382.791
513.7906, 6380.495
514.2728, 6379.497
514.7549, 6378.474
515.2370, 6377.313
515.7191, 6376.680
516.2012, 6376.803
516.6833, 6374.385
517.1655, 6364.636
517.6476, 6353.508
518.1297, 6346.120
518.6118, 6346.966
519.0939, 6347.400
519.5760, 6345.892
520.0582, 6343.106
520.5403, 6340.453
521.0224, 6336.035
521.5045, 6334.422
521.9866, 6337.467
522.4688, 6345.141
522.9509, 6352.554
523.4330, 6360.603
523.9151, 6366.228
524.3972, 6364.936
524.8793, 6356.432
525.3615, 6354.262
525.8436, 6360.729
526.3257, 6370.523
526.8078, 6375.935
527.2899, 6377.656
527.7720, 6379.048
528.2542, 6382.475
528.7363, 6385.399
529.2184, 6384.236
529.7005, 6379.375
530.1826, 6372.903
530.6647, 6362.783
531.1469, 6353.723
531.6290, 6350.677
532.1111, 6355.776
532.5932, 6360.192
533.0753, 6359.624
533.5574, 6357.106
534.0396, 6355.788
534.5217, 6359.218
535.0038, 6360.489
535.4859, 6357.036
535.9680, 6350.709
536.4501, 6347.280
536.9323, 6347.732
537.4144, 6349.476
537.8965, 6352.048
538.3786, 6355.467
538.8607, 6356.919
539.3428, 6355.779
539.8250, 6354.315
540.3071, 6355.298
540.7892, 6358.251
541.2713, 6358.310
541.7534, 6353.536
542.2355, 6348.862
542.7177, 6353.042
543.1998, 6363.462
543.6819, 6371.712
544.1640, 6373.000
544.6461, 6370.956
545.1282, 6366.948
545.6104, 6361.758
546.0925, 6359.892
546.5746, 6366.792
547.0567, 6375.659
547.5388, 6382.122
548.0209, 6385.193
548.5031, 6387.078
548.9852, 6386.528
549.4673, 6385.813
549.9494, 6387.459
550.4315, 6394.739
550.9136, 6399.051
551.3958, 6397.914
551.8779, 6393.549
552.3600, 6393.229
552.8421, 6398.363
553.3242, 6402.439
553.8063, 6402.458
554.2885, 6398.903
554.7706, 6394.980
555.2527, 6390.548
555.7348, 6387.449
556.2169, 6389.185
556.6990, 6393.487
557.1812, 6393.826
557.6633, 6388.321
558.1454, 6382.312
558.6275, 6381.354
559.1096, 6383.492
559.5917, 6385.218
560.0739, 6384.643
560.5560, 6383.808
561.0381, 6382.483
561.5202, 6381.367
562.0023, 6383.383
562.4844, 6395.765
562.9666, 6405.774
563.4487, 6405.927
563.9308, 6393.080
564.4129, 6385.979
564.8950, 6387.292
565.3771, 6391.319
565.8593, 6393.250
566.3414, 6392.242
566.8235, 6392.964
567.3056, 6396.904
567.7877, 6401.158
568.2698, 6399.282
568.7520, 6391.718
569.2341, 6385.778
569.7162, 6384.828
570.1983, 6386.920
570.6804, 6389.531
571.1625, 6392.446
571.6447, 6393.762
572.1268, 6389.719
572.6089, 6385.055
573.0910, 6384.939
573.5731, 6390.509
574.0552, 6396.418
574.5374, 6399.702
575.0195, 6402.465
575.5016, 6406.655
575.9837, 6415.673
576.4658, 6422.113
576.9479, 6423.398
577.4301, 6421.933
577.9122, 6422.370
578.3943, 6424.600
578.8764, 6428.658
579.3585, 6435.341
579.8406, 6443.896
580.3228, 6449.392
580.8049, 6451.563
581.2870, 6452.264
581.7691, 6452.448
582.2512, 6452.251
582.7333, 6452.295
583.2155, 6452.805
583.6976, 6452.794
584.1797, 6449.557
584.6617, 6445.728
585.1439, 6445.592
585.6260, 6450.875
586.1081, 6459.353
586.5902, 6474.058
587.0723, 6490.625
587.5544, 6500.377
588.0366, 6492.161
588.5187, 6485.663
589.0008, 6488.281
589.4829, 6499.559
589.9650, 6508.433
590.4471, 6513.327
590.9293, 6517.478
591.4114, 6521.892
591.8935, 6526.235
592.3756, 6533.323
592.8577, 6544.257
593.3398, 6554.890
593.8220, 6559.541
594.3041, 6559.292
594.7862, 6563.192
595.2683, 6574.315
595.7504, 6586.583
596.2325, 6590.647
596.7147, 6589.611
597.1968, 6591.342
597.6789, 6600.890
598.1610, 6613.303
598.6431, 6628.086
599.1252, 6643.669
599.6074, 6653.198
600.0895, 6646.881
600.5716, 6640.286
601.0537, 6641.844
601.5358, 6654.533
602.0179, 6663.748
602.5001, 6667.438
602.9822, 6669.482
603.4643, 6672.693
603.9464, 6677.424
604.4285, 6682.178
604.9106, 6687.108
605.3928, 6691.692
605.8749, 6694.181
606.3570, 6694.914
606.8391, 6698.744
607.3212, 6709.386
607.8033, 6720.950
608.2855, 6723.174
608.7676, 6718.120
609.2497, 6713.591
609.7318, 6716.427
610.2139, 6719.532
610.6960, 6716.470
611.1782, 6707.134
611.6603, 6698.417
612.1424, 6693.737
612.6245, 6689.622
613.1066, 6684.170
613.5887, 6677.788
614.0709, 6668.675
614.5530, 6655.197
615.0351, 6640.545
615.5172, 6627.774
615.9993, 6617.008
616.4814, 6607.376
616.9636, 6598.905
617.4457, 6591.315
617.9278, 6583.693
618.4099, 6576.121
618.8920, 6569.837
619.3741, 6566.962
619.8563, 6564.266
620.3384, 6555.698
620.8205, 6542.424
621.3026, 6530.531
621.7847, 6523.812
622.2668, 6519.522
622.7490, 6516.612
623.2311, 6515.206
623.7132, 6512.170
624.1953, 6503.477
624.6774, 6495.249
625.1595, 6492.218
625.6417, 6500.307
626.1238, 6502.008
626.6059, 6494.495
627.0880, 6483.957
627.5701, 6478.764
628.0522, 6479.481
628.5344, 6480.593
629.0165, 6480.879
629.4986, 6481.026
629.9807, 6482.656
630.4628, 6485.453
630.9449, 6487.845
631.4271, 6488.126
631.9092, 6488.067
632.3913, 6489.570
632.8734, 6492.422
633.3555, 6495.610
633.8376, 6498.181
634.3198, 6501.137
634.8019, 6505.578
635.2840, 6512.229
635.7661, 6516.884
636.2482, 6518.214
636.7303, 6518.262
637.2125, 6518.330
637.6946, 6518.474
638.1767, 6518.630
638.6588, 6518.693
639.1409, 6519.131
639.6230, 6521.731
640.1052, 6526.224
640.5873, 6526.875
641.0694, 6520.378
641.5515, 6512.695
642.0336, 6514.478
642.5157, 6522.795
642.9979, 6529.111
643.4800, 6527.379
643.9621, 6523.568
644.4442, 6521.667
644.9263, 6521.384
645.4084, 6520.631
645.8906, 6517.497
646.3727, 6514.860
646.8548, 6514.973
647.3369, 6518.718
647.8190, 6518.497
648.3011, 6513.002
648.7833, 6505.536
649.2654, 6497.837
649.7475, 6489.579
650.2296, 6484.748
650.7117, 6484.201
651.1938, 6484.506
651.6760, 6480.387
652.1581, 6473.507
652.6402, 6469.443
653.1223, 6470.667
653.6044, 6472.860
654.0865, 6472.384
654.5687, 6469.998
655.0508, 6467.208
655.5329, 6465.290
656.0150, 6462.284
656.4971, 6455.093
656.9792, 6445.402
657.4614, 6442.164
657.9435, 6451.560
658.4256, 6459.054
658.9077, 6459.096
659.3898, 6452.064
659.8719, 6448.578
660.3541, 6449.710
660.8362, 6449.295
661.3183, 6439.698
661.8004, 6424.553
662.2825, 6419.430
662.7646, 6425.695
663.2468, 6433.070
663.7289, 6433.093
664.2110, 6428.591
664.6931, 6422.592
665.1752, 6414.314
665.6573, 6408.634
666.1395, 6409.920
666.6216, 6414.177
667.1037, 6416.468
667.5858, 6412.170
668.0679, 6411.141
668.5500, 6415.666
669.0322, 6423.195
669.5143, 6428.463
669.9964, 6431.562
670.4785, 6431.575
670.9606, 6426.346
671.4427, 6419.071
671.9249, 6420.106
672.4070, 6428.421
672.8891, 6436.005
673.3712, 6437.739
673.8533, 6436.354
674.3354, 6434.513
