##NAMES=Serpierite
##RRUFFID=R060475
##IDEAL CHEMISTRY=Ca(Cu^2+^,Zn^2+^)_4_(S^6+^O_4_)_2_(OH)_6_&#183;3H_2_O
##LOCALITY=Oh mine, Gila County, Arizona, USA
##OWNER=RRUFF
##SOURCE=Michael Scott
##DESCRIPTION=Divergent sprays of blue bladed crystals associated with ktenasite, R090002
##STATUS=The identification of this mineral has been confirmed by single-crystal X-ray diffraction.
##URL=rruff.info/R060475
201.5261, 40.68481
202.0082, 39.82883
202.4904, 38.54543
202.9725, 37.29973
203.4546, 36.23558
203.9367, 35.40844
204.4188, 34.89881
204.9009, 34.87228
205.3831, 35.49855
205.8652, 36.09907
206.3473, 36.62108
206.8294, 37.13241
207.3115, 37.64203
207.7936, 38.16396
208.2758, 38.74831
208.7579, 39.58059
209.2400, 41.31705
209.7221, 41.73414
210.2042, 39.81893
210.6863, 37.53589
211.1685, 36.11595
211.6506, 35.83855
212.1327, 36.29270
212.6148, 36.94793
213.0969, 38.12148
213.5790, 38.75832
214.0612, 38.74648
214.5433, 38.31895
215.0254, 37.46870
215.5075, 36.25014
215.9896, 35.04047
216.4717, 34.37582
216.9539, 34.42214
217.4360, 34.75010
217.9181, 35.49764
218.4002, 36.45189
218.8823, 37.64685
219.3644, 39.09402
219.8466, 40.15652
220.3287, 39.68043
220.8108, 37.26295
221.2929, 35.64548
221.7750, 35.94795
222.2571, 36.95486
222.7393, 36.97428
223.2214, 35.52966
223.7035, 33.85508
224.1856, 33.58809
224.6677, 34.59585
225.1498, 35.78609
225.6320, 37.14541
226.1141, 38.45420
226.5962, 39.36767
227.0783, 39.83281
227.5604, 39.88359
228.0425, 39.28457
228.5247, 38.20864
229.0068, 37.37572
229.4889, 37.19647
229.9710, 37.44653
230.4531, 37.54674
230.9352, 37.23452
231.4174, 37.23363
231.8995, 38.65834
232.3816, 40.91529
232.8637, 42.30262
233.3458, 41.34014
233.8279, 38.81015
234.3101, 37.30205
234.7922, 37.32845
235.2743, 37.67830
235.7564, 37.61488
236.2385, 37.31942
236.7206, 37.15542
237.2028, 37.30737
237.6849, 37.75301
238.1670, 38.42858
238.6491, 39.48856
239.1312, 40.55921
239.6133, 41.62151
240.0955, 42.57885
240.5776, 43.27905
241.0597, 43.59605
241.5418, 43.59051
242.0239, 43.51379
242.5060, 43.11084
242.9882, 43.01615
243.4703, 43.85060
243.9524, 44.99307
244.4345, 45.47918
244.9166, 44.65342
245.3987, 42.86481
245.8809, 41.79495
246.3630, 42.07890
246.8451, 42.31510
247.3272, 42.14104
247.8093, 41.77185
248.2914, 41.48527
248.7736, 41.42875
249.2557, 41.57420
249.7378, 41.80524
250.2199, 42.09558
250.7020, 42.52701
251.1841, 43.34428
251.6663, 44.22597
252.1484, 44.80825
252.6305, 44.91892
253.1126, 44.62056
253.5947, 44.09386
254.0768, 42.80880
254.5590, 41.95588
255.0411, 41.77359
255.5232, 41.98666
256.0053, 42.27417
256.4874, 42.50137
256.9695, 42.78514
257.4517, 43.41072
257.9338, 45.62619
258.4159, 46.62305
258.8980, 45.73996
259.3801, 43.91130
259.8622, 41.84480
260.3444, 39.81464
260.8265, 38.14983
261.3086, 37.50711
261.7907, 38.88456
262.2728, 39.75888
262.7549, 40.32699
263.2371, 40.27119
263.7192, 38.75341
264.2013, 35.62802
264.6834, 32.45552
265.1655, 31.73970
265.6476, 35.21612
266.1298, 36.94526
266.6119, 35.02427
267.0940, 32.30194
267.5761, 31.77441
268.0582, 33.95792
268.5403, 36.64277
269.0225, 37.13093
269.5046, 34.70492
269.9867, 33.22222
270.4688, 33.25505
270.9509, 33.96181
271.4330, 34.89750
271.9152, 35.94864
272.3973, 36.62844
272.8794, 36.28242
273.3615, 34.82280
273.8436, 34.09454
274.3257, 34.56502
274.8079, 35.46301
275.2900, 36.44831
275.7721, 37.43945
276.2542, 37.93897
276.7363, 37.52970
277.2184, 36.19970
277.7006, 34.64442
278.1827, 31.97538
278.6648, 29.80059
279.1469, 29.41260
279.6290, 30.68357
280.1111, 32.64788
280.5933, 35.37562
281.0754, 38.09351
281.5575, 38.60188
282.0396, 35.27645
282.5217, 31.74723
283.0038, 30.16712
283.4860, 30.30992
283.9681, 31.08791
284.4502, 32.40902
284.9323, 33.72907
285.4144, 33.97057
285.8965, 32.82867
286.3787, 31.42824
286.8608, 30.11464
287.3429, 28.98611
287.8250, 28.44483
288.3071, 28.80164
288.7892, 29.57928
289.2714, 30.09875
289.7535, 30.35212
290.2356, 30.49236
290.7177, 30.55109
291.1998, 30.54949
291.6819, 30.52410
292.1641, 30.44436
292.6462, 30.42203
293.1283, 30.69674
293.6104, 31.22183
294.0925, 31.51101
294.5746, 31.22746
295.0568, 30.60102
295.5389, 29.92310
296.0210, 29.02753
296.5031, 28.68410
296.9852, 30.46172
297.4673, 33.49038
297.9495, 35.24366
298.4316, 33.76354
298.9137, 30.97698
299.3958, 29.90466
299.8779, 30.91458
300.3600, 32.17080
300.8422, 32.31776
301.3243, 31.90577
301.8064, 31.91152
302.2885, 33.01575
302.7706, 34.17027
303.2527, 33.77953
303.7349, 31.68545
304.2170, 30.32652
304.6991, 31.49195
305.1812, 33.78140
305.6633, 35.29743
306.1454, 35.67615
306.6276, 35.59674
307.1097, 35.65594
307.5918, 35.83135
308.0739, 35.65315
308.5560, 34.53879
309.0381, 33.40476
309.5203, 33.46162
310.0024, 34.87088
310.4845, 36.08469
310.9666, 35.47365
311.4487, 33.56219
311.9308, 33.07916
312.4130, 35.11692
312.8951, 37.94071
313.3772, 40.22255
313.8593, 41.96023
314.3414, 42.90179
314.8235, 42.55687
315.3057, 41.34168
315.7878, 40.28412
316.2699, 39.45135
316.7520, 38.82841
317.2341, 38.65768
317.7162, 38.69603
318.1984, 38.35536
318.6805, 36.69918
319.1626, 34.87831
319.6447, 34.97068
320.1268, 37.32842
320.6089, 39.83043
321.0911, 41.33622
321.5732, 42.23215
322.0553, 43.05201
322.5374, 44.11474
323.0195, 44.78780
323.5016, 44.05199
323.9838, 41.88807
324.4659, 40.21871
324.9480, 39.92460
325.4301, 40.44189
325.9122, 41.10892
326.3943, 41.94135
326.8765, 42.68602
327.3586, 43.32573
327.8407, 43.78907
328.3228, 43.57467
328.8049, 42.24166
329.2870, 40.63586
329.7692, 39.33684
330.2513, 38.36592
330.7334, 38.31347
331.2155, 40.51478
331.6976, 43.74885
332.1797, 44.91352
332.6619, 43.15357
333.1440, 40.82256
333.6261, 39.88958
334.1082, 39.87638
334.5903, 39.70984
335.0724, 38.87077
335.5546, 37.81187
336.0367, 37.06384
336.5188, 36.63286
337.0009, 36.50789
337.4830, 36.79914
337.9651, 37.37934
338.4473, 38.04911
338.9294, 39.01414
339.4115, 39.70698
339.8936, 39.42189
340.3757, 38.30667
340.8578, 37.52443
341.3400, 37.69092
341.8221, 38.20589
342.3042, 38.12180
342.7863, 37.35343
343.2684, 36.52302
343.7505, 35.85258
344.2327, 35.34686
344.7148, 35.04615
345.1969, 34.99715
345.6790, 35.05107
346.1611, 35.07595
346.6432, 35.07386
347.1254, 35.00769
347.6075, 34.74203
348.0896, 34.46803
348.5717, 34.67141
349.0538, 35.42958
349.5359, 35.63519
350.0181, 34.07370
350.5002, 31.21071
350.9823, 29.27712
351.4644, 29.12514
351.9465, 29.31606
352.4286, 28.54748
352.9108, 27.13630
353.3929, 26.74297
353.8750, 28.53713
354.3571, 31.48760
354.8392, 33.01419
355.3214, 32.80246
355.8035, 32.17057
356.2856, 31.40532
356.7677, 30.56604
357.2498, 29.64635
357.7319, 28.58371
358.2141, 27.78465
358.6962, 28.00611
359.1783, 29.49657
359.6604, 30.40827
360.1425, 30.29801
360.6246, 29.66788
361.1068, 28.59311
361.5889, 27.20074
362.0710, 26.53237
362.5531, 27.68856
363.0352, 30.63575
363.5173, 32.50853
363.9995, 32.89632
364.4816, 32.74672
364.9637, 32.17488
365.4458, 31.40102
365.9279, 30.83555
366.4100, 30.64384
366.8922, 30.91557
367.3743, 32.03465
367.8564, 35.92653
368.3385, 37.91149
368.8206, 35.76943
369.3027, 32.10043
369.7849, 29.85778
370.2670, 29.87304
370.7491, 31.12319
371.2312, 32.28765
371.7133, 33.42901
372.1954, 34.20550
372.6776, 34.89577
373.1597, 35.03050
373.6418, 33.84138
374.1239, 31.68122
374.6060, 29.82780
375.0881, 29.28688
375.5703, 30.03554
376.0524, 31.10104
376.5345, 32.99311
377.0166, 34.61992
377.4987, 36.00498
377.9808, 36.90540
378.4630, 36.77983
378.9451, 35.36939
379.4272, 33.38263
379.9093, 32.53261
380.3914, 33.60128
380.8735, 34.56755
381.3557, 35.40812
381.8378, 36.09426
382.3199, 36.55671
382.8020, 36.81819
383.2841, 37.02613
383.7662, 37.40614
384.2484, 38.05241
384.7305, 38.21252
385.2126, 36.90006
385.6947, 36.04983
386.1768, 36.66142
386.6589, 38.19104
387.1411, 39.44682
387.6232, 39.62571
388.1053, 39.15326
388.5874, 39.68184
389.0695, 42.11039
389.5516, 43.82254
390.0338, 43.76870
390.5159, 43.08960
390.9980, 42.86958
391.4801, 43.40471
391.9622, 44.06907
392.4443, 43.91693
392.9265, 42.80104
393.4086, 42.32933
393.8907, 43.48743
394.3728, 44.59462
394.8549, 44.41058
395.3370, 43.24195
395.8192, 42.38247
396.3013, 42.91573
396.7834, 44.38440
397.2655, 45.31687
397.7476, 45.68623
398.2297, 45.57912
398.7119, 44.41386
399.1940, 42.98913
399.6761, 42.43323
400.1582, 43.24899
400.6403, 44.50943
401.1224, 45.30471
401.6046, 45.66615
402.0867, 46.03198
402.5688, 46.57495
403.0509, 47.12418
403.5330, 47.43636
404.0151, 47.50454
404.4973, 47.65607
404.9794, 47.89517
405.4615, 48.34883
405.9436, 49.38522
406.4257, 51.11326
406.9078, 52.82573
407.3900, 53.89085
407.8721, 54.41349
408.3542, 55.04090
408.8363, 55.70455
409.3184, 56.58191
409.8005, 57.90022
410.2827, 59.55193
410.7648, 61.17876
411.2469, 62.65575
411.7290, 63.95438
412.2111, 64.98492
412.6932, 65.77049
413.1754, 66.29624
413.6575, 66.26603
414.1396, 66.12931
414.6217, 66.21405
415.1038, 66.62392
415.5859, 67.59958
416.0681, 69.45473
416.5502, 72.28706
417.0323, 74.98344
417.5144, 78.33833
417.9965, 80.77438
418.4786, 80.66462
418.9608, 79.27206
419.4429, 79.25529
419.9250, 82.05984
420.4071, 86.41772
420.8892, 88.78237
421.3713, 87.48270
421.8535, 86.59588
422.3356, 86.32035
422.8177, 86.41656
423.2998, 86.78359
423.7819, 87.35837
424.2640, 88.03701
424.7462, 88.77430
425.2283, 89.60395
425.7104, 90.03410
426.1925, 90.06898
426.6746, 89.64256
427.1567, 88.18655
427.6389, 86.38528
428.1210, 85.39794
428.6031, 85.88651
429.0852, 87.01326
429.5673, 87.32938
430.0494, 87.06388
430.5316, 85.19212
431.0137, 78.60586
431.4958, 72.29314
431.9779, 70.24387
432.4600, 72.39734
432.9421, 74.59830
433.4243, 73.14818
433.9064, 69.00877
434.3885, 66.49030
434.8706, 66.30862
435.3527, 66.52773
435.8348, 65.84789
436.3170, 64.72935
436.7991, 63.94745
437.2812, 63.84256
437.7633, 63.92116
438.2454, 63.56113
438.7275, 62.87912
439.2097, 62.79082
439.6918, 63.85166
440.1739, 65.28294
440.6560, 65.78596
441.1381, 65.28526
441.6202, 65.09918
442.1024, 66.18191
442.5845, 67.44572
443.0666, 67.31673
443.5487, 65.76363
444.0308, 64.48019
444.5129, 64.85545
444.9951, 66.67606
445.4772, 67.82589
445.9593, 67.75436
446.4414, 67.75282
446.9235, 68.47292
447.4056, 69.43225
447.8878, 69.88693
448.3699, 69.58617
448.8520, 68.82359
449.3341, 68.00589
449.8162, 67.03307
450.2983, 66.31672
450.7805, 65.90208
451.2626, 65.65965
451.7447, 65.39189
452.2268, 65.23033
452.7089, 65.60909
453.1910, 66.91429
453.6732, 68.78623
454.1553, 69.62180
454.6374, 68.56039
455.1195, 67.91486
455.6016, 68.43865
456.0837, 69.22890
456.5659, 69.42125
457.0480, 68.90494
457.5301, 68.37325
458.0122, 68.77974
458.4943, 70.09328
458.9764, 70.50240
459.4586, 69.27477
459.9407, 68.15094
460.4228, 68.07927
460.9049, 68.70979
461.3870, 69.48212
461.8691, 70.34593
462.3513, 71.03294
462.8334, 70.94611
463.3155, 70.13449
463.7976, 69.97807
464.2797, 71.32264
464.7618, 73.00258
465.2440, 73.29412
465.7261, 72.16178
466.2082, 71.64445
466.6903, 73.09421
467.1724, 75.16727
467.6545, 76.25799
468.1367, 76.25652
468.6188, 75.73913
469.1009, 74.90078
469.5830, 73.90742
470.0651, 73.57768
470.5472, 74.27967
471.0294, 75.07641
471.5115, 76.00471
471.9936, 76.78396
472.4757, 76.81208
472.9578, 76.01187
473.4399, 75.28807
473.9221, 75.79649
474.4042, 77.82448
474.8863, 79.42546
475.3684, 80.23747
475.8505, 81.07290
476.3326, 82.40494
476.8148, 83.92764
477.2969, 85.10954
477.7790, 85.68568
478.2611, 85.81618
478.7432, 85.85231
479.2253, 85.91029
479.7075, 85.53477
480.1896, 84.04627
480.6717, 82.63442
481.1538, 82.10278
481.6359, 82.31176
482.1180, 82.44319
482.6002, 81.66699
483.0823, 80.49957
483.5644, 80.78004
484.0465, 83.15920
484.5286, 84.55553
485.0107, 82.72306
485.4929, 79.60316
485.9750, 77.44927
486.4571, 76.60244
486.9392, 76.16594
487.4213, 75.78202
487.9034, 75.39303
488.3856, 74.98805
488.8677, 74.61544
489.3498, 73.75998
489.8319, 71.66916
490.3140, 68.50768
490.7961, 66.45729
491.2783, 66.84629
491.7604, 66.91290
492.2425, 64.84214
492.7246, 61.66268
493.2067, 59.30279
493.6888, 58.44473
494.1710, 58.46832
494.6531, 58.51981
495.1352, 58.79102
495.6173, 58.43092
496.0994, 57.39626
496.5815, 55.87655
497.0637, 53.48820
497.5458, 50.72373
498.0279, 48.50623
498.5100, 47.35432
498.9921, 47.06398
499.4742, 47.30548
499.9564, 48.68296
500.4385, 49.02949
500.9206, 46.89281
501.4027, 44.54864
501.8848, 43.42521
502.3669, 43.47937
502.8491, 43.78542
503.3312, 43.88515
503.8133, 43.73676
504.2954, 43.13578
504.7775, 41.98549
505.2596, 40.85176
505.7418, 40.01015
506.2239, 39.33556
506.7060, 38.68232
507.1881, 38.09124
507.6702, 37.32385
508.1523, 36.24438
508.6345, 34.91695
509.1166, 33.35062
509.5987, 31.53991
510.0808, 29.81574
510.5629, 28.38492
511.0450, 27.27765
511.5272, 26.65912
512.0093, 26.61974
512.4914, 26.88340
512.9735, 27.68989
513.4556, 28.62227
513.9377, 29.04770
514.4199, 28.83273
514.9020, 28.50196
515.3841, 28.75845
515.8662, 29.73978
516.3483, 30.35700
516.8304, 30.29025
517.3126, 30.18531
517.7947, 30.21178
518.2768, 30.31334
518.7589, 30.47636
519.2410, 30.71377
519.7231, 30.73191
520.2053, 30.01129
520.6874, 28.50049
521.1695, 26.94777
521.6516, 24.99530
522.1337, 23.64131
522.6158, 23.90313
523.0980, 25.25990
523.5801, 26.20812
524.0622, 25.96985
524.5443, 25.34274
525.0264, 25.29219
525.5085, 25.66858
525.9907, 25.44643
526.4728, 24.02578
526.9549, 22.39299
527.4370, 22.09217
527.9191, 23.30812
528.4012, 24.54232
528.8834, 26.42062
529.3655, 27.61250
529.8476, 26.30936
530.3297, 23.45943
530.8118, 21.97741
531.2939, 23.52342
531.7761, 26.77287
532.2582, 28.33334
532.7403, 27.20955
533.2224, 26.15757
533.7045, 24.94080
534.1866, 24.04543
534.6688, 23.81165
535.1509, 24.16131
535.6330, 24.87255
536.1151, 25.99089
536.5972, 27.12204
537.0793, 27.05898
537.5615, 25.48471
538.0436, 24.00632
538.5257, 22.79644
539.0078, 22.13197
539.4899, 22.62035
539.9720, 24.17320
540.4542, 25.16306
540.9363, 24.21080
541.4184, 22.52034
541.9005, 21.79334
542.3826, 22.06607
542.8647, 22.70798
543.3469, 23.50375
543.8290, 24.34861
544.3111, 25.00316
544.7932, 25.62018
545.2753, 25.74118
545.7574, 24.59317
546.2396, 23.42770
546.7217, 23.48012
547.2038, 24.63360
547.6859, 25.94034
548.1680, 26.78056
548.6501, 27.16040
549.1323, 27.07476
549.6144, 26.23720
550.0965, 25.41529
550.5786, 24.36481
551.0607, 23.60177
551.5428, 23.71076
552.0250, 24.57291
552.5071, 25.38118
552.9892, 25.41095
553.4713, 24.99967
553.9534, 25.23425
554.4355, 26.27557
554.9177, 27.15903
555.3998, 27.56093
555.8819, 27.54587
556.3640, 27.18940
556.8461, 26.44856
557.3282, 25.71904
557.8104, 24.93898
558.2925, 24.37249
558.7746, 24.61926
559.2567, 25.55648
559.7388, 26.02171
560.2209, 25.18533
560.7031, 23.58925
561.1852, 22.96042
561.6673, 24.00771
562.1494, 25.07284
562.6315, 26.40154
563.1136, 27.53379
563.5958, 28.23594
564.0779, 28.44024
564.5600, 27.96038
565.0421, 26.49555
565.5242, 24.55015
566.0063, 24.04349
566.4885, 25.73644
566.9706, 26.64915
567.4527, 25.19331
567.9348, 23.37435
568.4169, 22.46984
568.8990, 22.50826
569.3812, 22.95656
569.8633, 23.65641
570.3454, 24.54375
570.8275, 25.79814
571.3096, 27.34381
571.7917, 28.04638
572.2739, 27.14217
572.7560, 25.61105
573.2381, 25.30693
573.7202, 26.62370
574.2023, 27.51822
574.6844, 27.63136
575.1666, 27.41697
575.6487, 27.02862
576.1308, 26.57796
576.6129, 26.29558
577.0950, 26.31266
577.5771, 26.42036
578.0593, 25.98284
578.5414, 24.31785
579.0235, 23.98210
579.5056, 27.19856
579.9877, 29.80940
580.4698, 29.26725
580.9520, 26.67248
581.4341, 24.75917
581.9162, 24.88766
582.3983, 25.92823
582.8804, 26.63409
583.3625, 26.98601
583.8447, 26.58722
584.3268, 25.01208
584.8089, 23.42797
585.2910, 23.19065
585.7731, 24.16550
586.2552, 24.96170
586.7374, 24.71343
587.2195, 25.04019
587.7016, 27.41949
588.1837, 30.77823
588.6658, 33.24135
589.1479, 34.25139
589.6301, 34.54306
590.1122, 35.01283
590.5943, 35.71009
591.0764, 36.09602
591.5585, 35.64177
592.0406, 35.49941
592.5228, 36.14424
593.0049, 37.14827
593.4870, 37.94823
593.9691, 38.41154
594.4512, 38.96992
594.9333, 40.05434
595.4155, 41.58905
595.8976, 43.32557
596.3797, 45.34519
596.8618, 47.11972
597.3439, 48.19836
597.8260, 48.85860
598.3082, 49.82471
598.7903, 51.28377
599.2724, 52.57439
599.7545, 53.02131
600.2366, 53.48124
600.7188, 55.45448
601.2009, 58.62215
601.6830, 60.66637
602.1651, 59.87711
602.6472, 57.15301
603.1293, 55.85697
603.6115, 56.89448
604.0936, 57.72430
604.5757, 58.00555
605.0578, 58.19552
605.5399, 58.85048
606.0220, 59.69119
606.5042, 59.77033
606.9863, 58.27824
607.4684, 56.17309
607.9505, 54.97403
608.4326, 54.66420
608.9147, 54.61293
609.3969, 54.67487
609.8790, 54.91712
610.3611, 55.68473
610.8432, 56.89334
611.3253, 57.26689
611.8074, 56.19932
612.2896, 54.75936
612.7717, 53.21737
613.2538, 51.76598
613.7359, 50.88975
614.2180, 50.66768
614.7001, 50.29618
615.1823, 48.63218
615.6644, 45.54765
616.1465, 43.89473
616.6286, 45.07938
617.1107, 45.78418
617.5928, 44.80714
618.0750, 43.17774
618.5571, 41.94853
619.0392, 41.31876
619.5213, 40.79030
620.0034, 39.81330
620.4855, 38.71166
620.9677, 38.44325
621.4498, 39.08580
621.9319, 39.24735
622.4140, 38.06925
622.8961, 36.18248
623.3782, 34.94463
623.8604, 34.57581
624.3425, 34.06921
624.8246, 33.17377
625.3067, 32.23465
625.7888, 31.39465
626.2709, 30.71032
626.7531, 30.25865
627.2352, 30.08317
627.7173, 30.07831
628.1994, 30.11623
628.6815, 30.25852
629.1636, 30.07229
629.6458, 29.16265
630.1279, 28.40766
630.6100, 28.21487
631.0921, 28.45800
631.5742, 29.01128
632.0563, 30.02830
632.5385, 30.78605
633.0206, 30.51320
633.5027, 29.67606
633.9848, 29.12590
634.4669, 28.99541
634.9490, 29.33732
635.4312, 30.40062
635.9133, 31.83804
636.3954, 31.99353
636.8775, 29.11410
637.3596, 27.29416
637.8417, 27.00132
638.3239, 27.53279
638.8060, 28.91772
639.2881, 30.71223
639.7702, 31.83042
640.2523, 31.49100
640.7344, 30.46120
641.2166, 30.18294
641.6987, 30.67830
642.1808, 31.50815
642.6629, 32.98851
643.1450, 34.13501
643.6271, 33.46484
644.1093, 31.59311
644.5914, 30.85800
645.0735, 33.39642
645.5556, 35.05142
646.0377, 32.92158
646.5198, 29.12336
647.0020, 26.47775
647.4841, 25.60382
647.9662, 26.15995
648.4483, 28.33451
648.9304, 31.43463
649.4125, 29.93270
649.8947, 19.02963
650.3768, 12.65103
650.8589, 16.76706
651.3410, 23.14954
651.8231, 26.57663
652.3052, 26.93843
652.7874, 26.38828
653.2695, 25.53494
653.7516, 24.74900
654.2337, 24.68424
654.7158, 25.15002
655.1979, 25.19679
655.6801, 24.50141
656.1622, 23.63441
656.6443, 23.22361
657.1264, 23.29805
657.6085, 23.29647
658.0906, 23.05459
658.5728, 22.95204
659.0549, 23.38621
659.5370, 23.81893
660.0191, 23.57334
660.5012, 22.64023
660.9833, 21.69223
661.4655, 21.35785
661.9476, 21.38190
662.4297, 20.81334
662.9118, 19.50564
663.3939, 18.78841
663.8760, 19.22526
664.3582, 20.24084
664.8403, 21.41231
665.3224, 22.70764
665.8045, 23.36943
666.2866, 22.72811
666.7687, 21.99965
667.2509, 21.88643
667.7330, 22.13053
668.2151, 22.24434
668.6972, 22.11856
669.1793, 22.08638
669.6614, 22.60135
670.1436, 23.57677
670.6257, 23.69283
671.1078, 22.38862
671.5899, 21.38630
672.0720, 21.20821
672.5541, 21.48591
673.0363, 22.26657
673.5184, 23.41858
674.0005, 23.92422
674.4826, 22.97316
674.9647, 21.48370
675.4468, 19.83760
675.9290, 18.39695
676.4111, 18.59857
676.8932, 20.92404
677.3753, 23.42675
677.8574, 23.71497
678.3395, 21.67874
678.8217, 20.27987
679.3038, 19.66977
679.7859, 19.55226
680.2680, 20.44034
680.7501, 21.41964
681.2322, 21.56545
681.7144, 20.87493
682.1965, 20.14056
682.6786, 19.72559
683.1607, 19.68897
683.6428, 20.47827
684.1249, 21.93331
684.6071, 22.49789
685.0892, 21.51694
685.5713, 20.19445
686.0534, 19.93434
686.5355, 20.81854
687.0176, 21.36900
687.4998, 21.46447
687.9819, 21.41221
688.4640, 21.47560
688.9461, 21.31251
689.4282, 20.28883
689.9103, 18.54014
690.3925, 17.09054
690.8746, 16.73300
691.3567, 17.19954
691.8388, 18.11773
692.3209, 19.53080
692.8030, 20.14849
693.2852, 19.21478
693.7673, 18.16884
694.2494, 18.70208
694.7315, 20.68771
695.2136, 21.98036
695.6957, 22.12650
696.1779, 22.03083
696.6600, 22.04968
697.1421, 21.96281
697.6242, 21.39252
698.1063, 20.39109
