##NAMES=Sewardite
##RRUFFID=R141206
##IDEAL CHEMISTRY=CaFe^3+^_2_(As^5+^O_4_)_2_(OH)_2_
##LOCALITY=Tsumeb, Namibia
##OWNER=RRUFF
##SOURCE=Shields Flynn
##DESCRIPTION=Reddish crystalline massive in scorodite
##STATUS=The identification of this mineral has been confirmed only by single crystal X-ray diffraction.
##URL=rruff.info/R141206
113.4069, 2776.681
113.8890, 2844.662
114.3712, 2908.477
114.8533, 2967.053
115.3354, 3021.664
115.8175, 3072.766
116.2996, 3121.227
116.7817, 3165.394
117.2639, 3204.906
117.7460, 3240.373
118.2281, 3272.528
118.7102, 3300.844
119.1923, 3326.620
119.6744, 3349.996
120.1566, 3370.717
120.6387, 3390.392
121.1208, 3408.589
121.6029, 3426.218
122.0850, 3445.017
122.5671, 3466.488
123.0493, 3489.161
123.5314, 3511.749
124.0135, 3534.252
124.4956, 3555.913
124.9777, 3574.660
125.4598, 3591.281
125.9420, 3608.681
126.4241, 3628.256
126.9062, 3649.863
127.3883, 3673.499
127.8704, 3699.707
128.3525, 3727.130
128.8347, 3754.347
129.3168, 3781.399
129.7989, 3807.113
130.2810, 3830.506
130.7631, 3851.792
131.2452, 3873.017
131.7274, 3895.769
132.2095, 3918.305
132.6916, 3935.955
133.1737, 3948.708
133.6558, 3957.529
134.1379, 3963.608
134.6201, 3966.972
135.1022, 3967.451
135.5843, 3965.932
136.0664, 3961.863
136.5485, 3949.751
137.0306, 3927.809
137.5128, 3901.824
137.9949, 3877.159
138.4770, 3853.311
138.9591, 3832.862
139.4412, 3816.611
139.9233, 3804.802
140.4055, 3795.101
140.8876, 3787.123
141.3697, 3781.515
141.8518, 3779.423
142.3339, 3781.259
142.8160, 3785.512
143.2982, 3791.709
143.7803, 3799.745
144.2624, 3809.961
144.7445, 3822.816
145.2266, 3837.768
145.7087, 3852.903
146.1909, 3868.082
146.6730, 3884.010
147.1551, 3901.496
147.6372, 3923.646
148.1193, 3941.995
148.6014, 3956.863
149.0836, 3968.045
149.5657, 3975.245
150.0478, 3978.366
150.5299, 3977.488
151.0120, 3972.554
151.4941, 3961.898
151.9763, 3949.196
152.4584, 3934.301
152.9405, 3917.268
153.4226, 3898.268
153.9047, 3875.951
154.3868, 3852.503
154.8690, 3829.111
155.3511, 3803.709
155.8332, 3780.692
156.3153, 3761.945
156.7974, 3746.979
157.2795, 3731.756
157.7617, 3714.516
158.2438, 3697.242
158.7259, 3681.376
159.2080, 3668.335
159.6901, 3655.793
160.1722, 3643.740
160.6544, 3632.085
161.1365, 3619.032
161.6186, 3603.559
162.1007, 3586.654
162.5828, 3568.831
163.0649, 3550.418
163.5471, 3531.111
164.0292, 3511.501
164.5113, 3491.573
164.9934, 3468.540
165.4755, 3439.958
165.9576, 3407.558
166.4398, 3373.914
166.9219, 3341.646
167.4040, 3306.786
167.8861, 3265.789
168.3682, 3217.991
168.8503, 3170.095
169.3325, 3125.667
169.8146, 3083.917
170.2967, 3044.210
170.7788, 3006.410
171.2609, 2969.899
171.7430, 2933.702
172.2252, 2897.217
172.7073, 2864.250
173.1894, 2838.553
173.6715, 2818.542
174.1536, 2801.439
174.6357, 2784.542
175.1179, 2769.926
175.6000, 2760.749
176.0821, 2757.877
176.5642, 2757.500
177.0463, 2756.185
177.5284, 2754.390
178.0106, 2753.542
178.4927, 2754.211
178.9748, 2756.368
179.4569, 2759.983
179.9390, 2765.129
180.4211, 2771.626
180.9033, 2780.139
181.3854, 2790.291
181.8675, 2799.984
182.3496, 2808.347
182.8317, 2815.379
183.3138, 2821.451
183.7960, 2826.488
184.2781, 2830.685
184.7602, 2834.729
185.2423, 2838.449
185.7244, 2840.204
186.2065, 2837.680
186.6887, 2832.073
187.1708, 2828.001
187.6529, 2826.195
188.1350, 2825.536
188.6171, 2824.156
189.0992, 2822.057
189.5814, 2820.175
190.0635, 2818.762
190.5456, 2817.930
191.0277, 2818.403
191.5098, 2820.115
191.9919, 2823.396
192.4741, 2828.917
192.9562, 2836.664
193.4383, 2846.292
193.9204, 2857.327
194.4025, 2869.817
194.8846, 2884.831
195.3668, 2902.927
195.8489, 2923.118
196.3310, 2943.314
196.8131, 2963.535
197.2952, 2983.445
197.7773, 3003.187
198.2595, 3022.686
198.7416, 3041.836
199.2237, 3061.372
199.7058, 3079.761
200.1879, 3092.168
200.6700, 3098.202
201.1522, 3100.624
201.6343, 3101.302
202.1164, 3100.350
202.5985, 3096.539
203.0806, 3089.461
203.5627, 3079.616
204.0449, 3068.617
204.5270, 3056.496
205.0091, 3043.037
205.4912, 3026.914
205.9733, 3007.023
206.4554, 2991.277
206.9376, 2981.534
207.4197, 2976.343
207.9018, 2969.289
208.3839, 2959.026
208.8660, 2950.352
209.3481, 2946.945
209.8303, 2949.654
210.3124, 2953.818
210.7945, 2958.946
211.2766, 2965.192
211.7587, 2973.359
212.2408, 2983.630
212.7230, 2995.549
213.2051, 3008.872
213.6872, 3023.484
214.1693, 3039.965
214.6514, 3058.501
215.1335, 3078.880
215.6157, 3099.401
216.0978, 3120.213
216.5799, 3141.030
217.0620, 3161.813
217.5441, 3182.491
218.0262, 3203.321
218.5084, 3224.257
218.9905, 3245.619
219.4726, 3267.681
219.9547, 3290.540
220.4368, 3314.579
220.9189, 3340.293
221.4011, 3369.540
221.8832, 3396.186
222.3653, 3419.206
222.8474, 3439.322
223.3295, 3461.040
223.8116, 3485.219
224.2938, 3508.942
224.7759, 3530.052
225.2580, 3546.635
225.7401, 3564.925
226.2222, 3586.449
226.7043, 3609.973
227.1865, 3631.432
227.6686, 3650.024
228.1507, 3667.052
228.6328, 3683.104
229.1149, 3698.561
229.5970, 3711.937
230.0792, 3722.213
230.5613, 3730.357
231.0434, 3739.770
231.5255, 3750.799
232.0076, 3762.527
232.4897, 3774.851
232.9719, 3789.807
233.4540, 3800.626
233.9361, 3805.032
234.4182, 3805.365
234.9003, 3810.189
235.3824, 3822.576
235.8646, 3835.064
236.3467, 3843.693
236.8288, 3846.024
237.3109, 3849.734
237.7930, 3854.823
238.2751, 3861.372
238.7573, 3869.889
239.2394, 3882.210
239.7215, 3893.685
240.2036, 3902.106
240.6857, 3905.914
241.1678, 3909.995
241.6500, 3914.383
242.1321, 3918.969
242.6142, 3923.468
243.0963, 3927.085
243.5784, 3931.773
244.0605, 3938.628
244.5427, 3949.201
245.0248, 3957.953
245.5069, 3963.651
245.9890, 3968.109
246.4711, 3975.340
246.9532, 3986.886
247.4354, 3998.881
247.9175, 4009.501
248.3996, 4017.733
248.8817, 4028.296
249.3638, 4041.652
249.8459, 4057.171
250.3281, 4073.839
250.8102, 4092.397
251.2923, 4110.988
251.7744, 4128.868
252.2565, 4145.163
252.7386, 4164.029
253.2208, 4186.634
253.7029, 4210.947
254.1850, 4233.888
254.6671, 4253.885
255.1492, 4275.630
255.6313, 4300.982
256.1135, 4330.583
256.5956, 4358.591
257.0777, 4385.124
257.5598, 4409.447
258.0419, 4430.399
258.5240, 4447.242
259.0062, 4461.728
259.4883, 4474.409
259.9704, 4485.110
260.4525, 4493.234
260.9346, 4498.561
261.4167, 4501.505
261.8989, 4503.136
262.3810, 4505.139
262.8631, 4501.406
263.3452, 4490.052
263.8273, 4470.978
264.3094, 4449.880
264.7916, 4426.931
265.2737, 4401.424
265.7558, 4371.804
266.2379, 4337.236
266.7200, 4302.203
267.2021, 4267.931
267.6843, 4234.069
268.1664, 4195.357
268.6485, 4150.512
269.1306, 4103.548
269.6127, 4058.117
270.0948, 4014.527
270.5770, 3971.380
271.0591, 3928.563
271.5412, 3886.331
272.0233, 3844.713
272.5054, 3804.204
272.9875, 3764.595
273.4697, 3725.879
273.9518, 3687.591
274.4339, 3651.046
274.9160, 3616.912
275.3981, 3584.465
275.8802, 3550.402
276.3624, 3514.790
276.8445, 3479.421
277.3266, 3445.428
277.8087, 3412.860
278.2908, 3381.279
278.7729, 3350.704
279.2551, 3321.111
279.7372, 3293.669
280.2193, 3268.650
280.7014, 3243.493
281.1835, 3216.405
281.6656, 3187.420
282.1478, 3158.284
282.6299, 3128.647
283.1120, 3099.727
283.5941, 3073.908
284.0762, 3051.201
284.5583, 3029.407
285.0405, 3007.578
285.5226, 2985.694
286.0047, 2963.604
286.4868, 2941.301
286.9689, 2918.781
287.4510, 2895.626
287.9332, 2871.901
288.4153, 2848.930
288.8974, 2828.257
289.3795, 2809.015
289.8616, 2788.445
290.3438, 2766.378
290.8259, 2744.106
291.3080, 2722.750
291.7901, 2702.455
292.2722, 2682.905
292.7543, 2664.612
293.2365, 2646.936
293.7186, 2628.422
294.2007, 2609.219
294.6828, 2589.883
295.1649, 2570.556
295.6470, 2551.584
296.1292, 2533.467
296.6113, 2516.704
297.0934, 2500.770
297.5755, 2485.144
298.0576, 2469.656
298.5397, 2453.326
299.0219, 2434.255
299.5040, 2413.688
299.9861, 2394.531
300.4682, 2377.436
300.9503, 2361.830
301.4324, 2347.438
301.9146, 2334.104
302.3967, 2320.493
302.8788, 2305.503
303.3609, 2289.922
303.8430, 2275.333
304.3251, 2262.209
304.8073, 2249.091
305.2894, 2233.456
305.7715, 2216.612
306.2536, 2201.322
306.7357, 2190.636
307.2178, 2181.455
307.7000, 2170.566
308.1821, 2157.519
308.6642, 2144.413
309.1463, 2132.914
309.6284, 2122.373
310.1105, 2111.624
310.5927, 2099.101
311.0748, 2087.127
311.5569, 2077.713
312.0390, 2070.886
312.5211, 2064.046
313.0032, 2055.128
313.4854, 2045.586
313.9675, 2037.079
314.4496, 2030.757
314.9317, 2025.131
315.4138, 2019.387
315.8959, 2013.675
316.3781, 2008.616
316.8602, 2005.260
317.3423, 2002.301
317.8244, 1998.803
318.3065, 1994.439
318.7886, 1989.712
319.2708, 1984.284
319.7529, 1978.564
320.2350, 1973.688
320.7171, 1970.228
321.1992, 1967.541
321.6813, 1965.267
322.1635, 1963.127
322.6456, 1961.855
323.1277, 1962.562
323.6098, 1964.044
324.0919, 1964.301
324.5740, 1961.946
325.0562, 1959.275
325.5383, 1956.970
326.0204, 1955.161
326.5025, 1953.329
326.9846, 1950.609
327.4667, 1948.224
327.9489, 1947.455
328.4310, 1950.499
328.9131, 1952.763
329.3952, 1953.359
329.8773, 1952.259
330.3594, 1951.364
330.8416, 1950.516
331.3237, 1950.029
331.8058, 1950.049
332.2879, 1950.038
332.7700, 1951.504
333.2521, 1955.030
333.7343, 1960.191
334.2164, 1964.957
334.6985, 1969.009
335.1806, 1973.039
335.6627, 1977.484
336.1448, 1982.546
336.6270, 1987.097
337.1091, 1990.572
337.5912, 1993.868
338.0733, 1999.162
338.5554, 2007.003
339.0375, 2014.920
339.5197, 2021.892
340.0018, 2027.805
340.4839, 2033.836
340.9660, 2039.664
341.4481, 2046.070
341.9302, 2054.229
342.4124, 2064.345
342.8945, 2074.152
343.3766, 2082.572
343.8587, 2090.163
344.3408, 2100.317
344.8229, 2113.272
345.3051, 2126.801
345.7872, 2138.348
346.2693, 2148.320
346.7514, 2159.901
347.2335, 2173.696
347.7156, 2189.360
348.1978, 2206.281
348.6799, 2224.422
349.1620, 2243.091
349.6441, 2262.075
350.1262, 2281.263
350.6083, 2300.114
351.0905, 2318.574
351.5726, 2337.422
352.0547, 2357.783
352.5368, 2379.375
353.0189, 2401.348
353.5010, 2423.202
353.9832, 2445.225
354.4653, 2467.976
354.9474, 2491.710
355.4295, 2515.010
355.9116, 2536.930
356.3937, 2557.805
356.8759, 2577.842
357.3580, 2597.927
357.8401, 2616.759
358.3222, 2632.915
358.8043, 2646.849
359.2864, 2660.362
359.7686, 2675.151
360.2507, 2689.636
360.7328, 2702.202
361.2149, 2711.796
361.6970, 2720.785
362.1791, 2731.817
362.6613, 2742.957
363.1434, 2749.781
363.6255, 2746.911
364.1076, 2742.529
364.5897, 2740.614
365.0718, 2742.577
365.5540, 2743.672
366.0361, 2742.787
366.5182, 2740.695
367.0003, 2738.332
367.4824, 2737.919
367.9645, 2735.124
368.4467, 2728.197
368.9288, 2717.067
369.4109, 2706.625
369.8930, 2696.304
370.3751, 2687.190
370.8572, 2680.210
371.3394, 2677.806
371.8215, 2673.591
372.3036, 2666.688
372.7857, 2657.651
373.2678, 2648.254
373.7499, 2637.905
374.2321, 2628.018
374.7142, 2619.495
375.1963, 2612.685
375.6784, 2605.181
376.1605, 2596.376
376.6426, 2587.657
377.1248, 2581.931
377.6069, 2579.695
378.0890, 2577.073
378.5711, 2573.314
379.0532, 2568.214
379.5353, 2559.894
380.0175, 2547.753
380.4996, 2535.090
380.9817, 2524.904
381.4638, 2517.053
381.9459, 2510.109
382.4280, 2504.225
382.9102, 2498.598
383.3923, 2491.598
383.8744, 2483.283
384.3565, 2475.015
384.8386, 2468.308
385.3207, 2462.171
385.8029, 2454.648
386.2850, 2445.295
386.7671, 2435.469
387.2492, 2426.352
387.7313, 2417.757
388.2134, 2409.444
388.6956, 2402.152
389.1777, 2394.685
389.6598, 2385.384
390.1419, 2374.428
390.6240, 2364.118
391.1061, 2357.066
391.5883, 2350.828
392.0704, 2342.665
392.5525, 2330.073
393.0346, 2317.942
393.5167, 2308.263
393.9988, 2300.655
394.4810, 2293.885
394.9631, 2287.996
395.4452, 2282.473
395.9273, 2277.300
396.4094, 2272.942
396.8915, 2267.411
397.3737, 2258.871
397.8558, 2249.412
398.3379, 2241.608
398.8200, 2237.285
399.3021, 2232.900
399.7842, 2227.566
400.2664, 2221.266
400.7485, 2215.624
401.2306, 2211.153
401.7127, 2206.852
402.1948, 2202.179
402.6769, 2197.351
403.1591, 2191.521
403.6412, 2184.052
404.1233, 2175.823
404.6054, 2168.981
405.0875, 2164.069
405.5696, 2159.172
406.0518, 2153.567
406.5339, 2147.261
407.0160, 2140.601
407.4981, 2133.544
407.9802, 2126.562
408.4623, 2120.112
408.9445, 2114.198
409.4266, 2109.069
409.9087, 2104.770
410.3908, 2101.362
410.8729, 2099.101
411.3550, 2097.990
411.8372, 2097.673
412.3193, 2097.969
412.8014, 2098.860
413.2835, 2100.219
413.7656, 2101.961
414.2477, 2104.408
414.7299, 2107.643
415.2120, 2111.799
415.6941, 2117.132
416.1762, 2124.773
416.6583, 2132.982
417.1404, 2139.911
417.6226, 2145.614
418.1047, 2151.725
418.5868, 2159.665
419.0689, 2168.245
419.5510, 2176.438
420.0331, 2183.415
420.5153, 2190.604
420.9974, 2198.344
421.4795, 2206.663
421.9616, 2215.305
422.4437, 2225.698
422.9258, 2235.312
423.4080, 2243.218
423.8901, 2249.483
424.3722, 2254.033
424.8543, 2255.352
425.3364, 2255.756
425.8185, 2257.492
426.3007, 2261.478
426.7828, 2265.575
427.2649, 2269.819
427.7470, 2274.021
428.2291, 2277.156
428.7112, 2279.437
429.1934, 2280.181
429.6755, 2278.720
430.1576, 2274.584
430.6397, 2270.351
431.1218, 2265.789
431.6039, 2261.599
432.0861, 2259.355
432.5682, 2259.238
433.0503, 2258.289
433.5324, 2255.333
434.0145, 2250.802
434.4966, 2245.855
434.9788, 2240.487
435.4609, 2235.553
435.9430, 2231.556
436.4251, 2228.534
436.9072, 2226.921
437.3893, 2227.412
437.8715, 2227.733
438.3536, 2224.901
438.8357, 2219.720
439.3178, 2214.429
439.7999, 2209.532
440.2820, 2205.393
440.7642, 2202.726
441.2463, 2201.519
441.7284, 2200.217
442.2105, 2197.195
442.6926, 2193.952
443.1747, 2191.973
443.6569, 2193.228
444.1390, 2193.856
444.6211, 2191.900
445.1032, 2188.301
445.5853, 2185.866
446.0674, 2186.283
446.5496, 2186.945
447.0317, 2186.811
447.5138, 2185.458
447.9959, 2184.775
448.4780, 2185.167
448.9601, 2186.038
449.4423, 2186.697
449.9244, 2186.467
450.4065, 2187.565
450.8886, 2190.570
451.3707, 2195.138
451.8528, 2199.982
452.3350, 2205.162
452.8171, 2210.458
453.2992, 2215.741
453.7813, 2220.998
454.2634, 2226.560
454.7455, 2232.354
455.2277, 2238.683
455.7098, 2246.266
456.1919, 2254.882
456.6740, 2263.702
457.1561, 2272.303
457.6382, 2280.865
458.1204, 2289.414
458.6025, 2298.037
459.0846, 2306.724
459.5667, 2315.476
460.0488, 2324.438
460.5309, 2334.000
461.0131, 2344.362
461.4952, 2354.597
461.9773, 2363.089
462.4594, 2371.123
462.9415, 2380.705
463.4236, 2394.102
463.9058, 2407.634
464.3879, 2420.263
464.8700, 2431.749
465.3521, 2441.894
465.8342, 2448.346
466.3163, 2455.211
466.7985, 2465.029
467.2806, 2480.742
467.7627, 2494.250
468.2448, 2504.117
468.7269, 2512.136
469.2090, 2520.891
469.6912, 2530.560
470.1733, 2540.874
470.6554, 2552.263
471.1375, 2564.455
471.6196, 2574.695
472.1017, 2582.606
472.5839, 2589.624
473.0660, 2596.821
473.5481, 2604.176
474.0302, 2611.227
474.5123, 2617.864
474.9944, 2624.479
475.4766, 2632.057
475.9587, 2640.374
476.4408, 2647.821
476.9229, 2653.149
477.4050, 2657.574
477.8871, 2663.403
478.3693, 2670.455
478.8514, 2676.888
479.3335, 2680.692
479.8156, 2683.478
480.2977, 2687.167
480.7798, 2692.263
481.2620, 2697.593
481.7441, 2702.975
482.2262, 2707.988
482.7083, 2712.018
483.1904, 2714.716
483.6725, 2716.460
484.1547, 2716.833
484.6368, 2715.961
485.1189, 2715.673
485.6010, 2717.057
486.0831, 2718.390
486.5652, 2718.698
487.0474, 2717.038
487.5295, 2716.394
488.0116, 2717.235
488.4937, 2718.746
488.9758, 2719.813
489.4579, 2720.335
489.9401, 2720.668
490.4222, 2720.610
490.9043, 2720.466
491.3864, 2721.835
491.8685, 2724.879
492.3506, 2728.397
492.8328, 2731.208
493.3149, 2733.699
493.7970, 2737.560
494.2791, 2742.882
494.7612, 2749.972
495.2433, 2760.045
495.7255, 2772.294
496.2076, 2784.729
496.6897, 2796.431
497.1718, 2808.253
497.6539, 2820.421
498.1360, 2833.107
498.6182, 2847.260
499.1003, 2863.356
499.5824, 2881.066
500.0645, 2900.531
500.5466, 2922.948
501.0287, 2942.896
501.5109, 2957.058
501.9930, 2968.804
502.4751, 2981.323
502.9572, 2994.930
503.4393, 3009.409
503.9214, 3025.625
504.4036, 3042.603
504.8857, 3057.641
505.3678, 3071.629
505.8499, 3082.374
506.3320, 3088.538
506.8141, 3089.864
507.2963, 3090.653
507.7784, 3090.992
508.2605, 3090.606
508.7426, 3090.189
509.2247, 3089.486
509.7068, 3084.563
510.1890, 3074.596
510.6711, 3060.297
511.1532, 3042.203
511.6353, 3020.571
512.1174, 2997.307
512.5995, 2972.526
513.0817, 2946.867
513.5638, 2921.192
514.0459, 2895.490
514.5280, 2869.142
515.0101, 2842.389
515.4922, 2814.388
515.9744, 2784.507
516.4565, 2751.447
516.9386, 2718.448
517.4207, 2685.945
517.9028, 2654.322
518.3849, 2624.190
518.8671, 2596.089
519.3492, 2569.049
519.8313, 2542.375
520.3134, 2516.343
520.7955, 2491.791
521.2776, 2469.108
521.7598, 2447.184
522.2419, 2425.593
522.7240, 2404.110
523.2061, 2383.430
523.6882, 2363.438
524.1703, 2344.336
524.6525, 2326.307
525.1346, 2309.287
525.6167, 2293.469
526.0988, 2279.524
526.5809, 2266.379
527.0630, 2251.860
527.5452, 2236.324
528.0273, 2221.436
528.5094, 2207.829
528.9915, 2195.499
529.4736, 2184.412
529.9557, 2174.541
530.4379, 2165.325
530.9200, 2156.351
531.4021, 2147.742
531.8842, 2139.545
532.3663, 2131.394
532.8484, 2124.147
533.3306, 2118.391
533.8127, 2113.653
534.2948, 2109.124
534.7769, 2105.130
535.2590, 2100.810
535.7411, 2095.882
536.2233, 2090.403
536.7054, 2084.980
537.1875, 2079.345
537.6696, 2074.460
538.1517, 2071.085
538.6339, 2069.372
539.1160, 2067.829
539.5981, 2066.431
540.0802, 2065.126
540.5623, 2063.288
541.0444, 2061.229
541.5266, 2060.783
542.0087, 2063.159
542.4908, 2066.656
542.9729, 2068.970
543.4550, 2070.260
543.9371, 2071.281
544.4193, 2071.724
544.9014, 2072.551
545.3835, 2074.917
545.8656, 2078.998
546.3477, 2082.641
546.8298, 2084.609
547.3120, 2085.989
547.7941, 2087.640
548.2762, 2089.193
548.7583, 2091.722
549.2404, 2095.714
549.7225, 2100.582
550.2047, 2105.421
550.6868, 2110.465
551.1689, 2115.035
551.6510, 2118.876
552.1331, 2122.085
552.6152, 2125.048
553.0974, 2127.729
553.5795, 2130.474
554.0616, 2133.327
554.5437, 2136.419
555.0258, 2140.611
555.5079, 2146.134
555.9901, 2151.791
556.4722, 2156.222
556.9543, 2159.945
557.4364, 2163.975
557.9185, 2168.519
558.4006, 2173.603
558.8828, 2179.366
559.3649, 2185.664
559.8470, 2192.310
560.3291, 2200.476
560.8112, 2207.732
561.2933, 2212.633
561.7755, 2215.074
562.2576, 2217.701
562.7397, 2220.160
563.2218, 2223.398
563.7039, 2228.195
564.1860, 2236.028
564.6682, 2241.508
565.1503, 2244.001
565.6324, 2245.071
566.1145, 2246.734
566.5966, 2249.163
567.0787, 2251.037
567.5609, 2251.974
568.0430, 2252.428
568.5251, 2253.093
569.0072, 2254.034
569.4893, 2255.558
569.9714, 2259.117
570.4536, 2262.785
570.9357, 2263.182
571.4178, 2260.457
571.8999, 2257.900
572.3820, 2258.115
572.8641, 2259.165
573.3463, 2259.363
573.8284, 2258.242
574.3105, 2256.628
574.7926, 2254.646
575.2747, 2252.317
575.7568, 2249.683
576.2390, 2247.199
576.7211, 2243.664
577.2032, 2238.249
577.6853, 2231.725
578.1674, 2227.142
578.6495, 2225.239
579.1317, 2223.180
579.6138, 2220.138
580.0959, 2216.033
580.5780, 2209.582
581.0601, 2200.521
581.5422, 2191.531
582.0244, 2185.056
582.5065, 2180.335
582.9886, 2175.592
583.4707, 2170.495
583.9528, 2165.503
584.4349, 2161.808
584.9171, 2158.273
585.3992, 2153.200
585.8813, 2145.102
586.3634, 2136.256
586.8455, 2126.925
587.3276, 2117.479
587.8098, 2109.335
588.2919, 2103.946
588.7740, 2098.674
589.2561, 2093.139
589.7382, 2087.357
590.2203, 2079.421
590.7025, 2068.163
591.1846, 2056.988
591.6667, 2048.331
592.1488, 2042.359
592.6309, 2036.337
593.1130, 2030.282
593.5952, 2023.711
594.0773, 2015.658
594.5594, 2006.487
595.0415, 1997.824
595.5236, 1990.244
596.0057, 1982.888
596.4879, 1974.063
596.9700, 1964.754
597.4521, 1957.356
597.9342, 1955.445
598.4163, 1953.549
598.8984, 1948.806
599.3806, 1941.273
599.8627, 1932.477
600.3448, 1921.030
600.8269, 1909.857
601.3090, 1900.260
601.7911, 1892.540
602.2733, 1885.095
602.7554, 1878.038
603.2375, 1871.100
603.7196, 1864.127
604.2017, 1857.040
604.6838, 1850.088
605.1660, 1843.159
605.6481, 1836.578
606.1302, 1831.180
606.6123, 1826.746
607.0944, 1822.249
607.5765, 1817.174
608.0587, 1811.918
608.5408, 1806.732
609.0229, 1801.682
609.5050, 1796.829
609.9871, 1792.533
610.4692, 1788.219
610.9514, 1783.495
611.4335, 1778.258
