##NAMES=Sewardite
##RRUFFID=R060720
##IDEAL CHEMISTRY=CaFe^3+^_2_(As^5+^O_4_)_2_(OH)_2_
##LOCALITY=Las Animas mine, La Mur, Sonora, Mexico
##OWNER=RRUFF
##SOURCE=Bob Jenkins
##DESCRIPTION=Aggregates of bright red granular or prismatic crystals, associated with dark red platy arseniosiderite (R150061).
##STATUS=The identification of this mineral is confirmed by single-crystal X-ray diffraction and chemical analysis.
##URL=rruff.info/R060720
##MEASURED CHEMISTRY=Ca_1.00_(Fe^3+^_1.83_Ca_0.17_)_Σ=2_(As_1.00_O_4_)_2_((OH)_1.83_(H_2_O)_0.17_)_Σ=2_
89.78320, 623.8763
90.26532, 622.7669
90.74744, 623.2136
91.22955, 625.8105
91.71167, 629.9129
92.19379, 635.3508
92.67590, 642.0399
93.15802, 646.5244
93.64014, 644.9589
94.12225, 639.1733
94.60437, 633.9798
95.08649, 630.8804
95.56860, 628.7931
96.05072, 625.6369
96.53284, 621.9138
97.01495, 618.1758
97.49707, 614.7239
97.97919, 611.5038
98.46130, 608.4596
98.94342, 605.0419
99.42554, 601.3952
99.90765, 600.4637
100.3898, 602.8823
100.8719, 606.5125
101.3540, 608.3698
101.8361, 608.3163
102.3182, 607.3451
102.8004, 605.3109
103.2825, 601.3643
103.7646, 600.1397
104.2467, 602.2750
104.7288, 606.6964
105.2109, 610.8634
105.6931, 614.2237
106.1752, 618.2265
106.6573, 623.6168
107.1394, 631.1644
107.6215, 638.7811
108.1036, 647.5092
108.5858, 656.7332
109.0679, 662.7272
109.5500, 662.2123
110.0321, 661.0103
110.5142, 662.2110
110.9963, 667.6628
111.4785, 673.3948
111.9606, 678.5902
112.4427, 683.3052
112.9248, 689.3962
113.4069, 699.0801
113.8890, 709.2359
114.3712, 717.4670
114.8533, 721.2399
115.3354, 724.8641
115.8175, 730.1512
116.2996, 737.4748
116.7817, 743.6750
117.2639, 746.6879
117.7460, 748.2524
118.2281, 750.5695
118.7102, 755.9282
119.1923, 761.2510
119.6744, 764.2204
120.1566, 764.0496
120.6387, 764.0593
121.1208, 766.5418
121.6029, 770.6727
122.0850, 774.7929
122.5671, 777.1459
123.0493, 779.4359
123.5314, 783.6598
124.0135, 790.6757
124.4956, 798.2773
124.9777, 804.5677
125.4598, 809.6650
125.9420, 813.9382
126.4241, 816.6281
126.9062, 818.7487
127.3883, 822.1459
127.8704, 827.2109
128.3525, 833.6856
128.8347, 841.6913
129.3168, 851.1868
129.7989, 860.7458
130.2810, 869.6959
130.7631, 877.8987
131.2452, 885.1966
131.7274, 891.7744
132.2095, 897.3163
132.6916, 900.5346
133.1737, 901.2232
133.6558, 901.1926
134.1379, 902.5733
134.6201, 905.3369
135.1022, 907.1313
135.5843, 907.0715
136.0664, 905.3752
136.5485, 903.7667
137.0306, 902.4684
137.5128, 900.6918
137.9949, 896.9124
138.4770, 890.5235
138.9591, 885.0441
139.4412, 881.6797
139.9233, 880.5779
140.4055, 879.9805
140.8876, 880.2545
141.3697, 880.6179
141.8518, 879.3703
142.3339, 875.1978
142.8160, 872.3572
143.2982, 872.7153
143.7803, 877.4651
144.2624, 881.5027
144.7445, 884.1435
145.2266, 886.3018
145.7087, 889.9852
146.1909, 896.1180
146.6730, 902.6843
147.1551, 909.0253
147.6372, 915.3077
148.1193, 921.0067
148.6014, 926.0820
149.0836, 930.5797
149.5657, 934.8400
150.0478, 938.7766
150.5299, 942.4580
151.0120, 945.9340
151.4941, 948.8880
151.9763, 951.9504
152.4584, 955.4250
152.9405, 959.1249
153.4226, 962.2155
153.9047, 963.6943
154.3868, 965.1454
154.8690, 967.4288
155.3511, 971.0340
155.8332, 975.0483
156.3153, 979.5192
156.7974, 984.3780
157.2795, 989.0823
157.7617, 993.1376
158.2438, 997.2120
158.7259, 1001.790
159.2080, 1006.473
159.6901, 1012.184
160.1722, 1019.307
160.6544, 1027.827
161.1365, 1037.184
161.6186, 1047.502
162.1007, 1058.365
162.5828, 1069.643
163.0649, 1082.356
163.5471, 1094.446
164.0292, 1104.868
164.5113, 1113.575
164.9934, 1121.506
165.4755, 1130.418
165.9576, 1138.500
166.4398, 1143.424
166.9219, 1144.612
167.4040, 1142.191
167.8861, 1135.772
168.3682, 1125.234
168.8503, 1112.523
169.3325, 1098.059
169.8146, 1082.279
170.2967, 1066.123
170.7788, 1049.561
171.2609, 1032.841
171.7430, 1016.031
172.2252, 998.9220
172.7073, 982.8950
173.1894, 968.6888
173.6715, 956.2706
174.1536, 946.0007
174.6357, 938.1923
175.1179, 932.3064
175.6000, 928.0082
176.0821, 925.4973
176.5642, 923.5363
177.0463, 920.6946
177.5284, 917.3536
178.0106, 914.7282
178.4927, 913.6506
178.9748, 913.6581
179.4569, 914.0430
179.9390, 914.7657
180.4211, 915.7946
180.9033, 917.1610
181.3854, 918.8476
181.8675, 920.7057
182.3496, 922.8027
182.8317, 925.0052
183.3138, 927.1159
183.7960, 929.1030
184.2781, 930.9613
184.7602, 932.6240
185.2423, 934.1100
185.7244, 935.4738
186.2065, 936.6428
186.6887, 937.6934
187.1708, 938.9918
187.6529, 940.6332
188.1350, 942.3862
188.6171, 943.5118
189.0992, 944.0497
189.5814, 945.2285
190.0635, 948.2393
190.5456, 952.8303
191.0277, 956.7695
191.5098, 959.4676
191.9919, 961.9793
192.4741, 966.7685
192.9562, 973.9122
193.4383, 981.1998
193.9204, 986.5402
194.4025, 990.1216
194.8846, 995.2562
195.3668, 1002.445
195.8489, 1011.258
196.3310, 1021.111
196.8131, 1032.171
197.2952, 1042.916
197.7773, 1052.482
198.2595, 1060.810
198.7416, 1068.464
199.2237, 1075.521
199.7058, 1081.858
200.1879, 1087.075
200.6700, 1091.243
201.1522, 1094.222
201.6343, 1095.708
202.1164, 1095.585
202.5985, 1095.288
203.0806, 1095.264
203.5627, 1095.031
204.0449, 1093.003
204.5270, 1089.021
205.0091, 1083.731
205.4912, 1077.199
205.9733, 1069.121
206.4554, 1061.642
206.9376, 1055.180
207.4197, 1049.463
207.9018, 1043.098
208.3839, 1035.794
208.8660, 1028.573
209.3481, 1022.143
209.8303, 1016.478
210.3124, 1011.644
210.7945, 1007.789
211.2766, 1004.781
211.7587, 1001.887
212.2408, 999.0112
212.7230, 996.4514
213.2051, 994.3463
213.6872, 992.6690
214.1693, 991.5131
214.6514, 990.9451
215.1335, 990.8838
215.6157, 991.0648
216.0978, 991.5618
216.5799, 992.1108
217.0620, 992.5292
217.5441, 992.7471
218.0262, 993.0305
218.5084, 993.5513
218.9905, 994.1644
219.4726, 994.1942
219.9547, 993.7169
220.4368, 992.5600
220.9189, 990.4564
221.4011, 986.8194
221.8832, 983.8721
222.3653, 982.2505
222.8474, 981.4874
223.3295, 979.1873
223.8116, 974.6208
224.2938, 969.7716
224.7759, 965.8460
225.2580, 963.2250
225.7401, 960.6761
226.2222, 958.1299
226.7043, 955.5782
227.1865, 952.7406
227.6686, 949.0485
228.1507, 945.9805
228.6328, 944.6894
229.1149, 946.4925
229.5970, 946.9154
230.0792, 945.1702
230.5613, 941.8558
231.0434, 939.2952
231.5255, 937.4835
232.0076, 936.4987
232.4897, 936.5886
232.9719, 938.5769
233.4540, 939.7563
233.9361, 939.5144
234.4182, 938.4444
234.9003, 938.7278
235.3824, 941.2977
235.8646, 943.8871
236.3467, 945.1625
236.8288, 943.7689
237.3109, 944.1262
237.7930, 946.9852
238.2751, 951.5526
238.7573, 955.3446
239.2394, 957.9724
239.7215, 960.3464
240.2036, 962.8940
240.6857, 965.7568
241.1678, 968.3870
241.6500, 970.4780
242.1321, 972.3961
242.6142, 975.2057
243.0963, 979.4127
243.5784, 983.7498
244.0605, 987.5749
244.5427, 990.4782
245.0248, 994.0333
245.5069, 998.5739
245.9890, 1003.665
246.4711, 1008.159
246.9532, 1011.413
247.4354, 1015.240
247.9175, 1020.509
248.3996, 1028.006
248.8817, 1034.502
249.3638, 1039.641
249.8459, 1044.010
250.3281, 1048.661
250.8102, 1053.714
251.2923, 1058.893
251.7744, 1064.161
252.2565, 1069.449
252.7386, 1074.954
253.2208, 1080.766
253.7029, 1086.729
254.1850, 1092.611
254.6671, 1098.037
255.1492, 1104.144
255.6313, 1111.565
256.1135, 1120.648
256.5956, 1128.370
257.0777, 1134.296
257.5598, 1139.148
258.0419, 1143.857
258.5240, 1148.454
259.0062, 1152.673
259.4883, 1156.381
259.9704, 1159.473
260.4525, 1162.676
260.9346, 1166.185
261.4167, 1169.523
261.8989, 1172.238
262.3810, 1174.496
262.8631, 1175.648
263.3452, 1175.308
263.8273, 1173.492
264.3094, 1171.948
264.7916, 1170.801
265.2737, 1169.744
265.7558, 1168.554
266.2379, 1167.384
266.7200, 1165.645
267.2021, 1163.183
267.6843, 1160.030
268.1664, 1156.315
268.6485, 1151.854
269.1306, 1147.205
269.6127, 1142.930
270.0948, 1139.152
270.5770, 1135.151
271.0591, 1130.777
271.5412, 1126.104
272.0233, 1121.558
272.5054, 1117.443
272.9875, 1112.755
273.4697, 1106.360
273.9518, 1097.754
274.4339, 1090.462
274.9160, 1085.244
275.3981, 1081.427
275.8802, 1076.806
276.3624, 1071.285
276.8445, 1065.642
277.3266, 1060.740
277.8087, 1056.732
278.2908, 1051.008
278.7729, 1042.789
279.2551, 1033.432
279.7372, 1026.488
280.2193, 1022.294
280.7014, 1018.210
281.1835, 1012.777
281.6656, 1006.011
282.1478, 998.9789
282.6299, 991.6686
283.1120, 984.2123
283.5941, 976.7198
284.0762, 969.1435
284.5583, 961.9061
285.0405, 955.3905
285.5226, 949.4728
286.0047, 942.9412
286.4868, 935.6927
286.9689, 928.1439
287.4510, 920.6912
287.9332, 913.3459
288.4153, 906.3722
288.8974, 900.5676
289.3795, 895.3211
289.8616, 888.2029
290.3438, 879.0078
290.8259, 869.3430
291.3080, 860.6537
291.7901, 852.9861
292.2722, 846.1828
292.7543, 840.7244
293.2365, 835.9326
293.7186, 830.0820
294.2007, 823.2056
294.6828, 816.3178
295.1649, 810.4792
295.6470, 805.4427
296.1292, 800.1404
296.6113, 794.1481
297.0934, 788.0128
297.5755, 782.6581
298.0576, 777.9996
298.5397, 773.3957
299.0219, 767.8231
299.5040, 761.9375
299.9861, 757.3031
300.4682, 754.4572
300.9503, 752.4889
301.4324, 750.6406
301.9146, 748.8381
302.3967, 746.6692
302.8788, 743.6651
303.3609, 740.2196
303.8430, 736.9193
304.3251, 733.8372
304.8073, 730.9281
305.2894, 727.7087
305.7715, 724.5728
306.2536, 722.3974
306.7357, 722.7806
307.2178, 723.7651
307.7000, 723.1520
308.1821, 720.6218
308.6642, 717.8708
309.1463, 715.8654
309.6284, 714.4976
310.1105, 713.5828
310.5927, 713.7094
311.0748, 713.7924
311.5569, 712.8820
312.0390, 710.9685
312.5211, 709.1437
313.0032, 707.9979
313.4854, 707.2648
313.9675, 706.6787
314.4496, 706.6052
314.9317, 706.2685
315.4138, 704.9232
315.8959, 702.8054
316.3781, 701.2784
316.8602, 701.7314
317.3423, 702.5688
317.8244, 702.5967
318.3065, 701.0046
318.7886, 699.3654
319.2708, 697.9937
319.7529, 696.9428
320.2350, 696.3648
320.7171, 696.8156
321.1992, 697.3616
321.6813, 697.5457
322.1635, 697.2250
322.6456, 696.7042
323.1277, 695.4837
323.6098, 694.1722
324.0919, 693.7913
324.5740, 695.3686
325.0562, 697.1025
325.5383, 698.6019
326.0204, 699.9838
326.5025, 700.5612
326.9846, 699.0808
327.4667, 697.2787
327.9489, 696.9940
328.4310, 700.2744
328.9131, 702.8090
329.3952, 703.5621
329.8773, 702.4754
330.3594, 702.3593
330.8416, 703.6129
331.3237, 705.5010
331.8058, 707.6016
332.2879, 710.6254
332.7700, 712.5793
333.2521, 712.7001
333.7343, 711.5383
334.2164, 711.8590
334.6985, 714.2827
335.1806, 717.1949
335.6627, 719.7009
336.1448, 721.4625
336.6270, 723.8406
337.1091, 727.1408
337.5912, 730.8387
338.0733, 733.8129
338.5554, 735.7778
339.0375, 737.8696
339.5197, 740.7002
340.0018, 744.3171
340.4839, 747.3495
340.9660, 749.6078
341.4481, 751.5722
341.9302, 753.5940
342.4124, 755.6409
342.8945, 758.3942
343.3766, 762.1774
343.8587, 766.8202
344.3408, 771.8749
344.8229, 777.3732
345.3051, 782.8821
345.7872, 788.3612
346.2693, 793.6469
346.7514, 797.5130
347.2335, 798.9294
347.7156, 799.7599
348.1978, 804.2814
348.6799, 812.2023
349.1620, 819.7889
349.6441, 823.5166
350.1262, 825.1276
350.6083, 829.0277
351.0905, 836.2126
351.5726, 844.1752
352.0547, 849.7729
352.5368, 853.7016
353.0189, 858.0715
353.5010, 864.4669
353.9832, 871.6357
354.4653, 878.1648
354.9474, 884.0463
355.4295, 889.3145
355.9116, 893.8175
356.3937, 897.7914
356.8759, 901.5316
357.3580, 905.2042
357.8401, 908.6749
358.3222, 911.5803
358.8043, 914.0826
359.2864, 916.9861
359.7686, 921.7640
360.2507, 926.6019
360.7328, 929.8165
361.2149, 930.3162
361.6970, 930.4139
362.1791, 931.2195
362.6613, 932.2933
363.1434, 932.6340
363.6255, 931.4525
364.1076, 929.8249
364.5897, 928.2579
365.0718, 926.9490
365.5540, 925.2930
366.0361, 923.0468
366.5182, 920.4480
367.0003, 917.7827
367.4824, 914.9993
367.9645, 912.2584
368.4467, 909.6559
368.9288, 907.2592
369.4109, 904.6505
369.8930, 901.7739
370.3751, 898.7572
370.8572, 895.6522
371.3394, 892.2934
371.8215, 889.2350
372.3036, 886.7943
372.7857, 884.6736
373.2678, 881.6370
373.7499, 876.9120
374.2321, 872.5652
374.7142, 869.6544
375.1963, 868.4462
375.6784, 867.4835
376.1605, 866.9091
376.6426, 866.3842
377.1248, 865.3848
377.6069, 863.8372
378.0890, 862.1522
378.5711, 860.2816
379.0532, 858.3342
379.5353, 857.2684
380.0175, 857.1453
380.4996, 857.5695
380.9817, 858.3847
381.4638, 859.5203
381.9459, 860.3376
382.4280, 860.5231
382.9102, 860.5531
383.3923, 861.4464
383.8744, 863.1307
384.3565, 864.8528
384.8386, 866.2308
385.3207, 867.2772
385.8029, 867.7325
386.2850, 867.4035
386.7671, 867.4039
387.2492, 869.5016
387.7313, 872.8342
388.2134, 875.3968
388.6956, 875.1861
389.1777, 874.4943
389.6598, 875.7946
390.1419, 878.9893
390.6240, 881.7941
391.1061, 882.8643
391.5883, 882.8416
392.0704, 882.3371
392.5525, 880.9369
393.0346, 879.9136
393.5167, 879.8510
393.9988, 880.6143
394.4810, 881.8051
394.9631, 884.0878
395.4452, 886.1418
395.9273, 887.2469
396.4094, 887.0905
396.8915, 886.7139
397.3737, 885.6561
397.8558, 884.6799
398.3379, 884.7249
398.8200, 887.6245
399.3021, 889.6716
399.7842, 889.7866
400.2664, 887.9703
400.7485, 886.8035
401.2306, 887.0324
401.7127, 887.1754
402.1948, 886.1176
402.6769, 882.6614
403.1591, 880.6710
403.6412, 880.9193
404.1233, 882.5056
404.6054, 883.3648
405.0875, 883.6198
405.5696, 882.7602
406.0518, 880.1729
406.5339, 875.7922
407.0160, 872.2905
407.4981, 869.7248
407.9802, 868.0129
408.4623, 867.4755
408.9445, 868.0887
409.4266, 868.1308
409.9087, 866.8290
410.3908, 864.9665
410.8729, 864.4555
411.3550, 865.2773
411.8372, 866.5502
412.3193, 868.3621
412.8014, 870.1091
413.2835, 869.9465
413.7656, 867.1495
414.2477, 864.3513
414.7299, 864.4700
415.2120, 866.8016
415.6941, 869.6578
416.1762, 873.1442
416.6583, 876.2142
417.1404, 877.1805
417.6226, 876.1465
418.1047, 876.2464
418.5868, 880.5284
419.0689, 886.2182
419.5510, 890.7194
420.0331, 892.6811
420.5153, 894.1797
420.9974, 895.6036
421.4795, 897.1152
421.9616, 899.0681
422.4437, 902.2224
422.9258, 905.3183
423.4080, 907.9425
423.8901, 910.2090
424.3722, 911.6480
424.8543, 911.9655
425.3364, 911.5904
425.8185, 910.8835
426.3007, 909.1608
426.7828, 908.1306
427.2649, 908.2974
427.7470, 909.4413
428.2291, 910.1727
428.7112, 910.5068
429.1934, 910.3691
429.6755, 909.5541
430.1576, 907.8416
430.6397, 906.6022
431.1218, 906.0203
431.6039, 905.6663
432.0861, 904.5168
432.5682, 902.4563
433.0503, 901.5138
433.5324, 902.9254
434.0145, 905.8895
434.4966, 907.4825
434.9788, 907.6764
435.4609, 907.6216
435.9430, 908.0861
436.4251, 909.0707
436.9072, 910.6622
437.3893, 913.0904
437.8715, 915.6131
438.3536, 917.0654
438.8357, 917.8729
439.3178, 919.2224
439.7999, 922.0843
440.2820, 925.5353
440.7642, 928.7943
441.2463, 931.8331
441.7284, 934.6481
442.2105, 937.2463
442.6926, 939.6249
443.1747, 941.7750
443.6569, 943.5217
444.1390, 945.2311
444.6211, 946.8592
445.1032, 948.5123
445.5853, 950.4506
446.0674, 953.1058
446.5496, 955.7520
447.0317, 958.1970
447.5138, 960.5548
447.9959, 962.3510
448.4780, 962.9393
448.9601, 963.4677
449.4423, 965.2072
449.9244, 969.0694
450.4065, 972.2132
450.8886, 973.9809
451.3707, 974.7243
451.8528, 975.9553
452.3350, 977.6975
452.8171, 979.8609
453.2992, 982.9387
453.7813, 986.9590
454.2634, 988.5768
454.7455, 987.0428
455.2277, 985.2621
455.7098, 987.4132
456.1919, 992.9625
456.6740, 998.6066
457.1561, 1003.737
457.6382, 1007.808
458.1204, 1009.224
458.6025, 1008.273
459.0846, 1006.924
459.5667, 1006.342
460.0488, 1006.233
460.5309, 1006.173
461.0131, 1006.063
461.4952, 1006.232
461.9773, 1006.926
462.4594, 1008.043
462.9415, 1009.442
463.4236, 1011.867
463.9058, 1013.798
464.3879, 1014.067
464.8700, 1012.907
465.3521, 1012.609
465.8342, 1015.675
466.3163, 1018.323
466.7985, 1018.205
467.2806, 1012.362
467.7627, 1008.902
468.2448, 1009.570
468.7269, 1012.020
469.2090, 1012.979
469.6912, 1011.991
470.1733, 1010.316
470.6554, 1008.045
471.1375, 1005.253
471.6196, 1002.670
472.1017, 1000.290
472.5839, 998.1136
473.0660, 995.9409
473.5481, 993.7776
474.0302, 992.6706
474.5123, 993.0196
474.9944, 993.6074
475.4766, 992.3041
475.9587, 989.4339
476.4408, 987.0059
476.9229, 986.0425
477.4050, 985.9171
477.8871, 985.9058
478.3693, 985.9566
478.8514, 985.5212
479.3335, 984.0182
479.8156, 981.8890
480.2977, 979.5693
480.7798, 977.0125
481.2620, 974.7025
481.7441, 973.2063
482.2262, 972.0590
482.7083, 970.5791
483.1904, 968.1617
483.6725, 965.7000
484.1547, 963.2200
484.6368, 960.8029
485.1189, 959.3339
485.6010, 960.0423
486.0831, 960.8520
486.5652, 960.6770
487.0474, 958.8845
487.5295, 957.5099
488.0116, 957.1047
488.4937, 956.7238
488.9758, 954.7151
489.4579, 950.1803
489.9401, 946.8186
490.4222, 945.8392
490.9043, 946.6674
491.3864, 946.6279
491.8685, 945.6553
492.3506, 944.2395
492.8328, 942.3464
493.3149, 940.2120
493.7970, 938.9847
494.2791, 938.8492
494.7612, 939.1425
495.2433, 939.2234
495.7255, 939.1472
496.2076, 939.0526
496.6897, 939.0638
497.1718, 939.0232
497.6539, 938.4976
498.1360, 937.7086
498.6182, 937.4982
499.1003, 938.7933
499.5824, 940.5027
500.0645, 941.8835
500.5466, 942.8419
501.0287, 943.5663
501.5109, 943.4817
501.9930, 943.4611
502.4751, 944.3810
502.9572, 948.3896
503.4393, 950.8551
503.9214, 950.3519
504.4036, 947.8729
504.8857, 946.9531
505.3678, 948.4050
505.8499, 950.0191
506.3320, 951.0458
506.8141, 951.5001
507.2963, 951.0577
507.7784, 949.4568
508.2605, 947.6504
508.7426, 946.8709
509.2247, 947.0033
509.7068, 946.2985
510.1890, 944.4089
510.6711, 941.5862
511.1532, 937.8646
511.6353, 933.4318
512.1174, 929.3132
512.5995, 926.5716
513.0817, 924.0992
513.5638, 920.4388
514.0459, 915.6034
514.5280, 910.6066
515.0101, 906.3000
515.4922, 902.0134
515.9744, 896.9988
516.4565, 890.1365
516.9386, 884.3995
517.4207, 881.5427
517.9028, 880.2814
518.3849, 878.5052
518.8671, 876.1627
519.3492, 872.9348
519.8313, 868.0912
520.3134, 861.8713
520.7955, 857.3906
521.2776, 855.5208
521.7598, 854.0756
522.2419, 851.6762
522.7240, 847.9114
523.2061, 845.4945
523.6882, 844.9000
524.1703, 844.7021
524.6525, 842.7352
525.1346, 839.1328
525.6167, 836.0986
526.0988, 834.3324
526.5809, 833.4088
527.0630, 832.8925
527.5452, 832.6813
528.0273, 832.1533
528.5094, 830.3214
528.9915, 828.2986
529.4736, 827.5578
529.9557, 828.2468
530.4379, 828.8107
530.9200, 828.2999
531.4021, 827.1995
531.8842, 825.9132
532.3663, 823.5811
532.8484, 822.4266
533.3306, 824.2027
533.8127, 827.4451
534.2948, 829.0099
534.7769, 826.8215
535.2590, 825.0634
535.7411, 824.7421
536.2233, 825.8214
536.7054, 827.0130
537.1875, 828.4111
537.6696, 829.7542
538.1517, 830.8527
538.6339, 831.6806
539.1160, 832.5588
539.5981, 833.4520
540.0802, 834.5571
540.5623, 836.2551
541.0444, 838.4615
541.5266, 840.7581
542.0087, 843.1335
542.4908, 845.3831
542.9729, 847.1143
543.4550, 848.3926
543.9371, 849.5560
544.4193, 850.3338
544.9014, 851.3860
545.3835, 853.3944
545.8656, 856.4510
546.3477, 859.6043
546.8298, 862.6511
547.3120, 865.5598
547.7941, 868.2811
548.2762, 870.7836
548.7583, 873.1498
549.2404, 875.4481
549.7225, 877.5919
550.2047, 879.3770
550.6868, 880.4633
551.1689, 881.8661
551.6510, 883.9212
552.1331, 886.5197
552.6152, 888.7770
553.0974, 890.5733
553.5795, 892.6802
554.0616, 896.0821
554.5437, 900.4239
555.0258, 903.2989
555.5079, 904.4166
555.9901, 905.3972
556.4722, 908.0068
556.9543, 911.7562
557.4364, 915.6238
557.9185, 919.3008
558.4006, 923.0341
558.8828, 927.4028
559.3649, 931.9817
559.8470, 935.8996
560.3291, 937.9885
560.8112, 940.0287
561.2933, 942.8489
561.7755, 946.4768
562.2576, 950.1546
562.7397, 953.6052
563.2218, 957.1578
563.7039, 961.1111
564.1860, 966.0595
564.6682, 969.8438
565.1503, 972.2232
565.6324, 973.8166
566.1145, 975.1447
566.5966, 976.1309
567.0787, 977.9434
567.5609, 981.0805
568.0430, 984.9182
568.5251, 988.1351
569.0072, 990.7943
569.4893, 993.0889
569.9714, 995.2242
570.4536, 997.0446
570.9357, 997.8732
571.4178, 997.8117
571.8999, 998.5778
572.3820, 1002.586
572.8641, 1007.159
573.3463, 1009.858
573.8284, 1009.899
574.3105, 1009.042
574.7926, 1006.793
575.2747, 1004.289
575.7568, 1002.995
576.2390, 1004.320
576.7211, 1005.063
577.2032, 1004.494
577.6853, 1003.118
578.1674, 1002.876
578.6495, 1004.320
579.1317, 1005.282
579.6138, 1004.698
580.0959, 1002.771
580.5780, 1001.175
581.0601, 999.9280
581.5422, 998.7239
582.0244, 997.3920
582.5065, 995.8952
