##NAMES=Sewardite
##RRUFFID=R141206
##IDEAL CHEMISTRY=CaFe^3+^_2_(As^5+^O_4_)_2_(OH)_2_
##LOCALITY=Tsumeb, Namibia
##OWNER=RRUFF
##SOURCE=Shields Flynn
##DESCRIPTION=Reddish crystalline massive in scorodite
##STATUS=The identification of this mineral has been confirmed only by single crystal X-ray diffraction.
##URL=rruff.info/R141206
95.89898, 1230.547
96.38110, 1243.334
96.86321, 1254.355
97.34533, 1263.130
97.82745, 1267.238
98.30956, 1269.749
98.79168, 1270.525
99.27380, 1271.200
99.75591, 1271.955
100.2380, 1272.623
100.7201, 1273.052
101.2023, 1273.198
101.6844, 1272.897
102.1665, 1271.936
102.6486, 1269.143
103.1307, 1266.276
103.6128, 1265.159
104.0950, 1265.999
104.5771, 1267.040
105.0592, 1266.550
105.5413, 1265.151
106.0234, 1263.796
106.5055, 1262.592
106.9877, 1261.634
107.4698, 1261.594
107.9519, 1263.746
108.4340, 1265.057
108.9161, 1263.722
109.3982, 1260.455
109.8804, 1257.064
110.3625, 1255.068
110.8446, 1254.592
111.3267, 1254.859
111.8088, 1256.534
112.2909, 1258.326
112.7731, 1259.784
113.2552, 1260.760
113.7373, 1261.242
114.2194, 1261.170
114.7015, 1259.955
115.1836, 1259.217
115.6658, 1259.700
116.1479, 1260.301
116.6300, 1259.761
117.1121, 1257.582
117.5942, 1254.551
118.0763, 1252.600
118.5584, 1252.167
119.0406, 1251.599
119.5227, 1250.147
120.0048, 1248.146
120.4869, 1246.578
120.9690, 1246.093
121.4511, 1246.138
121.9333, 1245.515
122.4154, 1243.922
122.8975, 1242.155
123.3796, 1240.885
123.8617, 1240.132
124.3438, 1239.582
124.8260, 1239.411
125.3081, 1239.246
125.7902, 1238.610
126.2723, 1237.107
126.7544, 1235.332
127.2365, 1234.697
127.7187, 1235.768
128.2008, 1237.138
128.6829, 1238.326
129.1650, 1239.507
129.6471, 1241.017
130.1292, 1243.201
130.6114, 1245.952
131.0935, 1247.581
131.5756, 1247.162
132.0577, 1246.461
132.5398, 1245.761
133.0219, 1245.115
133.5041, 1244.497
133.9862, 1243.870
134.4683, 1243.210
134.9504, 1242.717
135.4325, 1242.826
135.9146, 1242.731
136.3968, 1242.285
136.8789, 1241.360
137.3610, 1239.376
137.8431, 1235.311
138.3252, 1228.467
138.8073, 1223.156
139.2895, 1219.816
139.7716, 1218.021
140.2537, 1217.530
140.7358, 1218.459
141.2179, 1220.050
141.7000, 1220.809
142.1821, 1220.734
142.6643, 1222.421
143.1464, 1227.073
143.6285, 1234.378
144.1106, 1243.226
144.5927, 1253.450
145.0748, 1265.349
145.5570, 1278.835
146.0391, 1293.887
146.5212, 1310.319
147.0033, 1328.361
147.4854, 1348.217
147.9675, 1367.942
148.4497, 1388.774
148.9318, 1408.480
149.4139, 1425.952
149.8960, 1440.844
150.3781, 1453.391
150.8602, 1464.072
151.3424, 1474.125
151.8245, 1479.165
152.3066, 1478.611
152.7887, 1474.246
153.2708, 1466.941
153.7529, 1457.138
154.2351, 1445.396
154.7172, 1433.061
155.1993, 1418.610
155.6814, 1405.519
156.1635, 1393.857
156.6456, 1383.624
157.1278, 1374.868
157.6099, 1367.594
158.0920, 1361.813
158.5741, 1357.783
159.0562, 1356.525
159.5383, 1355.558
160.0205, 1353.581
160.5026, 1351.394
160.9847, 1350.891
161.4668, 1353.240
161.9489, 1358.197
162.4310, 1363.849
162.9131, 1370.418
163.3953, 1377.363
163.8774, 1384.752
164.3595, 1392.496
164.8416, 1399.547
165.3237, 1405.241
165.8058, 1409.688
166.2880, 1413.395
166.7701, 1416.718
167.2522, 1419.096
167.7343, 1420.364
168.2164, 1420.887
168.6985, 1418.544
169.1807, 1411.301
169.6628, 1400.694
170.1449, 1387.985
170.6270, 1373.637
171.1091, 1357.522
171.5912, 1339.252
172.0734, 1318.400
172.5555, 1295.915
173.0376, 1270.828
173.5197, 1244.761
174.0018, 1219.768
174.4839, 1196.957
174.9661, 1176.296
175.4482, 1157.912
175.9303, 1142.158
176.4124, 1128.721
176.8945, 1117.260
177.3766, 1107.975
177.8588, 1101.369
178.3409, 1097.849
178.8230, 1097.428
179.3051, 1098.802
179.7872, 1101.876
180.2693, 1106.791
180.7515, 1113.815
181.2336, 1122.801
181.7157, 1133.443
182.1978, 1145.643
182.6799, 1159.598
183.1620, 1173.154
183.6441, 1185.471
184.1263, 1198.185
184.6084, 1212.799
185.0905, 1228.896
185.5726, 1244.468
186.0547, 1257.841
186.5368, 1268.759
187.0190, 1276.636
187.5011, 1280.609
187.9832, 1282.291
188.4653, 1283.089
188.9474, 1283.109
189.4296, 1281.069
189.9117, 1275.607
190.3938, 1266.626
190.8759, 1255.106
191.3580, 1240.472
191.8401, 1223.690
192.3223, 1205.344
192.8044, 1185.236
193.2865, 1164.759
193.7686, 1144.897
194.2507, 1125.595
194.7328, 1107.206
195.2150, 1089.257
195.6971, 1072.320
196.1792, 1057.652
196.6613, 1045.854
197.1434, 1035.334
197.6255, 1024.611
198.1077, 1013.980
198.5898, 1004.614
199.0719, 997.2424
199.5540, 991.6158
200.0361, 986.8796
200.5182, 983.6855
201.0004, 980.4457
201.4825, 976.1983
201.9646, 971.2428
202.4467, 966.3905
202.9288, 962.3815
203.4109, 959.1318
203.8930, 955.2887
204.3752, 950.8073
204.8573, 945.6984
205.3394, 939.8448
205.8215, 933.4067
206.3036, 926.6463
206.7857, 919.6819
207.2679, 912.4747
207.7500, 905.8432
208.2321, 900.3873
208.7142, 894.9844
209.1963, 888.8033
209.6784, 882.2983
210.1606, 876.7268
210.6427, 873.4141
211.1248, 872.7668
211.6069, 870.8944
212.0890, 866.0120
212.5711, 861.6736
213.0533, 859.4516
213.5354, 859.1288
214.0175, 859.4923
214.4996, 859.4338
214.9817, 858.8067
215.4638, 858.8561
215.9460, 860.0207
216.4281, 861.3113
216.9102, 862.1337
217.3923, 862.5624
217.8744, 863.1205
218.3565, 864.2532
218.8387, 866.0170
219.3208, 868.2479
219.8029, 870.9066
220.2850, 873.9998
220.7671, 877.6789
221.2492, 881.8829
221.7314, 886.2594
222.2135, 890.5703
222.6956, 894.7912
223.1777, 898.7236
223.6598, 901.7830
224.1419, 904.9830
224.6240, 909.1681
225.1062, 914.3609
225.5883, 919.8453
226.0704, 925.1634
226.5525, 930.2792
227.0346, 935.2083
227.5167, 939.4148
227.9989, 943.7625
228.4810, 949.0516
228.9631, 955.3243
229.4452, 962.0427
229.9273, 969.1003
230.4094, 976.2728
230.8916, 982.9762
231.3737, 988.5498
231.8558, 993.8981
232.3379, 1000.453
232.8200, 1008.501
233.3021, 1015.719
233.7843, 1019.616
234.2664, 1021.898
234.7485, 1025.192
235.2306, 1030.804
235.7127, 1037.157
236.1948, 1042.293
236.6770, 1046.204
237.1591, 1049.015
237.6412, 1050.416
238.1233, 1050.878
238.6054, 1050.748
239.0875, 1050.022
239.5697, 1048.908
240.0518, 1047.646
240.5339, 1046.109
241.0160, 1044.825
241.4981, 1043.927
241.9802, 1043.394
242.4624, 1043.330
242.9445, 1043.844
243.4266, 1044.599
243.9087, 1044.945
244.3908, 1044.636
244.8729, 1044.588
245.3550, 1045.296
245.8372, 1046.218
246.3193, 1046.864
246.8014, 1047.055
247.2835, 1047.063
247.7656, 1047.441
248.2477, 1048.517
248.7299, 1049.143
249.2120, 1049.125
249.6941, 1048.645
250.1762, 1047.569
250.6583, 1045.898
251.1404, 1044.266
251.6226, 1043.796
252.1047, 1044.993
252.5868, 1046.275
253.0689, 1047.522
253.5510, 1048.776
254.0331, 1049.868
254.5153, 1050.833
254.9974, 1052.147
255.4795, 1054.599
255.9616, 1058.605
256.4437, 1062.940
256.9258, 1067.645
257.4080, 1072.546
257.8901, 1077.481
258.3722, 1082.448
258.8543, 1087.679
259.3364, 1093.533
259.8185, 1100.326
260.3007, 1106.973
260.7828, 1113.449
261.2649, 1119.886
261.7470, 1126.645
262.2291, 1133.616
262.7112, 1140.055
263.1934, 1145.154
263.6755, 1148.729
264.1576, 1151.421
264.6397, 1152.790
265.1218, 1153.822
265.6039, 1155.284
266.0861, 1157.040
266.5682, 1158.292
267.0503, 1158.274
267.5324, 1156.902
268.0145, 1154.518
268.4966, 1151.858
268.9788, 1147.791
269.4609, 1141.040
269.9430, 1132.170
270.4251, 1123.148
270.9072, 1115.643
271.3893, 1109.789
271.8715, 1102.843
272.3536, 1094.515
272.8357, 1085.663
273.3178, 1076.174
273.7999, 1066.409
274.2820, 1057.272
274.7642, 1049.431
275.2463, 1042.763
275.7284, 1035.956
276.2105, 1029.044
276.6926, 1021.973
277.1747, 1014.096
277.6568, 1005.996
278.1389, 999.2275
278.6211, 994.8788
279.1032, 992.1432
279.5853, 987.4028
280.0674, 978.4074
280.5495, 970.4467
281.0316, 965.5145
281.5138, 962.4244
281.9959, 959.0824
282.4780, 954.5837
282.9601, 949.3760
283.4422, 944.6934
283.9243, 940.6941
284.4065, 936.7895
284.8886, 932.8741
285.3707, 928.9827
285.8528, 925.1240
286.3349, 921.2767
286.8170, 917.5791
287.2992, 914.2758
287.7813, 911.4700
288.2634, 908.7015
288.7455, 905.9645
289.2276, 903.2175
289.7097, 900.3978
290.1919, 897.4846
290.6740, 894.6068
291.1561, 891.9308
291.6382, 889.5096
292.1203, 886.9237
292.6024, 884.0663
293.0846, 881.0605
293.5667, 877.7853
294.0488, 874.2346
294.5309, 871.1556
295.0130, 869.2851
295.4951, 868.6985
295.9773, 868.4149
296.4594, 868.7446
296.9415, 869.1142
297.4236, 869.3307
297.9057, 869.3088
298.3878, 868.4661
298.8700, 866.1568
299.3521, 862.5850
299.8342, 859.4762
300.3163, 857.0172
300.7984, 854.8558
301.2805, 852.8994
301.7627, 851.0989
302.2448, 849.2665
302.7269, 847.4159
303.2090, 845.3506
303.6911, 842.5494
304.1732, 838.7675
304.6554, 834.7404
305.1375, 830.9053
305.6196, 827.0869
306.1017, 822.8583
306.5838, 818.1111
307.0659, 812.7952
307.5481, 806.6624
308.0302, 799.4924
308.5123, 792.5738
308.9944, 786.7232
309.4765, 781.3231
309.9586, 775.1983
310.4408, 767.9301
310.9229, 760.5169
311.4050, 754.4950
311.8871, 749.8572
312.3692, 745.1647
312.8513, 739.9531
313.3335, 734.6276
313.8156, 729.4788
314.2977, 724.5430
314.7798, 720.2116
315.2619, 717.2778
315.7440, 715.5636
316.2262, 712.6149
316.7083, 707.0637
317.1904, 701.0297
317.6725, 696.1356
318.1546, 692.4104
318.6367, 689.3905
319.1188, 686.8939
319.6010, 684.8901
320.0831, 682.9826
320.5652, 681.4435
321.0473, 679.7242
321.5294, 677.2673
322.0115, 674.3192
322.4937, 671.7680
322.9758, 670.1647
323.4579, 669.0710
323.9400, 667.3652
324.4221, 664.7351
324.9042, 662.2784
325.3864, 660.5632
325.8685, 659.2585
326.3506, 657.6540
326.8327, 655.4641
327.3148, 653.1459
327.7969, 651.4109
328.2791, 650.2762
328.7612, 649.4103
329.2433, 649.3636
329.7254, 649.2799
330.2075, 647.7162
330.6896, 644.4232
331.1718, 641.3701
331.6539, 640.8292
332.1360, 643.0472
332.6181, 643.9750
333.1002, 642.3143
333.5823, 640.2112
334.0645, 639.1242
334.5466, 639.0904
335.0287, 639.5573
335.5108, 640.2357
335.9929, 641.0956
336.4750, 641.8793
336.9572, 642.2946
337.4393, 642.9442
337.9214, 644.4371
338.4035, 646.3718
338.8856, 647.7226
339.3677, 647.9495
339.8499, 647.4547
340.3320, 647.2851
340.8141, 647.3782
341.2962, 647.8273
341.7783, 648.6840
342.2604, 649.8955
342.7426, 651.5165
343.2247, 653.5582
343.7068, 655.6636
344.1889, 657.2949
344.6710, 658.1648
345.1531, 659.4142
345.6353, 660.6592
346.1174, 662.5505
346.5995, 666.0818
347.0816, 671.0516
347.5637, 675.9034
348.0458, 679.0640
348.5280, 680.4183
349.0101, 682.9539
349.4922, 687.3179
349.9743, 691.9893
350.4564, 696.0741
350.9385, 699.9177
351.4207, 704.3993
351.9028, 710.0080
352.3849, 716.6285
352.8670, 723.8887
353.3491, 731.9963
353.8312, 740.4607
354.3134, 749.1771
354.7955, 758.2264
355.2776, 767.8000
355.7597, 777.9492
356.2418, 788.4817
356.7239, 799.1217
357.2061, 809.5092
357.6882, 820.8542
358.1703, 834.1622
358.6524, 847.5964
359.1345, 860.2449
359.6166, 871.8453
360.0987, 881.9965
360.5808, 890.1964
361.0630, 896.1896
361.5451, 902.6634
362.0272, 910.9061
362.5093, 918.2510
362.9914, 923.5604
363.4735, 927.3455
363.9557, 930.6158
364.4378, 934.0237
364.9199, 937.3205
365.4020, 939.4199
365.8841, 939.6222
366.3662, 939.4749
366.8484, 938.8011
367.3305, 938.0722
367.8126, 937.8586
368.2947, 938.3069
368.7768, 938.9094
369.2589, 938.8914
369.7411, 938.1459
370.2232, 937.0309
370.7053, 935.7069
371.1874, 933.9217
371.6695, 931.3823
372.1516, 928.1855
372.6338, 924.6876
373.1159, 921.1771
373.5980, 917.6583
374.0801, 914.1276
374.5622, 910.8567
375.0443, 907.1865
375.5265, 902.7078
376.0086, 897.7540
376.4907, 892.8314
376.9728, 888.1159
377.4549, 883.6579
377.9370, 879.4986
378.4192, 875.5381
378.9013, 872.1857
379.3834, 869.9669
379.8655, 868.1389
380.3476, 865.9822
380.8297, 863.3689
381.3119, 861.1462
381.7940, 860.5009
382.2761, 861.3918
382.7582, 861.6681
383.2403, 860.4792
383.7224, 859.3146
384.2046, 859.4459
384.6867, 860.5118
385.1688, 861.1813
385.6509, 860.1301
386.1330, 858.2877
386.6151, 857.8855
387.0973, 859.2225
387.5794, 860.9265
388.0615, 862.7260
388.5436, 864.2610
389.0257, 864.9107
389.5078, 864.3381
389.9900, 863.2448
390.4721, 862.3850
390.9542, 861.6447
391.4363, 860.0657
391.9184, 856.9476
392.4005, 853.3222
392.8827, 850.7241
393.3648, 849.2309
393.8469, 847.5621
394.3290, 845.3085
394.8111, 842.5519
395.2932, 839.2852
395.7754, 835.4293
396.2575, 831.6428
396.7396, 828.5470
397.2217, 826.0960
397.7038, 823.4709
398.1859, 820.6177
398.6681, 817.5734
399.1501, 814.4387
399.6323, 811.1475
400.1144, 807.3876
400.5965, 802.9051
401.0786, 798.0104
401.5607, 793.7125
402.0428, 790.5030
402.5250, 786.9144
403.0071, 782.6940
403.4892, 777.9525
403.9713, 772.6393
404.4534, 766.8144
404.9355, 760.9908
405.4177, 755.8425
405.8998, 751.6600
406.3819, 746.8144
406.8640, 740.7546
407.3461, 734.6703
407.8282, 729.0247
408.3104, 723.8223
408.7925, 719.0159
409.2746, 714.5889
409.7567, 710.3594
410.2388, 705.3785
410.7209, 698.1996
411.2031, 692.1902
411.6852, 687.9729
412.1673, 684.8246
412.6494, 682.2183
413.1315, 679.9432
413.6136, 677.8117
414.0958, 675.4799
414.5779, 672.7054
415.0600, 670.6773
415.5421, 670.2957
416.0242, 669.8513
416.5063, 668.3289
416.9885, 666.1888
417.4706, 664.6678
417.9527, 664.6803
418.4348, 665.7593
418.9169, 666.2267
419.3990, 665.6556
419.8812, 665.4250
420.3633, 666.3268
420.8454, 667.5405
421.3275, 668.2517
421.8096, 668.2516
422.2917, 668.1316
422.7739, 668.4534
423.2560, 669.2031
423.7381, 670.1238
424.2202, 671.0992
424.7023, 672.3591
425.1844, 674.1556
425.6666, 676.3700
426.1487, 678.5993
426.6308, 681.0099
427.1129, 683.1894
427.5950, 684.3422
428.0771, 684.4193
428.5593, 684.4258
429.0414, 684.8987
429.5235, 685.6402
430.0056, 686.1290
430.4877, 686.1368
430.9698, 686.4223
431.4520, 688.5490
431.9341, 691.0447
432.4162, 690.4696
432.8983, 685.7161
433.3804, 679.6891
433.8625, 675.7401
434.3447, 674.2194
434.8268, 672.2243
435.3089, 669.0745
435.7910, 665.9186
436.2731, 663.7909
436.7552, 662.3890
437.2374, 660.4562
437.7195, 657.1391
438.2016, 652.9938
438.6837, 650.2097
439.1658, 650.2208
439.6479, 649.7711
440.1301, 648.1475
440.6122, 646.2596
441.0943, 645.0593
441.5764, 644.6926
442.0585, 644.5019
442.5406, 643.6089
443.0227, 641.7439
443.5049, 641.1617
443.9870, 643.2797
444.4691, 645.2337
444.9512, 646.2634
445.4333, 646.5081
445.9154, 646.1949
446.3976, 645.3701
446.8797, 644.3835
447.3618, 644.0897
447.8439, 644.7797
448.3260, 645.2895
448.8081, 645.0504
449.2903, 644.8239
449.7724, 645.2068
450.2545, 646.1698
450.7366, 647.0964
451.2187, 647.4709
451.7008, 647.4075
452.1830, 647.2855
452.6651, 646.9164
453.1472, 646.9741
453.6293, 648.3319
454.1114, 650.2549
454.5935, 651.7072
455.0757, 652.3731
455.5578, 652.7040
456.0399, 652.8889
456.5220, 653.0067
457.0041, 653.3876
457.4862, 654.0984
457.9684, 655.1664
458.4505, 656.7713
458.9326, 658.9009
459.4147, 660.9754
459.8968, 662.6805
460.3789, 664.4404
460.8611, 666.4930
461.3432, 668.9085
461.8253, 671.9549
462.3074, 675.9554
462.7895, 680.5817
463.2716, 684.5476
463.7538, 687.5457
464.2359, 690.3448
464.7180, 692.8701
465.2001, 695.3497
465.6822, 697.8719
466.1643, 700.5287
466.6465, 703.6028
467.1286, 707.4844
467.6107, 712.3340
468.0928, 716.7016
468.5749, 720.3977
469.0570, 723.7914
469.5392, 726.5993
470.0213, 729.2529
470.5034, 732.4774
470.9855, 736.6258
471.4676, 740.9854
471.9497, 744.3499
472.4319, 746.6509
472.9140, 748.2379
473.3961, 748.3654
473.8782, 748.4440
474.3603, 749.5326
474.8424, 751.3755
475.3246, 752.7918
475.8067, 752.6813
476.2888, 751.8114
476.7709, 752.0430
477.2530, 753.5980
477.7351, 754.8626
478.2173, 755.0341
478.6994, 754.4653
479.1815, 753.7330
479.6636, 752.8269
480.1457, 751.8760
480.6278, 750.7902
481.1100, 749.7385
481.5920, 749.1375
482.0742, 749.0790
482.5563, 749.0222
483.0384, 748.5526
483.5205, 747.6339
484.0026, 746.2258
484.4847, 743.8333
484.9669, 741.5186
485.4490, 739.9070
485.9311, 738.6131
486.4132, 736.8837
486.8953, 734.4362
487.3774, 731.7271
487.8596, 729.5635
488.3417, 728.2867
488.8238, 726.5707
489.3059, 724.1199
489.7880, 721.5977
490.2701, 719.2449
490.7523, 717.0955
491.2344, 715.1360
491.7165, 713.3620
492.1986, 711.7912
492.6807, 710.4642
493.1628, 709.3732
493.6450, 708.5640
494.1271, 708.1857
494.6092, 708.0059
495.0913, 707.7558
495.5734, 707.4817
496.0555, 707.6531
496.5377, 708.5158
497.0198, 710.0739
497.5019, 712.5967
497.9840, 716.3541
498.4661, 719.7774
498.9482, 721.3729
499.4304, 722.3740
499.9125, 725.0589
500.3946, 729.7823
500.8767, 735.6161
501.3588, 742.5475
501.8409, 750.1940
502.3231, 758.0076
502.8052, 765.8597
503.2873, 773.7973
503.7694, 781.7457
504.2515, 789.7628
504.7336, 798.5970
505.2158, 808.5524
505.6979, 818.8759
506.1800, 829.4998
506.6621, 840.2738
507.1442, 851.0120
507.6263, 861.6360
508.1085, 871.9919
508.5906, 881.7723
509.0727, 890.9221
509.5548, 899.7133
510.0369, 909.3920
510.5190, 917.4228
511.0012, 922.5425
511.4833, 925.3427
511.9654, 927.1444
512.4475, 928.7233
512.9296, 929.2178
513.4117, 926.9308
513.8939, 921.6409
514.3760, 915.2961
514.8581, 909.1118
515.3402, 900.9666
515.8223, 888.8567
516.3044, 873.2122
516.7866, 856.9583
517.2687, 841.1398
517.7508, 825.4080
518.2329, 809.0289
518.7150, 792.0832
519.1971, 775.6857
519.6793, 760.3654
520.1614, 745.8787
520.6435, 732.1237
521.1256, 719.3110
521.6077, 706.2834
522.0898, 692.0799
522.5720, 678.1694
523.0541, 666.0936
523.5362, 655.8015
524.0183, 646.0391
524.5004, 635.9329
524.9825, 625.7188
525.4647, 616.3760
525.9468, 608.3204
526.4289, 600.7352
526.9110, 593.5865
527.3931, 586.7851
527.8752, 580.4514
528.3574, 574.4934
528.8395, 568.4680
529.3216, 561.7516
529.8037, 554.6022
530.2858, 548.5979
530.7679, 544.1239
531.2501, 539.9472
531.7322, 535.5426
532.2143, 531.1761
532.6964, 527.0315
533.1785, 523.1174
533.6606, 519.6009
534.1428, 516.8763
534.6249, 514.5598
535.1070, 511.6224
535.5891, 507.8684
536.0712, 504.3798
536.5533, 502.0674
537.0355, 500.7495
537.5176, 499.2146
537.9997, 497.3942
538.4818, 495.4584
538.9639, 493.5309
539.4460, 491.4716
539.9282, 488.8913
540.4103, 485.8138
540.8924, 482.9155
541.3745, 480.9114
541.8566, 479.8141
542.3387, 479.1820
542.8209, 479.8847
543.3029, 480.0094
543.7850, 478.8433
544.2672, 477.0652
544.7493, 475.2585
545.2314, 473.6223
545.7135, 472.4706
546.1956, 472.5735
546.6777, 473.7560
547.1599, 473.8140
547.6420, 472.2004
548.1241, 470.3833
548.6062, 469.1618
549.0883, 468.3675
549.5704, 467.7367
550.0526, 467.1157
550.5347, 466.9015
551.0168, 467.7295
551.4989, 469.0757
551.9810, 469.8130
552.4631, 469.6996
552.9453, 469.2357
553.4274, 468.8225
553.9095, 468.4591
554.3916, 468.3272
554.8737, 468.4683
555.3558, 468.7494
555.8380, 469.1998
556.3201, 469.7403
556.8022, 470.2111
557.2843, 470.6019
557.7664, 471.1485
558.2485, 472.2349
558.7307, 473.8925
559.2128, 475.0047
559.6949, 475.0931
560.1770, 475.3036
560.6591, 476.0495
561.1412, 477.1049
561.6234, 478.2299
562.1055, 479.3685
562.5876, 480.5074
563.0697, 481.8327
563.5518, 483.1622
564.0339, 483.7267
564.5161, 483.2858
564.9982, 482.8628
565.4803, 483.1332
565.9624, 484.0499
566.4445, 485.2140
566.9266, 486.7339
567.4088, 488.3416
567.8909, 490.1422
568.3730, 491.8863
568.8551, 493.1830
569.3372, 494.0052
569.8193, 494.7769
570.3015, 495.9047
570.7836, 497.3607
571.2657, 498.5321
571.7478, 499.2270
572.2299, 499.8804
572.7120, 500.2632
573.1942, 500.8206
573.6763, 502.1057
574.1584, 504.1308
574.6405, 506.2193
575.1226, 507.9602
575.6047, 509.2986
576.0869, 509.8829
576.5690, 509.5395
577.0511, 509.1520
577.5332, 509.0323
578.0153, 509.1823
578.4974, 509.5485
578.9796, 510.1107
579.4617, 510.9796
579.9438, 512.5625
580.4259, 514.2585
580.9080, 515.4918
581.3901, 516.1829
581.8723, 516.2527
582.3544, 515.5436
582.8365, 514.3832
583.3186, 513.8861
583.8007, 514.5983
584.2828, 515.1743
584.7650, 516.1318
585.2471, 516.5126
585.7292, 515.1616
586.2113, 512.6083
586.6934, 510.5558
587.1755, 510.1722
587.6577, 510.7584
588.1398, 510.7470
588.6219, 510.0637
589.1040, 509.2722
589.5861, 508.4379
590.0682, 507.6057
590.5504, 506.8433
591.0325, 506.1343
591.5146, 505.3791
591.9967, 504.4538
592.4788, 503.5505
592.9609, 502.9845
593.4431, 502.5943
593.9252, 501.8261
